%OpenBCI Raw EXG Data
%Number of channels = 16
%Sample Rate = 125 Hz
%Board = OpenBCI_GUI$BoardCytonSerialDaisy
Sample Index, EXG Channel 0, EXG Channel 1, EXG Channel 2, EXG Channel 3, EXG Channel 4, EXG Channel 5, EXG Channel 6, EXG Channel 7, EXG Channel 8, EXG Channel 9, EXG Channel 10, EXG Channel 11, EXG Channel 12, EXG Channel 13, EXG Channel 14, EXG Channel 15, Accel Channel 0, Accel Channel 1, Accel Channel 2, Other, Other, Other, Other, Other, Other, Other, Analog Channel 0, Analog Channel 1, Analog Channel 2, Timestamp, Other, Timestamp (Formatted)
0.0, 50425.78136036174, -187500.02235174447, -9982.870219095972, 14883.557246155411, 50752.20623638704, 73202.52188474202, 118296.00403261234, 49975.41606133176, 0.0, 0.0, 0.0, 0.0, 0.0, 0.0, 0.0, 0.0, 0.0, 0.0, 0.0, 192.0, 0.0, 0.0, 0.0, 0.0, 0.0, 0.0, 0.0, 0.0, 0.0, 1.695412477614164E9, 0.0, 2023-09-22 14:54:37.614
224.0, 50455.57623572067, -187500.02235174447, -9914.697398507285, 14914.134432570272, 50750.842779975275, 73219.21863785012, 118317.01467240033, 49996.80668077549, 71557.03116143122, 32527.91256045253, -5930.945984237907, 22171.96937465303, 48905.41570251175, 18412.60712297048, -15217.671122273341, -35471.63730521647, 0.0, 0.0, 0.0, 192.0, 0.0, 0.0, 0.0, 0.0, 0.0, 0.0, 0.0, 0.0, 0.0, 1.695412477614172E9, 0.0, 2023-09-22 14:54:37.614
226.0, 50436.309032000194, -187500.02235174447, -9967.849846822006, 14887.334690968359, 50754.41905908812, 73217.89988492726, 118318.40048055655, 49973.091479908406, 71550.03506541671, 32530.952397698453, -5920.731237021832, 22188.979052183517, 48854.476076898114, 18424.565306254066, -15207.702244246275, -35480.890927420965, -0.056, 0.898, 0.456, 192.0, 127.0, 32.0, 14.0, 8.0, 7.0, 32.0, 0.0, 0.0, 0.0, 1.695412477614176E9, 0.0, 2023-09-22 14:54:37.614
228.0, 50488.679169258976, -187500.02235174447, -9867.244645028668, 14947.729104486598, 50754.553169554856, 73257.50717610207, 118347.79302451528, 50023.09233225493, 71556.51707130874, 32535.735671011887, -5930.186024926427, 22171.410581041644, 48905.90744088977, 18411.55659098108, -15211.367930336944, -35424.72099360478, -0.056, 0.898, 0.456, 192.0, 0.0, 0.0, 0.0, 0.0, 0.0, 0.0, 0.0, 0.0, 0.0, 1.69541247761418E9, 0.0, 2023-09-22 14:54:37.614
230.0, 50448.42367749497, -187500.02235174447, -9943.553500599088, 14906.914819111207, 50760.92341672462, 73236.72005375863, 118335.54426855377, 49983.865020735866, 71533.65123673096, 32544.765775771833, -5917.445530586902, 22186.788581226898, 48864.19908573617, 18423.514774264666, -15199.275636586624, -35421.614101125495, -0.056, 0.898, 0.456, 192.0, 0.0, 0.0, 0.0, 0.0, 0.0, 0.0, 0.0, 0.0, 0.0, 1.695412477614183E9, 0.0, 2023-09-22 14:54:37.614
232.0, 50475.84926794163, -187500.02235174447, -9864.651842671854, 14936.776749703498, 50767.114849938735, 73251.47220509914, 118372.67051609403, 50011.00003850461, 71559.6910190214, 32557.036883477795, -5911.499966561791, 22183.39111606969, 48899.000751853084, 18421.905448663885, -15196.548723763077, -35410.30411843111, -0.056, 0.898, 0.456, 192.0, 0.0, 0.0, 0.0, 0.0, 0.0, 0.0, 0.0, 0.0, 0.0, 1.695412477614186E9, 0.0, 2023-09-22 14:54:37.614
234.0, 50421.53452891523, -187500.02235174447, -9963.31244269758, 14872.381373927758, 50768.746527283976, 73213.80951569194, 118340.79692850077, 49953.60075874338, 71540.98260891231, 32549.124365940617, -5908.326018849137, 22189.470790561532, 48871.44105093969, 18426.286390577126, -15195.542895262588, -35406.83959804053, -0.056, 0.898, 0.456, 192.0, 0.0, 0.0, 0.0, 0.0, 0.0, 0.0, 0.0, 0.0, 0.0, 1.69541247761419E9, 0.0, 2023-09-22 14:54:37.614
236.0, 50440.60056693561, -187500.02235174447, -9904.72852048022, 14888.318167724392, 50773.17217268612, 73219.50921052805, 118389.92606281354, 49974.96902644265, 71570.21869065985, 32558.78031954531, -5915.277411374737, 22189.359031839256, 48903.78402516652, 18422.93362890883, -15192.748927205674, -35431.046537285634, -0.062, 0.9, 0.448, 192.0, 127.0, 8.0, 14.0, 16.0, 7.0, 0.0, 0.0, 0.0, 0.0, 1.695412477614199E9, 0.0, 2023-09-22 14:54:37.614
238.0, 50395.83002279163, -187500.02235174447, -9996.437727980343, 14827.811995483877, 50756.29660562237, 73190.2284252916, 118356.17492868603, 49928.276232275515, 71555.82416723063, 32558.19917418947, -5908.236611871316, 22194.3881743417, 48887.42254822523, 18427.31457082207, -15198.739194719696, -35434.86868558749, -0.062, 0.9, 0.448, 192.0, 0.0, 0.0, 0.0, 0.0, 0.0, 0.0, 0.0, 0.0, 0.0, 1.695412477614202E9, 0.0, 2023-09-22 14:54:37.614
0.0, 25467.220004465584, -93750.01117587223, -4145.332174936792, 6957.695717536893, 25409.73131772653, 36596.019458296236, 59236.72726592151, 25002.638995962025, 35785.008762479876, 16276.830885032523, -2959.0356897158254, 11092.7684417687, 24461.615021421316, 9206.48237544088, -7607.885611997321, -17710.27060869582, -0.056, 0.892, 0.456, 192.0, 127.0, 32.0, 13.5, 112.0, 7.0, 32.0, 0.0, 0.0, 0.0, 1.695412477770848E9, 0.0, 2023-09-22 14:54:37.770
2.0, 50940.34086946736, -187500.02235174447, -8257.673175057553, 13928.355446857864, 50827.68807741262, 73200.95726263014, 118523.43303244509, 50020.074846753465, 71899.50458997543, 32469.842728357642, -6002.449214750435, 22037.41187303208, 48895.156251806766, 18491.2629117087, -15188.636206225898, -31136.941151254316, -0.056, 0.892, 0.456, 192.0, 0.0, 0.0, 0.0, 0.0, 0.0, 0.0, 0.0, 0.0, 0.0, 1.695412477770859E9, 0.0, 2023-09-22 14:54:37.770
4.0, 50968.32525352541, -187500.02235174447, -8210.399235534578, 13956.004554749079, 50809.270239981444, 73213.51894301403, 118494.75574430893, 50035.54225391654, 71901.78446790988, 32481.57739419668, -6014.519156756301, 22037.657742221087, 48960.31158689399, 18485.674975594877, -15192.86068592795, -31086.29209831859, -0.056, 0.892, 0.456, 192.0, 0.0, 0.0, 0.0, 0.0, 0.0, 0.0, 0.0, 0.0, 0.0, 1.695412477770863E9, 0.0, 2023-09-22 14:54:37.770
6.0, 50957.5293609535, -187500.02235174447, -8229.286459599312, 13944.471054610141, 50818.61326916376, 73203.30419579794, 118511.96658753951, 50025.461617167195, 71885.42299096858, 32470.62503941358, -6005.824328163187, 22041.65870447859, 48898.88899313081, 18490.6147111195, -15190.759621949152, -31132.135526196427, -0.056, 0.892, 0.456, 192.0, 0.0, 0.0, 0.0, 0.0, 0.0, 0.0, 0.0, 0.0, 0.0, 1.695412477770867E9, 0.0, 2023-09-22 14:54:37.770
8.0, 50939.82677934489, -187500.02235174447, -8211.740340201895, 13935.731522528116, 50793.44520490709, 73174.49279719505, 118471.24170914195, 50001.478195366646, 71888.06049681432, 32463.695998632433, -6021.582308004178, 22031.22043981796, 48949.35923211089, 18468.75470504221, -15206.517601790143, -31106.274557861634, -0.052000000000000005, 0.892, 0.456, 192.0, 127.0, 48.0, 13.5, 112.0, 7.0, 32.0, 0.0, 0.0, 0.0, 1.69541247777087E9, 0.0, 2023-09-22 14:54:37.770
10.0, 50926.84041581636, -187500.02235174447, -8241.937546961015, 13921.113481654345, 50815.61813540675, 73174.04576230595, 118488.40784888362, 49988.335369626926, 71881.55613917782, 32461.505527675814, -6016.240241079359, 22041.07755912275, 48885.74616739109, 18487.597225618032, -15204.349482577978, -31178.22482326327, -0.052000000000000005, 0.892, 0.456, 192.0, 0.0, 0.0, 0.0, 0.0, 0.0, 0.0, 0.0, 0.0, 0.0, 1.695412477770874E9, 0.0, 2023-09-22 14:54:37.770
12.0, 50962.871427878315, -187500.02235174447, -8167.908569325039, 13961.503083885085, 50794.42868166312, 73186.80860838993, 118471.8675579867, 50017.057361251995, 71892.24027302746, 32472.681399903468, -6033.33932558767, 22026.995960115906, 48952.53317982354, 18466.296013152125, -15223.281410131623, -31135.82356403155, -0.052000000000000005, 0.892, 0.456, 192.0, 0.0, 0.0, 0.0, 0.0, 0.0, 0.0, 0.0, 0.0, 0.0, 1.695412477770877E9, 0.0, 2023-09-22 14:54:37.770
14.0, 50922.14654948075, -187500.02235174447, -8236.081389913725, 13916.66548450774, 50793.62401886273, 73154.55504114092, 118462.92686020456, 49971.95154094119, 71876.14701701964, 32466.445263200436, -6022.945764415952, 22035.757843942385, 48884.82974586842, 18457.645888047922, -15234.077302703537, -31178.98478257475, -0.052000000000000005, 0.892, 0.456, 192.0, 0.0, 0.0, 0.0, 0.0, 0.0, 0.0, 0.0, 0.0, 0.0, 1.695412477770881E9, 0.0, 2023-09-22 14:54:37.770
16.0, 50963.40786974524, -187500.02235174447, -8140.885310278572, 13964.900549042291, 50805.62690563523, 73183.522901955, 118476.27085164438, 50017.43734090774, 71899.66105218662, 32433.61055059559, -6025.315049328215, 22004.89008484961, 48947.28051987655, 18450.090998422027, -15223.929610720828, -31154.844898563017, -0.052000000000000005, 0.892, 0.456, 192.0, 0.0, 0.0, 0.0, 0.0, 0.0, 0.0, 0.0, 0.0, 0.0, 1.695412477831038E9, 0.0, 2023-09-22 14:54:37.831
18.0, 50878.560647792896, -187500.02235174447, -8249.090105186713, 13884.769545170015, 50810.812510348864, 73128.69407280613, 118443.99493265092, 49943.855398160864, 71892.84377012776, 32377.26180282376, -6020.308258570226, 22003.057241804272, 48896.18443205171, 18448.7051902658, -15216.195907139292, -31202.901149141926, -0.058, 0.894, 0.456, 192.0, 127.0, 24.0, 13.5, 120.0, 7.0, 32.0, 0.0, 0.0, 0.0, 1.695412477831051E9, 0.0, 2023-09-22 14:54:37.831
20.0, 50892.84341249984, -187500.02235174447, -8173.720022883418, 13917.581906030406, 50786.31499842584, 73133.25382867502, 118438.54110700382, 49968.10704089487, 71921.74457570846, 32329.764345856234, -6042.771761747809, 21957.526738348814, 48943.033688430034, 18410.93074213633, -15233.116177691958, -31220.961358661814, -0.058, 0.894, 0.456, 192.0, 0.0, 0.0, 0.0, 0.0, 0.0, 0.0, 0.0, 0.0, 0.0, 1.695412477831055E9, 0.0, 2023-09-22 14:54:37.831
22.0, 50820.22259476454, -187500.02235174447, -8277.745041578417, 13846.369248195799, 50791.07591999482, 73086.67279323016, 118385.88039706713, 49893.56397313643, 71911.8204011703, 32272.275659117182, -6038.681392512488, 21941.63464804109, 48895.73739716261, 18400.157201308873, -15243.532090608132, -31251.583248565585, -0.058, 0.894, 0.456, 192.0, 0.0, 0.0, 0.0, 0.0, 0.0, 0.0, 0.0, 0.0, 0.0, 1.695412477831058E9, 0.0, 2023-09-22 14:54:37.831
24.0, 50821.720161643054, -187500.02235174447, -8218.065883882748, 13857.478065190086, 50781.35291115677, 73085.26463332947, 118397.25743499487, 49898.7272261056, 71940.92237245111, 32246.124118104475, -6041.676526269499, 21927.664807756522, 48927.812150455975, 18387.97550058073, -15242.772131296651, -31287.05546701616, -0.058, 0.894, 0.456, 192.0, 0.0, 0.0, 0.0, 0.0, 0.0, 0.0, 0.0, 0.0, 0.0, 1.695412477831062E9, 0.0, 2023-09-22 14:54:37.831
26.0, 50801.26831546645, -187500.02235174447, -8276.49334388892, 13828.666666587194, 50762.778611514404, 73069.88663314423, 118342.54036456828, 49861.39981286524, 71924.96322691003, 32231.841353397533, -6051.332479874191, 21920.15462161954, 48903.694618188696, 18373.648032384877, -15260.83234081654, -31320.896008121494, -0.058, 0.894, 0.456, 192.0, 0.0, 0.0, 0.0, 0.0, 0.0, 0.0, 0.0, 0.0, 0.0, 1.695412477831065E9, 0.0, 2023-09-22 14:54:37.831
28.0, 50830.97378384755, -187500.02235174447, -8197.189354561491, 13860.942585580658, 50765.81844876033, 73070.4901302445, 118358.5889170872, 49868.015929224006, 71934.5297735369, 32230.164972563383, -6049.119657173116, 21917.673577985, 48924.81701669896, 18366.696639859278, -15264.721544351763, -31318.884351120516, -0.058, 0.9, 0.456, 192.0, 127.0, 24.0, 14.0, 16.0, 7.0, 32.0, 0.0, 0.0, 0.0, 1.695412477831068E9, 0.0, 2023-09-22 14:54:37.831
30.0, 50828.0457053239, -187500.02235174447, -8236.126093402636, 13847.26331797401, 50742.70674499354, 73050.17239453465, 118293.61239595561, 49830.062667138896, 71917.6765582176, 32216.12807704545, -6071.426698139513, 21904.307234800726, 48915.27282181654, 18354.96197402024, -15282.111201537991, -31312.178827783922, -0.058, 0.9, 0.456, 192.0, 0.0, 0.0, 0.0, 0.0, 0.0, 0.0, 0.0, 0.0, 0.0, 1.695412477890638E9, 0.0, 2023-09-22 14:54:37.890
32.0, 50871.34103433383, -187500.02235174447, -8143.187539957469, 13893.41967027422, 50766.01961446043, 73067.42794125414, 118340.39459710057, 49853.84492323935, 71926.63960774418, 32229.986158607742, -6060.206122422948, 21920.86987744211, 48918.983211396124, 18374.74326786319, -15274.511608423187, -31318.97375809834, -0.058, 0.9, 0.456, 192.0, 0.0, 0.0, 0.0, 0.0, 0.0, 0.0, 0.0, 0.0, 0.0, 1.695412477890651E9, 0.0, 2023-09-22 14:54:37.890
34.0, 50848.78812417843, -187500.02235174447, -8198.776328417818, 13859.400315213243, 50756.564826555834, 73037.1860310061, 118277.51913994779, 49804.894602882225, 71931.28877059088, 32252.874344929976, -6045.431619337991, 21934.683255515487, 48933.13186563634, 18383.996890067683, -15272.499951422209, -31288.53068215021, -0.058, 0.9, 0.456, 192.0, 0.0, 0.0, 0.0, 0.0, 0.0, 0.0, 0.0, 0.0, 0.0, 1.695412477890655E9, 0.0, 2023-09-22 14:54:37.890
36.0, 50883.2098106396, -187500.02235174447, -8121.282830391268, 13900.84044943338, 50759.51525682393, 73048.60777242277, 118307.40342228454, 49833.2142631071, 71925.18674435458, 32236.51286798869, -6063.424773624512, 21913.605560494132, 48913.03764737101, 18357.711238588243, -15295.07521332207, -31322.52768546673, -0.058, 0.9, 0.456, 192.0, 0.0, 0.0, 0.0, 0.0, 0.0, 0.0, 0.0, 0.0, 0.0, 1.695412477890658E9, 0.0, 2023-09-22 14:54:37.890
38.0, 50845.3012520434, -187500.02235174447, -8181.096098553669, 13858.752114624038, 50765.930207482605, 73014.76723131744, 118255.05563677021, 49780.46414619257, 71931.5793432688, 32250.52741176217, -6045.476322826901, 21934.258572370836, 48927.92390917825, 18379.548892921077, -15291.230713275758, -31294.27508047522, -0.056, 0.898, 0.454, 192.0, 127.0, 32.0, 14.0, 8.0, 7.0, 24.0, 0.0, 0.0, 0.0, 1.695412477890661E9, 0.0, 2023-09-22 14:54:37.890
40.0, 50852.18558933563, -187500.02235174447, -8147.680240592986, 13863.021297815001, 50780.615303589744, 73013.3367196723, 118311.58319849768, 49791.59531493131, 71938.7766049834, 32257.23293509876, -6034.591023277167, 21945.568555065223, 48904.789853667, 18390.92593084883, -15276.947948568815, -31367.4546918219, -0.056, 0.898, 0.454, 192.0, 0.0, 0.0, 0.0, 0.0, 0.0, 0.0, 0.0, 0.0, 0.0, 1.695412477890665E9, 0.0, 2023-09-22 14:54:37.890
42.0, 50866.64716799822, -187500.02235174447, -8147.434371403978, 13864.74238213806, 50757.50359982295, 73008.21817019203, 118252.23931696884, 49786.11913753976, 71946.46560507604, 32267.045350914643, -6039.463703568424, 21934.280924115294, 48946.67702277625, 18381.560549922055, -15282.424125960366, -31319.39844124299, -0.056, 0.898, 0.454, 192.0, 0.0, 0.0, 0.0, 0.0, 0.0, 0.0, 0.0, 0.0, 0.0, 1.695412477890668E9, 0.0, 2023-09-22 14:54:37.890
44.0, 50862.601502251804, -187500.02235174447, -8134.760932297819, 13856.963975067614, 50762.42098360312, 72990.73910602798, 118276.98269808087, 49776.84316359081, 71936.94376193808, 32260.250420600227, -6035.976831433396, 21937.566630550224, 48893.45751922816, 18382.007584811163, -15289.621387674975, -31372.170909901968, -0.056, 0.898, 0.454, 192.0, 0.0, 0.0, 0.0, 0.0, 0.0, 0.0, 0.0, 0.0, 0.0, 1.695412477890671E9, 0.0, 2023-09-22 14:54:37.890
46.0, 50873.55385703491, -187500.02235174447, -8126.468435104899, 13861.255510003033, 50739.46574204752, 72988.34746937126, 118224.657264311, 49762.33688143932, 71940.74355849548, 32269.548746293636, -6046.683317027488, 21929.140022890573, 48940.37383083985, 18376.956090564265, -15300.17141105788, -31333.94942688339, -0.056, 0.898, 0.454, 192.0, 0.0, 0.0, 0.0, 0.0, 0.0, 0.0, 0.0, 0.0, 0.0, 1.695412477950333E9, 0.0, 2023-09-22 14:54:37.950
48.0, 50881.3099123609, -187500.02235174447, -8113.102091920626, 13864.45180946014, 50756.67658527811, 72985.95583271455, 118261.3141252177, 49749.88695977771, 71931.33347407979, 32259.222240355284, -6052.919453730518, 21932.381025836592, 48881.25346675557, 18373.402163195868, -15296.282207522656, -31383.72676178536, -0.062, 0.904, 0.454, 192.0, 127.0, 8.0, 14.0, 32.0, 7.0, 24.0, 0.0, 0.0, 0.0, 1.695412477950358E9, 0.0, 2023-09-22 14:54:37.950
50.0, 50888.39541535323, -187500.02235174447, -8100.0263214142715, 13861.434323958674, 50763.5832743148, 72975.78578898738, 118237.26364818378, 49726.95406996657, 71950.57832605581, 32274.33201960707, -6050.594872307167, 21937.34311310567, 48945.04534543101, 18377.40312545337, -15289.889608608439, -31343.00188338779, -0.062, 0.904, 0.454, 192.0, 0.0, 0.0, 0.0, 0.0, 0.0, 0.0, 0.0, 0.0, 0.0, 1.695412477950361E9, 0.0, 2023-09-22 14:54:37.950
52.0, 50850.665670712675, -187500.02235174447, -8145.243900447357, 13816.037930969946, 50767.56188482784, 72945.67798920607, 118258.4083984385, 49675.09802283025, 71941.39175908468, 32270.174595138385, -6038.770799490309, 21948.34017137768, 48884.9862080796, 18391.752945393677, -15278.914902080884, -31425.70333787243, -0.062, 0.904, 0.454, 192.0, 0.0, 0.0, 0.0, 0.0, 0.0, 0.0, 0.0, 0.0, 0.0, 1.695412477950365E9, 0.0, 2023-09-22 14:54:37.950
54.0, 50913.63053484327, -187500.02235174447, -8059.16733254997, 13876.857027632837, 50748.98758518548, 72982.96069895753, 118238.53769761774, 49709.184433124596, 71949.14781441067, 32267.62649627048, -6073.416003396035, 21914.38787155007, 48958.09876419292, 18350.73749431819, -15302.69715818133, -31368.147595900013, -0.062, 0.904, 0.454, 192.0, 0.0, 0.0, 0.0, 0.0, 0.0, 0.0, 0.0, 0.0, 0.0, 1.695412477950368E9, 0.0, 2023-09-22 14:54:37.950
56.0, 50889.13302292026, -187500.02235174447, -8099.467527802888, 13845.36341969531, 50772.25575116346, 72967.89562319465, 118251.07702625718, 49671.700557673044, 71924.96322691003, 32256.361217065005, -6056.7863055212865, 21922.85918269863, 48883.980379579116, 18364.193244480284, -15302.406585503411, -31401.60815734961, -0.062, 0.904, 0.454, 192.0, 0.0, 0.0, 0.0, 0.0, 0.0, 0.0, 0.0, 0.0, 0.0, 1.695412477950371E9, 0.0, 2023-09-22 14:54:37.950
58.0, 50919.48669189056, -187500.02235174447, -8038.693134628908, 13872.677251419695, 50760.56578881333, 72979.51853031141, 118251.18878497944, 49686.0280258689, 71961.19540467208, 32281.05989468812, -6051.5783490632, 21932.023397925306, 48952.68964203473, 18377.984270809207, -15297.869181378983, -31365.39833133201, -0.06, 0.898, 0.45, 192.0, 127.0, 16.0, 14.0, 8.0, 7.0, 8.0, 0.0, 0.0, 0.0, 1.695412477950374E9, 0.0, 2023-09-22 14:54:37.950
60.0, 50913.295258676444, -187500.02235174447, -8063.525922718754, 13861.836655358871, 50754.553169554856, 72977.84214947726, 118244.41620640949, 49679.188392065575, 71931.28877059088, 32261.166842122897, -6061.793096279275, 21920.80282220874, 48892.496394216585, 18368.17185499333, -15311.16846932989, -31389.64997406602, -0.06, 0.898, 0.45, 192.0, 0.0, 0.0, 0.0, 0.0, 0.0, 0.0, 0.0, 0.0, 0.0, 1.695412478010645E9, 0.0, 2023-09-22 14:54:38.010
62.0, 50926.572194882894, -187500.02235174447, -8006.2831051687135, 13877.214655544121, 50759.09057367928, 72978.8256262333, 118252.55224139123, 49686.83268866929, 71940.11770965073, 32258.10465313252, -6062.82127652422, 21913.739670960866, 48932.774237725054, 18363.165064235338, -15316.532887999165, -31368.48287206684, -0.06, 0.898, 0.45, 192.0, 0.0, 0.0, 0.0, 0.0, 0.0, 0.0, 0.0, 0.0, 0.0, 1.695412478010659E9, 0.0, 2023-09-22 14:54:38.010
64.0, 50892.038749699444, -187500.02235174447, -8073.383042023545, 13834.701637590128, 50762.95742547005, 72960.45249229104, 118247.94778203343, 49655.562598176315, 71935.49089854848, 32270.599278283036, -6048.314994372725, 21930.168203135516, 48892.80931863896, 18375.659689385855, -15310.341454785044, -31402.79279980574, -0.06, 0.898, 0.45, 192.0, 0.0, 0.0, 0.0, 0.0, 0.0, 0.0, 0.0, 0.0, 0.0, 1.695412478010663E9, 0.0, 2023-09-22 14:54:38.010
66.0, 50933.05420077494, -187500.02235174447, -7986.72532877032, 13878.198132300155, 50767.02544296091, 72987.00636470394, 118267.93024157647, 49698.50029927496, 71956.27802089191, 32280.948135965842, -6046.638613538577, 21932.33632234768, 48944.30773786399, 18371.25639572816, -15314.655341464919, -31384.240851907834, -0.06, 0.898, 0.45, 192.0, 0.0, 0.0, 0.0, 0.0, 0.0, 0.0, 0.0, 0.0, 0.0, 1.695412478010666E9, 0.0, 2023-09-22 14:54:38.010
68.0, 50896.039711956946, -187500.02235174447, -8059.2343877833355, 13833.02525675598, 50769.014748217436, 72966.33100108278, 118243.25391569782, 49659.87648485619, 71947.96317195454, 32283.987973211766, -6032.199386620448, 21940.181784651493, 48903.73932167761, 18386.388526724404, -15302.048957592126, -31398.389506148043, -0.054, 0.894, 0.452, 192.0, 127.0, 40.0, 13.5, 120.0, 7.0, 16.0, 0.0, 0.0, 0.0, 1.695412478010669E9, 0.0, 2023-09-22 14:54:38.010
70.0, 50924.85111055984, -187500.02235174447, -7977.739927499286, 13864.876492604792, 50744.673698505605, 72977.55157679935, 118246.91960178848, 49687.01150262493, 71947.27026787642, 32270.085188160563, -6057.38980262158, 21910.208095336926, 48932.573072024956, 18361.39927642337, -15320.355036301022, -31396.89193926954, -0.054, 0.894, 0.452, 192.0, 0.0, 0.0, 0.0, 0.0, 0.0, 0.0, 0.0, 0.0, 0.0, 1.695412478010672E9, 0.0, 2023-09-22 14:54:38.010
72.0, 50887.38958685274, -187500.02235174447, -8051.746553390808, 13818.764843793493, 50753.055602676344, 72958.03850388987, 118222.82442126566, 49649.70644112903, 71933.21102061404, 32274.555537051623, -6049.320822873214, 21927.709511245434, 48900.56537396496, 18375.100895774474, -15316.622294976985, -31393.338011901145, -0.054, 0.894, 0.452, 192.0, 0.0, 0.0, 0.0, 0.0, 0.0, 0.0, 0.0, 0.0, 0.0, 1.695412478010676E9, 0.0, 2023-09-22 14:54:38.010
74.0, 50929.36616293981, -187500.02235174447, -7958.428020289901, 13859.93675708017, 50756.02838468891, 72978.40094308865, 118275.64159341354, 49705.87637494521, 71951.67356153412, 32277.10363591953, -6056.719250287921, 21922.032168153786, 48926.71691497766, 18368.618889882433, -15307.748652428229, -31407.77723881927, -0.054, 0.894, 0.452, 192.0, 0.0, 0.0, 0.0, 0.0, 0.0, 0.0, 0.0, 0.0, 0.0, 1.695412478010679E9, 0.0, 2023-09-22 14:54:38.010
76.0, 50899.97361898108, -187500.02235174447, -8021.30347744268, 13823.011675240003, 50744.29371884987, 72960.27367833539, 118230.1110899581, 49685.558639235336, 71940.98942768449, 32288.95006048084, -6044.090514670672, 21944.406264353547, 48907.20384206818, 18382.409916211356, -15300.305521524611, -31389.292346154733, -0.054, 0.894, 0.452, 192.0, 0.0, 0.0, 0.0, 0.0, 0.0, 0.0, 0.0, 0.0, 0.0, 1.695412478070964E9, 0.0, 2023-09-22 14:54:38.070
78.0, 50943.11248577982, -187500.02235174447, -7927.068522819105, 13868.609233928828, 50751.96036719804, 72981.66429777912, 118269.56191892171, 49730.016258956945, 71944.92333470861, 32279.67408653189, -6056.272215398814, 21933.252743870347, 48915.31752530546, 18366.204901481262, -15308.262742550702, -31385.045514708225, -0.066, 0.894, 0.454, 192.0, 126.5, 120.0, 13.5, 120.0, 7.0, 24.0, 0.0, 0.0, 0.0, 1.695412478070975E9, 0.0, 2023-09-22 14:54:38.070
80.0, 50919.4196366572, -187500.02235174447, -7981.405613589956, 13837.875585302781, 50753.547341054364, 72967.58269877228, 118245.80201456572, 49679.41190951013, 71947.53848880989, 32283.20566215583, -6050.125485673605, 21943.53454631979, 48912.992943882105, 18370.719953861233, -15293.152963298913, -31364.750130742807, -0.066, 0.894, 0.454, 192.0, 0.0, 0.0, 0.0, 0.0, 0.0, 0.0, 0.0, 0.0, 0.0, 1.695412478070979E9, 0.0, 2023-09-22 14:54:38.070
82.0, 50949.303918993945, -187500.02235174447, -7907.600153398533, 13867.98338508408, 50758.42002134562, 72985.84407399227, 118306.64346297306, 49688.79964218136, 71954.48988133548, 32287.787769769166, -6049.231415895393, 21940.874688729607, 48910.48954850311, 18368.82005558253, -15289.710794652796, -31387.615965320587, -0.066, 0.894, 0.454, 192.0, 0.0, 0.0, 0.0, 0.0, 0.0, 0.0, 0.0, 0.0, 0.0, 1.695412478070982E9, 0.0, 2023-09-22 14:54:38.070
84.0, 50923.97939252608, -187500.02235174447, -7964.999433159761, 13827.951410764625, 50736.291794334866, 72956.51858526691, 118248.3054099447, 49629.3663536747, 71958.26732614843, 32293.91214774992, -6039.307241357236, 21944.29450563127, 48924.39233355431, 18373.424514940325, -15288.101469052013, -31348.20983984588, -0.066, 0.894, 0.454, 192.0, 0.0, 0.0, 0.0, 0.0, 0.0, 0.0, 0.0, 0.0, 0.0, 1.695412478070985E9, 0.0, 2023-09-22 14:54:38.070
86.0, 50968.34760526987, -187500.02235174447, -7891.126917734971, 13867.111667050323, 50751.401573586656, 72981.01609718992, 118319.89804743505, 49659.04947031134, 71947.44908183206, 32274.935516707366, -6056.182808420994, 21929.29648510176, 48892.496394216585, 18355.900747287364, -15290.582512686553, -31388.331221143155, -0.066, 0.894, 0.454, 192.0, 0.0, 0.0, 0.0, 0.0, 0.0, 0.0, 0.0, 0.0, 0.0, 1.695412478070988E9, 0.0, 2023-09-22 14:54:38.070
88.0, 50944.16301776922, -187500.02235174447, -7941.194825314859, 13831.438282899653, 50746.99827992896, 72957.01032364492, 118284.35877375113, 49600.15262367161, 71954.84750924677, 32296.437894873372, -6046.5268548163, 21946.753197521353, 48926.38163881083, 18372.150465506373, -15272.678765377852, -31329.81435415916, -0.06, 0.896, 0.458, 192.0, 127.0, 16.0, 14.0, 0.0, 7.0, 40.0, 0.0, 0.0, 0.0, 1.695412478070991E9, 0.0, 2023-09-22 14:54:38.070
90.0, 50960.12216331031, -187500.02235174447, -7900.738167850754, 13846.101027262333, 50749.18875088558, 72964.90048943764, 118331.14097489607, 49605.38293187415, 71950.80184350036, 32281.86455748851, -6053.992337464373, 21928.603581023646, 48892.38463549431, 18348.748189061665, -15282.64764340492, -31381.78216001775, -0.06, 0.896, 0.458, 192.0, 0.0, 0.0, 0.0, 0.0, 0.0, 0.0, 0.0, 0.0, 0.0, 1.69541247813122E9, 0.0, 2023-09-22 14:54:38.131
92.0, 50964.95014011266, -187500.02235174447, -7902.66041787391, 13845.899861562237, 50740.963308926024, 72971.53895754086, 118305.43646877247, 49598.8562224932, 71962.73767503949, 32292.68280180488, -6044.559901304234, 21936.58315379419, 48931.299022591, 18361.95807003475, -15278.110239280491, -31330.998996615293, -0.06, 0.896, 0.458, 192.0, 0.0, 0.0, 0.0, 0.0, 0.0, 0.0, 0.0, 0.0, 0.0, 1.695412478131233E9, 0.0, 2023-09-22 14:54:38.131
94.0, 50940.922014823205, -187500.02235174447, -7902.571010896088, 13827.303210175422, 50756.74364051147, 72962.28533533638, 118347.65891404854, 49592.12834741215, 71948.8795934772, 32276.790711497157, -6042.034154180784, 21934.236220626382, 48886.4390714692, 18355.744285076176, -15280.323061981568, -31358.44693880641, -0.06, 0.896, 0.458, 192.0, 0.0, 0.0, 0.0, 0.0, 0.0, 0.0, 0.0, 0.0, 0.0, 1.695412478131237E9, 0.0, 2023-09-22 14:54:38.131
96.0, 50948.83453236038, -187500.02235174447, -7880.554542607611, 13839.88724230376, 50742.63968976017, 72978.1774256441, 118335.34310285367, 49613.966001744986, 71982.76483807145, 32313.715793337324, -6020.934107414974, 21956.58796508169, 48947.07935417645, 18382.476971444725, -15263.06751526207, -31332.429508260433, -0.06, 0.896, 0.458, 192.0, 0.0, 0.0, 0.0, 0.0, 0.0, 0.0, 0.0, 0.0, 0.0, 1.69541247813124E9, 0.0, 2023-09-22 14:54:38.131
98.0, 50934.64117463126, -187500.02235174447, -7882.365033908491, 13832.68998058915, 50744.38312582769, 72975.51756805391, 118356.71137055295, 49624.15839721661, 71947.7843579989, 32292.839264016067, -6045.677488526999, 21934.258572370836, 48885.81322262445, 18362.338049690494, -15290.537809197642, -31354.803604460194, -0.05, 0.906, 0.46, 192.0, 127.0, 56.0, 14.0, 40.0, 7.0, 48.0, 0.0, 0.0, 0.0, 1.695412478131244E9, 0.0, 2023-09-22 14:54:38.131
100.0, 50931.93661355217, -187500.02235174447, -7865.154190677905, 13833.3158294339, 50731.24030008797, 72970.46607380701, 118342.07097793472, 49632.92028104309, 71968.37031464223, 32299.835360030578, -6047.979718205896, 21930.90581070254, 48937.26693836057, 18357.152444976862, -15286.089812051037, -31302.791095112694, -0.05, 0.906, 0.46, 192.0, 0.0, 0.0, 0.0, 0.0, 0.0, 0.0, 0.0, 0.0, 0.0, 1.695412478131247E9, 0.0, 2023-09-22 14:54:38.131
102.0, 50919.017305257, -187500.02235174447, -7875.078365216061, 13828.085521231356, 50734.72717222299, 72974.80231223135, 118369.27305093683, 49656.36726097671, 71952.05354118986, 32286.938403479864, -6042.503540814346, 21925.496688544357, 48877.05133879797, 18353.95614551975, -15297.690367423342, -31348.746281712807, -0.05, 0.906, 0.46, 192.0, 0.0, 0.0, 0.0, 0.0, 0.0, 0.0, 0.0, 0.0, 0.0, 1.69541247813125E9, 0.0, 2023-09-22 14:54:38.131
104.0, 50925.00757277103, -187500.02235174447, -7828.966716404762, 13849.274974974987, 50723.216023828514, 72981.19491114556, 118352.62100131763, 49685.98332237999, 71976.8863292797, 32302.025830987197, -6037.206177378438, 21931.777528736297, 48947.14640940981, 18362.472160157224, -15296.192800544835, -31280.394647168476, -0.05, 0.906, 0.46, 192.0, 0.0, 0.0, 0.0, 0.0, 0.0, 0.0, 0.0, 0.0, 0.0, 1.695412478131253E9, 0.0, 2023-09-22 14:54:38.131
106.0, 50896.55380207942, -187500.02235174447, -7857.375783607457, 13834.187547467656, 50726.59113724127, 72974.06470466431, 118372.26818469385, 49686.385653780184, 71944.78922424189, 32282.848034244544, -6044.716363515421, 21921.652188498043, 48868.71413811614, 18351.519805374122, -15313.02366411968, -31331.49073499331, -0.05, 0.906, 0.46, 192.0, 0.0, 0.0, 0.0, 0.0, 0.0, 0.0, 0.0, 0.0, 0.0, 1.695412478190544E9, 0.0, 2023-09-22 14:54:38.190
108.0, 50923.10767449233, -187500.02235174447, -7773.199113988771, 13875.962957854625, 50727.84283493076, 73002.60788233374, 118387.445019179, 49727.7363810225, 71970.15845419865, 32300.72942980879, -6028.265479596314, 21928.156546134538, 48936.59638602691, 18353.91144203084, -15307.16750707239, -31257.75233003525, -0.034, 0.902, 0.46, 192.0, 127.0, 120.0, 14.0, 24.0, 7.0, 48.0, 0.0, 0.0, 0.0, 1.695412478190554E9, 0.0, 2023-09-22 14:54:38.190
110.0, 50876.99602568102, -187500.02235174447, -7819.891908155908, 13838.1661579807, 50743.26553860492, 72990.67205079462, 118400.65490015209, 49712.42543607062, 71963.96702098454, 32303.881025776987, -6005.891383396553, 21951.044732456772, 48879.73354813261, 18375.860855085954, -15290.470753964277, -31281.1322547355, -0.034, 0.902, 0.46, 192.0, 0.0, 0.0, 0.0, 0.0, 0.0, 0.0, 0.0, 0.0, 0.0, 1.695412478190558E9, 0.0, 2023-09-22 14:54:38.190
112.0, 50874.96201693559, -187500.02235174447, -7754.20013120176, 13850.370210453299, 50736.31414607932, 72990.76145777243, 118414.51298171438, 49736.252395659976, 71981.58019561532, 32309.357203168536, -6012.216927077405, 21944.71918877592, 48939.43505757273, 18372.083410273008, -15288.526152196664, -31257.640571312975, -0.034, 0.902, 0.46, 192.0, 0.0, 0.0, 0.0, 0.0, 0.0, 0.0, 0.0, 0.0, 0.0, 1.695412478190561E9, 0.0, 2023-09-22 14:54:38.190
114.0, 50834.035972837926, -187500.02235174447, -7807.129062071927, 13814.87564025827, 50737.16351236862, 72975.76343724292, 118411.78606889083, 49725.45650308806, 71945.16920389762, 32284.457359845324, -6032.266441853815, 21929.452947312948, 48884.20389702367, 18352.90561353035, -15302.74186167024, -31274.449083143365, -0.034, 0.902, 0.46, 192.0, 0.0, 0.0, 0.0, 0.0, 0.0, 0.0, 0.0, 0.0, 0.0, 1.695412478190564E9, 0.0, 2023-09-22 14:54:38.190
116.0, 50862.93677841864, -187500.02235174447, -7714.324619093492, 13854.102951777335, 50737.834064702285, 72995.00828921894, 118444.12904311766, 49781.08999503732, 71992.80077133188, 32313.604034615048, -6014.340342800659, 21948.16135742204, 48942.765467496574, 18377.62664289792, -15284.636948661442, -31236.361710591522, -0.034, 0.902, 0.46, 192.0, 0.0, 0.0, 0.0, 0.0, 0.0, 0.0, 0.0, 0.0, 0.0, 1.695412478190567E9, 0.0, 2023-09-22 14:54:38.190
118.0, 50832.02431583695, -187500.02235174447, -7762.112648738939, 13829.247811943033, 50718.388047026165, 72982.84894023526, 118411.42844097954, 49766.33784369682, 71960.14487268268, 32297.19785418485, -6036.356811089136, 21931.978694436395, 48900.319504775944, 18362.00277352366, -15299.009120346203, -31236.51817280271, -0.038, 0.898, 0.46, 192.0, 127.0, 104.0, 14.0, 8.0, 7.0, 48.0, 0.0, 0.0, 0.0, 1.69541247819057E9, 0.0, 2023-09-22 14:54:38.190
120.0, 50863.517923774474, -187500.02235174447, -7658.042926555029, 13876.678213677194, 50734.95068966755, 73007.59232134729, 118457.58479327975, 49807.53210872795, 71970.94076525459, 32297.600185585045, -6046.817427494219, 21929.140022890573, 48922.11245561987, 18353.218537952725, -15306.720472183284, -31201.98472761926, -0.038, 0.898, 0.46, 192.0, 0.0, 0.0, 0.0, 0.0, 0.0, 0.0, 0.0, 0.0, 0.0, 1.695412478250367E9, 0.0, 2023-09-22 14:54:38.250
122.0, 50797.043835764394, -187500.02235174447, -7747.516959609624, 13806.761957020994, 50736.850587946254, 72967.98503017248, 118430.6062377222, 49755.117267980255, 71954.24401214648, 32300.7741332977, -6034.81454072172, 21936.00200843835, 48897.614943696855, 18370.07175327203, -15290.716623153285, -31207.617367221996, -0.038, 0.898, 0.46, 192.0, 0.0, 0.0, 0.0, 0.0, 0.0, 0.0, 0.0, 0.0, 0.0, 1.695412478250379E9, 0.0, 2023-09-22 14:54:38.250
124.0, 50847.29055729992, -187500.02235174447, -7629.0303622520405, 13864.608271671328, 50741.00801241494, 73006.25121667996, 118490.68772681805, 49822.48542576855, 71978.16037871366, 32307.591415356568, -6039.016668679317, 21940.29354337377, 48924.70525797668, 18367.25543347066, -15290.73897489774, -31215.17225684789, -0.038, 0.898, 0.46, 192.0, 0.0, 0.0, 0.0, 0.0, 0.0, 0.0, 0.0, 0.0, 0.0, 1.695412478250383E9, 0.0, 2023-09-22 14:54:38.250
126.0, 50819.93202208663, -187500.02235174447, -7671.94571160623, 13838.143806236245, 50717.89630864815, 72983.29597512436, 118424.66067369709, 49789.56130618588, 71945.97386669801, 32294.448589616848, -6073.125430718116, 21914.656092483532, 48906.77915892353, 18338.86871801242, -15316.488184510254, -31153.392035173423, -0.038, 0.898, 0.46, 192.0, 0.0, 0.0, 0.0, 0.0, 0.0, 0.0, 0.0, 0.0, 0.0, 1.695412478250386E9, 0.0, 2023-09-22 14:54:38.250
128.0, 50801.40242593318, -187500.02235174447, -7632.874862298354, 13820.932963005658, 50756.922454467116, 72967.225070861, 118488.89958726164, 49776.306721723886, 71965.39753262968, 32295.856749517534, -6049.410229851035, 21928.983560679386, 48898.643123941794, 18364.372058435925, -15303.233600048257, -31180.50470119771, -0.062, 0.9, 0.454, 192.0, 127.0, 8.0, 14.0, 16.0, 7.0, 24.0, 0.0, 0.0, 0.0, 1.695412478250389E9, 0.0, 2023-09-22 14:54:38.250
130.0, 50755.938977711085, -187500.02235174447, -7699.795985197543, 13768.920453658158, 50741.85737870424, 72946.70616945102, 118470.39234285265, 49735.335974137306, 71966.5374715969, 32321.695366107866, -6043.487017570379, 21948.608392311144, 48914.646972971794, 18378.967747565242, -15280.434820703844, -31199.727201429276, -0.062, 0.9, 0.454, 192.0, 0.0, 0.0, 0.0, 0.0, 0.0, 0.0, 0.0, 0.0, 0.0, 1.695412478250392E9, 0.0, 2023-09-22 14:54:38.250
132.0, 50818.501510441485, -187500.02235174447, -7583.410451818759, 13837.674419602683, 50749.32286135231, 72996.37174563072, 118531.0773290488, 49800.692474924625, 71938.66484626113, 32328.53499991119, -6071.940788261984, 21925.899019944554, 48920.41372304127, 18371.122285261426, -15290.694271408829, -31190.294765269133, -0.062, 0.9, 0.454, 192.0, 0.0, 0.0, 0.0, 0.0, 0.0, 0.0, 0.0, 0.0, 0.0, 1.695412478250396E9, 0.0, 2023-09-22 14:54:38.250
134.0, 50805.20222249058, -187500.02235174447, -7598.274361881538, 13830.745378821539, 50740.136294381184, 72990.47088509452, 118482.86461625871, 49781.35821597078, 71923.86799143172, 32370.086892853607, -6070.666738828032, 21938.617162539624, 48943.63718553033, 18391.685890160312, -15284.815762617083, -31105.738115994707, -0.062, 0.9, 0.454, 192.0, 0.0, 0.0, 0.0, 0.0, 0.0, 0.0, 0.0, 0.0, 0.0, 1.695412478250399E9, 0.0, 2023-09-22 14:54:38.250
136.0, 50800.128376499226, -187500.02235174447, -7544.451361233158, 13845.74339935105, 50769.52883833991, 73004.35131840126, 118552.91498338163, 49797.56323070088, 71917.16246809512, 32397.736000744822, -6058.619148566622, 21954.241031913883, 48908.947278135696, 18406.236875800714, -15272.410544444389, -31130.705014551288, -0.062, 0.9, 0.454, 192.0, 0.0, 0.0, 0.0, 0.0, 0.0, 0.0, 0.0, 0.0, 0.0, 1.695412478310712E9, 0.0, 2023-09-22 14:54:38.310
138.0, 50770.15468718466, -187500.02235174447, -7566.713698710644, 13825.380960152264, 50762.24216964748, 72997.80225727585, 118517.35335795324, 49775.18913450112, 71927.80189845584, 32449.4579374144, -6048.359697861636, 21970.378991410613, 48953.963691468685, 18433.7518732252, -15264.073343762559, -31062.48749047369, -0.066, 0.896, 0.452, 192.0, 126.5, 120.0, 14.0, 0.0, 7.0, 16.0, 0.0, 0.0, 0.0, 1.695412478310747E9, 0.0, 2023-09-22 14:54:38.310
140.0, 50767.20425691656, -187500.02235174447, -7532.046143060464, 13826.20797469711, 50775.295588409375, 73007.0335277359, 118579.06652439435, 49800.84893713581, 71916.24604657246, 32472.167309780994, -6033.182863376483, 22000.665605147555, 48910.62365896984, 18459.27756539316, -15244.91789876436, -31119.551494068088, -0.066, 0.896, 0.452, 192.0, 0.0, 0.0, 0.0, 0.0, 0.0, 0.0, 0.0, 0.0, 0.0, 1.695412478310752E9, 0.0, 2023-09-22 14:54:38.310
142.0, 50784.12452746923, -187500.02235174447, -7499.546706622447, 13847.330373207376, 50753.770858498916, 73021.53980988738, 118526.45051794655, 49819.713809456094, 71914.14498259366, 32499.14586533855, -6056.942767732474, 21983.141837494593, 48963.93256949575, 18440.971486684262, -15272.857579333495, -31024.355414432936, -0.066, 0.896, 0.452, 192.0, 0.0, 0.0, 0.0, 0.0, 0.0, 0.0, 0.0, 0.0, 0.0, 1.695412478310758E9, 0.0, 2023-09-22 14:54:38.310
144.0, 50742.03619265988, -187500.02235174447, -7513.337732951371, 13811.746396034527, 50792.81935606234, 73008.41933589213, 118590.22004487754, 49799.574887701856, 71908.37823252419, 32505.00202238584, -6037.0050116783395, 22006.767631383853, 48901.99588561009, 18470.98987948774, -15242.772131296651, -31069.416531254832, -0.066, 0.896, 0.452, 192.0, 0.0, 0.0, 0.0, 0.0, 0.0, 0.0, 0.0, 0.0, 0.0, 1.695412478310764E9, 0.0, 2023-09-22 14:54:38.310
146.0, 50751.312166608834, -187500.02235174447, -7487.454412872125, 13819.234230427055, 50777.97779774402, 73021.71862384303, 118569.6340882342, 49816.785730932446, 71930.72997697949, 32529.946569197964, -6025.113883628116, 22015.64127393261, 48971.845087032925, 18478.18714120235, -15236.200718426791, -31027.216437723215, -0.066, 0.896, 0.452, 192.0, 0.0, 0.0, 0.0, 0.0, 0.0, 0.0, 0.0, 0.0, 0.0, 1.695412478310769E9, 0.0, 2023-09-22 14:54:38.310
148.0, 50747.825294473805, -187500.02235174447, -7477.9996249675305, 13816.104986203312, 50782.31403616835, 73027.01598727894, 118602.51350432796, 49826.687553726144, 71909.65228195814, 32522.279920849793, -6037.966136689918, 22004.4430499605, 48913.99877238259, 18460.819835760576, -15246.840148787518, -31047.42241471081, -0.068, 0.9, 0.45, 192.0, 126.5, 112.0, 14.0, 16.0, 7.0, 8.0, 0.0, 0.0, 0.0, 1.695412478310773E9, 0.0, 2023-09-22 14:54:38.310
150.0, 50799.50252765448, -187500.02235174447, -7388.235019235018, 13873.280748519988, 50754.687280021586, 73054.4415777256, 118572.31629756885, 49878.05186248444, 71921.2751890749, 32525.96795868492, -6057.032174710295, 21981.532511893813, 48972.8062120445, 18443.564289041078, -15264.676840862852, -30958.03778863404, -0.068, 0.9, 0.45, 192.0, 0.0, 0.0, 0.0, 0.0, 0.0, 0.0, 0.0, 0.0, 0.0, 1.695412478370977E9, 0.0, 2023-09-22 14:54:38.370
152.0, 50737.409381557634, -187500.02235174447, -7447.154217619207, 13812.931038490658, 50790.83005080582, 73014.61076910625, 118596.63499553621, 49829.81679794989, 71894.29663351734, 32494.653164703035, -6054.372317120114, 21982.5383403943, 48885.656760413265, 18440.233879117237, -15268.54369265362, -30977.528509799067, -0.068, 0.9, 0.45, 192.0, 0.0, 0.0, 0.0, 0.0, 0.0, 0.0, 0.0, 0.0, 0.0, 1.695412478370989E9, 0.0, 2023-09-22 14:54:38.370
154.0, 50768.27714065041, -187500.02235174447, -7377.6849958521125, 13843.910556305715, 50775.519105853935, 73036.15785076116, 118601.12769617174, 49863.746746033044, 71923.71152922053, 32531.24297037637, -6037.027363422795, 21993.02130854384, 48962.09972645041, 18457.17650141436, -15249.187081955324, -30944.716148938674, -0.068, 0.9, 0.45, 192.0, 0.0, 0.0, 0.0, 0.0, 0.0, 0.0, 0.0, 0.0, 0.0, 1.695412478370993E9, 0.0, 2023-09-22 14:54:38.370
156.0, 50749.81459973033, -187500.02235174447, -7407.301057255395, 13824.665704329695, 50776.681396565604, 73027.75359484597, 118605.77685901844, 49853.6661092837, 71904.0196423554, 32520.58118827119, -6046.258633882837, 21986.472247418435, 48904.00754261107, 18448.16874839887, -15261.234672216735, -30953.70155020971, -0.068, 0.9, 0.45, 192.0, 0.0, 0.0, 0.0, 0.0, 0.0, 0.0, 0.0, 0.0, 0.0, 1.695412478370996E9, 0.0, 2023-09-22 14:54:38.370
158.0, 50799.50252765448, -187500.02235174447, -7308.349884551751, 13878.309891022433, 50767.13720168319, 73054.59803993678, 118606.6485770522, 49898.280191216494, 71921.25283733045, 32533.120516910618, -6049.097305428661, 21983.454761916968, 48966.54772359702, 18449.5545565551, -15264.274509462657, -30876.118645205337, -0.064, 0.91, 0.45, 192.0, 127.0, 0.0, 14.0, 56.0, 7.0, 8.0, 0.0, 0.0, 0.0, 1.695412478370999E9, 0.0, 2023-09-22 14:54:38.370
160.0, 50721.76316043892, -187500.02235174447, -7408.843327622811, 13795.49667781552, 50773.17217268612, 73000.59622533277, 118586.21908262004, 49825.70407697011, 71895.30246201783, 32512.6239672451, -6039.3519448461475, 21989.40032594208, 48895.804452395976, 18455.634231046944, -15271.874102577462, -30906.20409324218, -0.064, 0.91, 0.45, 192.0, 0.0, 0.0, 0.0, 0.0, 0.0, 0.0, 0.0, 0.0, 0.0, 1.695412478371003E9, 0.0, 2023-09-22 14:54:38.371
162.0, 50774.42387037562, -187500.02235174447, -7310.406245041639, 13841.921251049193, 50763.42681210361, 73032.80508909287, 118606.80503926337, 49876.57664735039, 71925.45496528804, 32538.48493557989, -6027.080837140184, 21993.893026577596, 48954.67894729125, 18474.6108620895, -15273.215207244779, -30890.267299445546, -0.064, 0.91, 0.45, 192.0, 0.0, 0.0, 0.0, 0.0, 0.0, 0.0, 0.0, 0.0, 0.0, 1.695412478371006E9, 0.0, 2023-09-22 14:54:38.371
164.0, 50766.57840807181, -187500.02235174447, -7346.616071059236, 13825.000980496525, 50764.678509793106, 73030.50285941397, 118589.59419603279, 49873.2238856821, 71905.40545051164, 32530.25949362034, -6040.313069857725, 21982.180712483016, 48915.27282181654, 18447.721713509764, -15289.353166741512, -30873.39173238179, -0.064, 0.91, 0.45, 192.0, 0.0, 0.0, 0.0, 0.0, 0.0, 0.0, 0.0, 0.0, 0.0, 1.695412478371009E9, 0.0, 2023-09-22 14:54:38.371
166.0, 50813.85234759478, -187500.02235174447, -7241.652279097114, 13871.291443263466, 50770.46761160703, 73055.4474062261, 118627.83803079583, 49922.129502550306, 71928.20422985604, 32539.803688502754, -6033.764008732321, 21990.29439572029, 48954.70129903571, 18455.433065346846, -15283.608768416498, -30830.72225221661, -0.064, 0.91, 0.45, 192.0, 0.0, 0.0, 0.0, 0.0, 0.0, 0.0, 0.0, 0.0, 0.0, 1.695412478431297E9, 0.0, 2023-09-22 14:54:38.431
168.0, 50779.832992533804, -187500.02235174447, -7306.002951383943, 13830.901841032726, 50764.99143421548, 73035.44259493859, 118602.35704211677, 49890.0771010014, 71910.0769651028, 32533.187572143983, -6022.498729526846, 21995.45764868947, 48914.69167646071, 18456.12596942496, -15285.799239373118, -30813.75727817503, -0.05, 0.904, 0.45, 192.0, 127.0, 56.0, 14.0, 32.0, 7.0, 8.0, 0.0, 0.0, 0.0, 1.69541247843131E9, 0.0, 2023-09-22 14:54:38.431
170.0, 50809.47140568154, -187500.02235174447, -7218.272354396863, 13860.31673673591, 50779.94475125608, 73049.32302824534, 118647.86519382778, 49929.84085438739, 71917.63185472868, 32528.493705808367, -6032.6017180206445, 21988.841532330698, 48940.73145875114, 18454.51664382418, -15284.50283819471, -30801.888501869264, -0.05, 0.904, 0.45, 192.0, 0.0, 0.0, 0.0, 0.0, 0.0, 0.0, 0.0, 0.0, 0.0, 1.695412478431314E9, 0.0, 2023-09-22 14:54:38.431
172.0, 50743.10907639374, -187500.02235174447, -7315.5247945219035, 13782.800886964904, 50782.62696059072, 73005.7818300464, 118622.18303944863, 49872.10629845933, 71919.35293905175, 32531.15356339855, -6017.5142905133125, 22000.196218513993, 48920.793702697, 18467.167731185884, -15270.935329310338, -30811.29858628495, -0.05, 0.904, 0.45, 192.0, 0.0, 0.0, 0.0, 0.0, 0.0, 0.0, 0.0, 0.0, 0.0, 1.695412478431317E9, 0.0, 2023-09-22 14:54:38.431
174.0, 50781.2858559234, -187500.02235174447, -7222.183909676542, 13824.665704329695, 50776.36847214324, 73031.30752221437, 118673.27912727346, 49925.66107817425, 71925.16439261012, 32524.984481928885, -6033.764008732321, 21985.95815729596, 48931.25431910209, 18451.543861811624, -15275.74095436823, -30824.82139168041, -0.05, 0.904, 0.45, 192.0, 0.0, 0.0, 0.0, 0.0, 0.0, 0.0, 0.0, 0.0, 0.0, 1.69541247843132E9, 0.0, 2023-09-22 14:54:38.431
176.0, 50764.410288859646, -187500.02235174447, -7269.346090477239, 13797.955369705604, 50769.46178310654, 73020.57868487581, 118634.0518157544, 49903.73401686359, 71913.16150583762, 32527.487877307878, -6040.804808235742, 21985.555825895768, 48932.841292958416, 18448.638135032434, -15284.413431216888, -30779.872033580785, -0.05, 0.904, 0.45, 192.0, 0.0, 0.0, 0.0, 0.0, 0.0, 0.0, 0.0, 0.0, 0.0, 1.695412478431323E9, 0.0, 2023-09-22 14:54:38.431
178.0, 50800.19543173259, -187500.02235174447, -7179.2238568334415, 13834.88045154577, 50774.02153897542, 73040.91877233014, 118680.67755468817, 49941.4414097597, 71918.16829659561, 32533.254627377348, -6031.729999986887, 21993.758916110866, 48935.63526101533, 18454.807216502097, -15283.11703003848, -30777.838024835353, -0.046, 0.906, 0.454, 192.0, 127.0, 72.0, 14.0, 40.0, 7.0, 24.0, 0.0, 0.0, 0.0, 1.695412478431327E9, 0.0, 2023-09-22 14:54:38.431
180.0, 50793.199335718076, -187500.02235174447, -7207.744682758414, 13817.043759470434, 50755.514294566434, 73035.2414292385, 118635.66114135519, 49919.603755426855, 71912.08862210377, 32532.315854110228, -6039.91073845753, 21992.618977143644, 48938.63039477234, 18456.863576991986, -15291.990672587237, -30740.622370317265, -0.046, 0.906, 0.454, 192.0, 0.0, 0.0, 0.0, 0.0, 0.0, 0.0, 0.0, 0.0, 0.0, 1.695412478490583E9, 0.0, 2023-09-22 14:54:38.490
182.0, 50805.60455389077, -187500.02235174447, -7151.239472775397, 13828.174928209179, 50786.67262633713, 73042.52809793093, 118701.97876715408, 49943.229549316115, 71916.6260262282, 32529.85716222014, -6038.14495064556, 21989.422677686536, 48915.74220845011, 18457.42237060337, -15284.994576572726, -30749.89834426622, -0.046, 0.906, 0.454, 192.0, 0.0, 0.0, 0.0, 0.0, 0.0, 0.0, 0.0, 0.0, 0.0, 1.695412478490616E9, 0.0, 2023-09-22 14:54:38.490
184.0, 50783.409271646655, -187500.02235174447, -7185.66115923657, 13796.97189294957, 50781.308207667855, 73026.79246983438, 118662.03619981244, 49940.435581259204, 71926.32668332181, 32543.44702284897, -6035.350982588647, 21996.01644230085, 48948.10753442139, 18466.161902685395, -15269.996556043216, -30710.402811813692, -0.046, 0.906, 0.454, 192.0, 0.0, 0.0, 0.0, 0.0, 0.0, 0.0, 0.0, 0.0, 0.0, 1.695412478490619E9, 0.0, 2023-09-22 14:54:38.490
186.0, 50798.47434740953, -187500.02235174447, -7135.325030723218, 13806.717253532082, 50801.11185325526, 73042.61750490875, 118723.48114532008, 49981.831011990434, 71939.20128812805, 32544.989293216386, -6026.119712128605, 22002.431392959523, 48920.9948683971, 18473.64973707792, -15255.579680869543, -30744.600980830313, -0.046, 0.906, 0.454, 192.0, 0.0, 0.0, 0.0, 0.0, 0.0, 0.0, 0.0, 0.0, 0.0, 1.695412478490622E9, 0.0, 2023-09-22 14:54:38.490
188.0, 50815.88635634022, -187500.02235174447, -7123.143329995076, 13816.015579225492, 50776.56963784333, 73055.26859227045, 118677.59301395334, 50000.80764303299, 71928.89713393417, 32563.071854480728, -6039.731924501887, 22010.88035236363, 48965.16191544079, 18478.231844691258, -15253.366858168467, -30687.26875630245, -0.05, 0.922, 0.458, 192.0, 127.0, 56.0, 14.0, 104.0, 7.0, 40.0, 0.0, 0.0, 0.0, 1.695412478490626E9, 0.0, 2023-09-22 14:54:38.490
190.0, 50820.53551918692, -187500.02235174447, -7098.668169816515, 13816.216744925589, 50790.51712638344, 73057.25789752697, 118710.18185736917, 50012.18468096074, 71917.92242740661, 32563.407130647556, -6033.048752909751, 22004.577160427234, 48918.75969395157, 18480.60112960352, -15262.553425139598, -30701.842093687308, -0.05, 0.922, 0.458, 192.0, 0.0, 0.0, 0.0, 0.0, 0.0, 0.0, 0.0, 0.0, 0.0, 1.695412478490629E9, 0.0, 2023-09-22 14:54:38.490
192.0, 50807.526803913934, -187500.02235174447, -7105.172527453009, 13796.01076793799, 50788.505469382464, 73044.80797586536, 118680.34227852135, 49997.32077089796, 71937.54725903836, 32559.383816645604, -6027.7290377293875, 21999.860942347164, 48971.576866099465, 18486.412583161902, -15257.21135821478, -30658.278543743916, -0.05, 0.922, 0.458, 192.0, 0.0, 0.0, 0.0, 0.0, 0.0, 0.0, 0.0, 0.0, 0.0, 1.695412478490632E9, 0.0, 2023-09-22 14:54:38.490
194.0, 50798.943734043096, -187500.02235174447, -7105.016065241822, 13781.862113697782, 50804.35285620128, 73042.25987699746, 118729.29259887847, 50006.507337869094, 71930.21588685703, 32544.497554838366, -6020.710589970421, 22003.236055759913, 48919.22908058514, 18487.99955701823, -15261.100561750003, -30722.852733475298, -0.05, 0.922, 0.458, 192.0, 0.0, 0.0, 0.0, 0.0, 0.0, 0.0, 0.0, 0.0, 0.0, 1.695412478490636E9, 0.0, 2023-09-22 14:54:38.490
196.0, 50840.652089196694, -187500.02235174447, -7045.7392389463475, 13817.155518192712, 50787.320826926334, 73065.03630459742, 118702.15758110971, 50054.85416112592, 71946.62206728722, 32557.081586966706, -6019.660057981022, 21999.97270106944, 48988.22891571867, 18474.253234178213, -15273.215207244779, -30649.427252939615, -0.05, 0.922, 0.458, 192.0, 0.0, 0.0, 0.0, 0.0, 0.0, 0.0, 0.0, 0.0, 0.0, 1.695412478550407E9, 0.0, 2023-09-22 14:54:38.550
198.0, 50825.11762680026, -187500.02235174447, -7060.8266664536795, 13794.624959781762, 50809.694923126095, 73051.6476096687, 118730.49959307905, 50050.36146049041, 71930.77468046841, 32539.468412335926, -6017.00020039084, 22000.062108047263, 48920.748999208095, 18469.358202142503, -15275.07040203457, -30674.55061370738, -0.05, 0.91, 0.452, 192.0, 127.0, 56.0, 14.0, 56.0, 7.0, 16.0, 0.0, 0.0, 0.0, 1.695412478550417E9, 0.0, 2023-09-22 14:54:38.550
200.0, 50851.649147468706, -187500.02235174447, -7006.109596027089, 13812.886335001747, 50794.875716552226, 73057.54847020489, 118717.31206385042, 50071.305045045025, 71952.25470688996, 32552.119499697626, -6023.638668494066, 21991.16611375405, 48980.31639818149, 18463.256175906205, -15277.953777069304, -30619.6770810696, -0.05, 0.91, 0.452, 192.0, 0.0, 0.0, 0.0, 0.0, 0.0, 0.0, 0.0, 0.0, 0.0, 1.695412478550421E9, 0.0, 2023-09-22 14:54:38.550
202.0, 50813.02533304994, -187500.02235174447, -7056.49042802935, 13763.690145455617, 50805.62690563523, 73034.70498737157, 118739.95438098365, 50038.13505627335, 71933.43453805859, 32531.354729098646, -6017.894270169052, 21997.044622545796, 48910.15427233628, 18474.588510345046, -15273.215207244779, -30668.850918871274, -0.05, 0.91, 0.452, 192.0, 0.0, 0.0, 0.0, 0.0, 0.0, 0.0, 0.0, 0.0, 0.0, 1.695412478550424E9, 0.0, 2023-09-22 14:54:38.550
204.0, 50865.149601119716, -187500.02235174447, -6966.658767063471, 13809.913552989192, 50789.24307694949, 73065.77391216444, 118737.11570943781, 50082.995007395155, 71947.22556438751, 32548.185592673493, -6028.824273207698, 21990.517913164844, 48974.63905508984, 18465.446646862823, -15279.943082325826, -30617.06192696833, -0.05, 0.91, 0.452, 192.0, 0.0, 0.0, 0.0, 0.0, 0.0, 0.0, 0.0, 0.0, 0.0, 1.695412478550427E9, 0.0, 2023-09-22 14:54:38.550
206.0, 50852.610272480284, -187500.02235174447, -6998.331188956641, 13789.327596345855, 50784.28098968041, 73061.99646735149, 118736.06517744843, 50067.05821359852, 71926.81842169982, 32543.469374593424, -6027.706685984932, 21994.78709635581, 48909.707237447175, 18480.265853436693, -15284.033451561148, -30625.980273005996, -0.05, 0.91, 0.452, 192.0, 0.0, 0.0, 0.0, 0.0, 0.0, 0.0, 0.0, 0.0, 0.0, 1.69541247855043E9, 0.0, 2023-09-22 14:54:38.550
208.0, 50861.48391502904, -187500.02235174447, -6942.1389033959995, 13794.267331870476, 50788.28195193791, 73055.98384809302, 118741.96603798462, 50062.54316121855, 71944.65511377515, 32547.090357195182, -6019.593002747656, 21991.456686431968, 48961.63033981685, 18469.71583005379, -15290.113126052991, -30575.95706891502, -0.052000000000000005, 0.91, 0.456, 192.0, 127.0, 48.0, 14.0, 56.0, 7.0, 32.0, 0.0, 0.0, 0.0, 1.695412478550434E9, 0.0, 2023-09-22 14:54:38.550
210.0, 50819.127359286234, -187500.02235174447, -7011.764587374281, 13738.700895154583, 50790.65123685017, 73033.31917921534, 118742.63659031829, 50018.264355452586, 71938.26251486094, 32543.5811333157, -6021.381142304081, 22006.007672072374, 48913.50703400458, 18485.049126750127, -15283.251140505212, -30618.850066524756, -0.052000000000000005, 0.91, 0.456, 192.0, 0.0, 0.0, 0.0, 0.0, 0.0, 0.0, 0.0, 0.0, 0.0, 1.695412478610724E9, 0.0, 2023-09-22 14:54:38.610
212.0, 50855.58305449284, -187500.02235174447, -6922.692885719882, 13774.262520582977, 50793.15463222917, 73060.14127256171, 118777.4829599241, 50041.7113353862, 71949.37133185522, 32561.529584113312, -6024.979773161384, 22007.818163373253, 48957.2046944147, 18493.38632743196, -15275.49508517922, -30610.132886187184, -0.052000000000000005, 0.91, 0.456, 192.0, 0.0, 0.0, 0.0, 0.0, 0.0, 0.0, 0.0, 0.0, 0.0, 1.695412478610736E9, 0.0, 2023-09-22 14:54:38.610
214.0, 50834.9523943606, -187500.02235174447, -6973.498400866795, 13740.936069600115, 50791.031216505915, 73050.1947462791, 118752.58311660089, 50000.80764303299, 71932.80868921384, 32556.813366033242, -6032.109979642628, 22002.65491040408, 48922.82771144244, 18491.575836131076, -15280.658338148396, -30591.647993522645, -0.052000000000000005, 0.91, 0.456, 192.0, 0.0, 0.0, 0.0, 0.0, 0.0, 0.0, 0.0, 0.0, 0.0, 1.69541247861074E9, 0.0, 2023-09-22 14:54:38.610
216.0, 50874.17970587966, -187500.02235174447, -6877.899989831447, 13775.715383972572, 50790.45007115007, 73070.60188896679, 118783.31676522695, 50027.67443986827, 71949.84071848879, 32563.34007541419, -6028.757217974332, 21997.91634057955, 48956.22121765867, 18490.32413844158, -15277.998480558215, -30579.0192579054, -0.052000000000000005, 0.91, 0.456, 192.0, 0.0, 0.0, 0.0, 0.0, 0.0, 0.0, 0.0, 0.0, 0.0, 1.695412478610743E9, 0.0, 2023-09-22 14:54:38.610
218.0, 50830.1467693027, -187500.02235174447, -6952.33129886762, 13719.567801900841, 50794.808661318864, 73044.85267935427, 118748.15747119875, 49975.77368924305, 71928.11482287823, 32552.119499697626, -6025.493863283857, 21994.898855078085, 48921.039571886016, 18488.513647140702, -15276.903245079906, -30578.326353827284, -0.056, 0.906, 0.458, 192.0, 127.0, 32.0, 14.0, 40.0, 7.0, 40.0, 0.0, 0.0, 0.0, 1.695412478610746E9, 0.0, 2023-09-22 14:54:38.610
220.0, 50891.703473532616, -187500.02235174447, -6833.554128832117, 13783.225570109555, 50798.29553345389, 73086.56103450787, 118796.28077701102, 50033.19532074873, 71944.90098296416, 32561.663694580046, -6030.679467997488, 21999.056279546774, 48954.34367112442, 18481.830475548562, -15270.510646165687, -30569.81033918981, -0.056, 0.906, 0.458, 192.0, 0.0, 0.0, 0.0, 0.0, 0.0, 0.0, 0.0, 0.0, 0.0, 1.695412478610749E9, 0.0, 2023-09-22 14:54:38.610
222.0, 50868.59176976583, -187500.02235174447, -6889.679359159393, 13749.653249937684, 50789.44424264959, 73065.93037437563, 118744.24591591906, 49991.37520687285, 71934.88740144818, 32560.6355143351, -6021.71641847091, 21997.134029523615, 48941.91610120727, 18481.60695810401, -15270.868274076973, -30528.146687525117, -0.056, 0.906, 0.458, 192.0, 0.0, 0.0, 0.0, 0.0, 0.0, 0.0, 0.0, 0.0, 0.0, 1.695412478610753E9, 0.0, 2023-09-22 14:54:38.610
224.0, 50911.03773248646, -187500.02235174447, -6791.421090533864, 13796.256637126999, 50796.82031831984, 73086.29281357442, 118788.43531470721, 50030.91544281429, 71947.00204694296, 32563.809462047753, -6029.628936008088, 21999.570369669244, 48951.48264783414, 18478.56712085809, -15273.282262478146, -30527.498486935914, -0.056, 0.906, 0.458, 192.0, 0.0, 0.0, 0.0, 0.0, 0.0, 0.0, 0.0, 0.0, 0.0, 1.695412478610756E9, 0.0, 2023-09-22 14:54:38.610
226.0, 50863.09324062982, -187500.02235174447, -6868.579312393584, 13736.041037564402, 50797.42381542013, 73046.4396532106, 118748.09041596537, 49971.348043840895, 71946.39854984266, 32573.06308425225, -6017.491938768857, 22022.145631569103, 48949.828618744454, 18491.6652431089, -15257.054896003592, -30510.98054778344, -0.056, 0.906, 0.458, 192.0, 0.0, 0.0, 0.0, 0.0, 0.0, 0.0, 0.0, 0.0, 0.0, 1.69541247867035E9, 0.0, 2023-09-22 14:54:38.670
228.0, 50884.014473439995, -187500.02235174447, -6803.535736028641, 13755.732924429527, 50804.82224283484, 73060.99063885101, 118804.61797769285, 49997.74545404261, 71952.32176212332, 32569.86678479514, -6022.543433015756, 22013.227285531437, 48931.88016794684, 18489.85475180802, -15250.148206966902, -30560.46731000749, -0.062, 0.902, 0.456, 192.0, 127.0, 8.0, 14.0, 24.0, 7.0, 32.0, 0.0, 0.0, 0.0, 1.695412478670366E9, 0.0, 2023-09-22 14:54:38.670
230.0, 50844.8989206432, -187500.02235174447, -6865.651233869939, 13704.458022649053, 50788.639579849194, 73028.31238845734, 118743.5753635854, 49947.18580808471, 71941.63762827369, 32565.754063815366, -6030.053619152739, 21997.044622545796, 48951.63911004533, 18478.008327246705, -15258.932442537838, -30511.584044883737, -0.062, 0.902, 0.456, 192.0, 0.0, 0.0, 0.0, 0.0, 0.0, 0.0, 0.0, 0.0, 0.0, 1.69541247867037E9, 0.0, 2023-09-22 14:54:38.670
232.0, 50887.90367697521, -187500.02235174447, -6791.1528696004, 13738.969116088048, 50811.930097571625, 73067.31618253187, 118826.58974249242, 49992.93982898472, 71955.40630285816, 32564.368255659138, -6020.442369036958, 22003.81720111575, 48930.15908362378, 18484.5126848832, -15242.168634196358, -30573.945411914043, -0.062, 0.902, 0.456, 192.0, 0.0, 0.0, 0.0, 0.0, 0.0, 0.0, 0.0, 0.0, 0.0, 1.695412478670373E9, 0.0, 2023-09-22 14:54:38.670
234.0, 50911.86474703131, -187500.02235174447, -6779.708776439283, 13753.76597091746, 50793.489908396, 73081.12956060524, 118776.8347593349, 50003.04281747852, 71939.80478522835, 32577.93576454351, -6028.064313896217, 21998.564541168755, 48973.92379926727, 18487.820743062584, -15238.748817294696, -30480.850396257687, -0.062, 0.902, 0.456, 192.0, 0.0, 0.0, 0.0, 0.0, 0.0, 0.0, 0.0, 0.0, 0.0, 1.695412478670376E9, 0.0, 2023-09-22 14:54:38.670
236.0, 50924.31466869291, -187500.02235174447, -6737.262813718655, 13763.44427626661, 50801.98357128901, 73085.8010751964, 118821.56059998997, 50014.30809668399, 71939.13423289469, 32590.02805829383, -6017.626049235589, 22020.87158213515, 48936.81990347146, 18497.364937945003, -15236.714808549263, -30496.429562143036, -0.062, 0.902, 0.456, 192.0, 0.0, 0.0, 0.0, 0.0, 0.0, 0.0, 0.0, 0.0, 0.0, 1.69541247867038E9, 0.0, 2023-09-22 14:54:38.670
238.0, 50919.866671546304, -187500.02235174447, -6741.733162609717, 13751.173168560645, 50783.52103036893, 73076.92743264764, 118779.9416518142, 49998.14778544281, 71937.03316891589, 32590.27392748284, -6028.533700529779, 22016.848268133195, 48969.72167130967, 18493.341623943048, -15236.223070171247, -30457.35871283516, -0.058, 0.904, 0.458, 192.0, 127.0, 24.0, 14.0, 32.0, 7.0, 40.0, 0.0, 0.0, 0.0, 1.695412478670383E9, 0.0, 2023-09-22 14:54:38.670
240.0, 50912.87057553179, -187500.02235174447, -6730.870214804437, 13741.204290533578, 50796.976780531026, 73069.12667383274, 118823.70636745768, 50001.14291919982, 71925.18674435458, 32565.64230509309, -6037.519101800812, 22014.054300076285, 48912.16592933726, 18486.74785932873, -15239.464073117266, -30506.487847147924, -0.058, 0.904, 0.458, 192.0, 0.0, 0.0, 0.0, 0.0, 0.0, 0.0, 0.0, 0.0, 0.0, 1.695412478730597E9, 0.0, 2023-09-22 14:54:38.730
242.0, 50918.07853198988, -187500.02235174447, -6716.229822186211, 13739.416150977153, 50784.48215538051, 73070.93716513363, 118792.65979440926, 50006.37322740236, 71929.41122405663, 32576.48290115391, -6034.255747110337, 22001.805544114774, 48964.73723229614, 18490.547655886134, -15244.135587708424, -30452.79895696628, -0.058, 0.904, 0.458, 192.0, 0.0, 0.0, 0.0, 0.0, 0.0, 0.0, 0.0, 0.0, 0.0, 1.695412478730619E9, 0.0, 2023-09-22 14:54:38.730
244.0, 50893.06692994439, -187500.02235174447, -6737.978069541225, 13707.006121516959, 50808.82320509234, 73058.50959521647, 118831.48477452813, 49990.70465453919, 71926.66195948863, 32576.862880809655, -6017.961325402418, 22012.042643075307, 48914.87049041635, 18503.75753685922, -15233.540860836609, -30504.096210491207, -0.058, 0.904, 0.458, 192.0, 0.0, 0.0, 0.0, 0.0, 0.0, 0.0, 0.0, 0.0, 0.0, 1.695412478730631E9, 0.0, 2023-09-22 14:54:38.730
246.0, 50925.253441960034, -187500.02235174447, -6693.9004294753595, 13725.33455197031, 50800.86598406625, 73076.32393554735, 118819.25837031107, 50011.78234956054, 71948.6337242882, 32580.126235500127, -6010.6523049655325, 22015.082480321227, 48983.75856682761, 18491.799353575632, -15227.572945067042, -30469.965096707954, -0.058, 0.904, 0.458, 192.0, 0.0, 0.0, 0.0, 0.0, 0.0, 0.0, 0.0, 0.0, 0.0, 1.695412478730637E9, 0.0, 2023-09-22 14:54:38.730
248.0, 50920.80544481343, -187500.02235174447, -6708.674932560317, 13709.844793062783, 50814.61230690627, 73075.02753436894, 118839.93373393224, 50007.75903555859, 71931.69110199108, 32578.7404273439, -6009.490014253857, 22021.31861702426, 48929.24266210111, 18495.397984432937, -15228.53407007862, -30492.361544652173, -0.054, 0.898, 0.462, 192.0, 127.0, 40.0, 14.0, 8.0, 7.0, 56.0, 0.0, 0.0, 0.0, 1.695412478730643E9, 0.0, 2023-09-22 14:54:38.730
250.0, 50932.383648441275, -187500.02235174447, -6669.693490230262, 13714.136327998202, 50806.07394052434, 73071.96534537856, 118824.37691979134, 50015.06805599548, 71953.2828871349, 32585.53535765831, -6015.569688745701, 22017.563523955767, 48989.54766864153, 18493.27456870968, -15231.059817202071, -30446.853392941168, -0.054, 0.898, 0.462, 192.0, 0.0, 0.0, 0.0, 0.0, 0.0, 0.0, 0.0, 0.0, 0.0, 1.695412478730649E9, 0.0, 2023-09-22 14:54:38.730
252.0, 50909.78603479696, -187500.02235174447, -6712.877060517915, 13680.318138637322, 50804.88929806821, 73061.92941211813, 118832.8929344288, 50001.99228548912, 71932.96515142503, 32575.11944474214, -6009.400607276036, 22027.755919427385, 48922.53713876452, 18492.872237309486, -15236.178366682336, -30501.32459417875, -0.054, 0.898, 0.462, 192.0, 0.0, 0.0, 0.0, 0.0, 0.0, 0.0, 0.0, 0.0, 0.0, 1.695412478730654E9, 0.0, 2023-09-22 14:54:38.730
254.0, 50950.287395749976, -187500.02235174447, -6637.506978214619, 13713.599886131275, 50806.72214111354, 73083.38708679522, 118843.64412351181, 50042.20307376422, 71950.37716035571, 32578.78513083281, -6018.47541552489, 22028.292361294316, 48984.563229627995, 18491.32996694207, -15239.68759056182, -30459.41507332505, -0.054, 0.898, 0.462, 192.0, 0.0, 0.0, 0.0, 0.0, 0.0, 0.0, 0.0, 0.0, 0.0, 1.695412478730658E9, 0.0, 2023-09-22 14:54:38.730
0.0, 50920.581927368876, -187500.02235174447, -6694.906257975848, 13671.489199577476, 50818.12153078575, 73064.38810400822, 118842.7500537336, 50016.431512407245, 71941.01177942894, 32578.673372110534, -6001.756310672321, 22020.893933879608, 48930.315545834965, 18502.483487425267, -15231.529203835631, -30473.295506631795, -0.054, 0.898, 0.462, 192.0, 0.0, 0.0, 0.0, 0.0, 0.0, 0.0, 0.0, 0.0, 0.0, 1.695412478790784E9, 0.0, 2023-09-22 14:54:38.790
2.0, 50951.18146552819, -187500.02235174447, -6615.579916903963, 13699.026548746413, 50816.422798207146, 73077.64268847021, 118856.63048704035, 50049.646204667835, 71952.05354118986, 32586.518834414346, -6016.240241079359, 22010.321558752246, 48980.78578481505, 18497.05201352263, -15225.58363981052, -30457.761044235354, -0.056, 0.896, 0.466, 192.0, 127.0, 32.0, 14.0, 0.0, 7.0, 72.0, 0.0, 0.0, 0.0, 1.695412478790798E9, 0.0, 2023-09-22 14:54:38.790
4.0, 50901.22531667058, -187500.02235174447, -6701.254153401155, 13636.799292182839, 50820.62492616474, 73044.87503109874, 118836.37980656384, 50001.344084899916, 71935.98263692649, 32578.226337221426, -6007.1877845749605, 22020.826878646243, 48932.43896155822, 18500.784754846663, -15225.360122365968, -30477.676448545033, -0.056, 0.896, 0.466, 192.0, 0.0, 0.0, 0.0, 0.0, 0.0, 0.0, 0.0, 0.0, 0.0, 1.695412478790801E9, 0.0, 2023-09-22 14:54:38.790
6.0, 50949.39332597177, -187500.02235174447, -6602.660608608796, 13682.41920261612, 50806.07394052434, 73071.5406622339, 118856.98811495163, 50052.52957970257, 71952.74644526797, 32581.40028493408, -6029.4948255413565, 22010.701538407986, 48983.19977321623, 18490.435897163858, -15236.4465876158, -30471.88734673111, -0.056, 0.896, 0.466, 192.0, 0.0, 0.0, 0.0, 0.0, 0.0, 0.0, 0.0, 0.0, 0.0, 1.695412478790804E9, 0.0, 2023-09-22 14:54:38.790
8.0, 50934.50706416453, -187500.02235174447, -6656.349498790443, 13653.943080180059, 50804.06228352336, 73062.73407491852, 118826.56739074796, 50033.59765214892, 71927.26545658892, 32574.58300287521, -6030.791226719764, 22012.31086400877, 48938.40687732779, 18491.88876055345, -15244.716733064262, -30467.774625751335, -0.056, 0.896, 0.466, 192.0, 0.0, 0.0, 0.0, 0.0, 0.0, 0.0, 0.0, 0.0, 0.0, 1.695412478790808E9, 0.0, 2023-09-22 14:54:38.790
10.0, 50961.35150925536, -187500.02235174447, -6577.514896096575, 13680.631063059696, 50809.270239981444, 73074.91577564666, 118856.58578355143, 50062.61021645191, 71936.18380262659, 32575.365313931146, -6036.066238411217, 22004.89008484961, 48962.010319472596, 18494.32510069908, -15248.315363921567, -30448.70858773096, -0.056, 0.896, 0.466, 192.0, 0.0, 0.0, 0.0, 0.0, 0.0, 0.0, 0.0, 0.0, 0.0, 1.695412478790811E9, 0.0, 2023-09-22 14:54:38.790
12.0, 50907.75202605153, -187500.02235174447, -6668.531199518586, 13616.190983795046, 50805.00105679048, 73044.71856888755, 118828.89197217132, 50014.79983506201, 71925.14204086567, 32573.487767396902, -6030.701819741943, 22013.987244842916, 48933.333031336435, 18502.79641184764, -15243.152110952391, -30469.22748914093, -0.054, 0.892, 0.47000000000000003, 192.0, 127.0, 40.0, 13.5, 112.0, 7.0, 88.0, 0.0, 0.0, 0.0, 1.695412478790815E9, 0.0, 2023-09-22 14:54:38.790
14.0, 50958.55754119844, -187500.02235174447, -6563.63446278983, 13670.952757710547, 50813.271202238946, 73085.8010751964, 118883.18435945325, 50082.14564110585, 71935.91558169313, 32572.124310985128, -6036.893252956063, 21994.87650333363, 48950.72268852266, 18489.832400063562, -15247.465997632265, -30481.40918986907, -0.054, 0.892, 0.47000000000000003, 192.0, 0.0, 0.0, 0.0, 0.0, 0.0, 0.0, 0.0, 0.0, 0.0, 1.695412478851219E9, 0.0, 2023-09-22 14:54:38.851
16.0, 50919.665505846206, -187500.02235174447, -6636.2552805251225, 13618.336751262756, 50815.23815575101, 73058.95663010557, 118839.1961263652, 50045.33231798796, 71929.83590720128, 32574.672409853032, -6027.460816795924, 22004.778326127333, 48939.81503722847, 18491.441725664346, -15240.983991740226, -30452.12840463262, -0.054, 0.892, 0.47000000000000003, 192.0, 0.0, 0.0, 0.0, 0.0, 0.0, 0.0, 0.0, 0.0, 0.0, 1.695412478851232E9, 0.0, 2023-09-22 14:54:38.851
18.0, 50969.7334134261, -187500.02235174447, -6538.980488655626, 13663.867254718216, 50819.10500754178, 73095.88171194574, 118894.78491482556, 50109.7276937637, 71942.3305323518, 32577.91341279905, -6025.426808050491, 22001.671433648044, 48947.794609999015, 18487.083135495563, -15243.532090608132, -30473.5413758208, -0.054, 0.892, 0.47000000000000003, 192.0, 0.0, 0.0, 0.0, 0.0, 0.0, 0.0, 0.0, 0.0, 0.0, 1.695412478851236E9, 0.0, 2023-09-22 14:54:38.851
20.0, 50960.32332901041, -187500.02235174447, -6578.0289862190475, 13642.163710852112, 50808.33146671432, 73083.9011769177, 118846.7510159911, 50098.1271383914, 71928.53950602288, 32577.891061054597, -6028.086665640672, 22000.79971561429, 48950.521522822564, 18481.875179037474, -15246.750741809696, -30428.077927598708, -0.054, 0.892, 0.47000000000000003, 192.0, 0.0, 0.0, 0.0, 0.0, 0.0, 0.0, 0.0, 0.0, 0.0, 1.695412478851239E9, 0.0, 2023-09-22 14:54:38.851
22.0, 50984.99965488907, -187500.02235174447, -6507.8892121182935, 13670.639833288174, 50825.497606455996, 73094.51825553397, 118898.87528406088, 50131.520644607626, 71927.24310484447, 32576.237031964905, -6030.81357846422, 22000.15151502508, 48944.12892390835, 18483.015118004696, -15244.11323596397, -30442.606561494656, -0.054, 0.89, 0.47000000000000003, 192.0, 127.0, 40.0, 13.5, 104.0, 7.0, 88.0, 0.0, 0.0, 0.0, 1.695412478851242E9, 0.0, 2023-09-22 14:54:38.851
24.0, 50938.46332293312, -187500.02235174447, -6577.470192607665, 13614.000512838425, 50823.73181864403, 73060.47654872853, 118854.55177480601, 50078.99404513765, 71936.78729972689, 32591.860901339165, -6022.923412671496, 22014.12135530965, 48966.21244743019, 18500.85181008003, -15232.624439313942, -30419.36074726114, -0.054, 0.89, 0.47000000000000003, 192.0, 0.0, 0.0, 0.0, 0.0, 0.0, 0.0, 0.0, 0.0, 0.0, 1.695412478851245E9, 0.0, 2023-09-22 14:54:38.851
26.0, 50945.99586081456, -187500.02235174447, -6542.087381134914, 13615.386320994654, 50832.58310944833, 73069.93133663313, 118916.4214034583, 50099.848222714456, 71948.3878550992, 32588.68695362651, -6003.499746739834, 22025.27487579285, 48938.563339538974, 18511.982978818774, -15220.889773474906, -30493.32266966375, -0.054, 0.89, 0.47000000000000003, 192.0, 0.0, 0.0, 0.0, 0.0, 0.0, 0.0, 0.0, 0.0, 0.0, 1.695412478851248E9, 0.0, 2023-09-22 14:54:38.851
28.0, 50947.80635211544, -187500.02235174447, -6554.760820241073, 13603.271675499878, 50813.51707142795, 73068.47847324354, 118865.86175750039, 50093.545030778056, 71950.2877533779, 32596.21949150795, -6023.169281860505, 22014.009596587373, 48984.38441567236, 18508.18318226137, -15228.467014845255, -30443.701796972968, -0.054, 0.89, 0.47000000000000003, 192.0, 0.0, 0.0, 0.0, 0.0, 0.0, 0.0, 0.0, 0.0, 0.0, 1.695412478851252E9, 0.0, 2023-09-22 14:54:38.851
30.0, 50957.43995397568, -187500.02235174447, -6528.206947828168, 13607.876134857672, 50823.620059921755, 73073.17233957915, 118914.78972611306, 50114.1309874214, 71937.5249072939, 32586.58588964771, -6015.323819556692, 22008.913398851564, 48939.613871528374, 18499.08602226806, -15225.695398532796, -30493.099152219198, -0.054, 0.89, 0.47000000000000003, 192.0, 0.0, 0.0, 0.0, 0.0, 0.0, 0.0, 0.0, 0.0, 0.0, 1.695412478911435E9, 0.0, 2023-09-22 14:54:38.911
32.0, 50966.13478256879, -187500.02235174447, -6517.0981308338805, 13610.804213381316, 50820.69198139811, 73076.92743264764, 118885.03955424305, 50122.289374147585, 71946.89028822069, 32597.02415430834, -6025.024476650296, 22007.37112848415, 48991.9616570427, 18503.310501970114, -15228.10938693397, -30443.36652080614, -0.05, 0.894, 0.47400000000000003, 192.0, 127.0, 56.0, 13.5, 120.0, 7.0, 104.0, 0.0, 0.0, 0.0, 1.695412478911477E9, 0.0, 2023-09-22 14:54:38.911
34.0, 50964.056070334445, -187500.02235174447, -6510.213793541646, 13602.042329554837, 50835.37707750525, 73074.28992680191, 118925.89854310734, 50134.04639173108, 71940.8776689622, 32595.861863596663, -6009.512365998312, 22017.943503611506, 48934.07063890346, 18512.631179407977, -15216.620590283943, -30491.869806274153, -0.05, 0.894, 0.47400000000000003, 192.0, 0.0, 0.0, 0.0, 0.0, 0.0, 0.0, 0.0, 0.0, 0.0, 1.69541247891148E9, 0.0, 2023-09-22 14:54:38.911
36.0, 50998.47775679562, -187500.02235174447, -6464.8621040418275, 13628.931478134571, 50806.968010302546, 73088.08095313085, 118883.18435945325, 50169.675072392834, 71957.61912555923, 32604.713154400964, -6020.844700437153, 22010.522724452345, 48999.673008879785, 18491.6652431089, -15230.63513405742, -30428.234389809895, -0.05, 0.894, 0.47400000000000003, 192.0, 0.0, 0.0, 0.0, 0.0, 0.0, 0.0, 0.0, 0.0, 0.0, 1.695412478911483E9, 0.0, 2023-09-22 14:54:38.911
38.0, 50981.1328030983, -187500.02235174447, -6490.14192702078, 13602.243495254934, 50826.123455300745, 73074.28992680191, 118911.30285397804, 50165.80822060206, 71945.8844597202, 32590.27392748284, -6017.670752724499, 22011.752070397386, 48931.56724352446, 18501.589417647054, -15228.131738678425, -30469.45100658548, -0.05, 0.894, 0.47400000000000003, 192.0, 0.0, 0.0, 0.0, 0.0, 0.0, 0.0, 0.0, 0.0, 0.0, 1.695412478911487E9, 0.0, 2023-09-22 14:54:38.911
40.0, 51021.745922773596, -187500.02235174447, -6430.552176302931, 13634.69822820404, 50812.287725482915, 73095.97111892357, 118897.04244101554, 50205.750787943696, 71971.00782048795, 32607.998860835894, -6008.260668308815, 22006.87939010613, 48992.49809890963, 18502.95287405883, -15228.422311356344, -30424.41224150804, -0.05, 0.894, 0.47400000000000003, 192.0, 0.0, 0.0, 0.0, 0.0, 0.0, 0.0, 0.0, 0.0, 0.0, 1.695412478911492E9, 0.0, 2023-09-22 14:54:38.911
42.0, 50981.75865194305, -187500.02235174447, -6487.057386285947, 13587.871323570173, 50824.938812844615, 73069.3948947662, 118913.15804876781, 50175.330063740024, 71942.86697421873, 32596.934747330517, -6007.098377597139, 22025.721910681954, 48924.369981809854, 18514.419318964403, -15224.242535143201, -30461.292619859294, -0.054, 0.892, 0.464, 192.0, 127.0, 40.0, 13.5, 112.0, 7.0, 64.0, 0.0, 0.0, 0.0, 1.695412478911496E9, 0.0, 2023-09-22 14:54:38.911
44.0, 51011.12884415732, -187500.02235174447, -6429.591051291353, 13614.22403028298, 50806.67743762463, 73085.71166821857, 118907.2124847427, 50205.50491875469, 71957.35090462577, 32594.096075784695, -6017.313124813214, 22016.848268133195, 48983.98208427216, 18498.95191180133, -15228.757587523174, -30440.25962832685, -0.054, 0.892, 0.464, 192.0, 0.0, 0.0, 0.0, 0.0, 0.0, 0.0, 0.0, 0.0, 0.0, 1.695412478970843E9, 0.0, 2023-09-22 14:54:38.970
46.0, 50997.15900387276, -187500.02235174447, -6469.466563399621, 13592.74400386143, 50822.01073432097, 73081.24131932751, 118920.28825524906, 50194.485508738224, 71929.74650022347, 32587.032924536816, -6016.2849445682705, 22015.574218699243, 48922.38067655333, 18502.550542658635, -15235.999552726693, -30456.397587823583, -0.054, 0.892, 0.464, 192.0, 0.0, 0.0, 0.0, 0.0, 0.0, 0.0, 0.0, 0.0, 0.0, 1.695412478970856E9, 0.0, 2023-09-22 14:54:38.970
48.0, 51037.3474404034, -187500.02235174447, -6390.7213676835745, 13628.529146734376, 50820.15553953118, 73102.09549690432, 118930.86063037642, 50231.79057023413, 71966.1351401967, 32608.17767479154, -6011.322857299192, 22010.120393052148, 48980.04817724803, 18502.014100791705, -15232.646791058398, -30417.483200726892, -0.054, 0.892, 0.464, 192.0, 0.0, 0.0, 0.0, 0.0, 0.0, 0.0, 0.0, 0.0, 0.0, 1.695412478970859E9, 0.0, 2023-09-22 14:54:38.970
50.0, 50996.75667247256, -187500.02235174447, -6465.197380208658, 13575.421401908567, 50824.804702377885, 73077.62033672575, 118922.07639480548, 50195.625447705446, 71954.55693656886, 32610.50225621489, -5995.006083846818, 22039.870564922163, 48923.07358063145, 18520.119013800504, -15221.58267755302, -30456.017608167844, -0.054, 0.892, 0.464, 192.0, 0.0, 0.0, 0.0, 0.0, 0.0, 0.0, 0.0, 0.0, 0.0, 1.695412478970863E9, 0.0, 2023-09-22 14:54:38.970
52.0, 51007.753730744575, -187500.02235174447, -6409.9215161706825, 13582.35044268971, 50824.46942621106, 73076.3462872918, 118936.38151125688, 50210.779930446144, 71975.6346315902, 32612.558616704777, -6001.152813572027, 22021.475079235446, 48967.732366053155, 18520.29782775615, -15230.791596268607, -30450.16145112055, -0.046, 0.888, 0.466, 192.0, 127.0, 72.0, 13.5, 96.0, 7.0, 72.0, 0.0, 0.0, 0.0, 1.695412478970866E9, 0.0, 2023-09-22 14:54:38.970
54.0, 50959.719831910115, -187500.02235174447, -6501.831889370906, 13518.692674480997, 50822.63658316572, 73051.08881605731, 118910.92287432229, 50161.06965077754, 71954.04284644638, 32595.146607774095, -6003.4326915064685, 22018.92698036754, 48921.508958519575, 18520.923676600894, -15231.059817202071, -30489.589928339712, -0.046, 0.888, 0.466, 192.0, 0.0, 0.0, 0.0, 0.0, 0.0, 0.0, 0.0, 0.0, 0.0, 1.695412478970869E9, 0.0, 2023-09-22 14:54:38.970
56.0, 51027.95970773217, -187500.02235174447, -6387.346254270823, 13583.043346767825, 50816.6463156517, 73098.29570034692, 118945.50102299465, 50230.293003355626, 71971.47720712153, 32576.326438942724, -6006.04784560774, 22011.103869808183, 48979.1094039809, 18482.679841837864, -15237.742988794207, -30480.448064857494, -0.046, 0.888, 0.466, 192.0, 0.0, 0.0, 0.0, 0.0, 0.0, 0.0, 0.0, 0.0, 0.0, 1.695412478970872E9, 0.0, 2023-09-22 14:54:38.970
58.0, 50990.408777047254, -187500.02235174447, -6467.141981976269, 13532.30488685428, 50820.58022267583, 73067.18207206513, 118907.43600218726, 50188.29407552411, 71944.14102365269, 32582.339058201203, -6001.421034505491, 22014.50133496539, 48948.17458965476, 18522.488298712768, -15238.01120972767, -30456.46464305695, -0.046, 0.888, 0.466, 192.0, 0.0, 0.0, 0.0, 0.0, 0.0, 0.0, 0.0, 0.0, 0.0, 1.695412478970875E9, 0.0, 2023-09-22 14:54:38.970
60.0, 51057.62047262436, -187500.02235174447, -6354.9138730661725, 13593.906294573104, 50819.82026336435, 73110.58915979734, 118954.7322934547, 50253.82939026706, 71959.29550639338, 32595.928918830028, -6005.958438629918, 22018.658759434078, 48967.710014308694, 18516.274513754193, -15236.603049826987, -30471.574422308735, -0.046, 0.888, 0.466, 192.0, 0.0, 0.0, 0.0, 0.0, 0.0, 0.0, 0.0, 0.0, 0.0, 1.695412479030717E9, 0.0, 2023-09-22 14:54:39.030
62.0, 51007.753730744575, -187500.02235174447, -6448.27710965599, 13530.114415897659, 50823.06126631037, 73071.42890351164, 118903.54679865204, 50191.4456714923, 71984.10594273877, 32610.748125403898, -5990.669845422488, 22016.937675111018, 48947.14640940981, 18487.016080262194, -15232.825605014039, -30447.12161387463, -0.054, 0.888, 0.47000000000000003, 192.0, 127.0, 40.0, 13.5, 96.0, 7.0, 88.0, 0.0, 0.0, 0.0, 1.695412479030729E9, 0.0, 2023-09-22 14:54:39.030
64.0, 51047.56218761947, -187500.02235174447, -6367.788477872429, 13563.329108158245, 50827.308097756875, 73092.68541248863, 118951.89362190886, 50234.58453829105, 71986.02819276192, 32609.45172422549, -5994.827269891175, 22016.31182626627, 48958.67990954875, 18497.52140015619, -15226.254192144179, -30488.584099839223, -0.054, 0.888, 0.47000000000000003, 192.0, 0.0, 0.0, 0.0, 0.0, 0.0, 0.0, 0.0, 0.0, 0.0, 1.695412479030732E9, 0.0, 2023-09-22 14:54:39.030
66.0, 51057.88869355783, -187500.02235174447, -6394.699978196619, 13561.58567209073, 50805.02340853494, 73091.85839794378, 118896.08131600397, 50234.42807607986, 71963.1847099286, 32612.670375427053, -6009.199441575938, 22003.347814482193, 48972.828563788964, 18493.878065809975, -15240.626363828942, -30436.41512828054, -0.054, 0.888, 0.47000000000000003, 192.0, 0.0, 0.0, 0.0, 0.0, 0.0, 0.0, 0.0, 0.0, 0.0, 1.695412479030736E9, 0.0, 2023-09-22 14:54:39.030
68.0, 51066.270597728566, -187500.02235174447, -6348.118942751759, 13569.185265205535, 50816.31103948487, 73085.5999094963, 118941.65652294834, 50244.7098785293, 71937.30138984935, 32578.516909899347, -6017.313124813214, 21994.518875422345, 48945.15710415329, 18483.931539527362, -15244.046180730604, -30468.199308895986, -0.054, 0.888, 0.47000000000000003, 192.0, 0.0, 0.0, 0.0, 0.0, 0.0, 0.0, 0.0, 0.0, 0.0, 1.695412479030739E9, 0.0, 2023-09-22 14:54:39.030
70.0, 51055.050022012, -187500.02235174447, -6389.804946160906, 13548.576956817742, 50816.60161216278, 73079.4531797711, 118904.0608887745, 50228.258994610194, 71981.78136131541, 32554.622895076624, -5999.856412393619, 22008.421660473545, 48965.07250846297, 18481.741068570744, -15235.932497493328, -30434.02349162382, -0.054, 0.888, 0.47000000000000003, 192.0, 0.0, 0.0, 0.0, 0.0, 0.0, 0.0, 0.0, 0.0, 0.0, 1.695412479030742E9, 0.0, 2023-09-22 14:54:39.030
72.0, 51071.88088558685, -187500.02235174447, -6342.329840937834, 13563.932605258538, 50839.17687406264, 73090.2043688541, 118967.4280843053, 50254.36583213399, 71983.45774214956, 32549.59375257418, -5989.686368666455, 22027.040663604817, 48934.78589472603, 18494.034528021162, -15223.080244431525, -30482.325611391738, -0.058, 0.894, 0.466, 192.0, 127.0, 24.0, 13.5, 120.0, 7.0, 72.0, 0.0, 0.0, 0.0, 1.695412479030745E9, 0.0, 2023-09-22 14:54:39.030
74.0, 51070.942112319724, -187500.02235174447, -6365.7768208714515, 13547.772294017352, 50820.69198139811, 73079.27436581545, 118909.20178999924, 50241.31241337209, 71989.33625094131, 32539.28959838028, -5989.2840372662595, 22016.35652975518, 48971.62156958837, 18496.336757700057, -15235.664276559864, -30426.893285142578, -0.058, 0.894, 0.466, 192.0, 0.0, 0.0, 0.0, 0.0, 0.0, 0.0, 0.0, 0.0, 0.0, 1.695412479090987E9, 0.0, 2023-09-22 14:54:39.090
76.0, 51066.29294947302, -187500.02235174447, -6350.756448597485, 13534.830633977728, 50837.14286531721, 73070.98186862253, 118955.35814229943, 50243.2570151397, 71977.33336416881, 32518.882455692587, -5989.194630288438, 22017.116489066662, 48935.59055752642, 18480.60112960352, -15230.143395679403, -30477.564689822757, -0.058, 0.894, 0.466, 192.0, 0.0, 0.0, 0.0, 0.0, 0.0, 0.0, 0.0, 0.0, 0.0, 1.695412479090999E9, 0.0, 2023-09-22 14:54:39.090
78.0, 51061.1520482483, -187500.02235174447, -6367.788477872429, 13517.19510760249, 50822.278955254435, 73065.86331914227, 118913.20275225674, 50232.48347431225, 71993.60543413227, 32510.791124199764, -5986.7582901428095, 22014.769555898853, 48978.6623690918, 18478.053030735617, -15231.43979685781, -30454.922372689532, -0.058, 0.894, 0.466, 192.0, 0.0, 0.0, 0.0, 0.0, 0.0, 0.0, 0.0, 0.0, 0.0, 1.695412479091003E9, 0.0, 2023-09-22 14:54:39.091
80.0, 51039.31439391547, -187500.02235174447, -6382.250056535013, 13485.567389198231, 50840.13799907422, 73048.42895846712, 118952.05008412006, 50212.41160779138, 71975.03113448991, 32487.254737288327, -5980.343339484137, 22010.25450351888, 48923.051228886994, 18502.885818825464, -15232.400921869388, -30510.08647800523, -0.058, 0.894, 0.466, 192.0, 0.0, 0.0, 0.0, 0.0, 0.0, 0.0, 0.0, 0.0, 0.0, 1.695412479091007E9, 0.0, 2023-09-22 14:54:39.091
82.0, 51038.33091715943, -187500.02235174447, -6390.7213676835745, 13470.368202968622, 50823.01656282146, 73043.4892229425, 118919.23772325966, 50202.64389546441, 71987.07872475132, 32493.133246080073, -5981.170354028983, 22020.715119923963, 48980.40580515931, 18480.489370881245, -15232.378570124934, -30494.350849908693, -0.052000000000000005, 0.892, 0.468, 192.0, 127.0, 48.0, 13.5, 112.0, 7.0, 80.0, 0.0, 0.0, 0.0, 1.69541247909101E9, 0.0, 2023-09-22 14:54:39.091
84.0, 51072.32792047595, -187500.02235174447, -6360.032422546437, 13491.423546245522, 50824.35766748878, 73069.05961859938, 118957.39215104487, 50234.472779568765, 71976.79692230189, 32464.85828934411, -5990.356921000114, 22004.93478833852, 48923.43120854273, 18474.499103367223, -15239.374666139445, -30533.62286491667, -0.052000000000000005, 0.892, 0.468, 192.0, 0.0, 0.0, 0.0, 0.0, 0.0, 0.0, 0.0, 0.0, 0.0, 1.695412479091013E9, 0.0, 2023-09-22 14:54:39.091
86.0, 51093.58442945295, -187500.02235174447, -6325.946012252094, 13507.047415619782, 50823.79887387739, 73071.92064188965, 118927.03848207457, 50240.88773022744, 71991.48201840902, 32471.988495825353, -5998.045921092739, 22006.946445339498, 48988.072453507484, 18464.485521851246, -15244.15793945288, -30451.681369743514, -0.052000000000000005, 0.892, 0.468, 192.0, 0.0, 0.0, 0.0, 0.0, 0.0, 0.0, 0.0, 0.0, 0.0, 1.695412479091016E9, 0.0, 2023-09-22 14:54:39.091
88.0, 51068.1034407739, -187500.02235174447, -6366.112097038281, 13469.72000237942, 50834.05832458238, 73051.55820269087, 118955.00051438816, 50216.07729388205, 71977.0427914909, 32439.84668729862, -5982.243237762837, 22012.824954131243, 48923.78883645402, 18497.767269345197, -15233.652619558887, -30518.915417065076, -0.052000000000000005, 0.892, 0.468, 192.0, 0.0, 0.0, 0.0, 0.0, 0.0, 0.0, 0.0, 0.0, 0.0, 1.69541247909102E9, 0.0, 2023-09-22 14:54:39.091
90.0, 51124.273374590084, -187500.02235174447, -6284.327064076312, 13519.542040770299, 50816.4451499516, 73085.13052286275, 118937.7226159242, 50259.61849208099, 71985.15647472817, 32434.303454673704, -5998.045921092739, 21999.816238858253, 48989.27944770807, 18452.482635078744, -15249.2988406776, -30460.443253569993, -0.052000000000000005, 0.892, 0.468, 192.0, 0.0, 0.0, 0.0, 0.0, 0.0, 0.0, 0.0, 0.0, 0.0, 1.695412479151198E9, 0.0, 2023-09-22 14:54:39.151
92.0, 51102.413368512796, -187500.02235174447, -6323.263802917458, 13492.272912534823, 50823.620059921755, 73066.77974066493, 118945.23280206119, 50239.07723892656, 71961.91066049464, 32416.690280042923, -6004.147947329038, 21987.45572417447, 48915.071656116445, 18475.639042334442, -15253.165692468368, -30474.97188746594, -0.048, 0.892, 0.466, 192.0, 127.0, 64.0, 13.5, 112.0, 7.0, 72.0, 0.0, 0.0, 0.0, 1.695412479151208E9, 0.0, 2023-09-22 14:54:39.151
94.0, 51112.471653517685, -187500.02235174447, -6283.38829080919, 13496.162116070047, 50836.62877519474, 73070.37837152224, 118953.12296785391, 50241.24535813872, 71983.03305900491, 32413.114000930073, -5989.887534366552, 22008.756936640377, 48976.74011906864, 18476.75662955721, -15243.621497585953, -30449.26738134234, -0.048, 0.892, 0.466, 192.0, 0.0, 0.0, 0.0, 0.0, 0.0, 0.0, 0.0, 0.0, 0.0, 1.695412479151212E9, 0.0, 2023-09-22 14:54:39.151
96.0, 51040.253167182585, -187500.02235174447, -6395.035254363448, 13407.179821393469, 50846.999984622, 73031.59809489228, 118954.9781626437, 50177.67699690783, 71980.239090948, 32405.626166537546, -5974.598941159123, 22028.381768272135, 48935.47879880414, 18498.884856567962, -15224.376645609933, -30520.56944615477, -0.048, 0.892, 0.466, 192.0, 0.0, 0.0, 0.0, 0.0, 0.0, 0.0, 0.0, 0.0, 0.0, 1.695412479151215E9, 0.0, 2023-09-22 14:54:39.151
98.0, 51062.11317325988, -187500.02235174447, -6337.6583263466755, 13418.579211065677, 50845.569472976866, 73051.26763001295, 118973.59716577498, 50207.784796689135, 71995.25946322197, 32393.064486153664, -5983.51728719679, 22011.43914597501, 48980.674026092776, 18495.710908855308, -15229.696360790296, -30534.069899805774, -0.048, 0.892, 0.466, 192.0, 0.0, 0.0, 0.0, 0.0, 0.0, 0.0, 0.0, 0.0, 0.0, 1.695412479151219E9, 0.0, 2023-09-22 14:54:39.151
100.0, 51042.086010227926, -187500.02235174447, -6400.354969543811, 13379.284844313246, 50840.00388860749, 73047.17726077762, 118962.60010750296, 50191.98211335923, 71982.69778283809, 32377.395913290493, -5983.13730754105, 22012.623788431145, 48949.96272921118, 18507.33381597207, -15233.362046880968, -30557.919211139586, -0.048, 0.892, 0.466, 192.0, 0.0, 0.0, 0.0, 0.0, 0.0, 0.0, 0.0, 0.0, 0.0, 1.695412479151222E9, 0.0, 2023-09-22 14:54:39.151
102.0, 51099.9099731338, -187500.02235174447, -6304.980075953016, 13430.22446992689, 50835.93587111663, 73082.47066527256, 118985.19772114727, 50248.956709975806, 71997.49463766749, 32357.502860725268, -5996.123671069583, 22005.27006450535, 48988.94417154124, 18509.99367356225, -15235.708980048774, -30533.265237005384, -0.05, 0.902, 0.47000000000000003, 192.0, 127.0, 56.0, 14.0, 24.0, 7.0, 88.0, 0.0, 0.0, 0.0, 1.695412479151226E9, 0.0, 2023-09-22 14:54:39.151
104.0, 51052.79249582202, -187500.02235174447, -6397.963332887093, 13366.11966682907, 50840.07094384086, 73052.42992072462, 118958.68855222328, 50206.15311934389, 71989.64917536368, 32329.809049345145, -5988.099394810128, 22022.458555991478, 48948.48751407713, 18489.787696574655, -15227.595296811498, -30550.14080406914, -0.05, 0.902, 0.47000000000000003, 192.0, 0.0, 0.0, 0.0, 0.0, 0.0, 0.0, 0.0, 0.0, 0.0, 1.695412479211466E9, 0.0, 2023-09-22 14:54:39.211
106.0, 51143.250005632646, -187500.02235174447, -6258.197874808058, 13451.95036553745, 50832.67251642615, 73110.4103458417, 118995.65833755236, 50295.98478030977, 72004.51308542647, 32318.566121884123, -6003.298581039737, 22002.5431516818, 48993.28040996557, 18477.874216779976, -15234.256116659179, -30533.42169921657, -0.05, 0.902, 0.47000000000000003, 192.0, 0.0, 0.0, 0.0, 0.0, 0.0, 0.0, 0.0, 0.0, 0.0, 1.695412479211478E9, 0.0, 2023-09-22 14:54:39.211
108.0, 51107.42015927078, -187500.02235174447, -6333.545605366899, 13407.023359182282, 50832.91838561516, 73084.19174959561, 118952.60887773143, 50249.82842800956, 71986.76580032895, 32291.744028537756, -5987.18297328746, 22006.25354126138, 48960.33393863845, 18487.217245962293, -15230.344561379501, -30496.80954179878, -0.05, 0.902, 0.47000000000000003, 192.0, 0.0, 0.0, 0.0, 0.0, 0.0, 0.0, 0.0, 0.0, 0.0, 1.695412479211481E9, 0.0, 2023-09-22 14:54:39.211
110.0, 51106.25786855911, -187500.02235174447, -6290.250276356969, 13401.189553879447, 50829.81149313587, 73067.22677555404, 118987.92463397082, 50249.716669287285, 72005.42950694913, 32284.43500810087, -5992.2791710232705, 22002.096116792694, 48962.03267121705, 18492.782830331664, -15224.331942121024, -30538.294379507828, -0.05, 0.902, 0.47000000000000003, 192.0, 0.0, 0.0, 0.0, 0.0, 0.0, 0.0, 0.0, 0.0, 0.0, 1.695412479211484E9, 0.0, 2023-09-22 14:54:39.211
112.0, 51072.66319664278, -187500.02235174447, -6369.375451728756, 13349.199396276403, 50841.836731652824, 73047.19961252209, 118955.69341846627, 50211.27166882416, 72000.26625397995, 32267.62649627048, -5982.08677555165, 22017.541172211313, 48943.39131634132, 18490.190027974848, -15219.593372296498, -30546.85509763421, -0.052000000000000005, 0.904, 0.468, 192.0, 127.0, 48.0, 14.0, 32.0, 7.0, 80.0, 0.0, 0.0, 0.0, 1.695412479211488E9, 0.0, 2023-09-22 14:54:39.211
114.0, 51151.16252316982, -187500.02235174447, -6252.542883460866, 13420.121481433092, 50839.422743251656, 73096.5522642794, 119011.841000538, 50291.469727929805, 72002.7920011034, 32248.068719872084, -6006.472528752391, 21997.26813999035, 48975.98015975716, 18475.88491152345, -15218.140508906903, -30557.80745241731, -0.052000000000000005, 0.904, 0.468, 192.0, 0.0, 0.0, 0.0, 0.0, 0.0, 0.0, 0.0, 0.0, 0.0, 1.695412479211491E9, 0.0, 2023-09-22 14:54:39.211
116.0, 51149.75436326914, -187500.02235174447, -6293.334817091802, 13401.882457957561, 50819.77555987544, 73086.27046182996, 118954.1287963544, 50274.90708528842, 72006.27887323844, 32247.912257660897, -5993.553220457223, 22016.445936733002, 48982.66333134929, 18496.00148153323, -15216.799404239584, -30491.26630917386, -0.052000000000000005, 0.904, 0.468, 192.0, 0.0, 0.0, 0.0, 0.0, 0.0, 0.0, 0.0, 0.0, 0.0, 1.695412479211495E9, 0.0, 2023-09-22 14:54:39.211
118.0, 51187.70762535425, -187500.02235174447, -6219.529356900377, 13438.673429330996, 50852.02912712445, 73105.51531380598, 119010.5893028485, 50311.00515258374, 72001.18267550263, 32237.8092691671, -6006.271363052293, 22009.315730251757, 48964.80428752951, 18491.240559964248, -15217.738177506708, -30504.297376191305, -0.052000000000000005, 0.904, 0.468, 192.0, 0.0, 0.0, 0.0, 0.0, 0.0, 0.0, 0.0, 0.0, 0.0, 1.695412479211498E9, 0.0, 2023-09-22 14:54:39.211
120.0, 51146.13338066738, -187500.02235174447, -6293.558334536355, 13385.051594382716, 50844.94362413212, 73076.27923205844, 118960.74491271317, 50261.98777699325, 72011.75505062999, 32262.37383632348, -5988.434670976958, 22027.755919427385, 48980.383453414855, 18494.12393499898, -15199.946188920283, -30484.761951537366, -0.052000000000000005, 0.904, 0.468, 192.0, 0.0, 0.0, 0.0, 0.0, 0.0, 0.0, 0.0, 0.0, 0.0, 1.695412479271056E9, 0.0, 2023-09-22 14:54:39.271
122.0, 51126.32973507998, -187500.02235174447, -6290.093814145782, 13362.968070860872, 50853.5043422585, 73059.11309231677, 119011.70689007126, 50255.885750756956, 72021.03102457893, 32246.794670438132, -5972.654339391511, 22032.807413674287, 48970.28046492106, 18499.488353668257, -15184.724650946218, -30564.20005133153, -0.056, 0.902, 0.464, 192.0, 127.0, 32.0, 14.0, 24.0, 7.0, 64.0, 0.0, 0.0, 0.0, 1.695412479271067E9, 0.0, 2023-09-22 14:54:39.271
124.0, 51135.78452298457, -187500.02235174447, -6297.760462493952, 13365.963204617883, 50823.82122562185, 73068.0984935878, 118954.48642426568, 50265.720518317285, 72018.61703617776, 32233.025995853663, -5992.100357067628, 22008.488715706913, 49006.44558744974, 18499.622464134987, -15203.72363373323, -30521.128239766153, -0.056, 0.902, 0.464, 192.0, 0.0, 0.0, 0.0, 0.0, 0.0, 0.0, 0.0, 0.0, 0.0, 1.69541247927107E9, 0.0, 2023-09-22 14:54:39.271
126.0, 51157.06338370602, -187500.02235174447, -6262.243540554469, 13381.385908292044, 50845.23419681004, 73084.504674018, 119007.01302373565, 50296.61062915452, 72009.45282095109, 32214.98813807823, -5992.346226256636, 22024.58197171473, 48951.72851702315, 18514.08404279757, -15197.95688366376, -30555.52757448287, -0.056, 0.902, 0.464, 192.0, 0.0, 0.0, 0.0, 0.0, 0.0, 0.0, 0.0, 0.0, 0.0, 1.695412479271073E9, 0.0, 2023-09-22 14:54:39.271
128.0, 51129.190758370256, -187500.02235174447, -6301.604962540265, 13341.778617117241, 50838.88630138473, 73065.14806331969, 118961.12489236891, 50267.03927124015, 72016.2477512655, 32204.259300739683, -5991.005121589318, 22017.58587570022, 48994.24153497715, 18486.457286650813, -15198.090994130493, -30517.104925764197, -0.056, 0.902, 0.464, 192.0, 0.0, 0.0, 0.0, 0.0, 0.0, 0.0, 0.0, 0.0, 0.0, 1.695412479271077E9, 0.0, 2023-09-22 14:54:39.271
130.0, 51136.00804042912, -187500.02235174447, -6298.207497383059, 13335.453073436389, 50851.2021125796, 73073.86524365726, 119003.34733764498, 50285.23359122677, 72014.16903903116, 32171.581050346023, -5981.460926706902, 22016.110660566173, 48955.014223458085, 18469.827588776065, -15193.19596209478, -30582.57318527379, -0.056, 0.902, 0.464, 192.0, 0.0, 0.0, 0.0, 0.0, 0.0, 0.0, 0.0, 0.0, 0.0, 1.69541247927108E9, 0.0, 2023-09-22 14:54:39.271
132.0, 51135.181025884274, -187500.02235174447, -6300.956761951061, 13324.16544248646, 50830.660859425174, 73068.47847324354, 118960.92372666881, 50278.93039929037, 72018.1029460553, 32154.638428048904, -5993.843793135142, 22014.411927987567, 49003.89748858184, 18476.577815601566, -15204.573000022532, -30541.088347564742, -0.052000000000000005, 0.902, 0.464, 192.0, 127.0, 48.0, 14.0, 24.0, 7.0, 64.0, 0.0, 0.0, 0.0, 1.695412479271083E9, 0.0, 2023-09-22 14:54:39.271
134.0, 51157.1751424283, -187500.02235174447, -6287.992750166983, 13333.754340857786, 50849.59278697882, 73091.59017701032, 119000.84394226599, 50303.00322806874, 72004.4460301931, 32151.755053014167, -5987.004159331818, 22023.531439725335, 48939.345650594914, 18483.484504638258, -15202.337825577, -30592.251490622937, -0.052000000000000005, 0.902, 0.464, 192.0, 0.0, 0.0, 0.0, 0.0, 0.0, 0.0, 0.0, 0.0, 0.0, 1.695412479330604E9, 0.0, 2023-09-22 14:54:39.330
136.0, 51178.90103803886, -187500.02235174447, -6250.195950293059, 13352.21688177787, 50841.27793804144, 73097.40163056871, 118968.18804361678, 50314.71554216332, 72014.92899834264, 32147.55292505657, -5994.760214657809, 22007.92992209553, 49018.87315736689, 18474.543806856134, -15207.881058201918, -30512.299300706305, -0.052000000000000005, 0.902, 0.464, 192.0, 0.0, 0.0, 0.0, 0.0, 0.0, 0.0, 0.0, 0.0, 0.0, 1.695412479330618E9, 0.0, 2023-09-22 14:54:39.330
138.0, 51132.744685738646, -187500.02235174447, -6317.362942381256, 13295.175229927925, 50846.195321821615, 73064.16458656367, 118983.4319333353, 50270.95082651983, 72010.25748375148, 32101.843607645467, -5972.050842291217, 22020.916285624062, 48940.73145875114, 18460.84218750503, -15200.974369165227, -30581.030914906376, -0.052000000000000005, 0.902, 0.464, 192.0, 0.0, 0.0, 0.0, 0.0, 0.0, 0.0, 0.0, 0.0, 0.0, 1.695412479330622E9, 0.0, 2023-09-22 14:54:39.330
140.0, 51164.46181112073, -187500.02235174447, -6263.919921388617, 13319.516279639754, 50836.38290600573, 73082.2024443391, 118977.95575594375, 50298.39876871095, 72030.93284737263, 32044.936066262257, -5993.799089646232, 21995.234131244913, 48995.962619300204, 18465.37959162946, -15210.473860558734, -30555.974609371977, -0.052000000000000005, 0.902, 0.464, 192.0, 0.0, 0.0, 0.0, 0.0, 0.0, 0.0, 0.0, 0.0, 0.0, 1.695412479330625E9, 0.0, 2023-09-22 14:54:39.330
142.0, 51133.41523807231, -187500.02235174447, -6330.7963407988955, 13270.81182847164, 50844.18366482064, 73055.35799924827, 118970.44556980678, 50263.015957238196, 72006.36828021625, 32039.973978993177, -5997.062444336706, 22007.952273839986, 48934.27180460356, 18485.33969942805, -15217.984046695716, -30589.748095243944, -0.052000000000000005, 0.898, 0.47000000000000003, 192.0, 127.0, 48.0, 14.0, 8.0, 7.0, 88.0, 0.0, 0.0, 0.0, 1.695412479330628E9, 0.0, 2023-09-22 14:54:39.330
144.0, 51194.14492775738, -187500.02235174447, -6237.924842587095, 13323.651352363988, 50835.131208316234, 73092.19367411062, 118981.19675888977, 50314.670838674414, 72020.91926585666, 32035.928313246768, -5994.3355315131585, 22002.051413303783, 49001.97523855868, 18459.501082837713, -15216.01709318365, -30553.04653084833, -0.052000000000000005, 0.898, 0.47000000000000003, 192.0, 0.0, 0.0, 0.0, 0.0, 0.0, 0.0, 0.0, 0.0, 0.0, 1.695412479330631E9, 0.0, 2023-09-22 14:54:39.330
146.0, 51146.75922951213, -187500.02235174447, -6326.929489008127, 13260.932357422394, 50850.308042801385, 73060.05186558388, 118978.7827704886, 50263.30652991612, 72010.86098085176, 31984.653411466294, -5982.75732788531, 22017.719986166954, 48954.388374613336, 18450.73919901123, -15202.717805232742, -30577.208766604515, -0.052000000000000005, 0.898, 0.47000000000000003, 192.0, 0.0, 0.0, 0.0, 0.0, 0.0, 0.0, 0.0, 0.0, 0.0, 1.695412479330634E9, 0.0, 2023-09-22 14:54:39.330
148.0, 51222.79986414908, -187500.02235174447, -6212.08622599676, 13332.010904790272, 50832.828978637335, 73105.22474112806, 118989.64571829388, 50336.44143777388, 72030.23994329452, 31945.89548658079, -6000.973999616385, 22004.711270893964, 49003.718674626194, 18439.228050616748, -15215.167726894348, -30547.480946478958, -0.052000000000000005, 0.898, 0.47000000000000003, 192.0, 0.0, 0.0, 0.0, 0.0, 0.0, 0.0, 0.0, 0.0, 0.0, 1.695412479330637E9, 0.0, 2023-09-22 14:54:39.330
150.0, 51181.24797120666, -187500.02235174447, -6295.122956648226, 13281.183037898903, 50848.72106894506, 73072.1441593342, 118966.35520057144, 50288.04991102814, 72012.93969308611, 31871.30771533343, -5999.230563548871, 22002.78902087081, 48948.46516233268, 18467.525359097166, -15212.4408140708, -30545.826917389266, -0.052000000000000005, 0.898, 0.47000000000000003, 192.0, 0.0, 0.0, 0.0, 0.0, 0.0, 0.0, 0.0, 0.0, 0.0, 1.695412479390997E9, 0.0, 2023-09-22 14:54:39.390
152.0, 51195.46368068024, -187500.02235174447, -6240.495293199456, 13291.733061281808, 50866.87068544277, 73072.61354596778, 119002.45326786677, 50300.76805362321, 72045.7073504576, 31850.699406945638, -5985.886572109052, 22021.609189702176, 49007.36200897241, 18467.525359097166, -15200.706148231764, -30559.729702440465, -0.06, 0.896, 0.466, 192.0, 127.0, 16.0, 14.0, 0.0, 7.0, 72.0, 0.0, 0.0, 0.0, 1.695412479391007E9, 0.0, 2023-09-22 14:54:39.391
154.0, 51164.618273331915, -187500.02235174447, -6321.721532550041, 13241.106360090538, 50868.569418021376, 73053.9945428365, 118977.88870071039, 50264.401765394425, 72053.93279241715, 31817.752935618515, -5957.186932228438, 22038.082425365737, 48996.9684478007, 18478.14243771344, -15181.4836480002, -30585.81418821981, -0.06, 0.896, 0.466, 192.0, 0.0, 0.0, 0.0, 0.0, 0.0, 0.0, 0.0, 0.0, 0.0, 1.695412479391011E9, 0.0, 2023-09-22 14:54:39.391
156.0, 51204.9855238182, -187500.02235174447, -6239.847092610252, 13275.460991318345, 50836.49466472801, 73076.27923205844, 119006.05189872408, 50301.93034433488, 72034.73264393004, 31740.70647248107, -5995.877801880575, 22002.40904121507, 49002.13170076987, 18415.46814626076, -15205.802345967573, -30592.787932489868, -0.06, 0.896, 0.466, 192.0, 0.0, 0.0, 0.0, 0.0, 0.0, 0.0, 0.0, 0.0, 0.0, 1.695412479391014E9, 0.0, 2023-09-22 14:54:39.391
158.0, 51163.05365122005, -187500.02235174447, -6333.6126606002645, 13215.960647578318, 50856.07479287086, 73048.16073753366, 118973.86538670844, 50252.46593385529, 72037.43720500913, 31698.46167546054, -5974.934217325952, 22027.666512449567, 48976.27073243508, 18464.440818362335, -15205.087090145003, -30585.43420856407, -0.06, 0.896, 0.466, 192.0, 0.0, 0.0, 0.0, 0.0, 0.0, 0.0, 0.0, 0.0, 0.0, 1.695412479391017E9, 0.0, 2023-09-22 14:54:39.391
160.0, 51193.40732019035, -187500.02235174447, -6264.545770233366, 13241.463988001822, 50876.41488032519, 73074.55814773538, 119036.13734676092, 50292.5202599192, 72049.7083127151, 31612.96625291899, -5983.070252307684, 22021.98916935792, 49007.160843272315, 18460.752780527208, -15194.112383617448, -30624.370947405216, -0.06, 0.896, 0.466, 192.0, 0.0, 0.0, 0.0, 0.0, 0.0, 0.0, 0.0, 0.0, 0.0, 1.69541247939102E9, 0.0, 2023-09-22 14:54:39.391
162.0, 51175.883552537394, -187500.02235174447, -6326.817730285851, 13208.696330630342, 50850.57626373485, 73068.21025231008, 118991.16563691683, 50288.452242428335, 72030.30699852789, 31575.52708095635, -5994.871973380086, 22009.092212807205, 49007.20554676122, 18464.17259742887, -15199.3873953089, -30592.00562143393, -0.06, 0.892, 0.466, 192.0, 127.0, 16.0, 13.5, 112.0, 7.0, 72.0, 0.0, 0.0, 0.0, 1.695412479391024E9, 0.0, 2023-09-22 14:54:39.391
164.0, 51235.04862011059, -187500.02235174447, -6237.008421064427, 13264.15100862396, 50857.28178707144, 73112.93609296514, 119049.61544866746, 50364.67169102093, 72035.02321660797, 31526.062670476756, -5986.5794761871675, 22007.147611039592, 48987.24543896264, 18437.5516697826, -15201.242590098691, -30606.48955184097, -0.06, 0.892, 0.466, 192.0, 0.0, 0.0, 0.0, 0.0, 0.0, 0.0, 0.0, 0.0, 0.0, 1.695412479451278E9, 0.0, 2023-09-22 14:54:39.451
166.0, 51206.147814529875, -187500.02235174447, -6303.147232907681, 13225.750711649742, 50861.93094991815, 73092.35013632181, 119000.6874800548, 50332.351068538555, 72025.85900138128, 31465.26592555832, -5990.178107044471, 22013.093175064707, 48998.64482863484, 18429.88502143443, -15201.19788660978, -30555.862850649697, -0.06, 0.892, 0.466, 192.0, 0.0, 0.0, 0.0, 0.0, 0.0, 0.0, 0.0, 0.0, 0.0, 1.69541247945129E9, 0.0, 2023-09-22 14:54:39.451
168.0, 51192.22267773422, -187500.02235174447, -6290.4067385681565, 13211.13267077597, 50877.376005336766, 73078.8496826708, 119054.77870163665, 50332.01579237173, 72042.10871960029, 31391.080485711158, -5982.578513929667, 22019.01638734536, 48976.31543592399, 18451.02977168915, -15188.345633547979, -30632.417575409127, -0.06, 0.892, 0.466, 192.0, 0.0, 0.0, 0.0, 0.0, 0.0, 0.0, 0.0, 0.0, 0.0, 1.695412479451294E9, 0.0, 2023-09-22 14:54:39.451
170.0, 51202.54918367257, -187500.02235174447, -6309.67394228863, 13208.942199819352, 50855.91833065967, 73085.01876414046, 119002.72148880023, 50336.37438254051, 72046.33319930235, 31379.055247194203, -5987.361787243103, 22026.12424208215, 49021.51066321262, 18462.65267880591, -15195.989930151694, -30589.971612688496, -0.06, 0.892, 0.466, 192.0, 0.0, 0.0, 0.0, 0.0, 0.0, 0.0, 0.0, 0.0, 0.0, 1.695412479451298E9, 0.0, 2023-09-22 14:54:39.451
172.0, 51208.3382854865, -187500.02235174447, -6290.205572868058, 13207.578743407577, 50862.28857782944, 73080.5484152494, 119044.58630616503, 50345.65035648947, 72015.48779195402, 31331.96012162687, -5992.390929745547, 22019.64223619011, 48960.91508399428, 18446.69353326482, -15205.422366311834, -30644.800441837364, -0.06, 0.896, 0.464, 192.0, 127.0, 16.0, 14.0, 0.0, 7.0, 64.0, 0.0, 0.0, 0.0, 1.695412479451302E9, 0.0, 2023-09-22 14:54:39.451
174.0, 51210.28288725411, -187500.02235174447, -6312.736131279008, 13198.526286903178, 50866.602464509306, 73079.252014071, 119001.9391777443, 50334.742705195276, 72043.67334171216, 31326.662758190963, -5982.8243831186755, 22036.31663755377, 49031.5242447286, 18460.551614827113, -15193.888866172894, -30591.469179567004, -0.06, 0.896, 0.464, 192.0, 0.0, 0.0, 0.0, 0.0, 0.0, 0.0, 0.0, 0.0, 0.0, 1.695412479451305E9, 0.0, 2023-09-22 14:54:39.451
176.0, 51204.51613718464, -187500.02235174447, -6312.91494523465, 13188.065670498094, 50878.270075114975, 73078.51440650396, 119044.31808523156, 50335.81558892913, 72033.32448402936, 31275.790187810682, -5975.627121404067, 22027.465346749468, 48972.85091553342, 18424.65471323189, -15187.876246914417, -30658.569116421833, -0.06, 0.896, 0.464, 192.0, 0.0, 0.0, 0.0, 0.0, 0.0, 0.0, 0.0, 0.0, 0.0, 1.695412479451309E9, 0.0, 2023-09-22 14:54:39.451
178.0, 51235.62976546643, -187500.02235174447, -6287.970398422528, 13212.429071954379, 50856.92415916016, 73096.5522642794, 119008.2870731696, 50363.01766193124, 72047.33902780284, 31309.943653338392, -5987.585304687656, 22041.83751843423, 49026.56215745952, 18438.065759905072, -15194.358252806456, -30610.468162354013, -0.06, 0.896, 0.464, 192.0, 0.0, 0.0, 0.0, 0.0, 0.0, 0.0, 0.0, 0.0, 0.0, 1.695412479451313E9, 0.0, 2023-09-22 14:54:39.451
180.0, 51235.11567534396, -187500.02235174447, -6295.413529326145, 13208.13753701896, 50874.53733379094, 73097.44633405762, 119045.18980326531, 50365.74457475479, 72027.15540255969, 31264.547260349664, -5984.389005230547, 22039.78115794434, 48980.69637783723, 18430.868498190463, -15192.950092905772, -30644.241648225983, -0.06, 0.896, 0.464, 192.0, 0.0, 0.0, 0.0, 0.0, 0.0, 0.0, 0.0, 0.0, 0.0, 1.695412479511581E9, 0.0, 2023-09-22 14:54:39.511
182.0, 51249.1972743508, -187500.02235174447, -6277.465078528533, 13217.793490623653, 50864.16612436368, 73098.02747941345, 119010.09756447049, 50363.77762124272, 72042.26518181148, 31230.259684355224, -5996.9730373588845, 22028.13589908313, 49026.80802664853, 18433.79657671411, -15200.035595898104, -30592.16208364512, -0.052000000000000005, 0.894, 0.464, 192.0, 127.0, 48.0, 13.5, 120.0, 7.0, 64.0, 0.0, 0.0, 0.0, 1.695412479511591E9, 0.0, 2023-09-22 14:54:39.511
184.0, 51238.311974801065, -187500.02235174447, -6305.829442242318, 13196.22405722428, 50869.23997035503, 73096.41815381267, 119039.0430735401, 50352.24412110378, 72027.69184442662, 31180.907032597905, -5979.069290050184, 22043.580954501744, 48973.16383995579, 18421.950152152796, -15191.698395216275, -30653.942305319586, -0.052000000000000005, 0.894, 0.464, 192.0, 0.0, 0.0, 0.0, 0.0, 0.0, 0.0, 0.0, 0.0, 0.0, 1.695412479511594E9, 0.0, 2023-09-22 14:54:39.511
186.0, 51280.333254377045, -187500.02235174447, -6246.150284546648, 13235.317258276613, 50859.58401675034, 73123.35200588132, 119019.32883493052, 50382.21781041835, 72044.56741149038, 31158.532936398144, -5988.904057610519, 22028.605285716687, 49029.93727087227, 18414.752890438187, -15201.510811032154, -30593.34672610125, -0.052000000000000005, 0.894, 0.464, 192.0, 0.0, 0.0, 0.0, 0.0, 0.0, 0.0, 0.0, 0.0, 0.0, 1.695412479511598E9, 0.0, 2023-09-22 14:54:39.511
188.0, 51233.46164625426, -187500.02235174447, -6317.497052847988, 13184.243522196237, 50873.57620877936, 73089.1538368647, 119026.7943175786, 50335.6814784624, 72029.52468747196, 31133.275465163646, -5985.998330831329, 22033.366207285668, 48964.06667996248, 18421.748986452698, -15197.800421452574, -30628.77424106291, -0.052000000000000005, 0.894, 0.464, 192.0, 0.0, 0.0, 0.0, 0.0, 0.0, 0.0, 0.0, 0.0, 0.0, 1.695412479511601E9, 0.0, 2023-09-22 14:54:39.511
190.0, 51274.38769035193, -187500.02235174447, -6256.454438740545, 13221.973266836796, 50859.98634815054, 73108.57750279635, 119031.30936995857, 50370.237275390304, 72055.78798720695, 31133.811907030573, -5989.820479133186, 22034.372035786157, 49016.74974164364, 18411.377777025435, -15196.638130740897, -30617.285444412882, -0.052000000000000005, 0.894, 0.464, 192.0, 0.0, 0.0, 0.0, 0.0, 0.0, 0.0, 0.0, 0.0, 0.0, 1.695412479511604E9, 0.0, 2023-09-22 14:54:39.511
192.0, 51244.19048359281, -187500.02235174447, -6323.643782573197, 13181.963644261796, 50862.333281318344, 73081.95657515009, 119017.339529674, 50334.11685635053, 72024.0038065915, 31117.696299278297, -5994.894325124541, 22024.35845427018, 48967.55355209751, 18401.900637376384, -15208.261037857657, -30639.43602316809, -0.054, 0.894, 0.468, 192.0, 127.0, 40.0, 13.5, 120.0, 7.0, 80.0, 0.0, 0.0, 0.0, 1.695412479511607E9, 0.0, 2023-09-22 14:54:39.511
194.0, 51280.132088676946, -187500.02235174447, -6256.342680018268, 13216.430034211879, 50851.51503700198, 73094.74177297852, 119020.80405006457, 50359.35197584057, 72048.8589464258, 31136.360005898478, -5995.788394902754, 22030.16990782856, 49025.37751500339, 18405.700433933787, -15210.58561928101, -30609.954072231543, -0.054, 0.894, 0.468, 192.0, 0.0, 0.0, 0.0, 0.0, 0.0, 0.0, 0.0, 0.0, 0.0, 1.695412479570939E9, 0.0, 2023-09-22 14:54:39.570
196.0, 51223.44806473829, -187500.02235174447, -6358.4007452012, 13150.805312491097, 50877.55481929241, 73054.32981900332, 119010.43284063731, 50298.95756232233, 72037.14663233122, 31124.200656914792, -5980.276284250771, 22046.441977792023, 48960.512752594084, 18398.97255885274, -15202.315473832545, -30652.936476819097, -0.054, 0.894, 0.468, 192.0, 0.0, 0.0, 0.0, 0.0, 0.0, 0.0, 0.0, 0.0, 0.0, 1.695412479570951E9, 0.0, 2023-09-22 14:54:39.570
198.0, 51267.83862922653, -187500.02235174447, -6282.427165797611, 13188.535057131656, 50876.48193555856, 73080.43665652712, 119034.46096592677, 50338.45309477486, 72059.63248725326, 31157.817680575572, -5987.808822132209, 22040.965800400474, 49025.80219814804, 18391.440020971302, -15196.168744107335, -30645.560401148847, -0.054, 0.894, 0.468, 192.0, 0.0, 0.0, 0.0, 0.0, 0.0, 0.0, 0.0, 0.0, 0.0, 1.695412479570956E9, 0.0, 2023-09-22 14:54:39.570
200.0, 51230.8911956419, -187500.02235174447, -6375.410422731688, 13133.661524493877, 50868.81528721038, 73054.15100504768, 119009.89639877039, 50300.902164089945, 72035.98434161954, 31156.767148586176, -5978.666958649988, 22043.31273356828, 48978.10357548041, 18406.952131623286, -15198.068642386037, -30668.515642704446, -0.054, 0.894, 0.468, 192.0, 0.0, 0.0, 0.0, 0.0, 0.0, 0.0, 0.0, 0.0, 0.0, 1.695412479570959E9, 0.0, 2023-09-22 14:54:39.570
202.0, 51275.68409153034, -187500.02235174447, -6293.357168836256, 13172.88883601294, 50864.18847610813, 73080.43665652712, 119039.91479157387, 50350.59009201409, 72056.41383605168, 31171.83222434905, -5991.943894856441, 22034.5508497418, 49012.547613686045, 18387.841390113997, -15206.517601790143, -30678.93155562062, -0.054, 0.904, 0.464, 192.0, 127.0, 40.0, 14.0, 32.0, 7.0, 64.0, 0.0, 0.0, 0.0, 1.695412479570962E9, 0.0, 2023-09-22 14:54:39.570
204.0, 51264.9999576807, -187500.02235174447, -6355.249149233002, 13149.866539223975, 50853.41493528068, 73069.66311569967, 118994.20547416277, 50331.948737138366, 72026.84247813732, 31188.573680946076, -5995.542525713745, 22034.93082939754, 48985.25613370611, 18380.666480143846, -15219.213392640757, -30655.8869070872, -0.054, 0.904, 0.464, 192.0, 0.0, 0.0, 0.0, 0.0, 0.0, 0.0, 0.0, 0.0, 0.0, 1.695412479570965E9, 0.0, 2023-09-22 14:54:39.570
206.0, 51297.812318541095, -187500.02235174447, -6283.365939064734, 13182.902417528918, 50859.13698186124, 73080.3472495493, 119026.52609664513, 50364.89520846549, 72039.04653060992, 31195.79329440514, -5998.604714704123, 22029.387596772624, 48999.47184317969, 18391.372965737937, -15225.20366015478, -30644.44281392608, -0.054, 0.904, 0.464, 192.0, 0.0, 0.0, 0.0, 0.0, 0.0, 0.0, 0.0, 0.0, 0.0, 1.695412479570968E9, 0.0, 2023-09-22 14:54:39.570
208.0, 51266.60928328148, -187500.02235174447, -6365.463896449077, 13136.880175695442, 50847.245853811015, 73054.70979865907, 118988.59518630448, 50327.50073999176, 72033.92798112964, 31199.034297351158, -5991.765080900798, 22039.289419566325, 48976.09191847943, 18376.799628353077, -15214.832450727517, -30658.569116421833, -0.054, 0.904, 0.464, 192.0, 0.0, 0.0, 0.0, 0.0, 0.0, 0.0, 0.0, 0.0, 0.0, 1.695412479570972E9, 0.0, 2023-09-22 14:54:39.570
210.0, 51305.65778084491, -187500.02235174447, -6289.62442751222, 13172.732373801753, 50855.33718530383, 73077.66504021466, 119040.56299216308, 50371.66778703545, 72040.20882132159, 31216.759230704218, -5994.3355315131585, 22035.176698586547, 48976.114270223894, 18396.78208789612, -15213.53604954911, -30676.428160241627, -0.054, 0.904, 0.464, 192.0, 0.0, 0.0, 0.0, 0.0, 0.0, 0.0, 0.0, 0.0, 0.0, 1.69541247963067E9, 0.0, 2023-09-22 14:54:39.630
212.0, 51311.357475681005, -187500.02235174447, -6324.604907584776, 13170.050164467117, 50834.9523943606, 73081.28602281642, 118982.69432576827, 50368.51619106725, 72029.79290840542, 31214.50170451423, -6007.746578186343, 22026.414814760068, 48986.73134884016, 18368.484779415703, -15229.830471257028, -30625.779107305898, -0.054, 0.906, 0.458, 192.0, 127.0, 40.0, 14.0, 40.0, 7.0, 40.0, 0.0, 0.0, 0.0, 1.695412479630679E9, 0.0, 2023-09-22 14:54:39.630
214.0, 51315.40314142742, -187500.02235174447, -6291.881953702206, 13173.045298224128, 50873.77737447946, 73082.89534841721, 119045.9497625768, 50380.20615341737, 72047.83076618085, 31220.782544706173, -5984.545467441734, 22047.246640592413, 48968.93936025374, 18395.12805880643, -15206.875229701429, -30665.11817754724, -0.054, 0.906, 0.458, 192.0, 0.0, 0.0, 0.0, 0.0, 0.0, 0.0, 0.0, 0.0, 0.0, 1.695412479630685E9, 0.0, 2023-09-22 14:54:39.630
216.0, 51329.37298171198, -187500.02235174447, -6318.435826115111, 13175.481638369756, 50850.68802245713, 73090.53964502092, 118997.69234629779, 50381.837830762604, 72049.97653364856, 31241.748481005252, -5987.473545965379, 22034.282628808338, 48997.929572812274, 18386.343823235493, -15213.714863504752, -30629.44479339657, -0.054, 0.906, 0.458, 192.0, 0.0, 0.0, 0.0, 0.0, 0.0, 0.0, 0.0, 0.0, 0.0, 1.695412479630689E9, 0.0, 2023-09-22 14:54:39.630
218.0, 51353.06583083461, -187500.02235174447, -6271.251293569958, 13199.286246214659, 50867.094202887325, 73104.33067134985, 119042.52994567514, 50408.50346189779, 72037.19133582013, 31243.000178694747, -5997.263610036804, 22037.814204432274, 48968.73819455364, 18385.717974390744, -15211.926723948327, -30645.02395928192, -0.054, 0.906, 0.458, 192.0, 0.0, 0.0, 0.0, 0.0, 0.0, 0.0, 0.0, 0.0, 0.0, 1.695412479630693E9, 0.0, 2023-09-22 14:54:39.630
220.0, 51333.4186474584, -187500.02235174447, -6317.675866803631, 13171.637138323444, 50858.846409183316, 73085.77872345195, 118993.53492182911, 50383.245990663294, 72051.63056273825, 31253.79607126666, -5983.964322085896, 22043.55860275729, 49005.685628138264, 18392.378794238426, -15205.377662822923, -30615.094973456264, -0.054, 0.906, 0.458, 192.0, 0.0, 0.0, 0.0, 0.0, 0.0, 0.0, 0.0, 0.0, 0.0, 1.695412479630696E9, 0.0, 2023-09-22 14:54:39.630
222.0, 51363.48174375078, -187500.02235174447, -6272.592398237276, 13201.99080729375, 50871.36338607829, 73109.38216559675, 119047.02264631065, 50419.23229923633, 72041.01348412198, 31257.46175735733, -5987.093566309639, 22040.183489344538, 48969.14052595384, 18384.73449763471, -15204.282427344613, -30655.708093131554, -0.056, 0.912, 0.458, 192.0, 127.0, 32.0, 14.0, 64.0, 7.0, 40.0, 0.0, 0.0, 0.0, 1.695412479630699E9, 0.0, 2023-09-22 14:54:39.630
224.0, 51352.30587152313, -187500.02235174447, -6296.374654337723, 13190.36790017699, 50860.18751385064, 73097.37927882424, 118998.98874747619, 50392.611371590065, 72043.87450741226, 31270.582231352597, -5992.726205912377, 22045.011466146883, 49007.45141595023, 18388.154314536372, -15207.411671568356, -30603.00267970594, -0.056, 0.912, 0.458, 192.0, 0.0, 0.0, 0.0, 0.0, 0.0, 0.0, 0.0, 0.0, 0.0, 1.695412479690956E9, 0.0, 2023-09-22 14:54:39.690
226.0, 51346.606176687026, -187500.02235174447, -6300.353264850768, 13184.89172278544, 50869.21761861058, 73092.84187469982, 119039.13248051793, 50389.66094132196, 72049.03776038144, 31278.584155867597, -5975.5600661707, 22055.82971046325, 48969.02876723156, 18394.07752681703, -15197.688662730297, -30661.25132575647, -0.056, 0.912, 0.458, 192.0, 0.0, 0.0, 0.0, 0.0, 0.0, 0.0, 0.0, 0.0, 0.0, 1.695412479690968E9, 0.0, 2023-09-22 14:54:39.690
228.0, 51352.887016878965, -187500.02235174447, -6301.403796840167, 13185.182295463359, 50849.03399336743, 73091.74663922151, 119001.22392192173, 50378.82034526114, 72049.9094784152, 31292.598699641076, -5984.076080808173, 22056.589669774734, 49012.30174449703, 18387.774334880633, -15206.808174468062, -30624.370947405216, -0.056, 0.912, 0.458, 192.0, 0.0, 0.0, 0.0, 0.0, 0.0, 0.0, 0.0, 0.0, 0.0, 1.695412479690971E9, 0.0, 2023-09-22 14:54:39.690
230.0, 51331.9657840688, -187500.02235174447, -6336.16075946817, 13160.953004473808, 50871.81042096739, 73084.79524669591, 119040.31712297405, 50360.51426655224, 72036.14080383073, 31305.76387712525, -5971.201476001916, 22054.019219162372, 48955.08127869145, 18402.235913543216, -15201.734328476708, -30687.60403246928, -0.056, 0.912, 0.458, 192.0, 0.0, 0.0, 0.0, 0.0, 0.0, 0.0, 0.0, 0.0, 0.0, 1.695412479690975E9, 0.0, 2023-09-22 14:54:39.690
232.0, 51382.86070619353, -187500.02235174447, -6278.225037840014, 13209.590400408555, 50851.4032782797, 73115.93122672215, 119013.24916043869, 50401.30620018318, 72050.62473423776, 31352.031988147737, -5980.075118550672, 22045.03381789134, 49025.51162547012, 18386.723802891232, -15217.335846106513, -30631.791726564377, -0.06, 0.898, 0.466, 192.0, 127.0, 16.0, 14.0, 8.0, 7.0, 72.0, 0.0, 0.0, 0.0, 1.695412479690978E9, 0.0, 2023-09-22 14:54:39.690
234.0, 51370.0755083651, -187500.02235174447, -6309.0704451883375, 13194.301807201125, 50872.123345389766, 73107.7057847626, 119036.78554735013, 50388.81157503266, 72028.56356246037, 31363.610191775584, -5982.287941251748, 22050.107663882693, 48960.89273224983, 18396.513866962658, -15211.30087510358, -30643.660502870145, -0.06, 0.898, 0.466, 192.0, 0.0, 0.0, 0.0, 0.0, 0.0, 0.0, 0.0, 0.0, 0.0, 1.695412479690981E9, 0.0, 2023-09-22 14:54:39.690
236.0, 51390.25913360824, -187500.02235174447, -6267.987938879483, 13218.776967379687, 50860.43338303964, 73113.24901738751, 119022.346320432, 50404.21192696237, 72053.08342612785, 31370.606287790095, -5978.242275505338, 22055.673248252064, 49022.42708473529, 18391.35061399348, -15205.936456434305, -30608.83648500878, -0.06, 0.898, 0.466, 192.0, 0.0, 0.0, 0.0, 0.0, 0.0, 0.0, 0.0, 0.0, 0.0, 1.695412479690984E9, 0.0, 2023-09-22 14:54:39.690
238.0, 51349.98129009978, -187500.02235174447, -6334.3726199117455, 13179.527304116167, 50872.03393841195, 73088.34917406431, 119032.58341939253, 50371.06428993515, 72029.54703921641, 31378.74232277183, -5984.456060463913, 22053.818053462273, 48957.6070258149, 18395.530390206623, -15207.47872680172, -30650.522488417922, -0.06, 0.898, 0.466, 192.0, 0.0, 0.0, 0.0, 0.0, 0.0, 0.0, 0.0, 0.0, 0.0, 1.695412479690987E9, 0.0, 2023-09-22 14:54:39.690
240.0, 51396.20469763335, -187500.02235174447, -6259.293110286369, 13226.644781427955, 50862.892074929725, 73114.56777031039, 119030.75057634719, 50411.94563054391, 72047.27197256946, 31405.139732973545, -5983.785508130254, 22045.145576613617, 49024.68461092527, 18389.026032570127, -15214.117194904948, -30611.652804810146, -0.06, 0.898, 0.466, 192.0, 0.0, 0.0, 0.0, 0.0, 0.0, 0.0, 0.0, 0.0, 0.0, 1.695412479752215E9, 0.0, 2023-09-22 14:54:39.752
242.0, 51347.88022612098, -187500.02235174447, -6356.0314602889375, 13165.021021964672, 50874.51498204649, 73080.41430478267, 119023.97799777723, 50358.92729269592, 72047.38373129175, 31412.806381321716, -5965.2782637212595, 22070.626565292667, 48951.90733097879, 18402.101803076483, -15205.288255845102, -30654.88107858671, -0.056, 0.898, 0.468, 192.0, 127.0, 32.0, 14.0, 8.0, 7.0, 80.0, 0.0, 0.0, 0.0, 1.695412479752225E9, 0.0, 2023-09-22 14:54:39.752
244.0, 51390.59440977507, -187500.02235174447, -6280.951950663562, 13209.009255052717, 50862.31092957389, 73105.76118299499, 119029.07419551304, 50399.02632224874, 72060.05717039791, 31423.80343959373, -5976.677653393466, 22053.482777295445, 49011.40767471882, 18393.49638146119, -15208.641017513397, -30638.072566756317, -0.056, 0.898, 0.468, 192.0, 0.0, 0.0, 0.0, 0.0, 0.0, 0.0, 0.0, 0.0, 0.0, 1.695412479752229E9, 0.0, 2023-09-22 14:54:39.752
246.0, 51355.45746749133, -187500.02235174447, -6365.173323771158, 13163.635213808444, 50865.46252554209, 73081.62129898326, 119009.65052958138, 50361.18481888591, 72030.86579213927, 31433.437041453966, -5977.817592360687, 22063.563414044787, 48958.41168861529, 18400.000739097686, -15210.518564047643, -30666.436930470103, -0.056, 0.898, 0.468, 192.0, 0.0, 0.0, 0.0, 0.0, 0.0, 0.0, 0.0, 0.0, 0.0, 1.695412479752233E9, 0.0, 2023-09-22 14:54:39.752
248.0, 51412.8343955081, -187500.02235174447, -6272.279473814902, 13223.694351159855, 50858.60053999431, 73117.42879360066, 119038.55133516209, 50415.0972265121, 72047.24962082501, 31448.479765472388, -5996.213078047404, 22045.324390569258, 49006.75851187212, 18384.287462745604, -15209.088052402503, -30651.55066866287, -0.056, 0.898, 0.468, 192.0, 0.0, 0.0, 0.0, 0.0, 0.0, 0.0, 0.0, 0.0, 0.0, 1.695412479752236E9, 0.0, 2023-09-22 14:54:39.752
250.0, 51375.819906690114, -187500.02235174447, -6360.993547558016, 13176.867446525985, 50862.266226084976, 73090.09261013182, 119002.1850469333, 50365.3869468435, 72034.64323695222, 31486.298917090768, -5984.120784297083, 22056.32144884127, 48962.79263052853, 18397.609102440965, -15214.58658153851, -30640.330092946304, -0.056, 0.898, 0.468, 192.0, 0.0, 0.0, 0.0, 0.0, 0.0, 0.0, 0.0, 0.0, 0.0, 1.69541247975224E9, 0.0, 2023-09-22 14:54:39.752
252.0, 51406.62061054953, -187500.02235174447, -6293.535982791899, 13208.47281318579, 50864.300234830414, 73102.52018004897, 119031.55523914758, 50391.78435704522, 72053.48575752805, 31505.454362088964, -5982.489106951846, 22058.98130643145, 49000.94705831374, 18393.07169831654, -15202.807212210562, -30647.01326453844, -0.058, 0.898, 0.468, 192.0, 127.0, 24.0, 14.0, 8.0, 7.0, 80.0, 0.0, 0.0, 0.0, 1.695412479752254E9, 0.0, 2023-09-22 14:54:39.752
254.0, 51381.81017420413, -187500.02235174447, -6377.824411132862, 13167.792638277131, 50856.90180741571, 73085.95753740758, 118995.03248870761, 50354.4345920604, 72050.24475458202, 31520.273568662833, -5969.9721300568735, 22061.730570999454, 48970.12400270987, 18401.677119931832, -15196.883999929905, -30653.02588379692, -0.058, 0.898, 0.468, 192.0, 0.0, 0.0, 0.0, 0.0, 0.0, 0.0, 0.0, 0.0, 0.0, 1.695412479752257E9, 0.0, 2023-09-22 14:54:39.752
