%OpenBCI Raw EXG Data
%Number of channels = 16
%Sample Rate = 125 Hz
%Board = OpenBCI_GUI$BoardCytonSerialDaisy
Sample Index, EXG Channel 0, EXG Channel 1, EXG Channel 2, EXG Channel 3, EXG Channel 4, EXG Channel 5, EXG Channel 6, EXG Channel 7, EXG Channel 8, EXG Channel 9, EXG Channel 10, EXG Channel 11, EXG Channel 12, EXG Channel 13, EXG Channel 14, EXG Channel 15, Accel Channel 0, Accel Channel 1, Accel Channel 2, Other, Other, Other, Other, Other, Other, Other, Analog Channel 0, Analog Channel 1, Analog Channel 2, Timestamp, Other, Timestamp (Formatted)
208.0, -4198.1493470846835, -12136.706666553817, 25240.305094755306, 46042.20194127583, -33186.79728350607, -7070.460268313917, 94758.03014731767, -13775.223645594555, 11957.199806833245, -10592.75991830348, -17296.89744673937, 33756.81147060531, -9141.23763337584, -5742.207854057295, -1706.3321717181411, 48042.6383665369, 0.0, 0.0, 0.0, 192.0, 0.0, 0.0, 0.0, 0.0, 0.0, 0.0, 0.0, 0.0, 0.0, 1.695414460831716E9, 0.0, 2023-09-22 15:27:40.831
210.0, -4198.126995340228, -12136.460797364807, 25185.610376073168, 45996.04558897562, -33185.59028930549, -7070.97435843639, 94703.00015246871, -13782.689128242628, 11960.932548157281, -10597.878467783747, -17299.75847002965, 33807.482875285496, -9142.399924087516, -5744.778304669655, -1705.8404333401245, 48085.93369554683, 0.0, 0.0, 0.0, 192.0, 0.0, 0.0, 0.0, 0.0, 0.0, 0.0, 0.0, 0.0, 0.0, 1.695414460831725E9, 0.0, 2023-09-22 15:27:40.831
212.0, -4202.7314546980215, -12142.40636138992, 25235.56652493078, 46028.92500506938, -33186.05967593905, -7072.024890425789, 94756.28671125016, -13781.63859625323, 11958.898539411848, -10597.744357317015, -17304.161763687345, 33761.751206129935, -9145.931499711454, -5748.198121571318, -1704.074645528155, 48043.375974103925, 0.0, 0.0, 0.0, 192.0, 0.0, 0.0, 0.0, 0.0, 0.0, 0.0, 0.0, 0.0, 0.0, 1.695414460831729E9, 0.0, 2023-09-22 15:27:40.831
214.0, -4200.920963397141, -12140.774684044682, 25187.37616388514, 45991.17290868436, -33183.891556726885, -7067.3980793235405, 94705.03416121413, -13784.432564310142, 11953.087085853469, -10597.744357317015, -17304.67585380982, 33810.478009042505, -9147.831397990156, -5747.102886093007, -1703.560555405683, 48090.67226537136, 0.0, 0.0, 0.0, 192.0, 0.0, 0.0, 0.0, 0.0, 0.0, 0.0, 0.0, 0.0, 0.0, 1.695414460831733E9, 0.0, 2023-09-22 15:27:40.831
216.0, -4203.625524476233, -12142.048733478634, 25238.986341832442, 46000.76180705569, -33186.70787652825, -7064.268835099797, 94719.38398115445, -13779.716346230072, 11960.217292334712, -10599.688959084626, -17304.385281131898, 33743.646293121135, -9146.132665411553, -5744.778304669655, -1700.7442356043143, 48024.82402620602, -0.018000000000000002, 0.984, 0.232, 192.0, 127.5, 56.0, 15.0, 96.0, 3.5, 32.0, 0.0, 0.0, 0.0, 1.695414460831736E9, 0.0, 2023-09-22 15:27:40.831
218.0, -4200.83155641932, -12137.0642944651, 25215.539361898824, 45982.41102485789, -33185.970268961224, -7060.200817608931, 94690.39376859591, -13783.516142787474, 11960.060830123524, -10599.28662768443, -17304.72055729873, 33799.81622693732, -9148.881929979556, -5745.337098281038, -1698.0843780141329, 48069.348701161, -0.018000000000000002, 0.984, 0.232, 192.0, 0.0, 0.0, 0.0, 0.0, 0.0, 0.0, 0.0, 0.0, 0.0, 1.695414460831739E9, 0.0, 2023-09-22 15:27:40.831
220.0, -4198.9763616295295, -12135.1643961864, 25245.53540295785, 45977.96302771128, -33184.49505382717, -7053.361183805608, 94692.49483257471, -13773.346099060309, 11961.446638279753, -10595.799755549402, -17302.775955531117, 33728.424755147076, -9149.284261379751, -5743.727772680256, -1693.5916773786162, 47999.45479624925, -0.018000000000000002, 0.984, 0.232, 192.0, 0.0, 0.0, 0.0, 0.0, 0.0, 0.0, 0.0, 0.0, 0.0, 1.695414460831742E9, 0.0, 2023-09-22 15:27:40.831
222.0, -4206.128919855228, -12142.920451512391, 25241.914420356086, 45995.77736804216, -33191.647612052875, -7061.340756576152, 94705.59295482552, -13786.332462588844, 11960.664327223818, -10593.609284592781, -17305.90519975486, 33794.51886350141, -9154.738087026846, -5743.593662213524, -1688.8978110430016, 48062.55377084658, -0.018000000000000002, 0.984, 0.232, 192.0, 0.0, 0.0, 0.0, 0.0, 0.0, 0.0, 0.0, 0.0, 0.0, 1.695414460831746E9, 0.0, 2023-09-22 15:27:40.831
224.0, -4208.297039067393, -12147.591966103551, 25255.705446685013, 45984.44503360332, -33191.3346876305, -7061.832494954168, 94700.29559138961, -13781.415078808675, 11958.22798707819, -10605.14278473172, -17310.889638768393, 33731.15166797062, -9160.124857440574, -5755.685955963845, -1703.0017617943004, 48013.22347083372, -0.018000000000000002, 0.984, 0.232, 192.0, 0.0, 0.0, 0.0, 0.0, 0.0, 0.0, 0.0, 0.0, 0.0, 1.695414460831749E9, 0.0, 2023-09-22 15:27:40.831
0.0, -2027.7502569854566, -6005.399645018536, 12954.378182217859, 22448.929840198736, -16609.402490783035, -3309.6228014973167, 47222.26228979377, -6896.094309818067, 5979.650435406022, -5300.358569664785, -8655.780095551027, 16894.141363399194, -4581.392357515378, -2877.720043387418, -844.8512369216963, 24035.769586058806, -0.012, 0.99, 0.196, 192.0, 127.5, 80.0, 15.0, 120.0, 3.0, 16.0, 0.0, 0.0, 0.0, 1.695414460972537E9, 0.0, 2023-09-22 15:27:40.972
2.0, -4064.8882466421423, -12019.739987819194, 25984.95346128386, 44969.38526265446, -33226.2928159586, -6624.1629867748015, 94528.6118422284, -13792.456840569597, 12465.009089113366, -10436.096541416233, -19019.456984932065, 33815.68596550059, -9087.951074594388, -5588.897238838344, -2064.2730074254287, 48598.90623079613, -0.012, 0.99, 0.196, 192.0, 0.0, 0.0, 0.0, 0.0, 0.0, 0.0, 0.0, 0.0, 0.0, 1.695414460972564E9, 0.0, 2023-09-22 15:27:40.972
4.0, -4056.9533773605085, -12010.75458654816, 25924.80491695463, 44934.4047825819, -33221.30837694507, -6621.771350118083, 94484.1542225068, -13795.943712704626, 12463.55622572377, -10433.235518125954, -19021.982732055516, 33890.20668151459, -9091.773222896245, -5587.4890789376595, -2073.5489813743807, 48670.543571775386, -0.012, 0.99, 0.196, 192.0, 0.0, 0.0, 0.0, 0.0, 0.0, 0.0, 0.0, 0.0, 0.0, 1.695414460972567E9, 0.0, 2023-09-22 15:27:40.972
6.0, -4072.5995984792235, -12027.853671056471, 25949.190670155367, 44942.630224541455, -33233.13244976192, -6633.595422934941, 94501.32036224847, -13798.044776683424, 12464.070315846244, -10432.050875669824, -19018.562915153852, 33799.32448855931, -9086.185286782418, -5587.354968470928, -2078.846344810289, 48586.791585301355, -0.012, 0.99, 0.196, 192.0, 0.0, 0.0, 0.0, 0.0, 0.0, 0.0, 0.0, 0.0, 0.0, 1.695414460972571E9, 0.0, 2023-09-22 15:27:40.972
8.0, -4067.548104232324, -12019.225897696722, 25914.143134849448, 44929.01801216818, -33226.71749910325, -6632.991925834647, 94483.1036905174, -13801.978683707559, 12456.403667498073, -10442.913823475103, -19031.839851360306, 33880.43896918761, -9094.969522353354, -5594.596933674447, -2088.5022984149814, 48664.039214138895, -0.014, 1.004, 0.166, 192.0, 127.5, 72.0, 15.5, 48.0, 2.5, 24.0, 0.0, 0.0, 0.0, 1.695414460972574E9, 0.0, 2023-09-22 15:27:40.972
10.0, -4070.967921133986, -12024.635019854906, 25938.79710898365, 44926.22404411126, -33229.37735669343, -6631.539062445052, 94484.48949867362, -13794.826125481859, 12464.539702479804, -10433.280221614865, -19023.748519867484, 33801.961994405036, -9086.02882457123, -5580.649445134335, -2085.0154262799533, 48588.84794579124, -0.014, 1.004, 0.166, 192.0, 0.0, 0.0, 0.0, 0.0, 0.0, 0.0, 0.0, 0.0, 0.0, 1.695414460972577E9, 0.0, 2023-09-22 15:27:40.972
12.0, -4063.971825119475, -12018.868269785436, 25925.207248354825, 44938.6069105395, -33225.33169094702, -6629.706219399717, 94488.42340569776, -13796.256637126999, 12457.253033787374, -10434.040180926346, -19027.972999569538, 33884.52933842294, -9087.7946123832, -5582.10230852393, -2085.8871443137105, 48660.23941758149, -0.014, 1.004, 0.166, 192.0, 0.0, 0.0, 0.0, 0.0, 0.0, 0.0, 0.0, 0.0, 0.0, 1.695414460972581E9, 0.0, 2023-09-22 15:27:40.972
14.0, -4067.4586972545026, -12021.170499464333, 25949.347132366554, 44944.46306758679, -33227.365699692455, -6628.9239083437815, 94502.05796981549, -13789.506410301497, 12460.426981500028, -10432.363800092196, -19022.295656477887, 33822.927930704114, -9082.541952436204, -5578.973064300188, -2088.345836203794, 48612.8760710807, -0.014, 1.004, 0.166, 192.0, 0.0, 0.0, 0.0, 0.0, 0.0, 0.0, 0.0, 0.0, 0.0, 1.695414460972584E9, 0.0, 2023-09-22 15:27:40.972
16.0, -4068.0398426103407, -12021.66223784235, 25945.457928831333, 44976.94015228035, -33228.81856308205, -6635.808245636016, 94536.52435976558, -13798.603570294807, 12465.813751913758, -10430.955640191512, -19023.1897262561, 33903.729486910044, -9079.524466934738, -5579.196581744741, -2090.4021966936825, 48688.357912106265, -0.014, 1.004, 0.166, 192.0, 0.0, 0.0, 0.0, 0.0, 0.0, 0.0, 0.0, 0.0, 0.0, 1.695414461032836E9, 0.0, 2023-09-22 15:27:41.032
18.0, -4067.6822146990557, -12018.845918040983, 25944.049768930647, 44953.247303157725, -33227.45510667028, -6631.673172911785, 94522.97920262566, -13790.601645779807, 12469.077106604233, -10427.357009334208, -19021.401586699678, 33847.045462971386, -9072.528370920227, -5581.297645723539, -2099.253487497984, 48640.50282722746, -0.016, 1.008, 0.15, 192.0, 127.5, 64.0, 15.5, 64.0, 2.0, 88.0, 0.0, 0.0, 0.0, 1.695414461032846E9, 0.0, 2023-09-22 15:27:41.032
20.0, -4052.907711614098, -12005.837202767992, 25974.783417556697, 44978.504774392226, -33216.90508328737, -6622.1736815182785, 94554.80808673002, -13787.226532367056, 12472.966310139456, -10421.769073220381, -19013.24319997349, 33924.00251913101, -9062.559492893159, -5573.452183419727, -2088.4575949260707, 48702.283048901925, -0.016, 1.008, 0.15, 192.0, 0.0, 0.0, 0.0, 0.0, 0.0, 0.0, 0.0, 0.0, 0.0, 1.69541446103285E9, 0.0, 2023-09-22 15:27:41.032
22.0, -4060.686118684545, -12011.246324926178, 25959.919507493916, 44912.07538987105, -33218.96144377726, -6627.9851350766585, 94487.79755685301, -13787.003014922502, 12478.174266597542, -10413.63303823865, -19005.084813247304, 33848.11834670524, -9048.589652608593, -5561.114020480397, -2092.547964161392, 48611.132635013186, -0.016, 1.008, 0.15, 192.0, 0.0, 0.0, 0.0, 0.0, 0.0, 0.0, 0.0, 0.0, 0.0, 1.695414461032853E9, 0.0, 2023-09-22 15:27:41.032
24.0, -4062.3401477742373, -12010.508717359153, 26008.512199939752, 44981.47755640478, -33217.62033910994, -6632.79076013455, 94560.8207059885, -13790.78045973545, 12470.820542671747, -10424.898317444125, -19016.886534319703, 33916.76055392749, -9054.423457911427, -5569.250055462129, -2086.7588623474676, 48656.79724893538, -0.016, 1.008, 0.15, 192.0, 0.0, 0.0, 0.0, 0.0, 0.0, 0.0, 0.0, 0.0, 0.0, 1.695414461032856E9, 0.0, 2023-09-22 15:27:41.032
26.0, -4065.312929786793, -12012.945057504781, 25962.445254617367, 44909.08025611404, -33220.01197576666, -6639.228062537678, 94483.52837366205, -13793.216799881078, 12477.995452641899, -10419.869174941681, -19010.181010983113, 33866.0444457584, -9042.711143816847, -5560.376412913372, -2094.4702141845482, 48596.55929762832, -0.016, 1.008, 0.15, 192.0, 0.0, 0.0, 0.0, 0.0, 0.0, 0.0, 0.0, 0.0, 0.0, 1.69541446103286E9, 0.0, 2023-09-22 15:27:41.032
28.0, -4070.5655897337906, -12020.656409341862, 26015.508295954263, 44998.19666125735, -33229.891446815906, -6650.359231276421, 94579.39500563085, -13801.174020907167, 12464.942033880001, -10440.522186818383, -19023.23442974501, 33910.36795501327, -9054.043478255688, -5565.025575760076, -2097.085368285819, 48623.44844620806, -0.016, 1.01, 0.152, 192.0, 127.5, 64.0, 15.5, 72.0, 2.0, 96.0, 0.0, 0.0, 0.0, 1.695414461032863E9, 0.0, 2023-09-22 15:27:41.032
30.0, -4057.065136082785, -12004.80902252305, 25962.75817903974, 44928.05688715659, -33220.660176355865, -6643.229024795178, 94512.02684784256, -13793.976759192557, 12471.647557216593, -10434.73308500446, -19012.99733078448, 33896.24165251752, -9048.142617719486, -5547.747677296124, -2104.2379265115173, 48609.56801290131, -0.016, 1.01, 0.152, 192.0, 0.0, 0.0, 0.0, 0.0, 0.0, 0.0, 0.0, 0.0, 0.0, 1.695414461092138E9, 0.0, 2023-09-22 15:27:41.092
32.0, -4058.450944239014, -12009.2346679252, 26023.018482091247, 44981.32109419359, -33224.1917519798, -6642.826693394983, 94573.49414509465, -13792.30037835841, 12489.37249056965, -10430.195680880033, -19003.542542879884, 33891.436027459626, -9042.59938509457, -5538.494055091626, -2092.4362054391154, 48591.84307954825, -0.016, 1.01, 0.152, 192.0, 0.0, 0.0, 0.0, 0.0, 0.0, 0.0, 0.0, 0.0, 0.0, 1.695414461092148E9, 0.0, 2023-09-22 15:27:41.092
34.0, -4051.588958691235, -12004.406691122853, 25955.71737953632, 44900.676000198844, -33219.49788564419, -6639.719800915695, 94484.75771960709, -13788.858209712293, 12480.588254998715, -10434.688381515549, -19001.754403323463, 33880.19309999861, -9043.895786272979, -5535.409514356794, -2103.5226706889475, 48580.086061964765, -0.016, 1.01, 0.152, 192.0, 0.0, 0.0, 0.0, 0.0, 0.0, 0.0, 0.0, 0.0, 0.0, 1.695414461092152E9, 0.0, 2023-09-22 15:27:41.092
36.0, -4058.830923894754, -12009.18996443629, 26029.72400542784, 44981.32109419359, -33224.52702814663, -6641.93262361677, 94567.16860141381, -13784.38786082123, 12482.04111838831, -10436.409465838608, -19003.34137717979, 33863.58575386831, -9045.147483962475, -5536.236528901641, -2088.994036792998, 48559.63421578815, -0.016, 1.01, 0.152, 192.0, 0.0, 0.0, 0.0, 0.0, 0.0, 0.0, 0.0, 0.0, 0.0, 1.695414461092155E9, 0.0, 2023-09-22 15:27:41.092
38.0, -4059.9485111175195, -12002.819717266526, 25967.787321542182, 44915.361096305984, -33218.357946676966, -6640.055077082525, 94486.47880393015, -13780.92334043066, 12486.37735681264, -10433.771959992882, -19003.028452757415, 33864.27865794643, -9045.12513221802, -5531.542662566026, -2096.571278163347, 48558.3601663542, -0.014, 1.01, 0.156, 192.0, 127.5, 72.0, 15.5, 72.0, 2.0, 112.0, 0.0, 0.0, 0.0, 1.695414461092159E9, 0.0, 2023-09-22 15:27:41.092
40.0, -4070.7220519449775, -12017.594220351484, 26047.96302890337, 45007.04795206165, -33222.58242637902, -6650.2698242986, 94585.11705221141, -13781.035099152936, 12480.074164876243, -10441.72918101897, -19005.800069069872, 33848.45362287207, -9047.963803763843, -5535.387162612339, -2083.741376846001, 48549.95591043901, -0.014, 1.01, 0.156, 192.0, 0.0, 0.0, 0.0, 0.0, 0.0, 0.0, 0.0, 0.0, 0.0, 1.695414461092162E9, 0.0, 2023-09-22 15:27:41.092
42.0, -4057.5568744608017, -12003.870249255926, 25975.208100701348, 44924.257090599196, -33209.52900761712, -6643.452542239731, 94488.78103360905, -13779.001090407502, 12479.51537126486, -10441.952698463523, -19002.42495565712, 33870.805367327375, -9047.762638063747, -5533.531967822549, -2090.8268798383333, 48574.00638747292, -0.014, 1.01, 0.156, 192.0, 0.0, 0.0, 0.0, 0.0, 0.0, 0.0, 0.0, 0.0, 0.0, 1.69541446109217E9, 0.0, 2023-09-22 15:27:41.092
44.0, -4065.000005364419, -12012.542726104586, 26052.835709194627, 44980.82935581558, -33216.05571699807, -6651.387411521365, 94547.65552850433, -13778.934035174136, 12494.289874349819, -10433.816663481792, -18994.62419684222, 33797.84927342526, -9043.560510106148, -5528.502825320104, -2080.902705300177, 48509.07456983025, -0.014, 1.01, 0.156, 192.0, 0.0, 0.0, 0.0, 0.0, 0.0, 0.0, 0.0, 0.0, 0.0, 1.695414461092174E9, 0.0, 2023-09-22 15:27:41.092
46.0, -4065.8270199092653, -12009.927572003315, 26001.04671729168, 44946.27355888767, -33208.500827372176, -6650.448638254242, 94501.56623143748, -13773.949596160603, 12491.272388848352, -10445.439570598552, -18999.251007944466, 33829.54404706288, -9048.41083865295, -5535.565976567981, -2091.162156005163, 48541.37284056817, -0.014, 1.01, 0.156, 192.0, 0.0, 0.0, 0.0, 0.0, 0.0, 0.0, 0.0, 0.0, 0.0, 1.695414461152094E9, 0.0, 2023-09-22 15:27:41.152
48.0, -4063.8377146527428, -12003.244400411177, 26034.306113041177, 44976.403710413426, -33206.98090874922, -6649.219292309201, 94537.55254001053, -13766.752334445995, 12479.783592198324, -10443.9643554645, -19002.156734723656, 33776.101026070246, -9048.388486908494, -5533.688430033735, -2086.2000687360846, 48501.162052293075, -0.01, 1.008, 0.154, 192.0, 127.5, 88.0, 15.5, 64.0, 2.0, 104.0, 0.0, 0.0, 0.0, 1.695414461152118E9, 0.0, 2023-09-22 15:27:41.152
50.0, -4067.346938532226, -12010.374606892421, 25979.969022270325, 44921.84310219802, -33211.47360938473, -6661.2221790817, 94467.05513799848, -13783.605549765296, 12487.651406246592, -10441.662125785604, -18997.641682343685, 33797.961032147534, -9046.399181651972, -5527.452293330704, -2091.0727490273416, 48506.86174712917, -0.01, 1.008, 0.154, 192.0, 0.0, 0.0, 0.0, 0.0, 0.0, 0.0, 0.0, 0.0, 0.0, 1.695414461152122E9, 0.0, 2023-09-22 15:27:41.152
52.0, -4072.2419705679386, -12015.42610113932, 26035.20018281939, 44969.13939346545, -33219.274368199636, -6672.107478631435, 94518.79942641252, -13785.796020721917, 12480.275330576342, -10445.216053154, -19005.53184813641, 33742.05931926481, -9057.195074223886, -5540.215139414685, -2104.7296648895344, 48454.938644759495, -0.01, 1.008, 0.154, 192.0, 0.0, 0.0, 0.0, 0.0, 0.0, 0.0, 0.0, 0.0, 0.0, 1.695414461152125E9, 0.0, 2023-09-22 15:27:41.152
54.0, -4067.1010693432177, -12011.894525515381, 26004.734755126807, 44969.09468997654, -33218.67087109934, -6678.790650223572, 94513.47971123215, -13791.16043939119, 12478.598949742192, -10445.148997920633, -19004.078984746815, 33832.51682907544, -9060.279614958718, -5539.768104525579, -2106.8530806127883, 48522.262099058884, -0.01, 1.008, 0.154, 192.0, 0.0, 0.0, 0.0, 0.0, 0.0, 0.0, 0.0, 0.0, 0.0, 1.695414461152129E9, 0.0, 2023-09-22 15:27:41.152
56.0, -4067.771621676877, -12009.480537114208, 26026.170078059447, 44983.84684131704, -33221.15191473388, -6683.283350859088, 94542.84990344643, -13790.936921946637, 12484.56686551176, -10441.528015318872, -19002.603769612764, 33779.297325527354, -9060.346670192084, -5540.505712092604, -2105.243755012006, 48479.65967412707, -0.01, 1.008, 0.154, 192.0, 0.0, 0.0, 0.0, 0.0, 0.0, 0.0, 0.0, 0.0, 0.0, 1.695414461152132E9, 0.0, 2023-09-22 15:27:41.152
58.0, -4062.5860169632456, -12003.825545767015, 25986.987470029293, 44968.781765554166, -33216.99449026519, -6686.032615427091, 94520.05112410201, -13794.11086965929, 12488.165496369063, -10442.690306030549, -18998.602807355262, 33847.2913321604, -9061.844237070589, -5538.941089980733, -2106.450749212593, 48534.06382013128, -0.008, 1.01, 0.154, 192.0, 127.5, 96.0, 15.5, 72.0, 2.0, 104.0, 0.0, 0.0, 0.0, 1.695414461152136E9, 0.0, 2023-09-22 15:27:41.152
60.0, -4074.968883391486, -12019.024731996624, 26011.127354041026, 44961.67391081738, -33224.214103724255, -6696.917914976825, 94522.39805726982, -13793.619131281273, 12483.42692654454, -10455.654317814628, -19003.319025435332, 33764.72398814249, -9066.493399917294, -5546.138351695341, -2115.5479092059027, 48458.17964770552, -0.008, 1.01, 0.154, 192.0, 0.0, 0.0, 0.0, 0.0, 0.0, 0.0, 0.0, 0.0, 0.0, 1.695414461212378E9, 0.0, 2023-09-22 15:27:41.212
62.0, -4070.163258333595, -12013.056816227057, 25994.34119395509, 44961.33863465055, -33219.72140308874, -6695.532106820597, 94520.29699329102, -13795.407270837697, 12476.430830530027, -10465.511437119418, -19009.24223771599, 33837.322454133326, -9073.623606398536, -5554.654366332814, -2123.5274819764477, 48521.05510485829, -0.008, 1.01, 0.154, 192.0, 0.0, 0.0, 0.0, 0.0, 0.0, 0.0, 0.0, 0.0, 0.0, 1.695414461212392E9, 0.0, 2023-09-22 15:27:41.212
64.0, -4076.667615970089, -12022.198679709278, 26005.494714438286, 44927.6545557564, -33218.24618795469, -6695.174478909312, 94493.34078947792, -13781.929168931149, 12485.393880056607, -10453.799123024837, -18998.915731777637, 33752.22936299197, -9065.934606305911, -5534.291927134029, -2122.61106045378, 48436.09612418367, -0.008, 1.01, 0.154, 192.0, 0.0, 0.0, 0.0, 0.0, 0.0, 0.0, 0.0, 0.0, 0.0, 1.695414461212395E9, 0.0, 2023-09-22 15:27:41.212
66.0, -4086.860011441709, -12026.914897789347, 26005.919397582937, 44960.95865499481, -33224.90700780237, -6711.938287250792, 94528.18715908375, -13799.162363906189, 12473.592158984204, -10465.891416775157, -19011.94679879508, 33826.2359888835, -9078.205714011874, -5544.506674350104, -2125.2709180439615, 48497.98810458042, -0.008, 1.01, 0.154, 192.0, 0.0, 0.0, 0.0, 0.0, 0.0, 0.0, 0.0, 0.0, 0.0, 1.695414461212399E9, 0.0, 2023-09-22 15:27:41.212
68.0, -4084.9601131630084, -12022.869232042936, 25994.89998756647, 44922.156026620396, -33225.845781069496, -6710.2172029277335, 94492.20085051071, -13794.44614582612, 12468.138333337109, -10468.26070168742, -19011.298598205878, 33759.225459006484, -9079.412708212461, -5546.540683095537, -2141.9006159187097, 48445.148580688074, -0.004, 1.008, 0.166, 192.0, 127.5, 112.0, 15.5, 64.0, 2.5, 24.0, 0.0, 0.0, 0.0, 1.695414461212402E9, 0.0, 2023-09-22 15:27:41.212
70.0, -4081.607351494712, -12016.677798828818, 26022.213819290857, 44953.20259966882, -33225.73402234722, -6709.9266302498145, 94516.31838277799, -13793.596779536818, 12470.932301394023, -10464.885588274668, -19010.29276970539, 33805.73943921798, -9078.920969834444, -5540.103380692409, -2138.0784676168523, 48485.426424196536, -0.004, 1.008, 0.166, 192.0, 0.0, 0.0, 0.0, 0.0, 0.0, 0.0, 0.0, 0.0, 0.0, 1.695414461212405E9, 0.0, 2023-09-22 15:27:41.212
72.0, -4079.953322405019, -12016.655447084362, 26010.90383659647, 44901.43595951032, -33222.02363276764, -6713.033522729102, 94462.94241701871, -13788.58998877883, 12478.353080553185, -10468.104239476233, -19006.872952803726, 33754.03985429285, -9076.976368066833, -5536.214177157185, -2144.4934182755255, 48433.548025315766, -0.004, 1.008, 0.166, 192.0, 0.0, 0.0, 0.0, 0.0, 0.0, 0.0, 0.0, 0.0, 0.0, 1.69541446121241E9, 0.0, 2023-09-22 15:27:41.212
74.0, -4079.7968601938323, -12018.175365707322, 26065.352686089598, 44983.310399450114, -33223.43179266832, -6714.262868674144, 94547.3649558264, -13790.087555657336, 12480.320034065251, -10459.610576583216, -19005.464792903043, 33820.044555669374, -9076.484629688815, -5533.0178777000765, -2136.156217593696, 48480.173764249535, -0.004, 1.008, 0.166, 192.0, 0.0, 0.0, 0.0, 0.0, 0.0, 0.0, 0.0, 0.0, 0.0, 1.695414461212415E9, 0.0, 2023-09-22 15:27:41.212
76.0, -4077.4052235371146, -12018.063606985046, 26000.890255080492, 44906.10747410148, -33218.693222843795, -6716.632153586406, 94465.93755077572, -13791.786288235939, 12487.271426590853, -10465.042050485856, -19002.51436263494, 33806.92408167411, -9076.283463988717, -5533.576671311459, -2151.802438712411, 48465.93570303151, -0.004, 1.008, 0.166, 192.0, 0.0, 0.0, 0.0, 0.0, 0.0, 0.0, 0.0, 0.0, 0.0, 1.695414461272727E9, 0.0, 2023-09-22 15:27:41.272
78.0, -4085.965941663497, -12022.913935531848, 26046.06313062467, 44970.301684177124, -33224.52702814663, -6727.115121735946, 94532.05401087452, -13794.133221403745, 12477.302548563785, -10470.45117264404, -19008.303464448865, 33821.676233014616, -9078.65274890098, -5537.622337057869, -2144.8510461868104, 48461.688871585, -0.006, 0.994, 0.168, 192.0, 127.5, 104.0, 15.5, 8.0, 2.5, 32.0, 0.0, 0.0, 0.0, 1.695414461272743E9, 0.0, 2023-09-22 15:27:41.272
80.0, -4084.513078273902, -12021.997514009181, 25987.70272585186, 44906.46510201277, -33222.02363276764, -6725.796368813082, 94468.61976011036, -13788.232360867545, 12475.067374118255, -10471.59111161126, -19011.90209530617, 33813.29432884388, -9079.546818679193, -5538.985793469643, -2155.825752714366, 48455.3856796486, -0.006, 0.994, 0.168, 192.0, 0.0, 0.0, 0.0, 0.0, 0.0, 0.0, 0.0, 0.0, 0.0, 1.695414461272747E9, 0.0, 2023-09-22 15:27:41.272
82.0, -4085.7200724744885, -12020.879926786414, 26044.654970723986, 44957.315320648595, -33222.2918537011, -6727.651563602873, 94527.42719977227, -13786.06424165538, 12482.130525366132, -10467.545445864851, -19008.839906315792, 33808.980442164, -9077.445754700393, -5534.157816667297, -2154.127020135763, 48456.279749426816, -0.006, 0.994, 0.168, 192.0, 0.0, 0.0, 0.0, 0.0, 0.0, 0.0, 0.0, 0.0, 0.0, 1.69541446127275E9, 0.0, 2023-09-22 15:27:41.272
84.0, -4094.4372528120584, -12027.138415233901, 25988.932071796906, 44905.05694211208, -33224.95171129128, -6739.855616075471, 94471.43607991173, -13796.882485971748, 12472.206350827975, -10475.033280257378, -19017.020644786437, 33814.41191606664, -9083.681891403425, -5543.2326249161515, -2168.029805186964, 48467.5897321212, -0.006, 0.994, 0.168, 192.0, 0.0, 0.0, 0.0, 0.0, 0.0, 0.0, 0.0, 0.0, 0.0, 1.695414461272757E9, 0.0, 2023-09-22 15:27:41.272
86.0, -4089.47516554298, -12021.416368653343, 26058.02131390826, 44968.915876020896, -33222.738888590204, -6736.9275375518255, 94542.7604964686, -13787.450049811609, 12481.884656177122, -10471.009966255424, -19014.56195289635, 33815.68596550059, -9082.027862313731, -5538.471703347172, -2160.989005683542, 48466.02511000933, -0.006, 0.994, 0.168, 192.0, 0.0, 0.0, 0.0, 0.0, 0.0, 0.0, 0.0, 0.0, 0.0, 1.69541446127276E9, 0.0, 2023-09-22 15:27:41.272
88.0, -4086.9494184195305, -12020.924630275325, 25995.838760833594, 44905.52632874565, -33218.425001910335, -6738.00042128568, 94471.65959735628, -13786.176000377656, 12479.001281142388, -10472.105201733733, -19013.980807540513, 33834.61789305424, -9077.84808610059, -5533.66607828928, -2167.023976686475, 48478.296217715295, -0.008, 1.004, 0.168, 192.0, 127.5, 96.0, 15.5, 48.0, 2.5, 32.0, 0.0, 0.0, 0.0, 1.695414461272763E9, 0.0, 2023-09-22 15:27:41.272
90.0, -4092.023264410885, -12024.411502410354, 26057.127244130046, 44962.344463151036, -33218.2908914436, -6738.179235241322, 94539.11716212239, -13778.86697994077, 12486.28794983482, -10470.719393577505, -19014.830173829814, 33815.28363410039, -9074.249455243285, -5526.737037508135, -2158.5303137934584, 48455.855066282165, -0.008, 1.004, 0.168, 192.0, 0.0, 0.0, 0.0, 0.0, 0.0, 0.0, 0.0, 0.0, 0.0, 1.695414461333028E9, 0.0, 2023-09-22 15:27:41.333
92.0, -4094.996046423441, -12029.910031546358, 25986.29456595118, 44893.411683250866, -33218.96144377726, -6742.470770176741, 94461.35544316238, -13786.623035266763, 12474.285063062318, -10477.804896569836, -19023.43559544511, 33859.36127416626, -9078.473934945338, -5529.218081142674, -2168.767412753989, 48488.6450753981, -0.008, 1.004, 0.168, 192.0, 0.0, 0.0, 0.0, 0.0, 0.0, 0.0, 0.0, 0.0, 0.0, 1.69541446133304E9, 0.0, 2023-09-22 15:27:41.333
94.0, -4105.568421550801, -12037.599031638985, 26046.06313062467, 44945.84887574302, -33229.51146716016, -6753.4231249598415, 94524.1638450818, -13790.802811479905, 12467.937167637012, -10487.483201918985, -19033.51623219445, 33803.66072698364, -9082.363138480561, -5530.693296276724, -2173.0365959449528, 48434.37503986061, -0.008, 1.004, 0.168, 192.0, 0.0, 0.0, 0.0, 0.0, 0.0, 0.0, 0.0, 0.0, 0.0, 1.695414461333044E9, 0.0, 2023-09-22 15:27:41.333
96.0, -4100.8298517262765, -12027.630153611917, 25982.1818449714, 44890.84123263851, -33225.4434496693, -6750.76326736966, 94458.74028906111, -13791.898046958215, 12464.539702479804, -10483.996329783957, -19035.706703151074, 33854.33213166382, -9083.9948158258, -5525.462988074182, -2181.709072793612, 48471.88126705662, -0.008, 1.004, 0.168, 192.0, 0.0, 0.0, 0.0, 0.0, 0.0, 0.0, 0.0, 0.0, 0.0, 1.695414461333047E9, 0.0, 2023-09-22 15:27:41.333
98.0, -4103.310895360815, -12028.703037345773, 26029.47813623883, 44931.40964882489, -33224.16940023535, -6753.1325522819225, 94509.36699025238, -13785.572503277363, 12477.32490030824, -10478.341338436763, -19036.220793273544, 33794.38475303468, -9079.680929145925, -5520.098569404909, -2174.7129767791007, 48417.99121117487, -0.008, 1.002, 0.17, 192.0, 127.5, 96.0, 15.5, 40.0, 2.5, 40.0, 0.0, 0.0, 0.0, 1.695414461333051E9, 0.0, 2023-09-22 15:27:41.333
100.0, -4106.618953540201, -12029.641810612895, 25971.408304143944, 44884.98507559122, -33225.73402234722, -6764.531941954129, 94453.1970564362, -13804.593837808829, 12472.474571761439, -10480.956492538035, -19039.797072386395, 33851.247590928986, -9080.642054157503, -5525.172415396263, -2179.0045117145196, 48462.001796007375, -0.008, 1.002, 0.17, 192.0, 0.0, 0.0, 0.0, 0.0, 0.0, 0.0, 0.0, 0.0, 0.0, 1.695414461333054E9, 0.0, 2023-09-22 15:27:41.333
102.0, -4108.787072752366, -12036.57085139404, 26012.66962440844, 44886.147366302896, -33227.25394097018, -6764.95662509878, 94461.33309141792, -13792.993282436524, 12472.809847928269, -10484.488068161972, -19040.33351425332, 33762.82408986379, -9078.429231456426, -5526.893499719322, -2184.503040850525, 48373.44418447545, -0.008, 1.002, 0.17, 192.0, 0.0, 0.0, 0.0, 0.0, 0.0, 0.0, 0.0, 0.0, 0.0, 1.695414461333057E9, 0.0, 2023-09-22 15:27:41.333
104.0, -4106.686008773567, -12034.648601370884, 25990.072010764125, 44883.15223254589, -33225.86813281395, -6768.8011251450935, 94449.46431511216, -13799.341177861832, 12468.540664737304, -10494.524001422405, -19048.08956957931, 33840.87638150172, -9083.950112336888, -5531.967345710676, -2181.083223948863, 48443.82982776521, -0.008, 1.002, 0.17, 192.0, 0.0, 0.0, 0.0, 0.0, 0.0, 0.0, 0.0, 0.0, 0.0, 1.695414461333061E9, 0.0, 2023-09-22 15:27:41.333
106.0, -4112.698628032044, -12039.878909573426, 26018.1905052889, 44889.45542448228, -33230.00320553818, -6776.445421748808, 94462.38362340732, -13797.106003416302, 12475.402650285085, -10491.573571154306, -19043.798034643893, 33768.16615678861, -9079.591522168103, -5527.228775886152, -2185.9782559845753, 48392.8231469182, -0.008, 1.002, 0.17, 192.0, 0.0, 0.0, 0.0, 0.0, 0.0, 0.0, 0.0, 0.0, 0.0, 1.695414461393216E9, 0.0, 2023-09-22 15:27:41.393
108.0, -4108.809424496821, -12033.352200192476, 25985.512254895242, 44897.99379086421, -33230.80786833857, -6776.758346171182, 94461.1989809512, -13801.621055796273, 12467.221911814442, -10502.324760237309, -19052.67167719265, 33839.04353845639, -9084.307740248172, -5533.576671311459, -2191.633247331768, 48460.28071168432, -0.012, 1.008, 0.164, 192.0, 127.5, 80.0, 15.5, 64.0, 2.5, 16.0, 0.0, 0.0, 0.0, 1.695414461393233E9, 0.0, 2023-09-22 15:27:41.393
110.0, -4116.118444933706, -12043.321078219544, 25991.68133636491, 44888.74016865971, -33236.90989457487, -6781.8321921625375, 94456.84039078241, -13802.939808719137, 12466.484304247417, -10496.043920045367, -19052.20229055909, 33767.137976543665, -9083.771298381245, -5527.608755541892, -2196.2824101784718, 48398.455786520935, -0.012, 1.008, 0.164, 192.0, 0.0, 0.0, 0.0, 0.0, 0.0, 0.0, 0.0, 0.0, 0.0, 1.695414461393245E9, 0.0, 2023-09-22 15:27:41.393
112.0, -4114.844395499754, -12041.264717729655, 25979.879615292506, 44901.41360776587, -33239.256827742676, -6791.577552745051, 94467.07748974294, -13818.608381582306, 12463.064487345755, -10507.778585884404, -19064.92043315416, 33835.04257619889, -9093.024920585744, -5538.1811306692525, -2201.7809393144776, 48458.090240727695, -0.012, 1.008, 0.164, 192.0, 0.0, 0.0, 0.0, 0.0, 0.0, 0.0, 0.0, 0.0, 0.0, 1.695414461393249E9, 0.0, 2023-09-22 15:27:41.393
114.0, -4107.781244251877, -12036.123816504934, 25992.351888698566, 44881.185279033816, -33235.45703118527, -6783.262703807677, 94446.53623658851, -13797.374224349765, 12467.624243214637, -10498.36850146872, -19055.24212780501, 33755.24684849344, -9086.967597838355, -5528.346363108917, -2206.564212627913, 48384.86592589211, -0.012, 1.008, 0.164, 192.0, 0.0, 0.0, 0.0, 0.0, 0.0, 0.0, 0.0, 0.0, 0.0, 1.695414461393253E9, 0.0, 2023-09-22 15:27:41.393
116.0, -4101.232183126472, -12025.931421033314, 26010.859133107562, 44927.92277668986, -33233.15480150638, -6783.8885526524255, 94490.6585801433, -13799.654102284207, 12475.425002029539, -10494.859277589236, -19054.705685938083, 33840.16112567915, -9086.788783882712, -5527.228775886152, -2193.3543316548266, 48463.186438463505, -0.012, 1.008, 0.164, 192.0, 0.0, 0.0, 0.0, 0.0, 0.0, 0.0, 0.0, 0.0, 0.0, 1.695414461393257E9, 0.0, 2023-09-22 15:27:41.393
118.0, -4099.846374970242, -12028.121891989935, 25990.76491484224, 44865.02496779263, -33233.62418813994, -6788.448308521308, 94426.35261134537, -13799.698805773116, 12484.253941089386, -10494.233428744486, -19045.541470711407, 33770.267220767404, -9081.17849602443, -5521.037342672032, -2201.95975327012, 48390.58797247267, -0.012, 1.006, 0.156, 192.0, 127.5, 80.0, 15.5, 56.0, 2.0, 112.0, 0.0, 0.0, 0.0, 1.69541446139326E9, 0.0, 2023-09-22 15:27:41.393
120.0, -4105.791938995354, -12033.888642059404, 26029.791060661206, 44926.64872725591, -33236.41815619685, -6797.657227236895, 94489.87626908736, -13808.863020999792, 12476.363775296662, -10499.419033458118, -19056.069142349857, 33837.970654722536, -9089.806269384178, -5528.279307875551, -2201.356256169827, 48441.34878413067, -0.012, 1.006, 0.156, 192.0, 0.0, 0.0, 0.0, 0.0, 0.0, 0.0, 0.0, 0.0, 0.0, 1.695414461452055E9, 0.0, 2023-09-22 15:27:41.452
122.0, -4102.640343027156, -12032.61459262545, 25996.017574789235, 44866.008444548665, -33232.327786961534, -6795.131480113445, 94428.18545439071, -13801.26342788499, 12477.794286941802, -10500.93895208108, -19055.30918303838, 33792.19428207806, -9087.70520540538, -5527.742866008623, -2210.028733018486, 48403.909612168034, -0.012, 1.006, 0.156, 192.0, 0.0, 0.0, 0.0, 0.0, 0.0, 0.0, 0.0, 0.0, 0.0, 1.695414461452067E9, 0.0, 2023-09-22 15:27:41.452
124.0, -4104.562593050313, -12035.565022893552, 26032.227400806834, 44930.247358113214, -33235.52408641864, -6801.568782516573, 94493.8548796004, -13805.01852095348, 12470.306452549274, -10502.436518959585, -19059.287793551423, 33830.77339300793, -9091.437946729417, -5527.966383453177, -2201.8703462922986, 48445.215635921435, -0.012, 1.006, 0.156, 192.0, 0.0, 0.0, 0.0, 0.0, 0.0, 0.0, 0.0, 0.0, 0.0, 1.695414461452071E9, 0.0, 2023-09-22 15:27:41.452
126.0, -4102.483880815969, -12035.341505448998, 25996.53166491171, 44877.11726154295, -33233.601836395486, -6802.44050055033, 94438.86958824034, -13803.073919185868, 12475.290891562807, -10503.59880967126, -19056.896156894705, 33797.42459028061, -9086.855839116079, -5525.887671218833, -2211.2580789635276, 48419.82405422021, -0.012, 1.006, 0.156, 192.0, 0.0, 0.0, 0.0, 0.0, 0.0, 0.0, 0.0, 0.0, 0.0, 1.695414461452074E9, 0.0, 2023-09-22 15:27:41.452
128.0, -4101.679218015578, -12029.731217590717, 26039.15644158798, 44939.813904740084, -33234.11592651796, -6806.933201185847, 94509.36699025238, -13804.169154664178, 12479.358909053673, -10503.88938234918, -19057.52200573945, 33828.515866817936, -9088.17459203894, -5527.318182863973, -2197.7799770569777, 48454.20103719247, -0.018000000000000002, 1.006, 0.16, 192.0, 127.5, 56.0, 15.5, 56.0, 2.5, 0.0, 0.0, 0.0, 0.0, 1.695414461452078E9, 0.0, 2023-09-22 15:27:41.452
130.0, -4096.650075513134, -12023.89741228788, 25974.1799204564, 44848.61878736244, -33227.09747875899, -6803.066349395079, 94413.09802688337, -13796.100174915813, 12479.045984631299, -10496.513306678928, -19053.38693301522, 33801.336145560286, -9082.854876858579, -5521.976115939155, -2207.9500207841425, 48418.21472861943, -0.018000000000000002, 1.006, 0.16, 192.0, 0.0, 0.0, 0.0, 0.0, 0.0, 0.0, 0.0, 0.0, 0.0, 1.695414461452081E9, 0.0, 2023-09-22 15:27:41.452
132.0, -4099.064063914307, -12028.010133267659, 26052.947467916903, 44924.32414583256, -33231.29960671659, -6807.82727096406, 94500.22512677016, -13798.44710808362, 12484.969196911956, -10505.208135272043, -19057.54435748391, 33810.612119509235, -9085.715900148858, -5525.1500636518085, -2197.6905700791563, 48429.54706305827, -0.018000000000000002, 1.006, 0.16, 192.0, 0.0, 0.0, 0.0, 0.0, 0.0, 0.0, 0.0, 0.0, 0.0, 1.695414461452086E9, 0.0, 2023-09-22 15:27:41.452
134.0, -4086.2341625969607, -12011.08986271499, 26002.678394636918, 44855.369014187934, -33223.00710952367, -6797.478413281252, 94421.68109675421, -13790.378128335255, 12490.28891209232, -10494.367539211218, -19050.324744024845, 33825.1854568941, -9080.038557057209, -5513.571860023959, -2204.239631204561, 48439.985327718896, -0.018000000000000002, 1.006, 0.16, 192.0, 0.0, 0.0, 0.0, 0.0, 0.0, 0.0, 0.0, 0.0, 0.0, 1.695414461452091E9, 0.0, 2023-09-22 15:27:41.452
136.0, -4096.247744112939, -12022.265734942644, 26062.223441865855, 44934.315375604085, -33232.50660091717, -6805.100358140512, 94512.36212400939, -13795.407270837697, 12494.133412138632, -10491.17123975411, -19053.92337488215, 33819.48576205799, -9081.245551257796, -5509.034455899532, -2194.740139811056, 48435.96201371694, -0.018000000000000002, 1.006, 0.16, 192.0, 0.0, 0.0, 0.0, 0.0, 0.0, 0.0, 0.0, 0.0, 0.0, 1.69541446151238E9, 0.0, 2023-09-22 15:27:41.512
138.0, -4097.365331335704, -12025.730255333216, 25984.729943839306, 44841.399173903366, -33226.51633340315, -6813.102282655512, 94406.0348756355, -13807.276047143467, 12490.065394647765, -10496.088623534277, -19061.701781952594, 33833.00856745346, -9081.692586146903, -5514.778854224545, -2210.051084762941, 48456.056231982264, -0.016, 1.008, 0.158, 192.0, 127.5, 64.0, 15.5, 64.0, 2.0, 120.0, 0.0, 0.0, 0.0, 1.695414461512391E9, 0.0, 2023-09-22 15:27:41.512
140.0, -4107.155395407128, -12035.542671149096, 26055.272049340256, 44885.856793624975, -33237.088708530515, -6824.188747905344, 94458.71793731666, -13808.371282621776, 12483.561037011272, -10502.615332915228, -19065.456875021086, 33778.69382842706, -9081.781993124723, -5518.75746473759, -2208.6429248622567, 48399.86394642162, -0.016, 1.008, 0.158, 192.0, 0.0, 0.0, 0.0, 0.0, 0.0, 0.0, 0.0, 0.0, 0.0, 1.695414461512394E9, 0.0, 2023-09-22 15:27:41.512
142.0, -4098.393511580648, -12026.423159411332, 26006.455839449864, 44841.98031925921, -33233.311263717565, -6820.947744959324, 94406.77248320253, -13810.1594221782, 12474.910911907067, -10511.89130686418, -19076.409229804187, 33831.91333197514, -9090.23095252883, -5526.491168319127, -2222.053971535441, 48447.76373478934, -0.016, 1.008, 0.158, 192.0, 0.0, 0.0, 0.0, 0.0, 0.0, 0.0, 0.0, 0.0, 0.0, 1.695414461512398E9, 0.0, 2023-09-22 15:27:41.512
144.0, -4097.14181389115, -12026.266697200144, 26055.741435973818, 44878.63718016591, -33230.07026077154, -6817.080893168556, 94451.67713781324, -13798.380052850254, 12487.450240546494, -10498.100280535255, -19065.479226765543, 33774.603459191734, -9081.51377219126, -5514.220060613163, -2211.8839278082764, 48393.51605099631, -0.016, 1.008, 0.158, 192.0, 0.0, 0.0, 0.0, 0.0, 0.0, 0.0, 0.0, 0.0, 0.0, 1.695414461512401E9, 0.0, 2023-09-22 15:27:41.512
146.0, -4097.410034824614, -12020.723464575227, 26002.29841498118, 44851.09983099697, -33232.886580572915, -6825.060465939101, 94421.01054442055, -13807.58897156584, 12480.56590325426, -10502.905905593147, -19073.414096047174, 33828.60527379576, -9088.331054250128, -5519.47272056016, -2218.9694308006087, 48448.188417934, -0.016, 1.008, 0.158, 192.0, 0.0, 0.0, 0.0, 0.0, 0.0, 0.0, 0.0, 0.0, 0.0, 1.695414461512404E9, 0.0, 2023-09-22 15:27:41.512
148.0, -4102.796805238343, -12032.592240880997, 26063.76571223327, 44910.063732870076, -33233.2442084842, -6824.009933949702, 94495.28539124553, -13799.810564495394, 12486.04208064581, -10504.805803871848, -19071.380087301743, 33783.74532267396, -9088.286350761218, -5514.0635984019755, -2213.9179365537093, 48424.8308449782, -0.018000000000000002, 1.004, 0.158, 192.0, 127.5, 56.0, 15.5, 48.0, 2.0, 120.0, 0.0, 0.0, 0.0, 1.695414461512407E9, 0.0, 2023-09-22 15:27:41.512
150.0, -4100.919258704097, -12032.011095525158, 26000.06324053565, 44862.20864799126, -33226.76220259216, -6826.870957239981, 94440.74713477459, -13806.292570387432, 12480.18592359852, -10512.360693497742, -19077.72798272705, 33851.024073484434, -9089.158068794975, -5517.9975054261095, -2221.450474435148, 48493.83068011173, -0.018000000000000002, 1.004, 0.158, 192.0, 0.0, 0.0, 0.0, 0.0, 0.0, 0.0, 0.0, 0.0, 0.0, 1.695414461572711E9, 0.0, 2023-09-22 15:27:41.572
152.0, -4104.316723861304, -12030.66999085784, 26032.33915952911, 44855.816049077046, -33225.46580141375, -6823.428788593864, 94440.43421035222, -13797.083651671846, 12493.976949927444, -10502.995312570967, -19073.235282091533, 33759.96306657351, -9081.469068702349, -5510.33085707794, -2218.1647680002175, 48403.50728076784, -0.018000000000000002, 1.004, 0.158, 192.0, 0.0, 0.0, 0.0, 0.0, 0.0, 0.0, 0.0, 0.0, 0.0, 1.695414461572727E9, 0.0, 2023-09-22 15:27:41.572
154.0, -4102.57328779379, -12028.211298967755, 25998.409211445956, 44842.47205763723, -33225.33169094702, -6827.608564807006, 94414.75205597306, -13802.78334650795, 12476.18496134102, -10509.767891140926, -19081.43837230663, 33830.28165462991, -9088.912199605966, -5512.834252456934, -2223.372724458304, 48466.71801408744, -0.018000000000000002, 1.004, 0.158, 192.0, 0.0, 0.0, 0.0, 0.0, 0.0, 0.0, 0.0, 0.0, 0.0, 1.69541446157273E9, 0.0, 2023-09-22 15:27:41.572
156.0, -4108.965886708008, -12033.173386236833, 26025.857153637073, 44836.928825012306, -33231.00903403867, -6834.179977676867, 94414.52853852851, -13798.737680761538, 12482.532856766327, -10506.616295172727, -19080.231378106044, 33752.5646391588, -9087.213467027363, -5512.744845479113, -2225.317326225916, 48405.56364125772, -0.018000000000000002, 1.004, 0.158, 192.0, 0.0, 0.0, 0.0, 0.0, 0.0, 0.0, 0.0, 0.0, 0.0, 1.695414461572734E9, 0.0, 2023-09-22 15:27:41.572
158.0, -4110.172880908594, -12034.603897881974, 25997.895121323483, 44834.71600231123, -33235.07705152954, -6844.394724892942, 94407.17481460272, -13812.819279768382, 12474.218007828953, -10512.94183885358, -19088.903854954704, 33823.9337592046, -9094.813060142167, -5520.143272893819, -2232.268718751516, 48467.656787354565, -0.014, 1.0, 0.156, 192.0, 127.5, 72.0, 15.5, 32.0, 2.0, 112.0, 0.0, 0.0, 0.0, 1.695414461572737E9, 0.0, 2023-09-22 15:27:41.572
160.0, -4106.484843073469, -12032.703999603273, 26017.318787255146, 44823.47307485021, -33235.837010841016, -6841.086666713556, 94403.17385234522, -13801.844573240825, 12476.721403207946, -10507.26449576193, -19087.652157265205, 33750.10594726872, -9091.996740340799, -5516.8799182033445, -2236.090867053374, 48402.54615575626, -0.014, 1.0, 0.156, 192.0, 0.0, 0.0, 0.0, 0.0, 0.0, 0.0, 0.0, 0.0, 0.0, 1.69541446157274E9, 0.0, 2023-09-22 15:27:41.572
162.0, -4105.434311084069, -12032.681647858817, 26014.1895430314, 44847.23297920621, -33233.91476081786, -6846.115809216, 94424.94445144468, -13807.63367505475, 12476.810810185769, -10512.025417330911, -19089.328538099355, 33835.75783202146, -9094.678949675435, -5514.309467590984, -2229.0947710388627, 48483.57122940674, -0.014, 1.0, 0.156, 192.0, 0.0, 0.0, 0.0, 0.0, 0.0, 0.0, 0.0, 0.0, 0.0, 1.695414461572743E9, 0.0, 2023-09-22 15:27:41.572
164.0, -4107.7588925074215, -12031.273487958133, 26005.67352839393, 44804.29527810756, -33237.17811550834, -6846.160512704911, 94385.9853608591, -13801.039910440435, 12479.113039864666, -10509.052635318356, -19088.993261932526, 33763.986380575465, -9093.740176408313, -5513.974191424155, -2240.449457222159, 48421.96982168792, -0.014, 1.0, 0.156, 192.0, 0.0, 0.0, 0.0, 0.0, 0.0, 0.0, 0.0, 0.0, 0.0, 1.695414461572746E9, 0.0, 2023-09-22 15:27:41.572
166.0, -4109.9270117195865, -12033.553365892574, 26025.700691425885, 44843.835514048995, -33234.652368384886, -6848.239224939254, 94426.26320436755, -13805.756128520505, 12477.928397408534, -10513.008894086945, -19095.58702654684, 33826.05717492785, -9097.897600877, -5515.1141303913755, -2235.867349608821, 48485.51583117436, -0.014, 1.0, 0.156, 192.0, 0.0, 0.0, 0.0, 0.0, 0.0, 0.0, 0.0, 0.0, 0.0, 1.695414461632962E9, 0.0, 2023-09-22 15:27:41.632
168.0, -4116.833700756276, -12038.470749672742, 25996.017574789235, 44786.21271684322, -33237.40163295289, -6850.496751129241, 94370.00386357354, -13805.197334909122, 12473.994490384399, -10511.064292319334, -19098.20218064811, 33760.275990995884, -9095.327150264638, -5514.532985035537, -2247.870236381321, 48428.31771711323, -0.012, 1.0, 0.158, 192.0, 127.5, 80.0, 15.5, 32.0, 2.0, 120.0, 0.0, 0.0, 0.0, 1.695414461632974E9, 0.0, 2023-09-22 15:27:41.632
170.0, -4118.644192057156, -12043.76811310865, 26046.73368295833, 44865.673168381836, -33238.98860680922, -6855.458838398318, 94454.82873378143, -13807.2089919101, 12470.731135693924, -10515.467585977029, -19106.807602263405, 33822.011509181444, -9102.636170701524, -5520.210328127186, -2240.4941607110695, 48484.35354046268, -0.012, 1.0, 0.158, 192.0, 0.0, 0.0, 0.0, 0.0, 0.0, 0.0, 0.0, 0.0, 0.0, 1.695414461632978E9, 0.0, 2023-09-22 15:27:41.632
172.0, -4116.118444933706, -12043.1422642639, 26014.569522687143, 44804.71996125221, -33235.70290037429, -6852.754277319226, 94395.95423888616, -13801.799869751916, 12477.548417752794, -10507.55506843985, -19101.465535338586, 33786.38282851969, -9094.455432230883, -5512.387217567828, -2245.612710191335, 48458.224351194425, -0.012, 1.0, 0.158, 192.0, 0.0, 0.0, 0.0, 0.0, 0.0, 0.0, 0.0, 0.0, 0.0, 1.695414461632985E9, 0.0, 2023-09-22 15:27:41.632
174.0, -4116.029037955885, -12040.840034585004, 26057.68603774143, 44880.64883716689, -33234.11592651796, -6852.3295941745755, 94480.86851607186, -13798.804735994905, 12476.475534018939, -10519.289734278886, -19108.461631353097, 33833.74617502048, -9095.729481664835, -5517.036380414532, -2235.152093786251, 48504.783034894834, -0.012, 1.0, 0.158, 192.0, 0.0, 0.0, 0.0, 0.0, 0.0, 0.0, 0.0, 0.0, 0.0, 1.69541446163299E9, 0.0, 2023-09-22 15:27:41.632
176.0, -4108.496500074447, -12027.741912334193, 26009.361566229054, 44815.49350207967, -33228.840914826505, -6848.619204594995, 94414.81911120644, -13794.088517914835, 12482.018766643854, -10506.102205050256, -19100.392651604732, 33816.06594515633, -9086.56526643816, -5509.973229166655, -2239.2648147660275, 48493.27188650035, -0.012, 1.0, 0.158, 192.0, 0.0, 0.0, 0.0, 0.0, 0.0, 0.0, 0.0, 0.0, 0.0, 1.695414461632994E9, 0.0, 2023-09-22 15:27:41.632
178.0, -4109.971715208497, -12034.04510427059, 26044.900839912993, 44851.39040367489, -33225.421097924846, -6848.552149361629, 94460.84135303991, -13794.759070248494, 12484.343348067207, -10505.31989399432, -19100.437355093643, 33815.507151544945, -9079.70328089038, -5510.532022778038, -2232.581643173891, 48485.64994164109, -0.014, 1.0, 0.154, 192.0, 127.5, 72.0, 15.5, 32.0, 2.0, 104.0, 0.0, 0.0, 0.0, 1.695414461632997E9, 0.0, 2023-09-22 15:27:41.632
180.0, -4115.514947833413, -12038.828377584026, 25979.72315308132, 44768.264266045604, -33226.896313058896, -6855.54824537614, 94372.23903801908, -13803.364491863787, 12486.936150424022, -10507.823289373313, -19104.81829700688, 33789.087389598775, -9072.863647087055, -5515.896441447311, -2247.1326288142955, 48453.10580171416, -0.014, 1.0, 0.154, 192.0, 0.0, 0.0, 0.0, 0.0, 0.0, 0.0, 0.0, 0.0, 0.0, 1.695414461693297E9, 0.0, 2023-09-22 15:27:41.693
182.0, -4120.097055446751, -12043.656354386372, 26055.070883640157, 44840.66156633635, -33232.84187708401, -6857.157570976922, 94457.93562626072, -13801.799869751916, 12482.912836422067, -10511.667789419627, -19112.328483143865, 33785.28759304137, -9072.506019175771, -5522.110226405886, -2244.3610125018376, 48451.652938324565, -0.014, 1.0, 0.154, 192.0, 0.0, 0.0, 0.0, 0.0, 0.0, 0.0, 0.0, 0.0, 0.0, 1.695414461693312E9, 0.0, 2023-09-22 15:27:41.693
184.0, -4113.279773387882, -12036.794368838593, 26008.735717384305, 44778.21079232822, -33226.22576072523, -6853.469533141796, 94393.31673304042, -13800.235247640045, 12481.124696865643, -10513.277115020408, -19111.63557906575, 33799.078619370295, -9066.806324339668, -5523.205461884197, -2252.8099719059437, 48464.795764064285, -0.014, 1.0, 0.154, 192.0, 0.0, 0.0, 0.0, 0.0, 0.0, 0.0, 0.0, 0.0, 0.0, 1.695414461693315E9, 0.0, 2023-09-22 15:27:41.693
186.0, -4116.453721100535, -12037.755493850173, 26074.82982573865, 44835.54301685608, -33226.67279561434, -6854.363602920009, 94460.39431815081, -13796.100174915813, 12491.51825803736, -10510.930181852602, -19107.72402378607, 33784.99702036346, -9056.345707934584, -5519.070389159964, -2245.947986358164, 48449.99890923488, -0.014, 1.0, 0.154, 192.0, 0.0, 0.0, 0.0, 0.0, 0.0, 0.0, 0.0, 0.0, 0.0, 1.695414461693318E9, 0.0, 2023-09-22 15:27:41.693
188.0, -4113.257421643427, -12032.14520599189, 26012.44610696389, 44773.69573994824, -33223.76706883515, -6854.341251175553, 94388.60051496036, -13798.335349361343, 12487.159667868575, -10516.763987155437, -19113.803698277916, 33810.79093346488, -9054.26699570024, -5525.530043307548, -2254.508704484547, 48474.27290371334, -0.022, 0.998, 0.162, 192.0, 127.5, 40.0, 15.5, 24.0, 2.5, 8.0, 0.0, 0.0, 0.0, 1.695414461693322E9, 0.0, 2023-09-22 15:27:41.693
190.0, -4122.57809908129, -12043.52224391964, 26086.519788088775, 44842.76263031514, -33233.378318950934, -6861.225588467788, 94471.547838634, -13804.616189553284, 12489.23838010292, -10519.267382534432, -19118.005826235512, 33769.797834133846, -9051.987117765799, -5527.51934856407, -2252.0276608500076, 48439.35947887415, -0.022, 0.998, 0.162, 192.0, 0.0, 0.0, 0.0, 0.0, 0.0, 0.0, 0.0, 0.0, 0.0, 1.695414461693325E9, 0.0, 2023-09-22 15:27:41.693
192.0, -4132.748142808455, -12049.557214922574, 26029.589894961107, 44797.12036813741, -33226.941016547804, -6858.811600066615, 94418.8871286973, -13807.611323310295, 12479.537723009316, -10534.667734464138, -19124.59959084983, 33825.27486387192, -9054.199940466875, -5531.699124777213, -2262.309463299449, 48490.7461393769, -0.022, 0.998, 0.162, 192.0, 0.0, 0.0, 0.0, 0.0, 0.0, 0.0, 0.0, 0.0, 0.0, 1.695414461693329E9, 0.0, 2023-09-22 15:27:41.693
194.0, -4131.1164654632175, -12046.606784654474, 26092.040668969235, 44832.97256624372, -33227.7456793482, -6851.279062185176, 94466.80926880948, -13797.575390049862, 12481.482324776927, -10531.762007684947, -19122.833803037858, 33770.289572511865, -9049.17079796443, -5524.121883406864, -2256.8779893968094, 48442.086391697696, -0.022, 0.998, 0.162, 192.0, 0.0, 0.0, 0.0, 0.0, 0.0, 0.0, 0.0, 0.0, 0.0, 1.695414461693332E9, 0.0, 2023-09-22 15:27:41.693
196.0, -4124.276831659893, -12040.884738073915, 26052.835709194627, 44796.49451929266, -33224.839952569004, -6851.59198660755, 94419.55768103096, -13798.424756339164, 12478.867170675656, -10533.70660945256, -19123.2137826936, 33816.82590446781, -9051.227158454318, -5521.1043979053975, -2258.5543702309574, 48487.63924689761, -0.022, 0.998, 0.162, 192.0, 0.0, 0.0, 0.0, 0.0, 0.0, 0.0, 0.0, 0.0, 0.0, 1.695414461752856E9, 0.0, 2023-09-22 15:27:41.752
198.0, -4124.9026805046415, -12039.700095617784, 26109.340919177645, 44832.07849646551, -33229.66792937135, -6854.296547686643, 94461.48955362912, -13793.149744647711, 12486.980853912934, -10526.129368082211, -19117.692901813138, 33740.27117970838, -9047.181492707909, -5511.269630345062, -2249.770134660022, 48429.25649038035, -0.02, 1.008, 0.16, 192.0, 127.5, 48.0, 15.5, 64.0, 2.5, 0.0, 0.0, 0.0, 0.0, 1.695414461752869E9, 0.0, 2023-09-22 15:27:41.752
200.0, -4126.914337505619, -12037.263755472155, 26076.997944950814, 44826.95994698524, -33232.84187708401, -6864.198370480343, 94446.7374022886, -13809.488869844541, 12480.789420698813, -10538.333420554807, -19126.54419261744, 33814.45661955555, -9056.345707934584, -5520.813825227478, -2253.6146347063345, 48503.799558138795, -0.02, 1.008, 0.16, 192.0, 0.0, 0.0, 0.0, 0.0, 0.0, 0.0, 0.0, 0.0, 0.0, 1.695414461752872E9, 0.0, 2023-09-22 15:27:41.752
202.0, -4127.026096227896, -12042.583470652518, 26114.951207035927, 44841.10860122545, -33230.40553693838, -6865.137143747466, 94468.95503627718, -13804.616189553284, 12479.425964287038, -10543.876653179725, -19127.237096695557, 33741.58993263125, -9056.680984101413, -5521.1043979053975, -2255.380422518304, 48451.13884820209, -0.02, 1.008, 0.16, 192.0, 0.0, 0.0, 0.0, 0.0, 0.0, 0.0, 0.0, 0.0, 0.0, 1.695414461752875E9, 0.0, 2023-09-22 15:27:41.752
204.0, -4121.0805322027845, -12039.543633406596, 26096.466314371388, 44847.99293851769, -33228.37152819294, -6868.065222271111, 94467.7480420766, -13806.247866898522, 12480.320034065251, -10541.730885712015, -19124.756053061017, 33814.50132304446, -9056.658632356957, -5519.271554860063, -2248.9431201151756, 48521.74800893641, -0.02, 1.008, 0.16, 192.0, 0.0, 0.0, 0.0, 0.0, 0.0, 0.0, 0.0, 0.0, 0.0, 1.695414461752879E9, 0.0, 2023-09-22 15:27:41.752
206.0, -4118.375971123693, -12037.844900827993, 26099.59555859513, 44817.19223465827, -33227.633920625914, -6866.254730970232, 94437.79670450649, -13801.196372651622, 12485.215066100964, -10539.9874496445, -19120.0621867254, 33737.03017676237, -9055.138713733997, -5517.461063559183, -2253.9499108731643, 48456.771487804835, -0.02, 1.008, 0.16, 192.0, 0.0, 0.0, 0.0, 0.0, 0.0, 0.0, 0.0, 0.0, 0.0, 1.695414461752882E9, 0.0, 2023-09-22 15:27:41.752
208.0, -4126.6014130832455, -12042.985802052714, 26092.890035258537, 44840.01336574714, -33230.80786833857, -6874.211951996321, 94454.06877446995, -13810.047663455924, 12480.90117942109, -10547.27411833693, -19127.706483329115, 33796.19524433556, -9061.665423114948, -5518.399836826306, -2254.6875184401893, 48511.98029660944, -0.014, 1.0, 0.162, 192.0, 127.5, 72.0, 15.5, 32.0, 2.5, 8.0, 0.0, 0.0, 0.0, 1.695414461752885E9, 0.0, 2023-09-22 15:27:41.752
210.0, -4131.2952794188595, -12045.310383476066, 26080.574224063665, 44805.614031030425, -33228.66210087086, -6874.189600251866, 94419.3341635864, -13801.06226218489, 12476.587292741215, -10554.404324818173, -19132.02037000899, 33716.5559788413, -9061.017222525743, -5523.741903751124, -2262.2871115549938, 48456.324452915724, -0.014, 1.0, 0.162, 192.0, 0.0, 0.0, 0.0, 0.0, 0.0, 0.0, 0.0, 0.0, 0.0, 1.695414461812477E9, 0.0, 2023-09-22 15:27:41.812
212.0, -4131.541148607868, -12046.38326720992, 26090.78897127974, 44845.19897046077, -33231.16549624986, -6876.670643886405, 94460.57313210645, -13806.270218642978, 12482.666967233059, -10557.354755086275, -19136.334256688864, 33779.96787786101, -9067.096897017587, -5522.780778739546, -2257.4814864971027, 48516.2047763115, -0.014, 1.0, 0.162, 192.0, 0.0, 0.0, 0.0, 0.0, 0.0, 0.0, 0.0, 0.0, 0.0, 1.6954144618125E9, 0.0, 2023-09-22 15:27:41.812
214.0, -4133.664564331122, -12051.255947501177, 26073.511072815785, 44797.90267919334, -33232.66306312836, -6886.438356213374, 94415.9366984292, -13813.802756524416, 12470.37350778264, -10560.372240587742, -19135.619000866296, 33720.020499231876, -9069.644995885492, -5524.121883406864, -2268.769117447033, 48482.49834567289, -0.014, 1.0, 0.162, 192.0, 0.0, 0.0, 0.0, 0.0, 0.0, 0.0, 0.0, 0.0, 0.0, 1.695414461812514E9, 0.0, 2023-09-22 15:27:41.812
216.0, -4131.228224185494, -12050.250119000688, 26083.16702642048, 44821.461417849234, -33228.93032180433, -6888.628827169994, 94435.13684691631, -13814.048625713423, 12464.405592013072, -10559.634633020716, -19138.99411427905, 33753.19048800355, -9072.975405809333, -5527.765217753079, -2266.7127569571444, 48516.07066584476, -0.014, 1.0, 0.162, 192.0, 0.0, 0.0, 0.0, 0.0, 0.0, 0.0, 0.0, 0.0, 0.0, 1.695414461812518E9, 0.0, 2023-09-22 15:27:41.812
218.0, -4129.708305562533, -12047.389095710409, 26064.659782011484, 44771.30410329153, -33227.1421822479, -6890.4840219597845, 94381.53736371249, -13804.996169209024, 12471.044060116299, -10553.398496317684, -19132.82503280938, 33697.75816175439, -9069.868513330044, -5517.930450192744, -2268.0315098800074, 48467.34386293219, -0.008, 0.996, 0.164, 192.0, 127.5, 96.0, 15.5, 16.0, 2.5, 16.0, 0.0, 0.0, 0.0, 1.695414461812522E9, 0.0, 2023-09-22 15:27:41.812
220.0, -4133.709267820032, -12052.261776001666, 26113.654805857517, 44846.27185419462, -33231.567827650055, -6900.005865097745, 94462.98712050762, -13808.818317510882, 12470.306452549274, -10566.429563335128, -19134.07673049888, 33753.369301959196, -9073.310681976162, -5525.61945028537, -2254.7769254180107, 48523.84907291521, -0.008, 0.996, 0.164, 192.0, 0.0, 0.0, 0.0, 0.0, 0.0, 0.0, 0.0, 0.0, 0.0, 1.695414461812525E9, 0.0, 2023-09-22 15:27:41.812
222.0, -4139.476017889502, -12057.514435948664, 26070.11360765858, 44786.39153079886, -33233.69124337331, -6905.884373889491, 94405.16315760174, -13808.97477972207, 12465.970214124944, -10571.324595370841, -19136.848346811337, 33718.43352537555, -9075.679966888425, -5528.614584042381, -2269.5961319918792, 48507.46524422947, -0.008, 0.996, 0.164, 192.0, 0.0, 0.0, 0.0, 0.0, 0.0, 0.0, 0.0, 0.0, 0.0, 1.695414461812534E9, 0.0, 2023-09-22 15:27:41.812
224.0, -4140.012459756429, -12056.642717914907, 26124.85302982963, 44853.87144730943, -33238.206295753276, -6910.84646115857, 94481.31555096096, -13811.947561734625, 12461.052830344777, -10576.554903573384, -19146.236079482565, 33754.53159267087, -9086.967597838355, -5532.727305022157, -2268.277379069016, 48546.960776682, -0.008, 0.996, 0.164, 192.0, 0.0, 0.0, 0.0, 0.0, 0.0, 0.0, 0.0, 0.0, 0.0, 1.695414461812539E9, 0.0, 2023-09-22 15:27:41.812
226.0, -4136.123256221206, -12054.38519172492, 26080.328354874655, 44796.181594870286, -33238.85449634248, -6913.46161525984, 94423.55864328846, -13813.713349546595, 12467.0430978588, -10574.945577972601, -19141.966896291604, 33738.84066806325, -9087.772260638745, -5531.699124777213, -2282.671902498234, 48536.455456788004, -0.008, 0.996, 0.164, 192.0, 0.0, 0.0, 0.0, 0.0, 0.0, 0.0, 0.0, 0.0, 0.0, 1.695414461872735E9, 0.0, 2023-09-22 15:27:41.872
228.0, -4131.339982907771, -12046.897357332393, 26137.101785791136, 44860.196990990284, -33238.00513005318, -6914.825071671614, 94493.34078947792, -13812.01461696799, 12462.796266412292, -10567.994185447, -19140.066998012902, 33756.92322932759, -9090.253304273285, -5527.720514264169, -2272.568914004435, 48554.96270119699, -0.014, 0.998, 0.168, 192.0, 127.5, 72.0, 15.5, 24.0, 2.5, 32.0, 0.0, 0.0, 0.0, 1.695414461872763E9, 0.0, 2023-09-22 15:27:41.872
230.0, -4128.970697995508, -12043.678706130828, 26061.284668598735, 44776.62381847189, -33235.837010841016, -6916.434397272396, 94402.52565175602, -13810.49469834503, 12465.746696680391, -10565.66960402365, -19136.669532855696, 33741.34406344224, -9087.615798427558, -5524.770083996068, -2281.084928641907, 48536.63427074364, -0.014, 0.998, 0.168, 192.0, 0.0, 0.0, 0.0, 0.0, 0.0, 0.0, 0.0, 0.0, 0.0, 1.695414461872767E9, 0.0, 2023-09-22 15:27:41.872
232.0, -4133.1728259531055, -12046.740895121206, 26129.07750953168, 44848.75289782917, -33239.77091786515, -6920.4800630188065, 94480.73440560514, -13813.243962913033, 12468.160685081564, -10564.820237734348, -19138.100044500836, 33742.8639820652, -9090.27565601774, -5523.853662473401, -2272.9041901712644, 48531.493369518925, -0.014, 0.998, 0.168, 192.0, 0.0, 0.0, 0.0, 0.0, 0.0, 0.0, 0.0, 0.0, 0.0, 1.69541446187277E9, 0.0, 2023-09-22 15:27:41.872
234.0, -4132.904605019642, -12045.556252665074, 26076.12622691706, 44790.25838258963, -33233.378318950934, -6919.697751962871, 94412.42747454971, -13808.907724488703, 12470.708783949469, -10570.363470359263, -19137.94358228965, 33762.82408986379, -9086.609969927069, -5525.395932840816, -2279.2967890854825, 48541.57400626827, -0.014, 0.998, 0.168, 192.0, 0.0, 0.0, 0.0, 0.0, 0.0, 0.0, 0.0, 0.0, 0.0, 1.695414461872774E9, 0.0, 2023-09-22 15:27:41.872
236.0, -4144.594567369767, -12054.876930102937, 26137.83939335816, 44879.66536041086, -33239.52504867614, -6928.32552532262, 94512.38447575385, -13811.858154756805, 12465.791400169303, -10573.403307605186, -19145.811396337915, 33759.31486598431, -9090.208600784374, -5526.580575296948, -2267.45036452417, 48545.23969235894, -0.014, 0.998, 0.168, 192.0, 0.0, 0.0, 0.0, 0.0, 0.0, 0.0, 0.0, 0.0, 0.0, 1.695414461872777E9, 0.0, 2023-09-22 15:27:41.872
238.0, -4137.442009144069, -12051.233595756721, 26070.314773358677, 44813.95123171225, -33231.16549624986, -6927.945545666879, 94438.8919399848, -13815.859117014305, 12466.484304247417, -10574.0962116833, -19148.314791716908, 33802.163160105134, -9090.521525206748, -5529.441598587227, -2281.6213705088344, 48582.18712594356, -0.016, 1.006, 0.162, 192.0, 127.5, 64.0, 15.5, 56.0, 2.5, 8.0, 0.0, 0.0, 0.0, 1.69541446187278E9, 0.0, 2023-09-22 15:27:41.872
240.0, -4138.581948111289, -12051.658278901372, 26138.04055905826, 44860.912246812855, -33229.28794971561, -6920.591821741084, 94493.69841738921, -13799.765861006483, 12475.08972586271, -10564.261444122963, -19139.999942779534, 33750.083595524266, -9080.50794369077, -5518.221022870663, -2266.6457017237785, 48535.13670386514, -0.016, 1.006, 0.162, 192.0, 0.0, 0.0, 0.0, 0.0, 0.0, 0.0, 0.0, 0.0, 0.0, 1.695414461933036E9, 0.0, 2023-09-22 15:27:41.933
242.0, -4137.173788210605, -12048.216110255255, 26080.77538976376, 44817.572214314016, -33226.4939816587, -6919.496586262773, 94442.60232956438, -13803.49860233052, 12470.105286849177, -10570.56463605936, -19141.78808233596, 33808.06402064133, -9082.631359414025, -5517.9975054261095, -2266.802163934966, 48586.232791689974, -0.016, 1.006, 0.162, 192.0, 0.0, 0.0, 0.0, 0.0, 0.0, 0.0, 0.0, 0.0, 0.0, 1.695414461933053E9, 0.0, 2023-09-22 15:27:41.933
244.0, -4133.083418975284, -12043.745761364195, 26124.964788551904, 44843.65670009336, -33229.55617064908, -6914.534498993695, 94473.6936061017, -13792.21097138059, 12479.761240453869, -10560.998089432489, -19134.07673049888, 33739.44416516354, -9075.992891310798, -5508.967400666166, -2261.549503987969, 48521.904471147594, -0.016, 1.006, 0.162, 192.0, 0.0, 0.0, 0.0, 0.0, 0.0, 0.0, 0.0, 0.0, 0.0, 1.695414461933057E9, 0.0, 2023-09-22 15:27:41.933
246.0, -4127.875462517198, -12039.52128166214, 26081.960032219893, 44816.38757185788, -33229.2432462267, -6920.9494496523685, 94438.31079462895, -13803.878581986259, 12477.973100897445, -10562.585063288816, -19134.21084096561, 33806.477046785, -9081.17849602443, -5515.13648213583, -2271.4289750372145, 48588.64678009114, -0.016, 1.006, 0.162, 192.0, 0.0, 0.0, 0.0, 0.0, 0.0, 0.0, 0.0, 0.0, 0.0, 1.69541446193306E9, 0.0, 2023-09-22 15:27:41.933
248.0, -4130.468264874014, -12041.62234564094, 26135.224239256888, 44852.798563575576, -33234.853534084985, -6928.6384497449935, 94487.68579813074, -13801.822221496372, 12484.008071900376, -10564.41790633415, -19132.936791531658, 33741.411118675605, -9082.117269291553, -5518.958630437688, -2275.83226869491, 48534.66731723158, -0.016, 1.004, 0.162, 192.0, 127.5, 64.0, 15.5, 48.0, 2.5, 8.0, 0.0, 0.0, 0.0, 1.695414461933063E9, 0.0, 2023-09-22 15:27:41.933
250.0, -4126.869634016709, -12038.537804906107, 26102.300119674223, 44853.0891362535, -33236.37345270794, -6937.042705660189, 94483.19309749521, -13812.72987279056, 12481.772897454846, -10563.926167956135, -19132.98149502057, 33830.192247652085, -9086.140583293509, -5522.266688617074, -2279.0062164075634, 48610.39502744616, -0.016, 1.004, 0.162, 192.0, 0.0, 0.0, 0.0, 0.0, 0.0, 0.0, 0.0, 0.0, 0.0, 1.695414461933066E9, 0.0, 2023-09-22 15:27:41.933
252.0, -4129.194215440061, -12040.124778762434, 26114.37006168009, 44852.82091532003, -33237.82631609754, -6932.32648758012, 94495.15128077881, -13803.252733141511, 12485.975025412445, -10566.206045890576, -19134.054378754423, 33758.30903748382, -9084.397147225995, -5524.166586895774, -2282.7166059871442, 48547.34075633773, -0.016, 1.004, 0.162, 192.0, 0.0, 0.0, 0.0, 0.0, 0.0, 0.0, 0.0, 0.0, 0.0, 1.69541446193307E9, 0.0, 2023-09-22 15:27:41.933
254.0, -4121.86284325872, -12032.659296114361, 26082.29530838672, 44843.25436869316, -33232.886580572915, -6929.219595100832, 94478.99096953761, -13806.761957020994, 12480.074164876243, -10561.936862699613, -19136.043684010947, 33830.28165462991, -9084.575961181637, -5519.919755449267, -2280.526135030524, 48610.50678616844, -0.016, 1.004, 0.162, 192.0, 0.0, 0.0, 0.0, 0.0, 0.0, 0.0, 0.0, 0.0, 0.0, 1.695414461933073E9, 0.0, 2023-09-22 15:27:41.933
0.0, -4128.546014850857, -12037.420217683342, 26091.884206758048, 44822.9813364722, -33232.03721428361, -6927.856138689058, 94463.90354203028, -13795.764898748983, 12486.578522512738, -10558.718211498048, -19130.679265341674, 33740.919380297586, -9075.925836077433, -5514.577688524448, -2280.772004219533, 48522.84324441472, -0.016, 1.004, 0.162, 192.0, 0.0, 0.0, 0.0, 0.0, 0.0, 0.0, 0.0, 0.0, 0.0, 1.695414461992565E9, 0.0, 2023-09-22 15:27:41.992
2.0, -4134.670392831611, -12040.415351440353, 26081.31183163069, 44842.29324368158, -33231.143144505404, -6935.3886765704965, 94477.8510305704, -13803.677416286162, 12481.012938143365, -10565.736659257014, -19141.497509658042, 33810.65682299815, -9080.88792334651, -5521.1043979053975, -2278.805050707466, 48587.506841123926, -0.012, 1.006, 0.164, 192.0, 127.5, 80.0, 15.5, 56.0, 2.5, 16.0, 0.0, 0.0, 0.0, 1.695414461992576E9, 0.0, 2023-09-22 15:27:41.992
4.0, -4136.682049832589, -12042.672877630339, 26077.802607751204, 44812.09603692246, -33234.60766489597, -6936.170987626432, 94449.08433545641, -13798.44710808362, 12482.46580153296, -10561.780400488426, -19139.888184057258, 33731.37518541517, -9078.65274890098, -5520.344438593917, -2286.985789178108, 48526.93361365004, -0.012, 1.006, 0.164, 192.0, 0.0, 0.0, 0.0, 0.0, 0.0, 0.0, 0.0, 0.0, 0.0, 1.695414461992585E9, 0.0, 2023-09-22 15:27:41.992
6.0, -4136.8161602993205, -12041.28706947411, 26099.014413239292, 44873.9433138303, -33235.45703118527, -6945.491665064295, 94510.99866759763, -13810.315884389387, 12475.715574707458, -10568.977662203033, -19145.87845157128, 33806.05236364035, -9086.31939724915, -5526.424113085761, -2285.8682019553426, 48599.75559708543, -0.012, 1.006, 0.164, 192.0, 0.0, 0.0, 0.0, 0.0, 0.0, 0.0, 0.0, 0.0, 0.0, 1.695414461992589E9, 0.0, 2023-09-22 15:27:41.992
8.0, -4135.363296909725, -12039.789502595604, 26080.06013394119, 44821.86374924943, -33228.95267354878, -6940.306060350664, 94459.23202743912, -13799.11766041728, 12482.309339321773, -10562.115676655254, -19137.049512511436, 33745.05445302182, -9076.484629688815, -5517.885746703833, -2295.144175904295, 48555.20857038601, -0.012, 1.006, 0.164, 192.0, 0.0, 0.0, 0.0, 0.0, 0.0, 0.0, 0.0, 0.0, 0.0, 1.695414461992592E9, 0.0, 2023-09-22 15:27:41.992
10.0, -4133.9998404979515, -12038.068418272545, 26111.352576178622, 44873.49627894119, -33227.87978981493, -6937.601499271572, 94512.54093796504, -13797.06129992739, 12484.298644578295, -10571.257540137476, -19139.999942779534, 33806.52175027392, -9079.9938535683, -5519.740941493624, -2281.1966873641836, 48611.66907688011, -0.012, 1.006, 0.164, 192.0, 0.0, 0.0, 0.0, 0.0, 0.0, 0.0, 0.0, 0.0, 0.0, 1.695414461992596E9, 0.0, 2023-09-22 15:27:41.992
12.0, -4139.766590567421, -12040.080075273523, 26090.74426779083, 44831.184426687294, -33226.181057236325, -6942.675345262926, 94475.45939391368, -13794.356738848299, 12479.783592198324, -10564.552016800882, -19133.02619850948, 33764.25460150893, -9073.60125465408, -5511.962534423177, -2290.249143868583, 48578.1638119416, -0.014, 1.004, 0.168, 192.0, 127.5, 72.0, 15.5, 48.0, 2.5, 32.0, 0.0, 0.0, 0.0, 1.695414461992599E9, 0.0, 2023-09-22 15:27:41.992
14.0, -4140.034811500885, -12041.734104363217, 26125.300064718733, 44879.37478773294, -33225.979891536226, -6948.4197435879405, 94528.20951082821, -13802.202201152111, 12479.694185220504, -10571.52576107094, -19139.77642533498, 33811.9308724321, -9079.189190767907, -5518.75746473759, -2287.566934533946, 48629.796341633366, -0.014, 1.004, 0.168, 192.0, 0.0, 0.0, 0.0, 0.0, 0.0, 0.0, 0.0, 0.0, 0.0, 1.695414462052879E9, 0.0, 2023-09-22 15:27:42.052
16.0, -4140.079514989796, -12037.599031638985, 26082.2059014089, 44811.425484588806, -33224.348214190984, -6952.264243634253, 94456.68392857122, -13801.151669162711, 12486.332653323729, -10566.541322057405, -19132.757977576017, 33762.08648229676, -9074.048289543187, -5513.527156535049, -2298.318123616949, 48582.43299513257, -0.014, 1.004, 0.168, 192.0, 0.0, 0.0, 0.0, 0.0, 0.0, 0.0, 0.0, 0.0, 0.0, 1.695414462052893E9, 0.0, 2023-09-22 15:27:42.052
18.0, -4139.967756267519, -12039.85655782897, 26147.540050451764, 44879.12891854393, -33226.22576072523, -6951.459580833863, 94530.33292655146, -13799.54234356193, 12484.85743818968, -10565.781362745925, -19134.613172365807, 33793.35657278974, -9076.618740155547, -5518.019857170565, -2291.143213646795, 48612.518443169414, -0.014, 1.004, 0.168, 192.0, 0.0, 0.0, 0.0, 0.0, 0.0, 0.0, 0.0, 0.0, 0.0, 1.695414462052896E9, 0.0, 2023-09-22 15:27:42.052
20.0, -4136.369125410214, -12038.873081072938, 26105.339956920143, 44809.235013632184, -33222.58242637902, -6953.895920979491, 94456.95214950468, -13800.324654617865, 12488.61253125817, -10571.302243626385, -19130.29928568593, 33783.81237790732, -9074.249455243285, -5515.9411449362215, -2300.4862428291135, 48610.059751279325, -0.014, 1.004, 0.168, 192.0, 0.0, 0.0, 0.0, 0.0, 0.0, 0.0, 0.0, 0.0, 0.0, 1.6954144620529E9, 0.0, 2023-09-22 15:27:42.052
22.0, -4138.447837644558, -12038.515453161652, 26159.475881990897, 44874.16683127485, -33224.48232465772, -6959.081525693122, 94532.14341785233, -13797.977721450057, 12484.477458533938, -10569.089420925311, -19131.103948486325, 33785.06407559682, -9075.814077355157, -5518.980982182144, -2292.7525392475773, 48612.09376002476, -0.012, 0.998, 0.162, 192.0, 127.5, 80.0, 15.5, 24.0, 2.5, 8.0, 0.0, 0.0, 0.0, 1.695414462052903E9, 0.0, 2023-09-22 15:27:42.052
24.0, -4134.96096550953, -12032.659296114361, 26091.50422710231, 44806.575156042, -33222.06833625655, -6962.031955961223, 94457.48859137161, -13800.21289589559, 12486.75733646838, -10571.883388982224, -19127.527669373474, 33784.10295058524, -9073.645958142992, -5517.349304836906, -2301.2014986516833, 48608.606887889735, -0.012, 0.998, 0.162, 192.0, 0.0, 0.0, 0.0, 0.0, 0.0, 0.0, 0.0, 0.0, 0.0, 1.695414462052906E9, 0.0, 2023-09-22 15:27:42.052
26.0, -4136.235014943482, -12032.301668203077, 26156.994838356357, 44874.43505220831, -33225.17522873583, -6964.870627507046, 94535.51853126509, -13798.536515061442, 12489.819525458757, -10566.988356946511, -19126.052454239423, 33769.75313064494, -9073.265978487252, -5517.259897859085, -2296.9770189496303, 48597.65453310663, -0.012, 0.998, 0.162, 192.0, 0.0, 0.0, 0.0, 0.0, 0.0, 0.0, 0.0, 0.0, 0.0, 1.69541446205291E9, 0.0, 2023-09-22 15:27:42.052
28.0, -4131.474093374502, -12027.89837454538, 26103.730631319362, 44816.722848024714, -33222.604778123474, -6964.848275762592, 94470.36319617787, -13801.598704051818, 12494.356929583184, -10567.860074980268, -19125.22543969458, 33800.44207578207, -9075.836429099612, -5516.94697343671, -2304.867184742354, 48625.57186193131, -0.012, 0.998, 0.162, 192.0, 0.0, 0.0, 0.0, 0.0, 0.0, 0.0, 0.0, 0.0, 0.0, 1.695414462052913E9, 0.0, 2023-09-22 15:27:42.052
30.0, -4139.945404523063, -12035.229746726722, 26175.882062421093, 44890.72947391623, -33228.99737703769, -6973.945435755902, 94560.23956063266, -13804.01269245299, 12491.786478970824, -10572.106906426778, -19129.36051241881, 33774.335238258274, -9078.071603545142, -5524.680677018247, -2300.7097602736667, 48614.28423098138, -0.012, 0.998, 0.162, 192.0, 0.0, 0.0, 0.0, 0.0, 0.0, 0.0, 0.0, 0.0, 0.0, 1.695414462113148E9, 0.0, 2023-09-22 15:27:42.113
32.0, -4125.81910202731, -12022.466900642741, 26111.956073278914, 44827.94342374127, -33217.91091178786, -6964.37888912903, 94489.809213854, -13797.508334816497, 12491.741775481913, -10569.089420925311, -19128.354683918322, 33818.77050623542, -9078.22806575633, -5518.221022870663, -2305.984771965119, 48665.26856008394, -0.018000000000000002, 0.996, 0.162, 192.0, 127.5, 56.0, 15.5, 16.0, 2.5, 8.0, 0.0, 0.0, 0.0, 1.695414462113161E9, 0.0, 2023-09-22 15:27:42.113
34.0, -4122.645154314656, -12020.589354108495, 26171.143492596566, 44874.055072552575, -33220.302548444575, -6961.629624561027, 94546.09090639245, -13791.562770791385, 12501.151859897598, -10564.753182500981, -19119.190468691646, 33770.423682978595, -9073.020109298242, -5511.291982089518, -2288.1033764008735, 48617.122902527204, -0.018000000000000002, 0.996, 0.162, 192.0, 0.0, 0.0, 0.0, 0.0, 0.0, 0.0, 0.0, 0.0, 0.0, 1.695414462113164E9, 0.0, 2023-09-22 15:27:42.113
36.0, -4119.359447879726, -12015.649618583873, 26120.203866982924, 44830.40211563136, -33218.46970539924, -6962.90367399498, 94491.99968481061, -13797.329520860854, 12503.610551787682, -10556.393630074695, -19114.92128550068, 33822.95028244857, -9069.734402863312, -5505.659342486781, -2293.2889811145046, 48655.947882646076, -0.018000000000000002, 0.996, 0.162, 192.0, 0.0, 0.0, 0.0, 0.0, 0.0, 0.0, 0.0, 0.0, 0.0, 1.695414462113168E9, 0.0, 2023-09-22 15:27:42.113
38.0, -4129.797712540354, -12028.568926879041, 26162.292201792265, 44856.8889328109, -33223.85647581297, -6970.391508387507, 94527.82953117247, -13799.140012161733, 12496.32388309525, -10564.104981911776, -19119.615151836297, 33764.52282244239, -9073.60125465408, -5508.676827988247, -2298.675751528234, 48611.02087629091, -0.018000000000000002, 0.996, 0.162, 192.0, 0.0, 0.0, 0.0, 0.0, 0.0, 0.0, 0.0, 0.0, 0.0, 1.695414462113171E9, 0.0, 2023-09-22 15:27:42.113
40.0, -4129.708305562533, -12022.176327964822, 26098.54502660573, 44803.580022284994, -33221.86717055645, -6974.3030636671865, 94468.21742871017, -13804.616189553284, 12489.774821969846, -10571.056374437378, -19125.381901905766, 33807.125247374206, -9077.043423300198, -5516.2317176141405, -2309.6951615447, 48643.22974005101, -0.018000000000000002, 0.996, 0.162, 192.0, 0.0, 0.0, 0.0, 0.0, 0.0, 0.0, 0.0, 0.0, 0.0, 1.695414462113174E9, 0.0, 2023-09-22 15:27:42.113
42.0, -4137.240843443971, -12031.944040291792, 26142.93559109397, 44838.02406049062, -33227.343347948, -6979.689834080915, 94515.29020253304, -13801.174020907167, 12494.982778427933, -10571.771630259947, -19124.93486701666, 33733.43154590506, -9077.155182022474, -5515.181185624741, -2307.795263265999, 48576.91211425211, -0.014, 0.998, 0.164, 192.0, 127.5, 72.0, 15.5, 24.0, 2.5, 16.0, 0.0, 0.0, 0.0, 1.695414462113178E9, 0.0, 2023-09-22 15:27:42.113
44.0, -4127.137854950172, -12021.61753435344, 26113.274826201778, 44836.90647326785, -33223.5435513906, -6979.309854425175, 94511.04337108653, -13805.979645965059, 12488.679586491537, -10577.739546029514, -19130.1651752192, 33826.638320283695, -9084.039519314709, -5522.5125578060815, -2314.79135928051, 48669.5377432749, -0.014, 0.998, 0.164, 192.0, 0.0, 0.0, 0.0, 0.0, 0.0, 0.0, 0.0, 0.0, 0.0, 1.695414462173369E9, 0.0, 2023-09-22 15:27:42.173
46.0, -4137.777285310899, -12037.017886283147, 26153.910297621525, 44860.59932239048, -33220.81663856705, -6977.074679979644, 94546.02385115909, -13795.384919093243, 12491.09357489271, -10572.95627271608, -19125.65012283923, 33764.746339886944, -9079.65857740147, -5518.310429848484, -2310.365713878359, 48620.140388028674, -0.014, 0.998, 0.164, 192.0, 0.0, 0.0, 0.0, 0.0, 0.0, 0.0, 0.0, 0.0, 0.0, 1.695414462173382E9, 0.0, 2023-09-22 15:27:42.173
48.0, -4136.972622510508, -12037.062589772057, 26137.54882068024, 44851.90449379737, -33215.85455129797, -6979.376909658541, 94534.98208939817, -13802.895105230225, 12484.85743818968, -10589.205990935086, -19132.15448047572, 33845.74906179298, -9081.893751847, -5524.703028762702, -2308.823443510943, 48701.21016516807, -0.014, 0.998, 0.164, 192.0, 0.0, 0.0, 0.0, 0.0, 0.0, 0.0, 0.0, 0.0, 0.0, 1.695414462173386E9, 0.0, 2023-09-22 15:27:42.173
50.0, -4135.564462609824, -12035.18504323781, 26154.312629021722, 44823.33896438348, -33216.72626933173, -6975.487706123317, 94513.2561937876, -13791.294549857921, 12492.434679560029, -10583.461592610072, -19124.420776894185, 33750.30711296882, -9073.713013376357, -5516.321124591962, -2309.9410307337084, 48609.45625417904, -0.014, 0.998, 0.164, 192.0, 0.0, 0.0, 0.0, 0.0, 0.0, 0.0, 0.0, 0.0, 0.0, 1.695414462173389E9, 0.0, 2023-09-22 15:27:42.173
52.0, -4126.377895638692, -12023.830357054516, 26141.84035561566, 44834.336022655494, -33209.0372692391, -6972.917255510957, 94518.9111851348, -13793.909703959192, 12493.239342360419, -10581.941673987112, -19125.426605394674, 33825.163105149644, -9077.199885511385, -5516.544642036515, -2301.022684696041, 48674.92451368863, -0.018000000000000002, 0.996, 0.168, 192.0, 127.5, 56.0, 15.5, 16.0, 2.5, 32.0, 0.0, 0.0, 0.0, 1.695414462173392E9, 0.0, 2023-09-22 15:27:42.173
54.0, -4132.591680597267, -12028.680685601317, 26144.053178316735, 44787.48676627717, -33215.18399896431, -6980.494496881306, 94477.87338231485, -13790.82516322436, 12500.23543837493, -10568.552979058382, -19115.569486089884, 33729.743508069936, -9067.275710973228, -5504.720569219658, -2300.7768155070326, 48580.220172431495, -0.018000000000000002, 0.996, 0.168, 192.0, 0.0, 0.0, 0.0, 0.0, 0.0, 0.0, 0.0, 0.0, 0.0, 1.695414462173395E9, 0.0, 2023-09-22 15:27:42.173
56.0, -4131.183520696583, -12031.47465365823, 26170.04825711826, 44839.56633085803, -33216.30158618708, -6984.38370041653, 94532.54574925253, -13797.262465627487, 12491.115926637165, -10577.158400673676, -19126.79006180645, 33809.136904375184, -9077.915141333955, -5516.857566458889, -2302.900231230287, 48661.55817050436, -0.018000000000000002, 0.996, 0.168, 192.0, 0.0, 0.0, 0.0, 0.0, 0.0, 0.0, 0.0, 0.0, 0.0, 1.695414462173399E9, 0.0, 2023-09-22 15:27:42.173
58.0, -4122.756913036932, -12022.71276983175, 26150.93751560897, 44795.466339047714, -33212.680603585315, -6977.029976490734, 94488.71397837567, -13790.176962635156, 12497.32971159574, -10573.917397727657, -19121.045663481436, 33761.01359856291, -9073.824772098635, -5512.096644889909, -2310.9245074897417, 48618.86633859472, -0.018000000000000002, 0.996, 0.168, 192.0, 0.0, 0.0, 0.0, 0.0, 0.0, 0.0, 0.0, 0.0, 0.0, 1.695414462173402E9, 0.0, 2023-09-22 15:27:42.173
60.0, -4121.393456625158, -12024.14328147689, 26173.89275716457, 44829.239824919685, -33213.57467336353, -6978.214618946865, 94515.1113885774, -13794.937884204137, 12503.878772721146, -10568.150647658187, -19115.59183783434, 33803.23604383899, -9069.577940652125, -5504.832327941934, -2304.2860393865158, 48652.46101051105, -0.018000000000000002, 0.996, 0.168, 192.0, 0.0, 0.0, 0.0, 0.0, 0.0, 0.0, 0.0, 0.0, 0.0, 1.695414462232842E9, 0.0, 2023-09-22 15:27:42.232
62.0, -4136.235014943482, -12033.419255425842, 26142.08622480467, 44786.927972665784, -33225.35404269148, -6992.81030807618, 94465.37875716433, -13806.717253532082, 12496.547400539805, -10572.062202937866, -19121.157422203712, 33752.743453114446, -9074.808248854668, -5512.767197223568, -2321.0945512169064, 48605.23177447698, -0.014, 0.998, 0.17200000000000001, 192.0, 127.5, 72.0, 15.5, 24.0, 2.5, 48.0, 0.0, 0.0, 0.0, 1.695414462232855E9, 0.0, 2023-09-22 15:27:42.232
64.0, -4129.954174751541, -12027.04900825608, 26188.93548118299, 44857.17950548881, -33224.43762116881, -6996.252476722298, 94545.33094708098, -13813.35572163531, 12487.494944035405, -10581.293473397907, -19132.64621885374, 33812.73553523249, -9085.648844915491, -5520.523252549559, -2323.441484384714, 48670.94590317558, -0.014, 0.998, 0.17200000000000001, 192.0, 0.0, 0.0, 0.0, 0.0, 0.0, 0.0, 0.0, 0.0, 0.0, 1.695414462232858E9, 0.0, 2023-09-22 15:27:42.232
66.0, -4123.449817115047, -12018.555345363064, 26135.201887512434, 44765.98438811117, -33219.47553389973, -6989.882229552535, 94450.17957093472, -13802.939808719137, 12499.676644763547, -10565.37903134573, -19117.15645994621, 33768.68024691108, -9071.902522075477, -5503.80414769699, -2323.6873535737222, 48630.71276315603, -0.014, 0.998, 0.17200000000000001, 192.0, 0.0, 0.0, 0.0, 0.0, 0.0, 0.0, 0.0, 0.0, 0.0, 1.695414462232862E9, 0.0, 2023-09-22 15:27:42.232
68.0, -4135.497407376457, -12033.441607170298, 26182.60993750214, 44842.673223337326, -33229.042080526604, -7003.71795937037, 94540.10063887843, -13814.540364091441, 12494.267522605363, -10571.145781415198, -19127.997056007036, 33795.25647106844, -9081.111440791065, -5517.461063559183, -2318.524100604546, 48655.076164612314, -0.014, 0.998, 0.17200000000000001, 192.0, 0.0, 0.0, 0.0, 0.0, 0.0, 0.0, 0.0, 0.0, 0.0, 1.695414462232865E9, 0.0, 2023-09-22 15:27:42.232
70.0, -4124.030962470885, -12020.231726197211, 26098.50032311682, 44753.065079816, -33218.425001910335, -6995.090186010621, 94449.33020464542, -13807.052529698913, 12496.256827861886, -10570.832856992825, -19127.2147449511, 33792.373096033705, -9078.429231456426, -5516.857566458889, -2332.9633275226747, 48647.901254642165, -0.014, 0.998, 0.17200000000000001, 192.0, 0.0, 0.0, 0.0, 0.0, 0.0, 0.0, 0.0, 0.0, 0.0, 1.695414462232868E9, 0.0, 2023-09-22 15:27:42.232
72.0, -4129.1271602066945, -12025.059702999557, 26161.1746145695, 44819.829740504, -33225.4434496693, -6996.833622078136, 94520.72167643567, -13803.252733141511, 12499.967217441466, -10560.461647565562, -19124.085500727357, 33785.98049711949, -9073.847123843088, -5508.050979143498, -2319.015838982563, 48629.1257892997, -0.012, 1.006, 0.17, 192.0, 127.5, 80.0, 15.5, 56.0, 2.5, 40.0, 0.0, 0.0, 0.0, 1.695414462232871E9, 0.0, 2023-09-22 15:27:42.232
74.0, -4127.651945072645, -12016.52133661763, 26096.376907393565, 44748.639434413846, -33223.320033946045, -6997.280656967242, 94437.19320740619, -13804.929113975659, 12494.42398481655, -10563.322670855841, -19128.757015318515, 33811.17091312062, -9076.194057010896, -5510.777891967045, -2332.538644378024, 48653.39978377817, -0.012, 1.006, 0.17, 192.0, 0.0, 0.0, 0.0, 0.0, 0.0, 0.0, 0.0, 0.0, 0.0, 1.695414462292594E9, 0.0, 2023-09-22 15:27:42.292
76.0, -4138.649003344655, -12029.842976312993, 26176.731428710395, 44839.991014002684, -33227.991548537204, -7001.281619224742, 94539.47479003368, -13800.168192406678, 12491.8982376931, -10563.18856038911, -19136.0660357554, 33789.86970065471, -9077.356347722573, -5512.610735012381, -2325.140216963317, 48639.25112953796, -0.012, 1.006, 0.17, 192.0, 0.0, 0.0, 0.0, 0.0, 0.0, 0.0, 0.0, 0.0, 0.0, 1.695414462292609E9, 0.0, 2023-09-22 15:27:42.292
78.0, -4133.86573003122, -12027.361932678454, 26100.489628373343, 44768.75600442362, -33221.30837694507, -7000.968694802367, 94465.87049554236, -13805.44320409813, 12492.814659215768, -10565.535493556918, -19135.395483421744, 33826.72772726151, -9073.198923253885, -5510.308505333484, -2332.918624033764, 48682.36764459225, -0.012, 1.006, 0.17, 192.0, 0.0, 0.0, 0.0, 0.0, 0.0, 0.0, 0.0, 0.0, 0.0, 1.695414462292612E9, 0.0, 2023-09-22 15:27:42.292
80.0, -4139.855997545243, -12033.039275770101, 26145.349579495145, 44805.54697579706, -33227.499810159185, -7002.4215581919625, 94515.91605137779, -13802.1574976632, 12492.85936270468, -10561.892159210702, -19138.658838112216, 33768.52378469989, -9068.88503657401, -5515.13648213583, -2330.1693594657613, 48630.556300944845, -0.012, 1.006, 0.17, 192.0, 0.0, 0.0, 0.0, 0.0, 0.0, 0.0, 0.0, 0.0, 0.0, 1.695414462292616E9, 0.0, 2023-09-22 15:27:42.292
82.0, -4139.945404523063, -12032.94986879228, 26098.656785328007, 44767.54901022303, -33229.91379856036, -7003.449738436907, 94470.36319617787, -13809.377111122265, 12488.992510913911, -10568.128295913732, -19143.844442825848, 33806.11941887372, -9070.024975541231, -5519.651534515802, -2342.753391594099, 48661.08878387079, -0.022, 1.004, 0.164, 192.0, 127.5, 40.0, 15.5, 48.0, 2.5, 16.0, 0.0, 0.0, 0.0, 1.69541446229262E9, 0.0, 2023-09-22 15:27:42.292
84.0, -4136.302070176848, -12026.154938477868, 26167.902489650547, 44808.63151653189, -33227.11983050345, -6996.565401144672, 94521.88396714735, -13799.050605183913, 12496.636807517625, -10556.70655449707, -19137.630657867274, 33759.20310726203, -9061.97834753732, -5514.778854224545, -2337.6571938582892, 48620.92269908461, -0.022, 1.004, 0.164, 192.0, 0.0, 0.0, 0.0, 0.0, 0.0, 0.0, 0.0, 0.0, 0.0, 1.695414462292625E9, 0.0, 2023-09-22 15:27:42.292
86.0, -4131.809369541332, -12016.141356961889, 26131.335035721666, 44775.72974869368, -33220.21314146675, -6992.430328420441, 94480.24266722711, -13799.54234356193, 12498.268484862863, -10559.27700510943, -19136.2672014555, 33824.1349249047, -9056.591577123592, -5515.181185624741, -2336.2266822131496, 48676.64559801169, -0.022, 1.004, 0.164, 192.0, 0.0, 0.0, 0.0, 0.0, 0.0, 0.0, 0.0, 0.0, 0.0, 1.695414462292628E9, 0.0, 2023-09-22 15:27:42.292
88.0, -4131.9434800080635, -12015.873136028426, 26177.379629299598, 44811.24667063316, -33219.58729262201, -6988.004683018289, 94528.3659730394, -13792.92622720316, 12496.837973217724, -10552.929109684124, -19132.199183964633, 33767.38384573267, -9047.583824108104, -5514.778854224545, -2333.432714156236, 48624.56603343082, -0.022, 1.004, 0.164, 192.0, 0.0, 0.0, 0.0, 0.0, 0.0, 0.0, 0.0, 0.0, 0.0, 1.695414462292631E9, 0.0, 2023-09-22 15:27:42.292
90.0, -4131.608203841234, -12021.32696167552, 26133.74902412284, 44790.90658317883, -33221.420135667344, -6992.027997020245, 94495.79948136801, -13800.816392995883, 12502.0012261869, -10552.079743394821, -19126.275971683976, 33819.79868648037, -9039.425437381917, -5510.822595455957, -2332.695106589211, 48663.10044087177, -0.022, 1.004, 0.164, 192.0, 0.0, 0.0, 0.0, 0.0, 0.0, 0.0, 0.0, 0.0, 0.0, 1.69541446235286E9, 0.0, 2023-09-22 15:27:42.352
92.0, -4132.926956764097, -12021.528127375619, 26162.0239808588, 44807.133949653384, -33222.9400542903, -6991.223334219853, 94517.27950778956, -13799.676454028662, 12498.447298818506, -10563.18856038911, -19129.27110544099, 33757.3702642167, -9040.78889379369, -5517.058732158987, -2336.6290136133453, 48613.88189958119, -0.02, 1.002, 0.17, 192.0, 127.5, 48.0, 15.5, 40.0, 2.5, 40.0, 0.0, 0.0, 0.0, 1.695414462352873E9, 0.0, 2023-09-22 15:27:42.352
94.0, -4128.300145661849, -12014.554383105564, 26129.636303143063, 44802.90946995133, -33218.76027807716, -6988.317607440664, 94502.95203959371, -13802.515125574486, 12503.677607021047, -10560.819275476846, -19124.510183872007, 33820.960977192044, -9037.570242592126, -5517.461063559183, -2333.946804278708, 48662.40753679366, -0.02, 1.002, 0.17, 192.0, 0.0, 0.0, 0.0, 0.0, 0.0, 0.0, 0.0, 0.0, 0.0, 1.695414462352876E9, 0.0, 2023-09-22 15:27:42.352
96.0, -4126.333192149781, -12009.324074903021, 26135.335997979164, 44783.798728442045, -33216.458048398265, -6980.338034670119, 94488.46810918667, -13789.260541112488, 12506.225705888952, -10552.392667817196, -19116.55296284592, 33738.460688407504, -9030.26122215524, -5507.581592509937, -2334.885577545831, 48579.8178410313, -0.02, 1.002, 0.17, 192.0, 0.0, 0.0, 0.0, 0.0, 0.0, 0.0, 0.0, 0.0, 0.0, 1.69541446235288E9, 0.0, 2023-09-22 15:27:42.352
98.0, -4121.236994413972, -12005.144298689878, 26131.491497932853, 44807.11159790893, -33214.58050186402, -6981.880305037535, 94507.3553332514, -13794.401442337208, 12513.601781559204, -10561.713345255059, -19115.614189578795, 33806.477046785, -9033.278707656707, -5512.9460111792105, -2326.749542564099, 48629.796341633366, -0.02, 1.002, 0.17, 192.0, 0.0, 0.0, 0.0, 0.0, 0.0, 0.0, 0.0, 0.0, 0.0, 1.695414462352883E9, 0.0, 2023-09-22 15:27:42.352
100.0, -4120.700552547044, -12005.345464389977, 26141.41567247101, 44774.43334751527, -33214.04405999709, -6982.662616093471, 94475.3923386803, -13791.942750447126, 12516.015769960377, -10552.750295728481, -19106.02529120747, 33727.15070571312, -9028.026047709709, -5507.000447154099, -2328.2918129315153, 48557.82372448727, -0.02, 1.002, 0.17, 192.0, 0.0, 0.0, 0.0, 0.0, 0.0, 0.0, 0.0, 0.0, 0.0, 1.695414462352888E9, 0.0, 2023-09-22 15:27:42.352
102.0, -4124.589756082268, -12007.893563257881, 26159.40882675753, 44825.90941499584, -33220.05667925557, -6995.134889499533, 94525.6167084714, -13804.839706997838, 12504.370511099161, -10559.589929531805, -19114.764823289494, 33799.79387519287, -9037.346725147572, -5517.036380414532, -2327.7106675756777, 48624.49897819746, -0.016, 0.998, 0.17, 192.0, 127.5, 64.0, 15.5, 24.0, 2.5, 40.0, 0.0, 0.0, 0.0, 1.695414462352891E9, 0.0, 2023-09-22 15:27:42.352
104.0, -4117.683067045577, -12002.193868421778, 26148.165899296513, 44792.98529541318, -33216.30158618708, -6993.078529009644, 94494.88305984534, -13796.994244694024, 12504.750490754903, -10564.082630167322, -19109.15453543121, 33742.796926831834, -9036.363248391539, -5516.254069358596, -2337.2548624580936, 48577.24739041894, -0.016, 0.998, 0.17, 192.0, 0.0, 0.0, 0.0, 0.0, 0.0, 0.0, 0.0, 0.0, 0.0, 1.695414462413207E9, 0.0, 2023-09-22 15:27:42.413
106.0, -4115.067912944307, -12003.713787044739, 26178.51956826682, 44847.59060711749, -33217.374469920935, -6999.828755835147, 94551.47767680619, -13806.046701198424, 12510.80781350229, -10566.004880190478, -19104.907703984703, 33801.939642660574, -9036.385600135995, -5518.533947293037, -2323.8661675293647, 48634.1772835466, -0.016, 0.998, 0.17, 192.0, 0.0, 0.0, 0.0, 0.0, 0.0, 0.0, 0.0, 0.0, 0.0, 1.695414462413222E9, 0.0, 2023-09-22 15:27:42.413
108.0, -4109.859956486221, -11995.242475896177, 26145.46133821742, 44789.029036644584, -33210.78070530661, -6993.1455842430105, 94487.7528533641, -13796.569561549373, 12511.23249664694, -10555.208987618566, -19098.984491704046, 33739.95825528601, -9034.396294879472, -5512.990714668121, -2332.4268856557474, 48584.57876260028, -0.016, 0.998, 0.17, 192.0, 0.0, 0.0, 0.0, 0.0, 0.0, 0.0, 0.0, 0.0, 0.0, 1.695414462413226E9, 0.0, 2023-09-22 15:27:42.413
110.0, -4108.0494651853405, -11995.913028229837, 26194.724582996918, 44869.83059285052, -33210.177208206325, -6995.2019447328985, 94566.65451129133, -13794.468497570575, 12522.207203174497, -10559.701688254081, -19098.224532392567, 33795.2788228129, -9038.129036203509, -5512.163700123275, -2317.6747343152447, 48637.03830683688, -0.016, 0.998, 0.17, 192.0, 0.0, 0.0, 0.0, 0.0, 0.0, 0.0, 0.0, 0.0, 0.0, 1.695414462413229E9, 0.0, 2023-09-22 15:27:42.413
112.0, -4103.690875016556, -11992.180286905801, 26137.99585556935, 44782.815251686014, -33202.10822845796, -6995.403110432996, 94473.55949563498, -13790.020500423969, 12522.34131364123, -10547.855263692769, -19092.144857900723, 33754.19631650404, -9032.161120433942, -5501.23369708463, -2326.8836530308313, 48597.98980927346, -0.016, 0.996, 0.17, 192.0, 127.5, 64.0, 15.5, 16.0, 2.5, 40.0, 0.0, 0.0, 0.0, 1.695414462413232E9, 0.0, 2023-09-22 15:27:42.413
114.0, -4113.637401299167, -12001.90329574386, 26189.181350372, 44854.85492406547, -33209.8419320395, -7008.791805361725, 94549.6671855053, -13799.274122628465, 12516.686322294036, -10556.125409141232, -19098.045718436922, 33765.99803757644, -9037.659649569947, -5511.448444300705, -2314.433731369225, 48598.593306373754, -0.016, 0.996, 0.17, 192.0, 0.0, 0.0, 0.0, 0.0, 0.0, 0.0, 0.0, 0.0, 0.0, 1.695414462413235E9, 0.0, 2023-09-22 15:27:42.413
116.0, -4111.782206509377, -12000.025749209613, 26116.627587870073, 44753.04272807154, -33202.2870424136, -7008.344770472619, 94438.2884428845, -13797.620093538773, 12512.99828445891, -10560.506351054473, -19097.82220099237, 33731.73281332646, -9036.989097236288, -5514.197708868708, -2328.4482751427026, 48569.42427985958, -0.016, 0.996, 0.17, 192.0, 0.0, 0.0, 0.0, 0.0, 0.0, 0.0, 0.0, 0.0, 0.0, 1.695414462413239E9, 0.0, 2023-09-22 15:27:42.413
118.0, -4118.443026357058, -12007.714749302238, 26184.867463692128, 44838.314633168535, -33211.47360938473, -7015.2738112537645, 94531.87519691887, -13801.956331963103, 12510.986627457933, -10565.110810412265, -19104.035985950948, 33736.98547327345, -9043.158178705953, -5516.209365869685, -2319.149949449295, 48574.87810550667, -0.016, 0.996, 0.17, 192.0, 0.0, 0.0, 0.0, 0.0, 0.0, 0.0, 0.0, 0.0, 0.0, 1.695414462413242E9, 0.0, 2023-09-22 15:27:42.413
120.0, -4117.258383900927, -12009.502888858664, 26117.20873322591, 44783.306990064026, -33214.17817046382, -7012.837471108136, 94470.20673396668, -13798.178887150156, 12511.433662347039, -10565.691955768103, -19101.59964580532, 33754.620999648694, -9045.236890940296, -5513.840080957423, -2329.1635309652725, 48586.54571611234, -0.016, 0.996, 0.17, 192.0, 0.0, 0.0, 0.0, 0.0, 0.0, 0.0, 0.0, 0.0, 0.0, 1.695414462473483E9, 0.0, 2023-09-22 15:27:42.473
122.0, -4113.927973977086, -12005.881906256904, 26167.03077161679, 44846.428316405814, -33212.747658818684, -7011.474014696362, 94543.67691799128, -13793.082689414347, 12507.499755322904, -10569.0447174364, -19105.131221429256, 33768.99317133345, -9049.684888086902, -5514.488281546626, -2327.084818730929, 48596.224021461494, -0.016, 1.004, 0.164, 192.0, 127.5, 64.0, 15.5, 48.0, 2.5, 16.0, 0.0, 0.0, 0.0, 1.695414462473494E9, 0.0, 2023-09-22 15:27:42.473
124.0, -4106.440139584558, -11997.097670685967, 26100.377869651067, 44769.113632334906, -33207.7408680607, -7011.943401329923, 94455.9016175153, -13794.401442337208, 12520.91080199609, -10564.596720289794, -19097.419869592177, 33774.603459191734, -9047.829693297112, -5512.208403612185, -2333.566824622968, 48591.887783037164, -0.016, 1.004, 0.164, 192.0, 0.0, 0.0, 0.0, 0.0, 0.0, 0.0, 0.0, 0.0, 0.0, 1.695414462473498E9, 0.0, 2023-09-22 15:27:42.473
126.0, -4110.038770441863, -12002.32797888851, 26169.13183559559, 44832.63729007689, -33208.67964132782, -7013.731540886348, 94525.72846719366, -13790.467535313075, 12520.374360129163, -10559.232301620521, -19092.904817212202, 33733.789173816345, -9046.26507118524, -5509.101511132898, -2322.3909523953143, 48565.15509666862, -0.016, 1.004, 0.164, 192.0, 0.0, 0.0, 0.0, 0.0, 0.0, 0.0, 0.0, 0.0, 0.0, 1.695414462473502E9, 0.0, 2023-09-22 15:27:42.473
128.0, -4109.882308230675, -12001.746833532672, 26104.49059063084, 44774.85803065992, -33208.970214005734, -7020.705285156404, 94462.42832689623, -13797.508334816497, 12516.887487994134, -10563.747354000492, -19094.223570135066, 33767.272087010395, -9048.142617719486, -5512.275458845551, -2333.2539002005938, 48598.95093428504, -0.016, 1.004, 0.164, 192.0, 0.0, 0.0, 0.0, 0.0, 0.0, 0.0, 0.0, 0.0, 0.0, 1.695414462473505E9, 0.0, 2023-09-22 15:27:42.473
130.0, -4112.318648376304, -12004.294932400577, 26153.59737319915, 44811.559595055536, -33211.96534776275, -7023.365142746586, 94513.12208332088, -13797.307169116399, 12514.607610059693, -10559.679336509626, -19097.106945169802, 33725.049641734324, -9049.729591575813, -5509.928525677744, -2330.7505048215994, 48560.95296871102, -0.016, 1.004, 0.164, 192.0, 0.0, 0.0, 0.0, 0.0, 0.0, 0.0, 0.0, 0.0, 0.0, 1.695414462473508E9, 0.0, 2023-09-22 15:27:42.473
132.0, -4110.95519196453, -12002.70795854425, 26098.455619627908, 44775.14860333784, -33212.16651346284, -7026.069703825678, 94466.22812345363, -13800.570523806873, 12514.786424015336, -10563.56854004485, -19099.520933570973, 33765.48394745397, -9052.702373588369, -5511.739016978624, -2339.087705503429, 48589.33968416926, -0.022, 1.004, 0.17, 192.0, 127.5, 40.0, 15.5, 48.0, 2.5, 40.0, 0.0, 0.0, 0.0, 1.695414462473511E9, 0.0, 2023-09-22 15:27:42.473
134.0, -4115.805520511331, -12007.088900457491, 26152.949172609948, 44818.10865618094, -33215.51927513114, -7028.662506182493, 94523.80621717051, -13800.458765084597, 12511.970104213966, -10566.541322057405, -19101.9572737166, 33727.48598187995, -9053.641146855492, -5513.705970490691, -2341.1887694822276, 48563.90339897912, -0.022, 1.004, 0.17, 192.0, 0.0, 0.0, 0.0, 0.0, 0.0, 0.0, 0.0, 0.0, 0.0, 1.695414462532782E9, 0.0, 2023-09-22 15:27:42.532
136.0, -4116.252555400438, -12006.261885912643, 26107.910407532505, 44773.80749867052, -33212.613548351954, -7033.982221362856, 94469.78205082203, -13807.2089919101, 12508.19265940102, -10567.256577879974, -19108.573390075373, 33785.64522095266, -9058.200902724375, -5519.360961837883, -2351.6046823984007, 48613.09958852525, -0.022, 1.004, 0.17, 192.0, 0.0, 0.0, 0.0, 0.0, 0.0, 0.0, 0.0, 0.0, 0.0, 1.695414462532796E9, 0.0, 2023-09-22 15:27:42.532
138.0, -4126.6014130832455, -12016.119005217435, 26166.80725417224, 44805.56932754151, -33222.85064731248, -7041.090076099644, 94510.41752224178, -13806.761957020994, 12511.299551880307, -10569.491752325506, -19107.947541230624, 33722.09921146622, -9057.642109112992, -5520.657363016291, -2348.5871968969345, 48554.82859073026, -0.022, 1.004, 0.17, 192.0, 0.0, 0.0, 0.0, 0.0, 0.0, 0.0, 0.0, 0.0, 0.0, 1.6954144625328E9, 0.0, 2023-09-22 15:27:42.532
140.0, -4118.107750190228, -12006.306589401554, 26130.17274500999, 44793.47703379119, -33217.173304220836, -7037.893776642535, 94493.0055133111, -13807.432509354652, 12506.985665200433, -10572.889217482712, -19113.87075351128, 33811.86381719873, -9063.23004522682, -5525.66415377428, -2354.666871388778, 48638.13354231519, -0.022, 1.004, 0.17, 192.0, 0.0, 0.0, 0.0, 0.0, 0.0, 0.0, 0.0, 0.0, 0.0, 1.695414462532803E9, 0.0, 2023-09-22 15:27:42.532
142.0, -4117.817177512309, -12008.295894658077, 26156.011361600325, 44791.130100623384, -33214.58050186402, -7035.815064408192, 94501.99091458213, -13797.083651671846, 12516.462804849483, -10564.70847901207, -19106.226456907567, 33729.11765922519, -9055.138713733997, -5520.769121738568, -2354.599816155412, 48569.49133509294, -0.02, 1.002, 0.17200000000000001, 192.0, 127.5, 48.0, 15.5, 40.0, 2.5, 48.0, 0.0, 0.0, 0.0, 1.695414462532806E9, 0.0, 2023-09-22 15:27:42.532
144.0, -4117.0348664563735, -12009.52524060312, 26128.898695576037, 44784.983370898175, -33213.038231496605, -7039.257233054309, 94489.58569640943, -13805.286741886943, 12512.260676891885, -10564.529665056429, -19105.980587718557, 33792.104875100245, -9054.535216633703, -5519.159796137786, -2352.476400432158, 48619.67100139511, -0.02, 1.002, 0.17200000000000001, 192.0, 0.0, 0.0, 0.0, 0.0, 0.0, 0.0, 0.0, 0.0, 0.0, 1.69541446253281E9, 0.0, 2023-09-22 15:27:42.532
146.0, -4120.231165913483, -12009.324074903021, 26141.32626549319, 44763.63745494335, -33209.50665587266, -7033.8257591516685, 94471.23491421163, -13793.865000470281, 12509.846688490712, -10566.18369414612, -19108.282817397456, 33714.38785962914, -9052.814132310645, -5522.311392105984, -2359.919531335775, 48548.681861005054, -0.02, 1.002, 0.17200000000000001, 192.0, 0.0, 0.0, 0.0, 0.0, 0.0, 0.0, 0.0, 0.0, 0.0, 1.695414462532813E9, 0.0, 2023-09-22 15:27:42.532
148.0, -4125.372067138203, -12013.727368560716, 26151.36219875362, 44794.19228961376, -33215.51927513114, -7043.906395901013, 94501.23095527064, -13807.83484075485, 12507.723272767458, -10566.004880190478, -19114.273084911478, 33789.579127976795, -9057.485646901805, -5522.423150828261, -2356.1197347783727, 48610.842062335265, -0.02, 1.002, 0.17200000000000001, 192.0, 0.0, 0.0, 0.0, 0.0, 0.0, 0.0, 0.0, 0.0, 0.0, 1.695414462532816E9, 0.0, 2023-09-22 15:27:42.532
150.0, -4118.7335990349775, -12008.295894658077, 26150.334018508678, 44753.176838538275, -33212.702955329776, -7038.989012120845, 94469.37971942184, -13799.92232321767, 12507.298589622807, -10564.172037145143, -19108.796907519925, 33723.95440625601, -9051.473027643327, -5520.791473483023, -2362.1323540368503, 48544.16680862508, -0.02, 1.002, 0.17200000000000001, 192.0, 0.0, 0.0, 0.0, 0.0, 0.0, 0.0, 0.0, 0.0, 0.0, 1.695414462592472E9, 0.0, 2023-09-22 15:27:42.592
152.0, -4117.459549601024, -12008.273542913621, 26155.40786450003, 44782.92701040829, -33211.428905895824, -7038.6984394429255, 94495.71007439018, -13801.151669162711, 12510.42783384655, -10561.020441176945, -19109.3109976424, 33788.796816920854, -9050.69071658739, -5520.769121738568, -2358.3549092239036, 48590.27845743638, -0.02, 0.996, 0.17400000000000002, 192.0, 127.5, 48.0, 15.5, 16.0, 2.5, 56.0, 0.0, 0.0, 0.0, 1.695414462592485E9, 0.0, 2023-09-22 15:27:42.592
154.0, -4123.069837459307, -12012.453319126764, 26136.207716012923, 44757.781297896065, -33215.45221989777, -7040.710096443903, 94476.6440363698, -13798.268294127976, 12513.490022836928, -10564.395554589695, -19108.77455577547, 33737.67837735157, -9049.595481109081, -5521.462025816682, -2365.0380808160403, 48537.72950622196, -0.02, 0.996, 0.17400000000000002, 192.0, 0.0, 0.0, 0.0, 0.0, 0.0, 0.0, 0.0, 0.0, 0.0, 1.695414462592488E9, 0.0, 2023-09-22 15:27:42.592
156.0, -4117.347790878748, -12007.021845224124, 26160.481710491385, 44800.20490887224, -33210.579539606515, -7035.613898708093, 94515.3125542775, -13799.29647437292, 12507.499755322904, -10560.32753709883, -19110.696805798627, 33803.59367175027, -9051.964766021343, -5521.596136283414, -2358.600778412912, 48589.36203591371, -0.02, 0.996, 0.17400000000000002, 192.0, 0.0, 0.0, 0.0, 0.0, 0.0, 0.0, 0.0, 0.0, 0.0, 1.695414462592491E9, 0.0, 2023-09-22 15:27:42.592
158.0, -4122.891023503665, -12008.787633036094, 26140.36514048161, 44740.436344198744, -33215.31810943104, -7039.234881309853, 94458.96380650566, -13798.000073194513, 12506.851554733701, -10560.215778376554, -19108.819259264383, 33746.35085420023, -9047.69558283038, -5519.495072304616, -2363.9651970821856, 48525.905433405096, -0.02, 0.996, 0.17400000000000002, 192.0, 0.0, 0.0, 0.0, 0.0, 0.0, 0.0, 0.0, 0.0, 0.0, 1.695414462592495E9, 0.0, 2023-09-22 15:27:42.592
160.0, -4129.037753228874, -12013.079167971513, 26182.36406831313, 44806.44104557527, -33221.420135667344, -7046.25332906882, 94532.21047308571, -13805.890238987236, 12503.074109920753, -10567.569502302349, -19118.698730313627, 33800.50913101544, -9058.69264110239, -5529.016915442577, -2364.6804529047554, 48569.89366649314, -0.02, 0.996, 0.17400000000000002, 192.0, 0.0, 0.0, 0.0, 0.0, 0.0, 0.0, 0.0, 0.0, 0.0, 1.695414462592498E9, 0.0, 2023-09-22 15:27:42.592
162.0, -4119.113578690717, -12006.619513823929, 26131.84912584414, 44721.39265792283, -33210.98187100671, -7036.709134186403, 94438.98134696262, -13797.150706905211, 12509.444357090517, -10563.27796736693, -19108.327520886367, 33758.197278761545, -9049.93075727591, -5524.881842718344, -2374.045833831529, 48527.33594505024, -0.022, 1.004, 0.168, 192.0, 127.5, 40.0, 15.5, 48.0, 2.5, 32.0, 0.0, 0.0, 0.0, 1.695414462592502E9, 0.0, 2023-09-22 15:27:42.592
164.0, -4124.880328760187, -12010.486365614697, 26188.980184671902, 44779.90952490682, -33218.96144377726, -7046.476846513373, 94504.82958612795, -13805.242038398033, 12510.830165246745, -10568.95531045858, -19109.936846487148, 33767.696770155046, -9051.875359043523, -5530.447427087716, -2368.5249529510684, 48523.84907291521, -0.022, 1.004, 0.168, 192.0, 0.0, 0.0, 0.0, 0.0, 0.0, 0.0, 0.0, 0.0, 0.0, 1.695414462652861E9, 0.0, 2023-09-22 15:27:42.652
166.0, -4120.655849058134, -12008.452356869264, 26146.98125684038, 44720.49858814461, -33219.07320249954, -7045.158093590509, 94439.76365801855, -13804.459727342097, 12507.164479156076, -10571.302243626385, -19109.98154997606, 33749.72596761298, -9052.881187544011, -5534.806017256501, -2385.624037459378, 48499.91035460358, -0.022, 1.004, 0.168, 192.0, 0.0, 0.0, 0.0, 0.0, 0.0, 0.0, 0.0, 0.0, 0.0, 1.695414462652876E9, 0.0, 2023-09-22 15:27:42.652
168.0, -4117.191328667561, -12002.886772499893, 26208.26974013683, 44791.15245236784, -33218.60381586597, -7045.314555801697, 94518.3076880345, -13803.386843608243, 12513.132394925642, -10572.151609915687, -19107.16523017469, 33769.998999833944, -9052.8364840551, -5535.0742381899645, -2373.174115797772, 48511.06387508677, -0.022, 1.004, 0.168, 192.0, 0.0, 0.0, 0.0, 0.0, 0.0, 0.0, 0.0, 0.0, 0.0, 1.695414462652879E9, 0.0, 2023-09-22 15:27:42.652
170.0, -4115.470244344502, -12003.289103900088, 26142.75677713833, 44716.87760554285, -33216.122772231436, -7051.483637271362, 94439.40603010728, -13806.49373608753, 12511.903048980601, -10566.966005202057, -19103.4101371062, 33762.98055207498, -9050.467199142839, -5534.157816667297, -2379.6784734342664, 48495.484709201424, -0.022, 1.004, 0.168, 192.0, 0.0, 0.0, 0.0, 0.0, 0.0, 0.0, 0.0, 0.0, 0.0, 1.695414462652883E9, 0.0, 2023-09-22 15:27:42.652
172.0, -4123.516872348413, -12011.42513888182, 26226.75463280137, 44815.605260801945, -33223.5435513906, -7060.916073431501, 94550.33773783896, -13809.220648911078, 12506.918609967068, -10571.570464559849, -19109.02042496448, 33763.74051138646, -9056.636280612503, -5542.405610371306, -2374.3587582539035, 48495.52941269033, -0.018000000000000002, 1.0, 0.164, 192.0, 127.5, 56.0, 15.5, 32.0, 2.5, 16.0, 0.0, 0.0, 0.0, 1.695414462652886E9, 0.0, 2023-09-22 15:27:42.652
174.0, -4119.739427535466, -12005.2337056677, 26158.850033146147, 44752.685100160255, -33221.30837694507, -7058.859712941613, 94484.26598122907, -13810.606457067306, 12503.387034343128, -10568.463572080562, -19108.886314497748, 33803.37015430572, -9058.893806802489, -5540.550415581514, -2385.9369618817523, 48527.24653807242, -0.018000000000000002, 1.0, 0.164, 192.0, 0.0, 0.0, 0.0, 0.0, 0.0, 0.0, 0.0, 0.0, 0.0, 1.695414462652889E9, 0.0, 2023-09-22 15:27:42.652
176.0, -4119.918241491108, -12008.765281291639, 26218.439783863996, 44819.4274091038, -33222.15774323437, -7054.277605328275, 94562.16181065582, -13801.665759285184, 12505.756319255392, -10571.838685493312, -19109.78038427596, 33778.045627837855, -9058.357364935562, -5538.76227602509, -2375.543400710035, 48503.84426162771, -0.018000000000000002, 1.0, 0.164, 192.0, 0.0, 0.0, 0.0, 0.0, 0.0, 0.0, 0.0, 0.0, 0.0, 1.695414462652893E9, 0.0, 2023-09-22 15:27:42.652
178.0, -4121.304049647338, -12005.770147534628, 26129.345730465142, 44750.941664092745, -33220.41430716685, -7056.512779773806, 94484.91418181827, -13808.527744832963, 12504.638732032625, -10567.90477846918, -19110.1603639317, 33812.154389876654, -9059.586710880603, -5536.281232390551, -2384.7970229145317, 48522.262099058884, -0.018000000000000002, 1.0, 0.164, 192.0, 0.0, 0.0, 0.0, 0.0, 0.0, 0.0, 0.0, 0.0, 0.0, 1.695414462652896E9, 0.0, 2023-09-22 15:27:42.652
180.0, -4132.0552387303405, -12014.75554880566, 26186.99087941538, 44795.66750474781, -33224.370565935445, -7061.072535642688, 94538.58072025547, -13806.650198298717, 12498.290836607319, -10569.245883136498, -19116.284741912456, 33753.637522892655, -9061.50896090376, -5539.186959169741, -2381.6454269463334, 48456.52561861582, -0.018000000000000002, 1.0, 0.164, 192.0, 0.0, 0.0, 0.0, 0.0, 0.0, 0.0, 0.0, 0.0, 0.0, 1.695414462713151E9, 0.0, 2023-09-22 15:27:42.713
182.0, -4124.857977015731, -12008.005321980158, 26122.17082049499, 44736.83771334145, -33218.33559493251, -7057.630366996571, 94472.8442398124, -13808.103061688313, 12500.034272674833, -10573.13508667172, -19119.07870996937, 33804.51009327294, -9062.067754515143, -5539.209310914196, -2385.959313626208, 48498.435139469526, -0.024, 1.006, 0.158, 192.0, 127.5, 32.0, 15.5, 56.0, 2.0, 120.0, 0.0, 0.0, 0.0, 1.695414462713164E9, 0.0, 2023-09-22 15:27:42.713
184.0, -4125.729695049488, -12010.151089447867, 26180.08419037869, 44770.58884746896, -33218.44735365479, -7057.2503873408305, 94510.61868794188, -13799.788212750938, 12499.743699996914, -10566.049583679389, -19117.35762564631, 33723.82029578928, -9057.150370734975, -5535.118941678875, -2381.019578101585, 48427.62481303511, -0.024, 1.006, 0.158, 192.0, 0.0, 0.0, 0.0, 0.0, 0.0, 0.0, 0.0, 0.0, 0.0, 1.695414462713168E9, 0.0, 2023-09-22 15:27:42.713
186.0, -4119.404151368636, -11999.109327686945, 26158.93944012397, 44759.52473396358, -33219.72140308874, -7059.150285619532, 94491.48559468813, -13807.812489010394, 12505.063415177276, -10562.361545844264, -19112.730814544062, 33793.31186930083, -9056.524521890226, -5530.8497584879115, -2378.762051911599, 48485.135851518615, -0.024, 1.006, 0.158, 192.0, 0.0, 0.0, 0.0, 0.0, 0.0, 0.0, 0.0, 0.0, 0.0, 1.695414462713171E9, 0.0, 2023-09-22 15:27:42.713
188.0, -4120.991125224963, -12002.305627144055, 26188.443742804975, 44760.95524560872, -33222.135391489915, -7059.597320508638, 94503.71199890519, -13805.845535498327, 12510.986627457933, -10558.56174928686, -19110.003901720513, 33728.62592084717, -9055.652803856468, -5529.106322420397, -2382.1818688132607, 48428.228310135404, -0.024, 1.006, 0.158, 192.0, 0.0, 0.0, 0.0, 0.0, 0.0, 0.0, 0.0, 0.0, 0.0, 1.695414462713174E9, 0.0, 2023-09-22 15:27:42.713
190.0, -4126.266136916415, -12008.98879873619, 26157.978315112392, 44747.298329746525, -33223.588254879505, -7070.773192736291, 94478.96861779316, -13819.25658217151, 12507.76797625637, -10564.797885989892, -19113.289608155443, 33788.34978203175, -9059.69846960288, -5538.0693719469755, -2383.9253048807745, 48478.296217715295, -0.024, 1.006, 0.158, 192.0, 0.0, 0.0, 0.0, 0.0, 0.0, 0.0, 0.0, 0.0, 0.0, 1.695414462713177E9, 0.0, 2023-09-22 15:27:42.713
192.0, -4130.445913129558, -12012.833298782505, 26179.52539676731, 44743.27501574457, -33224.974063035734, -7072.360166592618, 94480.98027479414, -13815.345026891831, 12505.957484955488, -10564.797885989892, -19111.747337788027, 33715.46074336299, -9058.9385102914, -5537.711744035691, -2388.239191560649, 48410.16810061552, -0.026000000000000002, 1.012, 0.152, 192.0, 127.5, 24.0, 15.5, 80.0, 2.0, 96.0, 0.0, 0.0, 0.0, 1.695414462713181E9, 0.0, 2023-09-22 15:27:42.713
194.0, -4134.446875387058, -12018.33182791851, 26159.94526862446, 44737.9105970753, -33224.90700780237, -7080.809125996724, 94470.63141711133, -13824.241021185044, 12498.268484862863, -10573.671528538649, -19118.40815763571, 33792.998944878454, -9065.353460950073, -5545.892482506333, -2387.970970627185, 48471.81421182326, -0.026000000000000002, 1.012, 0.152, 192.0, 0.0, 0.0, 0.0, 0.0, 0.0, 0.0, 0.0, 0.0, 0.0, 1.695414462773481E9, 0.0, 2023-09-22 15:27:42.773
196.0, -4137.576119610801, -12016.834261040005, 26174.697419964963, 44725.12539924686, -33223.96823453525, -7076.651701528037, 94460.68489082872, -13809.958256478103, 12504.012883187877, -10572.017499448955, -19116.17298319018, 33708.19642641502, -9065.621681883536, -5547.322994151473, -2393.827127674476, 48392.97960912938, -0.026000000000000002, 1.012, 0.152, 192.0, 0.0, 0.0, 0.0, 0.0, 0.0, 0.0, 0.0, 0.0, 0.0, 1.695414462773495E9, 0.0, 2023-09-22 15:27:42.773
198.0, -4133.910433520131, -12011.223973181723, 26172.730466452893, 44746.02428031257, -33217.2403594542, -7074.908265460524, 94472.8442398124, -13811.813451267893, 12495.675682506047, -10573.671528538649, -19115.055395967414, 33785.175834319096, -9065.934606305911, -5545.780723784056, -2385.177002570272, 48459.29723492828, -0.026000000000000002, 1.012, 0.152, 192.0, 0.0, 0.0, 0.0, 0.0, 0.0, 0.0, 0.0, 0.0, 0.0, 1.695414462773498E9, 0.0, 2023-09-22 15:27:42.773
200.0, -4138.358430666737, -12017.013074995646, 26159.677047690995, 44715.69296308672, -33221.509542645166, -7076.271721872297, 94443.56345457595, -13809.175945422166, 12500.548362797304, -10566.80954299087, -19111.322654643376, 33709.51517933788, -9063.542969649192, -5540.438656859238, -2394.721197452688, 48386.02821660379, -0.026000000000000002, 1.012, 0.152, 192.0, 0.0, 0.0, 0.0, 0.0, 0.0, 0.0, 0.0, 0.0, 0.0, 1.695414462773502E9, 0.0, 2023-09-22 15:27:42.773
202.0, -4140.973584768008, -12021.215202953244, 26188.913129438537, 44782.882306919375, -33225.77872583613, -7077.724585261892, 94512.09390307593, -13811.63463731225, 12493.194638871508, -10574.364432616763, -19118.810489035903, 33787.67922969809, -9072.237798242308, -5546.920662751278, -2389.893220650342, 48452.94933950297, -0.024, 1.01, 0.154, 192.0, 127.5, 32.0, 15.5, 72.0, 2.0, 104.0, 0.0, 0.0, 0.0, 1.695414462773505E9, 0.0, 2023-09-22 15:27:42.773
204.0, -4136.078552732295, -12017.393054651388, 26157.79950115675, 44725.773599836066, -33219.274368199636, -7071.533152047772, 94458.09208847191, -13803.967988964081, 12494.71455749447, -10572.084554682322, -19119.50339311402, 33750.06124377981, -9071.544894164193, -5546.831255773456, -2398.8339184324645, 48417.29830709676, -0.024, 1.01, 0.154, 192.0, 0.0, 0.0, 0.0, 0.0, 0.0, 0.0, 0.0, 0.0, 0.0, 1.695414462773509E9, 0.0, 2023-09-22 15:27:42.773
206.0, -4137.173788210605, -12016.320170917532, 26190.500103294864, 44779.462490017715, -33222.31420544555, -7077.858695728624, 94516.564251967, -13807.745433777027, 12493.57461852725, -10567.435391835617, -19115.614189578795, 33794.25064256795, -9072.550722664682, -5542.047982460021, -2387.3451217824368, 48452.077621469216, -0.024, 1.01, 0.154, 192.0, 0.0, 0.0, 0.0, 0.0, 0.0, 0.0, 0.0, 0.0, 0.0, 1.695414462773512E9, 0.0, 2023-09-22 15:27:42.773
208.0, -4137.442009144069, -12011.80511853756, 26150.959867353424, 44718.03989625453, -33220.61547286695, -7076.942274205956, 94454.06877446995, -13805.711425031594, 12498.08967090722, -10564.41790633415, -19114.407195378208, 33756.722063627494, -9071.142562763996, -5541.757409782102, -2400.018560888596, 48422.5286152993, -0.024, 1.01, 0.154, 192.0, 0.0, 0.0, 0.0, 0.0, 0.0, 0.0, 0.0, 0.0, 0.0, 1.695414462773515E9, 0.0, 2023-09-22 15:27:42.773
210.0, -4140.8618260457315, -12016.722502317727, 26195.238673119387, 44786.950324410245, -33228.17036249285, -7084.787736509769, 94534.75857195361, -13811.254657656511, 12498.223781373952, -10567.435391835617, -19116.754128546017, 33796.32935480229, -9074.65178664348, -5543.433790616249, -2394.2294590746715, 48457.97848200542, -0.024, 1.01, 0.154, 192.0, 0.0, 0.0, 0.0, 0.0, 0.0, 0.0, 0.0, 0.0, 0.0, 1.695414462832739E9, 0.0, 2023-09-22 15:27:42.832
212.0, -4140.951233023552, -12021.125795975424, 26135.403053212533, 44704.8523670259, -33231.23255148322, -7088.922809234001, 94455.27576867054, -13817.714311804095, 12486.37735681264, -10569.67056628115, -19122.520878615487, 33763.80756661982, -9080.530295435226, -5551.614529086892, -2417.296459352548, 48431.7822375038, -0.024, 1.006, 0.158, 192.0, 127.5, 32.0, 15.5, 56.0, 2.0, 120.0, 0.0, 0.0, 0.0, 1.695414462832751E9, 0.0, 2023-09-22 15:27:42.832
214.0, -4139.185445211583, -12017.661275584851, 26185.51566428133, 44748.4606204582, -33237.4463364418, -7095.538925592772, 94509.5011007191, -13820.240058927544, 12498.581409285238, -10571.145781415198, -19123.37024490479, 33764.545174186846, -9081.156144279974, -5554.073220976976, -2413.787235473065, 48430.01644969183, -0.024, 1.006, 0.158, 192.0, 0.0, 0.0, 0.0, 0.0, 0.0, 0.0, 0.0, 0.0, 0.0, 1.695414462832754E9, 0.0, 2023-09-22 15:27:42.832
216.0, -4140.1018667342505, -12016.633095339907, 26151.071626075704, 44700.62788732385, -33229.86909507145, -7089.436899356473, 94457.77916404953, -13813.646294313228, 12501.598894786704, -10567.569502302349, -19120.352759403322, 33759.11370028421, -9082.631359414025, -5553.134447709853, -2424.113741411417, 48423.02035367732, -0.024, 1.006, 0.158, 192.0, 0.0, 0.0, 0.0, 0.0, 0.0, 0.0, 0.0, 0.0, 0.0, 1.695414462832758E9, 0.0, 2023-09-22 15:27:42.832
218.0, -4136.592642854767, -12011.894525515381, 26207.0850976807, 44764.084489832465, -33224.95171129128, -7078.015157939811, 94529.0141736286, -13802.626884296762, 12502.448261076006, -10557.690031253103, -19115.390672134243, 33769.998999833944, -9079.815039612657, -5542.472665604671, -2404.757130713121, 48435.87260673912, -0.024, 1.006, 0.158, 192.0, 0.0, 0.0, 0.0, 0.0, 0.0, 0.0, 0.0, 0.0, 0.0, 1.695414462832761E9, 0.0, 2023-09-22 15:27:42.832
220.0, -4131.518796863413, -12001.746833532672, 26156.301934278243, 44709.30036417251, -33220.8389903115, -7074.930617204978, 94466.36223392037, -13796.122526660267, 12497.642636018114, -10546.268289836442, -19109.06512845339, 33775.11754931421, -9076.305815733172, -5531.967345710676, -2409.562755771012, 48436.49845558387, -0.024, 1.006, 0.158, 192.0, 0.0, 0.0, 0.0, 0.0, 0.0, 0.0, 0.0, 0.0, 0.0, 1.695414462832764E9, 0.0, 2023-09-22 15:27:42.832
222.0, -4127.629593328189, -12001.478612599209, 26224.988844989402, 44753.802687383024, -33216.07806874252, -7073.835381726669, 94518.28533629005, -13792.38978533623, 12493.75343248289, -10540.546243255883, -19109.288645897945, 33768.255563766426, -9074.294158732195, -5527.564052052981, -2399.638581232856, 48433.52567357131, -0.018000000000000002, 1.002, 0.162, 192.0, 127.5, 56.0, 15.5, 40.0, 2.5, 8.0, 0.0, 0.0, 0.0, 1.695414462832768E9, 0.0, 2023-09-22 15:27:42.832
224.0, -4125.237956671472, -12000.606894565452, 26166.539033238776, 44667.65906425227, -33212.613548351954, -7076.651701528037, 94418.77536997502, -13793.932055703648, 12496.480345306438, -10546.581214258817, -19107.88048599726, 33766.78034863238, -9067.879208073522, -5534.873072489867, -2410.5462325270455, 48412.87266169461, -0.018000000000000002, 1.002, 0.162, 192.0, 0.0, 0.0, 0.0, 0.0, 0.0, 0.0, 0.0, 0.0, 0.0, 1.695414462892638E9, 0.0, 2023-09-22 15:27:42.892
226.0, -4139.274852189405, -12013.52620286062, 26230.979112503424, 44717.21288170968, -33220.77193507814, -7089.325140634196, 94482.67900737275, -13803.900933730714, 12502.738833753925, -10548.928147426623, -19113.781346533462, 33735.68907209505, -9069.309719718662, -5540.8856917483445, -2406.2546975916266, 48377.28868452176, -0.018000000000000002, 1.002, 0.162, 192.0, 0.0, 0.0, 0.0, 0.0, 0.0, 0.0, 0.0, 0.0, 0.0, 1.695414462892656E9, 0.0, 2023-09-22 15:27:42.892
228.0, -4130.781189296387, -12003.557324833551, 26173.401018786553, 44656.147915857786, -33215.65338559787, -7086.821745255202, 94419.84825370887, -13802.49277383003, 12494.312226094275, -10552.727943984026, -19115.815355278894, 33777.26331678192, -9067.36511795105, -5546.406572628805, -2416.558851785523, 48407.552946514246, -0.018000000000000002, 1.002, 0.162, 192.0, 0.0, 0.0, 0.0, 0.0, 0.0, 0.0, 0.0, 0.0, 0.0, 1.69541446289266E9, 0.0, 2023-09-22 15:27:42.892
230.0, -4135.9891457544745, -12008.027673724613, 26251.073330768744, 44715.11181773088, -33221.353080433975, -7089.92863773449, 94499.08518780294, -13800.928151718159, 12497.687339507025, -10541.596775245283, -19112.797869777427, 33740.89702855313, -9065.152295249974, -5540.036325459043, -2407.0593603920174, 48374.74058565385, -0.018000000000000002, 1.002, 0.162, 192.0, 0.0, 0.0, 0.0, 0.0, 0.0, 0.0, 0.0, 0.0, 0.0, 1.695414462892663E9, 0.0, 2023-09-22 15:27:42.892
232.0, -4130.624727085201, -12004.227877167212, 26187.840245704683, 44647.92247389823, -33209.95369076177, -7084.675977787492, 94428.85600672437, -13801.710462774094, 12485.684452734526, -10547.609394503761, -19119.548096602928, 33807.43817179658, -9064.705260360868, -5547.032421473554, -2419.2187093757047, 48422.3274495992, -0.018000000000000002, 1.004, 0.168, 192.0, 127.5, 56.0, 15.5, 48.0, 2.5, 32.0, 0.0, 0.0, 0.0, 1.695414462892666E9, 0.0, 2023-09-22 15:27:42.892
234.0, -4142.9181865356195, -12015.291990672587, 26255.96836280446, 44695.3975791213, -33221.57659787853, -7084.16188766502, 94488.4010539533, -13796.21193363809, 12498.42494707405, -10542.826121190325, -19113.24490466653, 33717.070068963774, -9052.970594521832, -5540.908043492799, -2411.596764516445, 48322.83983502863, -0.018000000000000002, 1.004, 0.168, 192.0, 0.0, 0.0, 0.0, 0.0, 0.0, 0.0, 0.0, 0.0, 0.0, 1.695414462892669E9, 0.0, 2023-09-22 15:27:42.892
236.0, -4133.731619564488, -12004.876077756415, 26207.398022103076, 44680.48896556962, -33210.154856461864, -7078.953931206934, 94471.86076305638, -13798.715329017083, 12490.266560347864, -10549.106961382266, -19124.867811783293, 33817.22823586801, -9057.55270213517, -5549.714630808191, -2420.2245378761936, 48413.65497275055, -0.018000000000000002, 1.004, 0.168, 192.0, 0.0, 0.0, 0.0, 0.0, 0.0, 0.0, 0.0, 0.0, 0.0, 1.695414462892673E9, 0.0, 2023-09-22 15:27:42.892
238.0, -4135.408000398636, -12005.010188223147, 26232.633141593116, 44676.957389945674, -33211.83123729601, -7075.578817794182, 94476.93460904773, -13789.618169023774, 12500.391900586117, -10538.154606599166, -19115.189506434144, 33729.14001096964, -9042.845254283578, -5539.432828358749, -2413.7648837286097, 48321.11875070557, -0.018000000000000002, 1.004, 0.168, 192.0, 0.0, 0.0, 0.0, 0.0, 0.0, 0.0, 0.0, 0.0, 0.0, 1.695414462892676E9, 0.0, 2023-09-22 15:27:42.892
240.0, -4139.6324801006895, -12005.27840915661, 26215.221132662435, 44695.73285528814, -33217.799153065585, -7084.273646387297, 94493.51960343357, -13802.671587785673, 12495.765089483868, -10534.958307142057, -19120.553925103417, 33801.22438683801, -9045.728629318313, -5543.0538109605095, -2414.010752917618, 48377.847478133146, -0.018000000000000002, 1.004, 0.168, 192.0, 0.0, 0.0, 0.0, 0.0, 0.0, 0.0, 0.0, 0.0, 0.0, 1.695414462953883E9, 0.0, 2023-09-22 15:27:42.953
242.0, -4135.497407376457, -12002.529144588607, 26232.90136252658, 44699.1526721898, -33217.933263532315, -7079.289207373764, 94508.47292047417, -13798.089480172335, 12495.049833661298, -10540.233318833509, -19120.4645181256, 33740.33823494175, -9042.800550794667, -5542.606776071403, -2421.2974216100483, 48320.55995709419, -0.022, 1.0, 0.17200000000000001, 192.0, 127.5, 40.0, 15.5, 32.0, 2.5, 48.0, 0.0, 0.0, 0.0, 1.695414462953898E9, 0.0, 2023-09-22 15:27:42.953
244.0, -4126.6237648277, -11997.097670685967, 26214.505876839863, 44709.45682638369, -33214.96048151976, -7078.283378873275, 94514.1055600769, -13801.755166263005, 12500.838935475223, -10534.980658886512, -19114.87658201177, 33808.26518634143, -9037.994925736777, -5544.95370923921, -2419.9339651982746, 48369.04089081775, -0.022, 1.0, 0.17200000000000001, 192.0, 0.0, 0.0, 0.0, 0.0, 0.0, 0.0, 0.0, 0.0, 0.0, 1.695414462953901E9, 0.0, 2023-09-22 15:27:42.953
246.0, -4119.091226946262, -11985.675929269306, 26219.24444666439, 44684.08759642692, -33213.61937685244, -7074.148306149043, 94491.88792608833, -13796.63661678274, 12509.533764068337, -10534.265403063942, -19100.951445216113, 33740.67351110858, -9028.629544810003, -5540.371601625872, -2416.692962252255, 48301.40451209599, -0.022, 1.0, 0.17200000000000001, 192.0, 0.0, 0.0, 0.0, 0.0, 0.0, 0.0, 0.0, 0.0, 0.0, 1.695414462953905E9, 0.0, 2023-09-22 15:27:42.953
248.0, -4120.991125224963, -11986.882923469893, 26226.75463280137, 44714.41891365277, -33215.49692338669, -7079.624483540593, 94518.41944675679, -13802.82804999686, 12508.639694290125, -10536.835853676303, -19102.672529539173, 33805.76179096244, -9029.59066982158, -5542.562072582492, -2414.7483604846434, 48340.74358233733, -0.022, 1.0, 0.17200000000000001, 192.0, 0.0, 0.0, 0.0, 0.0, 0.0, 0.0, 0.0, 0.0, 0.0, 1.695414462953908E9, 0.0, 2023-09-22 15:27:42.953
250.0, -4123.8968520041535, -11988.604007792952, 26211.153115171568, 44667.12262238534, -33212.546493118585, -7077.054032928233, 94468.35153917689, -13795.630788282251, 12507.924438467555, -10535.204176331064, -19099.386823104243, 33735.398499417126, -9025.097969186065, -5540.662174303791, -2424.627831533889, 48266.75930819027, -0.022, 1.0, 0.17200000000000001, 192.0, 0.0, 0.0, 0.0, 0.0, 0.0, 0.0, 0.0, 0.0, 0.0, 1.695414462953912E9, 0.0, 2023-09-22 15:27:42.953
