%OpenBCI Raw EXG Data
%Number of channels = 16
%Sample Rate = 125 Hz
%Board = OpenBCI_GUI$BoardCytonSerialDaisy
Sample Index, EXG Channel 0, EXG Channel 1, EXG Channel 2, EXG Channel 3, EXG Channel 4, EXG Channel 5, EXG Channel 6, EXG Channel 7, EXG Channel 8, EXG Channel 9, EXG Channel 10, EXG Channel 11, EXG Channel 12, EXG Channel 13, EXG Channel 14, EXG Channel 15, Accel Channel 0, Accel Channel 1, Accel Channel 2, Other, Other, Other, Other, Other, Other, Other, Analog Channel 0, Analog Channel 1, Analog Channel 2, Timestamp, Other, Timestamp (Formatted)
230.0, 53536.294822251184, 67140.46056752927, -20985.76229640988, -33422.22820785382, -3089.972208735014, -7363.178713700619, -187500.02235174447, -30711.721564736556, 18243.85145233291, -42939.15396203446, 24629.834250191958, -36836.39011816861, -3528.4910832036835, -30356.552345341726, -39268.014045717006, -47511.33740083425, 0.0, 0.0, 0.0, 192.0, 0.0, 0.0, 0.0, 0.0, 0.0, 0.0, 0.0, 0.0, 0.0, 1.695766205804951E9, 0.0, 2023-09-26 17:10:05.804
232.0, 53525.92361282392, 67152.73167523523, -21006.236494330944, -33442.43418484142, -3097.9294297611036, -7356.808466530856, -187500.02235174447, -30721.735146252533, 18219.17512645425, -42966.40073852548, 24682.897291528858, -36863.48043244844, -3552.5639119820494, -30392.35983995913, -39283.70497032464, -47482.078967342255, 0.0, 0.0, 0.0, 192.0, 0.0, 0.0, 0.0, 0.0, 0.0, 0.0, 0.0, 0.0, 0.0, 1.69576620580496E9, 0.0, 2023-09-26 17:10:05.804
234.0, 53524.9848395568, 67116.29833177308, -20992.19959881301, -33425.558617777664, -3089.949856990559, -7380.590722631303, -187500.02235174447, -30719.634082273733, 18220.94091426622, -42966.2442763143, 24650.554317302027, -36869.76127264038, -3556.2966533060853, -30385.54255790026, -39279.86047027832, -47514.77956948037, 0.044, 0.9580000000000001, 0.28200000000000003, 192.0, 0.5, 48.0, 14.5, 120.0, 4.0, 104.0, 0.0, 0.0, 0.0, 1.695766205804965E9, 0.0, 2023-09-26 17:10:05.804
236.0, 53520.000400543264, 67144.7521024647, -20998.72630819396, -33436.42156558294, -3094.241391925978, -7333.294431363873, -187500.02235174447, -30704.41254429967, 18224.360731167882, -42961.34924427858, 24658.82446275049, -36866.9002493501, -3531.8214931275243, -30375.90895604002, -39273.24435391955, -47524.05554342932, 0.044, 0.9580000000000001, 0.28200000000000003, 192.0, 0.0, 0.0, 0.0, 0.0, 0.0, 0.0, 0.0, 0.0, 0.0, 1.695766205804968E9, 0.0, 2023-09-26 17:10:05.804
238.0, 53528.24819424727, 67117.88530562942, -20991.663156946084, -33423.99399566579, -3089.5251738459083, -7370.375975415227, -187500.02235174447, -30717.465963061568, 18216.403510141794, -42962.712700690354, 24682.74082931767, -36871.661170919084, -3565.729089466225, -30383.30738345473, -39278.83229003338, -47510.86801420069, 0.044, 0.9580000000000001, 0.28200000000000003, 192.0, 0.0, 0.0, 0.0, 0.0, 0.0, 0.0, 0.0, 0.0, 0.0, 1.695766205804971E9, 0.0, 2023-09-26 17:10:05.804
240.0, 53531.332734982105, 67152.08347464603, -21006.080032119757, -33435.66160627146, -3092.1403279471792, -7323.437312059083, -187500.02235174447, -30700.88096867573, 18219.242181687616, -42956.96830236534, 24680.863282783426, -36864.08392954873, -3516.21997549772, -30370.477482137383, -39277.26766792151, -47517.19355788155, 0.044, 0.9580000000000001, 0.28200000000000003, 192.0, 0.0, 0.0, 0.0, 0.0, 0.0, 0.0, 0.0, 0.0, 0.0, 1.695766205804975E9, 0.0, 2023-09-26 17:10:05.804
242.0, 53530.95275532636, 67108.27405551363, -20993.138372080135, -33424.26221659925, -3095.4260343821093, -7384.502277910981, -187500.02235174447, -30735.772041770466, 18213.65424557379, -42963.87499140203, 24750.55602199507, -36873.426958731055, -3559.7164702077475, -30378.5688136302, -39284.48728138057, -47462.67765315505, 0.044, 0.9580000000000001, 0.28200000000000003, 192.0, 0.0, 0.0, 0.0, 0.0, 0.0, 0.0, 0.0, 0.0, 0.0, 1.695766205804978E9, 0.0, 2023-09-26 17:10:05.804
244.0, 53541.614537431546, 67149.08834088902, -20989.67385168956, -33420.82004795314, -3085.457156355042, -7328.913489450632, -187500.02235174447, -30705.619538500257, 18214.861239774375, -42960.9916163673, 24692.329727688997, -36867.257877261385, -3548.4288392578173, -30378.948793285945, -39282.18505170167, -47516.344191592245, 0.044, 0.96, 0.28400000000000003, 192.0, 0.5, 48.0, 15.0, 0.0, 4.0, 112.0, 0.0, 0.0, 0.0, 1.695766205804981E9, 0.0, 2023-09-26 17:10:05.804
246.0, 53546.75543865627, 67121.37217776444, -20982.47658997495, -33407.85603616906, -3084.138403432179, -7369.8171818038445, -187500.02235174447, -30727.211323644082, 18223.779585812044, -42948.9887295948, 24770.069094904557, -36850.94110380901, -3552.4968567486835, -30366.185947201964, -39271.098586451844, -47466.18687703453, 0.044, 0.96, 0.28400000000000003, 192.0, 0.0, 0.0, 0.0, 0.0, 0.0, 0.0, 0.0, 0.0, 0.0, 1.695766205804985E9, 0.0, 2023-09-26 17:10:05.804
0.0, 23558.716304149188, 32742.802231645852, -12621.538355533881, -18157.283146057503, -205.88191817783334, -2327.330687919937, -93750.01117587223, -16515.882791982032, 9112.359179539584, -21471.73392435717, 12330.988029359345, -18426.018169643663, -1778.1483266530427, -15183.00356662316, -19633.772329541724, -23770.767303796685, 0.034, 0.9540000000000001, 0.302, 192.0, 0.5, 8.0, 14.5, 104.0, 4.5, 56.0, 0.0, 0.0, 0.0, 1.695766205964993E9, 0.0, 2023-09-26 17:10:05.964
2.0, 47116.51618677571, 65471.09818114021, -25237.51112669839, -36309.20187344574, -399.4703769052478, -4649.453419381788, -187500.02235174447, -33011.000813365084, 13283.909950722451, -42577.525088492046, 43178.07175851724, -36760.170669576015, -4854.7541922037835, -30066.493757545206, -39506.48480731068, -42479.78090998899, 0.034, 0.9540000000000001, 0.302, 192.0, 0.0, 0.0, 0.0, 0.0, 0.0, 0.0, 0.0, 0.0, 0.0, 1.695766205965004E9, 0.0, 2023-09-26 17:10:05.965
4.0, 47112.247003584744, 65486.09620166972, -25245.46834772448, -36311.3699926579, -405.0583130190746, -4620.463206823255, -187500.02235174447, -33008.07273484144, 13276.667985518932, -42584.07414961745, 43192.15335752408, -36763.165803333024, -4848.3615932895655, -30071.18762388082, -39515.984298704185, -42450.38836603026, 0.034, 0.9540000000000001, 0.302, 192.0, 0.0, 0.0, 0.0, 0.0, 0.0, 0.0, 0.0, 0.0, 0.0, 1.695766205965007E9, 0.0, 2023-09-26 17:10:05.965
6.0, 47115.063323386115, 65475.00973641989, -25237.622885420667, -36295.45555060572, -403.09135950700755, -4646.2571199246795, -187500.02235174447, -33017.92985414623, 13287.016843201738, -42569.836088399425, 43177.84824107269, -36753.867477639615, -4855.044764881703, -30061.03993189811, -39520.63346155089, -42481.01025593403, 0.034, 0.9540000000000001, 0.302, 192.0, 0.0, 0.0, 0.0, 0.0, 0.0, 0.0, 0.0, 0.0, 0.0, 1.695766205965011E9, 0.0, 2023-09-26 17:10:05.965
8.0, 47112.112893118014, 65493.13700117314, -25245.736568657943, -36301.356411141925, -397.65988560436796, -4605.688703738297, -187500.02235174447, -32994.19230153469, 13278.4337733309, -42568.38322500983, 43181.4915754189, -36759.32130328671, -4855.178875348434, -30055.921382417844, -39525.23792090868, -42458.52440101199, 0.036000000000000004, 0.97, 0.312, 192.0, 0.5, 16.0, 15.0, 40.0, 4.5, 96.0, 0.0, 0.0, 0.0, 1.695766205965014E9, 0.0, 2023-09-26 17:10:05.965
10.0, 47098.903012144925, 65458.73766645643, -25259.61700196469, -36313.873388036896, -411.71913286675607, -4659.534056131131, -187500.02235174447, -33031.609121752874, 13275.371584340524, -42584.07414961745, 43182.385645197115, -36778.90143142956, -4859.358651561577, -30066.605516267482, -39536.14557220287, -42465.676959237695, 0.036000000000000004, 0.97, 0.312, 192.0, 0.0, 0.0, 0.0, 0.0, 0.0, 0.0, 0.0, 0.0, 0.0, 1.695766205965017E9, 0.0, 2023-09-26 17:10:05.965
12.0, 47108.73777970526, 65484.553931302304, -25255.660743196102, -36303.099847209436, -403.06900776255225, -4597.284447823101, -187500.02235174447, -32997.3886009918, 13270.789476727186, -42587.06928337447, 43168.8404880572, -36772.64294298207, -4854.508323014775, -30069.310077346574, -39539.38657514889, -42468.605037761336, 0.036000000000000004, 0.97, 0.312, 192.0, 0.0, 0.0, 0.0, 0.0, 0.0, 0.0, 0.0, 0.0, 0.0, 1.695766205965027E9, 0.0, 2023-09-26 17:10:05.965
14.0, 47105.29561105915, 65462.51511126937, -25256.532461229857, -36298.070704706995, -407.6734671203455, -4642.658489067375, -187500.02235174447, -33026.84820018389, 13278.925511708918, -42570.50664073308, 43204.87150011915, -36758.58369571969, -4866.287692342722, -30057.50835627417, -39526.86959825392, -42435.01036584501, 0.036000000000000004, 0.97, 0.312, 192.0, 0.0, 0.0, 0.0, 0.0, 0.0, 0.0, 0.0, 0.0, 0.0, 1.69576620596503E9, 0.0, 2023-09-26 17:10:05.965
16.0, 47104.446244769846, 65487.0573266813, -25259.6617054536, -36308.08428622297, -399.33626643851596, -4599.452567035266, -187500.02235174447, -32998.126208558824, 13269.068392404128, -42582.86715541687, 43187.57124991075, -36766.98795163488, -4867.807610965683, -30070.33825759152, -39530.1329529444, -42446.1191828393, 0.036000000000000004, 0.97, 0.312, 192.0, 0.0, 0.0, 0.0, 0.0, 0.0, 0.0, 0.0, 0.0, 0.0, 1.695766206025317E9, 0.0, 2023-09-26 17:10:06.025
18.0, 47108.13428260497, 65466.739590971425, -25253.649086195124, -36306.743181555656, -408.1652054983623, -4666.3960416789105, -187500.02235174447, -33035.14069737682, 13274.924549451418, -42582.3977687833, 43244.50114303841, -36761.73529168788, -4862.8008202076935, -30072.864004714967, -39527.33898488748, -42392.8549758023, 0.036000000000000004, 0.966, 0.31, 192.0, 0.5, 16.0, 15.0, 24.0, 4.5, 88.0, 0.0, 0.0, 0.0, 1.695766206025343E9, 0.0, 2023-09-26 17:10:06.025
20.0, 47106.21203258181, 65485.87268422517, -25254.677266440067, -36310.09594322395, -398.68806584931207, -4603.855860692962, -187500.02235174447, -32994.46052246816, 13275.86332271854, -42578.95560013719, 43179.07758701773, -36760.863573654126, -4857.972843405348, -30071.76876923666, -39522.24278715167, -42460.848982435346, 0.036000000000000004, 0.966, 0.31, 192.0, 0.0, 0.0, 0.0, 0.0, 0.0, 0.0, 0.0, 0.0, 0.0, 1.695766206025346E9, 0.0, 2023-09-26 17:10:06.025
22.0, 47106.79317793765, 65468.59478576122, -25244.88720236864, -36307.39138214486, -410.8921183219097, -4664.6302538669415, -187500.02235174447, -33049.91520046177, 13267.459066803345, -42585.45995777368, 43263.14249791414, -36768.95490514695, -4864.2983870862, -30074.361571593476, -39524.6791272973, -42366.92695223415, 0.036000000000000004, 0.966, 0.31, 192.0, 0.0, 0.0, 0.0, 0.0, 0.0, 0.0, 0.0, 0.0, 0.0, 1.69576620602535E9, 0.0, 2023-09-26 17:10:06.025
24.0, 47108.29074481616, 65488.48783832644, -25232.973722573963, -36307.145512955845, -386.97575175473116, -4603.185308359302, -187500.02235174447, -32998.01444983655, 13271.415325571934, -42578.32975129244, 43186.20779349897, -36761.779995176796, -4857.905788171982, -30067.499586045695, -39516.766609760125, -42453.092927109356, 0.036000000000000004, 0.966, 0.31, 192.0, 0.0, 0.0, 0.0, 0.0, 0.0, 0.0, 0.0, 0.0, 0.0, 1.695766206025353E9, 0.0, 2023-09-26 17:10:06.025
26.0, 47112.98461115177, 65474.54034978633, -25233.84544060772, -36303.658640820824, -400.8338333170216, -4659.958739275782, -187500.02235174447, -33043.52260154756, 13274.4328110734, -42572.94298087871, 43261.711986269, -36756.3261695297, -4845.76879093275, -30067.61134476797, -39516.900720226855, -42370.14560343571, 0.036000000000000004, 0.966, 0.31, 192.0, 0.0, 0.0, 0.0, 0.0, 0.0, 0.0, 0.0, 0.0, 0.0, 1.695766206025356E9, 0.0, 2023-09-26 17:10:06.025
28.0, 47105.60853548152, 65483.592806290726, -25247.681170425556, -36314.29807118155, -393.23424020221717, -4596.1892123447915, -187500.02235174447, -32993.43234222321, 13273.337575595091, -42568.60674245438, 43172.34971193668, -36757.35434977464, -4841.00786936377, -30065.487929044717, -39520.90168248436, -42475.69054075367, 0.034, 0.96, 0.314, 192.0, 0.5, 8.0, 15.0, 0.0, 4.5, 104.0, 0.0, 0.0, 0.0, 1.695766206025359E9, 0.0, 2023-09-26 17:10:06.025
30.0, 47116.96322166482, 65480.48591381144, -25239.455728466004, -36300.439989619255, -401.79495832859976, -4635.640041308408, -187500.02235174447, -33032.43613629772, 13265.29094759118, -42581.05666411599, 43279.772195788886, -36761.489422498875, -4868.232294110334, -30069.935926191323, -39531.652871567356, -42348.352652591784, 0.034, 0.96, 0.314, 192.0, 0.0, 0.0, 0.0, 0.0, 0.0, 0.0, 0.0, 0.0, 0.0, 1.695766206084815E9, 0.0, 2023-09-26 17:10:06.084
32.0, 47123.13230313448, 65491.63943429464, -25235.700635397512, -36295.29908839454, -389.74736806718926, -4591.71886345373, -187500.02235174447, -32993.924080601224, 13282.322976866124, -42566.63978894232, 43187.66065688857, -36751.162916560526, -4855.827075937638, -30052.300399816086, -39519.24765339466, -42457.138592855765, 0.034, 0.96, 0.314, 192.0, 0.0, 0.0, 0.0, 0.0, 0.0, 0.0, 0.0, 0.0, 0.0, 1.695766206084829E9, 0.0, 2023-09-26 17:10:06.084
34.0, 47125.7251054913, 65491.23710289444, -25235.074786552763, -36288.19123365775, -398.64336236040145, -4621.938421957305, -187500.02235174447, -33024.36715654936, 13278.500828564267, -42561.11890806186, 43275.12303294218, -36749.263018281825, -4850.2391398238115, -30046.17602183533, -39522.354545873946, -42351.504248559984, 0.034, 0.96, 0.314, 192.0, 0.0, 0.0, 0.0, 0.0, 0.0, 0.0, 0.0, 0.0, 0.0, 1.695766206084833E9, 0.0, 2023-09-26 17:10:06.084
36.0, 47111.53174776218, 65480.15063764461, -25245.93773435804, -36298.56244308501, -393.6812750913233, -4603.453529292766, -187500.02235174447, -32995.60046143537, 13277.562055297143, -42562.10238481789, 43184.620819642645, -36750.35825376013, -4860.073907384147, -30046.533649746616, -39521.14755167336, -42457.74208995606, 0.034, 0.96, 0.314, 192.0, 0.0, 0.0, 0.0, 0.0, 0.0, 0.0, 0.0, 0.0, 0.0, 1.695766206084836E9, 0.0, 2023-09-26 17:10:06.084
38.0, 47108.80483493863, 65475.412067820085, -25251.548022216324, -36301.71403905321, -402.77843508463326, -4641.742067544707, -187500.02235174447, -33041.130964890835, 13262.228758600802, -42583.80592868399, 43258.783907745354, -36766.6303237236, -4861.3926603070095, -30071.32173434755, -39528.00953722114, -42359.5955800528, 0.034, 0.9540000000000001, 0.314, 192.0, 0.5, 8.0, 14.5, 104.0, 4.5, 104.0, 0.0, 0.0, 0.0, 1.695766206084839E9, 0.0, 2023-09-26 17:10:06.084
40.0, 47106.457901770824, 65466.046686893314, -25245.71421691349, -36295.85788200592, -385.5005366206809, -4617.691590510797, -187500.02235174447, -32997.03097308052, 13267.123790636515, -42580.29670480451, 43170.941552036, -36758.360178275136, -4860.118610873057, -30069.220670368755, -39519.53822607258, -42469.74497672856, 0.034, 0.9540000000000001, 0.314, 192.0, 0.0, 0.0, 0.0, 0.0, 0.0, 0.0, 0.0, 0.0, 0.0, 1.695766206084843E9, 0.0, 2023-09-26 17:10:06.084
42.0, 47105.38501803697, 65470.517035784374, -25248.17290880357, -36302.675164064785, -394.79886231408864, -4621.200814390279, -187500.02235174447, -33018.399240779785, 13259.09951437706, -42583.94003915072, 43238.309709824294, -36757.80138466375, -4855.29063407071, -30063.85625169948, -39517.7277347717, -42381.58969659683, 0.034, 0.9540000000000001, 0.314, 192.0, 0.0, 0.0, 0.0, 0.0, 0.0, 0.0, 0.0, 0.0, 0.0, 1.695766206084846E9, 0.0, 2023-09-26 17:10:06.084
44.0, 47096.041988854646, 65454.46848326546, -25246.988266347442, -36315.683879337776, -389.07681573353005, -4618.786825989107, -187500.02235174447, -33003.84825513938, 13258.205444598849, -42581.90603040529, 43180.776319596334, -36759.34365503117, -4853.5248462587415, -30069.131263390933, -39515.00082194815, -42460.69252022416, 0.034, 0.9540000000000001, 0.314, 192.0, 0.0, 0.0, 0.0, 0.0, 0.0, 0.0, 0.0, 0.0, 0.0, 1.695766206084849E9, 0.0, 2023-09-26 17:10:06.084
46.0, 47101.428759268376, 65472.886320696634, -25243.121414556674, -36316.801466560544, -386.7745860546334, -4622.452512079777, -187500.02235174447, -33016.27582505653, 13248.750656694254, -42595.495891034116, 43253.41948907608, -36775.45926278344, -4858.911616672471, -30083.168158908866, -39520.63346155089, -42366.03288245593, 0.034, 0.9540000000000001, 0.314, 192.0, 0.0, 0.0, 0.0, 0.0, 0.0, 0.0, 0.0, 0.0, 0.0, 1.695766206144478E9, 0.0, 2023-09-26 17:10:06.144
48.0, 47102.07695985758, 65455.42960827704, -25241.310923255794, -36310.81119904652, -383.46652787524795, -4633.114294184958, -187500.02235174447, -33004.87643538433, 13265.559168524644, -42580.20729782669, 43199.3953227276, -36762.405844021545, -4857.369346305054, -30067.56664127906, -39514.06204868103, -42441.335909525864, 0.032, 0.96, 0.314, 192.0, 0.5, 0.0, 15.0, 0.0, 4.5, 104.0, 0.0, 0.0, 0.0, 1.69576620614449E9, 0.0, 2023-09-26 17:10:06.144
50.0, 47108.80483493863, 65475.680288753545, -25246.85415588071, -36310.654736835335, -386.93104826582055, -4605.711055482752, -187500.02235174447, -33038.180534622734, 13254.673868974909, -42588.18687059723, 43243.070631393275, -36768.820794680214, -4861.77263996275, -30073.28868785962, -39526.84724650947, -42382.81904254187, 0.032, 0.96, 0.314, 192.0, 0.0, 0.0, 0.0, 0.0, 0.0, 0.0, 0.0, 0.0, 0.0, 1.695766206144494E9, 0.0, 2023-09-26 17:10:06.144
52.0, 47099.394750522944, 65449.08171285173, -25247.39059774764, -36308.196044945245, -386.64047558790156, -4636.86938725345, -187500.02235174447, -33120.85963736292, 13263.34634582357, -42580.56492573797, 43213.007535100885, -36763.41167252203, -4861.3926603070095, -30067.23136511223, -39518.577101061004, -42430.383554742766, 0.032, 0.96, 0.314, 192.0, 0.0, 0.0, 0.0, 0.0, 0.0, 0.0, 0.0, 0.0, 0.0, 1.695766206144497E9, 0.0, 2023-09-26 17:10:06.144
54.0, 47104.0662651141, 65468.706544483495, -25251.52567047187, -36308.53132111208, -389.6132576004574, -4601.464224036244, -187500.02235174447, -33108.230901745665, 13256.014973642228, -42586.84576592991, 43221.07651484925, -36768.30670455774, -4857.123477116046, -30073.489853559717, -39524.05327845255, -42407.8082928429, 0.032, 0.96, 0.314, 192.0, 0.0, 0.0, 0.0, 0.0, 0.0, 0.0, 0.0, 0.0, 0.0, 1.6957662061445E9, 0.0, 2023-09-26 17:10:06.144
56.0, 47097.07016909959, 65443.38201801563, -25251.548022216324, -36302.18342568677, -392.25076344618367, -4631.795541262096, -187500.02235174447, -33122.62542517488, 13270.409497071445, -42580.810794926976, 43204.402113485594, -36762.51760274382, -4852.8766456695375, -30056.860155684968, -39515.20198764825, -42437.69257517965, 0.032, 0.96, 0.314, 192.0, 0.0, 0.0, 0.0, 0.0, 0.0, 0.0, 0.0, 0.0, 0.0, 1.695766206144503E9, 0.0, 2023-09-26 17:10:06.144
58.0, 47094.74558767624, 65471.09818114021, -25263.707371200013, -36305.31266991051, -400.45385366128136, -4585.728595939708, -187500.02235174447, -33107.02390754508, 13255.634993986487, -42588.231574086145, 43212.11346532267, -36773.96169590494, -4865.05834639768, -30068.684228501825, -39532.971624490216, -42410.82577834437, 0.028, 0.9580000000000001, 0.312, 192.0, 0.0, 112.0, 14.5, 120.0, 4.5, 96.0, 0.0, 0.0, 0.0, 1.695766206144506E9, 0.0, 2023-09-26 17:10:06.144
60.0, 47093.806814409116, 65449.17111982955, -25261.919231643587, -36302.16107394231, -403.4936909072031, -4641.2726809111455, -187500.02235174447, -33140.50682073913, 13257.24431958727, -42582.420120527764, 43248.52445704037, -36771.57005924822, -4853.5248462587415, -30066.963144178768, -39536.6820140698, -42379.689798318126, 0.028, 0.9580000000000001, 0.312, 192.0, 0.0, 0.0, 0.0, 0.0, 0.0, 0.0, 0.0, 0.0, 0.0, 1.695766206206105E9, 0.0, 2023-09-26 17:10:06.206
62.0, 47094.34325627604, 65480.46356206699, -25264.601440978226, -36313.35929791442, -396.4305396593261, -4589.550744241565, -187500.02235174447, -33103.73820111015, 13249.644726472465, -42587.42691128575, 43241.863637192684, -36774.18521334949, -4864.097221386101, -30075.300344860596, -39536.54790360307, -42372.8501645148, 0.028, 0.9580000000000001, 0.312, 192.0, 0.0, 0.0, 0.0, 0.0, 0.0, 0.0, 0.0, 0.0, 0.0, 1.69576620620612E9, 0.0, 2023-09-26 17:10:06.206
64.0, 47102.59104998005, 65451.071018108254, -25244.820147135277, -36298.85301576293, -393.7259785802339, -4655.466038640266, -187500.02235174447, -33132.504896224134, 13264.91096793544, -42576.049873358, 43274.385425375156, -36760.70711144294, -4858.911616672471, -30068.348952334996, -39520.745220273166, -42346.698623502096, 0.028, 0.9580000000000001, 0.312, 192.0, 0.0, 0.0, 0.0, 0.0, 0.0, 0.0, 0.0, 0.0, 0.0, 1.695766206206123E9, 0.0, 2023-09-26 17:10:06.206
66.0, 47096.37726502148, 65472.66280325208, -25244.95425760201, -36311.63821359137, -378.1468126948849, -4590.534220997599, -187500.02235174447, -33093.38934342734, 13261.893482433974, -42580.14024259332, 43194.679104647534, -36767.434986523986, -4848.965090389859, -30071.500548303196, -39513.39149634737, -42431.88112162127, 0.028, 0.9580000000000001, 0.312, 192.0, 0.0, 0.0, 0.0, 0.0, 0.0, 0.0, 0.0, 0.0, 0.0, 1.695766206206127E9, 0.0, 2023-09-26 17:10:06.206
68.0, 47093.76211092021, 65448.835843662724, -25241.84736512272, -36312.465228136214, -392.47428089073674, -4646.68180306933, -187500.02235174447, -33133.39896600234, 13262.519331278721, -42580.184946082234, 43247.94331168453, -36767.144413846065, -4846.640508966507, -30072.729894248238, -39507.15535964434, -42378.92983900665, 0.028, 0.9580000000000001, 0.31, 192.0, 0.0, 112.0, 14.5, 120.0, 4.5, 88.0, 0.0, 0.0, 0.0, 1.69576620620613E9, 0.0, 2023-09-26 17:10:06.206
70.0, 47096.86900339949, 65476.44024806503, -25249.402254748617, -36317.60612936093, -390.5073273786697, -4590.578924486509, -187500.02235174447, -33096.138607995345, 13257.24431958727, -42590.08676887593, 43201.87636636214, -36771.36889354812, -4857.525808516241, -30080.262432129675, -39523.13685692989, -42426.13672329625, 0.028, 0.9580000000000001, 0.31, 192.0, 0.0, 0.0, 0.0, 0.0, 0.0, 0.0, 0.0, 0.0, 0.0, 1.695766206206133E9, 0.0, 2023-09-26 17:10:06.206
72.0, 47105.496776759246, 65461.86691068017, -25238.94163834353, -36307.59254784496, -392.45192914628143, -4651.867407782961, -187500.02235174447, -33134.40479450283, 13267.839046459085, -42576.36279778037, 43271.99378871844, -36765.199812078456, -4846.10406709958, -30068.930097690834, -39519.67233653931, -42354.81230673937, 0.028, 0.9580000000000001, 0.31, 192.0, 0.0, 0.0, 0.0, 0.0, 0.0, 0.0, 0.0, 0.0, 0.0, 1.695766206206136E9, 0.0, 2023-09-26 17:10:06.206
74.0, 47101.65227671293, 65476.39554457612, -25242.830841878756, -36315.5721206155, -378.70560630626755, -4588.768433185629, -187500.02235174447, -33089.65660210331, 13265.223892357815, -42574.68641694623, 43185.2913719763, -36767.144413846065, -4851.267320068756, -30068.41600756836, -39521.14755167336, -42455.14928759924, 0.028, 0.9580000000000001, 0.31, 192.0, 0.0, 0.0, 0.0, 0.0, 0.0, 0.0, 0.0, 0.0, 0.0, 1.695766206206139E9, 0.0, 2023-09-26 17:10:06.206
76.0, 47100.69115170135, 65466.4043148046, -25242.830841878756, -36312.465228136214, -395.6705803478456, -4640.736239044219, -187500.02235174447, -33143.189030073765, 13263.905139434952, -42568.651445943295, 43275.346550386734, -36771.92768715951, -4854.776543948239, -30073.601612281993, -39529.909435499845, -42357.11453641827, 0.028, 0.9580000000000001, 0.31, 192.0, 0.0, 0.0, 0.0, 0.0, 0.0, 0.0, 0.0, 0.0, 0.0, 1.695766206264854E9, 0.0, 2023-09-26 17:10:06.264
78.0, 47099.260640056214, 65468.46067529448, -25234.00190281891, -36303.47982686518, -378.88442026191, -4587.874363407417, -187500.02235174447, -33088.874291047374, 13270.677718004908, -42546.81379161046, 43185.0902062762, -36762.91993414402, -4839.19737806289, -30057.32954231853, -39524.90264474185, -42464.022930148, 0.028, 0.964, 0.31, 192.0, 0.0, 112.0, 15.0, 16.0, 4.5, 88.0, 0.0, 0.0, 0.0, 1.695766206264867E9, 0.0, 2023-09-26 17:10:06.264
80.0, 47100.378227278976, 65464.66087873708, -25235.007731319398, -36303.7703995431, -399.93976353880925, -4628.15220691588, -187500.02235174447, -33127.02871883258, 13266.073258647117, -42546.791439866, 43274.966570731, -36769.49134701388, -4853.547198003197, -30059.162385363867, -39526.35550813145, -42360.891981231216, 0.028, 0.964, 0.31, 192.0, 0.0, 0.0, 0.0, 0.0, 0.0, 0.0, 0.0, 0.0, 0.0, 1.69576620626487E9, 0.0, 2023-09-26 17:10:06.264
82.0, 47099.37239877849, 65474.2050736195, -25236.125318542163, -36306.34085015546, -391.2896384346054, -4598.402035045867, -187500.02235174447, -33097.904395807316, 13267.14614238097, -42541.49407643009, 43213.633383945635, -36760.88592539858, -4861.571474262652, -30057.933039418822, -39531.362298889435, -42435.27858677848, 0.028, 0.964, 0.31, 192.0, 0.0, 0.0, 0.0, 0.0, 0.0, 0.0, 0.0, 0.0, 0.0, 1.695766206264874E9, 0.0, 2023-09-26 17:10:06.264
84.0, 47105.832052926075, 65474.361535830685, -25233.957199329998, -36301.222300675196, -401.012647272664, -4635.215358163758, -187500.02235174447, -33136.25998929262, 13267.570825525621, -42541.739945619105, 43296.49130064146, -36760.75181493185, -4857.257587582778, -30064.10212088849, -39532.81516227903, -42333.533446017915, 0.028, 0.964, 0.31, 192.0, 0.0, 0.0, 0.0, 0.0, 0.0, 0.0, 0.0, 0.0, 0.0, 1.695766206264877E9, 0.0, 2023-09-26 17:10:06.264
86.0, 47102.5686982356, 65471.366402073676, -25219.160344500586, -36287.14070166835, -379.2420481731949, -4600.078415880014, -187500.02235174447, -33088.06962824698, 13275.840970974084, -42525.95961403366, 43212.515796722866, -36747.787803147774, -4851.513189257764, -30047.919457902844, -39518.17476966081, -42438.51958972449, 0.028, 0.964, 0.31, 192.0, 0.0, 0.0, 0.0, 0.0, 0.0, 0.0, 0.0, 0.0, 0.0, 1.69576620626488E9, 0.0, 2023-09-26 17:10:06.264
88.0, 47105.7202942038, 65475.16619863108, -25213.03596651983, -36287.61008830191, -387.93687676630935, -4611.76837823014, -187500.02235174447, -33109.303785479526, 13269.783648226698, -42527.948919290175, 43283.92962025757, -36747.296064769755, -4844.919424643448, -30045.86309741296, -39508.496464311655, -42343.97171067855, 0.022, 0.966, 0.308, 192.0, 0.0, 88.0, 15.0, 24.0, 4.5, 80.0, 0.0, 0.0, 0.0, 1.695766206264883E9, 0.0, 2023-09-26 17:10:06.264
90.0, 47105.67559071488, 65460.928137413044, -25216.098155510208, -36292.192195915246, -381.49957436318095, -4605.95692467176, -187500.02235174447, -33092.49527364913, 13283.57467455562, -42520.17051221973, 43202.68102916253, -36741.350500744644, -4838.638584451507, -30039.112870587454, -39498.05819965103, -42443.34756652684, 0.022, 0.966, 0.308, 192.0, 0.0, 0.0, 0.0, 0.0, 0.0, 0.0, 0.0, 0.0, 0.0, 1.695766206326276E9, 0.0, 2023-09-26 17:10:06.326
92.0, 47105.09444535905, 65473.66863175257, -25228.48102193845, -36302.94338499825, -396.67640884833446, -4605.4651862937435, -187500.02235174447, -33119.138553039855, 13267.168494125426, -42542.03051829702, 43273.893686997144, -36752.526372972294, -4843.421857764943, -30057.977742907733, -39518.33123187199, -42350.00668168148, 0.022, 0.966, 0.308, 192.0, 0.0, 0.0, 0.0, 0.0, 0.0, 0.0, 0.0, 0.0, 0.0, 1.69576620632629E9, 0.0, 2023-09-26 17:10:06.326
94.0, 47101.67462845739, 65454.11085535418, -25229.598609161214, -36295.813178517004, -389.6356093449127, -4616.059913165559, -187500.02235174447, -33110.39902095783, 13273.538741295188, -42533.067468770445, 43238.734392968945, -36748.838335137174, -4848.965090389859, -30048.03121662512, -39514.41967659231, -42398.912298549694, 0.022, 0.966, 0.308, 192.0, 0.0, 0.0, 0.0, 0.0, 0.0, 0.0, 0.0, 0.0, 0.0, 1.695766206326294E9, 0.0, 2023-09-26 17:10:06.326
96.0, 47107.4190267824, 65471.38875381813, -25225.910571326087, -36290.26994589209, -384.94174300929825, -4596.904468167361, -187500.02235174447, -33101.70419236472, 13267.615529014533, -42531.8381228254, 43278.855774266216, -36750.67117818251, -4848.071020611646, -30045.527821246127, -39514.71024927023, -42334.51692277395, 0.022, 0.966, 0.308, 192.0, 0.0, 0.0, 0.0, 0.0, 0.0, 0.0, 0.0, 0.0, 0.0, 1.695766206326297E9, 0.0, 2023-09-26 17:10:06.326
98.0, 47107.307268060125, 65452.36741928666, -25224.770632358868, -36284.95023071173, -384.0029697421753, -4613.936497442305, -187500.02235174447, -33094.37282018338, 13280.57954079861, -42526.54075938949, 43232.006517887894, -36743.16099204552, -4831.776598903728, -30033.502582729172, -39502.23797586417, -42399.98518228355, 0.028, 0.9560000000000001, 0.314, 192.0, 0.0, 112.0, 14.5, 112.0, 4.5, 104.0, 0.0, 0.0, 0.0, 1.6957662063263E9, 0.0, 2023-09-26 17:10:06.326
100.0, 47107.24021282676, 65470.36057357318, -25232.99607431842, -36291.61105055941, -390.5520308675803, -4590.601276230965, -187500.02235174447, -33098.530244652065, 13277.53970355269, -42532.08399201441, 43248.25623610691, -36744.39033799057, -4836.045782094691, -30037.41413800885, -39509.74816200115, -42364.803536510895, 0.028, 0.9560000000000001, 0.314, 192.0, 0.0, 0.0, 0.0, 0.0, 0.0, 0.0, 0.0, 0.0, 0.0, 1.695766206326303E9, 0.0, 2023-09-26 17:10:06.326
102.0, 47087.95065736183, 65439.02342784684, -25242.65202792311, -36296.95311748423, -397.25755420417244, -4621.737256257207, -187500.02235174447, -33108.946157568236, 13267.14614238097, -42544.01982355354, 43237.706212724, -36758.80721316424, -4859.425706794943, -30047.159498591365, -39521.70634528474, -42388.18346121114, 0.028, 0.9560000000000001, 0.314, 192.0, 0.0, 0.0, 0.0, 0.0, 0.0, 0.0, 0.0, 0.0, 0.0, 1.695766206326306E9, 0.0, 2023-09-26 17:10:06.326
104.0, 47097.04781735514, 65458.558852500784, -25238.31578949878, -36295.410847116815, -387.19926919928423, -4594.155203599358, -187500.02235174447, -33095.98214578416, 13261.893482433974, -42544.869189842844, 43249.68674775204, -36757.711977685925, -4851.177913090934, -30053.462690527762, -39517.325403371506, -42357.62862654074, 0.028, 0.9560000000000001, 0.314, 192.0, 0.0, 0.0, 0.0, 0.0, 0.0, 0.0, 0.0, 0.0, 0.0, 1.695766206326309E9, 0.0, 2023-09-26 17:10:06.326
106.0, 47097.651314455434, 65438.93402086903, -25235.94650458652, -36299.948251241236, -390.03794074510824, -4638.948099487794, -187500.02235174447, -33120.14438154035, 13271.035345916194, -42537.91779731725, 43240.410773803094, -36747.296064769755, -4854.821247437149, -30050.646370726394, -39514.86671148142, -42378.43810062863, 0.028, 0.9560000000000001, 0.314, 192.0, 0.0, 0.0, 0.0, 0.0, 0.0, 0.0, 0.0, 0.0, 0.0, 1.695766206387752E9, 0.0, 2023-09-26 17:10:06.387
108.0, 47093.315076031104, 65461.844558935714, -25234.314827241284, -36316.019155504604, -380.9854842407089, -4590.847145419973, -187500.02235174447, -33096.45153241772, 13257.512540520733, -42550.03244281202, 43240.8578086922, -36756.79555616326, -4850.596767735096, -30068.125434890444, -39512.0280399356, -42367.463394101076, 0.028, 0.9560000000000001, 0.32, 192.0, 0.0, 112.0, 14.5, 112.0, 5.0, 0.0, 0.0, 0.0, 0.0, 1.695766206387763E9, 0.0, 2023-09-26 17:10:06.387
110.0, 47095.81847141009, 65432.87669812163, -25220.926132312554, -36312.50993162512, -380.47139411823684, -4651.733297316229, -187500.02235174447, -33121.93252109677, 13263.748677223764, -42548.870152100346, 43261.91315196909, -36758.494288741866, -4835.978726861325, -30064.437397055317, -39498.013496162115, -42354.63349278373, 0.028, 0.9560000000000001, 0.32, 192.0, 0.0, 0.0, 0.0, 0.0, 0.0, 0.0, 0.0, 0.0, 0.0, 1.695766206387766E9, 0.0, 2023-09-26 17:10:06.387
112.0, 47096.77959642167, 65457.28480306683, -25232.034949306842, -36319.23780670617, -378.1691644393402, -4589.327226797012, -187500.02235174447, -33092.00353527111, 13260.999412655761, -42556.71561440416, 43216.293241535815, -36764.506908000345, -4842.952471131382, -30070.67353375835, -39501.20979561923, -42399.538147394436, 0.028, 0.9560000000000001, 0.32, 192.0, 0.0, 0.0, 0.0, 0.0, 0.0, 0.0, 0.0, 0.0, 0.0, 1.69576620638777E9, 0.0, 2023-09-26 17:10:06.387
114.0, 47097.852480155525, 65435.983590600925, -25234.6053999192, -36308.08428622297, -388.5403738666027, -4637.562291331565, -187500.02235174447, -33129.08507932247, 13266.050906902661, -42546.94790207719, 43264.260085136906, -36755.543858473764, -4847.646337466996, -30058.51418477466, -39510.19519689026, -42358.366234107765, 0.028, 0.9560000000000001, 0.32, 192.0, 0.0, 0.0, 0.0, 0.0, 0.0, 0.0, 0.0, 0.0, 0.0, 1.695766206387773E9, 0.0, 2023-09-26 17:10:06.387
116.0, 47095.30438128762, 65454.46848326546, -25243.009655834398, -36310.90060602434, -378.32562665052734, -4574.955055112249, -187500.02235174447, -33085.812102056996, 13256.707877720342, -42547.819620110946, 43209.721828665955, -36758.47193699741, -4839.487950740809, -30054.42381553934, -39515.783133004086, -42409.171749254674, 0.028, 0.9560000000000001, 0.32, 192.0, 0.0, 0.0, 0.0, 0.0, 0.0, 0.0, 0.0, 0.0, 0.0, 1.695766206387776E9, 0.0, 2023-09-26 17:10:06.387
118.0, 47090.29759052963, 65428.13812829711, -25246.116548313687, -36312.06289673602, -402.13023449542936, -4632.376686617933, -187500.02235174447, -33130.202666545236, 13261.5805580116, -42550.7924021235, 43275.32419864228, -36760.64005620957, -4844.830017665627, -30056.65898998487, -39520.09701968396, -42340.50719028797, 0.028, 0.9580000000000001, 0.324, 192.0, 0.0, 112.0, 14.5, 120.0, 5.0, 16.0, 0.0, 0.0, 0.0, 1.695766206387779E9, 0.0, 2023-09-26 17:10:06.387
120.0, 47089.7164451738, 65447.33827678422, -25248.731702414956, -36308.128989711884, -386.6851790768122, -4570.484706221188, -187500.02235174447, -33083.17459621127, 13257.24431958727, -42551.6417684128, 43208.98422109893, -36761.89175389907, -4857.078773627135, -30056.167251606854, -39520.58875806198, -42411.87631033377, 0.028, 0.9580000000000001, 0.324, 192.0, 0.0, 0.0, 0.0, 0.0, 0.0, 0.0, 0.0, 0.0, 0.0, 1.695766206445265E9, 0.0, 2023-09-26 17:10:06.445
122.0, 47088.643561439945, 65433.56960219975, -25248.307019270305, -36305.22326293269, -395.044731503097, -4626.073494681536, -187500.02235174447, -33129.82268688949, 13253.310412563136, -42554.05575681398, 43292.53504187287, -36766.07153011221, -4852.72018345835, -30055.362588806463, -39522.08632494049, -42321.06117261186, 0.028, 0.9580000000000001, 0.324, 192.0, 0.0, 0.0, 0.0, 0.0, 0.0, 0.0, 0.0, 0.0, 0.0, 1.695766206445279E9, 0.0, 2023-09-26 17:10:06.445
124.0, 47088.73296841776, 65442.823224404245, -25241.489737211436, -36303.591585587455, -374.27996090411676, -4574.440964989778, -187500.02235174447, -33078.59248859793, 13255.277366075203, -42547.05966079947, 43214.50510197939, -36760.88592539858, -4844.315927543155, -30054.870850428448, -39507.6247462779, -42411.138702766744, 0.028, 0.9580000000000001, 0.324, 192.0, 0.0, 0.0, 0.0, 0.0, 0.0, 0.0, 0.0, 0.0, 0.0, 1.695766206445283E9, 0.0, 2023-09-26 17:10:06.445
126.0, 47093.27037254219, 65433.390788244105, -25240.930943600055, -36304.30684141003, -383.15360345287365, -4623.547747558087, -187500.02235174447, -33122.17839028578, 13251.701086962354, -42554.61455042536, 43294.50199538493, -36763.54578298876, -4848.249834567289, -30059.877641186435, -39508.89879571185, -42322.022297623436, 0.028, 0.9580000000000001, 0.324, 192.0, 0.0, 0.0, 0.0, 0.0, 0.0, 0.0, 0.0, 0.0, 0.0, 1.695766206445286E9, 0.0, 2023-09-26 17:10:06.445
128.0, 47082.02744508117, 65435.15657605608, -25239.031045321353, -36309.51479786811, -368.02147245663076, -4583.135793582892, -187500.02235174447, -33084.962735767695, 13254.740924208276, -42556.51444870406, 43213.87925313464, -36763.56813473322, -4843.690078698406, -30054.8932021729, -39500.136911885376, -42421.37580172728, 0.026000000000000002, 0.9580000000000001, 0.328, 192.0, 0.0, 104.0, 14.5, 120.0, 5.0, 32.0, 0.0, 0.0, 0.0, 1.695766206445289E9, 0.0, 2023-09-26 17:10:06.445
130.0, 47088.88943062895, 65430.95444809848, -25238.09227205423, -36304.37389664339, -390.8426035454993, -4624.173596402836, -187500.02235174447, -33130.22501828969, 13249.376505539001, -42562.795288896, 43301.721608844, -36769.737216202884, -4841.946642630893, -30061.822242954047, -39506.32834509949, -42316.16614057614, 0.026000000000000002, 0.9580000000000001, 0.328, 192.0, 0.0, 0.0, 0.0, 0.0, 0.0, 0.0, 0.0, 0.0, 0.0, 1.695766206445293E9, 0.0, 2023-09-26 17:10:06.445
132.0, 47091.72810217478, 65437.592916201706, -25239.791004632832, -36302.20577743123, -372.15654518086257, -4585.348616283967, -187500.02235174447, -33084.24747994512, 13258.741886465776, -42552.08880330191, 43208.29131702081, -36759.7236346869, -4835.1517123164795, -30048.299437558588, -39504.182577631786, -42427.74604889704, 0.026000000000000002, 0.9580000000000001, 0.328, 192.0, 0.0, 0.0, 0.0, 0.0, 0.0, 0.0, 0.0, 0.0, 0.0, 1.695766206445296E9, 0.0, 2023-09-26 17:10:06.445
134.0, 47098.143052833446, 65445.7960064168, -25245.445995980026, -36305.87146352189, -396.92227803734283, -4600.167822857836, -187500.02235174447, -33116.277529749575, 13255.880863175496, -42552.289969002006, 43291.97624826148, -36758.44958525295, -4830.189625047401, -30053.41798703885, -39515.44785683726, -42325.53152150292, 0.026000000000000002, 0.9580000000000001, 0.328, 192.0, 0.0, 0.0, 0.0, 0.0, 0.0, 0.0, 0.0, 0.0, 0.0, 1.695766206445299E9, 0.0, 2023-09-26 17:10:06.445
136.0, 47096.80194816613, 65442.979686615436, -25249.62577219317, -36305.335021654966, -387.3557314104714, -4592.076491365015, -187500.02235174447, -33095.49040740614, 13254.517406763722, -42554.1451637918, 43237.37093655717, -36761.93645738798, -4855.335337559622, -30056.1448998624, -39517.41481034933, -42401.03571427295, 0.026000000000000002, 0.9580000000000001, 0.328, 192.0, 0.0, 0.0, 0.0, 0.0, 0.0, 0.0, 0.0, 0.0, 0.0, 1.695766206505453E9, 0.0, 2023-09-26 17:10:06.505
138.0, 47104.446244769846, 65450.46752100796, -25246.18360354705, -36301.24465241965, -398.28573444911655, -4606.247497349679, -187500.02235174447, -33115.56227392701, 13259.501845777255, -42555.776841137034, 43294.52434712939, -36753.62160845061, -4847.266357811255, -30052.389806793908, -39515.33609811498, -42324.14571334669, 0.03, 0.9540000000000001, 0.328, 192.0, 0.0, 120.0, 14.5, 104.0, 5.0, 32.0, 0.0, 0.0, 0.0, 1.695766206505463E9, 0.0, 2023-09-26 17:10:06.505
140.0, 47097.36074177751, 65438.03995109081, -25244.820147135277, -36300.641155319354, -387.95922851076466, -4598.782014701607, -187500.02235174447, -33096.295070206535, 13260.641784744477, -42559.66604467226, 43229.704288208995, -36754.716843928916, -4851.535541002219, -30055.921382417844, -39517.54892081606, -42408.09886552082, 0.03, 0.9540000000000001, 0.328, 192.0, 0.0, 0.0, 0.0, 0.0, 0.0, 0.0, 0.0, 0.0, 0.0, 1.695766206505467E9, 0.0, 2023-09-26 17:10:06.505
142.0, 47106.99434363775, 65454.33437279873, -25239.008693576896, -36298.9200709963, -393.3459989244937, -4598.782014701607, -187500.02235174447, -33123.56419844201, 13255.679697475398, -42569.99255061061, 43299.57584137629, -36756.14735557406, -4837.029258850725, -30058.268315585654, -39514.55378705905, -42319.965937133544, 0.03, 0.9540000000000001, 0.328, 192.0, 0.0, 0.0, 0.0, 0.0, 0.0, 0.0, 0.0, 0.0, 0.0, 1.69576620650547E9, 0.0, 2023-09-26 17:10:06.505
144.0, 47105.5191285037, 65445.907765139076, -25236.214725519985, -36295.72377153919, -392.78720531311103, -4616.462244565755, -187500.02235174447, -33119.89851235134, 13264.620395257522, -42558.28023651603, 43267.07640493827, -36747.94426535896, -4843.041878109202, -30061.084635387022, -39516.72190627121, -42376.78407153894, 0.03, 0.9540000000000001, 0.328, 192.0, 0.0, 0.0, 0.0, 0.0, 0.0, 0.0, 0.0, 0.0, 0.0, 1.695766206505473E9, 0.0, 2023-09-26 17:10:06.505
146.0, 47119.623079255, 65468.39362006112, -25225.37412945916, -36290.89579473684, -386.57342035453564, -4598.178517601314, -187500.02235174447, -33112.433029703265, 13262.72049697882, -42552.71465214666, 43309.61177463672, -36744.300931012745, -4833.631793693518, -30057.821280696546, -39516.92307197131, -42315.920271387135, 0.03, 0.9540000000000001, 0.328, 192.0, 0.0, 0.0, 0.0, 0.0, 0.0, 0.0, 0.0, 0.0, 0.0, 1.695766206505477E9, 0.0, 2023-09-26 17:10:06.505
148.0, 47109.22951808328, 65438.911669124565, -25221.64138813512, -36291.3651813704, -378.30327490607203, -4628.174558660336, -187500.02235174447, -33108.454419190224, 13275.595101785077, -42537.18018975022, 43256.59343678873, -36733.46033495192, -4814.208127761856, -30042.219763066743, -39498.54993802905, -42389.39045541173, 0.034, 0.962, 0.326, 192.0, 0.5, 8.0, 15.0, 8.0, 5.0, 24.0, 0.0, 0.0, 0.0, 1.69576620650548E9, 0.0, 2023-09-26 17:10:06.505
150.0, 47113.40929429642, 65463.07390488075, -25219.316806711773, -36292.50512033762, -372.983559725709, -4584.722767439219, -187500.02235174447, -33087.197910213225, 13260.999412655761, -42545.7409078766, 43257.33104435576, -36743.65273042354, -4831.128398314524, -30050.37814979293, -39499.846339207455, -42367.48574584553, 0.034, 0.962, 0.326, 192.0, 0.0, 0.0, 0.0, 0.0, 0.0, 0.0, 0.0, 0.0, 0.0, 1.695766206564982E9, 0.0, 2023-09-26 17:10:06.564
152.0, 47106.27908781518, 65441.1468435701, -25225.463536436982, -36296.528434339576, -386.3946063988932, -4621.826663235029, -187500.02235174447, -33110.84605584694, 13266.475590047312, -42540.37648920733, 43249.82085821877, -36741.08227981118, -4832.5142064707525, -30049.193507336797, -39497.812330462024, -42385.702417576606, 0.034, 0.962, 0.326, 192.0, 0.0, 0.0, 0.0, 0.0, 0.0, 0.0, 0.0, 0.0, 0.0, 1.695766206564995E9, 0.0, 2023-09-26 17:10:06.564
154.0, 47113.878680929985, 65462.06807638027, -25222.311940468782, -36298.45068436273, -378.75030979517817, -4585.259209306146, -187500.02235174447, -33096.11625625089, 13262.184055111893, -42545.96442532116, 43259.58857054575, -36740.81405887772, -4833.117703571046, -30055.921382417844, -39505.5236822991, -42359.95320796409, 0.034, 0.962, 0.326, 192.0, 0.0, 0.0, 0.0, 0.0, 0.0, 0.0, 0.0, 0.0, 0.0, 1.695766206564999E9, 0.0, 2023-09-26 17:10:06.564
156.0, 47103.35100929153, 65434.66483767806, -25228.99511206092, -36302.0716669645, -393.3236471800384, -4627.504006326676, -187500.02235174447, -33129.88974212286, 13268.733116237298, -42541.27055898554, 43267.255218893915, -36742.065756567215, -4838.102142584579, -30048.47825151423, -39505.30016485455, -42370.14560343571, 0.034, 0.962, 0.326, 192.0, 0.0, 0.0, 0.0, 0.0, 0.0, 0.0, 0.0, 0.0, 0.0, 1.695766206565002E9, 0.0, 2023-09-26 17:10:06.565
158.0, 47099.528860989674, 65456.591898988714, -25236.974684831464, -36307.99487924515, -388.42861514432616, -4576.787898157585, -187500.02235174447, -33100.22897723067, 13252.773970696207, -42555.17334403674, 43260.4602885795, -36749.12890781509, -4841.790180419705, -30061.218745853752, -39520.70051678426, -42372.760757536984, 0.032, 0.962, 0.318, 192.0, 0.5, 0.0, 15.0, 8.0, 4.5, 120.0, 0.0, 0.0, 0.0, 1.695766206565005E9, 0.0, 2023-09-26 17:10:06.565
160.0, 47100.84761391254, 65428.54045969731, -25237.824051120766, -36307.03375423357, -400.9455920392981, -4645.184236190825, -187500.02235174447, -33141.713814939714, 13253.690392218876, -42556.93913184871, 43312.22692873799, -36751.74406191636, -4830.256680280767, -30062.626905754438, -39521.16990341782, -42324.1904168356, 0.032, 0.962, 0.318, 192.0, 0.0, 0.0, 0.0, 0.0, 0.0, 0.0, 0.0, 0.0, 0.0, 1.695766206565008E9, 0.0, 2023-09-26 17:10:06.565
162.0, 47103.2168988248, 65446.66772445056, -25234.09130979673, -36302.27283266459, -383.3771208974267, -4590.467165764233, -187500.02235174447, -33094.55163413902, 13257.24431958727, -42552.80405912448, 43245.97635817246, -36743.742137401365, -4842.684250197917, -30056.748396962692, -39516.543092315565, -42387.512908877485, 0.032, 0.962, 0.318, 192.0, 0.0, 0.0, 0.0, 0.0, 0.0, 0.0, 0.0, 0.0, 0.0, 1.695766206565012E9, 0.0, 2023-09-26 17:10:06.565
164.0, 47094.27620104268, 65423.44426196149, -25238.47225170997, -36300.97643148618, -398.91158329386514, -4638.67987855433, -187500.02235174447, -33127.87808512188, 13257.758409709742, -42548.26665500005, 43273.7148730415, -36750.04532933776, -4845.813494421661, -30055.384940550917, -39514.643194036864, -42360.26613238647, 0.032, 0.962, 0.318, 192.0, 0.0, 0.0, 0.0, 0.0, 0.0, 0.0, 0.0, 0.0, 0.0, 1.695766206565015E9, 0.0, 2023-09-26 17:10:06.565
166.0, 47091.79515740814, 65441.929154626036, -25238.38284473215, -36306.85494027793, -385.0982052204854, -4579.939494125783, -187500.02235174447, -33092.60703237141, 13244.90615664794, -42563.890524374314, 43232.25238707691, -36761.914105643526, -4848.160427589468, -30062.76101622117, -39521.32636562901, -42402.42152242918, 0.032, 0.962, 0.318, 192.0, 0.0, 0.0, 0.0, 0.0, 0.0, 0.0, 0.0, 0.0, 0.0, 1.695766206624531E9, 0.0, 2023-09-26 17:10:06.624
168.0, 47096.22080281029, 65424.04775906179, -25235.52182144187, -36306.54201585556, -394.19536521379536, -4637.6293465649305, -187500.02235174447, -33133.04133809106, 13251.72343870681, -42559.86721037236, 43291.19393720555, -36754.06864333971, -4847.266357811255, -30059.788234208612, -39512.989164947176, -42339.50136178749, 0.03, 0.9560000000000001, 0.314, 192.0, 0.0, 120.0, 14.5, 112.0, 4.5, 104.0, 0.0, 0.0, 0.0, 1.695766206624543E9, 0.0, 2023-09-26 17:10:06.624
170.0, 47091.99632310824, 65444.76782617186, -25247.56941170328, -36315.3709549154, -390.37321691193785, -4582.040558104582, -187500.02235174447, -33104.27464297708, 13246.783703182185, -42556.91678010426, 43222.104695094196, -36749.21831479291, -4843.153636831479, -30064.32563833304, -39515.93959521528, -42414.93849932415, 0.03, 0.9560000000000001, 0.314, 192.0, 0.0, 0.0, 0.0, 0.0, 0.0, 0.0, 0.0, 0.0, 0.0, 1.695766206624546E9, 0.0, 2023-09-26 17:10:06.624
172.0, 47099.28299180067, 65439.98455285843, -25240.595667433223, -36303.70334430973, -395.335304181016, -4639.2163204212575, -187500.02235174447, -33142.138498084365, 13247.4766072603, -42559.88956211681, 43318.12778927419, -36749.687701426476, -4840.113799585557, -30064.70561798878, -39519.60528130594, -42306.063152082344, 0.03, 0.9560000000000001, 0.314, 192.0, 0.0, 0.0, 0.0, 0.0, 0.0, 0.0, 0.0, 0.0, 0.0, 1.695766206624549E9, 0.0, 2023-09-26 17:10:06.624
174.0, 47098.701846444834, 65449.9981343744, -25241.13210930015, -36301.60228033093, -383.80180404207755, -4586.935590140294, -187500.02235174447, -33090.483616648155, 13251.589328240078, -42551.32884399043, 43236.61097724569, -36742.55749494523, -4849.143904345501, -30053.485042272216, -39514.06204868103, -42397.32532469337, 0.03, 0.9560000000000001, 0.314, 192.0, 0.0, 0.0, 0.0, 0.0, 0.0, 0.0, 0.0, 0.0, 0.0, 1.695766206624553E9, 0.0, 2023-09-26 17:10:06.624
176.0, 47099.70767494532, 65434.06134057777, -25247.56941170328, -36305.335021654966, -397.65988560436796, -4629.560366816565, -187500.02235174447, -33132.571951457496, 13248.884767160986, -42551.68647190172, 43312.830425838285, -36744.03271007928, -4848.495703756297, -30054.0438358836, -39516.49838882666, -42304.8338061373, 0.03, 0.9560000000000001, 0.314, 192.0, 0.0, 0.0, 0.0, 0.0, 0.0, 0.0, 0.0, 0.0, 0.0, 1.695766206624556E9, 0.0, 2023-09-26 17:10:06.624
178.0, 47095.84082315455, 65434.173099300046, -25247.74822565892, -36309.62655659039, -384.53941160910273, -4594.177555343814, -187500.02235174447, -33094.10459924991, 13253.221005585314, -42555.62037892585, 43212.426389745044, -36754.426271250995, -4843.153636831479, -30056.033141140124, -39515.649022537356, -42423.655679661715, 0.032, 0.9500000000000001, 0.316, 192.0, 0.5, 0.0, 14.5, 88.0, 4.5, 112.0, 0.0, 0.0, 0.0, 1.695766206624559E9, 0.0, 2023-09-26 17:10:06.624
180.0, 47099.77473017869, 65433.3460847552, -25245.110719813198, -36306.81023678902, -388.4956703776921, -4622.586622546509, -187500.02235174447, -33121.08315480747, 13247.990697382773, -42560.18013479473, 43284.153137702124, -36753.84512589516, -4840.829055408127, -30061.017580153657, -39514.06204868103, -42332.68407972861, 0.032, 0.9500000000000001, 0.316, 192.0, 0.0, 0.0, 0.0, 0.0, 0.0, 0.0, 0.0, 0.0, 0.0, 1.695766206684764E9, 0.0, 2023-09-26 17:10:06.684
182.0, 47101.004076123725, 65434.8436516337, -25242.517917456382, -36301.982259986675, -374.59288532649106, -4584.454546505755, -187500.02235174447, -33080.425331643266, 13252.975136396306, -42552.93816959121, 43203.440988474016, -36748.838335137174, -4841.477255997331, -30049.349969547984, -39501.098036896954, -42432.73048791057, 0.032, 0.9500000000000001, 0.316, 192.0, 0.0, 0.0, 0.0, 0.0, 0.0, 0.0, 0.0, 0.0, 0.0, 1.695766206684786E9, 0.0, 2023-09-26 17:10:06.684
184.0, 47095.37143652099, 65429.970971342445, -25251.19039430504, -36306.5196641111, -389.5014988781809, -4607.543898528087, -187500.02235174447, -33117.79744837254, 13238.625316455998, -42562.41530924026, 43281.22505917848, -36759.45541375344, -4839.040915851702, -30061.688132487314, -39514.15145565885, -42336.550931519385, 0.032, 0.9500000000000001, 0.316, 192.0, 0.0, 0.0, 0.0, 0.0, 0.0, 0.0, 0.0, 0.0, 0.0, 1.69576620668479E9, 0.0, 2023-09-26 17:10:06.684
186.0, 47078.83114562406, 65414.12358452363, -25252.46444373899, -36314.09690548145, -381.3207604075385, -4597.753834456663, -187500.02235174447, -33102.59826214293, 13235.920755376907, -42570.30547503298, 43210.92882286654, -36767.792614435275, -4850.596767735096, -30061.084635387022, -39509.01055443413, -42430.9647000986, 0.032, 0.9500000000000001, 0.316, 192.0, 0.0, 0.0, 0.0, 0.0, 0.0, 0.0, 0.0, 0.0, 0.0, 1.695766206684793E9, 0.0, 2023-09-26 17:10:06.684
188.0, 47086.45309048332, 65420.113852037655, -25250.966876860486, -36313.76162931462, -386.30519942107196, -4603.855860692962, -187500.02235174447, -33118.69151815075, 13232.47858673079, -42578.799137926, 43271.166774173595, -36771.01126563684, -4853.703660214384, -30067.43253081233, -39512.94446145826, -42349.62670202574, 0.034, 0.9480000000000001, 0.316, 192.0, 0.5, 8.0, 14.5, 80.0, 4.5, 112.0, 0.0, 0.0, 0.0, 1.695766206684804E9, 0.0, 2023-09-26 17:10:06.684
190.0, 47088.911782373405, 65410.41319494405, -25249.581068704258, -36312.12995196938, -386.5063651211697, -4609.667314251342, -187500.02235174447, -33103.35822145441, 13241.039304857171, -42570.19371631071, 43217.07555259175, -36755.70032068495, -4843.243043809301, -30066.13612963392, -39511.312784113026, -42423.67803140617, 0.034, 0.9480000000000001, 0.316, 192.0, 0.0, 0.0, 0.0, 0.0, 0.0, 0.0, 0.0, 0.0, 0.0, 1.695766206684808E9, 0.0, 2023-09-26 17:10:06.684
192.0, 47096.86900339949, 65432.072035321245, -25249.581068704258, -36317.919053783306, -399.4256734163372, -4601.017189147137, -187500.02235174447, -33118.82562861748, 13237.507729233233, -42575.26756230206, 43266.13763167115, -36765.7809574343, -4848.2945380562, -30069.310077346574, -39521.5275313291, -42357.315702118365, 0.034, 0.9480000000000001, 0.316, 192.0, 0.0, 0.0, 0.0, 0.0, 0.0, 0.0, 0.0, 0.0, 0.0, 1.695766206684811E9, 0.0, 2023-09-26 17:10:06.684
194.0, 47086.98953235025, 65411.66489263355, -25252.03976059434, -36318.835475305976, -387.98158025521997, -4617.713942255252, -187500.02235174447, -33105.794561600036, 13242.447464757857, -42568.56203896547, 43224.250462561904, -36758.4272335085, -4848.160427589468, -30070.315905847063, -39514.21851089221, -42419.58766217085, 0.034, 0.9480000000000001, 0.316, 192.0, 0.0, 0.0, 0.0, 0.0, 0.0, 0.0, 0.0, 0.0, 0.0, 1.695766206684814E9, 0.0, 2023-09-26 17:10:06.684
196.0, 47087.302456772624, 65424.07011080624, -25256.86773739669, -36323.171713730306, -392.6754465908345, -4594.713997210741, -187500.02235174447, -33108.230901745665, 13227.181223294881, -42579.268524559564, 43268.90924798361, -36767.70320745745, -4841.298442041689, -30076.395580338907, -39519.73939177268, -42350.65488227068, 0.034, 0.9480000000000001, 0.316, 192.0, 0.0, 0.0, 0.0, 0.0, 0.0, 0.0, 0.0, 0.0, 0.0, 1.695766206745137E9, 0.0, 2023-09-26 17:10:06.745
198.0, 47082.45212822582, 65394.454049402964, -25257.068903096784, -36321.271815451604, -395.044731503097, -4629.605070305475, -187500.02235174447, -33119.78675362906, 13237.977115866795, -42575.42402451325, 43230.39719228711, -36764.5292597448, -4859.135134117024, -30071.433493069828, -39516.38663010438, -42401.92978405116, 0.036000000000000004, 0.9480000000000001, 0.316, 192.0, 0.5, 16.0, 14.5, 80.0, 4.5, 112.0, 0.0, 0.0, 0.0, 1.695766206745148E9, 0.0, 2023-09-26 17:10:06.745
200.0, 47085.782538149666, 65417.386939214106, -25260.46636825399, -36330.14545800036, -392.6083913574686, -4595.831584433507, -187500.02235174447, -33108.722640123684, 13233.395008253457, -42577.34627453641, 43223.95988988398, -36765.266867311824, -4847.601633978085, -30076.57439429455, -39521.505179584645, -42393.97256302507, 0.036000000000000004, 0.9480000000000001, 0.316, 192.0, 0.0, 0.0, 0.0, 0.0, 0.0, 0.0, 0.0, 0.0, 0.0, 1.695766206745152E9, 0.0, 2023-09-26 17:10:06.745
202.0, 47085.46961372729, 65388.84376154468, -25255.884260640654, -36323.5740451305, -395.22354545873947, -4636.467055853254, -187500.02235174447, -33130.85086713444, 13233.998505353751, -42582.10719610539, 43227.200892830006, -36772.50883251534, -4849.836808423616, -30078.206071639786, -39521.16990341782, -42406.02015328648, 0.036000000000000004, 0.9480000000000001, 0.316, 192.0, 0.0, 0.0, 0.0, 0.0, 0.0, 0.0, 0.0, 0.0, 0.0, 1.695766206745155E9, 0.0, 2023-09-26 17:10:06.745
204.0, 47079.90402935792, 65409.85440133267, -25256.957144374508, -36324.848094564455, -385.8358127875105, -4580.3418255259785, -187500.02235174447, -33102.732372609666, 13225.795415138653, -42586.93517290773, 43209.65477343259, -36779.81785295223, -4845.522921743742, -30079.368362351463, -39516.140760915376, -42410.42344694417, 0.036000000000000004, 0.9480000000000001, 0.316, 192.0, 0.0, 0.0, 0.0, 0.0, 0.0, 0.0, 0.0, 0.0, 0.0, 1.695766206745158E9, 0.0, 2023-09-26 17:10:06.745
206.0, 47078.07118631258, 65389.58136911171, -25259.03585660885, -36319.79660031755, -395.335304181016, -4634.276584896635, -187500.02235174447, -33133.53307646907, 13229.61756344051, -42583.671818217255, 43236.141590612126, -36782.09773088667, -4853.211921836367, -30071.72406574775, -39514.240862636674, -42389.613972856285, 0.036000000000000004, 0.9480000000000001, 0.316, 192.0, 0.0, 0.0, 0.0, 0.0, 0.0, 0.0, 0.0, 0.0, 0.0, 1.695766206745162E9, 0.0, 2023-09-26 17:10:06.745
208.0, 47086.74366316124, 65425.008884073366, -25253.984362361953, -36316.66735609381, -384.7629290536558, -4574.977406856705, -187500.02235174447, -33094.57398588348, 13226.935354105874, -42584.61059148438, 43215.55563396879, -36772.55353600425, -4838.303308284678, -30078.071961173056, -39514.39732484786, -42400.18634798365, 0.034, 0.9580000000000001, 0.312, 192.0, 0.5, 8.0, 14.5, 120.0, 4.5, 96.0, 0.0, 0.0, 0.0, 1.695766206745165E9, 0.0, 2023-09-26 17:10:06.745
210.0, 47093.5162417312, 65404.33352045221, -25252.66560943909, -36307.078457722484, -398.7327693382227, -4626.72169527074, -187500.02235174447, -33119.987919329156, 13238.915889133918, -42572.11596633386, 43254.313558854294, -36761.779995176796, -4857.592863749607, -30070.42766456934, -39514.71024927023, -42364.55766732188, 0.034, 0.9580000000000001, 0.312, 192.0, 0.0, 0.0, 0.0, 0.0, 0.0, 0.0, 0.0, 0.0, 0.0, 1.695766206805356E9, 0.0, 2023-09-26 17:10:06.805
212.0, 47096.62313421049, 65431.289724265305, -25255.258411795905, -36309.49244612366, -386.59577209899095, -4559.733517138186, -187500.02235174447, -33077.29608741952, 13238.066522844616, -42564.22580054114, 43192.55568892428, -36755.70032068495, -4846.416991521954, -30064.459748799774, -39512.698592269255, -42426.89668260774, 0.034, 0.9580000000000001, 0.312, 192.0, 0.0, 0.0, 0.0, 0.0, 0.0, 0.0, 0.0, 0.0, 0.0, 1.695766206805368E9, 0.0, 2023-09-26 17:10:06.805
214.0, 47098.008942366716, 65412.84953508968, -25250.765711160388, -36303.725696054185, -395.46941464774784, -4621.334924857012, -187500.02235174447, -33122.80423913053, 13240.324049034602, -42564.65048368579, 43245.439916305535, -36757.89079164157, -4849.814456679161, -30063.76684472166, -39514.86671148142, -42370.19030692462, 0.034, 0.9580000000000001, 0.312, 192.0, 0.0, 0.0, 0.0, 0.0, 0.0, 0.0, 0.0, 0.0, 0.0, 1.695766206805372E9, 0.0, 2023-09-26 17:10:06.805
216.0, 47096.265506299205, 65431.021503331845, -25258.342952530737, -36314.54394037055, -382.08071971901893, -4568.80832538704, -187500.02235174447, -33089.25427070311, 13237.999467611251, -42566.3939197533, 43179.859898073664, -36752.03463459428, -4848.808628178672, -30062.984533665724, -39511.089266668474, -42441.559426970416, 0.034, 0.9580000000000001, 0.312, 192.0, 0.0, 0.0, 0.0, 0.0, 0.0, 0.0, 0.0, 0.0, 0.0, 1.695766206805375E9, 0.0, 2023-09-26 17:10:06.805
218.0, 47101.629924968474, 65413.94477056799, -25252.620905950178, -36309.04541123455, -386.99810349918647, -4626.945212715294, -187500.02235174447, -33125.06176532051, 13239.184110067381, -42567.466803487165, 43244.83641920524, -36760.46124225393, -4839.644412951996, -30065.107949388977, -39514.7773045036, -42369.67621680215, 0.032, 0.9580000000000001, 0.312, 192.0, 0.5, 0.0, 14.5, 120.0, 4.5, 96.0, 0.0, 0.0, 0.0, 1.695766206805378E9, 0.0, 2023-09-26 17:10:06.805
220.0, 47092.15278531943, 65427.35581724117, -25256.688923441045, -36315.14743747085, -380.78431854061114, -4564.963825340727, -187500.02235174447, -33082.995782255624, 13238.848833900553, -42567.33269302043, 43161.10678447566, -36756.70614918544, -4838.86210189606, -30066.225536611742, -39507.825911978, -42463.06180513642, 0.032, 0.9580000000000001, 0.312, 192.0, 0.0, 0.0, 0.0, 0.0, 0.0, 0.0, 0.0, 0.0, 0.0, 1.695766206805382E9, 0.0, 2023-09-26 17:10:06.805
222.0, 47091.16930856339, 65409.31795946574, -25258.208842064007, -36317.89670203885, -395.4023594143819, -4619.189157389303, -187500.02235174447, -33127.16282929931, 13235.071389087605, -42572.987684367625, 43248.77032622937, -36762.58465797718, -4847.355764789077, -30069.71240874677, -39514.91141497033, -42359.550876563895, 0.032, 0.9580000000000001, 0.312, 192.0, 0.0, 0.0, 0.0, 0.0, 0.0, 0.0, 0.0, 0.0, 0.0, 1.695766206805385E9, 0.0, 2023-09-26 17:10:06.805
224.0, 47090.92343937438, 65413.90006707908, -25251.27980128286, -36318.120219483404, -376.2692661606391, -4573.256322533646, -187500.02235174447, -33085.43212240125, 13235.786644910175, -42576.698073947206, 43172.61793287015, -36770.81009993674, -4850.753229946284, -30066.449054056295, -39510.08343816798, -42445.98507237257, 0.032, 0.9580000000000001, 0.312, 192.0, 0.0, 0.0, 0.0, 0.0, 0.0, 0.0, 0.0, 0.0, 0.0, 1.695766206805388E9, 0.0, 2023-09-26 17:10:06.805
226.0, 47087.48127072827, 65408.62505538763, -25254.274935039874, -36319.05899275053, -395.0000280141864, -4615.948154443283, -187500.02235174447, -33128.995672344645, 13232.5232902197, -42579.42498677075, 43256.2581606219, -36770.13954760308, -4839.2420815518, -30071.992286681212, -39513.95028995875, -42347.83856246931, 0.032, 0.9580000000000001, 0.312, 192.0, 0.0, 0.0, 0.0, 0.0, 0.0, 0.0, 0.0, 0.0, 0.0, 1.695766206864885E9, 0.0, 2023-09-26 17:10:06.864
228.0, 47084.284971271154, 65410.14497401059, -25253.202051306016, -36319.81895206201, -375.3751963824268, -4574.038633589582, -187500.02235174447, -33082.0570089885, 13238.04417110016, -42571.42306225575, 43171.52269739183, -36760.21537306492, -4846.081715355124, -30063.23040285473, -39503.467321809214, -42453.718775954105, 0.032, 0.9540000000000001, 0.314, 192.0, 0.5, 0.0, 14.5, 104.0, 4.5, 104.0, 0.0, 0.0, 0.0, 1.695766206864906E9, 0.0, 2023-09-26 17:10:06.864
230.0, 47089.78350040716, 65409.697939121485, -25252.017408849886, -36312.12995196938, -393.50246113568085, -4606.471014794232, -187500.02235174447, -33127.676919421785, 13229.751673907242, -42583.56005949498, 43263.56718105879, -36771.39124529258, -4846.528750244231, -30070.405312824885, -39516.543092315565, -42345.15635313468, 0.032, 0.9540000000000001, 0.314, 192.0, 0.0, 0.0, 0.0, 0.0, 0.0, 0.0, 0.0, 0.0, 0.0, 1.69576620686491E9, 0.0, 2023-09-26 17:10:06.864
232.0, 47089.98466610726, 65412.51425892285, -25249.37990300416, -36309.4700943792, -377.8338882725106, -4582.889924393884, -187500.02235174447, -33096.295070206535, 13239.832310656586, -42567.667969187256, 43185.0902062762, -36759.20954456444, -4842.393677519998, -30062.537498776615, -39508.719981756214, -42449.248427063045, 0.032, 0.9540000000000001, 0.314, 192.0, 0.0, 0.0, 0.0, 0.0, 0.0, 0.0, 0.0, 0.0, 0.0, 1.695766206864913E9, 0.0, 2023-09-26 17:10:06.864
234.0, 47095.192622565344, 65422.23726776091, -25258.767635675387, -36317.919053783306, -393.7036268357786, -4599.273753079624, -187500.02235174447, -33129.95679735622, 13233.931450120384, -42568.18205930973, 43260.77321300188, -36750.40295724904, -4833.76590416025, -30069.399484324396, -39515.693726026264, -42352.39831833819, 0.032, 0.9540000000000001, 0.314, 192.0, 0.0, 0.0, 0.0, 0.0, 0.0, 0.0, 0.0, 0.0, 0.0, 1.695766206864916E9, 0.0, 2023-09-26 17:10:06.864
236.0, 47094.991456865246, 65410.34613971069, -25256.17483331857, -36313.783981059074, -385.5005366206809, -4593.439947776788, -187500.02235174447, -33106.50981742261, 13235.697237932354, -42566.7962511535, 43202.792787884806, -36753.08516658368, -4862.063212640669, -30067.14195813441, -39522.64511855187, -42428.43895297515, 0.032, 0.9540000000000001, 0.314, 192.0, 0.0, 0.0, 0.0, 0.0, 0.0, 0.0, 0.0, 0.0, 0.0, 1.695766206864919E9, 0.0, 2023-09-26 17:10:06.864
238.0, 47101.33935229055, 65425.18769802901, -25251.324504771772, -36309.537149612566, -388.9203535223429, -4585.080395350504, -187500.02235174447, -33109.79552385754, 13233.260897786726, -42564.35991100787, 43252.52541929787, -36752.92870437249, -4845.165293832457, -30067.700751745793, -39522.86863599642, -42362.00956845398, 0.03, 0.9540000000000001, 0.318, 192.0, 0.0, 120.0, 14.5, 104.0, 4.5, 120.0, 0.0, 0.0, 0.0, 1.695766206864922E9, 0.0, 2023-09-26 17:10:06.864
240.0, 47102.65810521342, 65414.14593626809, -25239.56748718828, -36298.5177395961, -364.758117766156, -4580.878267392906, -187500.02235174447, -33083.420465400275, 13243.09566534706, -42555.53097194803, 43209.18538679903, -36740.67994841099, -4844.4276862654315, -30052.926248660835, -39503.10969389793, -42427.67899366367, 0.03, 0.9540000000000001, 0.318, 192.0, 0.0, 0.0, 0.0, 0.0, 0.0, 0.0, 0.0, 0.0, 0.0, 1.695766206924669E9, 0.0, 2023-09-26 17:10:06.924
242.0, 47109.98947739476, 65433.94958185549, -25240.014522077385, -36302.16107394231, -376.2916179050944, -4564.7850113850845, -187500.02235174447, -33096.630346373364, 13240.704028690343, -42558.57080919395, 43253.28537860935, -36746.89373336956, -4833.117703571046, -30052.94860040529, -39503.51202529812, -42365.11646093327, 0.03, 0.9540000000000001, 0.318, 192.0, 0.0, 0.0, 0.0, 0.0, 0.0, 0.0, 0.0, 0.0, 0.0, 1.695766206924693E9, 0.0, 2023-09-26 17:10:06.924
244.0, 47105.85440467053, 65413.45303218997, -25239.008693576896, -36302.63046057588, -371.530696336114, -4584.163973827836, -187500.02235174447, -33094.64104111684, 13256.797284698163, -42542.32109097494, 43208.62659318765, -36734.10853554113, -4832.67066868194, -30040.27516129913, -39497.588813017464, -42430.428258231674, 0.03, 0.9540000000000001, 0.318, 192.0, 0.0, 0.0, 0.0, 0.0, 0.0, 0.0, 0.0, 0.0, 0.0, 1.695766206924697E9, 0.0, 2023-09-26 17:10:06.924
246.0, 47094.32090453159, 65423.57837242823, -25249.42460649307, -36317.44966714975, -373.56470508154695, -4559.219427015713, -187500.02235174447, -33098.239671974145, 13239.832310656586, -42558.57080919395, 43232.96764289947, -36749.397128748555, -4837.610404206563, -30054.356760305975, -39502.506196797636, -42388.94342052262, 0.03, 0.9540000000000001, 0.318, 192.0, 0.0, 0.0, 0.0, 0.0, 0.0, 0.0, 0.0, 0.0, 0.0, 1.6957662069247E9, 0.0, 2023-09-26 17:10:06.924
248.0, 47083.4132532374, 65389.17903771151, -25251.682132683058, -36316.019155504604, -377.00687372766424, -4610.270811351635, -187500.02235174447, -33118.15507628382, 13234.825519898597, -42566.349216264396, 43208.8501106322, -36758.31547478622, -4842.304270542178, -30061.28580108712, -39501.67918225279, -42424.81797037339, 0.032, 0.9560000000000001, 0.32, 192.0, 0.5, 0.0, 14.5, 112.0, 5.0, 0.0, 0.0, 0.0, 0.0, 1.695766206924712E9, 0.0, 2023-09-26 17:10:06.924
250.0, 47084.19556429334, 65412.11192752265, -25256.80068216332, -36314.834513048474, -376.4480801162816, -4566.461392219233, -187500.02235174447, -33099.223148730176, 13221.794452881153, -42581.14607109381, 43202.68102916253, -36769.31253305823, -4839.443247251898, -30073.936888448825, -39515.358449859435, -42417.59835691433, 0.032, 0.9560000000000001, 0.32, 192.0, 0.0, 0.0, 0.0, 0.0, 0.0, 0.0, 0.0, 0.0, 0.0, 1.695766206924715E9, 0.0, 2023-09-26 17:10:06.924
252.0, 47080.038139824646, 65391.52597087932, -25258.968801375486, -36307.32432691149, -387.8251180440328, -4603.3864740594, -187500.02235174447, -33108.92380582378, 13234.110264076027, -42565.61160869737, 43217.27671829185, -36755.14152707357, -4852.787238691716, -30061.151690620387, -39509.9269759568, -42419.3641447263, 0.032, 0.9560000000000001, 0.32, 192.0, 0.0, 0.0, 0.0, 0.0, 0.0, 0.0, 0.0, 0.0, 0.0, 1.695766206924718E9, 0.0, 2023-09-26 17:10:06.924
254.0, 47087.615381195, 65423.06428230576, -25262.299211299327, -36310.38651590187, -385.5005366206809, -4558.615929915421, -187500.02235174447, -33096.429180673265, 13231.897441374951, -42566.75154766459, 43207.35254375369, -36746.536105458275, -4858.442230038909, -30064.795024966603, -39517.57127256051, -42420.25821450451, 0.032, 0.9560000000000001, 0.32, 192.0, 0.0, 0.0, 0.0, 0.0, 0.0, 0.0, 0.0, 0.0, 0.0, 1.695766206924721E9, 0.0, 2023-09-26 17:10:06.924
0.0, 47098.634791211465, 65399.39378492758, -25259.57229847578, -36307.32432691149, -392.3401704240049, -4612.550689286076, -187500.02235174447, -33130.38148050087, 13240.14523507896, -42559.621341183345, 43229.79369518682, -36744.09976531265, -4844.047706609691, -30059.85528944198, -39518.06301093853, -42407.718885865084, 0.032, 0.9560000000000001, 0.32, 192.0, 0.0, 0.0, 0.0, 0.0, 0.0, 0.0, 0.0, 0.0, 0.0, 1.695766206985016E9, 0.0, 2023-09-26 17:10:06.985
2.0, 47094.81264290961, 65422.12550903863, -25261.71806594349, -36311.772324058096, -385.88051627642113, -4560.873456105406, -187500.02235174447, -33104.09582902143, 13241.933374635384, -42559.82250688344, 43193.82973835823, -36747.2737130253, -4848.965090389859, -30062.939830176812, -39520.38759236188, -42442.609958959816, 0.032, 0.9560000000000001, 0.326, 192.0, 0.5, 0.0, 14.5, 112.0, 5.0, 24.0, 0.0, 0.0, 0.0, 1.695766206985027E9, 0.0, 2023-09-26 17:10:06.985
4.0, 47096.57843072157, 65398.030328515815, -25259.549946731324, -36309.313632168014, -388.0709872330412, -4615.456416065266, -187500.02235174447, -33134.673015436296, 13246.38137178199, -42559.66604467226, 43242.06480289278, -36742.71395715642, -4843.846540909593, -30062.0457603986, -39516.543092315565, -42395.403074670205, 0.032, 0.9560000000000001, 0.326, 192.0, 0.0, 0.0, 0.0, 0.0, 0.0, 0.0, 0.0, 0.0, 0.0, 1.695766206985031E9, 0.0, 2023-09-26 17:10:06.985
6.0, 47093.29272428664, 65415.82231710223, -25265.38375203416, -36316.39913516035, -378.63855107290163, -4554.2796914910905, -187500.02235174447, -33083.487520633644, 13241.396932768457, -42566.550381964495, 43177.04357827229, -36749.59829444865, -4841.097276341591, -30066.650219756393, -39517.034830693585, -42458.59145624536, 0.032, 0.9560000000000001, 0.326, 192.0, 0.0, 0.0, 0.0, 0.0, 0.0, 0.0, 0.0, 0.0, 0.0, 1.695766206985034E9, 0.0, 2023-09-26 17:10:06.985
8.0, 47088.487099228754, 65393.671738347024, -25269.876452669676, -36318.65666135033, -397.34696118199366, -4608.996761917682, -187500.02235174447, -33126.24640777664, 13238.33474377808, -42567.042120342514, 43244.63525350514, -36755.45445149594, -4845.344107788099, -30066.538461034117, -39518.644156294366, -42383.91427802018, 0.032, 0.9560000000000001, 0.326, 192.0, 0.0, 0.0, 0.0, 0.0, 0.0, 0.0, 0.0, 0.0, 0.0, 1.695766206985038E9, 0.0, 2023-09-26 17:10:06.985
10.0, 47083.50266021522, 65409.407366443564, -25264.154406089117, -36318.120219483404, -375.86693476044354, -4553.765601368618, -187500.02235174447, -33090.72948583716, 13230.645743685454, -42572.786518667526, 43199.3953227276, -36762.91993414402, -4840.091447841102, -30068.90774594638, -39516.58779580448, -42432.2163977881, 0.032, 0.9560000000000001, 0.326, 192.0, 0.0, 0.0, 0.0, 0.0, 0.0, 0.0, 0.0, 0.0, 0.0, 1.695766206985041E9, 0.0, 2023-09-26 17:10:06.985
12.0, 47090.54345971864, 65390.609549356646, -25250.631600693658, -36299.85884426342, -373.27413240362796, -4601.95596241426, -187500.02235174447, -33120.09967805143, 13238.960592622829, -42562.61647494036, 43266.04822469333, -36749.03950083727, -4845.858197910571, -30059.43060629733, -39495.26423159412, -42358.075661429844, 0.036000000000000004, 0.96, 0.322, 192.0, 0.5, 16.0, 15.0, 0.0, 5.0, 8.0, 0.0, 0.0, 0.0, 1.695766206985045E9, 0.0, 2023-09-26 17:10:06.985
14.0, 47087.83889863955, 65397.739755837894, -25259.72876068697, -36312.66639383631, -373.7211672927341, -4551.843351345462, -187500.02235174447, -33086.30384043501, 13238.737075178275, -42563.532896463024, 43173.75787183736, -36752.57107646121, -4842.416029264454, -30055.094367873, -39496.38181881688, -42464.31350282592, 0.036000000000000004, 0.96, 0.322, 192.0, 0.0, 0.0, 0.0, 0.0, 0.0, 0.0, 0.0, 0.0, 0.0, 1.695766207045228E9, 0.0, 2023-09-26 17:10:07.045
16.0, 47089.98466610726, 65389.58136911171, -25261.94158338804, -36310.54297811305, -391.66961809034564, -4601.19600310278, -187500.02235174447, -33132.59430320195, 13235.674886187899, -42567.37739650934, 43251.83251521975, -36758.85191665315, -4842.997174620292, -30064.75032147769, -39509.47994106769, -42369.67621680215, 0.036000000000000004, 0.96, 0.322, 192.0, 0.0, 0.0, 0.0, 0.0, 0.0, 0.0, 0.0, 0.0, 0.0, 1.695766207045243E9, 0.0, 2023-09-26 17:10:07.045
18.0, 47088.93413411786, 65393.55997962475, -25264.154406089117, -36310.721792068696, -381.0748912185301, -4562.19220902827, -187500.02235174447, -33101.48067492017, 13240.011124612229, -42558.45905047167, 43163.96780776594, -36746.35729150263, -4849.702697956884, -30062.448091798797, -39511.357487601934, -42474.23767736408, 0.036000000000000004, 0.96, 0.322, 192.0, 0.0, 0.0, 0.0, 0.0, 0.0, 0.0, 0.0, 0.0, 0.0, 1.695766207045246E9, 0.0, 2023-09-26 17:10:07.045
20.0, 47085.80488989412, 65388.79905805577, -25268.825920680276, -36314.05220199254, -398.5316036381249, -4600.368988557933, -187500.02235174447, -33143.45725100723, 13231.718627419308, -42561.923570862244, 43246.781020972856, -36743.42921297899, -4847.95926188937, -30066.20318486729, -39516.341926615474, -42373.38660638173, 0.036000000000000004, 0.96, 0.322, 192.0, 0.0, 0.0, 0.0, 0.0, 0.0, 0.0, 0.0, 0.0, 0.0, 1.695766207045249E9, 0.0, 2023-09-26 17:10:07.045
22.0, 47080.84280262504, 65390.20721795646, -25269.675286969577, -36320.73537358468, -383.44417613079264, -4566.595502685965, -187500.02235174447, -33105.05695403301, 13231.740979163764, -42561.52123946205, 43169.57809562422, -36750.090032826665, -4852.049631124692, -30067.074902901044, -39522.555711574045, -42472.11426164082, 0.034, 0.9560000000000001, 0.32, 192.0, 0.5, 8.0, 14.5, 112.0, 5.0, 0.0, 0.0, 0.0, 0.0, 1.695766207045253E9, 0.0, 2023-09-26 17:10:07.045
24.0, 47087.70478817282, 65393.71644183594, -25269.5635282473, -36317.69553633875, -393.88244079142106, -4587.024997118116, -187500.02235174447, -33133.24250379115, 13227.583554695077, -42569.32199827695, 43273.80428001932, -36752.88400088358, -4859.023375394747, -30072.238155870218, -39523.56154007454, -42348.68792875861, 0.034, 0.9560000000000001, 0.32, 192.0, 0.0, 0.0, 0.0, 0.0, 0.0, 0.0, 0.0, 0.0, 0.0, 1.695766207045256E9, 0.0, 2023-09-26 17:10:07.045
26.0, 47075.88071535596, 65383.16641845303, -25274.391505049647, -36323.61874861941, -389.9261820228317, -4573.748060911663, -187500.02235174447, -33107.828570345475, 13230.846909385553, -42562.57177145145, 43206.83845363122, -36748.45835548143, -4837.900976884482, -30067.700751745793, -39524.05327845255, -42435.01036584501, 0.034, 0.9560000000000001, 0.32, 192.0, 0.0, 0.0, 0.0, 0.0, 0.0, 0.0, 0.0, 0.0, 0.0, 1.695766207045259E9, 0.0, 2023-09-26 17:10:07.045
28.0, 47080.79809913613, 65386.98856675489, -25263.79677817783, -36319.61778636191, -390.239106445206, -4583.582828471998, -187500.02235174447, -33124.72648915368, 13228.14234830646, -42557.85555337138, 43273.5137073414, -36750.35825376013, -4846.886378155516, -30066.918440689857, -39523.58389181899, -42346.698623502096, 0.034, 0.9560000000000001, 0.32, 192.0, 0.0, 0.0, 0.0, 0.0, 0.0, 0.0, 0.0, 0.0, 0.0, 1.695766207045263E9, 0.0, 2023-09-26 17:10:07.045
30.0, 47071.54447693163, 65372.012897969835, -25261.15927233211, -36328.826705077496, -373.25178065917265, -4579.961845870238, -187500.02235174447, -33105.861616833405, 13228.790548895664, -42561.789460395514, 43205.76556989737, -36764.59631497816, -4853.480142769831, -30066.56081277857, -39516.16311265983, -42436.932615868165, 0.034, 0.9560000000000001, 0.32, 192.0, 0.0, 0.0, 0.0, 0.0, 0.0, 0.0, 0.0, 0.0, 0.0, 1.695766207105463E9, 0.0, 2023-09-26 17:10:07.105
32.0, 47081.021616580685, 65390.76601156784, -25252.151519316616, -36319.64013810636, -376.6045423274687, -4571.557589955043, -187500.02235174447, -33114.534093682065, 13221.392121480958, -42557.877905115834, 43262.53900081384, -36764.641018467075, -4851.602596235585, -30066.918440689857, -39512.96681320272, -42355.840486984314, 0.032, 0.9580000000000001, 0.32, 192.0, 0.5, 0.0, 14.5, 120.0, 5.0, 0.0, 0.0, 0.0, 0.0, 1.695766207105475E9, 0.0, 2023-09-26 17:10:07.105
34.0, 47073.60083742152, 65367.78841826778, -25241.579144189258, -36312.28641418057, -372.69298704779, -4578.486630736188, -187500.02235174447, -33099.871349319386, 13239.698200189854, -42532.06164026995, 43196.422540715044, -36751.565247960716, -4842.6618984534625, -30044.030254367623, -39496.04654265005, -42444.04047060495, 0.032, 0.9580000000000001, 0.32, 192.0, 0.0, 0.0, 0.0, 0.0, 0.0, 0.0, 0.0, 0.0, 0.0, 1.695766207105478E9, 0.0, 2023-09-26 17:10:07.105
36.0, 47077.579447934564, 65387.01091849935, -25238.628713921156, -36306.07262922199, -379.465565617748, -4553.3409182239675, -187500.02235174447, -33107.87327383438, 13227.4717959728, -42537.64957638378, 43236.54392201232, -36760.438890509475, -4850.842636924104, -30050.46755677075, -39509.99403119017, -42389.30104843391, 0.032, 0.9580000000000001, 0.32, 192.0, 0.0, 0.0, 0.0, 0.0, 0.0, 0.0, 0.0, 0.0, 0.0, 1.695766207105481E9, 0.0, 2023-09-26 17:10:07.105
38.0, 47073.69024439934, 65373.823389270714, -25239.925115099566, -36294.986163972164, -383.15360345287365, -4577.413747002333, -187500.02235174447, -33109.437895946256, 13235.697237932354, -42523.970308777134, 43215.64504094661, -36746.69256766946, -4851.848465424593, -30039.71636768775, -39509.09996141195, -42430.092982064845, 0.032, 0.9580000000000001, 0.32, 192.0, 0.0, 0.0, 0.0, 0.0, 0.0, 0.0, 0.0, 0.0, 0.0, 1.695766207105484E9, 0.0, 2023-09-26 17:10:07.105
40.0, 47079.25582876871, 65402.88065706261, -25245.624809935667, -36299.747085541145, -381.20900168526197, -4541.181569240281, -187500.02235174447, -33100.1619219973, 13227.963534350818, -42526.47370415613, 43246.557503528304, -36745.75379440234, -4846.416991521954, -30041.683321199816, -39515.067877181515, -42381.4555861301, 0.032, 0.9580000000000001, 0.32, 192.0, 0.0, 0.0, 0.0, 0.0, 0.0, 0.0, 0.0, 0.0, 0.0, 1.695766207105488E9, 0.0, 2023-09-26 17:10:07.105
42.0, 47080.95456134732, 65381.08770621869, -25238.829879621255, -36298.361277384916, -380.44904237378154, -4595.317494311034, -187500.02235174447, -33117.88685535036, 13244.704990947843, -42514.69433482818, 43243.78588721584, -36737.90833209852, -4843.868892654049, -30042.666797955848, -39506.5742142885, -42399.62755437226, 0.028, 0.964, 0.32, 192.0, 0.0, 112.0, 15.0, 16.0, 5.0, 0.0, 0.0, 0.0, 0.0, 1.695766207105491E9, 0.0, 2023-09-26 17:10:07.105
44.0, 47081.87098286999, 65400.13139249461, -25245.915382613588, -36306.720829811195, -382.52775460812506, -4546.702450120742, -187500.02235174447, -33101.34656445343, 13238.647668200454, -42522.428038409715, 43229.03373587534, -36742.199867033945, -4837.81156990666, -30046.310132302064, -39512.34096435797, -42405.30489746391, 0.028, 0.964, 0.32, 192.0, 0.0, 0.0, 0.0, 0.0, 0.0, 0.0, 0.0, 0.0, 0.0, 1.695766207164839E9, 0.0, 2023-09-26 17:10:07.164
46.0, 47081.06632006959, 65378.07022071722, -25243.322580256772, -36302.47399836469, -384.4500046312815, -4596.211564089246, -187500.02235174447, -33122.04427981905, 13241.66515370192, -42519.20938720815, 43250.98314893045, -36746.424346736, -4843.891244398505, -30039.60460896547, -39507.51298755562, -42396.14068223723, 0.028, 0.964, 0.32, 192.0, 0.0, 0.0, 0.0, 0.0, 0.0, 0.0, 0.0, 0.0, 0.0, 1.695766207164851E9, 0.0, 2023-09-26 17:10:07.164
48.0, 47072.70676764331, 65396.59981687067, -25259.214670564495, -36320.087172995474, -387.0428069880971, -4545.204883242236, -187500.02235174447, -33096.04920101752, 13239.027647856194, -42521.35515467586, 43209.990049599415, -36740.881114111085, -4849.523884001242, -30043.33735028951, -39510.597528290455, -42433.82572338888, 0.028, 0.964, 0.32, 192.0, 0.0, 0.0, 0.0, 0.0, 0.0, 0.0, 0.0, 0.0, 0.0, 1.695766207164855E9, 0.0, 2023-09-26 17:10:07.164
50.0, 47073.55613393261, 65373.46576135943, -25256.130129829664, -36316.66735609381, -387.93687676630935, -4607.879174694917, -187500.02235174447, -33135.991768359156, 13229.841080885064, -42531.27932921402, 43271.83732650725, -36755.11917532911, -4850.283843312722, -30056.70369347378, -39518.39828710536, -42374.079510459844, 0.028, 0.964, 0.32, 192.0, 0.0, 0.0, 0.0, 0.0, 0.0, 0.0, 0.0, 0.0, 0.0, 1.695766207164858E9, 0.0, 2023-09-26 17:10:07.164
52.0, 47077.78061363466, 65393.35881392465, -25253.559679217302, -36316.108562482426, -371.2848271471056, -4539.415781428312, -187500.02235174447, -33083.24165144464, 13231.584516952576, -42527.74775359008, 43222.50702649439, -36752.90635262804, -4848.428648522931, -30047.89710615839, -39506.618917777414, -42416.68193539166, 0.038, 0.9580000000000001, 0.314, 192.0, 0.5, 24.0, 14.5, 120.0, 4.5, 104.0, 0.0, 0.0, 0.0, 1.695766207164861E9, 0.0, 2023-09-26 17:10:07.164
54.0, 47075.59014267804, 65364.9273949775, -25250.18456580455, -36313.13578046987, -383.0641964750524, -4596.390378044889, -187500.02235174447, -33127.90043686634, 13234.400836753946, -42521.22104420913, 43271.83732650725, -36752.23580029438, -4845.969956632848, -30039.291684543095, -39500.42748456329, -42366.27875164494, 0.038, 0.9580000000000001, 0.314, 192.0, 0.0, 0.0, 0.0, 0.0, 0.0, 0.0, 0.0, 0.0, 0.0, 1.695766207164864E9, 0.0, 2023-09-26 17:10:07.164
56.0, 47080.55222994712, 65382.22764518591, -25253.202051306016, -36319.886007295376, -374.4587748597592, -4535.280708704079, -187500.02235174447, -33090.52832013706, 13229.23758378477, -42520.8857680423, 43191.08047379023, -36756.01324510732, -4843.913596142959, -30044.56669623455, -39505.30016485455, -42448.28730205147, 0.038, 0.9580000000000001, 0.314, 192.0, 0.0, 0.0, 0.0, 0.0, 0.0, 0.0, 0.0, 0.0, 0.0, 1.695766207164868E9, 0.0, 2023-09-26 17:10:07.164
58.0, 47070.113965286495, 65355.78553149528, -25253.09029258374, -36316.35443167143, -387.33337966601607, -4590.154241341858, -187500.02235174447, -33132.437840990766, 13227.583554695077, -42530.899349558276, 43263.29896012533, -36769.536050502786, -4843.690078698406, -30051.652199226883, -39500.94157468576, -42366.748138278504, 0.038, 0.9580000000000001, 0.314, 192.0, 0.0, 0.0, 0.0, 0.0, 0.0, 0.0, 0.0, 0.0, 0.0, 1.695766207164871E9, 0.0, 2023-09-26 17:10:07.164
60.0, 47082.072148570085, 65372.571691581215, -25243.255525023407, -36301.781094286576, -372.983559725709, -4544.869607075406, -187500.02235174447, -33090.86359630389, 13239.519386234211, -42528.46300941265, 43181.24570622989, -36756.77320441881, -4837.409238506465, -30043.493812500696, -39500.49453979666, -42460.24548533505, 0.038, 0.9580000000000001, 0.314, 192.0, 0.0, 0.0, 0.0, 0.0, 0.0, 0.0, 0.0, 0.0, 0.0, 1.695766207224631E9, 0.0, 2023-09-26 17:10:07.224
62.0, 47080.44047122484, 65365.19561591097, -25251.52567047187, -36306.385553644366, -392.7201500797451, -4590.109537852948, -187500.02235174447, -33133.53307646907, 13243.497996747255, -42532.285157714505, 43250.84903846372, -36755.409748007034, -4842.773657175739, -30048.27708581413, -39506.976545688696, -42384.45071988711, 0.034, 0.9580000000000001, 0.318, 192.0, 0.5, 8.0, 14.5, 120.0, 4.5, 120.0, 0.0, 0.0, 0.0, 1.695766207224642E9, 0.0, 2023-09-26 17:10:07.224
64.0, 47080.08284331356, 65377.62318582812, -25247.457652981004, -36304.485655365665, -372.13419343640726, -4545.920139064806, -187500.02235174447, -33087.98022126916, 13241.888671146473, -42529.9382245467, 43186.16309001006, -36747.005492091834, -4832.111875070557, -30046.131318346423, -39505.434275321284, -42463.46413653662, 0.034, 0.9580000000000001, 0.318, 192.0, 0.0, 0.0, 0.0, 0.0, 0.0, 0.0, 0.0, 0.0, 0.0, 1.695766207224646E9, 0.0, 2023-09-26 17:10:07.224
66.0, 47084.19556429334, 65371.677621803006, -25247.211783791994, -36306.162036199814, -386.99810349918647, -4586.95794188475, -187500.02235174447, -33128.995672344645, 13241.754560679741, -42529.31237570195, 43259.54386705683, -36746.26788452481, -4841.678421697428, -30046.8912776579, -39503.19910087575, -42375.73353954954, 0.034, 0.9580000000000001, 0.318, 192.0, 0.0, 0.0, 0.0, 0.0, 0.0, 0.0, 0.0, 0.0, 0.0, 1.695766207224649E9, 0.0, 2023-09-26 17:10:07.224
68.0, 47078.987607835246, 65375.61152882714, -25247.211783791994, -36311.39234440236, -371.12836493591846, -4542.6567843743305, -187500.02235174447, -33085.8568055459, 13240.301697290148, -42526.67486985622, 43180.08341551822, -36747.430175236485, -4842.438381008909, -30045.103138101476, -39500.82981596349, -42476.74107274307, 0.034, 0.9580000000000001, 0.318, 192.0, 0.0, 0.0, 0.0, 0.0, 0.0, 0.0, 0.0, 0.0, 0.0, 1.695766207224652E9, 0.0, 2023-09-26 17:10:07.224
70.0, 47085.60372419402, 65377.824351528216, -25244.28370526835, -36309.872425779395, -383.77945229762224, -4576.542028968576, -187500.02235174447, -33122.848942619436, 13238.737075178275, -42531.01110828055, 43269.04335845034, -36744.61385543512, -4837.029258850725, -30054.08853937251, -39503.48967355367, -42368.916257490666, 0.034, 0.9580000000000001, 0.318, 192.0, 0.0, 0.0, 0.0, 0.0, 0.0, 0.0, 0.0, 0.0, 0.0, 1.695766207224656E9, 0.0, 2023-09-26 17:10:07.224
72.0, 47080.01578808019, 65371.2305869139, -25242.65202792311, -36310.1182949684, -363.9534549657649, -4552.6927176347635, -187500.02235174447, -33090.30480269251, 13244.95086013685, -42527.99362277909, 43189.82877610073, -36743.675082167996, -4836.112837328057, -30047.628885224927, -39489.631591991376, -42467.95683717213, 0.026000000000000002, 0.9540000000000001, 0.32, 192.0, 0.0, 104.0, 14.5, 104.0, 5.0, 0.0, 0.0, 0.0, 0.0, 1.695766207224659E9, 0.0, 2023-09-26 17:10:07.224
74.0, 47079.72521540227, 65371.92349099201, -25241.892068611633, -36315.50506538213, -371.50834459165867, -4570.752927154652, -187500.02235174447, -33110.55548316902, 13236.18897631037, -42543.17045726424, 43273.13372768566, -36758.2260678084, -4836.582223961619, -30058.648295241393, -39497.5217577841, -42362.546010320904, 0.026000000000000002, 0.9540000000000001, 0.32, 192.0, 0.0, 0.0, 0.0, 0.0, 0.0, 0.0, 0.0, 0.0, 0.0, 1.695766207284801E9, 0.0, 2023-09-26 17:10:07.284
76.0, 47067.34234897403, 65360.83702574218, -25241.98147558945, -36321.87531255189, -364.73576602170067, -4561.298139250057, -187500.02235174447, -33094.484578905656, 13241.173415323903, -42542.38814620831, 43206.81610188676, -36758.069605597215, -4835.285822783211, -30055.407292295375, -39486.703513467735, -42448.06378460691, 0.026000000000000002, 0.9540000000000001, 0.32, 192.0, 0.0, 0.0, 0.0, 0.0, 0.0, 0.0, 0.0, 0.0, 0.0, 1.695766207284815E9, 0.0, 2023-09-26 17:10:07.284
78.0, 47077.64650316793, 65379.36662189563, -25235.700635397512, -36313.62751884789, -369.76490852414474, -4566.4837439636885, -187500.02235174447, -33114.31057623751, 13233.797339653653, -42543.10340203088, 43279.12399519968, -36760.304780042745, -4835.822264650138, -30059.81058595307, -39490.413903047316, -42355.281693372934, 0.026000000000000002, 0.9540000000000001, 0.32, 192.0, 0.0, 0.0, 0.0, 0.0, 0.0, 0.0, 0.0, 0.0, 0.0, 1.695766207284819E9, 0.0, 2023-09-26 17:10:07.284
80.0, 47084.41908173789, 65370.15770318004, -25235.208897019496, -36306.5196641111, -368.2226381567286, -4573.390433000378, -187500.02235174447, -33104.609919143906, 13242.76038918023, -42531.27932921402, 43224.541035239825, -36750.69352992696, -4825.741627900795, -30046.533649746616, -39486.59175474546, -42432.57402569938, 0.026000000000000002, 0.9540000000000001, 0.32, 192.0, 0.0, 0.0, 0.0, 0.0, 0.0, 0.0, 0.0, 0.0, 0.0, 1.695766207284822E9, 0.0, 2023-09-26 17:10:07.284
82.0, 47090.61051495201, 65385.62511034311, -25235.208897019496, -36304.95504199923, -368.5579143235582, -4558.168895026314, -187500.02235174447, -33103.291166221046, 13242.536871735678, -42534.3415182044, 43256.57108504428, -36748.86068688163, -4825.026372078225, -30050.445205026295, -39488.446949535246, -42382.34965590831, 0.026000000000000002, 0.9580000000000001, 0.322, 192.0, 0.0, 104.0, 14.5, 120.0, 5.0, 8.0, 0.0, 0.0, 0.0, 1.695766207284825E9, 0.0, 2023-09-26 17:10:07.284
84.0, 47078.11588980149, 65366.80494151175, -25243.03200757885, -36307.436085633766, -375.53165859361394, -4582.778165671607, -187500.02235174447, -33105.54869241103, 13242.916851391417, -42535.570864149435, 43232.90058766611, -36748.81598339271, -4839.219729807345, -30055.27318182864, -39496.51592928361, -42427.63429017476, 0.026000000000000002, 0.9580000000000001, 0.322, 192.0, 0.0, 0.0, 0.0, 0.0, 0.0, 0.0, 0.0, 0.0, 0.0, 1.695766207284829E9, 0.0, 2023-09-26 17:10:07.284
86.0, 47089.045892840135, 65393.9846627694, -25236.86292610919, -36300.32823089698, -367.820306756533, -4551.66453738982, -187500.02235174447, -33097.85969231841, 13240.90519439044, -42538.431887439714, 43265.04239619284, -36749.86651538211, -4831.57543320363, -30053.70855971677, -39494.19134786026, -42378.01341748398, 0.026000000000000002, 0.9580000000000001, 0.322, 192.0, 0.0, 0.0, 0.0, 0.0, 0.0, 0.0, 0.0, 0.0, 0.0, 1.695766207284832E9, 0.0, 2023-09-26 17:10:07.284
88.0, 47082.67564567037, 65372.72815379241, -25243.814318634788, -36303.47982686518, -375.0622719600525, -4587.04734886257, -187500.02235174447, -33113.70707913722, 13246.738999693276, -42536.219064738645, 43251.251369863916, -36740.54583794425, -4832.357744259566, -30049.729949203727, -39490.50331002514, -42412.27864173397, 0.026000000000000002, 0.9580000000000001, 0.322, 192.0, 0.0, 0.0, 0.0, 0.0, 0.0, 0.0, 0.0, 0.0, 0.0, 1.695766207284835E9, 0.0, 2023-09-26 17:10:07.284
90.0, 47086.34133176105, 65390.87777029011, -25248.19526054803, -36308.73248681217, -377.2750946611279, -4551.552778667543, -187500.02235174447, -33098.77611384107, 13239.877014145497, -42544.98094856512, 43263.29896012533, -36744.25622752383, -4832.380096004021, -30057.50835627417, -39501.90269969734, -42388.58579261134, 0.026000000000000002, 0.9580000000000001, 0.322, 192.0, 0.0, 0.0, 0.0, 0.0, 0.0, 0.0, 0.0, 0.0, 0.0, 1.695766207345614E9, 0.0, 2023-09-26 17:10:07.345
92.0, 47079.03231132416, 65369.06246770173, -25251.771539660876, -36305.245614677144, -379.8231935290329, -4588.343750040978, -187500.02235174447, -33111.13662852486, 13246.627240970998, -42543.14810551979, 43253.15126814262, -36741.32814900019, -4840.225558307834, -30049.618190481448, -39503.86965320941, -42412.09982777832, 0.03, 0.9540000000000001, 0.324, 192.0, 0.0, 120.0, 14.5, 104.0, 5.0, 16.0, 0.0, 0.0, 0.0, 1.695766207345637E9, 0.0, 2023-09-26 17:10:07.345
94.0, 47080.90985785841, 65394.36464242514, -25246.205955291505, -36301.781094286576, -369.51903933513637, -4537.225310471691, -187500.02235174447, -33082.01230549959, 13237.887708888973, -42549.40659396727, 43258.04630017833, -36739.65176816604, -4826.367476745543, -30052.255696327175, -39503.24380436466, -42396.028923514954, 0.03, 0.9540000000000001, 0.324, 192.0, 0.0, 0.0, 0.0, 0.0, 0.0, 0.0, 0.0, 0.0, 0.0, 1.69576620734564E9, 0.0, 2023-09-26 17:10:07.345
96.0, 47081.49100321424, 65370.87295900261, -25234.918324341575, -36291.700457537234, -377.96799873924243, -4589.707206452752, -187500.02235174447, -33105.54869241103, 13250.337630550579, -42535.146181004784, 43280.62156207819, -36729.03468954977, -4815.102197540069, -30037.078861842023, -39492.60437400393, -42379.1533564512, 0.03, 0.9540000000000001, 0.324, 192.0, 0.0, 0.0, 0.0, 0.0, 0.0, 0.0, 0.0, 0.0, 0.0, 1.695766207345644E9, 0.0, 2023-09-26 17:10:07.345
98.0, 47074.07022405508, 65394.81167731425, -25242.13793780064, -36303.94921349874, -366.1886294112956, -4528.75399932313, -187500.02235174447, -33068.10952044839, 13239.832310656586, -42541.27055898554, 43243.696480238024, -36729.21350350541, -4837.364535017555, -30044.65610321237, -39496.94061242826, -42412.0104208005, 0.03, 0.9540000000000001, 0.324, 192.0, 0.0, 0.0, 0.0, 0.0, 0.0, 0.0, 0.0, 0.0, 0.0, 1.695766207345647E9, 0.0, 2023-09-26 17:10:07.345
100.0, 47070.22572400877, 65361.46287458693, -25236.9076295981, -36298.9200709963, -368.5579143235582, -4593.976389643716, -187500.02235174447, -33100.25132897512, 13246.090799104071, -42536.6884513722, 43291.66332383911, -36736.880151853584, -4833.251814037778, -30046.511298002162, -39488.514004768615, -42370.19030692462, 0.03, 0.9540000000000001, 0.324, 192.0, 0.0, 0.0, 0.0, 0.0, 0.0, 0.0, 0.0, 0.0, 0.0, 1.69576620734565E9, 0.0, 2023-09-26 17:10:07.345
102.0, 47075.16545953339, 65380.752430051856, -25244.66368492409, -36304.66446932131, -360.84656248647724, -4526.496473133144, -187500.02235174447, -33055.72665402015, 13243.162720580427, -42542.83518109741, 43218.103732836695, -36740.657596666526, -4830.167273302945, -30047.18185033582, -39490.257440836125, -42448.130839840276, 0.034, 0.9520000000000001, 0.316, 192.0, 0.5, 8.0, 14.5, 96.0, 4.5, 112.0, 0.0, 0.0, 0.0, 1.695766207345653E9, 0.0, 2023-09-26 17:10:07.345
104.0, 47073.802003121615, 65364.189787410476, -25245.401292491115, -36300.55174834153, -378.41503362834857, -4581.057081348548, -187500.02235174447, -33088.91899453628, 13241.218118812814, -42542.25403574158, 43280.19687893354, -36745.03853857977, -4831.57543320363, -30046.488946257705, -39500.65100200784, -42382.46141463058, 0.034, 0.9520000000000001, 0.316, 192.0, 0.0, 0.0, 0.0, 0.0, 0.0, 0.0, 0.0, 0.0, 0.0, 1.695766207405543E9, 0.0, 2023-09-26 17:10:07.405
106.0, 47073.57848567706, 65388.77670631131, -25249.022275092873, -36304.82093153249, -371.6648068028458, -4525.736513821664, -187500.02235174447, -33056.62072379836, 13239.452331000844, -42535.861436827356, 43213.45456998999, -36738.86945711011, -4841.544311230697, -30044.901972401378, -39506.5742142885, -42455.12693585479, 0.034, 0.9520000000000001, 0.316, 192.0, 0.0, 0.0, 0.0, 0.0, 0.0, 0.0, 0.0, 0.0, 0.0, 1.695766207405568E9, 0.0, 2023-09-26 17:10:07.405
108.0, 47078.495869457234, 65377.84670327267, -25249.17873730406, -36303.81510303201, -386.59577209899095, -4587.919066896327, -187500.02235174447, -33102.55355865402, 13241.754560679741, -42528.28419545701, 43291.46215813901, -36734.95790183043, -4837.141017573002, -30048.746472447692, -39515.40315334835, -42371.017321469466, 0.034, 0.9520000000000001, 0.316, 192.0, 0.0, 0.0, 0.0, 0.0, 0.0, 0.0, 0.0, 0.0, 0.0, 1.695766207405571E9, 0.0, 2023-09-26 17:10:07.405
110.0, 47077.17711653437, 65389.24609294488, -25246.116548313687, -36306.54201585556, -363.59582705447997, -4536.599461626943, -187500.02235174447, -33040.77333697955, 13245.733171192787, -42528.97709953512, 43216.628517702644, -36726.263073237315, -4823.797026133183, -30043.493812500696, -39504.76372298762, -42458.50204926754, 0.034, 0.9520000000000001, 0.316, 192.0, 0.0, 0.0, 0.0, 0.0, 0.0, 0.0, 0.0, 0.0, 0.0, 1.695766207405576E9, 0.0, 2023-09-26 17:10:07.405
112.0, 47081.04396832514, 65380.528912607304, -25249.335199515248, -36307.81606528951, -383.2206586862396, -4591.115366353437, -187500.02235174447, -33071.17170943877, 13240.167586823414, -42536.643747883296, 43307.309544957825, -36735.069660552705, -4841.991346119803, -30056.681341729327, -39514.1291039144, -42354.61114103927, 0.038, 0.9560000000000001, 0.312, 192.0, 0.5, 24.0, 14.5, 112.0, 4.5, 96.0, 0.0, 0.0, 0.0, 1.695766207405597E9, 0.0, 2023-09-26 17:10:07.405
114.0, 47074.80783162211, 65385.96038650995, -25243.41198723459, -36304.910338510315, -368.1555829233626, -4544.713144864219, -187500.02235174447, -33026.69173797271, 13249.085932861082, -42524.93143378871, 43222.84230266122, -36730.375794217085, -4830.971936103337, -30048.500603258683, -39503.467321809214, -42455.57397074389, 0.038, 0.9560000000000001, 0.312, 192.0, 0.0, 0.0, 0.0, 0.0, 0.0, 0.0, 0.0, 0.0, 0.0, 1.6957662074056E9, 0.0, 2023-09-26 17:10:07.405
116.0, 47081.80392763662, 65380.21598818493, -25235.924152842064, -36300.70821055272, -368.2896933900945, -4583.04638660507, -187500.02235174447, -33067.21545067018, 13250.091761361571, -42530.675832113724, 43289.271687182394, -36734.17559077449, -4830.167273302945, -30048.56765849205, -39503.91435669832, -42368.37981562374, 0.038, 0.9560000000000001, 0.312, 192.0, 0.0, 0.0, 0.0, 0.0, 0.0, 0.0, 0.0, 0.0, 0.0, 1.695766207405603E9, 0.0, 2023-09-26 17:10:07.405
118.0, 47071.11979378698, 65375.231549171396, -25246.09419656923, -36313.62751884789, -364.5793038105135, -4549.608176899931, -187500.02235174447, -33025.41768853876, 13253.757447452243, -42532.0392885255, 43205.0503140748, -36729.347613972146, -4825.272241267234, -30050.847536426492, -39494.928955427284, -42473.63418026378, 0.038, 0.9560000000000001, 0.312, 192.0, 0.0, 0.0, 0.0, 0.0, 0.0, 0.0, 0.0, 0.0, 0.0, 1.695766207405607E9, 0.0, 2023-09-26 17:10:07.405
120.0, 47073.64554091043, 65376.840874772184, -25246.205955291505, -36314.85686479293, -372.08948994749665, -4580.6323982038975, -187500.02235174447, -33067.1036919479, 13240.659325201432, -42544.42215495374, 43302.86154781122, -36743.518619956805, -4834.838787894105, -30061.66578074286, -39507.803560233544, -42355.57226605085, 0.038, 0.9560000000000001, 0.312, 192.0, 0.0, 0.0, 0.0, 0.0, 0.0, 0.0, 0.0, 0.0, 0.0, 1.695766207464612E9, 0.0, 2023-09-26 17:10:07.464
122.0, 47071.70093914282, 65371.2305869139, -25244.171946546074, -36313.89573978135, -357.627911284913, -4559.66646190482, -187500.02235174447, -33034.15722062078, 13246.00139212625, -42539.8400473404, 43231.22420683196, -36739.0706228102, -4830.2790320252225, -30052.300399816086, -39496.78415021708, -42449.89662765225, 0.04, 0.9560000000000001, 0.314, 192.0, 0.5, 32.0, 14.5, 112.0, 4.5, 104.0, 0.0, 0.0, 0.0, 1.695766207464624E9, 0.0, 2023-09-26 17:10:07.464
124.0, 47072.52795368766, 65376.0809154607, -25251.369208260683, -36316.801466560544, -375.53165859361394, -4569.411822487334, -187500.02235174447, -33059.21352615518, 13237.798301911153, -42550.1442015343, 43303.64385886715, -36746.603160691644, -4828.155616301968, -30059.18473710832, -39507.06595266652, -42355.639321284216, 0.04, 0.9560000000000001, 0.314, 192.0, 0.0, 0.0, 0.0, 0.0, 0.0, 0.0, 0.0, 0.0, 0.0, 1.695766207464628E9, 0.0, 2023-09-26 17:10:07.464
126.0, 47073.26556125469, 65364.45800834394, -25246.89885936962, -36305.17855944378, -367.95441722326484, -4569.702395165253, -187500.02235174447, -33041.91327594677, 13255.05384863065, -42536.55434090547, 43239.4049453026, -36736.321358242196, -4826.85921512356, -30048.52295500314, -39502.79676947556, -42441.9170548817, 0.04, 0.9560000000000001, 0.314, 192.0, 0.0, 0.0, 0.0, 0.0, 0.0, 0.0, 0.0, 0.0, 0.0, 1.695766207464632E9, 0.0, 2023-09-26 17:10:07.464
128.0, 47075.768956633685, 65381.378278896605, -25254.610211206702, -36307.346678655944, -380.3819871404156, -4553.832656601984, -187500.02235174447, -33049.646979528305, 13246.29196480417, -42537.0907827724, 43284.68957956905, -36737.61775942061, -4832.983593104314, -30048.210030580765, -39509.50229281215, -42377.789900039425, 0.04, 0.9560000000000001, 0.314, 192.0, 0.0, 0.0, 0.0, 0.0, 0.0, 0.0, 0.0, 0.0, 0.0, 1.695766207464637E9, 0.0, 2023-09-26 17:10:07.464
130.0, 47079.814622380094, 65364.50271183285, -25247.74822565892, -36301.37876288638, -368.40145211237103, -4574.709185923241, -187500.02235174447, -33036.19122936621, 13253.221005585314, -42532.53102690352, 43239.628462747154, -36726.687756381965, -4836.828093150627, -30044.38788227891, -39509.01055443413, -42441.51472348151, 0.04, 0.9560000000000001, 0.314, 192.0, 0.0, 0.0, 0.0, 0.0, 0.0, 0.0, 0.0, 0.0, 0.0, 1.695766207464655E9, 0.0, 2023-09-26 17:10:07.464
132.0, 47076.4618607118, 65378.13727595059, -25259.125263586673, -36313.6722223368, -376.8727632609324, -4552.938586823772, -187500.02235174447, -33040.95215093519, 13252.662211973931, -42534.31916645994, 43251.43018381956, -36724.40787844752, -4829.116741313546, -30047.67358871384, -39507.84826372245, -42414.73733362405, 0.036000000000000004, 0.9560000000000001, 0.312, 192.0, 0.5, 16.0, 14.5, 112.0, 4.5, 96.0, 0.0, 0.0, 0.0, 1.695766207464659E9, 0.0, 2023-09-26 17:10:07.464
134.0, 47075.701901400316, 65354.98086869489, -25249.62577219317, -36307.41373388931, -373.1176701924408, -4586.868534906928, -187500.02235174447, -33046.718901004664, 13252.751618951754, -42539.929454318226, 43231.42537253206, -36733.41563146301, -4833.497683226787, -30053.574449250038, -39515.6266707929, -42451.97533988659, 0.036000000000000004, 0.9560000000000001, 0.312, 192.0, 0.0, 0.0, 0.0, 0.0, 0.0, 0.0, 0.0, 0.0, 0.0, 1.695766207524427E9, 0.0, 2023-09-26 17:10:07.524
136.0, 47075.59014267804, 65380.57361609622, -25252.933830372553, -36312.24171069166, -367.1274026784185, -4543.908482063828, -187500.02235174447, -33029.70922347417, 13248.504787505244, -42548.33371023342, 43244.523494782865, -36736.27665475329, -4825.76397964525, -30053.954428905778, -39506.32834509949, -42426.13672329625, 0.036000000000000004, 0.9560000000000001, 0.312, 192.0, 0.0, 0.0, 0.0, 0.0, 0.0, 0.0, 0.0, 0.0, 0.0, 1.695766207524442E9, 0.0, 2023-09-26 17:10:07.524
138.0, 47070.113965286495, 65355.584365795185, -25249.536365215346, -36307.65960307832, -364.40048985487107, -4584.678063950309, -187500.02235174447, -33041.93562769123, 13251.231700328792, -42541.449372941184, 43245.37286107217, -36727.69358488245, -4830.48019772532, -30049.059396870067, -39501.05333340804, -42442.16292407071, 0.036000000000000004, 0.9560000000000001, 0.312, 192.0, 0.0, 0.0, 0.0, 0.0, 0.0, 0.0, 0.0, 0.0, 0.0, 1.695766207524446E9, 0.0, 2023-09-26 17:10:07.524
140.0, 47070.940979831335, 65379.38897364009, -25256.644219952133, -36315.125085726395, -366.36744336693806, -4545.026069286593, -187500.02235174447, -33024.836543182915, 13239.497034489756, -42549.67481490074, 43251.36312858619, -36740.18821003297, -4832.536558215208, -30056.457824284775, -39505.90366195484, -42421.39815347173, 0.036000000000000004, 0.9560000000000001, 0.312, 192.0, 0.0, 0.0, 0.0, 0.0, 0.0, 0.0, 0.0, 0.0, 0.0, 1.695766207524449E9, 0.0, 2023-09-26 17:10:07.524
142.0, 47073.13145078796, 65354.1762058945, -25244.395463990626, -36304.68682106576, -360.84656248647724, -4591.741215198185, -187500.02235174447, -33034.693662487705, 13247.051924115649, -42537.403707194775, 43265.95881771551, -36731.918064584504, -4821.964183087848, -30050.065225370556, -39499.51106304063, -42413.9103190792, 0.03, 0.9560000000000001, 0.316, 192.0, 0.0, 120.0, 14.5, 112.0, 4.5, 112.0, 0.0, 0.0, 0.0, 1.695766207524452E9, 0.0, 2023-09-26 17:10:07.524
144.0, 47067.54351467413, 65375.008031726844, -25244.84249887973, -36313.04637349205, -356.44326882878175, -4531.257394702125, -187500.02235174447, -32999.891996370796, 13239.72055193431, -42552.96052133567, 43243.204741860005, -36738.66829141001, -4823.931136599915, -30055.451995784286, -39494.459568793725, -42426.47199946309, 0.03, 0.9560000000000001, 0.316, 192.0, 0.0, 0.0, 0.0, 0.0, 0.0, 0.0, 0.0, 0.0, 0.0, 1.695766207524455E9, 0.0, 2023-09-26 17:10:07.524
146.0, 47075.344273489034, 65349.54939479225, -25241.109757555696, -36300.19412043025, -367.5073823341587, -4584.588656972487, -187500.02235174447, -33031.0950316304, 13248.750656694254, -42546.25499799907, 43269.356282872715, -36731.64984365104, -4831.083694825613, -30045.43841426831, -39492.224394348195, -42402.80150208491, 0.03, 0.9560000000000001, 0.316, 192.0, 0.0, 0.0, 0.0, 0.0, 0.0, 0.0, 0.0, 0.0, 0.0, 1.695766207524458E9, 0.0, 2023-09-26 17:10:07.524
148.0, 47079.38993923544, 65373.04107821478, -25241.46738546698, -36301.13289369737, -351.6152920264354, -4521.243813186146, -187500.02235174447, -32989.02904856551, 13248.43773227188, -42548.60193116688, 43211.73348566693, -36730.84518085065, -4831.128398314524, -30047.584181736016, -39495.13012112738, -42461.85481093584, 0.03, 0.9560000000000001, 0.316, 192.0, 0.0, 0.0, 0.0, 0.0, 0.0, 0.0, 0.0, 0.0, 0.0, 1.695766207524462E9, 0.0, 2023-09-26 17:10:07.524
150.0, 47074.04787231063, 65352.63393552708, -25248.888164626143, -36305.35737339943, -371.0389579580972, -4578.084299335993, -187500.02235174447, -33027.16112460627, 13250.136464850482, -42546.9926055661, 43269.3115793838, -36723.15618075802, -4826.85921512356, -30048.433548025318, -39496.0241909056, -42408.72471436557, 0.03, 0.9560000000000001, 0.316, 192.0, 0.0, 0.0, 0.0, 0.0, 0.0, 0.0, 0.0, 0.0, 0.0, 1.695766207584873E9, 0.0, 2023-09-26 17:10:07.584
152.0, 47065.911837328895, 65366.492017089375, -25260.46636825399, -36313.56046361452, -371.0166062136419, -4523.27782193158, -187500.02235174447, -32995.756923646564, 13236.85952864403, -42555.75448939258, 43224.16105558408, -36737.81892512071, -4832.827130893127, -30056.211955095765, -39504.607260776436, -42451.416546275206, 0.026000000000000002, 0.9500000000000001, 0.316, 192.0, 0.0, 104.0, 14.5, 88.0, 4.5, 112.0, 0.0, 0.0, 0.0, 1.695766207584885E9, 0.0, 2023-09-26 17:10:07.584
154.0, 47070.382186219955, 65350.66698201501, -25248.32937101476, -36299.21064367422, -366.05451894456377, -4582.755813927151, -187500.02235174447, -33029.91038917427, 13240.301697290148, -42547.14906777729, 43301.43103616608, -36731.292215739755, -4838.012735606759, -30053.909725416866, -39506.01542067712, -42365.11646093327, 0.026000000000000002, 0.9500000000000001, 0.316, 192.0, 0.0, 0.0, 0.0, 0.0, 0.0, 0.0, 0.0, 0.0, 0.0, 1.695766207584888E9, 0.0, 2023-09-26 17:10:07.584
156.0, 47060.07803202606, 65357.350153607156, -25260.175795576073, -36312.28641418057, -349.89420770337676, -4527.681115589276, -187500.02235174447, -32985.94450783068, 13238.29004028917, -42548.98191082262, 43220.6518317046, -36731.56043667322, -4825.473406967331, -30053.172117849845, -39490.883289680874, -42455.55161899944, 0.026000000000000002, 0.9500000000000001, 0.316, 192.0, 0.0, 0.0, 0.0, 0.0, 0.0, 0.0, 0.0, 0.0, 0.0, 1.695766207584892E9, 0.0, 2023-09-26 17:10:07.584
158.0, 47064.21310475029, 65339.26759234281, -25263.95324038902, -36314.45453339273, -374.25760915966146, -4590.62362797542, -187500.02235174447, -33038.51581078956, 13232.702104175343, -42561.789460395514, 43297.96651577551, -36742.98217808988, -4831.530729714719, -30061.889298187412, -39505.88131021039, -42367.41869061216, 0.026000000000000002, 0.9500000000000001, 0.316, 192.0, 0.0, 0.0, 0.0, 0.0, 0.0, 0.0, 0.0, 0.0, 0.0, 1.695766207584895E9, 0.0, 2023-09-26 17:10:07.584
160.0, 47059.899218070415, 65341.72628423289, -25265.29434505634, -36317.89670203885, -357.918483962832, -4537.158255238325, -187500.02235174447, -32986.324487486425, 13236.256031543737, -42559.911913861266, 43202.524566951346, -36742.490439711866, -4834.704677427373, -30060.212917353263, -39500.56159503003, -42475.93640994268, 0.026000000000000002, 0.9500000000000001, 0.316, 192.0, 0.0, 0.0, 0.0, 0.0, 0.0, 0.0, 0.0, 0.0, 0.0, 1.695766207584898E9, 0.0, 2023-09-26 17:10:07.584
162.0, 47056.8593808245, 65333.3220283177, -25259.505243242413, -36315.79563806005, -368.40145211237103, -4585.013340117138, -187500.02235174447, -33028.1446013623, 13229.103473318039, -42567.1985825537, 43285.203669691524, -36751.87817238309, -4836.962203617359, -30064.683266244327, -39506.08247591049, -42374.90652500469, 0.03, 0.9580000000000001, 0.32, 192.0, 0.0, 120.0, 14.5, 120.0, 5.0, 0.0, 0.0, 0.0, 0.0, 1.695766207584901E9, 0.0, 2023-09-26 17:10:07.584
164.0, 47047.82927606455, 65336.94301091946, -25254.543155973337, -36313.80633280353, -349.6706902588237, -4541.114514006915, -187500.02235174447, -32989.96782183264, 13230.489281474267, -42559.978969094635, 43213.499273478905, -36742.37868098959, -4835.755209416772, -30058.536536519117, -39491.91146992582, -42461.85481093584, 0.03, 0.9580000000000001, 0.32, 192.0, 0.0, 0.0, 0.0, 0.0, 0.0, 0.0, 0.0, 0.0, 0.0, 1.695766207645091E9, 0.0, 2023-09-26 17:10:07.645
166.0, 47052.92547380036, 65335.2219265964, -25257.314772285794, -36312.532283369575, -365.8980567333766, -4572.406956244345, -187500.02235174447, -33028.94926416269, 13229.52815646269, -42560.47070747265, 43291.573916861285, -36748.92774211499, -4833.5647384601525, -30059.095330130498, -39493.76666471561, -42363.64124579922, 0.03, 0.9580000000000001, 0.32, 192.0, 0.0, 0.0, 0.0, 0.0, 0.0, 0.0, 0.0, 0.0, 0.0, 1.695766207645104E9, 0.0, 2023-09-26 17:10:07.645
168.0, 47059.54159015913, 65339.55816502073, -25256.37599901867, -36303.05514372053, -359.5501613080694, -4547.32829896549, -187500.02235174447, -33002.79772314998, 13236.166624565914, -42558.52610570504, 43208.537186209825, -36741.23874202237, -4832.760075659761, -30052.836841683013, -39497.812330462024, -42464.98405515958, 0.03, 0.9580000000000001, 0.32, 192.0, 0.0, 0.0, 0.0, 0.0, 0.0, 0.0, 0.0, 0.0, 0.0, 1.695766207645115E9, 0.0, 2023-09-26 17:10:07.645
170.0, 47056.52410465766, 65351.82927272669, -25264.936717145054, -36305.893815266354, -376.5821905830134, -4556.112534536425, -187500.02235174447, -33028.83750544042, 13228.611734940021, -42560.98479759512, 43279.66043706661, -36740.657596666526, -4824.244061022289, -30054.602629494984, -39507.2224148777, -42372.760757536984, 0.03, 0.9580000000000001, 0.32, 192.0, 0.0, 0.0, 0.0, 0.0, 0.0, 0.0, 0.0, 0.0, 0.0, 1.695766207645118E9, 0.0, 2023-09-26 17:10:07.645
172.0, 47054.244226723225, 65339.580516765185, -25259.95227813152, -36302.49635010915, -358.6113880409465, -4544.959014053227, -187500.02235174447, -33000.651955682275, 13232.322124519602, -42560.47070747265, 43233.772305699866, -36739.56236118822, -4842.214863564356, -30052.85919342747, -39504.71901949871, -42435.65856643421, 0.04, 0.962, 0.32, 192.0, 0.5, 32.0, 15.0, 8.0, 5.0, 0.0, 0.0, 0.0, 0.0, 1.695766207645121E9, 0.0, 2023-09-26 17:10:07.645
174.0, 47062.11204077149, 65344.609659267626, -25252.598554205724, -36298.964774485205, -355.2139228837398, -4550.390487955867, -187500.02235174447, -33017.52752274603, 13229.304639018135, -42563.75641390758, 43302.43686466657, -36739.98704433287, -4833.900014626982, -30057.798928952092, -39497.946440928754, -42342.51884728895, 0.04, 0.962, 0.32, 192.0, 0.0, 0.0, 0.0, 0.0, 0.0, 0.0, 0.0, 0.0, 0.0, 1.695766207645124E9, 0.0, 2023-09-26 17:10:07.645
176.0, 47060.4580116818, 65338.06059814222, -25251.011580349397, -36296.8190070175, -349.15660013635164, -4545.450752431244, -187500.02235174447, -32998.95322310367, 13250.985831139784, -42548.78074512252, 43216.60616595819, -36720.56337840121, -4829.6308314360185, -30042.197411322286, -39481.9202401543, -42458.36793880081, 0.04, 0.962, 0.32, 192.0, 0.0, 0.0, 0.0, 0.0, 0.0, 0.0, 0.0, 0.0, 0.0, 1.695766207645127E9, 0.0, 2023-09-26 17:10:07.645
178.0, 47066.94001757384, 65355.96434545092, -25260.175795576073, -36304.37389664339, -368.8708387459325, -4542.94735705225, -187500.02235174447, -33020.790877436506, 13231.785682652675, -42561.23066678413, 43276.03945446485, -36730.33109072818, -4830.4578459808645, -30059.072978386044, -39502.081513652985, -42381.54499310792, 0.04, 0.962, 0.32, 192.0, 0.0, 0.0, 0.0, 0.0, 0.0, 0.0, 0.0, 0.0, 0.0, 1.69576620764513E9, 0.0, 2023-09-26 17:10:07.645
180.0, 47059.005148292206, 65335.40074055204, -25260.801644420822, -36307.212568189214, -358.5219810631253, -4557.744211881663, -187500.02235174447, -33010.26320579806, 13239.988772867773, -42549.339538733904, 43226.7538579409, -36728.40884070502, -4836.716334428351, -30052.7921381941, -39497.9240891843, -42449.96368288561, 0.04, 0.962, 0.32, 192.0, 0.0, 0.0, 0.0, 0.0, 0.0, 0.0, 0.0, 0.0, 0.0, 1.695766207705401E9, 0.0, 2023-09-26 17:10:07.705
182.0, 47061.17326750437, 65351.35988609313, -25258.85704265321, -36311.63821359137, -362.50059157616994, -4532.620851113898, -187500.02235174447, -33013.14658083279, 13228.209403539826, -42565.45514648619, 43266.495259582436, -36737.75186988734, -4827.306250012666, -30062.269277843152, -39501.589775274966, -42388.51873737797, 0.038, 0.9560000000000001, 0.32, 192.0, 0.5, 24.0, 14.5, 112.0, 5.0, 0.0, 0.0, 0.0, 0.0, 1.695766207705412E9, 0.0, 2023-09-26 17:10:07.705
184.0, 47057.3064157136, 65330.84098468316, -25252.88912688364, -36308.30780366752, -359.37134735242694, -4564.04740381806, -187500.02235174447, -33015.00177562258, 13240.547566479156, -42557.56498069346, 43238.108544124196, -36736.58957917566, -4845.612328721563, -30054.312056817063, -39493.58785075997, -42436.664394934705, 0.038, 0.9560000000000001, 0.32, 192.0, 0.0, 0.0, 0.0, 0.0, 0.0, 0.0, 0.0, 0.0, 0.0, 1.695766207705416E9, 0.0, 2023-09-26 17:10:07.705
186.0, 47058.289892469635, 65359.786493752785, -25252.620905950178, -36306.83258853347, -356.3538618509605, -4518.963935251705, -187500.02235174447, -33001.43426673821, 13228.835252384575, -42561.9459226067, 43256.772250744376, -36732.78978261826, -4830.547252958686, -30059.408254552873, -39493.118464126404, -42402.24270847353, 0.038, 0.9560000000000001, 0.32, 192.0, 0.0, 0.0, 0.0, 0.0, 0.0, 0.0, 0.0, 0.0, 0.0, 1.695766207705419E9, 0.0, 2023-09-26 17:10:07.705
188.0, 47054.22187497877, 65331.69035097246, -25256.018371107384, -36304.57506234349, -362.90292297636546, -4566.640206174875, -187500.02235174447, -33025.954130405684, 13233.395008253457, -42556.29093125951, 43263.50012582542, -36730.77812561728, -4840.091447841102, -30053.23917308321, -39489.9221646693, -42408.25532773201, 0.038, 0.9560000000000001, 0.32, 192.0, 0.0, 0.0, 0.0, 0.0, 0.0, 0.0, 0.0, 0.0, 0.0, 1.695766207705422E9, 0.0, 2023-09-26 17:10:07.705
190.0, 47049.21508422078, 65351.15872039303, -25267.350705546225, -36312.956966514226, -366.5686090670358, -4521.959069008716, -187500.02235174447, -32998.6402986813, 13220.542755191656, -42569.32199827695, 43251.65370126411, -36738.780050132285, -4841.365497275055, -30062.984533665724, -39504.20492937624, -42405.14843525272, 0.038, 0.9560000000000001, 0.32, 192.0, 0.0, 0.0, 0.0, 0.0, 0.0, 0.0, 0.0, 0.0, 0.0, 1.695766207705425E9, 0.0, 2023-09-26 17:10:07.705
192.0, 47060.16743900388, 65329.34341780465, -25251.838594894245, -36295.99199247265, -356.44326882878175, -4571.401127743856, -187500.02235174447, -33021.282615814525, 13233.104435575538, -42556.02271032604, 43266.495259582436, -36737.03661406477, -4839.286785040711, -30053.8426701835, -39497.63351650638, -42394.44194965863, 0.036000000000000004, 0.9580000000000001, 0.318, 192.0, 0.5, 16.0, 14.5, 120.0, 4.5, 120.0, 0.0, 0.0, 0.0, 1.695766207705429E9, 0.0, 2023-09-26 17:10:07.705
194.0, 47054.26657846768, 65356.925470462505, -25257.47123449698, -36303.94921349874, -354.29750136107225, -4508.190394424248, -187500.02235174447, -32986.57035667543, 13229.95283960734, -42549.42894571173, 43217.32142178076, -36729.191151760955, -4824.825206378127, -30048.90293465888, -39492.0232286481, -42438.51958972449, 0.036000000000000004, 0.9580000000000001, 0.318, 192.0, 0.0, 0.0, 0.0, 0.0, 0.0, 0.0, 0.0, 0.0, 0.0, 1.695766207765818E9, 0.0, 2023-09-26 17:10:07.765
196.0, 47055.25005522371, 65337.613563253115, -25259.72876068697, -36302.250480920135, -368.6026178124688, -4569.769450398619, -187500.02235174447, -33031.98910140862, 13226.689484916866, -42557.18500103772, 43288.73524531547, -36732.342747729155, -4831.709543670362, -30059.296495830597, -39502.640307264366, -42362.747176021, 0.036000000000000004, 0.9580000000000001, 0.318, 192.0, 0.0, 0.0, 0.0, 0.0, 0.0, 0.0, 0.0, 0.0, 0.0, 1.695766207765831E9, 0.0, 2023-09-26 17:10:07.765
198.0, 47064.03429079465, 65360.85937748664, -25250.542193715835, -36297.53426284007, -351.16825713732925, -4519.008638740616, -187500.02235174447, -32994.54992944597, 13235.630182698987, -42544.31039623146, 43231.403020787606, -36722.82090459119, -4830.256680280767, -30048.344141047495, -39495.86772869441, -42423.07453430588, 0.036000000000000004, 0.9580000000000001, 0.318, 192.0, 0.0, 0.0, 0.0, 0.0, 0.0, 0.0, 0.0, 0.0, 0.0, 1.695766207765835E9, 0.0, 2023-09-26 17:10:07.765
200.0, 47071.2092007648, 65345.391970323566, -25247.211783791994, -36291.5663470705, -357.71731826273424, -4565.500267207654, -187500.02235174447, -33020.9473396477, 13239.541737978667, -42540.17532350723, 43273.826631763775, -36719.758715600816, -4840.33731703011, -30042.063300855556, -39495.89008043886, -42382.93080126415, 0.036000000000000004, 0.9580000000000001, 0.318, 192.0, 0.0, 0.0, 0.0, 0.0, 0.0, 0.0, 0.0, 0.0, 0.0, 1.695766207765838E9, 0.0, 2023-09-26 17:10:07.765
202.0, 47070.62805540897, 65367.0284589563, -25247.725873914467, -36298.45068436273, -346.8320187129997, -4502.602458310421, -187500.02235174447, -32974.992153047584, 13236.85952864403, -42541.20350375218, 43222.730543938946, -36720.541026656756, -4832.022468092736, -30046.28778055761, -39492.38085655938, -42439.793639158444, 0.032, 0.96, 0.32, 192.0, 0.5, 0.0, 15.0, 0.0, 5.0, 0.0, 0.0, 0.0, 0.0, 1.695766207765841E9, 0.0, 2023-09-26 17:10:07.765
204.0, 47066.42592745137, 65339.17818536499, -25240.66272266659, -36296.32726863948, -354.61042578344654, -4566.506095708143, -187500.02235174447, -33024.85889492737, 13244.637935714476, -42537.7389833616, 43296.60305936373, -36726.821866848695, -4827.082732568113, -30043.158536333864, -39483.01547563261, -42361.47312658705, 0.032, 0.96, 0.32, 192.0, 0.0, 0.0, 0.0, 0.0, 0.0, 0.0, 0.0, 0.0, 0.0, 1.695766207765844E9, 0.0, 2023-09-26 17:10:07.765
206.0, 47042.17428471736, 65334.260801584824, -25262.00863862141, -36326.18919923177, -359.8407339859884, -4520.595612596942, -187500.02235174447, -33003.043592338996, 13230.511633218723, -42556.15682079278, 43210.191215299514, -36741.41755597801, -4837.990383862303, -30062.068112143053, -39495.845376949954, -42459.46317427912, 0.032, 0.96, 0.32, 192.0, 0.0, 0.0, 0.0, 0.0, 0.0, 0.0, 0.0, 0.0, 0.0, 1.695766207765848E9, 0.0, 2023-09-26 17:10:07.765
208.0, 47054.1548197454, 65319.866278155605, -25255.437225751546, -36321.6741468518, -363.59582705447997, -4584.365139527934, -187500.02235174447, -33038.895790445305, 13219.179298779882, -42575.155803579786, 43308.09185601376, -36756.862611396624, -4835.688154183406, -30077.647278028406, -39505.68014451029, -42343.63643451172, 0.032, 0.96, 0.32, 192.0, 0.0, 0.0, 0.0, 0.0, 0.0, 0.0, 0.0, 0.0, 0.0, 1.695766207765851E9, 0.0, 2023-09-26 17:10:07.765
210.0, 47053.99835753422, 65335.91483067451, -25256.443054252035, -36316.801466560544, -349.0895449029857, -4522.808435298019, -187500.02235174447, -32985.5868799194, 13227.985886095274, -42565.499849975095, 43221.702363694, -36743.85389612364, -4826.032200578714, -30065.912612189368, -39495.30893508303, -42446.29799679494, 0.032, 0.96, 0.32, 192.0, 0.0, 0.0, 0.0, 0.0, 0.0, 0.0, 0.0, 0.0, 0.0, 1.695766207824652E9, 0.0, 2023-09-26 17:10:07.824
212.0, 47066.5600379181, 65334.90900217403, -25249.066978581784, -36303.14455069835, -359.6395682858906, -4567.646034675364, -187500.02235174447, -33031.9443979197, 13227.650609928443, -42567.15387906479, 43314.797379350355, -36742.64690192305, -4834.302346027177, -30064.727969733238, -39500.96392643022, -42336.617986752746, 0.036000000000000004, 0.9580000000000001, 0.318, 192.0, 0.5, 16.0, 14.5, 120.0, 4.5, 120.0, 0.0, 0.0, 0.0, 1.695766207824685E9, 0.0, 2023-09-26 17:10:07.824
214.0, 47057.999319791714, 65333.50084227334, -25253.984362361953, -36305.64794607734, -347.5919780244801, -4530.430380157278, -187500.02235174447, -32991.95712708916, 13244.90615664794, -42549.361890478365, 43211.35350601119, -36723.62556739159, -4828.62500293553, -30052.43451028282, -39483.48486226617, -42463.55354351444, 0.036000000000000004, 0.9580000000000001, 0.318, 192.0, 0.0, 0.0, 0.0, 0.0, 0.0, 0.0, 0.0, 0.0, 0.0, 1.695766207824689E9, 0.0, 2023-09-26 17:10:07.824
216.0, 47055.54062790163, 65331.2209643389, -25255.258411795905, -36304.217434432205, -358.8572572299549, -4558.638281659875, -187500.02235174447, -33024.61302573836, 13227.941182606362, -42569.72432967715, 43311.10934151523, -36742.758660645326, -4837.141017573002, -30069.779463980136, -39499.93574618528, -42342.04946065539, 0.036000000000000004, 0.9580000000000001, 0.318, 192.0, 0.0, 0.0, 0.0, 0.0, 0.0, 0.0, 0.0, 0.0, 0.0, 1.695766207824693E9, 0.0, 2023-09-26 17:10:07.824
218.0, 47047.22577896426, 65322.168507834496, -25264.914365400597, -36314.47688513719, -353.112858904941, -4539.304022706035, -187500.02235174447, -32999.6908306707, 13237.753598422241, -42560.98479759512, 43228.05025911931, -36741.439907722466, -4836.001078605781, -30061.33050457603, -39492.44791179275, -42448.77904042948, 0.036000000000000004, 0.9580000000000001, 0.318, 192.0, 0.0, 0.0, 0.0, 0.0, 0.0, 0.0, 0.0, 0.0, 0.0, 1.695766207824696E9, 0.0, 2023-09-26 17:10:07.824
220.0, 47063.58725590554, 65334.43961554046, -25256.823033907778, -36305.55853909952, -351.45882981524824, -4557.811267115029, -187500.02235174447, -33020.924987903236, 13226.197746538848, -42567.667969187256, 43300.89459429915, -36746.424346736, -4826.09925581208, -30070.22649886924, -39499.10873164043, -42349.73846074801, 0.036000000000000004, 0.9580000000000001, 0.318, 192.0, 0.0, 0.0, 0.0, 0.0, 0.0, 0.0, 0.0, 0.0, 0.0, 1.6957662078247E9, 0.0, 2023-09-26 17:10:07.824
222.0, 47051.67377611087, 65320.67094095599, -25261.15927233211, -36309.89477752385, -344.1274576339075, -4550.256377489135, -187500.02235174447, -33000.093162070894, 13243.766217680719, -42554.50279170308, 43206.21260478647, -36729.057041294225, -4827.283898268211, -30056.27901032913, -39482.05435062103, -42472.04720640746, 0.036000000000000004, 0.9560000000000001, 0.322, 192.0, 0.5, 16.0, 14.5, 112.0, 5.0, 8.0, 0.0, 0.0, 0.0, 1.695766207824703E9, 0.0, 2023-09-26 17:10:07.824
224.0, 47054.803020334606, 65337.546508019754, -25267.060132868308, -36316.64500434935, -358.5443328075806, -4544.377868697389, -187500.02235174447, -33017.25930181257, 13222.442653470356, -42571.33365527793, 43283.59434409074, -36744.74796590185, -4831.8660058815485, -30073.15457739289, -39501.05333340804, -42371.10672844729, 0.036000000000000004, 0.9560000000000001, 0.322, 192.0, 0.0, 0.0, 0.0, 0.0, 0.0, 0.0, 0.0, 0.0, 0.0, 1.69576620788473E9, 0.0, 2023-09-26 17:10:07.884
226.0, 47054.28893021213, 65316.714682187405, -25258.633525208657, -36312.06289673602, -339.43359129829304, -4562.482781706189, -187500.02235174447, -33001.47897022712, 13240.18993856787, -42557.07324231544, 43232.6547184771, -36737.41659372051, -4837.073962339636, -30059.899992930892, -39484.445987277744, -42444.19693281614, 0.036000000000000004, 0.9560000000000001, 0.322, 192.0, 0.0, 0.0, 0.0, 0.0, 0.0, 0.0, 0.0, 0.0, 0.0, 1.695766207884744E9, 0.0, 2023-09-26 17:10:07.884
228.0, 47051.249092966216, 65329.94691490495, -25261.114568843197, -36318.18727471677, -345.6250245124131, -4538.387601183367, -187500.02235174447, -33004.63056619532, 13228.611734940021, -42569.16553606577, 43267.27757063837, -36744.9714833464, -4826.255718023267, -30071.500548303196, -39485.27300182259, -42390.91037403469, 0.036000000000000004, 0.9560000000000001, 0.322, 192.0, 0.0, 0.0, 0.0, 0.0, 0.0, 0.0, 0.0, 0.0, 0.0, 1.695766207884747E9, 0.0, 2023-09-26 17:10:07.884
230.0, 47048.74569758722, 65311.10439432912, -25264.28851655585, -36313.62751884789, -348.6201582694243, -4555.263168247124, -187500.02235174447, -33006.08342958491, 13233.32795302009, -42564.583428452424, 43247.09394539523, -36748.23483803688, -4825.249889522778, -30064.593859266504, -39485.83179543398, -42428.50600820852, 0.036000000000000004, 0.9560000000000001, 0.322, 192.0, 0.0, 0.0, 0.0, 0.0, 0.0, 0.0, 0.0, 0.0, 0.0, 1.69576620788475E9, 0.0, 2023-09-26 17:10:07.884
232.0, 47050.355023188, 65339.20053710944, -25271.977516648476, -36316.68970783827, -352.2634926156393, -4514.56064159401, -187500.02235174447, -32996.49453121359, 13220.989790080761, -42565.499849975095, 43276.486489353956, -36753.04046309477, -4833.855311138072, -30066.493757545206, -39502.72971424219, -42378.92983900665, 0.034, 0.9580000000000001, 0.316, 192.0, 0.5, 8.0, 14.5, 120.0, 4.5, 112.0, 0.0, 0.0, 0.0, 1.695766207884754E9, 0.0, 2023-09-26 17:10:07.884
234.0, 47050.466781910276, 65314.43480425296, -25268.04360962434, -36307.70430656723, -358.14200140738507, -4560.359365982934, -187500.02235174447, -33015.80643842297, 13227.404740739436, -42553.049928313485, 43284.13078595767, -36743.49626821235, -4845.679383954929, -30058.313019074565, -39500.06985665201, -42383.735464064535, 0.034, 0.9580000000000001, 0.316, 192.0, 0.0, 0.0, 0.0, 0.0, 0.0, 0.0, 0.0, 0.0, 0.0, 1.695766207884757E9, 0.0, 2023-09-26 17:10:07.884
236.0, 47048.61158712049, 65336.89830743054, -25269.80939743631, -36312.12995196938, -348.50839954714775, -4514.94062124975, -187500.02235174447, -32996.15925504676, 13223.157909292926, -42553.56401843596, 43266.94229447154, -36739.338843743666, -4841.589014719608, -30060.749359220194, -39502.19327237526, -42391.75974032399, 0.034, 0.9580000000000001, 0.316, 192.0, 0.0, 0.0, 0.0, 0.0, 0.0, 0.0, 0.0, 0.0, 0.0, 1.69576620788476E9, 0.0, 2023-09-26 17:10:07.884
238.0, 47052.6572528669, 65312.69136818545, -25263.43915026655, -36307.078457722484, -356.2868066175946, -4566.416688730323, -187500.02235174447, -33021.617891981354, 13233.52911872019, -42551.53000969053, 43277.22409692098, -36731.6721953955, -4834.279994282722, -30060.548193520095, -39496.426522305796, -42394.46430140309, 0.034, 0.9580000000000001, 0.316, 192.0, 0.0, 0.0, 0.0, 0.0, 0.0, 0.0, 0.0, 0.0, 0.0, 1.695766207884763E9, 0.0, 2023-09-26 17:10:07.884
