%OpenBCI Raw EXG Data
%Number of channels = 16
%Sample Rate = 125 Hz
%Board = OpenBCI_GUI$BoardCytonSerialDaisy
Sample Index, EXG Channel 0, EXG Channel 1, EXG Channel 2, EXG Channel 3, EXG Channel 4, EXG Channel 5, EXG Channel 6, EXG Channel 7, EXG Channel 8, EXG Channel 9, EXG Channel 10, EXG Channel 11, EXG Channel 12, EXG Channel 13, EXG Channel 14, EXG Channel 15, Accel Channel 0, Accel Channel 1, Accel Channel 2, Other, Other, Other, Other, Other, Other, Other, Analog Channel 0, Analog Channel 1, Analog Channel 2, Timestamp, Other, Timestamp (Formatted)
0.0, 49531.59982342718, 47226.24090030681, 15422.413101483955, 21536.039893155088, 19128.555849618417, 15127.66064735182, -187500.02235174447, 14628.099158775707, 0.0, 0.0, 0.0, 0.0, 0.0, 0.0, 0.0, 0.0, 0.0, 0.0, 0.0, 192.0, 0.0, 0.0, 0.0, 0.0, 0.0, 0.0, 0.0, 0.0, 0.0, 1.696016209999796E9, 0.0, 2023-09-29 14:36:49.999
194.0, 49596.57634455876, 47240.613071991575, 15436.897031890992, 21539.415006567837, 19118.050529724424, 15124.4196444058, -187500.02235174447, 14623.94173430702, 41428.846589189365, 16443.373732969016, 26557.35928503982, 18266.62787993287, 36439.8031162981, 24381.752238482506, -22080.260167152905, 13896.370100542319, -0.024, 0.499, -0.076, 192.0, 127.0, 64.0, 15.5, 24.0, 125.5, 32.0, 0.0, 0.0, 0.0, 1.696016209999828E9, 0.0, 2023-09-29 14:36:49.999
196.0, 49533.432666472516, 47227.22437706285, 15408.040929799192, 21523.25469532665, 19121.090366970348, 15132.645086365354, -187500.02235174447, 14628.389731453626, 41426.96904265512, 16443.172567268917, 26660.065550811953, 18257.687182150745, 36432.96348249477, 24385.462628062087, -22093.112420214704, 13896.191286586678, -0.024, 0.499, -0.076, 192.0, 0.0, 0.0, 0.0, 0.0, 0.0, 0.0, 0.0, 0.0, 0.0, 1.69601620999984E9, 0.0, 2023-09-29 14:36:49.999
198.0, 49583.2547048634, 47240.43425803593, 15437.925212135937, 21538.45388155626, 19126.946524017636, 15134.90261255534, -187500.02235174447, 14633.150653022607, 41426.72317346611, 16444.178395769406, 26550.78787216996, 18257.888347850843, 36438.81963954206, 24395.878540978258, -22096.889865027653, 13879.092202078367, -0.024, 0.499, -0.076, 192.0, 0.0, 0.0, 0.0, 0.0, 0.0, 0.0, 0.0, 0.0, 0.0, 1.69601620999985E9, 0.0, 2023-09-29 14:36:49.999
200.0, 49533.298556005786, 47224.43040900593, 15408.53266817721, 21527.859154684444, 19129.293457185442, 15134.768502088607, -187500.02235174447, 14641.465501959981, 41423.526874009, 16444.40191321396, 26648.84497509539, 18253.395647215326, 36435.712747062775, 24391.11761940928, -22099.23679819546, 13893.553780740951, -0.024, 0.499, -0.076, 192.0, 0.0, 0.0, 0.0, 0.0, 0.0, 0.0, 0.0, 0.0, 0.0, 1.69601620999986E9, 0.0, 2023-09-29 14:36:49.999
202.0, 49579.81253621728, 47239.2496155798, 15431.4432062439, 21540.376131579415, 19129.561678118906, 15132.421568920801, -187500.02235174447, 14643.253641516405, 41425.31501356543, 16439.640991644977, 26534.9628370956, 18255.049676305018, 36439.24432268671, 24392.12344790977, -22100.354385418224, 13877.482876477585, -0.024, 0.499, -0.076, 192.0, 0.0, 0.0, 0.0, 0.0, 0.0, 0.0, 0.0, 0.0, 0.0, 1.696016209999869E9, 0.0, 2023-09-29 14:36:49.999
204.0, 49538.99825084189, 47231.87353990955, 15405.314016975644, 21532.55302102006, 19130.634561852763, 15134.209708477225, -187500.02235174447, 14643.343048494227, 41417.737772195076, 16436.601154399057, 26665.85465262588, 18253.306240237504, 36431.532970849636, 24387.809561229893, -22103.95301627553, 13903.187382601189, -0.035, 0.7525, -0.11699999999999999, 192.0, 127.0, 72.0, 15.5, 56.0, 125.5, 8.0, 0.0, 0.0, 0.0, 1.696016209999879E9, 0.0, 2023-09-29 14:36:49.999
206.0, 49583.18764963003, 47247.184484861435, 15427.889278875504, 21542.946582191777, 19126.477137384074, 15125.112548483916, -187500.02235174447, 14635.788158868332, 41426.76787695502, 16447.15117778196, 26540.707235420614, 18265.13031305436, 36440.183095953835, 24397.19729390112, -22108.84804831124, 13878.533408466985, -0.035, 0.7525, -0.11699999999999999, 192.0, 0.0, 0.0, 0.0, 0.0, 0.0, 0.0, 0.0, 0.0, 0.0, 1.69601620999989E9, 0.0, 2023-09-29 14:36:49.999
208.0, 49562.35582379768, 47237.57323474565, 15416.154613036468, 21537.470404800228, 19133.78615782096, 15130.879298553384, -187500.02235174447, 14639.99028682593, 41428.17603685571, 16447.7323231378, 26675.488254486118, 18267.05256307752, 36442.82060179956, 24391.63170953175, -22111.642016368154, 13897.174763342711, -0.035, 0.7525, -0.11699999999999999, 192.0, 0.0, 0.0, 0.0, 0.0, 0.0, 0.0, 0.0, 0.0, 0.0, 1.696016209999899E9, 0.0, 2023-09-29 14:36:49.999
0.0, 24858.02320933619, 23650.67138083832, 7686.51904899109, 10846.787494038046, 9595.782708618965, 7611.171318432251, -93750.01117587223, 7343.777399513412, 20717.51901120174, 8228.638259010108, 13271.169456382926, 9135.292069350728, 18224.204268956695, 12194.910609115435, -11054.23403432775, 6937.7356097383035, -0.027500000000000004, 0.87525, -0.1505, 192.0, 127.5, 48.0, 15.5, 24.0, 125.0, 32.0, 0.0, 0.0, 0.0, 1.696016210175328E9, 0.0, 2023-09-29 14:36:50.175
2.0, 49668.10192681574, 47294.54783136223, 15367.80778977964, 21695.67605205489, 19191.18543758219, 15224.980142710227, -187500.02235174447, 14684.224389102983, 41535.375003263354, 16542.101388228108, 26975.471016820793, 18403.666425188356, 36548.52200132871, 24495.45556252665, -22202.300691878878, 13970.175560733744, -0.027500000000000004, 0.87525, -0.1505, 192.0, 0.0, 0.0, 0.0, 0.0, 0.0, 0.0, 0.0, 0.0, 0.0, 1.69601621017539E9, 0.0, 2023-09-29 14:36:50.175
4.0, 49736.18534042661, 47315.781988594776, 15381.107077730547, 21709.623540595003, 19195.588731239885, 15229.20462241228, -187500.02235174447, 14686.660729248611, 41540.67236669926, 16551.623231366066, 26974.219319131294, 18412.07068110355, 36558.42382412241, 24503.2339695971, -22196.712755765053, 13988.280473742543, -0.027500000000000004, 0.87525, -0.1505, 192.0, 0.0, 0.0, 0.0, 0.0, 0.0, 0.0, 0.0, 0.0, 0.0, 1.696016210175402E9, 0.0, 2023-09-29 14:36:50.175
6.0, 49655.294377242855, 47302.32623843268, 15363.739772288773, 21704.482639370282, 19200.640225486783, 15237.273602160645, -187500.02235174447, 14698.417746832103, 41545.03095686805, 16561.36859194858, 26990.066705950107, 18402.235913543216, 36552.83588800859, 24511.32530108992, -22207.73216578152, 13980.345604460908, -0.027500000000000004, 0.87525, -0.1505, 192.0, 0.0, 0.0, 0.0, 0.0, 0.0, 0.0, 0.0, 0.0, 0.0, 1.696016210175411E9, 0.0, 2023-09-29 14:36:50.175
8.0, 49734.55366308137, 47318.419494440495, 15382.023499253215, 21715.077366242098, 19199.94732140867, 15238.234727172225, -187500.02235174447, 14701.412880589114, 41544.762735934586, 16565.056629783707, 26948.067778118584, 18415.289332305114, 36562.737710802285, 24510.833562711905, -22194.790505741898, 13996.01417732408, -0.01, 0.996, -0.198, 192.0, 127.5, 88.0, 15.5, 16.0, 124.5, 104.0, 0.0, 0.0, 0.0, 1.696016210175421E9, 0.0, 2023-09-29 14:36:50.175
10.0, 49668.3254442603, 47290.97155224938, 15358.710629786328, 21697.77711603369, 19200.17083885322, 15241.654544073886, -187500.02235174447, 14706.19615390255, 41540.24768355461, 16568.47644668537, 27006.942273013865, 18408.6955676908, 36548.58905656207, 24500.931739918204, -22202.725375023532, 13987.34170047542, -0.01, 0.996, -0.198, 192.0, 0.0, 0.0, 0.0, 0.0, 0.0, 0.0, 0.0, 0.0, 0.0, 1.696016210175431E9, 0.0, 2023-09-29 14:36:50.175
12.0, 49740.45452361757, 47312.473930415385, 15390.80773482415, 21723.571029135113, 19210.497344791573, 15249.857634288985, -187500.02235174447, 14711.851145249742, 41537.81134340898, 16573.304423487716, 26954.683894477355, 18414.529372993635, 36553.372329875514, 24498.450696283664, -22189.649604517177, 13996.1035843019, -0.01, 0.996, -0.198, 192.0, 0.0, 0.0, 0.0, 0.0, 0.0, 0.0, 0.0, 0.0, 0.0, 1.69601621017544E9, 0.0, 2023-09-29 14:36:50.175
14.0, 49667.096098315254, 47295.19603195143, 15360.856397254038, 21706.136668459974, 19200.014376642033, 15240.78282604013, -187500.02235174447, 14702.91044746762, 41534.14565731832, 16574.243196754836, 27042.39213971998, 18402.63824494341, 36546.15271641644, 24495.07558287091, -22189.984880684005, 13997.757613391592, -0.01, 0.996, -0.198, 192.0, 0.0, 0.0, 0.0, 0.0, 0.0, 0.0, 0.0, 0.0, 0.0, 1.696016210175449E9, 0.0, 2023-09-29 14:36:50.175
16.0, 49723.60130829827, 47321.74990436434, 15386.940883033381, 21721.6264273675, 19192.32537654941, 15230.21045091277, -187500.02235174447, 14689.342938583248, 41539.06304109848, 16579.85348461312, 26956.315571822593, 18406.862724645463, 36547.96320771733, 24484.771428677017, -22194.56698829734, 13987.207590008687, -0.01, 0.996, -0.198, 192.0, 0.0, 0.0, 0.0, 0.0, 0.0, 0.0, 0.0, 0.0, 0.0, 1.696016210235586E9, 0.0, 2023-09-29 14:36:50.235
18.0, 49667.476077971, 47314.06090427171, 15367.070182212614, 21723.794546579666, 19198.94149290818, 15238.324134150045, -187500.02235174447, 14696.540200297857, 41546.46146851319, 16588.660071928512, 27043.39796822047, 18409.433175257825, 36551.29361764117, 24486.961899633636, -22205.07230819134, 13983.072517284456, -0.016, 0.998, -0.20800000000000002, 192.0, 127.5, 64.0, 15.5, 24.0, 124.5, 64.0, 0.0, 0.0, 0.0, 1.696016210235612E9, 0.0, 2023-09-29 14:36:50.235
20.0, 49746.109514964766, 47337.35142199414, 15395.747470348773, 21729.740110604776, 19186.55862647994, 15224.555459565576, -187500.02235174447, 14678.994080900442, 41560.52071577558, 16609.827173927686, 26926.18542029684, 18432.991913913716, 36563.83294628059, 24492.058097369445, -22198.29972962138, 13975.808200336482, -0.016, 0.998, -0.20800000000000002, 192.0, 0.0, 0.0, 0.0, 0.0, 0.0, 0.0, 0.0, 0.0, 0.0, 1.696016210235622E9, 0.0, 2023-09-29 14:36:50.235
22.0, 49708.625639513215, 47321.79460785325, 15367.561920590631, 21719.39125292197, 19186.80449566895, 15227.841166000506, -187500.02235174447, 14679.61992974519, 41551.065927870986, 16598.80776391122, 27066.01793360924, 18421.346655052505, 36559.60846657854, 24466.822977879405, -22210.123802438236, 13992.795526122514, -0.016, 0.998, -0.20800000000000002, 192.0, 0.0, 0.0, 0.0, 0.0, 0.0, 0.0, 0.0, 0.0, 0.0, 1.696016210235632E9, 0.0, 2023-09-29 14:36:50.235
24.0, 49739.381639883715, 47344.45927673093, 15397.3344442051, 21734.277514729205, 19202.808344698948, 15241.386323140423, -187500.02235174447, 14687.688909493556, 41566.73450073415, 16615.48216527488, 26927.839449386534, 18429.281524334136, 36567.85626028255, 24478.781161162995, -22209.00621521547, 13968.186255477221, -0.016, 0.998, -0.20800000000000002, 192.0, 0.0, 0.0, 0.0, 0.0, 0.0, 0.0, 0.0, 0.0, 0.0, 1.696016210235746E9, 0.0, 2023-09-29 14:36:50.235
26.0, 49714.86177621625, 47327.74017187836, 15370.400592136455, 21715.233828453285, 19193.755888194548, 15222.163822908858, -187500.02235174447, 14678.412935544604, 41556.720919218176, 16597.57841796618, 27040.894572841476, 18420.273771318647, 36553.90877174244, 24444.49358516855, -22200.892531978196, 13995.29892150151, -0.016, 0.998, -0.20800000000000002, 192.0, 0.0, 0.0, 0.0, 0.0, 0.0, 0.0, 0.0, 0.0, 0.0, 1.696016210235765E9, 0.0, 2023-09-29 14:36:50.235
28.0, 49738.46521836105, 47349.84604714466, 15395.211028481846, 21736.64679964147, 19198.270940574523, 15234.457282359277, -187500.02235174447, 14684.067926891796, 41564.23110535516, 16609.871877416597, 26907.11938227646, 18423.045387631108, 36559.60846657854, 24490.69464095767, -22207.843924503795, 13961.637194351817, -0.016, 0.998, -0.22, 192.0, 127.5, 64.0, 15.5, 24.0, 124.5, 16.0, 0.0, 0.0, 0.0, 1.696016210235774E9, 0.0, 2023-09-29 14:36:50.235
30.0, 49729.8374450013, 47343.676965675, 15377.642557339974, 21733.897535073465, 19203.009510399046, 15232.11034919147, -187500.02235174447, 14692.159258384618, 41561.34773032043, 16618.09731937615, 27019.883933053487, 18433.014265658174, 36562.20126893536, 24512.979330179613, -22198.389136599202, 14002.540886705028, -0.016, 0.998, -0.22, 192.0, 0.0, 0.0, 0.0, 0.0, 0.0, 0.0, 0.0, 0.0, 0.0, 1.696016210295912E9, 0.0, 2023-09-29 14:36:50.295
32.0, 49751.71980282305, 47353.601140213155, 15394.585179637097, 21741.430072954903, 19198.963844652637, 15238.413541127866, -187500.02235174447, 14689.857028705721, 41568.83556471295, 16624.221697356905, 26897.150504249395, 18436.702303493297, 36568.191536449376, 24509.023071411022, -22204.178238413126, 13984.950063818702, -0.016, 0.998, -0.22, 192.0, 0.0, 0.0, 0.0, 0.0, 0.0, 0.0, 0.0, 0.0, 0.0, 1.696016210295936E9, 0.0, 2023-09-29 14:36:50.295
34.0, 49761.44281166111, 47354.69637569146, 15379.2295311963, 21735.19393625187, 19199.142658608278, 15242.347448152, -187500.02235174447, 14692.025147917886, 41563.985236166154, 16620.28779033277, 27021.64972086546, 18439.49627155021, 36567.05159748216, 24497.243702083077, -22201.3395668673, 14018.321218290475, -0.016, 0.998, -0.22, 192.0, 0.0, 0.0, 0.0, 0.0, 0.0, 0.0, 0.0, 0.0, 0.0, 1.696016210295946E9, 0.0, 2023-09-29 14:36:50.295
36.0, 49748.29998592138, 47364.5311432518, 15391.098307502069, 21745.855718357056, 19194.381737039297, 15237.161843438369, -187500.02235174447, 14686.593674015247, 41570.757814736106, 16633.050636416752, 26908.214617754773, 18440.256230861694, 36564.548202103164, 24521.361234350352, -22211.420203616646, 13985.441802196718, -0.016, 0.998, -0.22, 192.0, 0.0, 0.0, 0.0, 0.0, 0.0, 0.0, 0.0, 0.0, 0.0, 1.696016210295955E9, 0.0, 2023-09-29 14:36:50.295
38.0, 49759.095878493295, 47358.78674492678, 15377.150818961958, 21727.057901270142, 19193.688832961183, 15231.596259068998, -187500.02235174447, 14684.134982125162, 41556.22918084016, 16612.039996628762, 27008.417488147916, 18429.303876078593, 36561.66482706843, 24497.71308871664, -22211.86723850575, 14007.257104785098, -0.014, 1.0, -0.224, 192.0, 127.5, 72.0, 15.5, 32.0, 124.5, 0.0, 0.0, 0.0, 0.0, 1.696016210295964E9, 0.0, 2023-09-29 14:36:50.295
40.0, 49731.960860724554, 47366.49809676386, 15387.186752222391, 21735.126881018507, 19196.192228340176, 15235.73133179323, -187500.02235174447, 14687.219522859994, 41564.85695419991, 16623.685255489978, 26906.359422964983, 18429.907373178885, 36560.167260189926, 24518.969597693635, -22212.940122239605, 13975.137648002821, -0.014, 1.0, -0.224, 192.0, 0.0, 0.0, 0.0, 0.0, 0.0, 0.0, 0.0, 0.0, 0.0, 1.696016210295974E9, 0.0, 2023-09-29 14:36:50.295
42.0, 49764.88498030722, 47359.36789028262, 15374.982699749793, 21719.279494199694, 19186.133943335288, 15220.509793819165, -187500.02235174447, 14676.066002376796, 41558.240837841135, 16616.644455986556, 26972.788807486155, 18434.064797647574, 36562.33537940209, 24521.249475628076, -22209.117973937748, 13998.04818606951, -0.014, 1.0, -0.224, 192.0, 0.0, 0.0, 0.0, 0.0, 0.0, 0.0, 0.0, 0.0, 0.0, 1.696016210295983E9, 0.0, 2023-09-29 14:36:50.295
44.0, 49722.12609316422, 47358.56322748223, 15373.105153215547, 21731.461194927837, 19192.481838760596, 15229.316381134557, -187500.02235174447, 14682.838580946755, 41556.65386398481, 16605.692101203455, 26899.050402528097, 18415.557553238577, 36546.733861772285, 24515.75094649207, -22234.710721339074, 13957.077438482935, -0.014, 1.0, -0.224, 192.0, 0.0, 0.0, 0.0, 0.0, 0.0, 0.0, 0.0, 0.0, 0.0, 1.696016210295991E9, 0.0, 2023-09-29 14:36:50.295
46.0, 49786.633227662234, 47360.03844261628, 15375.206217194345, 21722.408738423437, 19181.529483977494, 15220.375683352433, -187500.02235174447, 14675.306043065315, 41555.379814550855, 16613.314046062715, 26958.863670690498, 18431.561402268577, 36560.97192299031, 24528.647903042784, -22216.20347693008, 14002.831459382947, -0.014, 1.0, -0.224, 192.0, 0.0, 0.0, 0.0, 0.0, 0.0, 0.0, 0.0, 0.0, 0.0, 1.696016210356235E9, 0.0, 2023-09-29 14:36:50.356
48.0, 49718.70627626256, 47355.09870709166, 15367.047830468158, 21720.01710176672, 19188.95026313666, 15222.655561286874, -187500.02235174447, 14677.00477564392, 41555.737442462145, 16614.699854218943, 26938.590638469537, 18419.223239329247, 36552.96999847532, 24535.778109524028, -22235.336570183823, 13967.493351399107, -0.006, 1.002, -0.226, 192.0, 127.5, 104.0, 15.5, 40.0, 124.0, 120.0, 0.0, 0.0, 0.0, 1.696016210356256E9, 0.0, 2023-09-29 14:36:50.356
50.0, 49775.16678275666, 47367.36981479762, 15376.770839306217, 21721.939351789875, 19190.336071292888, 15220.621552541443, -187500.02235174447, 14675.484857020958, 41556.989140151636, 16613.8728396741, 26955.756778211213, 18427.627495244444, 36564.19057419188, 24536.20279266868, -22222.3949101442, 13987.542866175518, -0.006, 1.002, -0.226, 192.0, 0.0, 0.0, 0.0, 0.0, 0.0, 0.0, 0.0, 0.0, 0.0, 1.696016210356267E9, 0.0, 2023-09-29 14:36:50.356
52.0, 49704.848194700266, 47345.71097442043, 15360.968155976316, 21722.520497145713, 19191.163085837732, 15223.862555487462, -187500.02235174447, 14680.312833823304, 41560.16308786429, 16612.01764488431, 26933.740309922734, 18424.83352718753, 36558.66969331142, 24538.683836303215, -22230.709759081576, 13965.302880442487, -0.006, 1.002, -0.226, 192.0, 0.0, 0.0, 0.0, 0.0, 0.0, 0.0, 0.0, 0.0, 0.0, 1.696016210356276E9, 0.0, 2023-09-29 14:36:50.356
54.0, 49782.14052702672, 47351.32126227871, 15370.177074691901, 21716.86550579852, 19177.528521719996, 15215.30183736108, -187500.02235174447, 14665.963013882998, 41559.291369830535, 16603.09929884664, 26925.22429528526, 18431.583754013034, 36560.994274734774, 24530.704263532672, -22224.38421540072, 13993.287264500532, -0.006, 1.002, -0.226, 192.0, 0.0, 0.0, 0.0, 0.0, 0.0, 0.0, 0.0, 0.0, 0.0, 1.696016210356285E9, 0.0, 2023-09-29 14:36:50.356
56.0, 49714.302982604866, 47348.99668085536, 15358.75533327524, 21728.354302448548, 19187.385641024786, 15231.640962557909, -187500.02235174447, 14682.637415246656, 41564.87930594436, 16609.38013903858, 26957.455510789816, 18416.74219569471, 36553.75230953125, 24548.228031185634, -22243.36084644328, 13972.678956112739, -0.006, 1.002, -0.226, 192.0, 0.0, 0.0, 0.0, 0.0, 0.0, 0.0, 0.0, 0.0, 0.0, 1.696016210356294E9, 0.0, 2023-09-29 14:36:50.356
58.0, 49797.09384406732, 47367.638035731085, 15381.352946919555, 21731.796471094665, 19181.775353166504, 15225.829508999528, -187500.02235174447, 14674.568435498291, 41569.88609670235, 16614.699854218943, 26917.17766728135, 18434.6012395145, 36566.22458293731, 24560.342676680408, -22222.506668866477, 13995.81301162398, 0.002, 1.004, -0.23800000000000002, 192.0, 0.0, 8.0, 15.5, 48.0, 124.0, 72.0, 0.0, 0.0, 0.0, 1.696016210356303E9, 0.0, 2023-09-29 14:36:50.356
60.0, 49727.11053217775, 47355.14341058057, 15360.588176320574, 21729.516593160224, 19184.815190412428, 15232.043293958104, -187500.02235174447, 14683.889112936153, 41567.71797749019, 16611.078871617185, 26963.24461260374, 18426.532259766132, 36560.770757290215, 24554.330057421932, -22232.989637016017, 13976.05406952549, 0.002, 1.004, -0.23800000000000002, 192.0, 0.0, 0.0, 0.0, 0.0, 0.0, 0.0, 0.0, 0.0, 0.0, 1.696016210416515E9, 0.0, 2023-09-29 14:36:50.416
62.0, 49799.7537016575, 47372.04132938878, 15386.136220232991, 21737.339703719583, 19182.51296073353, 15227.617648555954, -187500.02235174447, 14673.830827931266, 41564.58873326644, 16614.29752281875, 26881.7948558086, 18442.64786751841, 36568.750330060764, 24559.694476091205, -22222.618427588754, 13982.469020184162, 0.002, 1.004, -0.23800000000000002, 192.0, 0.0, 0.0, 0.0, 0.0, 0.0, 0.0, 0.0, 0.0, 0.0, 1.696016210416539E9, 0.0, 2023-09-29 14:36:50.416
64.0, 49734.59836657028, 47361.692471705974, 15364.902063000449, 21738.077311286608, 19190.22431257061, 15238.279430661134, -187500.02235174447, 14682.302139079828, 41568.47793680167, 16624.042883401264, 26955.62266774448, 18446.13473965344, 36567.78920504919, 24564.43304591573, -22234.129575983236, 13982.983110306635, 0.002, 1.004, -0.23800000000000002, 192.0, 0.0, 0.0, 0.0, 0.0, 0.0, 0.0, 0.0, 0.0, 0.0, 1.696016210416549E9, 0.0, 2023-09-29 14:36:50.416
66.0, 49804.71578892658, 47386.54761154028, 15395.367490693032, 21752.82946262711, 19189.95609163715, 15231.082168946527, -187500.02235174447, 14674.076697120274, 41578.55857355101, 16634.883479462085, 26841.517012300137, 18459.83635900454, 36580.90967904445, 24577.30765072199, -22225.88178227923, 13984.972415563157, 0.002, 1.004, -0.23800000000000002, 192.0, 0.0, 0.0, 0.0, 0.0, 0.0, 0.0, 0.0, 0.0, 0.0, 1.696016210416558E9, 0.0, 2023-09-29 14:36:50.416
68.0, 49757.57595987034, 47363.57001824022, 15371.920510759415, 21738.814918853634, 19186.625681713307, 15226.231840399723, -187500.02235174447, 14674.769601198388, 41578.22329738418, 16625.629857257587, 26953.722769465778, 18444.056027419094, 36573.06421674063, 24569.573947140452, -22229.12278522525, 14002.67499717176, 0.002, 1.004, -0.23800000000000002, 192.0, 0.0, 0.0, 15.5, 40.0, 124.0, 56.0, 0.0, 0.0, 0.0, 1.696016210416598E9, 0.0, 2023-09-29 14:36:50.416
70.0, 49812.941230886136, 47379.35034982567, 15399.279045972711, 21760.272593530728, 19192.772411438516, 15228.042331700604, -187500.02235174447, 14673.115572108696, 41582.04544568604, 16626.00983691333, 26855.151576417873, 18443.6536960189, 36575.29939118617, 24574.62544138735, -22224.719491567554, 13989.934502832235, 0.002, 1.004, -0.23800000000000002, 192.0, 0.0, 0.0, 0.0, 0.0, 0.0, 0.0, 0.0, 0.0, 0.0, 1.696016210416607E9, 0.0, 2023-09-29 14:36:50.416
72.0, 49758.13475348172, 47356.79743967026, 15367.830141524095, 21737.6302763975, 19187.787972424983, 15227.170613666847, -187500.02235174447, 14673.47320001998, 41572.4118438258, 16624.042883401264, 26979.24846163374, 18444.056027419094, 36573.153623718455, 24570.266851218566, -22221.880820021728, 14012.9567996212, 0.002, 1.004, -0.23800000000000002, 192.0, 0.0, 0.0, 0.0, 0.0, 0.0, 0.0, 0.0, 0.0, 0.0, 1.696016210416616E9, 0.0, 2023-09-29 14:36:50.416
74.0, 49796.937381856136, 47375.99758815737, 15396.641540126986, 21759.579689452614, 19188.927911392202, 15237.787692283118, -187500.02235174447, 14677.921197166586, 41572.925933948274, 16628.736749736876, 26857.45380609677, 18450.18040539985, 36569.018550994224, 24571.8985285638, -22227.49110788001, 13992.594360422418, 0.002, 1.004, -0.23800000000000002, 192.0, 0.0, 0.0, 0.0, 0.0, 0.0, 0.0, 0.0, 0.0, 0.0, 1.696016210416625E9, 0.0, 2023-09-29 14:36:50.416
76.0, 49757.88888429271, 47356.395108270066, 15364.097400200058, 21740.379540965503, 19184.926949134704, 15234.993724226204, -187500.02235174447, 14674.590787242745, 41563.784070466056, 16625.361636324124, 27011.59143586057, 18447.11821640947, 36569.1303097165, 24570.71388610767, -22226.552334612887, 14022.948029392724, 0.002, 1.004, -0.23800000000000002, 192.0, 0.0, 0.0, 0.0, 0.0, 0.0, 0.0, 0.0, 0.0, 0.0, 1.696016210475442E9, 0.0, 2023-09-29 14:36:50.475
78.0, 49765.868457063254, 47377.74102422488, 15392.752336591762, 21760.563166208645, 19194.89582716177, 15247.130721465437, -187500.02235174447, 14683.687947236056, 41578.20094563973, 16629.541412537266, 26873.61411733796, 18444.748931497208, 36575.90288828646, 24578.11231352238, -22231.290904437414, 13986.33587197493, 0.008, 1.002, -0.24, 192.0, 0.0, 32.0, 15.5, 40.0, 124.0, 64.0, 0.0, 0.0, 0.0, 1.696016210475469E9, 0.0, 2023-09-29 14:36:50.475
80.0, 49759.65467210468, 47372.06368113324, 15375.452086383355, 21742.793529366678, 19190.80545792645, 15241.676895818342, -187500.02235174447, 14677.652976233123, 41581.82192824149, 16633.788243983774, 26977.23680463276, 18451.83443448954, 36585.603545380065, 24581.263909490575, -22220.15973569867, 14018.589439223939, 0.008, 1.002, -0.24, 192.0, 0.0, 0.0, 0.0, 0.0, 0.0, 0.0, 0.0, 0.0, 0.0, 1.69601621047548E9, 0.0, 2023-09-29 14:36:50.475
82.0, 49760.12405873824, 47373.33773056719, 15384.750412076763, 21751.64482017098, 19190.22431257061, 15239.709942306274, -187500.02235174447, 14675.350746554226, 41574.043521171036, 16622.500613033844, 26870.484873114216, 18435.964695926275, 36573.42184465192, 24569.573947140452, -22234.777776572442, 13989.509819687584, 0.008, 1.002, -0.24, 192.0, 0.0, 0.0, 0.0, 0.0, 0.0, 0.0, 0.0, 0.0, 0.0, 1.696016210475489E9, 0.0, 2023-09-29 14:36:50.475
84.0, 49765.33201519633, 47375.975236412916, 15376.212045694834, 21746.436863712894, 19193.018280627522, 15241.609840584975, -187500.02235174447, 14679.441115789548, 41573.08239615946, 16625.987485168873, 26964.943345182342, 18446.13473965344, 36578.92037378793, 24574.536034409528, -22232.296732937903, 14012.77798566556, 0.008, 1.002, -0.24, 192.0, 0.0, 0.0, 0.0, 0.0, 0.0, 0.0, 0.0, 0.0, 0.0, 1.696016210475498E9, 0.0, 2023-09-29 14:36:50.475
86.0, 49754.15614296868, 47372.1307363666, 15376.212045694834, 21742.502956688757, 19183.429382256196, 15230.21045091277, -187500.02235174447, 14667.773505183877, 41568.522640290576, 16629.519060792813, 26859.84544275349, 18443.877213463453, 36565.01758873673, 24566.86938606136, -22240.83509931983, 13981.083212027934, 0.008, 1.002, -0.24, 192.0, 0.0, 0.0, 0.0, 0.0, 0.0, 0.0, 0.0, 0.0, 0.0, 1.696016210475521E9, 0.0, 2023-09-29 14:36:50.475
88.0, 49782.63226540474, 47364.75466069635, 15367.204292679346, 21732.019988539218, 19180.098972332355, 15229.092863690003, -187500.02235174447, 14666.655917961112, 41565.4604513002, 16618.410243798524, 26953.700417721324, 18438.915126194373, 36570.04673123917, 24556.162900467265, -22240.87980280874, 14003.0549768275, 0.008, 0.996, -0.242, 192.0, 0.0, 32.0, 15.5, 16.0, 124.0, 56.0, 0.0, 0.0, 0.0, 1.696016210475531E9, 0.0, 2023-09-29 14:36:50.475
90.0, 49747.96470975455, 47357.53504723729, 15374.3792026495, 21733.249334484262, 19185.284577045986, 15231.551555580087, -187500.02235174447, 14667.214711572495, 41571.71893974769, 16620.19838335495, 26880.341992419006, 18428.700378978298, 36568.66092308294, 24551.62549634284, -22248.83702383483, 13973.617729379861, 0.008, 0.996, -0.242, 192.0, 0.0, 0.0, 0.0, 0.0, 0.0, 0.0, 0.0, 0.0, 0.0, 1.696016210535625E9, 0.0, 2023-09-29 14:36:50.535
92.0, 49786.56617242887, 47365.536971752284, 15378.380164907, 21729.136613504485, 19183.585844467383, 15228.891697989906, -187500.02235174447, 14663.347859781727, 41568.32147459048, 16612.24116232886, 26954.505080521714, 18433.863631947475, 36576.8863650425, 24550.798481797992, -22235.53773588392, 13999.38929073683, 0.008, 0.996, -0.242, 192.0, 0.0, 0.0, 0.0, 0.0, 0.0, 0.0, 0.0, 0.0, 0.0, 1.696016210535664E9, 0.0, 2023-09-29 14:36:50.535
94.0, 49738.71108755006, 47367.079242119704, 15371.89815901496, 21733.808128095643, 19179.94251012117, 15230.92570673534, -187500.02235174447, 14667.013545872396, 41571.60718102541, 16626.59098226917, 26890.08735300152, 18431.82962320204, 36571.276077184215, 24557.48165339013, -22241.01391327547, 13967.135723487821, 0.008, 0.996, -0.242, 192.0, 0.0, 0.0, 0.0, 0.0, 0.0, 0.0, 0.0, 0.0, 0.0, 1.696016210535675E9, 0.0, 2023-09-29 14:36:50.535
96.0, 49793.45050972111, 47367.95096015346, 15376.055583483647, 21732.73524436179, 19184.61402471233, 15230.702189290785, -187500.02235174447, 14666.700621450022, 41564.74519547763, 16623.506441534333, 26935.796670412623, 18442.089073907027, 36574.22650745231, 24554.754740566583, -22232.96728527156, 13996.81884012447, 0.008, 0.996, -0.242, 192.0, 0.0, 0.0, 0.0, 0.0, 0.0, 0.0, 0.0, 0.0, 0.0, 1.696016210535686E9, 0.0, 2023-09-29 14:36:50.535
98.0, 49736.31945089334, 47351.56713146772, 15364.276214155701, 21734.523383918215, 19189.151428836754, 15235.35135213749, -187500.02235174447, 14668.511112750903, 41563.985236166154, 16619.95251416594, 26913.08729804603, 18428.946248167307, 36563.69883581386, 24550.99964749809, -22237.16941322916, 13977.19400849271, 0.008, 0.996, -0.242, 192.0, 0.0, 0.0, 15.0, 112.0, 124.0, 56.0, 0.0, 0.0, 0.0, 1.696016210535696E9, 0.0, 2023-09-29 14:36:50.535
100.0, 49795.35040799981, 47363.90529440705, 15373.641595082474, 21729.382482693494, 19183.295271789466, 15231.3950933689, -187500.02235174447, 14665.672441205079, 41565.14752687782, 16618.276133331794, 26916.283597503138, 18432.589582513523, 36567.073949226615, 24549.09974921939, -22225.501802623487, 13995.0530523125, 0.008, 0.996, -0.242, 192.0, 0.0, 0.0, 0.0, 0.0, 0.0, 0.0, 0.0, 0.0, 0.0, 1.696016210535707E9, 0.0, 2023-09-29 14:36:50.535
102.0, 49725.09887517677, 47353.22116055741, 15366.913720001427, 21729.404834437948, 19196.37104229582, 15244.292049919612, -187500.02235174447, 14679.843447189744, 41565.661617000296, 16620.399549055048, 26916.842391114522, 18421.681931219333, 36564.23527768079, 24546.350484651386, -22234.330741683334, 13972.276624712542, 0.008, 0.996, -0.242, 192.0, 0.0, 0.0, 0.0, 0.0, 0.0, 0.0, 0.0, 0.0, 0.0, 1.696016210535724E9, 0.0, 2023-09-29 14:36:50.535
104.0, 49809.40965526219, 47375.0811666347, 15386.225627210812, 21730.947104805364, 19190.93956839318, 15241.654544073886, -187500.02235174447, 14676.714202966, 41566.89096294534, 16624.065235145717, 26883.27007094265, 18432.388416813425, 36575.07587374161, 24544.42823462823, -22217.38811938621, 13998.182296536244, 0.008, 0.996, -0.242, 192.0, 0.0, 0.0, 0.0, 0.0, 0.0, 0.0, 0.0, 0.0, 0.0, 1.696016210535733E9, 0.0, 2023-09-29 14:36:50.535
106.0, 49729.77038976794, 47359.390242027075, 15366.556092090143, 21733.517555417726, 19193.80059168346, 15245.409637142378, -187500.02235174447, 14680.156371612118, 41571.115442647395, 16622.835889200676, 26908.99692881071, 18425.526431265644, 36568.01272249374, 24551.983124254122, -22230.799166059394, 13985.53120917454, 0.008, 0.996, -0.242, 192.0, 0.0, 0.0, 0.0, 0.0, 0.0, 0.0, 0.0, 0.0, 0.0, 1.696016210595904E9, 0.0, 2023-09-29 14:36:50.595
108.0, 49810.080207595856, 47375.86347769064, 15385.644481854973, 21737.339703719583, 19180.546007221463, 15236.670105060353, -187500.02235174447, 14669.583996484756, 41571.13779439185, 16617.650284487045, 26850.345951359985, 18437.46226280478, 36575.79112956418, 24548.76447305256, -22224.808898545372, 13997.24352326912, 0.002, 0.994, -0.25, 192.0, 0.0, 8.0, 15.5, 8.0, 124.0, 24.0, 0.0, 0.0, 0.0, 1.696016210595937E9, 0.0, 2023-09-29 14:36:50.595
110.0, 49739.00166022798, 47353.46702974642, 15361.728115287795, 21729.985979793786, 19188.145600336265, 15245.92372726485, -187500.02235174447, 14682.302139079828, 41569.03673041305, 16619.103147876638, 26926.118365063474, 18431.851974946498, 36565.129347459006, 24551.401978898288, -22233.615485860766, 13992.72847088915, 0.002, 0.994, -0.25, 192.0, 0.0, 0.0, 0.0, 0.0, 0.0, 0.0, 0.0, 0.0, 0.0, 1.696016210595947E9, 0.0, 2023-09-29 14:36:50.595
112.0, 49800.6030679468, 47359.36789028262, 15379.788324807683, 21736.132709518995, 19178.690812431672, 15235.105482948482, -187500.02235174447, 14670.254548818417, 41560.52071577558, 16607.122612848594, 26862.035913710108, 18426.17463185485, 36563.14004220248, 24544.405882883773, -22229.77098581445, 14000.730395404149, 0.002, 0.994, -0.25, 192.0, 0.0, 0.0, 0.0, 0.0, 0.0, 0.0, 0.0, 0.0, 0.0, 1.696016210595987E9, 0.0, 2023-09-29 14:36:50.595
114.0, 49737.772314282935, 47343.878131375095, 15362.599833321552, 21728.935447804386, 19186.55862647994, 15236.960677738272, -187500.02235174447, 14678.18941810005, 41565.438099555744, 16604.842734914153, 26943.172746082873, 18418.73150095123, 36564.72701605881, 24543.042426472002, -22236.96824752906, 13996.237694768632, 0.002, 0.994, -0.25, 192.0, 0.0, 0.0, 0.0, 0.0, 0.0, 0.0, 0.0, 0.0, 0.0, 1.696016210595996E9, 0.0, 2023-09-29 14:36:50.595
116.0, 49801.76535865848, 47362.89946590656, 15388.863133056539, 21742.458253199846, 19184.435210756685, 15236.468939360255, -187500.02235174447, 14677.183589599561, 41564.09699488843, 16604.57451398069, 26859.867794497943, 18420.18436434083, 36566.98454224879, 24536.58277232442, -22229.949799770093, 13995.701252901705, 0.002, 0.994, -0.25, 192.0, 0.0, 0.0, 0.0, 0.0, 0.0, 0.0, 0.0, 0.0, 0.0, 1.696016210596005E9, 0.0, 2023-09-29 14:36:50.596
118.0, 49753.642052846204, 47349.33195702219, 15353.525025072699, 21721.715834345323, 19173.795780395958, 15228.668180545352, -187500.02235174447, 14672.467371519491, 41561.83946869844, 16608.508421004823, 26958.32722882357, 18417.055120117086, 36564.52585035871, 24543.020074727545, -22233.749596327496, 14004.887819872836, 0.008, 0.994, -0.24, 192.0, 0.0, 32.0, 15.5, 8.0, 124.0, 64.0, 0.0, 0.0, 0.0, 1.696016210596014E9, 0.0, 2023-09-29 14:36:50.596
120.0, 49793.42815797665, 47372.37660555561, 15381.37529866401, 21742.190032266382, 19178.377888009298, 15235.977200982237, -187500.02235174447, 14676.691851221545, 41564.611085010896, 16604.730976191877, 26853.609306050457, 18418.418576528857, 36566.20223119286, 24541.52250784904, -22236.87884055124, 13984.659491140783, 0.008, 0.994, -0.24, 192.0, 0.0, 0.0, 0.0, 0.0, 0.0, 0.0, 0.0, 0.0, 0.0, 1.696016210656068E9, 0.0, 2023-09-29 14:36:50.656
122.0, 49754.37966041323, 47352.17062856801, 15353.815597750618, 21725.985017536284, 19178.355536264844, 15237.318305649556, -187500.02235174447, 14676.33422331026, 41560.02897739756, 16598.18191506647, 26972.9676214418, 18419.871439918454, 36566.24693468177, 24533.27471414503, -22233.771948071953, 14003.703177416704, 0.008, 0.994, -0.24, 192.0, 0.0, 0.0, 0.0, 0.0, 0.0, 0.0, 0.0, 0.0, 0.0, 1.696016210656117E9, 0.0, 2023-09-29 14:36:50.656
124.0, 49775.90439032369, 47367.36981479762, 15377.03906023968, 21744.62637241201, 19179.2272542986, 15242.68272431883, -187500.02235174447, 14678.770563455888, 41564.968712922186, 16600.841772656655, 26841.338198344496, 18418.798556184596, 36560.301370656656, 24546.305781162475, -22238.264648707467, 13977.48458117063, 0.008, 0.994, -0.24, 192.0, 0.0, 0.0, 0.0, 0.0, 0.0, 0.0, 0.0, 0.0, 0.0, 1.696016210656128E9, 0.0, 2023-09-29 14:36:50.656
126.0, 49752.27859643443, 47354.56226522473, 15354.776722762195, 21721.02293026721, 19173.1252280623, 15234.30082014809, -187500.02235174447, 14671.372136041182, 41558.12907911886, 16595.34324352065, 26961.165900369397, 18415.155221838384, 36567.85626028255, 24539.734368292615, -22233.43667190512, 14010.967494364679, 0.008, 0.994, -0.24, 192.0, 0.0, 0.0, 0.0, 0.0, 0.0, 0.0, 0.0, 0.0, 0.0, 1.696016210656137E9, 0.0, 2023-09-29 14:36:50.656
128.0, 49764.37089018475, 47369.672044476516, 15378.827199796106, 21743.508785189246, 19178.690812431672, 15239.240555672714, -187500.02235174447, 14675.753077954421, 41564.968712922186, 16596.974920865887, 26842.858116967454, 18413.434137515324, 36566.53750735969, 24541.634266571316, -22237.59409637381, 13980.747935861104, 0.004, 1.002, -0.242, 192.0, 0.0, 16.0, 15.5, 40.0, 124.0, 56.0, 0.0, 0.0, 0.0, 1.696016210656146E9, 0.0, 2023-09-29 14:36:50.656
130.0, 49765.30966345187, 47366.14046885258, 15367.271347912712, 21729.851869327053, 19185.351632279355, 15244.336753408523, -187500.02235174447, 14682.302139079828, 41566.33216933396, 16597.868990644096, 26956.24851658923, 18425.817003943564, 36572.01368475124, 24540.539031093005, -22220.182087443125, 14012.174488565266, 0.004, 1.002, -0.242, 192.0, 0.0, 0.0, 0.0, 0.0, 0.0, 0.0, 0.0, 0.0, 0.0, 1.696016210656155E9, 0.0, 2023-09-29 14:36:50.656
132.0, 49767.32132045285, 47370.81198344374, 15377.217874195323, 21734.992770551777, 19183.027050856002, 15238.882927761428, -187500.02235174447, 14678.748211711432, 41567.896791445826, 16596.57258946569, 26837.001959920166, 18416.809250928076, 36567.67744632691, 24543.57886833893, -22230.866221292763, 13981.932578317235, 0.004, 1.002, -0.242, 192.0, 0.0, 0.0, 0.0, 0.0, 0.0, 0.0, 0.0, 0.0, 0.0, 1.696016210656164E9, 0.0, 2023-09-29 14:36:50.656
134.0, 49778.27367523595, 47359.680814704996, 15358.710629786328, 21728.64487512647, 19181.95416712215, 15236.535994593622, -187500.02235174447, 14676.557740754813, 41560.900695431315, 16591.47639172988, 26941.22814431526, 18419.35734979598, 36569.66675158343, 24540.00258922608, -22228.765157313963, 14011.63804669834, 0.004, 1.002, -0.242, 192.0, 0.0, 0.0, 0.0, 0.0, 0.0, 0.0, 0.0, 0.0, 0.0, 1.696016210656205E9, 0.0, 2023-09-29 14:36:50.656
136.0, 49747.763544054455, 47369.98496889889, 15369.350060147055, 21739.083139787097, 19180.858931643837, 15237.519471349655, -187500.02235174447, 14675.350746554226, 41561.548896020526, 16599.299502289236, 26846.79202399159, 18414.127041593438, 36563.11769045803, 24542.818909027446, -22237.057654506883, 13983.117220773367, 0.004, 1.002, -0.242, 192.0, 0.0, 0.0, 0.0, 0.0, 0.0, 0.0, 0.0, 0.0, 0.0, 1.696016210716456E9, 0.0, 2023-09-29 14:36:50.716
138.0, 49781.29116073742, 47366.14046885258, 15361.526949587698, 21730.29890421616, 19177.327356019898, 15233.987895725715, -187500.02235174447, 14666.722973194477, 41554.686910472745, 16588.168333550493, 26945.542030995137, 18420.385530040923, 36570.60552485055, 24536.18044092422, -22227.49110788001, 14016.711892689693, 0.006, 0.998, -0.244, 192.0, 0.0, 24.0, 15.5, 24.0, 124.0, 48.0, 0.0, 0.0, 0.0, 1.696016210716478E9, 0.0, 2023-09-29 14:36:50.716
140.0, 49737.1911689271, 47366.878076419605, 15368.098362457558, 21735.35039846306, 19181.149504321755, 15240.849881273494, -187500.02235174447, 14674.881359920664, 41563.784070466056, 16591.47639172988, 26876.11751271695, 18413.92587589334, 36565.79989979266, 24540.71784504865, -22234.844831805807, 13982.401964950797, 0.006, 0.998, -0.244, 192.0, 0.0, 0.0, 0.0, 0.0, 0.0, 0.0, 0.0, 0.0, 0.0, 1.696016210716491E9, 0.0, 2023-09-29 14:36:50.716
142.0, 49787.9519805851, 47381.25024810437, 15377.955481762348, 21724.576857635602, 19182.155332822244, 15241.766302796163, -187500.02235174447, 14674.546083753836, 41567.11448038989, 16592.19164755245, 26937.674216946867, 18424.27473357615, 36577.71337958734, 24543.511813105564, -22221.657302577176, 14016.398968267318, 0.006, 0.998, -0.244, 192.0, 0.0, 0.0, 0.0, 0.0, 0.0, 0.0, 0.0, 0.0, 0.0, 1.6960162107165E9, 0.0, 2023-09-29 14:36:50.716
144.0, 49750.781029555925, 47378.29981783627, 15375.742659061272, 21735.484508929792, 19175.002774596545, 15253.54567212411, -187500.02235174447, 14677.965900655498, 41573.0153409261, 16605.222714569893, 26893.17189373635, 18426.062873132574, 36570.71728357283, 24555.157071966776, -22227.4464043911, 13994.270741256565, 0.006, 0.998, -0.244, 192.0, 0.0, 0.0, 0.0, 0.0, 0.0, 0.0, 0.0, 0.0, 0.0, 1.696016210716509E9, 0.0, 2023-09-29 14:36:50.716
146.0, 49811.19779481862, 47394.348370355176, 15382.068202742124, 21741.76534912173, 19177.1261903198, 15260.005326271694, -187500.02235174447, 14677.876493677675, 41574.17763163777, 16614.208115840927, 26943.932705394353, 18440.03271341714, 36581.44612091138, 24562.779016826036, -22217.87985776423, 14026.189032338743, 0.006, 0.998, -0.244, 192.0, 0.0, 0.0, 0.0, 0.0, 0.0, 0.0, 0.0, 0.0, 0.0, 1.696016210716518E9, 0.0, 2023-09-29 14:36:50.716
148.0, 49727.82578800032, 47373.69535847847, 15365.796132778662, 21729.851869327053, 19177.327356019898, 15254.596204113508, -187500.02235174447, 14676.781258199366, 41578.20094563973, 16621.42772929999, 26915.411879469382, 18432.299009835602, 36576.2828679422, 24561.23674645862, -22229.79333755891, 13993.019043567068, 0.002, 0.998, -0.244, 192.0, 0.0, 8.0, 15.5, 24.0, 124.0, 48.0, 0.0, 0.0, 0.0, 1.696016210716527E9, 0.0, 2023-09-29 14:36:50.716
150.0, 49789.583657930336, 47364.06175661823, 15372.166379948423, 21722.386386678983, 19167.023201826003, 15237.273602160645, -187500.02235174447, 14668.37700228417, 41559.53723901955, 16594.47152548689, 26909.37690846645, 18418.93266665133, 36571.4325393954, 24544.00355148358, -22224.428918889633, 14012.174488565266, 0.002, 0.998, -0.244, 192.0, 0.0, 0.0, 0.0, 0.0, 0.0, 0.0, 0.0, 0.0, 0.0, 1.696016210775369E9, 0.0, 2023-09-29 14:36:50.775
152.0, 49712.06780815933, 47343.36404125262, 15352.742714016762, 21717.312540687628, 19173.102876317844, 15243.643849330409, -187500.02235174447, 14680.29048207885, 41552.92112266077, 16583.742688148344, 26943.57507748307, 18400.64893968689, 36561.77658579071, 24537.409786869262, -22237.616448118264, 13993.354319733897, 0.002, 0.998, -0.244, 192.0, 0.0, 0.0, 0.0, 0.0, 0.0, 0.0, 0.0, 0.0, 0.0, 1.696016210775396E9, 0.0, 2023-09-29 14:36:50.775
154.0, 49773.82567808934, 47349.55547446674, 15367.986603735282, 21723.593380879567, 19170.487722216574, 15239.598183583998, -187500.02235174447, 14679.374060556182, 41549.63541622584, 16578.04299331224, 26922.38562373944, 18409.097899090993, 36565.598734092564, 24534.973446723634, -22225.188878201116, 14005.804241395503, 0.002, 0.998, -0.244, 192.0, 0.0, 0.0, 0.0, 0.0, 0.0, 0.0, 0.0, 0.0, 0.0, 1.696016210775406E9, 0.0, 2023-09-29 14:36:50.775
156.0, 49689.71606370402, 47342.35821275213, 15359.18001641989, 21724.375691935504, 19186.871550902313, 15251.958698267783, -187500.02235174447, 14691.265188606405, 41553.36815754988, 16580.792257880243, 26954.214507843797, 18404.269922288648, 36565.93401025939, 24537.43213861372, -22229.748634069998, 13985.86648534137, 0.002, 0.998, -0.244, 192.0, 0.0, 0.0, 0.0, 0.0, 0.0, 0.0, 0.0, 0.0, 0.0, 1.696016210775449E9, 0.0, 2023-09-29 14:36:50.775
158.0, 49770.13764025422, 47358.45146875995, 15384.57159812112, 21727.460232670335, 19179.98721361008, 15241.721599307251, -187500.02235174447, 14678.927025667075, 41557.771451207576, 16585.799048638233, 26882.733629075723, 18417.278637561638, 36573.46654814083, 24543.243592172097, -22212.582494328322, 13997.53409594704, 0.002, 0.998, -0.23800000000000002, 192.0, 0.0, 8.0, 15.5, 24.0, 124.0, 72.0, 0.0, 0.0, 0.0, 1.696016210775458E9, 0.0, 2023-09-29 14:36:50.775
160.0, 49703.372979566215, 47334.80332312624, 15350.976926204792, 21713.37863366349, 19176.142713563768, 15237.094788205004, -187500.02235174447, 14674.85900817621, 41550.1048028594, 16574.55612117721, 26975.448665076336, 18401.45360248728, 36559.876687512005, 24527.910295475758, -22222.640779333207, 13990.135668532334, 0.002, 0.998, -0.23800000000000002, 192.0, 0.0, 0.0, 0.0, 0.0, 0.0, 0.0, 0.0, 0.0, 0.0, 1.696016210775467E9, 0.0, 2023-09-29 14:36:50.775
162.0, 49761.04048026091, 47360.932512394495, 15377.396688150966, 21725.78385183619, 19176.299175774955, 15237.072436460548, -187500.02235174447, 14677.027127388374, 41554.955131406205, 16584.077964315173, 26887.092219244507, 18410.148431080393, 36564.43644338089, 24540.27081015954, -22221.187915943614, 13982.580778906438, 0.002, 0.998, -0.23800000000000002, 192.0, 0.0, 0.0, 0.0, 0.0, 0.0, 0.0, 0.0, 0.0, 0.0, 1.696016210775476E9, 0.0, 2023-09-29 14:36:50.775
164.0, 49702.21068885454, 47342.35821275213, 15354.41909485091, 21714.965607519818, 19173.03582108448, 15233.630267814431, -187500.02235174447, 14673.741420953444, 41555.69273897323, 16583.42976372597, 26975.00163018723, 18408.293236290603, 36561.5307166017, 24533.76645252305, -22222.953703755582, 13990.403889465797, 0.002, 0.998, -0.23800000000000002, 192.0, 0.0, 0.0, 0.0, 0.0, 0.0, 0.0, 0.0, 0.0, 0.0, 1.696016210775485E9, 0.0, 2023-09-29 14:36:50.775
166.0, 49752.07743073433, 47373.76241371184, 15381.28589168619, 21733.53990716218, 19175.382754252285, 15239.039389972615, -187500.02235174447, 14675.61896748769, 41554.57515175047, 16581.75338289182, 26883.6947540873, 18410.237838058216, 36558.22265842231, 24536.918048491247, -22225.59120960131, 13983.787773107026, 0.002, 0.998, -0.23800000000000002, 192.0, 0.0, 0.0, 0.0, 0.0, 0.0, 0.0, 0.0, 0.0, 0.0, 1.696016210835722E9, 0.0, 2023-09-29 14:36:50.835
168.0, 49703.35062782176, 47360.88780890558, 15364.678545555897, 21719.547715133158, 19183.65289970075, 15243.44268363031, -187500.02235174447, 14683.687947236056, 41565.169878622284, 16588.257740528315, 26967.111464394507, 18420.83256493003, 36575.589963864084, 24547.266906174053, -22221.858468277274, 13996.237694768632, -0.002, 1.004, -0.23600000000000002, 192.0, 127.5, 120.0, 15.5, 48.0, 124.0, 80.0, 0.0, 0.0, 0.0, 1.696016210835771E9, 0.0, 2023-09-29 14:36:50.835
170.0, 49757.151276725686, 47366.29693106376, 15388.036118511693, 21726.119128003018, 19176.768562408517, 15232.602087569487, -187500.02235174447, 14671.886226163653, 41563.337035576944, 16588.078926572674, 26845.94265770229, 18418.038596873117, 36575.187632463894, 24543.780034039028, -22220.31619790986, 13986.112354530378, -0.002, 1.004, -0.23600000000000002, 192.0, 0.0, 0.0, 0.0, 0.0, 0.0, 0.0, 0.0, 0.0, 0.0, 1.696016210835782E9, 0.0, 2023-09-29 14:36:50.835
172.0, 49717.54398555088, 47347.83439014368, 15361.683411798886, 21704.236770181273, 19175.829789141393, 15231.998590469193, -187500.02235174447, 14674.948415154031, 41555.40216629531, 16578.065345056697, 26978.91318546691, 18405.36515776696, 36572.05838824015, 24530.503097832574, -22220.53971535441, 14002.160907049289, -0.002, 1.004, -0.23600000000000002, 192.0, 0.0, 0.0, 0.0, 0.0, 0.0, 0.0, 0.0, 0.0, 0.0, 1.696016210835792E9, 0.0, 2023-09-29 14:36:50.835
174.0, 49737.99583172749, 47357.24447455937, 15371.115847959025, 21705.44376438186, 19169.03485882698, 15227.01415145566, -187500.02235174447, 14667.818208672788, 41553.79284069453, 16576.523074689278, 26853.94458221729, 18396.40210824038, 36563.98940849178, 24527.820888497936, -22227.06642473536, 13974.601206135894, -0.002, 1.004, -0.23600000000000002, 192.0, 0.0, 0.0, 0.0, 0.0, 0.0, 0.0, 0.0, 0.0, 0.0, 1.696016210835801E9, 0.0, 2023-09-29 14:36:50.835
176.0, 49716.18052913911, 47342.80524764124, 15344.047885423648, 21685.953043216832, 19165.950318092146, 15222.320285120046, -187500.02235174447, 14666.834731916755, 41542.81813416698, 16564.028449538764, 26989.10558093853, 18386.857913357962, 36564.03411198069, 24514.85687671386, -22228.474584636046, 13999.076366314455, -0.002, 1.004, -0.23600000000000002, 192.0, 0.0, 0.0, 0.0, 0.0, 0.0, 0.0, 0.0, 0.0, 0.0, 1.69601621083581E9, 0.0, 2023-09-29 14:36:50.835
178.0, 49727.781084511415, 47349.44371574446, 15368.746563046761, 21697.508895100225, 19163.46927445761, 15228.042331700604, -187500.02235174447, 14670.343955796237, 41547.489648758135, 16567.85059784062, 26872.630640581923, 18386.29911974658, 36561.486013112786, 24529.76549026555, -22232.16262247117, 13967.783924077026, -0.002, 1.0, -0.23, 192.0, 127.5, 120.0, 15.5, 32.0, 124.0, 104.0, 0.0, 0.0, 0.0, 1.696016210835864E9, 0.0, 2023-09-29 14:36:50.835
180.0, 49721.74611350848, 47336.99379408286, 15350.060504682126, 21682.019136192695, 19166.911443103727, 15222.744968264697, -187500.02235174447, 14669.181665084561, 41532.35751776189, 16550.75151333231, 27023.10258425505, 18379.191265009795, 36551.58419031909, 24515.482725558606, -22226.708796824074, 14006.698311173715, -0.002, 1.0, -0.23, 192.0, 0.0, 0.0, 0.0, 0.0, 0.0, 0.0, 0.0, 0.0, 0.0, 1.696016210895814E9, 0.0, 2023-09-29 14:36:50.895
182.0, 49708.11154939074, 47348.54964596625, 15371.89815901496, 21702.985072491774, 19172.387620495276, 15229.606953812476, -187500.02235174447, 14674.6131389872, 41553.2563988276, 16565.347202461624, 26879.93966101881, 18380.420610954836, 36559.92139100091, 24534.459356601164, -22229.994503259004, 13958.016211750057, -0.002, 1.0, -0.23, 192.0, 0.0, 0.0, 0.0, 0.0, 0.0, 0.0, 0.0, 0.0, 0.0, 1.696016210895876E9, 0.0, 2023-09-29 14:36:50.895
184.0, 49729.390410112195, 47345.50980872033, 15356.721324529806, 21692.993842720254, 19172.521730962006, 15231.663314302365, -187500.02235174447, 14678.055307633318, 41541.43232601075, 16562.7096966159, 26991.854845506532, 18382.83459935601, 36562.871821269015, 24534.302894389977, -22222.35020665529, 14003.926694861257, -0.002, 1.0, -0.23, 192.0, 0.0, 0.0, 0.0, 0.0, 0.0, 0.0, 0.0, 0.0, 0.0, 1.696016210895887E9, 0.0, 2023-09-29 14:36:50.895
186.0, 49695.14753760667, 47349.71193667793, 15364.432676366887, 21704.370880648003, 19177.61792869782, 15237.944154494306, -187500.02235174447, 14680.201075101028, 41550.283616815046, 16578.624138668078, 26896.83757982702, 18385.963843579753, 36563.20709743584, 24538.48267060312, -22223.311331666868, 13968.901511299791, -0.002, 1.0, -0.23, 192.0, 0.0, 0.0, 0.0, 0.0, 0.0, 0.0, 0.0, 0.0, 0.0, 1.696016210895899E9, 0.0, 2023-09-29 14:36:50.895
188.0, 49726.529386821916, 47348.907273877536, 15358.867091997516, 21697.37478463349, 19170.867701872314, 15235.597221326498, -187500.02235174447, 14675.306043065315, 41545.05330861251, 16580.501685202325, 26970.173653384885, 18393.719898905743, 36568.43740563839, 24533.587638567406, -22215.689386807608, 14001.490354715628, -0.002, 1.0, -0.23, 192.0, 0.0, 0.0, 15.5, 0.0, 124.0, 96.0, 0.0, 0.0, 0.0, 1.696016210895908E9, 0.0, 2023-09-29 14:36:50.895
190.0, 49681.8258979113, 47342.98406159688, 15357.771856519206, 21704.415584136914, 19167.403181481743, 15235.753683537685, -187500.02235174447, 14678.256473333417, 41543.421631267265, 16579.674670657478, 26911.589731167525, 18388.333128492013, 36559.027321222704, 24528.58084780942, -22225.92648576814, 13975.00353753609, -0.002, 1.0, -0.23, 192.0, 0.0, 0.0, 0.0, 0.0, 0.0, 0.0, 0.0, 0.0, 0.0, 1.696016210895918E9, 0.0, 2023-09-29 14:36:50.895
192.0, 49722.12609316422, 47353.310567535234, 15360.722286787306, 21705.332005659584, 19168.051382070946, 15241.140453951413, -187500.02235174447, 14682.078621635274, 41540.001814365605, 16582.98272883686, 26982.467112835304, 18392.87053261644, 36557.7309200443, 24522.65763552876, -22218.416299631157, 14007.301808274009, -0.002, 1.0, -0.23, 192.0, 0.0, 0.0, 0.0, 0.0, 0.0, 0.0, 0.0, 0.0, 0.0, 1.696016210895938E9, 0.0, 2023-09-29 14:36:50.895
194.0, 49678.33902577627, 47358.31735829322, 15364.23151066679, 21711.63519759598, 19175.762733908028, 15243.86736677496, -187500.02235174447, 14687.264226348905, 41557.79380295203, 16604.730976191877, 26924.017301084674, 18397.5420472076, 36561.821289279615, 24534.302894389977, -22219.422128131646, 13978.110430015378, -0.002, 1.0, -0.23, 192.0, 0.0, 0.0, 0.0, 0.0, 0.0, 0.0, 0.0, 0.0, 0.0, 1.696016210895946E9, 0.0, 2023-09-29 14:36:50.895
196.0, 49744.209616686065, 47362.832410673196, 15357.369525119011, 21702.649796324946, 19154.640335397762, 15226.67887528883, -187500.02235174447, 14671.685060463557, 41543.10870684489, 16593.599807453134, 26972.699400508332, 18401.185381553816, 36559.78728053418, 24508.71014698865, -22217.477526364033, 14014.655532199804, -0.002, 1.0, -0.23, 192.0, 0.0, 0.0, 0.0, 0.0, 0.0, 0.0, 0.0, 0.0, 0.0, 1.696016210956034E9, 0.0, 2023-09-29 14:36:50.956
198.0, 49681.60238046675, 47352.70707043494, 15352.407437849932, 21712.238694696272, 19168.40900998223, 15235.910145748872, -187500.02235174447, 14681.408069301615, 41551.78118369355, 16601.199400567937, 26967.13381613896, 18393.25051227218, 36552.4782600973, 24520.13188840531, -22231.22384920405, 13976.81402883697, -0.002, 1.0, -0.23, 192.0, 0.0, 0.0, 15.5, 8.0, 124.0, 112.0, 0.0, 0.0, 0.0, 1.696016210956057E9, 0.0, 2023-09-29 14:36:50.956
200.0, 49747.96470975455, 47367.570980497716, 15369.70768805834, 21712.86454354102, 19171.761771650526, 15232.400921869388, -187500.02235174447, 14678.479990777969, 41549.74717494812, 16599.634778456068, 26965.05510390462, 18400.492477475702, 36564.972885247815, 24518.589618037895, -22214.68355830712, 13996.975302335657, -0.002, 1.0, -0.23, 192.0, 0.0, 0.0, 0.0, 0.0, 0.0, 0.0, 0.0, 0.0, 0.0, 1.696016210956098E9, 0.0, 2023-09-29 14:36:50.956
202.0, 49684.26223805693, 47357.46799200392, 15355.46962684031, 21706.6731103269, 19176.477989730596, 15236.603049826987, -187500.02235174447, 14683.687947236056, 41558.15143086331, 16607.301426804235, 26961.925859680876, 18396.670329173845, 36565.28580967019, 24518.72372850463, -22217.499878108487, 13975.71879335866, -0.002, 1.0, -0.23, 192.0, 0.0, 0.0, 0.0, 0.0, 0.0, 0.0, 0.0, 0.0, 0.0, 1.696016210956108E9, 0.0, 2023-09-29 14:36:50.956
204.0, 49766.98604428602, 47367.772146197814, 15373.99922299376, 21716.82080230961, 19172.611137939828, 15233.138529436414, -187500.02235174447, 14678.077659377774, 41551.64707322682, 16594.89620863154, 26922.76560339518, 18402.794707154597, 36569.7785103057, 24514.298083102476, -22207.687462292608, 13996.997654080113, -0.002, 1.0, -0.23, 192.0, 0.0, 0.0, 0.0, 0.0, 0.0, 0.0, 0.0, 0.0, 0.0, 1.696016210956117E9, 0.0, 2023-09-29 14:36:50.956
206.0, 49686.944447391565, 47354.94224488047, 15356.2742896407, 21719.368901177517, 19182.669422944717, 15243.01800048566, -187500.02235174447, 14689.409993816615, 41554.15046860582, 16598.62894995558, 26975.605127287523, 18396.200942540283, 36568.77268180522, 24516.332091847908, -22216.136421696716, 13986.469982441662, -0.002, 1.0, -0.23, 192.0, 0.0, 0.0, 0.0, 0.0, 0.0, 0.0, 0.0, 0.0, 0.0, 1.696016210956126E9, 0.0, 2023-09-29 14:36:50.956
208.0, 49768.66242512017, 47371.683701477494, 15386.71736558883, 21728.44370942637, 19182.624719455805, 15242.794483041107, -187500.02235174447, 14686.19134261505, 41558.01732039658, 16605.133307592074, 26895.40706818188, 18408.40499501288, 36578.875670299014, 24521.42828958372, -22201.026642444926, 13993.846058111914, -0.002, 0.994, -0.23, 192.0, 127.5, 120.0, 15.5, 8.0, 124.0, 104.0, 0.0, 0.0, 0.0, 1.696016210956135E9, 0.0, 2023-09-29 14:36:50.956
210.0, 49697.44976728556, 47353.39997451306, 15357.816560008117, 21713.266874941215, 19179.94251012117, 15246.951907509794, -187500.02235174447, 14692.896865951643, 41555.69273897323, 16601.489973245858, 26977.25915637722, 18397.519695463146, 36568.549164360666, 24518.85783897136, -22210.63789256071, 13996.461212213186, -0.002, 0.994, -0.23, 192.0, 0.0, 0.0, 0.0, 0.0, 0.0, 0.0, 0.0, 0.0, 0.0, 1.696016211016574E9, 0.0, 2023-09-29 14:36:51.016
212.0, 49766.87428556375, 47371.88486717759, 15379.028365496204, 21725.426223924904, 19169.54894894945, 15238.681762061331, -187500.02235174447, 14683.531485024869, 41556.87738142936, 16602.09347034615, 26886.734591333225, 18404.649901944387, 36568.01272249374, 24520.95890295016, -22208.96151172656, 13994.807183123492, -0.002, 0.994, -0.23, 192.0, 0.0, 0.0, 0.0, 0.0, 0.0, 0.0, 0.0, 0.0, 0.0, 1.696016211016597E9, 0.0, 2023-09-29 14:36:51.016
214.0, 49709.20678486905, 47352.86353264613, 15346.484225569277, 21712.21634295182, 19173.393448995765, 15238.100616705493, -187500.02235174447, 14684.358499569715, 41553.904599416805, 16597.846638899642, 26993.397115873948, 18399.330186764026, 36560.32372240111, 24511.99585342358, -22219.422128131646, 13996.327101746452, -0.002, 0.994, -0.23, 192.0, 0.0, 0.0, 0.0, 0.0, 0.0, 0.0, 0.0, 0.0, 0.0, 1.696016211016607E9, 0.0, 2023-09-29 14:36:51.016
216.0, 49752.993852257, 47366.69926246396, 15369.774743291706, 21728.01902628172, 19178.780219409495, 15240.268735917656, -187500.02235174447, 14684.582017014269, 41554.64220698383, 16599.925351133985, 26894.334184448027, 18402.772355410143, 36559.452004367355, 24521.741214006095, -22217.16460194166, 13986.782906864037, -0.002, 0.994, -0.23, 192.0, 0.0, 0.0, 0.0, 0.0, 0.0, 0.0, 0.0, 0.0, 0.0, 1.696016211016616E9, 0.0, 2023-09-29 14:36:51.016
218.0, 49701.3836743097, 47345.7780296538, 15343.600850534542, 21707.81304929412, 19176.99207985307, 15238.525299850144, -187500.02235174447, 14685.654900748123, 41551.98234939365, 16596.438478998956, 27003.433049134383, 18399.732518164223, 36564.32468465861, 24517.337920348396, -22218.036319975417, 13999.188125036731, -0.002, 0.994, -0.23, 192.0, 0.0, 0.0, 15.5, 16.0, 124.0, 72.0, 0.0, 0.0, 0.0, 1.696016211016625E9, 0.0, 2023-09-29 14:36:51.016
220.0, 49738.331107894315, 47368.57680899821, 15369.484170613787, 21730.29890421616, 19177.17089380871, 15239.642887072909, -187500.02235174447, 14682.793877457843, 41550.3059685595, 16594.248008042337, 26876.45278888378, 18396.335053007013, 36559.60846657854, 24512.37583307932, -22223.043110733404, 13972.410735179274, -0.002, 0.994, -0.23, 192.0, 0.0, 0.0, 0.0, 0.0, 0.0, 0.0, 0.0, 0.0, 0.0, 1.696016211016635E9, 0.0, 2023-09-29 14:36:51.016
222.0, 49717.588689039796, 47352.77412566831, 15355.335516373578, 21719.21243896633, 19174.98042285209, 15233.786730025618, -187500.02235174447, 14680.938682668053, 41551.71412846019, 16598.450135999934, 26983.987031458266, 18401.25243678718, 36567.208059693345, 24509.71597548914, -22212.358976883766, 13993.376671478352, -0.002, 0.994, -0.23, 192.0, 0.0, 0.0, 0.0, 0.0, 0.0, 0.0, 0.0, 0.0, 0.0, 1.696016211016675E9, 0.0, 2023-09-29 14:36:51.016
224.0, 49742.01914572944, 47364.24057057388, 15376.14499046147, 21727.035549525684, 19178.109667075834, 15233.96554398126, -187500.02235174447, 14677.608272744212, 41551.3565005489, 16592.683385930468, 26881.437227897317, 18392.714070405254, 36564.078815469606, 24506.206751609654, -22220.20443918758, 13970.577892133939, -0.002, 0.994, -0.23, 192.0, 0.0, 0.0, 0.0, 0.0, 0.0, 0.0, 0.0, 0.0, 0.0, 1.696016211016684E9, 0.0, 2023-09-29 14:36:51.016
226.0, 49732.36319212475, 47346.89561687656, 15356.98954546327, 21709.31061617263, 19177.148542064257, 15230.813948013061, -187500.02235174447, 14680.178723356572, 41550.68594821524, 16590.04588008474, 27007.791639303166, 18397.251474529683, 36566.872783526516, 24504.46331554214, -22214.013005973462, 14003.971398350168, -0.002, 0.994, -0.23, 192.0, 0.0, 0.0, 0.0, 0.0, 0.0, 0.0, 0.0, 0.0, 0.0, 1.696016211075903E9, 0.0, 2023-09-29 14:36:51.075
228.0, 49736.453561360075, 47362.00539612835, 15376.726135817307, 21721.06763375612, 19182.848236900358, 15234.323171892545, -187500.02235174447, 14682.011566401909, 41553.301102316516, 16586.938987605452, 26898.156332749884, 18391.39531748239, 36560.81546077913, 24498.674213728216, -22222.953703755582, 13971.896645056802, 0.002, 0.996, -0.23, 192.0, 0.0, 8.0, 15.5, 16.0, 124.0, 104.0, 0.0, 0.0, 0.0, 1.696016211075925E9, 0.0, 2023-09-29 14:36:51.075
230.0, 49743.427305630124, 47357.020957114815, 15367.226644423801, 21711.59049410707, 19186.312757290932, 15232.87030850295, -187500.02235174447, 14681.341014068248, 41555.49157327313, 16585.754345149322, 26999.230921176782, 18401.095974575994, 36576.774606320214, 24502.988100408093, -22204.6923285356, 14008.329988518954, 0.002, 0.996, -0.23, 192.0, 0.0, 0.0, 0.0, 0.0, 0.0, 0.0, 0.0, 0.0, 0.0, 1.696016211075936E9, 0.0, 2023-09-29 14:36:51.075
232.0, 49724.83065424331, 47364.352329296154, 15384.95157777686, 21733.696369373367, 19192.146562593767, 15244.06853247506, -187500.02235174447, 14690.505229294924, 41564.678140244265, 16597.936045877464, 26879.85025404099, 18402.12415482094, 36577.1322342315, 24512.442888312686, -22211.710776294563, 13971.784886334526, 0.002, 0.996, -0.23, 192.0, 0.0, 0.0, 0.0, 0.0, 0.0, 0.0, 0.0, 0.0, 0.0, 1.696016211075944E9, 0.0, 2023-09-29 14:36:51.075
234.0, 49748.76937255495, 47357.04330885927, 15368.14306594647, 21718.96656977732, 19173.639318184774, 15234.859613759472, -187500.02235174447, 14677.652976233123, 41556.83267794045, 16596.974920865887, 26971.067723163098, 18411.891867147908, 36577.847490054075, 24514.722766247127, -22203.26181689046, 14013.403834510307, 0.002, 0.996, -0.23, 192.0, 0.0, 0.0, 0.0, 0.0, 0.0, 0.0, 0.0, 0.0, 0.0, 1.696016211075953E9, 0.0, 2023-09-29 14:36:51.075
236.0, 49715.12999714971, 47354.20463731344, 15364.209158922335, 21722.989883779275, 19177.953204864647, 15243.107407463482, -187500.02235174447, 14684.559665269813, 41552.027052882564, 16591.61050219661, 26905.152428764395, 18398.190247796803, 36564.637609080986, 24508.263112099543, -22223.713663067065, 13977.886912570824, 0.002, 0.996, -0.23, 192.0, 0.0, 0.0, 0.0, 0.0, 0.0, 0.0, 0.0, 0.0, 0.0, 1.696016211075962E9, 0.0, 2023-09-29 14:36:51.075
238.0, 49756.27955869193, 47355.79161116977, 15362.175150176901, 21715.904380786942, 19173.70637341814, 15241.185157440324, -187500.02235174447, 14680.134019867663, 41550.95416914871, 16592.079888830172, 26972.230013874774, 18408.159125823873, 36573.578306863106, 24510.02889991151, -22215.10824145177, 14004.887819872836, 0.002, 0.994, -0.23, 192.0, 0.0, 8.0, 15.5, 8.0, 124.0, 104.0, 0.0, 0.0, 0.0, 1.696016211075971E9, 0.0, 2023-09-29 14:36:51.075
240.0, 49705.94343017858, 47340.5253697068, 15358.397705363956, 21711.121107473507, 19174.913367618727, 15238.122968449947, -187500.02235174447, 14680.826923945777, 41555.89390467333, 16587.81070563921, 26903.364289207973, 18395.97742509573, 36567.18570794889, 24503.07750738591, -22224.987712501017, 13969.370897933353, 0.002, 0.994, -0.23, 192.0, 0.0, 0.0, 0.0, 0.0, 0.0, 0.0, 0.0, 0.0, 0.0, 1.696016211135768E9, 0.0, 2023-09-29 14:36:51.135
242.0, 49766.47195416355, 47344.638090686574, 15352.966231461316, 21698.82764802309, 19159.960050578124, 15225.360122365968, -187500.02235174447, 14668.064077861796, 41544.13688708984, 16579.451153212925, 26962.082321892063, 18395.530390206623, 36564.279981169704, 24501.937568418693, -22220.562067098865, 14005.781889651047, 0.002, 0.994, -0.23, 192.0, 0.0, 0.0, 0.0, 0.0, 0.0, 0.0, 0.0, 0.0, 0.0, 1.696016211135792E9, 0.0, 2023-09-29 14:36:51.135
244.0, 49696.89097367418, 47344.3251662642, 15345.65721102443, 21710.182334206384, 19172.342917006365, 15227.572945067042, -187500.02235174447, 14668.846388917733, 41545.05330861251, 16580.859313113608, 26945.452624017315, 18388.243721514194, 36551.09245194107, 24506.497324287575, -22239.471642908054, 13971.159037489777, 0.002, 0.994, -0.23, 192.0, 0.0, 0.0, 0.0, 0.0, 0.0, 0.0, 0.0, 0.0, 0.0, 1.696016211135834E9, 0.0, 2023-09-29 14:36:51.135
246.0, 49765.71199485207, 47362.29596880627, 15358.263594897224, 21715.792622064666, 19167.045553570457, 15224.175479909836, -187500.02235174447, 14668.935795895553, 41547.51200050259, 16583.04978407023, 26955.823833444578, 18400.045442586594, 36559.07202471161, 24504.910350431248, -22226.64174159071, 13996.215343024176, 0.002, 0.994, -0.23, 192.0, 0.0, 0.0, 0.0, 0.0, 0.0, 0.0, 0.0, 0.0, 0.0, 1.696016211135843E9, 0.0, 2023-09-29 14:36:51.135
248.0, 49689.02315962591, 47351.67889018999, 15350.999277949248, 21719.234790710783, 19179.964861865625, 15233.58556432552, -187500.02235174447, 14680.603406501223, 41554.03870988354, 16583.630929426068, 26962.864632948, 18389.696584903788, 36558.49087935578, 24504.105687630858, -22232.475546893544, 13979.473886427151, 0.002, 0.996, -0.228, 192.0, 0.0, 8.0, 15.5, 16.0, 124.0, 112.0, 0.0, 0.0, 0.0, 1.696016211135852E9, 0.0, 2023-09-29 14:36:51.135
250.0, 49763.02978551743, 47365.42521303001, 15373.641595082474, 21721.49231690077, 19174.51103621853, 15229.294029390101, -187500.02235174447, 14677.161237855105, 41555.17864885076, 16585.08379281566, 26935.550801223613, 18402.951169365784, 36569.75615856125, 24506.1843998652, -22211.040223960903, 14006.608904195895, 0.002, 0.996, -0.228, 192.0, 0.0, 0.0, 0.0, 0.0, 0.0, 0.0, 0.0, 0.0, 0.0, 1.696016211135862E9, 0.0, 2023-09-29 14:36:51.135
252.0, 49678.20491530954, 47354.07052684671, 15356.587214063074, 21724.39804367996, 19182.915292133726, 15242.68272431883, -187500.02235174447, 14692.04749966234, 41555.04453838403, 16590.694080673944, 26978.220281388796, 18394.189285539305, 36560.03314972319, 24503.09985913037, -22219.980921743027, 13993.466078456173, 0.002, 0.996, -0.228, 192.0, 0.0, 0.0, 0.0, 0.0, 0.0, 0.0, 0.0, 0.0, 0.0, 1.696016211135872E9, 0.0, 2023-09-29 14:36:51.135
254.0, 49753.70910807957, 47363.99470138487, 15382.381127164499, 21732.601133895056, 19177.282652530987, 15233.272639903145, -187500.02235174447, 14681.408069301615, 41559.9619221642, 16598.338377277658, 26904.593635153014, 18409.03084385763, 36573.153623718455, 24523.395243095787, -22204.781735513418, 14008.844078641425, 0.002, 0.996, -0.228, 192.0, 0.0, 0.0, 0.0, 0.0, 0.0, 0.0, 0.0, 0.0, 0.0, 1.696016211135882E9, 0.0, 2023-09-29 14:36:51.135
0.0, 49678.36137752073, 47336.814980127216, 15351.714533771818, 21713.02100575221, 19176.388582752774, 15233.697323047796, -187500.02235174447, 14684.514961780902, 41549.568360992474, 16586.46960097189, 26996.861636264523, 18388.73545989221, 36560.10020495656, 24509.134830133302, -22217.745747297497, 14007.838250140936, 0.002, 0.996, -0.228, 192.0, 0.0, 0.0, 0.0, 0.0, 0.0, 0.0, 0.0, 0.0, 0.0, 1.696016211196063E9, 0.0, 2023-09-29 14:36:51.196
2.0, 49747.070639976344, 47368.59916074266, 15371.94286250387, 21733.450500184357, 19177.684983931184, 15236.580698082531, -187500.02235174447, 14685.632549003667, 41552.18351509375, 16592.6163306971, 26915.054251558096, 18395.418631484346, 36565.84460328157, 24514.163972635746, -22211.73312803902, 14000.573933192962, 0.004, 0.994, -0.226, 192.0, 0.0, 16.0, 15.5, 8.0, 124.0, 120.0, 0.0, 0.0, 0.0, 1.696016211196107E9, 0.0, 2023-09-29 14:36:51.196
4.0, 49683.390520023175, 47339.85481737314, 15341.678600511385, 21702.694499813857, 19173.572262951406, 15226.120081677447, -187500.02235174447, 14675.171932598583, 41550.23891332614, 16594.449173742436, 27002.382517144983, 18388.93662559231, 36559.20613517835, 24508.978367922115, -22222.886648522217, 14001.333892504443, 0.004, 0.994, -0.226, 192.0, 0.0, 0.0, 0.0, 0.0, 0.0, 0.0, 0.0, 0.0, 0.0, 1.696016211196117E9, 0.0, 2023-09-29 14:36:51.196
6.0, 49740.163950939655, 47354.428154757996, 15374.602720094052, 21716.418470909415, 19179.2272542986, 15223.929610720828, -187500.02235174447, 14672.959109897509, 41552.094108115925, 16577.886531101052, 26895.40706818188, 18386.723802891232, 36561.30719915714, 24500.75292596256, -22219.26566592046, 13980.546770161007, 0.004, 0.994, -0.226, 192.0, 0.0, 0.0, 0.0, 0.0, 0.0, 0.0, 0.0, 0.0, 0.0, 1.696016211196128E9, 0.0, 2023-09-29 14:36:51.196
8.0, 49691.571258493816, 47336.47970396039, 15343.422036578899, 21696.52541834419, 19180.70246943265, 15224.398997354388, -187500.02235174447, 14674.657842476112, 41547.53435224704, 16571.85156009812, 27019.5263051422, 18382.856951100464, 36559.742577045276, 24492.728649703105, -22225.077119478836, 13994.315444745476, 0.004, 0.994, -0.226, 192.0, 0.0, 0.0, 0.0, 0.0, 0.0, 0.0, 0.0, 0.0, 0.0, 1.696016211196137E9, 0.0, 2023-09-29 14:36:51.196
10.0, 49744.41078238616, 47351.075393089704, 15369.528874102698, 21715.323235431104, 19184.65872820124, 15229.003456712182, -187500.02235174447, 14678.368232055693, 41553.39050929434, 16573.259719998805, 26896.926986804843, 18390.21067502626, 36567.27511492671, 24496.170818349223, -22220.942046754604, 13974.109467757879, 0.004, 0.994, -0.226, 192.0, 0.0, 0.0, 0.0, 0.0, 0.0, 0.0, 0.0, 0.0, 0.0, 1.696016211196146E9, 0.0, 2023-09-29 14:36:51.196
12.0, 49707.91038369064, 47327.159026522524, 15344.025533679192, 21695.318424143607, 19176.36623100832, 15225.24836364369, -187500.02235174447, 14672.892054664142, 41550.66359647079, 16568.074115285173, 27013.111354483528, 18386.053250557572, 36566.33634165959, 24490.784047935493, -22217.902209508684, 13996.572970935462, 0.002, 1.0, -0.226, 192.0, 0.0, 8.0, 15.5, 32.0, 124.0, 120.0, 0.0, 0.0, 0.0, 1.696016211196193E9, 0.0, 2023-09-29 14:36:51.196
14.0, 49734.39720087018, 47338.066677816714, 15367.740734546273, 21708.796526050155, 19180.74717292156, 15230.456320101777, -187500.02235174447, 14675.440153532047, 41545.03095686805, 16565.838940839643, 26907.097030532008, 18381.560549922055, 36558.84850726706, 24492.348670047366, -22220.003273487484, 13978.199836993199, 0.002, 1.0, -0.226, 192.0, 0.0, 0.0, 0.0, 0.0, 0.0, 0.0, 0.0, 0.0, 0.0, 1.696016211256229E9, 0.0, 2023-09-29 14:36:51.256
16.0, 49713.028933170914, 47325.66145964402, 15352.854472739038, 21695.229017165784, 19185.08341134589, 15235.261945159667, -187500.02235174447, 14681.117496623696, 41547.73551794714, 16568.23057749636, 27026.008311034242, 18382.7898958671, 36566.06812072612, 24490.918158402226, -22210.928465238627, 14002.25031402711, 0.002, 1.0, -0.226, 192.0, 0.0, 0.0, 0.0, 0.0, 0.0, 0.0, 0.0, 0.0, 0.0, 1.696016211256254E9, 0.0, 2023-09-29 14:36:51.256
18.0, 49715.30881110535, 47335.049192315244, 15372.792228793172, 21713.848020297053, 19189.665518959227, 15241.229860929236, -187500.02235174447, 14688.828848460776, 41555.46922152868, 16575.00315606632, 26895.22825422624, 18380.800590610575, 36566.11282421504, 24503.502190530562, -22215.15294494068, 13969.639118866817, 0.002, 1.0, -0.226, 192.0, 0.0, 0.0, 0.0, 0.0, 0.0, 0.0, 0.0, 0.0, 0.0, 1.696016211256265E9, 0.0, 2023-09-29 14:36:51.256
20.0, 49709.6314680137, 47320.05117178574, 15356.721324529806, 21693.574988076092, 19184.36815552332, 15233.943192236806, -187500.02235174447, 14682.771525713388, 41551.535314504545, 16568.118818774085, 26998.292147909662, 18382.521674933636, 36567.699798071364, 24505.93853067619, -22205.11701168025, 13999.657511670293, 0.002, 1.0, -0.226, 192.0, 0.0, 0.0, 0.0, 0.0, 0.0, 0.0, 0.0, 0.0, 0.0, 1.696016211256274E9, 0.0, 2023-09-29 14:36:51.256
22.0, 49712.73836049299, 47328.5224829343, 15365.885539756482, 21706.337834160073, 19181.50713223304, 15232.2444596582, -187500.02235174447, 14683.911464680608, 41541.40997426629, 16555.959469790396, 26916.887094603433, 18366.428418925814, 36558.7814520337, 24494.963824148635, -22216.82932577483, 13977.886912570824, 0.004, 1.0, -0.218, 192.0, 0.0, 16.0, 15.5, 32.0, 124.5, 24.0, 0.0, 0.0, 0.0, 1.696016211256284E9, 0.0, 2023-09-29 14:36:51.256
24.0, 49719.44388382958, 47328.05309630073, 15353.256804139235, 21704.996729492752, 19184.390507267777, 15234.814910270563, -187500.02235174447, 14686.23604610396, 41545.18741907924, 16560.22865298136, 27030.478659925302, 18374.765619607642, 36570.24789693927, 24499.65769048425, -22203.954720968573, 14010.006369353101, 0.004, 1.0, -0.218, 192.0, 0.0, 0.0, 0.0, 0.0, 0.0, 0.0, 0.0, 0.0, 0.0, 1.696016211256293E9, 0.0, 2023-09-29 14:36:51.256
26.0, 49709.519709291424, 47331.159988780026, 15358.956498975338, 21706.226075437793, 19178.444943242663, 15231.596259068998, -187500.02235174447, 14678.6141012447, 41549.54600924802, 16560.78744659274, 26921.603312683503, 18369.892939316385, 36563.87764976951, 24497.981309650102, -22218.706872309074, 13977.52928465954, 0.004, 1.0, -0.218, 192.0, 0.0, 0.0, 0.0, 0.0, 0.0, 0.0, 0.0, 0.0, 0.0, 1.696016211256303E9, 0.0, 2023-09-29 14:36:51.256
28.0, 49738.17464568313, 47332.50109344734, 15350.41813259341, 21692.43504910887, 19176.723858919606, 15227.461186344766, -187500.02235174447, 14675.484857020958, 41546.61793072438, 16557.971126791374, 27021.64972086546, 18376.844331841985, 36565.62108583702, 24493.533312503496, -22214.571799584843, 14010.341645519931, 0.004, 1.0, -0.218, 192.0, 0.0, 0.0, 0.0, 0.0, 0.0, 0.0, 0.0, 0.0, 0.0, 1.696016211256312E9, 0.0, 2023-09-29 14:36:51.256
30.0, 49699.77434870891, 47323.85096834314, 15356.18488266288, 21699.475848612292, 19176.03095484149, 15230.657485801876, -187500.02235174447, 14674.6131389872, 41550.46243077069, 16565.011926294796, 26945.273810061673, 18376.866683586442, 36556.81449852163, 24501.334071318397, -22224.004235744982, 13972.43308692373, 0.004, 1.0, -0.218, 192.0, 0.0, 0.0, 0.0, 0.0, 0.0, 0.0, 0.0, 0.0, 0.0, 1.696016211316531E9, 0.0, 2023-09-29 14:36:51.316
32.0, 49738.37581138323, 47335.898558604546, 15356.140179173968, 21693.016194464708, 19179.182550809688, 15237.430064371832, -187500.02235174447, 14676.110705865707, 41543.98042487865, 16561.301536715215, 27013.938369028376, 18382.92400633383, 36557.507402599746, 24494.09210611488, -22219.466831620557, 13999.568104692473, 0.004, 1.0, -0.218, 192.0, 0.0, 0.0, 15.5, 48.0, 124.5, 32.0, 0.0, 0.0, 0.0, 1.696016211316555E9, 0.0, 2023-09-29 14:36:51.316
34.0, 49690.386616037686, 47328.29896548975, 15355.067295440114, 21694.804334021133, 19180.300138032453, 15241.63219232943, -187500.02235174447, 14677.00477564392, 41557.59263725193, 16569.83990309714, 26940.579943726058, 18381.135866777404, 36563.07298696911, 24502.451658541162, -22225.25593343448, 13971.315499700964, 0.004, 1.0, -0.218, 192.0, 0.0, 0.0, 0.0, 0.0, 0.0, 0.0, 0.0, 0.0, 0.0, 1.696016211316608E9, 0.0, 2023-09-29 14:36:51.316
36.0, 49755.76546856946, 47325.169721266, 15356.788379763173, 21684.969566460797, 19172.32056526191, 15229.562250323565, -187500.02235174447, 14664.264281304393, 41541.74525043312, 16552.405542422002, 26996.7722292867, 18378.25249174267, 36561.28484741269, 24497.3331090609, -22212.67190130614, 14005.91600011778, 0.004, 1.0, -0.218, 192.0, 0.0, 0.0, 0.0, 0.0, 0.0, 0.0, 0.0, 0.0, 0.0, 1.696016211316619E9, 0.0, 2023-09-29 14:36:51.316
38.0, 49681.155345577645, 47312.29511645975, 15348.093551170059, 21692.01036596422, 19182.200036311155, 15238.25707891668, -187500.02235174447, 14673.070868619785, 41546.39441327982, 16554.148978489517, 26993.66533680741, 18370.183511994306, 36557.3285886441, 24496.88607417179, -22224.63008458973, 13970.823761322948, 0.004, 1.0, -0.218, 192.0, 0.0, 0.0, 0.0, 0.0, 0.0, 0.0, 0.0, 0.0, 0.0, 1.696016211316628E9, 0.0, 2023-09-29 14:36:51.316
40.0, 49746.288328920404, 47330.310622490724, 15362.823350766106, 21698.44766836735, 19180.74717292156, 15234.859613759472, -187500.02235174447, 14670.656880218612, 41548.36136679189, 16561.055667526205, 26985.372839614494, 18386.07560230203, 36570.27024868372, 24498.629510239305, -22207.77686927043, 13996.90824710229, 0.004, 1.0, -0.218, 192.0, 0.0, 0.0, 0.0, 0.0, 0.0, 0.0, 0.0, 0.0, 0.0, 1.696016211316639E9, 0.0, 2023-09-29 14:36:51.316
42.0, 49679.747185676955, 47318.911232818515, 15348.585289548075, 21694.513761343213, 19182.80353341145, 15236.603049826987, -187500.02235174447, 14676.155409354616, 41552.4070325383, 16560.519225659278, 26996.504008353237, 18382.052288300074, 36563.452966624856, 24502.94339691918, -22215.845849018795, 13976.188179992221, -0.002, 1.0, -0.216, 192.0, 127.5, 120.0, 15.5, 32.0, 124.5, 32.0, 0.0, 0.0, 0.0, 1.696016211316648E9, 0.0, 2023-09-29 14:36:51.316
44.0, 49760.68285234962, 47328.99186956786, 15367.070182212614, 21693.418525864905, 19171.381791994787, 15226.29889563309, -187500.02235174447, 14665.225406315973, 41550.060099370494, 16554.46190291189, 26977.035638932663, 18386.50028544668, 36569.06325448314, 24501.490533529584, -22204.53586632441, 13999.881029114847, -0.002, 1.0, -0.216, 192.0, 0.0, 0.0, 0.0, 0.0, 0.0, 0.0, 0.0, 0.0, 0.0, 1.696016211376025E9, 0.0, 2023-09-29 14:36:51.376
46.0, 49681.580028722296, 47313.47975891588, 15348.384123847978, 21683.851979238032, 19177.528521719996, 15231.10452069098, -187500.02235174447, 14670.656880218612, 41551.959997649195, 16550.57269937667, 27030.813936092134, 18375.883206830407, 36564.30233291416, 24497.198998594165, -22221.5455438549, 13981.865523083869, -0.002, 1.0, -0.216, 192.0, 0.0, 0.0, 0.0, 0.0, 0.0, 0.0, 0.0, 0.0, 0.0, 1.696016211376061E9, 0.0, 2023-09-29 14:36:51.376
48.0, 49754.51377087996, 47332.1211137916, 15374.89329277197, 21698.44766836735, 19176.947376364158, 15232.043293958104, -187500.02235174447, 14672.512075008402, 41551.80353543801, 16551.779693577253, 26967.893775450444, 18381.29232898859, 36570.69493182837, 24493.1309811033, -22209.38619487121, 13987.565217919973, -0.002, 1.0, -0.216, 192.0, 0.0, 0.0, 0.0, 0.0, 0.0, 0.0, 0.0, 0.0, 0.0, 1.69601621137607E9, 0.0, 2023-09-29 14:36:51.376
50.0, 49680.84242115527, 47312.3174682042, 15349.434655837376, 21690.423392107892, 19186.379812524297, 15240.06757021756, -187500.02235174447, 14679.217598344994, 41551.51296276009, 16556.02652502376, 27039.68757864089, 18374.92208181883, 36564.682312569894, 24508.86660919984, -22216.53875309691, 13986.894665586313, -0.002, 1.0, -0.216, 192.0, 0.0, 0.0, 0.0, 0.0, 0.0, 0.0, 0.0, 0.0, 0.0, 1.696016211376081E9, 0.0, 2023-09-29 14:36:51.376
52.0, 49748.1435237102, 47329.88593934607, 15371.451124125853, 21701.24163642426, 19181.95416712215, 15235.083131204026, -187500.02235174447, 14675.95424365452, 41548.31666330298, 16555.557138390202, 26952.404016542914, 18380.26414874365, 36562.82711778011, 24504.105687630858, -22206.078136691827, 13992.661415655783, -0.002, 0.996, -0.216, 192.0, 127.5, 120.0, 15.5, 16.0, 124.5, 32.0, 0.0, 0.0, 0.0, 1.696016211376102E9, 0.0, 2023-09-29 14:36:51.376
54.0, 49682.31763628932, 47309.27763095828, 15344.293754612656, 21686.847112995045, 19180.65776594374, 15235.910145748872, -187500.02235174447, 14672.824999430777, 41545.76856443508, 16549.74568483182, 27059.982962606307, 18373.960956807252, 36560.81546077913, 24504.351556819864, -22212.090755950303, 13996.349453490908, -0.002, 0.996, -0.216, 192.0, 0.0, 0.0, 0.0, 0.0, 0.0, 0.0, 0.0, 0.0, 0.0, 1.696016211376112E9, 0.0, 2023-09-29 14:36:51.376
56.0, 49735.89476774869, 47330.66825040201, 15367.539568846176, 21699.63231082348, 19179.964861865625, 15234.63609631492, -187500.02235174447, 14671.305080807815, 41545.70150920171, 16548.6057458646, 26968.363162084006, 18373.35745970696, 36565.24110618128, 24503.859818441848, -22208.223904159535, 13987.945197575713, -0.002, 0.996, -0.216, 192.0, 0.0, 0.0, 0.0, 0.0, 0.0, 0.0, 0.0, 0.0, 0.0, 1.696016211376157E9, 0.0, 2023-09-29 14:36:51.376
58.0, 49682.58585722278, 47315.71493336141, 15344.807844735127, 21694.8713892545, 19179.920158376714, 15242.839186530018, -187500.02235174447, 14682.011566401909, 41545.34388129043, 16547.08582724164, 27076.344439547593, 18369.803532338563, 36561.77658579071, 24507.838428954892, -22209.76617452695, 13997.57879943595, -0.002, 0.996, -0.216, 192.0, 0.0, 0.0, 0.0, 0.0, 0.0, 0.0, 0.0, 0.0, 0.0, 1.696016211376166E9, 0.0, 2023-09-29 14:36:51.376
60.0, 49740.20865442856, 47345.15218080905, 15381.911740530937, 21725.403872180446, 19186.871550902313, 15253.25509944619, -187500.02235174447, 14685.073755392285, 41561.75006172062, 16562.508530915802, 26933.71795817828, 18380.532369677112, 36576.05935049765, 24523.171725651235, -22201.697194778586, 13982.200799250699, -0.002, 0.996, -0.216, 192.0, 0.0, 0.0, 0.0, 0.0, 0.0, 0.0, 0.0, 0.0, 0.0, 1.696016211435742E9, 0.0, 2023-09-29 14:36:51.435
62.0, 49710.65964825865, 47332.25522425833, 15355.424923351398, 21701.822781780098, 19183.2282165561, 15249.343544166511, -187500.02235174447, 14680.692813479045, 41561.057157642506, 16566.196568750926, 27071.78468367871, 18386.20971276876, 36577.914545287436, 24523.261132629053, -22196.086906920304, 14015.750767678115, -0.004, 0.998, -0.214, 192.0, 127.5, 112.0, 15.5, 24.0, 124.5, 40.0, 0.0, 0.0, 0.0, 1.696016211435767E9, 0.0, 2023-09-29 14:36:51.435
64.0, 49726.19411065509, 47339.02780282829, 15368.23247292429, 21705.130839959485, 19180.166027565723, 15237.966506238761, -187500.02235174447, 14674.367269798193, 41562.75589022111, 16565.57071990618, 26941.563420482093, 18384.287462745604, 36572.751292318266, 24515.773298236527, -22209.76617452695, 13978.937444560224, -0.004, 0.998, -0.214, 192.0, 0.0, 0.0, 0.0, 0.0, 0.0, 0.0, 0.0, 0.0, 0.0, 1.696016211435777E9, 0.0, 2023-09-29 14:36:51.435
66.0, 49698.209726597044, 47317.994811295845, 15343.511443556721, 21687.33885137306, 19178.64610894276, 15231.618610813453, -187500.02235174447, 14673.182627342061, 41551.49061101564, 16553.523129644767, 27052.182203791406, 18376.374945208427, 36567.16335620444, 24507.726670232616, -22211.956645483573, 13991.275607499554, -0.004, 0.998, -0.214, 192.0, 0.0, 0.0, 0.0, 0.0, 0.0, 0.0, 0.0, 0.0, 0.0, 1.696016211435787E9, 0.0, 2023-09-29 14:36:51.435
68.0, 49714.19122388258, 47325.10266603264, 15360.968155976316, 21696.503066599736, 19179.540178720974, 15231.708017791274, -187500.02235174447, 14674.389621542648, 41550.26126507059, 16549.343353431625, 26937.361292524492, 18373.469218429236, 36557.641513066475, 24511.794687723483, -22215.085889707316, 13965.034659509023, -0.004, 0.998, -0.214, 192.0, 0.0, 0.0, 0.0, 0.0, 0.0, 0.0, 0.0, 0.0, 0.0, 1.696016211435796E9, 0.0, 2023-09-29 14:36:51.435
70.0, 49714.59355528278, 47312.831558326674, 15343.980830190281, 21680.432162336372, 19180.41189675473, 15233.25028815869, -187500.02235174447, 14675.417801787593, 41543.10870684489, 16539.687399826933, 27061.74875041828, 18368.440075926792, 36564.23527768079, 24505.31268183144, -22210.77200302744, 13998.115241302878, -0.004, 0.998, -0.214, 192.0, 0.0, 0.0, 0.0, 0.0, 0.0, 0.0, 0.0, 0.0, 0.0, 1.69601621143581E9, 0.0, 2023-09-29 14:36:51.435
72.0, 49702.14363362118, 47319.73824736336, 15358.822388508606, 21694.200836920838, 19180.210731054634, 15234.479634103733, -187500.02235174447, 14675.216636087494, 41546.55087549101, 16542.88369928404, 26941.921048393375, 18364.215596224738, 36558.334417144586, 24508.486629544095, -22217.3434158973, 13961.078400740435, -0.008, 0.996, -0.21, 192.0, 127.5, 96.0, 15.5, 16.0, 124.5, 56.0, 0.0, 0.0, 0.0, 1.696016211435819E9, 0.0, 2023-09-29 14:36:51.435
74.0, 49726.61879379974, 47312.54098564875, 15346.014838935715, 21678.576967546578, 19174.399277496253, 15225.561288066065, -187500.02235174447, 14670.500418007425, 41542.304044044504, 16540.380303905047, 27045.521383943724, 18373.31275621805, 36563.81059453614, 24502.988100408093, -22205.184066913615, 14001.736223904638, -0.008, 0.996, -0.21, 192.0, 0.0, 0.0, 0.0, 0.0, 0.0, 0.0, 0.0, 0.0, 0.0, 1.696016211496073E9, 0.0, 2023-09-29 14:36:51.496
76.0, 49704.95995342254, 47319.71589561891, 15355.603737307041, 21692.68091829788, 19176.54504496396, 15231.328038135534, -187500.02235174447, 14677.89884542213, 41550.79770693752, 16545.722370829866, 26960.316534080095, 18373.69273587379, 36559.09437645607, 24505.17857136471, -22216.650511819185, 13967.538054888017, -0.008, 0.996, -0.21, 192.0, 0.0, 0.0, 0.0, 0.0, 0.0, 0.0, 0.0, 0.0, 0.0, 1.696016211496104E9, 0.0, 2023-09-29 14:36:51.496
78.0, 49745.75188705348, 47324.47681718789, 15357.011897207725, 21687.54001707316, 19176.99207985307, 15228.176442167336, -187500.02235174447, 14676.870665177186, 41549.434250525745, 16543.911879528987, 27051.668113668933, 18386.43323021331, 36562.80476603565, 24504.843295197883, -22206.368709369744, 14007.592380951928, -0.008, 0.996, -0.21, 192.0, 0.0, 0.0, 0.0, 0.0, 0.0, 0.0, 0.0, 0.0, 0.0, 1.696016211496148E9, 0.0, 2023-09-29 14:36:51.496
80.0, 49695.63927598468, 47322.24164274236, 15358.84474025306, 21703.96854924781, 19181.663594444228, 15233.96554398126, -187500.02235174447, 14678.591749500245, 41556.810326196, 16549.119835987072, 26981.416580845904, 18383.840427856496, 36563.60942883604, 24511.437059812197, -22216.605808330278, 13975.830552080937, -0.008, 0.996, -0.21, 192.0, 0.0, 0.0, 0.0, 0.0, 0.0, 0.0, 0.0, 0.0, 0.0, 1.696016211496159E9, 0.0, 2023-09-29 14:36:51.496
82.0, 49742.30971840736, 47334.289233003765, 15360.811693765128, 21699.319386401105, 19181.84240839987, 15229.763416023663, -187500.02235174447, 14674.389621542648, 41555.737442462145, 16552.405542422002, 27035.44074719438, 18393.78695413911, 36573.66771384093, 24511.10178364537, -22200.177276155624, 14011.72745367616, -0.008, 1.0, -0.21, 192.0, 127.5, 96.0, 15.5, 32.0, 124.5, 56.0, 0.0, 0.0, 0.0, 1.69601621149618E9, 0.0, 2023-09-29 14:36:51.496
84.0, 49692.040645127374, 47326.80139861124, 15353.212100650324, 21699.85582826803, 19175.338050763377, 15225.047197943593, -187500.02235174447, 14669.785162184855, 41559.023148897075, 16549.343353431625, 26991.720735039802, 18385.65091915738, 36566.26928642622, 24511.258245856556, -22218.483354864522, 13977.238711981621, -0.008, 1.0, -0.21, 192.0, 0.0, 0.0, 0.0, 0.0, 0.0, 0.0, 0.0, 0.0, 0.0, 1.696016211496189E9, 0.0, 2023-09-29 14:36:51.496
86.0, 49758.42532615964, 47326.19790151095, 15360.699935042852, 21692.949139231343, 19169.347783249355, 15219.079282174025, -187500.02235174447, 14663.28080454836, 41549.925988903764, 16542.257850439295, 27036.357168717048, 18388.087259303007, 36567.78920504919, 24502.004623652057, -22207.888627992706, 14007.34651176292, -0.008, 1.0, -0.21, 192.0, 0.0, 0.0, 0.0, 0.0, 0.0, 0.0, 0.0, 0.0, 0.0, 1.696016211496198E9, 0.0, 2023-09-29 14:36:51.496
88.0, 49680.08246184379, 47308.65178211353, 15348.51823431471, 21696.994804977752, 19178.22142579811, 15233.339695136512, -187500.02235174447, 14676.066002376796, 41552.719956960675, 16545.27533594076, 27023.773136588712, 18378.274843487125, 36562.737710802285, 24504.75388822006, -22217.745747297497, 13976.746973603604, -0.008, 1.0, -0.21, 192.0, 0.0, 0.0, 0.0, 0.0, 0.0, 0.0, 0.0, 0.0, 0.0, 1.696016211496207E9, 0.0, 2023-09-29 14:36:51.496
90.0, 49746.98123299852, 47327.65076490054, 15370.177074691901, 21703.990900992263, 19182.200036311155, 15235.083131204026, -187500.02235174447, 14683.687947236056, 41553.41286103879, 16552.22672846636, 27008.551598614646, 18395.55274195108, 36571.343132417576, 24514.879228458314, -22200.020813944437, 14001.512706460084, -0.008, 1.0, -0.21, 192.0, 0.0, 0.0, 0.0, 0.0, 0.0, 0.0, 0.0, 0.0, 0.0, 1.696016211556273E9, 0.0, 2023-09-29 14:36:51.556
92.0, 49682.474098500505, 47308.33885769115, 15355.581385562586, 21701.30869165763, 19183.51878923402, 15234.524337592644, -187500.02235174447, 14677.38475529966, 41559.80545995301, 16562.62028963808, 27005.556464857636, 18395.798611140086, 36569.309123672145, 24520.668330272238, -22203.351223868278, 13984.1006975294, -0.008, 1.004, -0.21, 192.0, 127.5, 96.0, 15.5, 48.0, 124.5, 56.0, 0.0, 0.0, 0.0, 1.696016211556295E9, 0.0, 2023-09-29 14:36:51.556
94.0, 49760.928721538636, 47310.79754958124, 15363.695068799863, 21698.38061313398, 19172.007640839536, 15226.72357877774, -187500.02235174447, 14677.09418262174, 41539.9571108767, 16541.31907717217, 27010.20562770434, 18385.092125545994, 36562.447138124364, 24506.89965568777, -22198.567950554843, 14011.258067042598, -0.008, 1.004, -0.21, 192.0, 0.0, 0.0, 0.0, 0.0, 0.0, 0.0, 0.0, 0.0, 0.0, 1.696016211556305E9, 0.0, 2023-09-29 14:36:51.556
96.0, 49670.42650823909, 47304.49435764484, 15348.361772103523, 21701.576912591092, 19185.23987355708, 15242.5486138521, -187500.02235174447, 14692.114554895707, 41547.71316620269, 16552.673763355466, 27075.763294191755, 18379.973576065728, 36560.39077763448, 24516.75677499256, -22210.30261639388, 13993.756651134092, -0.008, 1.004, -0.21, 192.0, 0.0, 0.0, 0.0, 0.0, 0.0, 0.0, 0.0, 0.0, 0.0, 1.696016211556315E9, 0.0, 2023-09-29 14:36:51.556
98.0, 49746.288328920404, 47316.966631050906, 15375.161513705436, 21707.835401038577, 19178.355536264844, 15233.406750369877, -187500.02235174447, 14684.067926891796, 41550.39537553732, 16549.14218773153, 26989.373801871992, 18389.5401226926, 36569.35382716105, 24526.613894297352, -22197.00332844297, 14000.90920935979, -0.008, 1.004, -0.21, 192.0, 0.0, 0.0, 0.0, 0.0, 0.0, 0.0, 0.0, 0.0, 0.0, 1.696016211556324E9, 0.0, 2023-09-29 14:36:51.556
100.0, 49683.234057811984, 47311.22223272589, 15357.391876863467, 21704.370880648003, 19188.994966625567, 15240.313439406567, -187500.02235174447, 14689.924083939086, 41554.93277966175, 16549.07513249816, 27063.201613807872, 18384.26511100115, 36568.057425982646, 24526.256266386066, -22200.892531978196, 14002.362072749385, -0.008, 1.004, -0.21, 192.0, 0.0, 0.0, 0.0, 0.0, 0.0, 0.0, 0.0, 0.0, 0.0, 1.696016211556365E9, 0.0, 2023-09-29 14:36:51.556
102.0, 49756.48072439203, 47329.260090501324, 15378.626034096007, 21713.803316808142, 19180.36719326582, 15234.166709681358, -187500.02235174447, 14680.826923945777, 41555.5586285065, 16551.399713921513, 26981.036601190164, 18391.30591050457, 36573.31008592965, 24522.411766339752, -22190.990709184494, 14007.122994318366, -0.008, 0.996, -0.214, 192.0, 127.5, 96.0, 15.5, 16.0, 124.5, 40.0, 0.0, 0.0, 0.0, 1.696016211556374E9, 0.0, 2023-09-29 14:36:51.556
104.0, 49691.23598232699, 47312.965668793404, 15359.761161775728, 21701.219284679806, 19187.94443463617, 15241.140453951413, -187500.02235174447, 14689.43234556107, 41556.58680875145, 16555.780655834755, 27084.88280592952, 18388.26607325865, 36570.42671089491, 24519.28252211601, -22194.790505741898, 14009.626389697361, -0.008, 0.996, -0.214, 192.0, 0.0, 0.0, 0.0, 0.0, 0.0, 0.0, 0.0, 0.0, 0.0, 1.696016211616558E9, 0.0, 2023-09-29 14:36:51.616
106.0, 49741.50505560697, 47327.65076490054, 15394.875752315016, 21726.029721025196, 19195.61108298434, 15245.54374760911, -187500.02235174447, 14693.299197351838, 41561.90652393181, 16566.397734451024, 26967.15616788342, 18393.608140183467, 36578.31687668763, 24523.28348437351, -22188.129685894215, 13992.147325533311, -0.008, 0.996, -0.214, 192.0, 0.0, 0.0, 0.0, 0.0, 0.0, 0.0, 0.0, 0.0, 0.0, 1.696016211616598E9, 0.0, 2023-09-29 14:36:51.616
108.0, 49713.453616315564, 47294.68194182896, 15363.560958333132, 21711.34462491806, 19184.41285901223, 15234.569041081553, -187500.02235174447, 14684.537313525358, 41556.631512240354, 16564.07315302767, 27092.12477113304, 18391.01533782665, 36576.10405398656, 24514.678062758216, -22183.078191647317, 14016.86835490088, -0.008, 0.996, -0.214, 192.0, 0.0, 0.0, 0.0, 0.0, 0.0, 0.0, 0.0, 0.0, 0.0, 1.696016211616612E9, 0.0, 2023-09-29 14:36:51.616
110.0, 49747.22710218753, 47316.20667173943, 15379.095420729569, 21725.806203580643, 19184.457562501142, 15235.44075911531, -187500.02235174447, 14686.19134261505, 41556.11742211788, 16568.699964129923, 26998.33685139857, 18382.096991788985, 36567.65509458245, 24503.45748704165, -22197.49506682099, 13994.538962190029, -0.008, 0.996, -0.214, 192.0, 0.0, 0.0, 0.0, 0.0, 0.0, 0.0, 0.0, 0.0, 0.0, 1.69601621161663E9, 0.0, 2023-09-29 14:36:51.616
112.0, 49711.57606978132, 47308.18239547997, 15367.740734546273, 21727.57199139261, 19204.14944936627, 15249.812930800073, -187500.02235174447, 14702.19519164505, 41560.52071577558, 16581.79808638073, 27105.736983506322, 18394.25634077267, 36580.30618194416, 24516.890885459292, -22186.609767271253, 14015.527250233561, -0.008, 1.0, -0.212, 192.0, 127.5, 96.0, 15.5, 32.0, 124.5, 48.0, 0.0, 0.0, 0.0, 1.69601621161664E9, 0.0, 2023-09-29 14:36:51.616
114.0, 49733.68194504761, 47322.84513984265, 15387.589083622586, 21741.988866566287, 19204.0823941329, 15252.15986396788, -187500.02235174447, 14703.71511026801, 41565.68396874476, 16587.922464361487, 26967.24557486124, 18397.631454185423, 36581.06614125564, 24529.43021409872, -22182.85467420276, 13995.209514523687, -0.008, 1.0, -0.212, 192.0, 0.0, 0.0, 0.0, 0.0, 0.0, 0.0, 0.0, 0.0, 0.0, 1.696016211616649E9, 0.0, 2023-09-29 14:36:51.616
116.0, 49736.520616593436, 47312.67509611548, 15372.99339449327, 21730.54477340517, 19199.522638264018, 15253.724486079753, -187500.02235174447, 14706.374967858192, 41561.526544276065, 16589.464734728903, 27083.340535562103, 18401.766526909654, 36586.385856436, 24526.256266386066, -22172.930499664606, 14033.520404520084, -0.008, 1.0, -0.212, 192.0, 0.0, 0.0, 0.0, 0.0, 0.0, 0.0, 0.0, 0.0, 0.0, 1.696016211616658E9, 0.0, 2023-09-29 14:36:51.616
118.0, 49747.338860909804, 47317.90540431803, 15385.689185343885, 21742.34649447757, 19196.549856251462, 15250.68464883383, -187500.02235174447, 14700.272941621894, 41561.97357916518, 16590.917598118496, 26980.90249072343, 18392.714070405254, 36575.96994351983, 24520.467164572143, -22184.016964914437, 14007.033587340546, -0.008, 1.0, -0.212, 192.0, 0.0, 0.0, 0.0, 0.0, 0.0, 0.0, 0.0, 0.0, 0.0, 1.696016211616667E9, 0.0, 2023-09-29 14:36:51.616
120.0, 49749.14935221068, 47304.47200590039, 15369.66298456943, 21732.243505983774, 19197.75685045205, 15254.819721558062, -187500.02235174447, 14704.34095911276, 41557.682044229754, 16591.208170796417, 27089.800189709687, 18398.3914134969, 36577.78043482071, 24524.155202407266, -22179.993650912482, 14034.63799174285, -0.008, 1.0, -0.212, 192.0, 0.0, 0.0, 0.0, 0.0, 0.0, 0.0, 0.0, 0.0, 0.0, 1.696016211675969E9, 0.0, 2023-09-29 14:36:51.675
122.0, 49721.25437513046, 47318.06186652921, 15383.610473109542, 21744.313447989636, 19205.959940667148, 15264.54273039612, -187500.02235174447, 14707.246685891949, 41560.94539892023, 16597.220790054893, 26970.41952257389, 18395.150410550883, 36573.06421674063, 24532.67121704474, -22190.05193591737, 13998.316407002976, -0.01, 0.994, -0.212, 192.0, 127.5, 88.0, 15.5, 8.0, 124.5, 48.0, 0.0, 0.0, 0.0, 1.696016211676028E9, 0.0, 2023-09-29 14:36:51.676
124.0, 49768.46125942007, 47313.256241471325, 15380.011842252237, 21725.985017536284, 19195.45462077315, 15250.550538367099, -187500.02235174447, 14694.036804918864, 41560.833640197954, 16595.164429565004, 27049.76821539023, 18404.515791477657, 36589.67156287093, 24519.50603956056, -22179.479560790012, 14031.732264963659, -0.01, 0.994, -0.212, 192.0, 0.0, 0.0, 0.0, 0.0, 0.0, 0.0, 0.0, 0.0, 0.0, 1.696016211676039E9, 0.0, 2023-09-29 14:36:51.676
126.0, 49746.53419810942, 47307.19891872394, 15385.488019643786, 21733.36109320654, 19196.46044927364, 15244.78378829763, -187500.02235174447, 14688.627682760678, 41562.733538476656, 16596.214961554404, 26979.941365711853, 18390.50124770418, 36577.7357313318, 24525.786879752504, -22194.410526086158, 13991.946159833213, -0.01, 0.994, -0.212, 192.0, 0.0, 0.0, 0.0, 0.0, 0.0, 0.0, 0.0, 0.0, 0.0, 1.696016211676049E9, 0.0, 2023-09-29 14:36:51.676
128.0, 49790.29891375291, 47306.2154419679, 15378.514275373731, 21720.48648840028, 19184.16698982322, 15234.770206781652, -187500.02235174447, 14682.480953035469, 41557.23500934065, 16590.157638807017, 27067.560203976656, 18398.950207108286, 36580.082664499605, 24516.80147848147, -22189.20256962807, 14016.398968267318, -0.01, 0.994, -0.212, 192.0, 0.0, 0.0, 0.0, 0.0, 0.0, 0.0, 0.0, 0.0, 0.0, 1.69601621167606E9, 0.0, 2023-09-29 14:36:51.676
130.0, 49722.30490711986, 47293.72081681738, 15371.473475870309, 21728.846040826564, 19194.001757383558, 15245.499044120199, -187500.02235174447, 14693.545066540846, 41560.87834368686, 16592.70573767492, 27013.267816694715, 18388.042555814096, 36575.41114990845, 24518.187286637698, -22207.10631693677, 13973.058935768478, -0.01, 0.994, -0.212, 192.0, 0.0, 0.0, 0.0, 0.0, 0.0, 0.0, 0.0, 0.0, 0.0, 1.696016211676069E9, 0.0, 2023-09-29 14:36:51.676
132.0, 49771.07641352134, 47305.79075882325, 15378.491923629275, 21732.422319939415, 19192.45948701614, 15247.86832903246, -187500.02235174447, 14695.556723541824, 41561.951227420715, 16592.83984814165, 27037.29594198417, 18397.7432129077, 36584.17303373492, 24520.198943638676, -22191.504799306967, 14008.44174724123, -0.014, 0.998, -0.20800000000000002, 192.0, 127.5, 72.0, 15.5, 24.0, 124.5, 64.0, 0.0, 0.0, 0.0, 1.696016211676078E9, 0.0, 2023-09-29 14:36:51.676
134.0, 49714.54885179387, 47292.04443598323, 15370.780571792195, 21729.360130949037, 19191.587768982383, 15247.108369720981, -187500.02235174447, 14693.52271479639, 41560.36425356439, 16592.258702785814, 27008.23867419227, 18388.44488721429, 36571.052559739655, 24517.606141281864, -22201.272511633935, 13983.877180084846, -0.014, 0.998, -0.20800000000000002, 192.0, 0.0, 0.0, 0.0, 0.0, 0.0, 0.0, 0.0, 0.0, 0.0, 1.696016211735591E9, 0.0, 2023-09-29 14:36:51.735
136.0, 49788.22020151856, 47305.902517545524, 15388.416098167432, 21732.86935482852, 19201.08726037589, 15251.243442445213, -187500.02235174447, 14699.133002654673, 41565.75102397812, 16595.72322317639, 27019.63806386448, 18403.35350076598, 36594.16426350645, 24521.9870831951, -22186.00627017096, 14010.229886797653, -0.014, 0.998, -0.20800000000000002, 192.0, 0.0, 0.0, 0.0, 0.0, 0.0, 0.0, 0.0, 0.0, 0.0, 1.696016211735617E9, 0.0, 2023-09-29 14:36:51.735
138.0, 49709.40795056915, 47282.34377888963, 15364.56678683362, 21724.889782057977, 19198.047423129967, 15250.774055811651, -187500.02235174447, 14698.19422938755, 41568.16501237929, 16598.025452855283, 27017.022909763207, 18394.613968683956, 36589.649211126474, 24518.634321526806, -22193.11412490775, 13987.0511277975, -0.014, 0.998, -0.20800000000000002, 192.0, 0.0, 0.0, 0.0, 0.0, 0.0, 0.0, 0.0, 0.0, 0.0, 1.696016211735627E9, 0.0, 2023-09-29 14:36:51.735
140.0, 49784.73332938353, 47284.26602891279, 15372.479304370798, 21717.603113365545, 19185.21752181262, 15237.20654692728, -187500.02235174447, 14681.162200112607, 41558.68787273025, 16586.737821905353, 26986.803351259634, 18393.16110529436, 36590.16330124895, 24509.537161533495, -22191.795371984885, 14004.306674516998, -0.014, 0.998, -0.20800000000000002, 192.0, 0.0, 0.0, 0.0, 0.0, 0.0, 0.0, 0.0, 0.0, 0.0, 1.696016211735636E9, 0.0, 2023-09-29 14:36:51.735
142.0, 49696.22042134052, 47263.09892691361, 15344.874899968494, 21708.595360350057, 19185.485742746085, 15241.699247562796, -187500.02235174447, 14687.599502515735, 41549.791878437034, 16578.199455523427, 27039.68757864089, 18370.54113990559, 36570.1808417059, 24505.402088809264, -22213.72243329554, 13985.978244063646, -0.014, 1.002, -0.218, 192.0, 127.5, 72.0, 15.5, 40.0, 124.5, 24.0, 0.0, 0.0, 0.0, 1.696016211735671E9, 0.0, 2023-09-29 14:36:51.735
144.0, 49771.27757922144, 47286.70236905842, 15366.690202556874, 21717.87133429901, 19180.970690366114, 15232.177404424836, -187500.02235174447, 14676.088354121252, 41554.88807617284, 16582.066307314195, 26987.518607082202, 18379.817113854544, 36578.56274587664, 24511.638225512295, -22205.47463959153, 13995.522438946062, -0.014, 1.002, -0.218, 192.0, 0.0, 0.0, 0.0, 0.0, 0.0, 0.0, 0.0, 0.0, 0.0, 1.696016211735734E9, 0.0, 2023-09-29 14:36:51.735
146.0, 49696.7792149519, 47265.53526705924, 15343.109112156524, 21708.371842905504, 19181.79770491096, 15236.647753315898, -187500.02235174447, 14679.396412300637, 41550.66359647079, 16573.259719998805, 27076.031515125218, 18365.10966600295, 36567.02924573771, 24499.74709746207, -22218.840982775808, 13990.24742725461, -0.014, 1.002, -0.218, 192.0, 0.0, 0.0, 0.0, 0.0, 0.0, 0.0, 0.0, 0.0, 0.0, 1.696016211735744E9, 0.0, 2023-09-29 14:36:51.735
148.0, 49765.33201519633, 47288.9598952484, 15374.736830560785, 21721.358206434037, 19182.244739800066, 15237.139491693913, -187500.02235174447, 14678.167066355594, 41559.291369830535, 16586.26843527179, 26989.753781527732, 18382.700488889277, 36580.39558892198, 24513.202847624165, -22207.463944848056, 13986.358223719386, -0.014, 1.002, -0.218, 192.0, 0.0, 0.0, 0.0, 0.0, 0.0, 0.0, 0.0, 0.0, 0.0, 1.696016211735754E9, 0.0, 2023-09-29 14:36:51.735
150.0, 49699.23790684198, 47268.75391826081, 15346.953612202838, 21708.282435927682, 19178.869626387313, 15239.195852183802, -187500.02235174447, 14681.43042104607, 41550.39537553732, 16575.696060144433, 27082.982907650818, 18371.189340494795, 36577.691027842884, 24502.42930679671, -22216.02466297444, 13991.521476688562, -0.014, 1.002, -0.218, 192.0, 0.0, 0.0, 0.0, 0.0, 0.0, 0.0, 0.0, 0.0, 0.0, 1.696016211795877E9, 0.0, 2023-09-29 14:36:51.795
152.0, 49754.60317785778, 47293.5643546062, 15376.413211394933, 21726.29794195866, 19183.049402600456, 15243.979125497239, -187500.02235174447, 14685.319624581292, 41552.92112266077, 16585.4637724714, 26991.18429317287, 18376.039669041595, 36582.40724592296, 24509.335995833397, -22205.944026225094, 13987.76638362007, -0.012, 1.008, -0.216, 192.0, 127.5, 80.0, 15.5, 64.0, 124.5, 32.0, 0.0, 0.0, 0.0, 1.6960162117959E9, 0.0, 2023-09-29 14:36:51.795
154.0, 49699.97551440901, 47286.81412778069, 15357.41422860792, 21712.730433074288, 19188.100896847358, 15245.767265053662, -187500.02235174447, 14689.387642072159, 41559.26901808608, 16584.86027537111, 27075.807997680666, 18381.15821852186, 36583.56953663463, 24506.251455098565, -22205.29582563589, 13997.444688969219, -0.012, 1.008, -0.216, 192.0, 0.0, 0.0, 0.0, 0.0, 0.0, 0.0, 0.0, 0.0, 0.0, 1.69601621179591E9, 0.0, 2023-09-29 14:36:51.795
156.0, 49750.222235944544, 47296.78300580776, 15381.464705641833, 21733.562258906637, 19184.301100289955, 15244.381456897434, -187500.02235174447, 14689.365290327703, 41555.62568373987, 16581.887493358554, 26958.841318946044, 18384.846256356985, 36581.535527889195, 24513.51577204654, -22201.92071222314, 13989.263950498576, -0.012, 1.008, -0.216, 192.0, 0.0, 0.0, 0.0, 0.0, 0.0, 0.0, 0.0, 0.0, 0.0, 1.696016211795919E9, 0.0, 2023-09-29 14:36:51.795
158.0, 49710.77140698092, 47281.42735736696, 15356.497807085254, 21720.39708142246, 19187.989138125078, 15248.82945404404, -187500.02235174447, 14696.00375843093, 41554.21752383918, 16580.166409035493, 27086.112151874564, 18384.801552868077, 36578.115710987535, 24510.073603400422, -22196.936273209605, 14015.81782291148, -0.012, 1.008, -0.216, 192.0, 0.0, 0.0, 0.0, 0.0, 0.0, 0.0, 0.0, 0.0, 0.0, 1.696016211795928E9, 0.0, 2023-09-29 14:36:51.795
160.0, 49739.26988116144, 47294.05609298421, 15375.988528250282, 21727.057901270142, 19188.793800925472, 15246.795445298607, -187500.02235174447, 14698.641264276655, 41555.715090717684, 16577.394792723037, 26965.546842282634, 18379.05715454306, 36575.99229526428, 24510.341824333886, -22199.39496509969, 13997.735261647138, -0.012, 1.008, -0.216, 192.0, 0.0, 0.0, 0.0, 0.0, 0.0, 0.0, 0.0, 0.0, 0.0, 1.696016211795938E9, 0.0, 2023-09-29 14:36:51.795
162.0, 49717.47693031752, 47286.45649986941, 15355.357868118033, 21721.961703534333, 19189.062021858936, 15250.058799989081, -187500.02235174447, 14699.557685799324, 41551.37885229336, 16572.07507754267, 27086.40272455248, 18378.274843487125, 36577.71337958734, 24508.397222566276, -22194.187008641602, 14023.238602070644, -0.012, 1.002, -0.212, 192.0, 127.5, 80.0, 15.5, 40.0, 124.5, 48.0, 0.0, 0.0, 0.0, 1.696016211795946E9, 0.0, 2023-09-29 14:36:51.795
164.0, 49736.90059624918, 47305.74605533434, 15375.340327661077, 21740.603058410055, 19187.765620680526, 15253.702134335297, -187500.02235174447, 14696.361386342214, 41559.04550064153, 16579.71937414639, 26960.249478846727, 18381.649956899877, 36582.54135638969, 24512.55464703496, -22198.836171488307, 13997.735261647138, -0.012, 1.002, -0.212, 192.0, 0.0, 0.0, 0.0, 0.0, 0.0, 0.0, 0.0, 0.0, 0.0, 1.696016211856282E9, 0.0, 2023-09-29 14:36:51.856
166.0, 49735.58184332631, 47294.525479617776, 15355.000240206748, 21722.095814001063, 19186.357460779844, 15249.231785444235, -187500.02235174447, 14691.444002562048, 41557.6596924853, 16577.752420634322, 27081.060657627662, 18386.366174979947, 36583.81540582364, 24508.397222566276, -22197.91974996564, 14027.127805605865, -0.012, 1.002, -0.212, 192.0, 0.0, 0.0, 0.0, 0.0, 0.0, 0.0, 0.0, 0.0, 0.0, 1.696016211856339E9, 0.0, 2023-09-29 14:36:51.856
168.0, 49738.42051487214, 47294.391369151046, 15370.04296422517, 21728.19784023736, 19185.37398402381, 15244.247346430702, -187500.02235174447, 14685.856066448221, 41558.44200354123, 16577.23833051185, 26973.57111854209, 18379.01245105415, 36575.813481308636, 24510.47593480062, -22206.458116347567, 13997.645854669316, -0.012, 1.002, -0.212, 192.0, 0.0, 0.0, 0.0, 0.0, 0.0, 0.0, 0.0, 0.0, 0.0, 1.696016211856349E9, 0.0, 2023-09-29 14:36:51.856
170.0, 49752.36800341225, 47292.89380227254, 15357.570690819108, 21714.697386586355, 19185.999832868558, 15241.92276500735, -187500.02235174447, 14684.269092591894, 41550.99887263762, 16570.5104554308, 27105.759335250776, 18379.07950628752, 36575.52290863072, 24498.60715849485, -22199.171447655135, 14026.658418972305, -0.012, 1.002, -0.212, 192.0, 0.0, 0.0, 0.0, 0.0, 0.0, 0.0, 0.0, 0.0, 0.0, 1.69601621185636E9, 0.0, 2023-09-29 14:36:51.856
172.0, 49727.62462230022, 47299.59932560913, 15375.921473016915, 21728.041378026173, 19191.81128642694, 15247.35423890999, -187500.02235174447, 14692.092203151251, 41569.61787576889, 16582.692156158944, 26987.831531504577, 18380.957052821763, 36582.54135638969, 24515.527429047517, -22203.999424457485, 13984.39127020732, -0.012, 0.994, -0.218, 192.0, 127.5, 80.0, 15.5, 8.0, 124.5, 24.0, 0.0, 0.0, 0.0, 1.696016211856379E9, 0.0, 2023-09-29 14:36:51.856
174.0, 49762.33688143932, 47295.97834300737, 15368.724211302306, 21715.904380786942, 19186.826847413406, 15241.252212673691, -187500.02235174447, 14688.873551949688, 41562.04063439854, 16574.846693855132, 27072.902270901475, 18387.327299991524, 36585.76000759125, 24511.258245856556, -22194.276415619424, 14020.288171802542, -0.012, 0.994, -0.218, 192.0, 0.0, 0.0, 0.0, 0.0, 0.0, 0.0, 0.0, 0.0, 0.0, 1.696016211856389E9, 0.0, 2023-09-29 14:36:51.856
176.0, 49721.05320943036, 47293.966686006395, 15369.394763635966, 21725.8285553251, 19193.46531551663, 15246.460169131777, -187500.02235174447, 14695.802592730832, 41562.06298614299, 16577.528903189766, 27002.829552034087, 18381.806419111064, 36577.065178998135, 24512.599350523873, -22205.608750058265, 13988.682805142738, -0.012, 0.994, -0.218, 192.0, 0.0, 0.0, 0.0, 0.0, 0.0, 0.0, 0.0, 0.0, 0.0, 1.696016211856398E9, 0.0, 2023-09-29 14:36:51.856
178.0, 49763.163895984166, 47300.247526198335, 15368.053658968647, 21722.49814540126, 19192.75005969406, 15242.906241763383, -187500.02235174447, 14693.209790374016, 41555.804497695506, 16578.445324712437, 27067.806073165666, 18385.092125545994, 36587.704609358865, 24506.698489987673, -22194.321119108336, 14020.645799713828, -0.012, 0.994, -0.218, 192.0, 0.0, 0.0, 0.0, 0.0, 0.0, 0.0, 0.0, 0.0, 0.0, 1.696016211856407E9, 0.0, 2023-09-29 14:36:51.856
180.0, 49716.29228786138, 47292.80439529472, 15361.929280987893, 21719.257142455237, 19197.108649862847, 15240.335791151023, -187500.02235174447, 14690.661691506111, 41559.7607564641, 16576.18779852245, 27011.14440097146, 18376.240834741693, 36579.74738833278, 24507.301987087965, -22204.647625046688, 13991.052090055, -0.012, 0.994, -0.218, 192.0, 0.0, 0.0, 0.0, 0.0, 0.0, 0.0, 0.0, 0.0, 0.0, 1.696016211916509E9, 0.0, 2023-09-29 14:36:51.916
182.0, 49780.46414619257, 47305.99192452335, 15368.992432235771, 21720.262970955726, 19193.308853305443, 15234.837262015017, -187500.02235174447, 14686.303101337327, 41560.8112884535, 16576.746592133833, 27040.425186207915, 18388.623701169934, 36586.56467039164, 24508.888960944292, -22191.370688840234, 14022.322180547975, -0.016, 0.996, -0.214, 192.0, 127.5, 64.0, 15.5, 16.0, 124.5, 40.0, 0.0, 0.0, 0.0, 1.696016211916531E9, 0.0, 2023-09-29 14:36:51.916
184.0, 49707.440997057085, 47291.95502900542, 15353.61443205052, 21714.227999952796, 19194.448792272662, 15242.146282451902, -187500.02235174447, 14691.846333962243, 41555.42451803977, 16575.673708399976, 27040.224020507816, 18375.77144810813, 36573.19832720737, 24504.150391119765, -22211.19668617209, 13998.897552358814, -0.016, 0.996, -0.214, 192.0, 0.0, 0.0, 0.0, 0.0, 0.0, 0.0, 0.0, 0.0, 0.0, 1.696016211916542E9, 0.0, 2023-09-29 14:36:51.916
186.0, 49766.248436719, 47297.677075585976, 15372.479304370798, 21725.180354735894, 19193.398260283266, 15242.593317341009, -187500.02235174447, 14695.377909586181, 41556.31858781798, 16584.05561257072, 27029.137555257985, 18391.17180003784, 36580.06031275515, 24512.46524005714, -22197.428011587624, 14020.601096224917, -0.016, 0.996, -0.214, 192.0, 0.0, 0.0, 0.0, 0.0, 0.0, 0.0, 0.0, 0.0, 0.0, 1.696016211916551E9, 0.0, 2023-09-29 14:36:51.916
188.0, 49686.519764246914, 47280.89091550004, 15350.976926204792, 21721.469965156313, 19201.936626665192, 15252.383381412434, -187500.02235174447, 14707.313741125316, 41556.51975351808, 16585.6649381715, 27034.613732649534, 18381.29232898859, 36571.38783590649, 24520.467164572143, -22206.34635762529, 14004.194915794722, -0.016, 0.996, -0.214, 192.0, 0.0, 0.0, 0.0, 0.0, 0.0, 0.0, 0.0, 0.0, 0.0, 1.696016211916594E9, 0.0, 2023-09-29 14:36:51.916
190.0, 49763.07448900634, 47287.50703185881, 15369.931205502893, 21719.100680244053, 19196.259283573545, 15243.643849330409, -187500.02235174447, 14694.372081085692, 41555.98331165115, 16576.970109578386, 26982.75768551322, 18385.606215668467, 36580.46264415534, 24516.71207150365, -22197.11508716525, 14019.282343302053, -0.016, 0.996, -0.214, 192.0, 0.0, 0.0, 0.0, 0.0, 0.0, 0.0, 0.0, 0.0, 0.0, 1.696016211916603E9, 0.0, 2023-09-29 14:36:51.916
192.0, 49692.84530792777, 47273.31367412969, 15345.70191451334, 21710.96464526232, 19195.94635915117, 15247.711866821273, -187500.02235174447, 14696.651959020133, 41549.858933670395, 16565.213091994894, 27035.68661638339, 18371.189340494795, 36573.46654814083, 24502.295196329975, -22209.296787893392, 14006.474793729163, -0.012, 0.996, -0.21, 192.0, 127.5, 80.0, 15.5, 16.0, 124.5, 56.0, 0.0, 0.0, 0.0, 1.696016211916612E9, 0.0, 2023-09-29 14:36:51.916
194.0, 49766.87428556375, 47296.00069475183, 15375.09445847207, 21733.383444950992, 19194.627606228307, 15247.465997632265, -187500.02235174447, 14695.914351453108, 41555.737442462145, 16573.907920588008, 26969.23488011776, 18389.629529670423, 36585.08945525759, 24515.41567032524, -22200.35609011127, 14009.112299574888, -0.012, 0.996, -0.21, 192.0, 0.0, 0.0, 0.0, 0.0, 0.0, 0.0, 0.0, 0.0, 0.0, 1.696016211975932E9, 0.0, 2023-09-29 14:36:51.975
196.0, 49698.701464975056, 47261.06491816818, 15343.399684834443, 21709.15415396144, 19182.021222355514, 15238.122968449947, -187500.02235174447, 14683.755002469421, 41548.45077376971, 16562.7096966159, 27040.29107574118, 18381.29232898859, 36574.137100474494, 24503.859818441848, -22208.469773348545, 14003.345549505419, -0.012, 0.996, -0.21, 192.0, 0.0, 0.0, 0.0, 0.0, 0.0, 0.0, 0.0, 0.0, 0.0, 1.696016211975956E9, 0.0, 2023-09-29 14:36:51.975
198.0, 49756.25720694748, 47269.78209850575, 15360.766990276217, 21720.084157000085, 19179.763696165526, 15236.78186378263, -187500.02235174447, 14683.822057702788, 41539.04068935403, 16555.22186222337, 26977.952060455333, 18375.503227174668, 36569.04090273868, 24499.99296665108, -22214.325930395837, 14003.144383805322, -0.012, 0.996, -0.21, 192.0, 0.0, 0.0, 0.0, 0.0, 0.0, 0.0, 0.0, 0.0, 0.0, 1.696016211975966E9, 0.0, 2023-09-29 14:36:51.975
200.0, 49679.769537421416, 47243.697612726406, 15347.311240114122, 21705.37670914849, 19193.21944632762, 15244.224994686247, -187500.02235174447, 14694.707357252522, 41541.09704984391, 16548.002248764307, 27060.988791106796, 18365.042610769586, 36571.58900160659, 24504.597426008873, -22217.701043808585, 14003.636122183338, -0.012, 0.996, -0.21, 192.0, 0.0, 0.0, 0.0, 0.0, 0.0, 0.0, 0.0, 0.0, 0.0, 1.696016211975975E9, 0.0, 2023-09-29 14:36:51.975
202.0, 49729.12218917873, 47247.29624358371, 15366.153760689946, 21710.24938943975, 19184.882245645793, 15236.759512038174, -187500.02235174447, 14684.179685614072, 41538.07956434245, 16537.78750154823, 26960.830624202565, 18360.10287524496, 36572.393664406976, 24499.36711780633, -22205.809915758364, 14003.09968031641, -0.016, 0.998, -0.20800000000000002, 192.0, 127.5, 64.0, 15.5, 24.0, 124.5, 64.0, 0.0, 0.0, 0.0, 1.696016211975984E9, 0.0, 2023-09-29 14:36:51.975
204.0, 49661.843438368254, 47219.356563014575, 15339.264612110212, 21698.335909645073, 19185.016356112523, 15236.49129110471, -187500.02235174447, 14686.571322270791, 41525.517883958564, 16530.74670204481, 27070.10830284456, 18355.364305420437, 36567.833908538094, 24495.634376482296, -22213.610674573265, 14015.81782291148, -0.016, 0.998, -0.20800000000000002, 192.0, 0.0, 0.0, 0.0, 0.0, 0.0, 0.0, 0.0, 0.0, 0.0, 1.696016211975993E9, 0.0, 2023-09-29 14:36:51.975
206.0, 49683.457575256536, 47218.931879869924, 15362.264557154724, 21715.7255668313, 19186.066888101923, 15231.708017791274, -187500.02235174447, 14683.710298980512, 41521.405162978794, 16520.487251339826, 26944.267981561185, 18351.74332281868, 36568.0797777271, 24498.74126896158, -22213.029529217427, 13993.95781683419, -0.016, 0.998, -0.20800000000000002, 192.0, 0.0, 0.0, 0.0, 0.0, 0.0, 0.0, 0.0, 0.0, 0.0, 1.696016211976002E9, 0.0, 2023-09-29 14:36:51.976
208.0, 49642.73269685897, 47186.924181809925, 15337.588231276064, 21697.218322422304, 19182.490608989076, 15227.841166000506, -187500.02235174447, 14684.649072247634, 41512.73268613013, 16507.456184322382, 27060.87703238452, 18345.887165771386, 36565.41992013692, 24491.61106248034, -22212.31427339486, 14014.275552544064, -0.016, 0.998, -0.20800000000000002, 192.0, 0.0, 0.0, 0.0, 0.0, 0.0, 0.0, 0.0, 0.0, 0.0, 1.696016211976011E9, 0.0, 2023-09-29 14:36:51.976
210.0, 49655.003804564934, 47176.41886191593, 15355.871958240505, 21700.72754630179, 19177.439114742174, 15221.985008953216, -187500.02235174447, 14677.675327977578, 41506.40714244928, 16495.16272487196, 26951.33113280906, 18332.18554642028, 36557.68621655538, 24484.23498681009, -22218.88568626472, 13990.403889465797, -0.016, 0.998, -0.20800000000000002, 192.0, 0.0, 0.0, 0.0, 0.0, 0.0, 0.0, 0.0, 0.0, 0.0, 1.696016212035622E9, 0.0, 2023-09-29 14:36:52.035
212.0, 49619.084551225256, 47149.93204473639, 15330.972114917293, 21683.024964693184, 19179.763696165526, 15227.505889833677, -187500.02235174447, 14682.212732102005, 41496.661781866766, 16483.31630031065, 27073.572823235136, 18316.00288343464, 36559.29554215617, 24481.41866700872, -22218.192782186605, 14011.43688099824, -0.016, 1.0, -0.214, 192.0, 127.5, 64.0, 15.5, 32.0, 124.5, 40.0, 0.0, 0.0, 0.0, 1.696016212035653E9, 0.0, 2023-09-29 14:36:52.035
214.0, 49629.63457460816, 47153.7318412938, 15344.785492990673, 21690.669261296902, 19178.623757198307, 15222.990837453704, -187500.02235174447, 14678.52469426688, 41493.711351598664, 16480.00824213126, 26945.85495541751, 18307.755089730632, 36553.148812430954, 24482.200978064655, -22225.747671812496, 13981.977281806146, -0.016, 1.0, -0.214, 192.0, 0.0, 0.0, 0.0, 0.0, 0.0, 0.0, 0.0, 0.0, 0.0, 1.696016212035668E9, 0.0, 2023-09-29 14:36:52.035
216.0, 49620.470359381485, 47153.84360001607, 15330.480376539277, 21680.655679780924, 19181.88711188878, 15223.706093276274, -187500.02235174447, 14684.090278636251, 41488.346932929395, 16478.041288619195, 27061.145253317984, 18314.7735374896, 36554.981655476295, 24481.865701897827, -22219.042148475906, 14006.810069895992, -0.016, 1.0, -0.214, 192.0, 0.0, 0.0, 0.0, 0.0, 0.0, 0.0, 0.0, 0.0, 0.0, 1.696016212035677E9, 0.0, 2023-09-29 14:36:52.035
218.0, 49616.983487246456, 47158.71628030733, 15337.409417320421, 21687.830589751076, 19176.835617641882, 15215.234782127713, -187500.02235174447, 14672.310909308304, 41491.431473664226, 16480.16470434245, 26949.744158952733, 18311.890162454863, 36546.62210305001, 24479.921100130214, -22228.698102080598, 13974.936482302724, -0.016, 1.0, -0.214, 192.0, 0.0, 0.0, 0.0, 0.0, 0.0, 0.0, 0.0, 0.0, 0.0, 1.696016212035686E9, 0.0, 2023-09-29 14:36:52.035
220.0, 49634.48490315496, 47166.76290831124, 15330.905059683928, 21677.995822190744, 19179.89780663226, 15219.63807578541, -187500.02235174447, 14675.842484932244, 41489.241002707604, 16471.78280017171, 27055.758482904253, 18315.645255523355, 36553.88641999798, 24467.49353021306, -22225.92648576814, 13998.428165725252, -0.016, 1.0, -0.214, 192.0, 0.0, 0.0, 0.0, 0.0, 0.0, 0.0, 0.0, 0.0, 0.0, 1.696016212035695E9, 0.0, 2023-09-29 14:36:52.035
222.0, 49610.2109086765, 47165.466507132835, 15341.052751666637, 21691.719793286302, 19182.401202011253, 15229.87517474594, -187500.02235174447, 14683.62089200269, 41494.136034743315, 16479.471800264335, 26962.28348759216, 18316.539325301568, 36550.69012054087, 24479.921100130214, -22229.234543947525, 13968.163903732766, -0.012, 1.004, -0.20800000000000002, 192.0, 127.5, 80.0, 15.5, 48.0, 124.5, 64.0, 0.0, 0.0, 0.0, 1.696016212035705E9, 0.0, 2023-09-29 14:36:52.035
224.0, 49646.53249341637, 47170.96503626884, 15340.873937710994, 21692.457400853327, 19185.17281832371, 15234.367875381457, -187500.02235174447, 14692.405127573626, 41492.526709142534, 16479.427096775424, 27035.999540805762, 18324.943581216765, 36560.770757290215, 24481.306908286442, -22208.469773348545, 14009.760500164093, -0.012, 1.004, -0.20800000000000002, 192.0, 0.0, 0.0, 0.0, 0.0, 0.0, 0.0, 0.0, 0.0, 0.0, 1.696016212096059E9, 0.0, 2023-09-29 14:36:52.096
226.0, 49611.86493776619, 47174.51896363723, 15337.252955109234, 21698.15709568943, 19181.618890955317, 15236.78186378263, -187500.02235174447, 14695.064985163806, 41489.799796318985, 16477.102515352075, 26976.968583699298, 18312.605418277435, 36546.95737921684, 24486.80543742245, -22216.516401352455, 13988.168715020265, -0.012, 1.004, -0.20800000000000002, 192.0, 0.0, 0.0, 0.0, 0.0, 0.0, 0.0, 0.0, 0.0, 0.0, 1.696016212096081E9, 0.0, 2023-09-29 14:36:52.096
228.0, 49682.36233977823, 47197.78712961521, 15353.457969839332, 21698.782944534178, 19184.18934156768, 15238.30178240559, -187500.02235174447, 14694.193267130051, 41493.89016555431, 16480.365870042548, 27039.598171663067, 18321.322598615003, 36558.893210755974, 24490.582882235394, -22204.468811091043, 14024.15502359331, -0.012, 1.004, -0.20800000000000002, 192.0, 0.0, 0.0, 0.0, 0.0, 0.0, 0.0, 0.0, 0.0, 0.0, 1.696016212096091E9, 0.0, 2023-09-29 14:36:52.096
230.0, 49639.96108054651, 47213.74627515629, 15362.398667621455, 21711.232866195784, 19188.726745692104, 15251.176387211846, -187500.02235174447, 14699.803554988332, 41520.444037967216, 16508.059681422674, 27017.201723718852, 18333.996037721165, 36566.71632131533, 24510.163010378245, -22202.032470945414, 14007.950008863212, -0.012, 1.004, -0.20800000000000002, 192.0, 0.0, 0.0, 0.0, 0.0, 0.0, 0.0, 0.0, 0.0, 0.0, 1.6960162120961E9, 0.0, 2023-09-29 14:36:52.096
232.0, 49708.133901135196, 47235.74039170032, 15364.94676648936, 21703.879142269987, 19182.08827758888, 15240.246384173202, -187500.02235174447, 14686.034880403862, 41526.7025264147, 16511.054815179683, 27041.319255986127, 18350.558680362545, 36577.04282725368, 24510.766507478536, -22193.96349119705, 14032.715741719692, -0.012, 1.0, -0.21, 192.0, 127.5, 80.0, 15.5, 32.0, 124.5, 56.0, 0.0, 0.0, 0.0, 1.696016212096138E9, 0.0, 2023-09-29 14:36:52.096
234.0, 49647.40421145013, 47231.56061548718, 15347.266536625211, 21700.884008512978, 19189.866684659326, 15240.380494639934, -187500.02235174447, 14687.308929837816, 41535.30794802999, 16512.75354775829, 27012.865485294522, 18348.837596039488, 36573.10892022955, 24503.94922541967, -22214.90707575167, 13992.572008677962, -0.012, 1.0, -0.21, 192.0, 0.0, 0.0, 0.0, 0.0, 0.0, 0.0, 0.0, 0.0, 0.0, 1.696016212096148E9, 0.0, 2023-09-29 14:36:52.096
236.0, 49733.41372411415, 47248.81616220667, 15358.822388508606, 21701.688671313368, 19182.535312477983, 15228.86934624545, -187500.02235174447, 14679.95520591202, 41532.871607884364, 16512.68649252492, 26989.01617396071, 18358.761770577643, 36582.25078371177, 24497.601329994362, -22201.83130524532, 14010.229886797653, -0.012, 1.0, -0.21, 192.0, 0.0, 0.0, 0.0, 0.0, 0.0, 0.0, 0.0, 0.0, 0.0, 1.696016212096157E9, 0.0, 2023-09-29 14:36:52.096
238.0, 49660.63644416767, 47231.00182187579, 15338.102321398535, 21697.933578244876, 19185.999832868558, 15233.742026536707, -187500.02235174447, 14686.19134261505, 41528.49066597112, 16512.21710589136, 27027.885857568486, 18343.204956436748, 36569.57734460561, 24502.47401028562, -22212.15781118367, 13993.86840985637, -0.012, 1.0, -0.21, 192.0, 0.0, 0.0, 0.0, 0.0, 0.0, 0.0, 0.0, 0.0, 0.0, 1.696016212096165E9, 0.0, 2023-09-29 14:36:52.096
240.0, 49736.61002357126, 47256.751031488304, 15359.51529258672, 21710.6740725844, 19186.625681713307, 15237.541823094109, -187500.02235174447, 14686.43721180406, 41534.79385790752, 16518.542649572213, 26988.613842560513, 18349.48579662869, 36578.115710987535, 24508.37487082182, -22197.763287754453, 14006.29597977352, -0.012, 1.0, -0.21, 192.0, 0.0, 0.0, 0.0, 0.0, 0.0, 0.0, 0.0, 0.0, 0.0, 1.696016212157292E9, 0.0, 2023-09-29 14:36:52.157
242.0, 49676.394424008664, 47243.11646737057, 15339.689295254862, 21694.58081657658, 19180.858931643837, 15230.456320101777, -187500.02235174447, 14680.7151652235, 41542.14758183331, 16522.18598391843, 27036.558334417146, 18344.434302381793, 36572.103091729055, 24502.69752773017, -22204.357052368767, 13997.95877909169, -0.006, 1.004, -0.21, 192.0, 127.5, 104.0, 15.5, 48.0, 124.5, 56.0, 0.0, 0.0, 0.0, 1.696016212157316E9, 0.0, 2023-09-29 14:36:52.157
244.0, 49745.327203908826, 47269.26800838328, 15360.632879809486, 21703.275645169695, 19181.641242699774, 15231.73036953573, -187500.02235174447, 14681.206903601516, 41543.622796967364, 16521.493079840315, 26981.32717386808, 18353.330296675005, 36575.612315608545, 24496.12611486031, -22197.807991243364, 13998.96460759218, -0.006, 1.004, -0.21, 192.0, 0.0, 0.0, 0.0, 0.0, 0.0, 0.0, 0.0, 0.0, 0.0, 1.696016212157327E9, 0.0, 2023-09-29 14:36:52.157
246.0, 49693.13588060569, 47256.92984544395, 15342.706780756329, 21702.806258536133, 19186.759792180037, 15239.486424861721, -187500.02235174447, 14692.04749966234, 41546.05913711299, 16525.51639384227, 27065.88382314251, 18355.29725018707, 36571.94662951787, 24501.781106207505, -22197.338604609802, 14001.065671570977, -0.006, 1.004, -0.21, 192.0, 0.0, 0.0, 0.0, 0.0, 0.0, 0.0, 0.0, 0.0, 0.0, 1.696016212157336E9, 0.0, 2023-09-29 14:36:52.157
248.0, 49765.6449396187, 47266.74226125983, 15367.226644423801, 21710.137630717472, 19184.479914245596, 15237.4971196052, -187500.02235174447, 14688.694737994045, 41544.94154989023, 16526.27635315375, 26999.789714788167, 18356.191319965284, 36580.082664499605, 24506.98906266559, -22187.05680216036, 14010.699273431215, -0.006, 1.004, -0.21, 192.0, 0.0, 0.0, 0.0, 0.0, 0.0, 0.0, 0.0, 0.0, 0.0, 1.696016212157345E9, 0.0, 2023-09-29 14:36:52.157
250.0, 49696.42158704062, 47265.04352868123, 15353.457969839332, 21707.589531849568, 19201.42253654272, 15255.06559074707, -187500.02235174447, 14700.474107321992, 41552.04940462702, 16533.965353246374, 27097.153913635484, 18356.280726943103, 36579.166242976935, 24513.582827279908, -22186.945043438085, 14019.550564235517, -0.006, 1.004, -0.21, 192.0, 0.0, 0.0, 0.0, 0.0, 0.0, 0.0, 0.0, 0.0, 0.0, 1.696016212157354E9, 0.0, 2023-09-29 14:36:52.157
252.0, 49752.256244689976, 47291.9103255165, 15375.832066039095, 21714.339758675073, 19192.03480387149, 15243.956773752783, -187500.02235174447, 14688.113592638207, 41560.69952973122, 16541.587298105635, 26959.75774046871, 18366.629584625913, 36590.5879843936, 24521.51769656154, -22181.44651430208, 14006.564200706984, -0.004, 0.994, -0.20800000000000002, 192.0, 127.5, 112.0, 15.5, 8.0, 124.5, 64.0, 0.0, 0.0, 0.0, 1.696016212157363E9, 0.0, 2023-09-29 14:36:52.157
254.0, 49710.27966860291, 47277.940485231935, 15346.953612202838, 21696.681880555378, 19191.18543758219, 15240.536956851121, -187500.02235174447, 14689.655863005622, 41548.27195981407, 16530.858460767085, 27091.431867054926, 18355.833692054, 36579.52387088822, 24509.939492933692, -22185.670994004133, 14024.423244526773, -0.004, 0.994, -0.20800000000000002, 192.0, 0.0, 0.0, 0.0, 0.0, 0.0, 0.0, 0.0, 0.0, 0.0, 1.696016212157405E9, 0.0, 2023-09-29 14:36:52.157
