%OpenBCI Raw EXG Data
%Number of channels = 16
%Sample Rate = 125 Hz
%Board = OpenBCI_GUI$BoardCytonSerialDaisy
Sample Index, EXG Channel 0, EXG Channel 1, EXG Channel 2, EXG Channel 3, EXG Channel 4, EXG Channel 5, EXG Channel 6, EXG Channel 7, EXG Channel 8, EXG Channel 9, EXG Channel 10, EXG Channel 11, EXG Channel 12, EXG Channel 13, EXG Channel 14, EXG Channel 15, Accel Channel 0, Accel Channel 1, Accel Channel 2, Other, Other, Other, Other, Other, Other, Other, Analog Channel 0, Analog Channel 1, Analog Channel 2, Timestamp, Other, Timestamp (Formatted)
178.0, 49245.542197888164, 47191.95332431237, 15637.950973266481, 21465.67660160978, 19024.86610709025, 14923.276296052492, -187500.02235174447, 14608.429623655036, 41255.28529349391, 16337.918202628876, 25842.863421781472, 18147.470730241625, 36181.72987481712, 24187.18030299906, -21808.41825108746, 13614.581658194264, 0.0, 0.0, 0.0, 192.0, 0.0, 0.0, 0.0, 0.0, 0.0, 0.0, 0.0, 0.0, 0.0, 1.696016193387055E9, 0.0, 2023-09-29 14:36:33.387
180.0, 49268.38568072148, 47190.61221964505, 15629.122034206634, 21458.68050559527, 19026.52013617994, 14921.57756347389, -187500.02235174447, 14607.110870732175, 41255.86643884974, 16345.763664932689, 25926.32483557759, 18158.06545711344, 36194.44801741219, 24188.45435243301, -21802.807963229177, 13652.177292368091, 0.0, 0.0, 0.0, 192.0, 0.0, 0.0, 0.0, 0.0, 0.0, 0.0, 0.0, 0.0, 0.0, 1.696016193387074E9, 0.0, 2023-09-29 14:36:33.387
182.0, 49239.104895485034, 47192.06508303465, 15633.771197053338, 21470.146950500843, 19028.53179318092, 14926.38318853178, -187500.02235174447, 14607.535553876825, 41264.293046509396, 16356.47015052678, 25823.216238405257, 18161.328811803916, 36190.759979577066, 24188.11907626618, -21811.815716244666, 13617.88971637365, 0.0, 0.0, 0.0, 192.0, 0.0, 0.0, 0.0, 0.0, 0.0, 0.0, 0.0, 0.0, 0.0, 1.696016193387084E9, 0.0, 2023-09-29 14:36:33.387
184.0, 49287.85405014206, 47186.499498665275, 15629.099682462178, 21453.986639259656, 19014.517249407443, 14912.770976158497, -187500.02235174447, 14595.823239782243, 41261.52143019694, 16348.110598100497, 25889.243291526236, 18163.563986249446, 36195.87852905733, 24180.98886978494, -21796.370660826047, 13653.965431924515, -0.017, 0.501, -0.084, 192.0, 127.0, 120.0, 15.5, 40.0, 125.0, 96.0, 0.0, 0.0, 0.0, 1.696016193387094E9, 0.0, 2023-09-29 14:36:33.387
186.0, 49238.121418729, 47181.470356162834, 15629.300848162276, 21458.14406372834, 19021.356883210767, 14916.637827949266, -187500.02235174447, 14599.645388084102, 41265.07535756533, 16352.29037431364, 25832.805136776584, 18146.509605230047, 36188.21188070916, 24183.112285508192, -21814.98966395732, 13614.760472149906, -0.017, 0.501, -0.084, 192.0, 0.0, 0.0, 0.0, 0.0, 0.0, 0.0, 0.0, 0.0, 0.0, 1.696016193387105E9, 0.0, 2023-09-29 14:36:33.387
188.0, 49294.44781475637, 47190.76868185624, 15632.810072041759, 21450.29860142453, 19022.027435544423, 14909.932304612674, -187500.02235174447, 14590.659986813067, 41266.81879363285, 16349.295240556628, 25873.418256451878, 18162.58050949341, 36199.11953200335, 24181.570015140776, -21801.466858561856, 13643.951850408537, -0.017, 0.501, -0.084, 192.0, 0.0, 0.0, 0.0, 0.0, 0.0, 0.0, 0.0, 0.0, 0.0, 1.696016193387114E9, 0.0, 2023-09-29 14:36:33.387
190.0, 49237.65203209544, 47179.21282997284, 15613.475813087918, 21444.889479266345, 19016.0371680304, 14908.412385989714, -187500.02235174447, 14595.17503919304, 41254.34652022678, 16339.214603807284, 25862.3541429465, 18142.01690459453, 36179.092368971396, 24171.288212691336, -21818.253018647792, 13617.777957651373, -0.017, 0.501, -0.084, 192.0, 0.0, 0.0, 0.0, 0.0, 0.0, 0.0, 0.0, 0.0, 0.0, 1.696016193387124E9, 0.0, 2023-09-29 14:36:33.387
192.0, 49292.302047288664, 47192.2886004792, 15629.367903395643, 21454.232508448662, 19022.67563613363, 14916.436662249169, -187500.02235174447, 14602.305245674283, 41257.45341270607, 16341.606240464002, 25875.005230308205, 18149.035352353498, 36194.76094183457, 24180.519483151376, -21805.713690008368, 13642.722504463496, -0.017, 0.501, -0.084, 192.0, 0.0, 0.0, 0.0, 0.0, 0.0, 0.0, 0.0, 0.0, 0.0, 1.696016193387133E9, 0.0, 2023-09-29 14:36:33.387
194.0, 49228.08548546857, 47183.794937586186, 15616.3368363782, 21454.366618915396, 19024.396720456687, 14921.778729173986, -187500.02235174447, 14606.820298054256, 41260.090918551796, 16339.7063421853, 25871.496006428722, 18140.58639294939, 36182.75805506206, 24177.68081160555, -21816.263713391272, 13625.869289144193, -0.025500000000000002, 0.7505, -0.126, 192.0, 127.0, 120.0, 15.5, 32.0, 125.0, 96.0, 0.0, 0.0, 0.0, 1.696016193387142E9, 0.0, 2023-09-29 14:36:33.387
0.0, 24705.830181340003, 23614.886237965376, 7767.4994191526675, 10743.433027676705, 9527.45342581909, 7504.419386913703, -93750.01117587223, 7312.194384598063, 20631.2189258598, 8171.238979248879, 12895.816611744955, 9075.501152932782, 18095.279406938484, 12089.58918924203, -10903.717387165712, 6816.745617001727, -0.038, 1.002, -0.162, 192.0, 127.0, 104.0, 15.5, 40.0, 125.0, 120.0, 0.0, 0.0, 0.0, 1.696016193532948E9, 0.0, 2023-09-29 14:36:33.532
2.0, 49396.84115610614, 47231.02417362025, 15543.425445964987, 21501.193523549264, 19054.05748534888, 15002.848506313385, -187500.02235174447, 14616.588010381223, 41327.816704251374, 16370.931729189364, 26233.75072881588, 18190.274320873537, 36279.09407366444, 24247.08297813928, -21917.4724122849, 13720.48422342351, -0.038, 1.002, -0.162, 192.0, 0.0, 0.0, 0.0, 0.0, 0.0, 0.0, 0.0, 0.0, 0.0, 1.696016193532977E9, 0.0, 2023-09-29 14:36:33.532
4.0, 49436.31433681421, 47228.72194394135, 15539.379780218576, 21492.25282576714, 19051.889366136715, 14998.579323122422, -187500.02235174447, 14612.94467603501, 41319.03246868044, 16359.957022661809, 26295.977985379457, 18196.465754087658, 36279.47405332018, 24237.31526581231, -21911.81742093771, 13744.355886501777, -0.038, 1.002, -0.162, 192.0, 0.0, 0.0, 0.0, 0.0, 0.0, 0.0, 0.0, 0.0, 0.0, 1.696016193532991E9, 0.0, 2023-09-29 14:36:33.532
6.0, 49374.936446539934, 47219.69183918141, 15543.02311456479, 21494.890331612867, 19058.684296451127, 15007.967055793652, -187500.02235174447, 14621.550097650303, 41323.94985246061, 16367.824836710077, 26236.522345128342, 18193.112992419363, 36282.87151847738, 24240.51156526942, -21915.03607213927, 13709.33070294031, -0.038, 1.002, -0.162, 192.0, 0.0, 0.0, 0.0, 0.0, 0.0, 0.0, 0.0, 0.0, 0.0, 1.696016193533001E9, 0.0, 2023-09-29 14:36:33.533
8.0, 49424.33380178616, 47217.121388569045, 15548.834568123171, 21491.425811222292, 19057.54435748391, 15004.703701103175, -187500.02235174447, 14616.94563829251, 41312.796331977406, 16364.963813419798, 26264.48437744193, 18201.114916934363, 36286.447797590234, 24243.774919959895, -21906.81063017972, 13740.57844168883, -0.036000000000000004, 1.008, -0.158, 192.0, 127.0, 112.0, 15.5, 64.0, 125.5, 8.0, 0.0, 0.0, 0.0, 1.69601619353301E9, 0.0, 2023-09-29 14:36:33.533
10.0, 49344.44866710289, 47191.819213845636, 15540.989105819359, 21492.29752925605, 19055.30918303838, 15010.87278257284, -187500.02235174447, 14624.344065707215, 41314.4503610671, 16360.00172615072, 26247.318237700256, 18187.68151851672, 36277.9094312083, 24240.153937358136, -21918.05355764074, 13715.85741232126, -0.036000000000000004, 1.008, -0.158, 192.0, 0.0, 0.0, 0.0, 0.0, 0.0, 0.0, 0.0, 0.0, 0.0, 1.696016193533021E9, 0.0, 2023-09-29 14:36:33.533
12.0, 49403.23375502035, 47198.949420326884, 15557.350582760642, 21498.511314214626, 19051.24116554751, 15010.693968617199, -187500.02235174447, 14618.8008330823, 41317.490198313026, 16355.486673770747, 26225.99467348989, 18195.951663965185, 36289.55469006952, 24241.65150423664, -21908.576417991688, 13731.436578206609, -0.036000000000000004, 1.008, -0.158, 192.0, 0.0, 0.0, 0.0, 0.0, 0.0, 0.0, 0.0, 0.0, 0.0, 1.69601619353303E9, 0.0, 2023-09-29 14:36:33.533
14.0, 49330.1435506515, 47165.175934454914, 15534.328285971676, 21481.278119239585, 19048.178976557134, 15007.832945326918, -187500.02235174447, 14619.56079239378, 41305.599070262804, 16343.863766653987, 26248.257010967376, 18175.097486388386, 36274.98135268466, 24238.097576868247, -21924.222639110405, 13718.09258676679, -0.036000000000000004, 1.008, -0.158, 192.0, 0.0, 0.0, 0.0, 0.0, 0.0, 0.0, 0.0, 0.0, 0.0, 1.696016193533039E9, 0.0, 2023-09-29 14:36:33.533
16.0, 49392.571972915175, 47172.663768847444, 15554.757780403826, 21496.7231746582, 19052.537566725918, 15008.682311616221, -187500.02235174447, 14621.438338928026, 41298.468863781556, 16333.671371182369, 26210.884894238105, 18182.227692869626, 36279.51875680909, 24236.175326845092, -21915.751327961843, 13730.520156683942, -0.036000000000000004, 1.008, -0.158, 192.0, 0.0, 0.0, 0.0, 0.0, 0.0, 0.0, 0.0, 0.0, 0.0, 1.696016193593274E9, 0.0, 2023-09-29 14:36:33.593
18.0, 49321.06874240265, 47138.89028297547, 15521.476032909875, 21478.528854671582, 19047.039037589915, 15002.960265035663, -187500.02235174447, 14617.951466792998, 41294.825529435344, 16324.730673400245, 26255.00723779288, 18173.152884620773, 36271.80740497201, 24234.677759966584, -21920.66871174201, 13723.94874381408, -0.04, 1.002, -0.162, 192.0, 127.0, 96.0, 15.5, 40.0, 125.0, 120.0, 0.0, 0.0, 0.0, 1.696016193593319E9, 0.0, 2023-09-29 14:36:33.593
20.0, 49381.59726638762, 47142.55596906614, 15538.105730784624, 21486.217854764207, 19044.602697444287, 14996.724128332631, -187500.02235174447, 14613.928152791043, 41281.3921310177, 16308.36919645896, 26209.499086081876, 18163.11695136034, 36266.17476536927, 24220.618512704197, -21922.47920304289, 13733.358828229766, -0.04, 1.002, -0.162, 192.0, 0.0, 0.0, 0.0, 0.0, 0.0, 0.0, 0.0, 0.0, 0.0, 1.69601619359333E9, 0.0, 2023-09-29 14:36:33.593
22.0, 49306.47305327333, 47123.46757930131, 15514.479936895365, 21475.354906958928, 19049.96711611356, 15002.401471424278, -187500.02235174447, 14620.767786594366, 41277.011189104465, 16305.396414446404, 26284.757409662892, 18149.63884945379, 36258.86574493239, 24222.294893538347, -21932.53748804778, 13729.648438650185, -0.04, 1.002, -0.162, 192.0, 0.0, 0.0, 0.0, 0.0, 0.0, 0.0, 0.0, 0.0, 0.0, 1.696016193593375E9, 0.0, 2023-09-29 14:36:33.593
24.0, 49372.54480988322, 47140.76782950972, 15547.247594266844, 21484.83204660798, 19047.24020329001, 14997.171163221738, -187500.02235174447, 14614.352835935693, 41282.75558742948, 16309.7997081041, 26181.51470202383, 18157.529015246513, 36271.38272182736, 24225.401786017632, -21917.740633218364, 13728.419092705142, -0.04, 1.002, -0.162, 192.0, 0.0, 0.0, 0.0, 0.0, 0.0, 0.0, 0.0, 0.0, 0.0, 1.696016193593386E9, 0.0, 2023-09-29 14:36:33.593
26.0, 49313.983239410314, 47117.298497831645, 15515.351654929122, 21462.68146785277, 19045.63087768923, 14996.031224254517, -187500.02235174447, 14614.576353380246, 41273.300799524884, 16297.550952142592, 26298.72724994746, 18148.990648864587, 36262.26321008959, 24220.149126070635, -21924.24499085486, 13740.53373819992, -0.04, 1.002, -0.162, 192.0, 0.0, 0.0, 0.0, 0.0, 0.0, 0.0, 0.0, 0.0, 0.0, 1.696016193593395E9, 0.0, 2023-09-29 14:36:33.593
28.0, 49354.19402768541, 47145.193474911866, 15545.392399477054, 21489.794133877058, 19056.873805150248, 15010.44809942819, -187500.02235174447, 14628.054455286796, 41277.30176178238, 16305.284655724128, 26194.14343764108, 18152.254003555063, 36265.6606752468, 24225.044158106346, -21922.322740831703, 13724.239316492, -0.038, 1.006, -0.162, 192.0, 127.0, 104.0, 15.5, 56.0, 125.0, 120.0, 0.0, 0.0, 0.0, 1.696016193593405E9, 0.0, 2023-09-29 14:36:33.593
30.0, 49317.11248363405, 47143.315928377626, 15526.102844012124, 21486.73194488668, 19054.23629930452, 15012.30329421798, -187500.02235174447, 14627.473309930958, 41283.426139763134, 16313.8006703616, 26284.623299196162, 18157.46196001315, 36269.88515494885, 24236.309437311822, -21920.534601275278, 13741.114883555758, -0.038, 1.006, -0.162, 192.0, 0.0, 0.0, 0.0, 0.0, 0.0, 0.0, 0.0, 0.0, 0.0, 1.696016193652566E9, 0.0, 2023-09-29 14:36:33.652
32.0, 49366.93452202494, 47160.61617858603, 15549.12514080109, 21491.939901344766, 19050.1459300692, 15006.603599381877, -187500.02235174447, 14619.247867971406, 41290.154014844185, 16324.820080378066, 26164.616783215617, 18163.429875782716, 36273.19321312824, 24242.85849843723, -21920.467546041913, 13728.91083108316, -0.038, 1.006, -0.162, 192.0, 0.0, 0.0, 0.0, 0.0, 0.0, 0.0, 0.0, 0.0, 0.0, 1.696016193652594E9, 0.0, 2023-09-29 14:36:33.652
34.0, 49337.20670189938, 47148.30036739116, 15522.16893698799, 21479.579386660982, 19048.15662481268, 15002.87085805784, -187500.02235174447, 14619.158460993584, 41288.388227032214, 16320.729711142745, 26290.30064228781, 18158.803064680465, 36270.82392821598, 24234.498946010943, -21925.072005399707, 13745.987563847015, -0.038, 1.006, -0.162, 192.0, 0.0, 0.0, 0.0, 0.0, 0.0, 0.0, 0.0, 0.0, 0.0, 1.696016193652605E9, 0.0, 2023-09-29 14:36:33.652
36.0, 49362.53122836724, 47167.67932983391, 15543.805425620727, 21498.15368630334, 19053.72220918205, 15008.436442427212, -187500.02235174447, 14625.953391307998, 41294.35614280178, 16331.503251970204, 26167.433103016985, 18161.77584669302, 36271.53918403854, 24240.645675736152, -21930.034092668786, 13724.015799047447, -0.038, 1.006, -0.162, 192.0, 0.0, 0.0, 0.0, 0.0, 0.0, 0.0, 0.0, 0.0, 0.0, 1.696016193652614E9, 0.0, 2023-09-29 14:36:33.652
38.0, 49356.138629453024, 47159.56564659663, 15525.946381800937, 21484.340308229963, 19046.368485256255, 15002.021491768539, -187500.02235174447, 14622.51122266188, 41294.93728815762, 16326.384702489937, 26273.760351390883, 18168.36961130734, 36275.24957361812, 24235.683588467073, -21924.826136210697, 13750.301450526887, -0.032, 1.01, -0.162, 192.0, 127.5, 0.0, 15.5, 72.0, 125.0, 120.0, 0.0, 0.0, 0.0, 1.696016193652624E9, 0.0, 2023-09-29 14:36:33.652
40.0, 49372.4554029054, 47181.93974279639, 15546.465283210908, 21503.74162241717, 19046.971982356547, 15003.228485969126, -187500.02235174447, 14620.99130403892, 41301.24048009401, 16336.264173539184, 26164.79559717126, 18166.156788606262, 36266.86766944738, 24239.438681535565, -21933.431557825992, 13721.534755412908, -0.032, 1.01, -0.162, 192.0, 0.0, 0.0, 0.0, 0.0, 0.0, 0.0, 0.0, 0.0, 0.0, 1.696016193652634E9, 0.0, 2023-09-29 14:36:33.652
42.0, 49381.01612103178, 47189.29346672219, 15532.338980715154, 21496.007918835632, 19049.251860290988, 15008.838773827407, -187500.02235174447, 14628.389731453626, 41298.13358761473, 16344.176691076362, 26296.24620631292, 18178.517303290046, 36274.42255907328, 24232.84491692125, -21923.552086776745, 13757.521063985952, -0.032, 1.01, -0.162, 192.0, 0.0, 0.0, 0.0, 0.0, 0.0, 0.0, 0.0, 0.0, 0.0, 1.696016193652643E9, 0.0, 2023-09-29 14:36:33.652
44.0, 49369.9520075264, 47212.42752223343, 15550.98033559088, 21514.224590566708, 19059.354848784787, 15016.214849497659, -187500.02235174447, 14632.591859411225, 41313.37747733325, 16361.611051751503, 26184.621594503118, 18186.005137682576, 36278.26705911959, 24252.71561774202, -21927.128365889595, 13723.591115902796, -0.032, 1.01, -0.162, 192.0, 0.0, 0.0, 0.0, 0.0, 0.0, 0.0, 0.0, 0.0, 0.0, 1.696016193652696E9, 0.0, 2023-09-29 14:36:33.652
46.0, 49406.765330644295, 47220.58590895962, 15541.324381986187, 21502.244055538664, 19057.656116206184, 15010.82807908393, -187500.02235174447, 14623.874679073655, 41311.72344824355, 16359.442932539338, 26277.649554926105, 18197.851562243886, 36281.8656899769, 24249.22874560699, -21914.209057594428, 13758.683354697629, -0.032, 1.01, -0.162, 192.0, 0.0, 0.0, 0.0, 0.0, 0.0, 0.0, 0.0, 0.0, 0.0, 1.696016193712344E9, 0.0, 2023-09-29 14:36:33.712
48.0, 49382.37957744355, 47226.151493328995, 15547.35935298912, 21506.379128262895, 19059.53366274043, 15007.050634270983, -187500.02235174447, 14622.377112195149, 41321.98289894854, 16366.99782216523, 26187.773190471315, 18195.88460873182, 36281.485710321154, 24251.75449273044, -21922.836830954177, 13723.792281602893, -0.038, 1.008, -0.158, 192.0, 127.0, 104.0, 15.5, 64.0, 125.5, 8.0, 0.0, 0.0, 0.0, 1.696016193712368E9, 0.0, 2023-09-29 14:36:33.712
50.0, 49421.45042675143, 47230.35362128659, 15541.88317559757, 21493.86215136792, 19054.30335453789, 15002.669692357744, -187500.02235174447, 14619.896068560609, 41313.1986633776, 16357.09599937153, 26272.665115912572, 18196.51045757657, 36285.15139641183, 24241.003303647438, -21917.852391940643, 13754.749447673494, -0.038, 1.008, -0.158, 192.0, 0.0, 0.0, 0.0, 0.0, 0.0, 0.0, 0.0, 0.0, 0.0, 1.696016193712379E9, 0.0, 2023-09-29 14:36:33.712
52.0, 49374.91409479548, 47235.74039170032, 15545.951193088436, 21509.642482953368, 19059.734828440527, 15012.415052940256, -187500.02235174447, 14630.714312876979, 41323.43576233814, 16370.641156511445, 26203.19589414548, 18196.398698854293, 36282.84916673293, 24254.3249433428, -21925.38492982208, 13721.355941457266, -0.038, 1.008, -0.158, 192.0, 0.0, 0.0, 0.0, 0.0, 0.0, 0.0, 0.0, 0.0, 0.0, 1.696016193712389E9, 0.0, 2023-09-29 14:36:33.712
54.0, 49434.68265946897, 47236.12037135606, 15546.30882099972, 21504.747450917657, 19049.58713645782, 15003.943741791696, -187500.02235174447, 14620.074882516252, 41315.456189567594, 16365.924938431375, 26263.478548941443, 18202.232504157128, 36281.8656899769, 24244.490175782466, -21913.38204304958, 13758.05750585288, -0.038, 1.008, -0.158, 192.0, 0.0, 0.0, 0.0, 0.0, 0.0, 0.0, 0.0, 0.0, 0.0, 1.696016193712398E9, 0.0, 2023-09-29 14:36:33.712
56.0, 49378.04333901923, 47229.05722010818, 15543.157225031522, 21508.323730030505, 19054.504520237984, 15012.169183751248, -187500.02235174447, 14624.858155829688, 41323.39105884923, 16369.680031499867, 26252.325028458243, 18200.39966111179, 36280.36812309839, 24246.904164183637, -21924.133232132583, 13733.00120031848, -0.038, 1.008, -0.158, 192.0, 0.0, 0.0, 0.0, 0.0, 0.0, 0.0, 0.0, 0.0, 0.0, 1.696016193712407E9, 0.0, 2023-09-29 14:36:33.712
58.0, 49437.18605484797, 47249.151438373505, 15553.439027480965, 21510.670663198314, 19054.30335453789, 15014.694930874699, -187500.02235174447, 14629.306152976294, 41328.531960073946, 16372.496351301237, 26267.05482805429, 18213.296617662505, 36294.76264652761, 24251.03923690787, -21913.538505260767, 13758.661002953173, -0.036000000000000004, 1.01, -0.158, 192.0, 127.0, 112.0, 15.5, 72.0, 125.5, 8.0, 0.0, 0.0, 0.0, 1.696016193712417E9, 0.0, 2023-09-29 14:36:33.712
60.0, 49368.789716814725, 47236.075667867146, 15537.301067984232, 21501.372337504905, 19053.92337488215, 15011.699797117686, -187500.02235174447, 14624.03114128484, 41330.72243103057, 16372.04931641213, 26252.72735985844, 18204.73589953612, 36288.79473075804, 24254.034370664882, -21930.145851391062, 13733.872918352237, -0.036000000000000004, 1.01, -0.158, 192.0, 0.0, 0.0, 0.0, 0.0, 0.0, 0.0, 0.0, 0.0, 0.0, 1.696016193772645E9, 0.0, 2023-09-29 14:36:33.772
62.0, 49440.4717612829, 47247.944444172914, 15556.635326938072, 21514.20223882225, 19053.43163650413, 15011.364520950858, -187500.02235174447, 14618.532612148836, 41332.24234965353, 16371.781095478666, 26235.76238581686, 18214.21303918517, 36298.540091340554, 24254.816681720815, -21920.02051115281, 13752.983659861526, -0.036000000000000004, 1.01, -0.158, 192.0, 0.0, 0.0, 0.0, 0.0, 0.0, 0.0, 0.0, 0.0, 0.0, 1.696016193772672E9, 0.0, 2023-09-29 14:36:33.772
64.0, 49368.29797843671, 47224.00572586128, 15534.976486560881, 21504.814506151022, 19058.86311040677, 15020.64049489981, -187500.02235174447, 14629.03793204283, 41330.968300219574, 16378.218397881796, 26259.656400639582, 18208.93802749372, 36287.7665505131, 24255.263716609923, -21931.91163920303, 13732.151834029179, -0.036000000000000004, 1.01, -0.158, 192.0, 0.0, 0.0, 0.0, 0.0, 0.0, 0.0, 0.0, 0.0, 0.0, 1.696016193772682E9, 0.0, 2023-09-29 14:36:33.772
66.0, 49436.69431646995, 47239.51783651327, 15554.064876325712, 21511.430622509793, 19055.823273160848, 15015.92427681974, -187500.02235174447, 14621.259524972384, 41324.21807339407, 16371.356412334015, 26215.75757452936, 18216.179992697238, 36289.19706215824, 24254.61551602072, -21919.662883241523, 13751.553148216386, -0.036000000000000004, 1.01, -0.158, 192.0, 0.0, 0.0, 0.0, 0.0, 0.0, 0.0, 0.0, 0.0, 0.0, 1.696016193772723E9, 0.0, 2023-09-29 14:36:33.772
68.0, 49372.209533716385, 47225.27977529523, 15540.206794763422, 21505.462706740225, 19061.34415404131, 15013.175012251737, -187500.02235174447, 14622.42181568406, 41330.11893393027, 16370.14941813343, 26272.687467657026, 18211.08379496143, 36284.54789931153, 24249.385207818177, -21922.322740831703, 13740.220813777545, -0.028, 1.008, -0.16, 192.0, 127.5, 16.0, 15.5, 64.0, 125.5, 0.0, 0.0, 0.0, 0.0, 1.696016193772733E9, 0.0, 2023-09-29 14:36:33.772
70.0, 49441.723458972396, 47247.184484861435, 15563.184388063479, 21508.994282364165, 19054.281002793432, 15007.58707613791, -187500.02235174447, 14611.648274856601, 41331.392983364225, 16367.578967521069, 26213.00830996136, 18219.912734021276, 36294.44972210524, 24249.94400142956, -21910.990406392862, 13744.62410743524, -0.028, 1.008, -0.16, 192.0, 0.0, 0.0, 0.0, 0.0, 0.0, 0.0, 0.0, 0.0, 0.0, 1.696016193772742E9, 0.0, 2023-09-29 14:36:33.772
72.0, 49385.7546908563, 47233.21464457687, 15538.686876140462, 21504.523933473105, 19054.77274117145, 15007.050634270983, -187500.02235174447, 14614.978684780443, 41334.23165491005, 16372.116371645496, 26308.070279129777, 18221.18678345523, 36290.716980781195, 24251.240402607968, -21920.66871174201, 13742.567746945351, -0.028, 1.008, -0.16, 192.0, 0.0, 0.0, 0.0, 0.0, 0.0, 0.0, 0.0, 0.0, 0.0, 1.696016193772764E9, 0.0, 2023-09-29 14:36:33.772
74.0, 49436.31433681421, 47252.34773783061, 15568.884082899582, 21518.672587713314, 19056.58323247233, 15007.900000560285, -187500.02235174447, 14615.470423158458, 41340.758364290996, 16379.738316504756, 26202.480638322908, 18232.09443474942, 36296.70724829522, 24259.063513167326, -21919.7746419638, 13731.593040417796, -0.028, 1.008, -0.16, 192.0, 0.0, 0.0, 0.0, 0.0, 0.0, 0.0, 0.0, 0.0, 0.0, 1.696016193772773E9, 0.0, 2023-09-29 14:36:33.772
76.0, 49378.06569076368, 47236.45564752289, 15540.832643608172, 21502.73579391668, 19057.879633650737, 15013.510288418567, -187500.02235174447, 14622.779443595344, 41336.980919478054, 16378.6654327709, 26300.560092992797, 18226.5512021245, 36291.72280928169, 24256.291896854866, -21925.317874588716, 13744.892328368704, -0.028, 1.008, -0.16, 192.0, 0.0, 0.0, 0.0, 0.0, 0.0, 0.0, 0.0, 0.0, 0.0, 1.696016193833042E9, 0.0, 2023-09-29 14:36:33.833
78.0, 49439.64474673805, 47244.77049646026, 15566.067763098214, 21513.285817299584, 19049.855357391283, 15008.21292498266, -187500.02235174447, 14614.017559768863, 41338.92552124566, 16382.6663950284, 26173.55748099774, 18229.479280648146, 36296.461379106215, 24262.080998668793, -21919.707586730434, 13738.298563754388, -0.032, 1.002, -0.162, 192.0, 127.5, 0.0, 15.5, 40.0, 125.0, 120.0, 0.0, 0.0, 0.0, 1.696016193833066E9, 0.0, 2023-09-29 14:36:33.833
80.0, 49388.4592519354, 47222.5975659606, 15531.511966170308, 21496.34319500246, 19051.911717881172, 15013.487936674112, -187500.02235174447, 14617.99617028191, 41320.977070448054, 16362.281604085161, 26320.96723568049, 18211.016739728064, 36276.63538177435, 24245.250135093946, -21928.96120893493, 13761.589081476819, -0.032, 1.002, -0.162, 192.0, 0.0, 0.0, 0.0, 0.0, 0.0, 0.0, 0.0, 0.0, 0.0, 1.696016193833077E9, 0.0, 2023-09-29 14:36:33.833
82.0, 49415.88484238206, 47234.891025411016, 15548.141664045057, 21506.088555584975, 19049.475377735544, 15011.655093628777, -187500.02235174447, 14614.039911513319, 41327.347317617816, 16369.277700099672, 26196.3339085977, 18218.12459446485, 36280.50223356512, 24252.290934597368, -21933.275095614805, 13738.47737771003, -0.032, 1.002, -0.162, 192.0, 0.0, 0.0, 0.0, 0.0, 0.0, 0.0, 0.0, 0.0, 0.0, 1.696016193833086E9, 0.0, 2023-09-29 14:36:33.833
84.0, 49386.760519356794, 47221.23410954882, 15525.87932656757, 21494.979738590686, 19054.951555127092, 15016.505422175578, -187500.02235174447, 14621.170117994561, 41321.535864059435, 16366.416676809393, 26321.30251184732, 18216.492917119613, 36278.66939051979, 24243.059664137327, -21931.844583969665, 13763.86895941126, -0.032, 1.002, -0.162, 192.0, 0.0, 0.0, 0.0, 0.0, 0.0, 0.0, 0.0, 0.0, 0.0, 1.696016193833095E9, 0.0, 2023-09-29 14:36:33.833
86.0, 49399.568068929686, 47221.882310138026, 15551.114446057612, 21503.182828805784, 19056.270308049956, 15012.30329421798, -187500.02235174447, 14616.99034178142, 41324.28512862744, 16367.981298921264, 26197.719716753927, 18213.140155451318, 36278.356466097415, 24254.347295087256, -21932.828060725697, 13735.079912552825, -0.032, 1.002, -0.162, 192.0, 0.0, 0.0, 0.0, 0.0, 0.0, 0.0, 0.0, 0.0, 0.0, 1.696016193833105E9, 0.0, 2023-09-29 14:36:33.833
88.0, 49396.70704563941, 47209.499443709785, 15530.439082436453, 21483.289776240563, 19056.873805150248, 15011.565686650954, -187500.02235174447, 14617.638542370623, 41316.52907330145, 16357.967717405287, 26328.767994495392, 18206.479335603635, 36281.30689636552, 24246.233611849977, -21927.39658682306, 13766.72998270154, -0.034, 1.002, -0.16, 192.0, 127.0, 120.0, 15.5, 40.0, 125.5, 0.0, 0.0, 0.0, 0.0, 1.696016193833155E9, 0.0, 2023-09-29 14:36:33.833
90.0, 49397.42230146197, 47216.40613274648, 15543.894832598548, 21491.00112807764, 19051.95642137008, 15009.241105227604, -187500.02235174447, 14614.665760358068, 41321.78173324844, 16362.929804674364, 26218.216266419444, 18199.393832611302, 36281.150434154326, 24251.26275435242, -21935.890249716074, 13733.112959040756, -0.034, 1.002, -0.16, 192.0, 0.0, 0.0, 0.0, 0.0, 0.0, 0.0, 0.0, 0.0, 0.0, 1.696016193893236E9, 0.0, 2023-09-29 14:36:33.893
92.0, 49402.3620369866, 47214.43917923441, 15532.562498159707, 21486.754296631134, 19051.799959158892, 15010.917486061751, -187500.02235174447, 14613.70463534649, 41310.337640087324, 16347.708266700301, 26343.810718513814, 18194.27528313104, 36279.98814344265, 24239.863364680215, -21932.15750839204, 13764.070125111357, -0.034, 1.002, -0.16, 192.0, 0.0, 0.0, 0.0, 0.0, 0.0, 0.0, 0.0, 0.0, 0.0, 1.696016193893274E9, 0.0, 2023-09-29 14:36:33.893
94.0, 49387.051092034715, 47227.604356718584, 15550.242728023855, 21499.20421829274, 19055.197424316102, 15005.39660518129, -187500.02235174447, 14609.614266111168, 41322.38523034874, 16359.644098239434, 26233.437804393507, 18198.879742488833, 36281.12808240987, 24252.51445204192, -21935.331456104694, 13729.179052016623, -0.034, 1.002, -0.16, 192.0, 0.0, 0.0, 0.0, 0.0, 0.0, 0.0, 0.0, 0.0, 0.0, 1.696016193893284E9, 0.0, 2023-09-29 14:36:33.893
96.0, 49418.47764473887, 47229.861882908575, 15541.190271519456, 21488.229511765185, 19048.357790512775, 15005.754233092575, -187500.02235174447, 14611.849440556698, 41313.288070355426, 16351.061028368596, 26327.404538083618, 18201.047861700998, 36280.77045449858, 24247.015922905914, -21929.967037435417, 13771.423849037154, -0.034, 1.002, -0.16, 192.0, 0.0, 0.0, 0.0, 0.0, 0.0, 0.0, 0.0, 0.0, 0.0, 1.696016193893293E9, 0.0, 2023-09-29 14:36:33.893
98.0, 49374.467059906376, 47225.32447878415, 15540.117387785602, 21489.39180247686, 19047.128444567734, 15006.268323215047, -187500.02235174447, 14609.413100411071, 41318.94306170262, 16354.927880159365, 26255.364865704163, 18194.431745342226, 36276.389512585345, 24247.3735508172, -21945.881479487598, 13736.421017220142, -0.032, 1.0, -0.152, 192.0, 127.5, 0.0, 15.5, 32.0, 125.5, 32.0, 0.0, 0.0, 0.0, 1.696016193893302E9, 0.0, 2023-09-29 14:36:33.893
100.0, 49418.25412729432, 47234.30988005518, 15536.228184250378, 21486.553130931035, 19050.212985302565, 15009.486974416612, -187500.02235174447, 14610.865963800665, 41320.30651811439, 16353.631478980957, 26306.9079884181, 18204.579437324934, 36286.42544584578, 24256.582469532786, -21935.599677038157, 13763.667793711162, -0.032, 1.0, -0.152, 192.0, 0.0, 0.0, 0.0, 0.0, 0.0, 0.0, 0.0, 0.0, 0.0, 1.696016193893316E9, 0.0, 2023-09-29 14:36:33.893
102.0, 49372.6565686055, 47221.92701362694, 15525.231125978367, 21483.759162874125, 19051.554089969886, 15009.531677905523, -187500.02235174447, 14613.436414413025, 41321.6029192928, 16354.838473181544, 26250.089854012713, 18193.180047652728, 36277.32828585247, 24257.968277689015, -21948.76485452233, 13736.666886409152, -0.032, 1.0, -0.152, 192.0, 0.0, 0.0, 0.0, 0.0, 0.0, 0.0, 0.0, 0.0, 0.0, 1.696016193893325E9, 0.0, 2023-09-29 14:36:33.893
104.0, 49427.038362865256, 47237.21560683437, 15532.763663859805, 21488.318918743007, 19055.197424316102, 15011.968018051151, -187500.02235174447, 14619.627847627145, 41313.153959888696, 16348.915260900887, 26294.43571501204, 18197.53863782151, 36278.781149242066, 24254.95079218755, -21940.6288195406, 13763.354869288787, -0.032, 1.0, -0.152, 192.0, 0.0, 0.0, 0.0, 0.0, 0.0, 0.0, 0.0, 0.0, 0.0, 1.696016193893334E9, 0.0, 2023-09-29 14:36:33.893
106.0, 49376.0540337627, 47241.30597606969, 15539.02215230729, 21509.01663410862, 19065.881558165736, 15032.911602605773, -187500.02235174447, 14634.290591989828, 41332.5552740759, 16369.121237888485, 26270.273479255855, 18207.820440270956, 36279.809329487005, 24271.781655762396, -21938.952438706452, 13742.523043456442, -0.032, 1.0, -0.152, 192.0, 0.0, 0.0, 0.0, 0.0, 0.0, 0.0, 0.0, 0.0, 0.0, 1.69601619395274E9, 0.0, 2023-09-29 14:36:33.952
108.0, 49461.86238072663, 47256.974548932856, 15558.98226010588, 21517.823221424012, 19056.76204642797, 15031.503442705089, -187500.02235174447, 14628.702655876, 41337.31619564488, 16382.6663950284, 26280.957613105493, 18228.0040655141, 36294.025038960586, 24283.56102509034, -21923.52973503229, 13786.10894514429, -0.028, 1.004, -0.156, 192.0, 127.5, 16.0, 15.5, 48.0, 125.5, 16.0, 0.0, 0.0, 0.0, 1.69601619395277E9, 0.0, 2023-09-29 14:36:33.952
110.0, 49382.73720535484, 47229.52660674174, 15538.753931373827, 21507.49671548566, 19057.052619105893, 15025.490823446611, -187500.02235174447, 14624.589934896225, 41332.935253731644, 16377.167865892396, 26298.615491225184, 18210.301483905492, 36283.05033243303, 24283.829246023804, -21935.86789797162, 13765.00889837848, -0.028, 1.004, -0.156, 192.0, 0.0, 0.0, 0.0, 0.0, 0.0, 0.0, 0.0, 0.0, 0.0, 1.696016193952808E9, 0.0, 2023-09-29 14:36:33.952
112.0, 49449.345403831656, 47237.93086265694, 15558.669335683506, 21495.33736650197, 19052.783435914927, 15012.54916340699, -187500.02235174447, 14617.638542370623, 41326.632061795244, 16367.646022754434, 26261.10926402918, 18210.50264960559, 36288.10182667993, 24275.447341853065, -21926.234296111383, 13774.82131419436, -0.028, 1.004, -0.156, 192.0, 0.0, 0.0, 0.0, 0.0, 0.0, 0.0, 0.0, 0.0, 0.0, 1.696016193952817E9, 0.0, 2023-09-29 14:36:33.952
114.0, 49361.3018824222, 47230.21951081986, 15547.247594266844, 21496.29849151355, 19072.76589545797, 15029.245916515103, -187500.02235174447, 14635.47523444596, 41325.98386120604, 16362.393362807437, 26295.977985379457, 18195.07994593143, 36279.45170157572, 24263.511510313932, -21934.370331093112, 13758.281023297433, -0.028, 1.004, -0.156, 192.0, 0.0, 0.0, 0.0, 0.0, 0.0, 0.0, 0.0, 0.0, 0.0, 1.696016193952827E9, 0.0, 2023-09-29 14:36:33.952
116.0, 49440.2705955828, 47250.82781920765, 15574.583777735685, 21501.86407588292, 19069.390782045222, 15020.126404777338, -187500.02235174447, 14621.326580205749, 41332.66703279818, 16370.14941813343, 26205.922806969025, 18209.787393783023, 36298.361277384916, 24270.284088883887, -21914.074947127694, 13766.19354083461, -0.028, 1.004, -0.156, 192.0, 0.0, 0.0, 0.0, 0.0, 0.0, 0.0, 0.0, 0.0, 0.0, 1.696016193952836E9, 0.0, 2023-09-29 14:36:33.952
118.0, 49371.650740105004, 47226.553824729184, 15542.441969208952, 21493.146895545353, 19068.764933200473, 15021.579268166932, -187500.02235174447, 14626.154557008096, 41328.107276929295, 16362.795694207633, 26283.326898017753, 18202.388966368315, 36287.11834992389, 24266.819568493316, -21925.653150755545, 13761.656136710184, -0.032, 1.01, -0.154, 192.0, 127.5, 0.0, 15.5, 72.0, 125.5, 24.0, 0.0, 0.0, 0.0, 1.696016193952845E9, 0.0, 2023-09-29 14:36:33.952
120.0, 49433.743886201846, 47245.28458658273, 15559.98808860637, 21497.281968269584, 19059.600717973797, 15010.939837806207, -187500.02235174447, 14613.414062668571, 41328.19668390712, 16357.543034260636, 26204.84992323517, 18208.8486205159, 36291.05225694803, 24261.74572250196, -21925.04965365525, 13753.788322661916, -0.032, 1.01, -0.154, 192.0, 0.0, 0.0, 0.0, 0.0, 0.0, 0.0, 0.0, 0.0, 0.0, 1.696016194012494E9, 0.0, 2023-09-29 14:36:34.012
122.0, 49357.81501028717, 47235.74039170032, 15530.416730691997, 21487.626014664893, 19063.020534875457, 15016.192497753203, -187500.02235174447, 14621.952429050498, 41332.26470139798, 16365.232034353261, 26297.2073313245, 18209.116841449362, 36288.32534412448, 24262.863309724726, -21934.95147644895, 13749.407380748677, -0.032, 1.01, -0.154, 192.0, 0.0, 0.0, 0.0, 0.0, 0.0, 0.0, 0.0, 0.0, 0.0, 1.696016194012528E9, 0.0, 2023-09-29 14:36:34.012
124.0, 49410.185147545955, 47245.06106913818, 15552.969640847403, 21496.097325813455, 19058.63959296222, 15008.369387193847, -187500.02235174447, 14613.168193479562, 41332.64468105372, 16365.835531453555, 26182.56523401323, 18211.50847810608, 36289.48763483616, 24267.46776908252, -21930.190554879973, 13742.008953333969, -0.032, 1.01, -0.154, 192.0, 0.0, 0.0, 0.0, 0.0, 0.0, 0.0, 0.0, 0.0, 0.0, 1.696016194012537E9, 0.0, 2023-09-29 14:36:34.012
126.0, 49368.11916448107, 47218.35073451409, 15529.07562602468, 21483.803866363036, 19057.96904062856, 15011.275113973035, -187500.02235174447, 14619.247867971406, 41330.051878696904, 16361.700458729323, 26286.120866074667, 18203.059518701975, 36290.56051857001, 24266.238423137478, -21935.62202878261, 13753.363639517265, -0.032, 1.01, -0.154, 192.0, 0.0, 0.0, 0.0, 0.0, 0.0, 0.0, 0.0, 0.0, 0.0, 1.696016194012551E9, 0.0, 2023-09-29 14:36:34.012
128.0, 49417.49416798284, 47221.77055141575, 15547.716980900406, 21494.219779279207, 19053.00695335948, 15004.435480169712, -187500.02235174447, 14611.312998689771, 41326.363840861784, 16356.179577848861, 26181.917033424026, 18195.571684309445, 36286.47014933469, 24261.544556801866, -21934.683255515487, 13740.980773089024, -0.028, 1.006, -0.156, 192.0, 127.5, 16.0, 15.5, 56.0, 125.5, 16.0, 0.0, 0.0, 0.0, 1.696016194012572E9, 0.0, 2023-09-29 14:36:34.012
130.0, 49386.425243189966, 47209.72296115434, 15531.2660969813, 21481.814561106512, 19051.755255669985, 15006.536544148512, -187500.02235174447, 14612.162364979073, 41322.07230592636, 16350.8598626685, 26312.942959421034, 18191.637777285312, 36286.604259801425, 24254.74962648745, -21936.963133449928, 13757.141084330213, -0.028, 1.006, -0.156, 192.0, 0.0, 0.0, 0.0, 0.0, 0.0, 0.0, 0.0, 0.0, 0.0, 1.696016194012581E9, 0.0, 2023-09-29 14:36:34.012
132.0, 49408.35230450062, 47225.793865417705, 15555.450684481943, 21493.213950778718, 19056.29265979441, 15006.983579037616, -187500.02235174447, 14609.256638199884, 41330.56596881938, 16359.733505217257, 26195.0822109082, 18195.70579477618, 36292.90745173782, 24262.304516113345, -21941.120557918617, 13730.520156683942, -0.028, 1.006, -0.156, 192.0, 0.0, 0.0, 0.0, 0.0, 0.0, 0.0, 0.0, 0.0, 0.0, 1.696016194012621E9, 0.0, 2023-09-29 14:36:34.012
134.0, 49401.19974627492, 47218.35073451409, 15549.952155345936, 21479.91466282781, 19059.265441806965, 15008.861125571862, -187500.02235174447, 14613.503469646392, 41328.7554775185, 16356.783074949155, 26315.312244333298, 18205.853486758886, 36297.13193143987, 24264.159710903135, -21929.63176126859, 13761.432619265632, -0.028, 1.006, -0.156, 192.0, 0.0, 0.0, 0.0, 0.0, 0.0, 0.0, 0.0, 0.0, 0.0, 1.69601619401263E9, 0.0, 2023-09-29 14:36:34.012
136.0, 49414.18610980346, 47235.31570855567, 15566.313632287221, 21494.085668812477, 19054.52687198244, 15006.402433681778, -187500.02235174447, 14610.150707978095, 41323.45811408259, 16360.113484872996, 26223.580685088717, 18212.13432695083, 36291.141663925846, 24269.39001910568, -21929.162374635027, 13746.725171414038, -0.028, 1.006, -0.156, 192.0, 0.0, 0.0, 0.0, 0.0, 0.0, 0.0, 0.0, 0.0, 0.0, 1.696016194072618E9, 0.0, 2023-09-29 14:36:34.072
138.0, 49407.793510889234, 47227.8502259076, 15548.07460881169, 21487.022517564597, 19057.454950506086, 15014.896096574796, -187500.02235174447, 14615.381016180638, 41323.346355360314, 16366.461380298304, 26346.82820401528, 18221.902039277797, 36293.98033547167, 24268.38419060519, -21926.94955193395, 13774.575445005352, -0.03, 1.01, -0.154, 192.0, 127.5, 8.0, 15.5, 72.0, 125.5, 24.0, 0.0, 0.0, 0.0, 1.696016194072656E9, 0.0, 2023-09-29 14:36:34.072
140.0, 49394.09189153813, 47230.01834511976, 15556.367106004609, 21499.20421829274, 19059.310145295876, 15017.533602420523, -187500.02235174447, 14617.951466792998, 41336.53388458895, 16376.251444369727, 26212.337757627698, 18221.455004388692, 36295.58966107245, 24279.493007599474, -21936.896078216563, 13739.729075399528, -0.03, 1.01, -0.154, 192.0, 0.0, 0.0, 0.0, 0.0, 0.0, 0.0, 0.0, 0.0, 0.0, 1.696016194072667E9, 0.0, 2023-09-29 14:36:34.072
142.0, 49420.22108080639, 47224.36335377257, 15541.704361641929, 21477.835950593468, 19059.801883673892, 15016.706587875677, -187500.02235174447, 14618.666722615568, 41334.09754444332, 16367.243691354239, 26311.19952335352, 18222.125556722352, 36300.70821055272, 24271.446379595563, -21930.43642406898, 13778.10702062929, -0.03, 1.01, -0.154, 192.0, 0.0, 0.0, 0.0, 0.0, 0.0, 0.0, 0.0, 0.0, 0.0, 1.696016194072676E9, 0.0, 2023-09-29 14:36:34.072
144.0, 49400.35037998562, 47226.75499042928, 15549.50512045683, 21492.789267634067, 19062.506444752988, 15014.78433785252, -187500.02235174447, 14619.694902860512, 41344.08877421484, 16371.311708845105, 26216.785754774304, 18214.23539092963, 36296.28256515057, 24280.498836099963, -21940.271191629316, 13737.00216257598, -0.03, 1.01, -0.154, 192.0, 0.0, 0.0, 0.0, 0.0, 0.0, 0.0, 0.0, 0.0, 0.0, 1.696016194072685E9, 0.0, 2023-09-29 14:36:34.072
146.0, 49440.49411302735, 47220.60826070407, 15538.888041840559, 21478.998241305144, 19056.449122005597, 15002.893209802296, -187500.02235174447, 14612.855269057187, 41330.074230441365, 16361.476941284769, 26313.010014654403, 18211.530829850537, 36292.2145476597, 24273.815664507827, -21929.408243824037, 13775.514218272474, -0.03, 1.01, -0.154, 192.0, 0.0, 0.0, 0.0, 0.0, 0.0, 0.0, 0.0, 0.0, 0.0, 1.696016194072694E9, 0.0, 2023-09-29 14:36:34.072
148.0, 49394.82949910516, 47219.53537697022, 15543.201928520433, 21486.48607569767, 19061.43356101913, 15000.769794079042, -187500.02235174447, 14615.984513280931, 41334.23165491005, 16364.159150619407, 26254.58255464823, 18203.484201846626, 36289.01824820259, 24274.441513352576, -21940.070025929217, 13736.756293386972, -0.03, 1.006, -0.154, 192.0, 127.5, 8.0, 15.5, 56.0, 125.5, 24.0, 0.0, 0.0, 0.0, 1.696016194072702E9, 0.0, 2023-09-29 14:36:34.072
150.0, 49439.80120894923, 47229.48190325283, 15553.662544925517, 21494.756221146134, 19064.33928779832, 15004.5919423809, -187500.02235174447, 14624.969914551964, 41335.729221788555, 16369.367107077493, 26306.438601784543, 18219.532754365537, 36299.41180937431, 24281.23644366699, -21917.4724122849, 13769.591005991819, -0.03, 1.006, -0.154, 192.0, 0.0, 0.0, 0.0, 0.0, 0.0, 0.0, 0.0, 0.0, 0.0, 1.696016194133E9, 0.0, 2023-09-29 14:36:34.133
152.0, 49375.53994364023, 47224.54216772821, 15553.014344336314, 21509.26250329763, 19068.943747156114, 15018.4947274321, -187500.02235174447, 14637.37513272466, 41345.22871318206, 16382.24171188375, 26250.58159239073, 18218.70573982069, 36300.507044852624, 24287.696097814573, -21920.221676852903, 13743.171244045645, -0.03, 1.006, -0.154, 192.0, 0.0, 0.0, 0.0, 0.0, 0.0, 0.0, 0.0, 0.0, 0.0, 1.696016194133034E9, 0.0, 2023-09-29 14:36:34.133
154.0, 49443.19867410645, 47227.87257765205, 15561.50800722933, 21507.8766951414, 19062.05940986388, 15017.77947160953, -187500.02235174447, 14632.323638477761, 41336.779753777955, 16379.157171148918, 26272.978040334947, 18216.47056537516, 36308.08428622297, 24280.789408777884, -21902.250874310837, 13783.136163131734, -0.03, 1.006, -0.154, 192.0, 0.0, 0.0, 0.0, 0.0, 0.0, 0.0, 0.0, 0.0, 0.0, 1.696016194133075E9, 0.0, 2023-09-29 14:36:34.133
156.0, 49379.071519264166, 47219.647135692496, 15552.813178636216, 21503.383994505883, 19061.992354630514, 15021.378102466835, -187500.02235174447, 14630.803719854799, 41333.18112292065, 16381.95113920583, 26274.72147640246, 18206.546390837, 36296.77430352859, 24276.073190697814, -21915.72897621739, 13760.002107620492, -0.03, 1.006, -0.154, 192.0, 0.0, 0.0, 0.0, 0.0, 0.0, 0.0, 0.0, 0.0, 0.0, 1.696016194133084E9, 0.0, 2023-09-29 14:36:34.133
158.0, 49451.73704048837, 47236.0980196116, 15564.234920052877, 21508.368433519416, 19060.00304937399, 15021.668675144754, -187500.02235174447, 14627.94269656452, 41329.56014031889, 16385.996804952243, 26273.849758368702, 18216.47056537516, 36300.08236170797, 24272.563966818332, -21911.035109881774, 13777.905854929193, -0.04, 1.006, -0.162, 192.0, 127.0, 96.0, 15.5, 56.0, 125.0, 120.0, 0.0, 0.0, 0.0, 1.69601619413311E9, 0.0, 2023-09-29 14:36:34.133
160.0, 49384.07831002216, 47234.37693528854, 15551.405018735531, 21506.893218385365, 19065.546281998908, 15030.229393271136, -187500.02235174447, 14635.452882701504, 41334.969262477076, 16397.887933002465, 26295.06156385679, 18214.21303918517, 36290.024076703085, 24272.698077285062, -21921.495726286856, 13759.264500053467, -0.04, 1.006, -0.162, 192.0, 0.0, 0.0, 0.0, 0.0, 0.0, 0.0, 0.0, 0.0, 0.0, 1.696016194133119E9, 0.0, 2023-09-29 14:36:34.133
162.0, 49466.01980519531, 47256.281644854746, 15570.068725355713, 21510.178924820295, 19056.15854932768, 15015.566648908454, -187500.02235174447, 14620.253696471895, 41341.808896280396, 16398.8714097585, 26252.079159269233, 18230.194536470717, 36303.99391698765, 24276.85550175375, -21910.364557548113, 13773.72607871605, -0.04, 1.006, -0.162, 192.0, 0.0, 0.0, 0.0, 0.0, 0.0, 0.0, 0.0, 0.0, 0.0, 1.696016194133129E9, 0.0, 2023-09-29 14:36:34.133
164.0, 49390.91794382548, 47244.882255182536, 15548.164015789513, 21501.1264683159, 19066.01566863247, 15025.513175191067, -187500.02235174447, 14631.317809977272, 41342.09946895832, 16405.129898205985, 26315.133430377657, 18228.451100403203, 36299.07653320748, 24270.082923183792, -21921.965112920418, 13758.683354697629, -0.04, 1.006, -0.162, 192.0, 0.0, 0.0, 0.0, 0.0, 0.0, 0.0, 0.0, 0.0, 0.0, 1.696016194133138E9, 0.0, 2023-09-29 14:36:34.133
166.0, 49463.20348539394, 47258.226246622355, 15566.380687520586, 21510.335387031482, 19058.9972208735, 15020.372273966346, -187500.02235174447, 14626.42277794156, 41338.14321018973, 16402.76061329372, 26247.608810378173, 18232.407359171793, 36302.89868150934, 24273.90507148565, -21913.650263983043, 13762.43844776612, -0.04, 1.006, -0.162, 192.0, 0.0, 0.0, 0.0, 0.0, 0.0, 0.0, 0.0, 0.0, 0.0, 1.696016194193268E9, 0.0, 2023-09-29 14:36:34.193
168.0, 49390.71677812538, 47238.06497312367, 15538.686876140462, 21503.808677650533, 19068.0496773779, 15027.301314747492, -187500.02235174447, 14635.877565846155, 41338.165561934184, 16398.8714097585, 26331.137279407656, 18222.751405567098, 36295.94728898374, 24270.70877202854, -21918.634702996576, 13758.72805818654, -0.042, 1.008, -0.166, 192.0, 127.0, 88.0, 15.5, 64.0, 125.0, 104.0, 0.0, 0.0, 0.0, 1.696016194193288E9, 0.0, 2023-09-29 14:36:34.193
170.0, 49460.49892431485, 47258.516819300276, 15565.576024720196, 21517.510297001638, 19068.519064011463, 15029.156509537283, -187500.02235174447, 14635.318772234772, 41343.686442814644, 16402.224171426795, 26222.95483624397, 18231.08860624893, 36307.212568189214, 24272.541615073875, -21907.838810424666, 13753.76597091746, -0.042, 1.008, -0.166, 192.0, 0.0, 0.0, 0.0, 0.0, 0.0, 0.0, 0.0, 0.0, 0.0, 1.696016194193297E9, 0.0, 2023-09-29 14:36:34.193
172.0, 49410.743941157336, 47240.747182458304, 15543.201928520433, 21501.05941308253, 19064.696915709606, 15030.072931059949, -187500.02235174447, 14636.436359457537, 41339.908998001694, 16397.552656835636, 26322.062471158803, 18224.159565467784, 36304.284489665566, 24272.005173206948, -21909.11285985862, 13766.662927468173, -0.042, 1.008, -0.166, 192.0, 0.0, 0.0, 0.0, 0.0, 0.0, 0.0, 0.0, 0.0, 0.0, 1.696016194193307E9, 0.0, 2023-09-29 14:36:34.193
174.0, 49464.65634878354, 47254.8511332096, 15563.60907120813, 21512.235285310184, 19060.49478775201, 15027.860108358875, -187500.02235174447, 14629.976705309953, 41337.539713089434, 16402.91707550491, 26215.33289138471, 18227.37821666935, 36298.629498318376, 24273.480388341, -21910.56572324821, 13764.494808256008, -0.042, 1.008, -0.166, 192.0, 0.0, 0.0, 0.0, 0.0, 0.0, 0.0, 0.0, 0.0, 0.0, 1.696016194193316E9, 0.0, 2023-09-29 14:36:34.193
176.0, 49409.201670789924, 47240.5013132693, 15536.876384839581, 21504.076898583997, 19063.132293597733, 15035.88438461833, -187500.02235174447, 14636.19049026853, 41335.7068700441, 16401.77713653769, 26330.265561373897, 18220.203306699193, 36296.863710506404, 24264.070303925313, -21919.14879311905, 13775.782439205937, -0.042, 1.008, -0.166, 192.0, 0.0, 0.0, 0.0, 0.0, 0.0, 0.0, 0.0, 0.0, 0.0, 1.696016194193351E9, 0.0, 2023-09-29 14:36:34.193
178.0, 49447.15493287503, 47248.27972033974, 15557.194120549455, 21512.525857988105, 19054.035133604426, 15028.195384525703, -187500.02235174447, 14628.345027964715, 41344.71462305959, 16401.464212115316, 26187.0802863932, 18224.13721372333, 36305.71500131071, 24272.206338907046, -21917.226543095894, 13752.603680205784, -0.038, 1.01, -0.17, 192.0, 127.0, 104.0, 15.5, 72.0, 125.0, 88.0, 0.0, 0.0, 0.0, 1.69601619419336E9, 0.0, 2023-09-29 14:36:34.193
180.0, 49415.19193830394, 47227.336135785124, 15535.401169705532, 21492.00695657813, 19054.213947560067, 15027.480128703133, -187500.02235174447, 14627.13803376413, 41333.58345432085, 16389.371918364992, 26314.373471066174, 18216.202344441695, 36301.33405939747, 24262.349219602256, -21921.540429775767, 13775.693032228117, -0.038, 1.01, -0.17, 192.0, 0.0, 0.0, 0.0, 0.0, 0.0, 0.0, 0.0, 0.0, 0.0, 1.696016194252729E9, 0.0, 2023-09-29 14:36:34.252
182.0, 49434.14621760204, 47242.2000458479, 15557.685858927473, 21506.64734919636, 19060.137159840724, 15028.776529881541, -187500.02235174447, 14628.590897153725, 41333.136419431736, 16384.67805202938, 26208.3367953702, 18208.133364693327, 36299.7694372856, 24263.75737950294, -21923.887362943577, 13753.877729639737, -0.038, 1.01, -0.17, 192.0, 0.0, 0.0, 0.0, 0.0, 0.0, 0.0, 0.0, 0.0, 0.0, 1.696016194252752E9, 0.0, 2023-09-29 14:36:34.252
184.0, 49418.097665083136, 47232.40998177648, 15535.848204594638, 21487.938939087267, 19061.567671485864, 15018.137099520816, -187500.02235174447, 14624.209955240483, 41330.58832056383, 16380.52062756069, 26336.50169807693, 18212.760175795578, 36306.40790538882, 24256.80598697734, -21915.930141917484, 13781.996224164513, -0.038, 1.01, -0.17, 192.0, 0.0, 0.0, 0.0, 0.0, 0.0, 0.0, 0.0, 0.0, 0.0, 1.696016194252762E9, 0.0, 2023-09-29 14:36:34.252
186.0, 49409.78281614576, 47245.239883093825, 15550.175672790489, 21501.50644797164, 19064.004011631492, 15017.980637309629, -187500.02235174447, 14623.13707150663, 41336.153904933206, 16381.660566527913, 26229.213324691456, 18208.8486205159, 36300.26117566361, 24254.771978231907, -21926.748386233856, 13742.05365682288, -0.038, 1.01, -0.17, 192.0, 0.0, 0.0, 0.0, 0.0, 0.0, 0.0, 0.0, 0.0, 0.0, 1.696016194252771E9, 0.0, 2023-09-29 14:36:34.252
188.0, 49423.55149073023, 47244.27875808225, 15535.669390638996, 21492.118715300407, 19058.10315109529, 15015.812518097464, -187500.02235174447, 14617.526783648347, 41335.34924213281, 16380.207703138318, 26328.49977356193, 18214.391853140816, 36303.166902442805, 24247.686475239574, -21916.377176806593, 13776.005956650491, -0.028, 1.002, -0.164, 192.0, 127.5, 16.0, 15.5, 40.0, 125.0, 112.0, 0.0, 0.0, 0.0, 1.696016194252781E9, 0.0, 2023-09-29 14:36:34.252
190.0, 49407.6146969336, 47254.26998785377, 15547.180539033478, 21506.423831751807, 19059.48895925152, 15019.344093721402, -187500.02235174447, 14626.243963985917, 41347.66505332769, 16388.187275908862, 26216.85281000767, 18216.537620608524, 36300.97643148618, 24259.868175967717, -21928.67063625701, 13740.53373819992, -0.028, 1.002, -0.164, 192.0, 0.0, 0.0, 0.0, 0.0, 0.0, 0.0, 0.0, 0.0, 0.0, 1.69601619425279E9, 0.0, 2023-09-29 14:36:34.252
192.0, 49435.152046102536, 47251.85599945259, 15539.98327731887, 21496.410250235826, 19058.9972208735, 15017.488898931611, -187500.02235174447, 14621.974780794953, 41344.06642247039, 16384.119258417995, 26302.21412208249, 18224.919524779263, 36300.26117566361, 24252.26858285291, -21923.507383287833, 13772.004994392992, -0.028, 1.002, -0.164, 192.0, 0.0, 0.0, 0.0, 0.0, 0.0, 0.0, 0.0, 0.0, 0.0, 1.6960161942528E9, 0.0, 2023-09-29 14:36:34.252
194.0, 49402.853775364616, 47257.39923207751, 15545.682972154973, 21505.328596273495, 19061.0982848523, 15026.83192811393, -187500.02235174447, 14628.948525065009, 41349.22967543956, 16394.177543422884, 26223.781850788815, 18224.248972445606, 36300.171768685796, 24266.841920237774, -21932.738653747878, 13746.546357458397, -0.028, 1.002, -0.164, 192.0, 0.0, 0.0, 0.0, 0.0, 0.0, 0.0, 0.0, 0.0, 0.0, 1.696016194252809E9, 0.0, 2023-09-29 14:36:34.252
196.0, 49450.44063930996, 47254.180580875945, 15541.88317559757, 21496.522008958105, 19056.046790605404, 15023.769739123552, -187500.02235174447, 14625.260487229883, 41337.71852704508, 16388.656662542424, 26300.91772090408, 18233.435539416736, 36303.81510303201, 24264.763208003427, -21920.221676852903, 13785.63955851073, -0.028, 1.002, -0.164, 192.0, 0.0, 0.0, 0.0, 0.0, 0.0, 0.0, 0.0, 0.0, 0.0, 1.696016194312475E9, 0.0, 2023-09-29 14:36:34.312
198.0, 49406.51946145528, 47242.82589469265, 15544.766550632305, 21510.49184924267, 19058.01374411747, 15028.508308948078, -187500.02235174447, 14621.885373817131, 41340.64660556872, 16391.76355502171, 26248.3464179452, 18220.896210777308, 36299.05418146303, 24267.93715571608, -21930.503479302344, 13753.296584283898, -0.032, 1.002, -0.164, 192.0, 127.5, 0.0, 15.5, 40.0, 125.0, 112.0, 0.0, 0.0, 0.0, 1.69601619431254E9, 0.0, 2023-09-29 14:36:34.312
200.0, 49447.95959567542, 47249.93374942944, 15551.069742568701, 21515.476288256203, 19062.752313941994, 15039.527718964544, -187500.02235174447, 14631.116644277174, 41335.7068700441, 16387.38261310847, 26302.30352906031, 18228.205231214193, 36302.02696347558, 24264.47263532551, -21919.32760707469, 13783.24792185401, -0.032, 1.002, -0.164, 192.0, 0.0, 0.0, 0.0, 0.0, 0.0, 0.0, 0.0, 0.0, 0.0, 1.69601619431255E9, 0.0, 2023-09-29 14:36:34.312
202.0, 49392.88489733755, 47239.070801624155, 15542.93370758697, 21509.620131208914, 19061.72413369705, 15036.152605551793, -187500.02235174447, 14630.267277987872, 41343.59703583682, 16388.5672555646, 26252.503842413884, 18224.09251023442, 36301.51287335311, 24270.976992962005, -21926.658979256033, 13749.630898193229, -0.032, 1.002, -0.164, 192.0, 0.0, 0.0, 0.0, 0.0, 0.0, 0.0, 0.0, 0.0, 0.0, 1.696016194312559E9, 0.0, 2023-09-29 14:36:34.312
204.0, 49453.14520038905, 47238.02026963476, 15552.522605958296, 21502.91460787232, 19060.07010460736, 15025.043788557505, -187500.02235174447, 14621.818318583766, 41339.149038690215, 16380.364165349505, 26258.583516905728, 18222.729053822644, 36306.98905074466, 24264.584394047786, -21918.455889040935, 13770.44037228112, -0.032, 1.002, -0.164, 192.0, 0.0, 0.0, 0.0, 0.0, 0.0, 0.0, 0.0, 0.0, 0.0, 1.696016194312568E9, 0.0, 2023-09-29 14:36:34.312
206.0, 49383.6536268775, 47214.95326935688, 15532.651905137529, 21487.335441986972, 19060.49478775201, 15022.272172245048, -187500.02235174447, 14623.248830228906, 41333.11406768728, 16374.083325157562, 26262.740941374417, 18202.210152412674, 36296.55078608403, 24258.504719555942, -21932.67159851451, 13750.368505760254, -0.032, 1.002, -0.164, 192.0, 0.0, 0.0, 0.0, 0.0, 0.0, 0.0, 0.0, 0.0, 0.0, 1.696016194312577E9, 0.0, 2023-09-29 14:36:34.312
208.0, 49453.27931085579, 47236.16507484497, 15543.604259920628, 21492.87867461189, 19057.58906097282, 15020.819308855453, -187500.02235174447, 14620.208992982984, 41331.77296301997, 16375.312671102605, 26242.311446942265, 18211.061443216975, 36299.7694372856, 24254.056722409336, -21925.00495016634, 13769.72511645855, -0.032, 1.004, -0.17, 192.0, 127.5, 0.0, 15.5, 48.0, 125.0, 88.0, 0.0, 0.0, 0.0, 1.696016194312586E9, 0.0, 2023-09-29 14:36:34.312
210.0, 49379.51855415327, 47232.27587130974, 15516.73746308535, 21489.481209454683, 19054.01278185997, 15023.389759467813, -187500.02235174447, 14618.17498423755, 41330.007175208, 16378.061935670608, 26285.025630596356, 18202.858353001877, 36291.99103021515, 24264.316173114323, -21936.113767160627, 13754.704744184584, -0.032, 1.004, -0.17, 192.0, 0.0, 0.0, 0.0, 0.0, 0.0, 0.0, 0.0, 0.0, 0.0, 1.696016194372712E9, 0.0, 2023-09-29 14:36:34.372
212.0, 49449.79243872076, 47255.521685543266, 15543.581908176175, 21500.0759363265, 19057.00791561698, 15023.546221679, -187500.02235174447, 14621.550097650303, 41336.7574020335, 16390.534209076668, 26233.706025326974, 18217.31993166446, 36298.495387851646, 24265.187891148078, -21936.069063671715, 13752.33545927232, -0.032, 1.004, -0.17, 192.0, 0.0, 0.0, 0.0, 0.0, 0.0, 0.0, 0.0, 0.0, 0.0, 1.696016194372738E9, 0.0, 2023-09-29 14:36:34.372
214.0, 49378.24450471932, 47225.7491619288, 15533.993009804846, 21502.624035194403, 19063.758142442482, 15033.135120050327, -187500.02235174447, 14632.413045455582, 41343.59703583682, 16374.150380390929, 26290.635918454638, 18222.974923011654, 36302.80927453152, 24263.46680682502, -21931.464604313926, 13756.783456418927, -0.032, 1.004, -0.17, 192.0, 0.0, 0.0, 0.0, 0.0, 0.0, 0.0, 0.0, 0.0, 0.0, 1.696016194372748E9, 0.0, 2023-09-29 14:36:34.372
216.0, 49454.151028889544, 47238.936691157425, 15548.007553578325, 21501.90877937183, 19050.682371936127, 15023.076835045438, -187500.02235174447, 14617.929115048542, 41343.39587013672, 16380.408868838414, 26214.103545439666, 18226.685312591235, 36308.10663796743, 24260.449321323555, -21930.548182791255, 13767.24407282401, -0.032, 1.004, -0.17, 192.0, 0.0, 0.0, 0.0, 0.0, 0.0, 0.0, 0.0, 0.0, 0.0, 1.696016194372757E9, 0.0, 2023-09-29 14:36:34.372
218.0, 49384.36888270007, 47221.21175780437, 15531.22139349239, 21490.934072844277, 19062.126465097244, 15028.843585114908, -187500.02235174447, 14629.104987276196, 41345.094602715326, 16373.122200145985, 26300.850665670714, 18213.453079873692, 36302.94338499825, 24257.118911399713, -21940.025322440306, 13761.946709388103, -0.036000000000000004, 1.004, -0.168, 192.0, 127.0, 112.0, 15.5, 48.0, 125.0, 96.0, 0.0, 0.0, 0.0, 1.696016194372766E9, 0.0, 2023-09-29 14:36:34.372
220.0, 49445.88088344108, 47235.74039170032, 15555.98712634887, 21500.05358458204, 19055.555052227384, 15022.942724578706, -187500.02235174447, 14621.79596683931, 41343.17235269217, 16368.115409387996, 26199.776077243816, 18209.966207738664, 36306.5196641111, 24255.24136486547, -21931.554011291744, 13756.917566885659, -0.036000000000000004, 1.004, -0.168, 192.0, 0.0, 0.0, 0.0, 0.0, 0.0, 0.0, 0.0, 0.0, 0.0, 1.696016194372805E9, 0.0, 2023-09-29 14:36:34.372
222.0, 49396.260010750295, 47222.865786894065, 15526.371064945588, 21481.747505873147, 19052.984601615026, 15018.450023943189, -187500.02235174447, 14619.471385415958, 41338.70200380111, 16365.902586686921, 26315.044023399834, 18204.780603025032, 36303.27866116508, 24251.978010174993, -21936.158470649538, 13768.719287958062, -0.036000000000000004, 1.004, -0.168, 192.0, 0.0, 0.0, 0.0, 0.0, 0.0, 0.0, 0.0, 0.0, 0.0, 1.696016194372815E9, 0.0, 2023-09-29 14:36:34.372
224.0, 49436.62726123659, 47249.75493547379, 15558.669335683506, 21508.435488752784, 19060.4500842631, 15026.027265313538, -187500.02235174447, 14628.27797273135, 41345.67574807117, 16369.970604177786, 26203.106487167657, 18209.65328331629, 36309.69361182375, 24254.503757298444, -21933.38685433708, 13752.156645316678, -0.036000000000000004, 1.004, -0.168, 192.0, 0.0, 0.0, 0.0, 0.0, 0.0, 0.0, 0.0, 0.0, 0.0, 1.696016194372825E9, 0.0, 2023-09-29 14:36:34.372
226.0, 49404.08312130965, 47235.62863297804, 15536.652867395029, 21489.704726899236, 19055.890328394216, 15017.913582076262, -187500.02235174447, 14624.165251751572, 41348.20149519462, 16369.009479166209, 26310.43956404204, 18217.342283408914, 36313.09107698096, 24256.627173021698, -21927.977732178897, 13772.250863582, -0.036000000000000004, 1.004, -0.168, 192.0, 0.0, 0.0, 0.0, 0.0, 0.0, 0.0, 0.0, 0.0, 0.0, 1.696016194432886E9, 0.0, 2023-09-29 14:36:34.432
228.0, 49429.58646173316, 47242.848246437105, 15552.36614374711, 21501.081764826988, 19058.57253772885, 15018.78530011002, -187500.02235174447, 14623.785272095833, 41343.775849792466, 16361.90162442942, 26200.446629577476, 18209.966207738664, 36311.86173103592, 24248.4240828066, -21929.743519990865, 13746.009915591469, -0.036000000000000004, 1.006, -0.166, 192.0, 127.0, 112.0, 15.5, 56.0, 125.0, 104.0, 0.0, 0.0, 0.0, 1.696016194432918E9, 0.0, 2023-09-29 14:36:34.432
230.0, 49399.344551485134, 47237.39442079001, 15532.920126070992, 21494.845628123956, 19063.10994185328, 15027.502480447589, -187500.02235174447, 14629.753187865399, 41342.63591082524, 16367.981298921264, 26304.49400001693, 18214.302446162994, 36313.13578046987, 24251.687437497072, -21927.53069728979, 13761.656136710184, -0.036000000000000004, 1.006, -0.166, 192.0, 0.0, 0.0, 0.0, 0.0, 0.0, 0.0, 0.0, 0.0, 0.0, 1.696016194432935E9, 0.0, 2023-09-29 14:36:34.432
232.0, 49420.13167382857, 47240.478961524845, 15543.403094220532, 21501.171171804806, 19055.48799699402, 15016.97480880914, -187500.02235174447, 14616.23038246994, 41338.79141077893, 16369.52356928868, 26179.391286300575, 18210.145021694305, 36307.793713545056, 24253.60968752023, -21935.174993893506, 13739.57261318834, -0.036000000000000004, 1.006, -0.166, 192.0, 0.0, 0.0, 0.0, 0.0, 0.0, 0.0, 0.0, 0.0, 0.0, 1.696016194432946E9, 0.0, 2023-09-29 14:36:34.432
234.0, 49416.24247029334, 47234.801618433194, 15522.079530010169, 21489.682375154778, 19054.839796404816, 15018.092396031905, -187500.02235174447, 14620.499565660903, 41331.124762430765, 16360.828740695566, 26318.0615089013, 18210.145021694305, 36307.03375423357, 24240.80213794734, -21941.56759280772, 13769.613357736274, -0.036000000000000004, 1.006, -0.166, 192.0, 0.0, 0.0, 0.0, 0.0, 0.0, 0.0, 0.0, 0.0, 0.0, 1.696016194432955E9, 0.0, 2023-09-29 14:36:34.432
236.0, 49416.08600808216, 47243.02706039275, 15545.235937265867, 21510.15657307584, 19061.970002886057, 15025.982561824629, -187500.02235174447, 14626.534536663836, 41346.30159691592, 16377.927825203877, 26199.03846967679, 18218.973960754152, 36311.3699926579, 24262.684495769085, -21941.858165485643, 13737.292735253899, -0.036000000000000004, 1.006, -0.166, 192.0, 0.0, 0.0, 0.0, 0.0, 0.0, 0.0, 0.0, 0.0, 0.0, 1.696016194432964E9, 0.0, 2023-09-29 14:36:34.432
238.0, 49438.66126998202, 47239.16020860198, 15532.093111526146, 21494.219779279207, 19058.259613306476, 15022.808614111975, -187500.02235174447, 14620.56662089427, 41342.34533814732, 16371.915205945399, 26302.86232267169, 18220.38212065484, 36310.99001300216, 24254.57081253181, -21935.53262180479, 13774.351927560798, -0.038, 1.004, -0.17400000000000002, 192.0, 127.0, 104.0, 15.5, 48.0, 125.0, 72.0, 0.0, 0.0, 0.0, 1.696016194432973E9, 0.0, 2023-09-29 14:36:34.432
240.0, 49414.07435108118, 47245.32929007165, 15536.965791817403, 21494.219779279207, 19059.556014484886, 15022.83096585643, -187500.02235174447, 14617.862059815177, 41344.33464340385, 16376.34085134755, 26210.19199015999, 18214.41420488527, 36302.42929487578, 24256.873042210704, -21947.133177177093, 13740.153758544178, -0.038, 1.004, -0.17400000000000002, 192.0, 0.0, 0.0, 0.0, 0.0, 0.0, 0.0, 0.0, 0.0, 0.0, 1.696016194493203E9, 0.0, 2023-09-29 14:36:34.493
242.0, 49450.03830790977, 47243.51879877076, 15524.672332366985, 21479.847607594445, 19049.788302157915, 15010.537506406012, -187500.02235174447, 14606.84264979871, 41341.13834394674, 16364.293261086139, 26302.482343015952, 18217.677559575746, 36309.51479786811, 24246.79240546136, -21945.233278898395, 13774.396631049709, -0.038, 1.004, -0.17400000000000002, 192.0, 0.0, 0.0, 0.0, 0.0, 0.0, 0.0, 0.0, 0.0, 0.0, 1.696016194493271E9, 0.0, 2023-09-29 14:36:34.493
244.0, 49403.479624209365, 47240.16603710247, 15526.795748090239, 21496.276139769096, 19055.443293505108, 15016.192497753203, -187500.02235174447, 14610.016597511363, 41340.624253824266, 16360.00172615072, 26243.63019986513, 18206.83696351492, 36296.394323872846, 24247.306495583834, -21963.517005862836, 13737.315086998355, -0.038, 1.004, -0.17400000000000002, 192.0, 0.0, 0.0, 0.0, 0.0, 0.0, 0.0, 0.0, 0.0, 0.0, 1.69601619449328E9, 0.0, 2023-09-29 14:36:34.493
246.0, 49453.949863189446, 47241.84241793662, 15535.132948772069, 21484.02738380759, 19050.615316702762, 15009.822250583442, -187500.02235174447, 14606.775594565344, 41338.43378286764, 16358.8617871835, 26294.122790589667, 18214.056576973984, 36307.68195482277, 24247.775882217396, -21948.92131673352, 13766.037078623425, -0.038, 1.004, -0.17400000000000002, 192.0, 0.0, 0.0, 0.0, 0.0, 0.0, 0.0, 0.0, 0.0, 0.0, 1.696016194493292E9, 0.0, 2023-09-29 14:36:34.493
248.0, 49396.751749128314, 47235.785095189225, 15533.16599526, 21483.222721007198, 19055.24212780501, 15010.381044194824, -187500.02235174447, 14612.519992890358, 41341.89830325822, 16359.465284283791, 26250.156909246078, 18199.572646566947, 36303.23395767617, 24244.601934504743, -21962.220604684426, 13734.118787541245, -0.034, 1.006, -0.17200000000000001, 192.0, 127.0, 120.0, 15.5, 56.0, 125.0, 80.0, 0.0, 0.0, 0.0, 1.696016194493304E9, 0.0, 2023-09-29 14:36:34.493
250.0, 49453.14520038905, 47246.96096741688, 15540.318553485698, 21481.076953539487, 19050.481206236032, 15001.686215601709, -187500.02235174447, 14605.926228276043, 41339.99840497952, 16354.279679570162, 26267.01012456538, 18206.188762925718, 36313.00167000314, 24244.356065315733, -21949.547165578268, 13757.05167735239, -0.034, 1.006, -0.17200000000000001, 192.0, 0.0, 0.0, 0.0, 0.0, 0.0, 0.0, 0.0, 0.0, 0.0, 1.696016194493313E9, 0.0, 2023-09-29 14:36:34.493
252.0, 49391.83436534815, 47240.23309233583, 15535.02119004979, 21487.178979775785, 19060.87476740775, 15010.761023850564, -187500.02235174447, 14613.212896968473, 41346.41335563819, 16358.32534531657, 26247.00531327788, 18203.595960568902, 36309.33598391247, 24242.813794948317, -21956.610316826143, 13732.442406707098, -0.034, 1.006, -0.17200000000000001, 192.0, 0.0, 0.0, 0.0, 0.0, 0.0, 0.0, 0.0, 0.0, 0.0, 1.696016194493322E9, 0.0, 2023-09-29 14:36:34.493
254.0, 49450.373584076595, 47250.87252269656, 15543.805425620727, 21486.91075884232, 19058.840758662314, 15010.895134317296, -187500.02235174447, 14612.475289401447, 41342.41239338069, 16359.711153472801, 26269.178243777544, 18217.297579920003, 36310.498274624144, 24250.502795040942, -21945.00976145384, 13767.95932864658, -0.034, 1.006, -0.17200000000000001, 192.0, 0.0, 0.0, 0.0, 0.0, 0.0, 0.0, 0.0, 0.0, 0.0, 1.696016194493331E9, 0.0, 2023-09-29 14:36:34.493
0.0, 49378.17744948596, 47241.88712142553, 15537.390474962054, 21490.263520510616, 19068.29554656691, 15024.037960057016, -187500.02235174447, 14626.065150030274, 41352.82830629686, 16365.09792388653, 26268.932374588538, 18216.202344441695, 36309.98418450167, 24262.863309724726, -21950.664752801033, 13744.758217901972, -0.034, 1.006, -0.17200000000000001, 192.0, 0.0, 0.0, 0.0, 0.0, 0.0, 0.0, 0.0, 0.0, 0.0, 1.696016194553596E9, 0.0, 2023-09-29 14:36:34.553
2.0, 49461.39299409306, 47256.66162451049, 15548.096960556146, 21496.745526402658, 19058.72899994004, 15018.539430921011, -187500.02235174447, 14612.564696379268, 41345.094602715326, 16363.57800526357, 26254.91783081506, 18223.801937556498, 36316.66735609381, 24261.38809459068, -21939.175956151004, 13777.749392718006, -0.03, 1.006, -0.17200000000000001, 192.0, 127.5, 8.0, 15.5, 56.0, 125.0, 80.0, 0.0, 0.0, 0.0, 1.696016194553631E9, 0.0, 2023-09-29 14:36:34.553
4.0, 49378.06569076368, 47238.91433941297, 15521.051349765225, 21487.223683264696, 19064.361639542778, 15026.11667229136, -187500.02235174447, 14621.550097650303, 41343.32881490336, 16363.7121157303, 26311.221875097977, 18217.409338642283, 36306.07262922199, 24258.70588525604, -21955.29156390328, 13763.421924522154, -0.03, 1.006, -0.17200000000000001, 192.0, 0.0, 0.0, 0.0, 0.0, 0.0, 0.0, 0.0, 0.0, 0.0, 1.696016194553641E9, 0.0, 2023-09-29 14:36:34.553
6.0, 49444.76329621831, 47252.861827953086, 15545.302992499233, 21483.82621810749, 19064.428694776143, 15017.667712887254, -187500.02235174447, 14618.063225515274, 41341.71948930258, 16359.532339517158, 26246.647685366595, 18223.243143945117, 36310.81119904652, 24257.811815477828, -21945.546203320766, 13770.283910069933, -0.03, 1.006, -0.17200000000000001, 192.0, 0.0, 0.0, 0.0, 0.0, 0.0, 0.0, 0.0, 0.0, 0.0, 1.69601619455365E9, 0.0, 2023-09-29 14:36:34.553
8.0, 49378.91505705298, 47231.76178118727, 15521.744253843339, 21467.8670725664, 19065.792151187918, 15016.751291364586, -187500.02235174447, 14614.039911513319, 41346.0557277269, 16359.711153472801, 26316.608645511707, 18211.039091472518, 36306.251443177636, 24254.436702065075, -21950.173014423017, 13757.05167735239, -0.03, 1.006, -0.17200000000000001, 192.0, 0.0, 0.0, 0.0, 0.0, 0.0, 0.0, 0.0, 0.0, 0.0, 1.696016194553689E9, 0.0, 2023-09-29 14:36:34.553
10.0, 49446.30556658573, 47239.51783651327, 15545.392399477054, 21479.892311083357, 19056.33736328332, 15011.051596528483, -187500.02235174447, 14612.408234168082, 41342.501800358514, 16350.323420801571, 26248.1452522451, 18214.59301884091, 36303.70334430973, 24252.022713663904, -21948.474281844414, 13761.410267521176, -0.03, 1.006, -0.17200000000000001, 192.0, 0.0, 0.0, 0.0, 0.0, 0.0, 0.0, 0.0, 0.0, 0.0, 1.696016194553698E9, 0.0, 2023-09-29 14:36:34.553
12.0, 49378.937408797436, 47224.050429350194, 15520.850184065126, 21483.06625879601, 19064.361639542778, 15021.668675144754, -187500.02235174447, 14621.259524972384, 41341.33950964684, 16353.296202814128, 26347.45405286003, 18212.894286262308, 36298.56244308501, 24252.71561774202, -21955.91741274803, 13763.779552433438, -0.032, 1.008, -0.17200000000000001, 192.0, 127.5, 0.0, 15.5, 64.0, 125.0, 80.0, 0.0, 0.0, 0.0, 1.696016194553708E9, 0.0, 2023-09-29 14:36:34.553
14.0, 49442.058735139224, 47239.65194698, 15545.772379132794, 21491.559921689026, 19055.15272082719, 15010.515154661556, -187500.02235174447, 14608.764899821866, 41342.39004163624, 16357.252461582717, 26233.013121248856, 18216.783489797534, 36299.747085541145, 24261.924536457605, -21948.451930099956, 13755.62116570725, -0.032, 1.008, -0.17200000000000001, 192.0, 0.0, 0.0, 0.0, 0.0, 0.0, 0.0, 0.0, 0.0, 0.0, 1.696016194612739E9, 0.0, 2023-09-29 14:36:34.612
16.0, 49384.659455377994, 47219.62478394804, 15514.681102595461, 21474.460837180715, 19054.81744466036, 15012.593866895899, -187500.02235174447, 14610.687149845024, 41338.34437588983, 16350.725752201768, 26356.12652970869, 18206.725204792645, 36303.435123376265, 24258.10238815575, -21957.906718004553, 13768.071087368857, -0.032, 1.008, -0.17200000000000001, 192.0, 0.0, 0.0, 0.0, 0.0, 0.0, 0.0, 0.0, 0.0, 0.0, 1.696016194612778E9, 0.0, 2023-09-29 14:36:34.612
18.0, 49432.67100246799, 47235.06983936666, 15532.74131211535, 21485.167322774807, 19051.01764810296, 15011.990369795605, -187500.02235174447, 14606.730891076433, 41339.05963171239, 16352.312726058093, 26239.00338876288, 18201.181972167728, 36300.4176378748, 24252.447396808555, -21964.433427385502, 13749.742656915505, -0.032, 1.008, -0.17200000000000001, 192.0, 0.0, 0.0, 0.0, 0.0, 0.0, 0.0, 0.0, 0.0, 0.0, 1.696016194612789E9, 0.0, 2023-09-29 14:36:34.612
20.0, 49388.28043797975, 47231.180635831435, 15510.926009526971, 21476.561901159515, 19057.365543528264, 15016.97480880914, -187500.02235174447, 14614.017559768863, 41341.16069569119, 16347.529452744659, 26353.936058752068, 18201.204323912185, 36302.80927453152, 24257.85651896674, -21967.67443033152, 13761.142046587713, -0.032, 1.008, -0.17200000000000001, 192.0, 0.0, 0.0, 0.0, 0.0, 0.0, 0.0, 0.0, 0.0, 0.0, 1.696016194612798E9, 0.0, 2023-09-29 14:36:34.612
22.0, 49417.7623889163, 47245.575159260654, 15540.653829652529, 21501.372337504905, 19057.76787492846, 15019.657018143776, -187500.02235174447, 14611.827088812244, 41354.08000398636, 16358.168883105385, 26206.079269180213, 18213.520135107057, 36310.3194606685, 24265.254946381447, -21965.34984890817, 13732.017723562447, -0.034, 1.008, -0.17, 192.0, 127.0, 120.0, 15.5, 64.0, 125.0, 88.0, 0.0, 0.0, 0.0, 1.696016194612807E9, 0.0, 2023-09-29 14:36:34.612
24.0, 49416.041304593244, 47239.58489174663, 15532.584849904162, 21498.891293870365, 19054.52687198244, 15029.335323492924, -187500.02235174447, 14623.762920351377, 41351.55425686291, 16362.505121529714, 26328.92445670658, 18224.740710823622, 36313.53811187007, 24272.47455984051, -21955.895061003575, 13768.205197835588, -0.034, 1.008, -0.17, 192.0, 0.0, 0.0, 0.0, 0.0, 0.0, 0.0, 0.0, 0.0, 0.0, 1.696016194612816E9, 0.0, 2023-09-29 14:36:34.612
26.0, 49416.86831913809, 47264.820011236676, 15560.211606050922, 21523.344102304472, 19071.938880913127, 15042.656963188287, -187500.02235174447, 14636.525766435358, 41361.321969189885, 16380.565331049602, 26216.47283035193, 18235.089568506428, 36314.767457815105, 24286.444400125078, -21950.329476634204, 13746.032267335924, -0.034, 1.008, -0.17, 192.0, 0.0, 0.0, 0.0, 0.0, 0.0, 0.0, 0.0, 0.0, 0.0, 1.696016194612825E9, 0.0, 2023-09-29 14:36:34.612
28.0, 49425.764313431304, 47255.49933379881, 15541.056161052724, 21500.12063981541, 19062.953479642092, 15030.721131649154, -187500.02235174447, 14625.104025018696, 41360.3608441783, 16381.23588338326, 26330.556134051818, 18241.593926142923, 36325.07161200901, 24289.394830393176, -21933.252743870347, 13787.606512022796, -0.034, 1.008, -0.17, 192.0, 0.0, 0.0, 0.0, 0.0, 0.0, 0.0, 0.0, 0.0, 0.0, 1.696016194612834E9, 0.0, 2023-09-29 14:36:34.612
30.0, 49414.387275503555, 47239.94251965792, 15548.141664045057, 21488.810657121023, 19060.87476740775, 15017.287733231513, -187500.02235174447, 14618.644370871112, 41355.599922609326, 16366.774304720677, 26227.536943857307, 18218.88455377633, 36309.93948101276, 24275.357934875243, -21947.311991132738, 13748.066276081358, -0.034, 1.008, -0.17, 192.0, 0.0, 0.0, 0.0, 0.0, 0.0, 0.0, 0.0, 0.0, 0.0, 1.696016194672774E9, 0.0, 2023-09-29 14:36:34.672
32.0, 49427.82067392119, 47235.33806030012, 15535.892908083548, 21476.293680226052, 19062.461741264076, 15014.627875641332, -187500.02235174447, 14622.444167428515, 41346.39100389374, 16349.8093306791, 26328.991511939945, 18213.877763018343, 36316.33207992698, 24259.93523120108, -21941.76875850782, 13771.222683337055, -0.028, 1.01, -0.168, 192.0, 127.5, 16.0, 15.5, 72.0, 125.0, 96.0, 0.0, 0.0, 0.0, 1.696016194672803E9, 0.0, 2023-09-29 14:36:34.672
34.0, 49391.58849615914, 47242.06593538117, 15537.12225402859, 21491.761087389124, 19064.741619198518, 15023.054483300983, -187500.02235174447, 14629.663780887578, 41350.95075976262, 16356.224281337772, 26235.24829569439, 18212.961341495677, 36310.38651590187, 24266.50664407094, -21952.139967935083, 13733.761159629961, -0.028, 1.01, -0.168, 192.0, 0.0, 0.0, 0.0, 0.0, 0.0, 0.0, 0.0, 0.0, 0.0, 1.696016194672815E9, 0.0, 2023-09-29 14:36:34.672
36.0, 49429.00531637733, 47247.609168006085, 15526.549878901229, 21478.90883432732, 19051.509386480975, 15015.83486984192, -187500.02235174447, 14614.352835935693, 41350.14609696223, 16366.036697153653, 26301.945901149025, 18231.22271671566, 36316.51089388262, 24270.149978417157, -21945.233278898395, 13770.082744369834, -0.028, 1.01, -0.168, 192.0, 0.0, 0.0, 0.0, 0.0, 0.0, 0.0, 0.0, 0.0, 0.0, 1.696016194672824E9, 0.0, 2023-09-29 14:36:34.672
38.0, 49385.1064902671, 47247.85503719509, 15521.230163720867, 21484.653232652337, 19050.637668447216, 15019.031169299027, -187500.02235174447, 14616.386844681127, 41351.666015585186, 16365.723772731279, 26233.169583460043, 18220.516231121568, 36300.439989619255, 24267.870100482716, -21970.691915832987, 13729.939011328104, -0.028, 1.01, -0.168, 192.0, 0.0, 0.0, 0.0, 0.0, 0.0, 0.0, 0.0, 0.0, 0.0, 1.696016194672833E9, 0.0, 2023-09-29 14:36:34.672
40.0, 49443.533950273275, 47257.57804603315, 15532.897774326537, 21488.385973976372, 19053.766912670962, 15019.746425121597, -187500.02235174447, 14619.896068560609, 41344.64756782622, 16365.991993664742, 26291.507636488397, 18234.97780978415, 36309.112466467916, 24270.284088883887, -21951.938802234985, 13773.770782204962, -0.028, 1.01, -0.168, 192.0, 0.0, 0.0, 0.0, 0.0, 0.0, 0.0, 0.0, 0.0, 0.0, 1.696016194672842E9, 0.0, 2023-09-29 14:36:34.672
42.0, 49385.41941468947, 47251.16309537448, 15520.581963131663, 21487.8718838539, 19055.331534782832, 15022.383930967324, -187500.02235174447, 14623.919382562564, 41349.766117306484, 16364.293261086139, 26265.937240831525, 18224.4501381457, 36297.84718726244, 24271.021696450913, -21961.885328517597, 13747.99922084799, -0.028, 1.006, -0.164, 192.0, 127.5, 16.0, 15.5, 56.0, 125.0, 112.0, 0.0, 0.0, 0.0, 1.696016194672851E9, 0.0, 2023-09-29 14:36:34.672
44.0, 49445.143275874056, 47265.155287403504, 15533.903602827026, 21491.515218200115, 19059.15368308469, 15024.127367034838, -187500.02235174447, 14624.165251751572, 41349.6096550953, 16366.19315936484, 26271.793397878817, 18232.206193471695, 36309.872425779395, 24276.36376337573, -21949.39070336708, 13773.770782204962, -0.028, 1.006, -0.164, 192.0, 0.0, 0.0, 0.0, 0.0, 0.0, 0.0, 0.0, 0.0, 0.0, 1.69601619473306E9, 0.0, 2023-09-29 14:36:34.733
46.0, 49381.46315592089, 47249.576121518156, 15521.431329420964, 21483.24507275165, 19063.24405232001, 15025.289657746514, -187500.02235174447, 14626.109853519185, 41351.107221973805, 16366.528435531669, 26259.276420983842, 18219.443347387714, 36305.02209723259, 24278.978917477005, -21958.24199417138, 13754.43652325112, -0.028, 1.006, -0.164, 192.0, 0.0, 0.0, 0.0, 0.0, 0.0, 0.0, 0.0, 0.0, 0.0, 1.696016194733082E9, 0.0, 2023-09-29 14:36:34.733
48.0, 49459.06841266971, 47257.756859988796, 15534.641210394051, 21475.332555214474, 19055.420941760654, 15013.510288418567, -187500.02235174447, 14611.17888822304, 41345.56398934889, 16362.125141873974, 26249.53106040133, 18221.61146659988, 36313.49340838115, 24272.541615073875, -21946.708494032442, 13773.144933360212, -0.028, 1.006, -0.164, 192.0, 0.0, 0.0, 0.0, 0.0, 0.0, 0.0, 0.0, 0.0, 0.0, 1.696016194733094E9, 0.0, 2023-09-29 14:36:34.733
50.0, 49383.541868155226, 47242.96000515938, 15520.559611387207, 21477.120694770896, 19062.640555219717, 15021.802785611486, -187500.02235174447, 14620.141937749619, 41347.44153588314, 16366.930766931864, 26287.171398064067, 18214.66007407428, 36305.98322224417, 24271.513434828932, -21954.241031913883, 13759.286851797922, -0.028, 1.006, -0.164, 192.0, 0.0, 0.0, 0.0, 0.0, 0.0, 0.0, 0.0, 0.0, 0.0, 1.696016194733104E9, 0.0, 2023-09-29 14:36:34.733
52.0, 49460.02953768129, 47261.89193271303, 15544.297163998745, 21485.01086056362, 19057.790226672918, 15018.204154754181, -187500.02235174447, 14617.839708070722, 41342.77002129197, 16364.7626477197, 26250.715702857462, 18225.970056768663, 36309.96183275722, 24274.396809863665, -21944.026284697808, 13774.82131419436, -0.024, 1.002, -0.16, 192.0, 127.5, 32.0, 15.5, 40.0, 125.5, 0.0, 0.0, 0.0, 0.0, 1.696016194733144E9, 0.0, 2023-09-29 14:36:34.733
54.0, 49401.19974627492, 47250.760763974286, 15532.74131211535, 21489.101229798944, 19062.86407266427, 15026.139024035816, -187500.02235174447, 14624.344065707215, 41349.6096550953, 16377.23492112576, 26308.360851807698, 18230.015722515076, 36305.98322224417, 24282.3316791453, -21949.949496978465, 13765.500636756497, -0.024, 1.002, -0.16, 192.0, 0.0, 0.0, 0.0, 0.0, 0.0, 0.0, 0.0, 0.0, 0.0, 1.696016194733153E9, 0.0, 2023-09-29 14:36:34.733
56.0, 49477.95563673445, 47252.839476208625, 15555.562443204219, 21492.29752925605, 19060.137159840724, 15017.868878587351, -187500.02235174447, 14617.504431903892, 41349.69906207312, 16372.138723389951, 26251.408606935576, 18238.308219707993, 36309.96183275722, 24280.90116750016, -21938.013665439328, 13776.900026428704, -0.024, 1.002, -0.16, 192.0, 0.0, 0.0, 0.0, 0.0, 0.0, 0.0, 0.0, 0.0, 0.0, 1.696016194733162E9, 0.0, 2023-09-29 14:36:34.733
58.0, 49407.6146969336, 47231.314746298165, 15527.063969023702, 21484.45206695224, 19065.367468043267, 15025.669637402254, -187500.02235174447, 14628.188565753528, 41348.91675101718, 16373.077496657073, 26333.126584664176, 18227.154699224797, 36300.90937625282, 24279.269490154922, -21952.07291270172, 13769.233378080533, -0.024, 1.002, -0.16, 192.0, 0.0, 0.0, 0.0, 0.0, 0.0, 0.0, 0.0, 0.0, 0.0, 1.696016194733171E9, 0.0, 2023-09-29 14:36:34.733
60.0, 49474.60287506615, 47249.084383140136, 15551.561480946719, 21495.985567091175, 19058.57253772885, 15018.986465810118, -187500.02235174447, 14621.639504628123, 41353.29769293043, 16377.547845548135, 26224.1394787001, 18233.7037603502, 36311.14647521335, 24292.36761240573, -21945.881479487598, 13766.39470653471, -0.024, 1.002, -0.16, 192.0, 0.0, 0.0, 0.0, 0.0, 0.0, 0.0, 0.0, 0.0, 0.0, 1.696016194793385E9, 0.0, 2023-09-29 14:36:34.793
62.0, 49418.58940346115, 47231.605318976086, 15521.900716054526, 21481.54634017305, 19059.53366274043, 15021.06517804446, -187500.02235174447, 14629.328504720748, 41349.632006839754, 16371.7140402453, 26334.2665236314, 18228.31698993647, 36305.15620769933, 24287.22671118101, -21952.6317063131, 13778.039965395925, -0.028, 1.0, -0.164, 192.0, 127.5, 16.0, 15.5, 32.0, 125.0, 112.0, 0.0, 0.0, 0.0, 1.696016194793408E9, 0.0, 2023-09-29 14:36:34.793
64.0, 49463.0246714383, 47246.290415083226, 15542.777245375783, 21496.20908453573, 19064.138122098222, 15019.657018143776, -187500.02235174447, 14625.841632585722, 41349.922579517675, 16373.971566435286, 26231.247333436888, 18226.08181549094, 36305.73735305516, 24287.04789722537, -21946.507328332347, 13767.422886779654, -0.028, 1.0, -0.164, 192.0, 0.0, 0.0, 0.0, 0.0, 0.0, 0.0, 0.0, 0.0, 0.0, 1.696016194793418E9, 0.0, 2023-09-29 14:36:34.793
66.0, 49417.20359530492, 47224.65392645048, 15520.35844568711, 21481.836912850966, 19065.836854676825, 15022.205117011681, -187500.02235174447, 14629.820243098766, 41350.99546325153, 16379.179522893373, 26350.650352317138, 18226.104167235397, 36311.906434524826, 24288.94779550407, -21943.981581208896, 13783.136163131734, -0.028, 1.0, -0.164, 192.0, 0.0, 0.0, 0.0, 0.0, 0.0, 0.0, 0.0, 0.0, 0.0, 1.696016194793427E9, 0.0, 2023-09-29 14:36:34.793
68.0, 49449.41245906502, 47231.09122885361, 15538.373951718087, 21497.550189203048, 19059.287793551423, 15015.700759375188, -187500.02235174447, 14621.170117994561, 41354.594094108834, 16381.749973505734, 26222.66426356605, 18227.51232713608, 36312.599338602944, 24287.47258037002, -21951.178842923506, 13751.888424383214, -0.028, 1.0, -0.164, 192.0, 0.0, 0.0, 0.0, 0.0, 0.0, 0.0, 0.0, 0.0, 0.0, 1.696016194793436E9, 0.0, 2023-09-29 14:36:34.793
70.0, 49422.769179674295, 47214.595641445594, 15516.335131685155, 21487.469552453706, 19058.550185984397, 15016.751291364586, -187500.02235174447, 14626.713350619479, 41344.49110561504, 16373.636290268458, 26360.149843710646, 18222.952571267197, 36304.351544898935, 24275.670859297617, -21950.843566756674, 13774.888369427727, -0.028, 1.0, -0.164, 192.0, 0.0, 0.0, 0.0, 0.0, 0.0, 0.0, 0.0, 0.0, 0.0, 1.696016194793445E9, 0.0, 2023-09-29 14:36:34.793
72.0, 49437.81190369272, 47229.72777244184, 15541.302030241732, 21506.960273618733, 19057.611412717273, 15017.153622764781, -187500.02235174447, 14623.22647848445, 41350.213152195596, 16384.141610162453, 26242.19968821999, 18226.41709165777, 36302.675164064785, 24276.050838953357, -21948.854261500153, 13748.468607481553, -0.03, 1.008, -0.168, 192.0, 127.5, 8.0, 15.5, 64.0, 125.0, 96.0, 0.0, 0.0, 0.0, 1.696016194793454E9, 0.0, 2023-09-29 14:36:34.793
74.0, 49415.81778714869, 47224.676278194944, 15527.041617279247, 21498.891293870365, 19068.764933200473, 15019.858183843875, -187500.02235174447, 14632.860080344688, 41349.207323695104, 16384.029851440173, 26368.196471714553, 18226.104167235397, 36312.77815255859, 24270.641716795173, -21943.19927015296, 13775.15659036119, -0.03, 1.008, -0.168, 192.0, 0.0, 0.0, 0.0, 0.0, 0.0, 0.0, 0.0, 0.0, 0.0, 1.69601619485363E9, 0.0, 2023-09-29 14:36:34.853
76.0, 49426.59132797615, 47233.25934806578, 15541.547899430741, 21508.0778608415, 19057.186729572622, 15010.425747683734, -187500.02235174447, 14622.958257550987, 41358.34918717732, 16389.707194531824, 26250.402778435087, 18229.814556814978, 36309.22422519019, 24275.112065686237, -21944.339209120182, 13750.346154015799, -0.03, 1.008, -0.168, 192.0, 0.0, 0.0, 0.0, 0.0, 0.0, 0.0, 0.0, 0.0, 0.0, 1.696016194853652E9, 0.0, 2023-09-29 14:36:34.853
78.0, 49432.000450134336, 47231.89589165401, 15530.327323714177, 21505.239189295673, 19067.781456444438, 15021.579268166932, -187500.02235174447, 14628.32267622026, 41353.72237607508, 16390.80243001013, 26368.867024048213, 18237.570612140968, 36310.855902535426, 24271.42402785111, -21943.66865678652, 13778.576407262852, -0.03, 1.008, -0.168, 192.0, 0.0, 0.0, 0.0, 0.0, 0.0, 0.0, 0.0, 0.0, 0.0, 1.696016194853662E9, 0.0, 2023-09-29 14:36:34.853
80.0, 49420.511653484304, 47241.39538304751, 15540.676181396984, 21517.510297001638, 19070.083686123337, 15025.133195535327, -187500.02235174447, 14633.552984422802, 41367.28988495945, 16406.158078450928, 26248.502880156386, 18240.49869066461, 36316.39913516035, 24282.063458211836, -21944.85329924265, 13743.595927190296, -0.03, 1.008, -0.168, 192.0, 0.0, 0.0, 0.0, 0.0, 0.0, 0.0, 0.0, 0.0, 0.0, 1.696016194853674E9, 0.0, 2023-09-29 14:36:34.853
82.0, 49460.253055125846, 47221.591737460105, 15522.481861410364, 21495.35971824643, 19059.57836622934, 15013.06325352946, -187500.02235174447, 14621.03600752783, 41351.82247779638, 16393.216418411306, 26356.014770986414, 18232.22854521615, 36313.85103629244, 24269.702943528053, -21939.28771487328, 13785.617206766274, -0.024, 1.01, -0.162, 192.0, 127.5, 32.0, 15.5, 72.0, 125.0, 120.0, 0.0, 0.0, 0.0, 1.696016194853695E9, 0.0, 2023-09-29 14:36:34.853
84.0, 49411.928583613466, 47215.042676334706, 15524.091187011147, 21496.63376768038, 19067.356773299787, 15020.528736177534, -187500.02235174447, 14629.194394254017, 41347.5085911165, 16385.52741831868, 26305.857456428705, 18210.994387983606, 36298.361277384916, 24260.76224574593, -21954.621011569623, 13746.412246991666, -0.024, 1.01, -0.162, 192.0, 0.0, 0.0, 0.0, 0.0, 0.0, 0.0, 0.0, 0.0, 0.0, 1.696016194853704E9, 0.0, 2023-09-29 14:36:34.853
86.0, 49447.087877641665, 47222.95519387188, 15525.678160867474, 21497.796058392058, 19071.067162879368, 15019.902887332784, -187500.02235174447, 14633.284763489339, 41350.92840801816, 16387.606130553024, 26352.97493374049, 18228.115824236374, 36312.19700720275, 24263.98089694749, -21935.689084015976, 13770.01568913647, -0.024, 1.01, -0.162, 192.0, 0.0, 0.0, 0.0, 0.0, 0.0, 0.0, 0.0, 0.0, 0.0, 1.696016194853713E9, 0.0, 2023-09-29 14:36:34.853
88.0, 49394.87420259407, 47208.0912838091, 15523.152413744023, 21504.188657306273, 19073.034116391435, 15021.266343744559, -187500.02235174447, 14634.201185012005, 41349.922579517675, 16386.376784607983, 26302.88467441615, 18219.97978925464, 36309.313632168014, 24268.80887374984, -21945.412092854036, 13741.96424984506, -0.024, 1.01, -0.162, 192.0, 0.0, 0.0, 0.0, 0.0, 0.0, 0.0, 0.0, 0.0, 0.0, 1.696016194853722E9, 0.0, 2023-09-29 14:36:34.853
90.0, 49439.60004324914, 47218.90952812547, 15537.234012750867, 21508.614302708425, 19078.175017616155, 15024.01560831256, -187500.02235174447, 14635.765807123877, 41345.89926551572, 16383.493409573248, 26329.97498869598, 18223.93604802323, 36317.96375727222, 24263.62326903621, -21934.124461904106, 13767.758162946482, -0.024, 1.01, -0.162, 192.0, 0.0, 0.0, 0.0, 0.0, 0.0, 0.0, 0.0, 0.0, 0.0, 1.696016194912538E9, 0.0, 2023-09-29 14:36:34.912
92.0, 49376.411661673985, 47219.66948743695, 15538.150434273533, 21508.12256433041, 19082.377145573755, 15027.994218825606, -187500.02235174447, 14635.631696657145, 41352.20245745211, 16391.00359571023, 26291.15000857711, 18224.874821290352, 36312.93461476977, 24273.0780569408, -21941.254668385347, 13743.797092890394, -0.028, 1.008, -0.168, 192.0, 127.5, 16.0, 15.5, 64.0, 125.0, 96.0, 0.0, 0.0, 0.0, 1.69601619491257E9, 0.0, 2023-09-29 14:36:34.912
94.0, 49442.25990083932, 47235.60628123359, 15553.662544925517, 21512.749375432657, 19073.950537914105, 15022.607448411876, -187500.02235174447, 14631.116644277174, 41357.52217263248, 16394.021081211697, 26284.10920907369, 18236.60948712939, 36323.03760326357, 24275.3802866197, -21933.073929914706, 13769.412192036176, -0.028, 1.008, -0.168, 192.0, 0.0, 0.0, 0.0, 0.0, 0.0, 0.0, 0.0, 0.0, 0.0, 1.696016194912583E9, 0.0, 2023-09-29 14:36:34.912
96.0, 49377.90922855249, 47222.46345549387, 15529.88028882507, 21506.289721285073, 19071.670659979663, 15025.736692635619, -187500.02235174447, 14631.407216955093, 41355.26464644249, 16392.165886421906, 26302.147066849124, 18228.18287946974, 36309.15716995682, 24274.91089998614, -21950.798863267766, 13751.240223794011, -0.028, 1.008, -0.168, 192.0, 0.0, 0.0, 0.0, 0.0, 0.0, 0.0, 0.0, 0.0, 0.0, 1.696016194912649E9, 0.0, 2023-09-29 14:36:34.912
98.0, 49466.19861915096, 47237.41677253447, 15545.12417854359, 21509.9777591202, 19062.52879649744, 15019.858183843875, -187500.02235174447, 14621.863022072677, 41359.08679474435, 16399.027871969687, 26267.457159454487, 18238.66584761928, 36317.628481105385, 24277.23548140949, -21944.406264353547, 13764.450104767098, -0.028, 1.008, -0.168, 192.0, 0.0, 0.0, 0.0, 0.0, 0.0, 0.0, 0.0, 0.0, 0.0, 1.696016194912663E9, 0.0, 2023-09-29 14:36:34.912
100.0, 49389.33096996915, 47217.411961246966, 15512.669445594483, 21494.48800021267, 19066.663869221673, 15026.943686836206, -187500.02235174447, 14628.523841920358, 41354.19176270864, 16388.857828242522, 26325.45993631601, 18219.08571947643, 36302.94338499825, 24267.400713849154, -21959.851319772162, 13748.356848759277, -0.028, 1.008, -0.168, 192.0, 0.0, 0.0, 0.0, 0.0, 0.0, 0.0, 0.0, 0.0, 0.0, 1.696016194912675E9, 0.0, 2023-09-29 14:36:34.912
102.0, 49465.41630809502, 47230.420676519956, 15534.440044693953, 21504.903913128845, 19067.468532022063, 15021.73573037812, -187500.02235174447, 14622.935905806531, 41353.99059700854, 16387.695537530846, 26259.81286285077, 18227.959362025187, 36317.293204938556, 24270.99934470646, -21948.697799288966, 13757.945747130603, -0.028, 1.006, -0.168, 192.0, 127.5, 16.0, 15.5, 56.0, 125.0, 96.0, 0.0, 0.0, 0.0, 1.696016194912685E9, 0.0, 2023-09-29 14:36:34.912
104.0, 49386.91698156798, 47219.02128684775, 15513.854088050615, 21493.996261834654, 19078.91262518318, 15029.69295140421, -187500.02235174447, 14633.664743145078, 41353.074175485875, 16387.494371830748, 26327.270427616888, 18217.230524686638, 36311.61586184691, 24265.724333015005, -21955.380970881102, 13751.284927282923, -0.028, 1.006, -0.168, 192.0, 0.0, 0.0, 0.0, 0.0, 0.0, 0.0, 0.0, 0.0, 0.0, 1.696016194972775E9, 0.0, 2023-09-29 14:36:34.972
106.0, 49450.26182535432, 47233.415810276965, 15538.619820907095, 21505.59681720696, 19073.235282091533, 15021.109881533372, -187500.02235174447, 14627.987400053431, 41349.65435858421, 16385.90739797442, 26230.643836336596, 18225.008931757086, 36316.108562482426, 24268.853577238748, -21948.563688822233, 13752.134293572224, -0.028, 1.006, -0.168, 192.0, 0.0, 0.0, 0.0, 0.0, 0.0, 0.0, 0.0, 0.0, 0.0, 1.696016194972801E9, 0.0, 2023-09-29 14:36:34.972
108.0, 49388.39219670203, 47213.85803387857, 15512.043596749736, 21502.55697996104, 19074.464628036574, 15022.428634456235, -187500.02235174447, 14627.428606442048, 41344.20053293712, 16382.95696770632, 26329.59500904024, 18213.140155451318, 36309.112466467916, 24266.41723709312, -21952.542299335277, 13763.95836638908, -0.028, 1.006, -0.168, 192.0, 0.0, 0.0, 0.0, 0.0, 0.0, 0.0, 0.0, 0.0, 0.0, 1.696016194972811E9, 0.0, 2023-09-29 14:36:34.972
110.0, 49443.51159852882, 47220.78707465972, 15534.954134816426, 21512.436451010282, 19069.48018902304, 15020.193460010703, -187500.02235174447, 14627.22744074195, 41341.78654453594, 16381.034717683164, 26225.726452556428, 18210.659111816778, 36308.59837634544, 24270.775827261907, -21951.089435945683, 13755.330593029332, -0.028, 1.006, -0.168, 192.0, 0.0, 0.0, 0.0, 0.0, 0.0, 0.0, 0.0, 0.0, 0.0, 1.69601619497282E9, 0.0, 2023-09-29 14:36:34.972
112.0, 49396.99761831732, 47216.18261530192, 15515.441061906942, 21498.533665959083, 19071.71536346857, 15022.450986200689, -187500.02235174447, 14631.22840299945, 41339.95370149061, 16380.878255471976, 26333.350102108732, 18204.713547791667, 36306.47496062219, 24267.735990015983, -21950.038903956283, 13765.880616412238, -0.028, 1.004, -0.166, 192.0, 127.5, 16.0, 15.5, 48.0, 125.0, 104.0, 0.0, 0.0, 0.0, 1.69601619497283E9, 0.0, 2023-09-29 14:36:34.972
114.0, 49449.948900931944, 47234.15341784399, 15544.587736676664, 21507.07203234101, 19064.71926745406, 15018.986465810118, -187500.02235174447, 14622.667684873068, 41347.128611460765, 16391.115354432506, 26215.95874022946, 18218.661036331778, 36307.41373388931, 24272.206338907046, -21944.92035447602, 13750.167340060156, -0.028, 1.004, -0.166, 192.0, 0.0, 0.0, 0.0, 0.0, 0.0, 0.0, 0.0, 0.0, 0.0, 1.696016194972839E9, 0.0, 2023-09-29 14:36:34.972
116.0, 49411.12392081308, 47218.14956881399, 15520.067873009191, 21492.63280542288, 19064.451046520597, 15019.5452594215, -187500.02235174447, 14620.56662089427, 41343.03824222544, 16383.761630506711, 26344.525974336386, 18215.84471653041, 36309.179521701284, 24261.678667268596, -21948.72015103342, 13769.523950758452, -0.028, 1.004, -0.166, 192.0, 0.0, 0.0, 0.0, 0.0, 0.0, 0.0, 0.0, 0.0, 0.0, 1.696016194972848E9, 0.0, 2023-09-29 14:36:34.972
118.0, 49440.0694298827, 47235.025135877746, 15545.906489599525, 21511.318863787517, 19064.78632268743, 15019.008817554572, -187500.02235174447, 14621.304228461293, 41350.16844870668, 16387.628482297478, 26230.0403392363, 18221.678521833244, 36311.43704789127, 24263.84678648076, -21954.15162493606, 13744.847624879792, -0.028, 1.004, -0.166, 192.0, 0.0, 0.0, 0.0, 0.0, 0.0, 0.0, 0.0, 0.0, 0.0, 1.696016194972891E9, 0.0, 2023-09-29 14:36:34.972
120.0, 49414.521385970285, 47226.5985282181, 15527.265134723799, 21507.273198041108, 19069.793113445416, 15024.373236223846, -187500.02235174447, 14623.785272095833, 41351.55425686291, 16384.7674590072, 26346.78350052637, 18223.66782708977, 36317.60612936093, 24256.60482127724, -21954.48690110289, 13768.942805402614, -0.028, 1.004, -0.166, 192.0, 0.0, 0.0, 0.0, 0.0, 0.0, 0.0, 0.0, 0.0, 0.0, 1.696016195034117E9, 0.0, 2023-09-29 14:36:35.034
122.0, 49425.54079598675, 47229.146627086004, 15545.012419821314, 21513.285817299584, 19067.66969772216, 15022.83096585643, -187500.02235174447, 14623.002961039898, 41354.392928408735, 16383.046374684141, 26229.928580514024, 18220.516231121568, 36313.024021747595, 24263.55621380284, -21956.856186015153, 13747.172206303145, -0.028, 1.008, -0.164, 192.0, 127.5, 16.0, 15.5, 64.0, 125.0, 112.0, 0.0, 0.0, 0.0, 1.696016195034144E9, 0.0, 2023-09-29 14:36:35.034
124.0, 49417.89649938304, 47211.48874896631, 15524.471166666886, 21493.92920660129, 19071.402439046196, 15019.20998325467, -187500.02235174447, 14623.181774995539, 41349.4084893952, 16373.189255379351, 26352.036160473366, 18215.64355083031, 36315.125085726395, 24264.47263532551, -21951.111787690137, 13778.665814240672, -0.028, 1.008, -0.164, 192.0, 0.0, 0.0, 0.0, 0.0, 0.0, 0.0, 0.0, 0.0, 0.0, 1.696016195034155E9, 0.0, 2023-09-29 14:36:35.034
126.0, 49408.39700798953, 47210.86290012156, 15540.966754074903, 21505.283892784584, 19075.62691874825, 15025.669637402254, -187500.02235174447, 14627.897993075609, 41354.97407376458, 16380.297110116138, 26236.634103850618, 18212.916638006765, 36311.01236474662, 24269.36766736122, -21955.604488325655, 13745.361715002266, -0.028, 1.008, -0.164, 192.0, 0.0, 0.0, 0.0, 0.0, 0.0, 0.0, 0.0, 0.0, 0.0, 1.696016195034164E9, 0.0, 2023-09-29 14:36:35.034
128.0, 49426.03253436477, 47204.91733609645, 15532.540146415253, 21496.611415935924, 19076.096305381812, 15021.86984084485, -187500.02235174447, 14626.646295386112, 41346.43570738265, 16371.445819311837, 26343.36368362471, 18214.03422522953, 36321.18240847378, 24265.880795226192, -21942.841642241674, 13785.460744555086, -0.028, 1.008, -0.164, 192.0, 0.0, 0.0, 0.0, 0.0, 0.0, 0.0, 0.0, 0.0, 0.0, 1.696016195034173E9, 0.0, 2023-09-29 14:36:35.034
130.0, 49400.30567649671, 47208.806539631674, 15541.682009897473, 21513.21876206622, 19079.58317751684, 15023.792090868008, -187500.02235174447, 14628.881469831644, 41349.8108207954, 16379.62655778248, 26253.57672614774, 18210.45794611668, 36317.74023982766, 24269.904109228148, -21947.803729510753, 13755.241186051511, -0.028, 1.008, -0.164, 192.0, 0.0, 0.0, 0.0, 0.0, 0.0, 0.0, 0.0, 0.0, 0.0, 1.696016195034182E9, 0.0, 2023-09-29 14:36:35.034
132.0, 49419.416418005996, 47216.51789146876, 15538.642172651551, 21506.423831751807, 19090.379070088755, 15030.184689782225, -187500.02235174447, 14637.285725746839, 41346.838038782844, 16373.166903634896, 26337.842802744246, 18216.93995200872, 36323.52934164159, 24267.89245222717, -21932.828060725697, 13791.272198113465, -0.032, 1.01, -0.168, 192.0, 127.5, 0.0, 15.5, 72.0, 125.0, 96.0, 0.0, 0.0, 0.0, 1.696016195034191E9, 0.0, 2023-09-29 14:36:35.034
134.0, 49378.46802216388, 47216.67435367994, 15538.955097073926, 21509.374262019905, 19084.67937525265, 15027.97186708115, -187500.02235174447, 14634.357647223193, 41357.745690077034, 16383.62752003998, 26241.77500507534, 18217.230524686638, 36322.16588522981, 24276.207301164544, -21938.930086962, 13756.291718040911, -0.032, 1.01, -0.168, 192.0, 0.0, 0.0, 0.0, 0.0, 0.0, 0.0, 0.0, 0.0, 0.0, 1.6960161950342E9, 0.0, 2023-09-29 14:36:35.034
136.0, 49432.894519912545, 47218.797769403194, 15535.35646621662, 21496.83493338048, 19072.96706115807, 15018.919410576751, -187500.02235174447, 14624.724045362957, 41348.84969578382, 16377.86076997051, 26307.44443028503, 18221.7008735777, 36318.50019913915, 24266.640754537675, -21931.621066525113, 13788.165305634178, -0.032, 1.01, -0.168, 192.0, 0.0, 0.0, 0.0, 0.0, 0.0, 0.0, 0.0, 0.0, 0.0, 1.696016195094328E9, 0.0, 2023-09-29 14:36:35.094
138.0, 49376.411661673985, 47224.877443895035, 15529.433253935964, 21502.28875902757, 19074.06229663638, 15023.568573423456, -187500.02235174447, 14626.08750177473, 41354.14705921973, 16384.834514240567, 26271.927508345547, 18220.8515072884, 36305.826760032985, 24270.686420284084, -21953.72694179141, 13750.636726693718, -0.032, 1.01, -0.168, 192.0, 0.0, 0.0, 0.0, 0.0, 0.0, 0.0, 0.0, 0.0, 0.0, 1.696016195094354E9, 0.0, 2023-09-29 14:36:35.094
140.0, 49444.852703196135, 47231.09122885361, 15534.440044693953, 21494.53270370158, 19062.394686030708, 15014.002026796583, -187500.02235174447, 14613.503469646392, 41355.935198776155, 16387.829647997576, 26286.903177130604, 18235.93893479573, 36318.053164250035, 24274.46386509703, -21946.328514376703, 13774.083706627334, -0.032, 1.01, -0.168, 192.0, 0.0, 0.0, 0.0, 0.0, 0.0, 0.0, 0.0, 0.0, 0.0, 1.696016195094364E9, 0.0, 2023-09-29 14:36:35.094
142.0, 49374.668225606474, 47219.13304557002, 15521.341922443144, 21494.555055446035, 19068.474360522552, 15020.484032688622, -187500.02235174447, 14624.344065707215, 41353.85648654181, 16379.224226382285, 26281.605813694696, 18217.007007242086, 36309.76066705712, 24266.976030704504, -21967.473264631422, 13747.954517359081, -0.034, 1.012, -0.17400000000000002, 192.0, 127.0, 120.0, 15.5, 80.0, 125.0, 72.0, 0.0, 0.0, 0.0, 1.696016195094423E9, 0.0, 2023-09-29 14:36:35.094
144.0, 49449.85949395412, 47218.529548469734, 15538.55276567373, 21494.622110679404, 19065.21100583208, 15009.151698249781, -187500.02235174447, 14616.856231314689, 41353.00712025251, 16376.117333902996, 26278.543624704318, 18221.23148694414, 36317.40496366083, 24266.126664415202, -21957.414979626534, 13774.754258960995, -0.034, 1.012, -0.17400000000000002, 192.0, 0.0, 0.0, 0.0, 0.0, 0.0, 0.0, 0.0, 0.0, 0.0, 1.696016195094434E9, 0.0, 2023-09-29 14:36:35.094
146.0, 49362.68769057843, 47198.77060637124, 15520.40314917602, 21495.694994413258, 19075.91749142617, 15018.561782665467, -187500.02235174447, 14628.143862264618, 41350.77194580698, 16375.67029901389, 26308.02557564087, 18209.474469360648, 36308.620728089896, 24263.3773998472, -21968.993183254384, 13753.475398239541, -0.034, 1.012, -0.17400000000000002, 192.0, 0.0, 0.0, 0.0, 0.0, 0.0, 0.0, 0.0, 0.0, 0.0, 1.696016195094443E9, 0.0, 2023-09-29 14:36:35.094
148.0, 49430.793455933745, 47210.706437910376, 15536.608163906118, 21498.86894212591, 19068.139084355724, 15012.280942473524, -187500.02235174447, 14617.906763304087, 41347.24037018304, 16376.00557518072, 26268.30652574379, 18215.50944036358, 36313.98514675917, 24264.60674579224, -21957.43733137099, 13770.283910069933, -0.034, 1.012, -0.17400000000000002, 192.0, 0.0, 0.0, 0.0, 0.0, 0.0, 0.0, 0.0, 0.0, 0.0, 1.696016195094452E9, 0.0, 2023-09-29 14:36:35.094
150.0, 49360.09488822161, 47187.974713799325, 15510.300160682222, 21487.760125131623, 19067.24501457751, 15013.06325352946, -187500.02235174447, 14620.298399960804, 41339.149038690215, 16370.14941813343, 26321.011939169402, 18203.484201846626, 36298.316573896, 24257.074207910802, -21969.999011754873, 13760.270328553956, -0.034, 1.012, -0.17400000000000002, 192.0, 0.0, 0.0, 0.0, 0.0, 0.0, 0.0, 0.0, 0.0, 0.0, 1.69601619515379E9, 0.0, 2023-09-29 14:36:35.153
152.0, 49422.59036571865, 47204.4926529518, 15535.714094127905, 21504.9262648733, 19065.38981978772, 15016.818346597953, -187500.02235174447, 14626.13220526364, 41339.439611368136, 16374.038621668653, 26258.181185505535, 18212.536658351026, 36304.73152455468, 24263.019771935913, -21960.11954070563, 13768.786343191427, -0.034, 1.012, -0.17400000000000002, 192.0, 127.0, 120.0, 15.5, 80.0, 125.0, 72.0, 0.0, 0.0, 0.0, 1.696016195153813E9, 0.0, 2023-09-29 14:36:35.153
154.0, 49352.42823987344, 47194.85905109156, 15513.272942694777, 21493.459819967728, 19069.34607855631, 15019.232334999126, -187500.02235174447, 14626.668647130567, 41343.194704436624, 16371.334060589561, 26332.50073581943, 18212.022568228553, 36301.93755649776, 24256.336600343777, -21965.483959374902, 13768.316956557866, -0.034, 1.012, -0.17400000000000002, 192.0, 0.0, 0.0, 0.0, 0.0, 0.0, 0.0, 0.0, 0.0, 0.0, 1.696016195153824E9, 0.0, 2023-09-29 14:36:35.153
156.0, 49416.22011854889, 47215.08737982361, 15541.637306408562, 21504.523933473105, 19072.654136735695, 15016.036035542016, -187500.02235174447, 14630.13316752114, 41352.40362315221, 16379.246578126738, 26225.301769411777, 18219.242181687616, 36310.5206263686, 24268.339487116278, -21953.72694179141, 13761.812598921371, -0.034, 1.012, -0.17400000000000002, 192.0, 0.0, 0.0, 0.0, 0.0, 0.0, 0.0, 0.0, 0.0, 0.0, 1.696016195153833E9, 0.0, 2023-09-29 14:36:35.153
158.0, 49364.76640281277, 47200.02230406074, 15511.97654151637, 21484.854398352432, 19070.217796590066, 15020.30521873298, -187500.02235174447, 14638.76094088089, 41348.06738472788, 16377.167865892396, 26313.412346054596, 18213.631893829333, 36308.37485890089, 24264.003248691948, -21953.10109294666, 13772.049697881903, -0.034, 1.012, -0.17400000000000002, 192.0, 0.0, 0.0, 0.0, 0.0, 0.0, 0.0, 0.0, 0.0, 0.0, 1.696016195153842E9, 0.0, 2023-09-29 14:36:35.153
160.0, 49426.01018262031, 47224.02807760573, 15538.709227884918, 21505.105078828943, 19061.43356101913, 15016.058387286472, -187500.02235174447, 14628.054455286796, 41346.8603905273, 16382.018194439197, 26202.123010411622, 18219.75627181009, 36310.654736835335, 24267.266603382424, -21948.943668477976, 13764.360697789276, -0.034, 1.012, -0.17400000000000002, 192.0, 0.0, 0.0, 0.0, 0.0, 0.0, 0.0, 0.0, 0.0, 0.0, 1.696016195153851E9, 0.0, 2023-09-29 14:36:35.153
162.0, 49390.91794382548, 47209.67825766543, 15510.054291493214, 21485.234378008176, 19054.77274117145, 15010.537506406012, -187500.02235174447, 14627.093330275218, 41341.13834394674, 16376.318499603094, 26342.31315163531, 18217.856373531387, 36305.02209723259, 24259.08586491178, -21952.274078401813, 13786.600683522307, -0.03, 1.01, -0.176, 192.0, 127.5, 8.0, 15.5, 72.0, 125.0, 64.0, 0.0, 0.0, 0.0, 1.696016195153861E9, 0.0, 2023-09-29 14:36:35.153
164.0, 49414.61079294811, 47221.97171711585, 15538.418655206999, 21506.110907329432, 19063.802845931394, 15017.645361142799, -187500.02235174447, 14633.70944663399, 41348.581474850354, 16377.905473459421, 26232.32021717074, 18220.873859032854, 36306.98905074466, 24260.94105970157, -21958.01847672683, 13761.566729732363, -0.03, 1.01, -0.176, 192.0, 0.0, 0.0, 0.0, 0.0, 0.0, 0.0, 0.0, 0.0, 0.0, 1.696016195153906E9, 0.0, 2023-09-29 14:36:35.153
166.0, 49389.01804554678, 47200.067007549645, 15524.962905044904, 21497.43843048077, 19063.691087209118, 15015.11961401935, -187500.02235174447, 14625.46165292998, 41347.59799809432, 16376.653775769923, 26337.97691321098, 18224.71835907917, 36315.1697892153, 24266.998382448957, -21952.788168524286, 13787.427698067153, -0.03, 1.01, -0.176, 192.0, 0.0, 0.0, 0.0, 0.0, 0.0, 0.0, 0.0, 0.0, 0.0, 1.696016195213391E9, 0.0, 2023-09-29 14:36:35.213
168.0, 49406.54181319974, 47210.415865232455, 15540.184443018967, 21511.184753320784, 19067.222662833057, 15021.311047233468, -187500.02235174447, 14628.099158775707, 41343.73114630355, 16372.183426878863, 26233.61661834915, 18215.285922919025, 36306.18438794427, 24264.4279318366, -21962.421770384524, 13760.046811109401, -0.03, 1.01, -0.176, 192.0, 0.0, 0.0, 0.0, 0.0, 0.0, 0.0, 0.0, 0.0, 0.0, 1.696016195213435E9, 0.0, 2023-09-29 14:36:35.213
170.0, 49394.49422293833, 47204.24678376279, 15523.30887595521, 21501.171171804806, 19073.01176464698, 15030.318800248957, -187500.02235174447, 14632.256583244394, 41339.95370149061, 16374.23978736875, 26352.326733151287, 18221.566763110968, 36313.024021747595, 24273.2792226409, -21953.145796435572, 13789.864038212781, -0.03, 1.01, -0.176, 192.0, 0.0, 0.0, 0.0, 0.0, 0.0, 0.0, 0.0, 0.0, 0.0, 1.696016195213446E9, 0.0, 2023-09-29 14:36:35.213
172.0, 49394.650685149514, 47208.6947809094, 15533.389512704554, 21509.01663410862, 19073.63761349173, 15031.771663638552, -187500.02235174447, 14633.240060000428, 41341.451268369114, 16366.260214598205, 26239.89745854109, 18216.22469618615, 36307.16786470031, 24269.345315616767, -21960.946555250473, 13763.936014644625, -0.034, 1.016, -0.17200000000000001, 192.0, 127.0, 120.0, 15.5, 96.0, 125.0, 80.0, 0.0, 0.0, 0.0, 1.696016195213457E9, 0.0, 2023-09-29 14:36:35.213
174.0, 49402.272630008774, 47191.99802780128, 15513.697625839428, 21484.474418696693, 19065.34511629881, 15020.171108266248, -187500.02235174447, 14621.885373817131, 41332.868198498276, 16357.14070286044, 26348.973971482992, 18211.642588572813, 36307.23491993367, 24267.04308593787, -21955.71624704793, 13789.573465534862, -0.034, 1.016, -0.17200000000000001, 192.0, 0.0, 0.0, 0.0, 0.0, 0.0, 0.0, 0.0, 0.0, 0.0, 1.696016195213467E9, 0.0, 2023-09-29 14:36:35.213
176.0, 49376.121088996064, 47190.61221964505, 15523.197117232934, 21489.950596088245, 19066.082723865835, 15023.568573423456, -187500.02235174447, 14626.288667474828, 41332.91290198718, 16354.726714459268, 26248.502880156386, 18197.35982386587, 36299.948251241236, 24265.836091737285, -21967.272098931327, 13750.77083716045, -0.034, 1.016, -0.17200000000000001, 192.0, 0.0, 0.0, 0.0, 0.0, 0.0, 0.0, 0.0, 0.0, 0.0, 1.696016195213476E9, 0.0, 2023-09-29 14:36:35.213
178.0, 49391.946124070426, 47181.24683871828, 15516.245724707333, 21485.949633830744, 19072.564729757873, 15028.150681036794, -187500.02235174447, 14630.893126832621, 41328.04022169593, 16345.89777539942, 26337.574581810783, 18198.522114577547, 36310.162998457316, 24262.103350413247, -21954.71041854744, 13786.220703866567, -0.034, 1.016, -0.17200000000000001, 192.0, 0.0, 0.0, 0.0, 0.0, 0.0, 0.0, 0.0, 0.0, 0.0, 1.696016195213485E9, 0.0, 2023-09-29 14:36:35.213
180.0, 49340.38064961203, 47164.63949258799, 15523.510041655309, 21495.136200801873, 19080.879578695247, 15035.25853577358, -187500.02235174447, 14638.269202502872, 41325.49212282802, 16345.316630043582, 26230.979112503424, 18192.21892264115, 36303.21160593171, 24268.406542349643, -21957.124406948617, 13753.900081384192, -0.034, 1.016, -0.17200000000000001, 192.0, 0.0, 0.0, 0.0, 0.0, 0.0, 0.0, 0.0, 0.0, 0.0, 1.696016195273762E9, 0.0, 2023-09-29 14:36:35.273
182.0, 49378.378615186055, 47144.12059117801, 15517.78799507475, 21479.6687936388, 19068.899043667203, 15018.919410576751, -187500.02235174447, 14625.104025018696, 41309.62238426476, 16321.735539643234, 26290.702973688007, 18185.84867547139, 36306.83258853347, 24254.54846078735, -21946.7308457769, 13789.752279490505, -0.03, 1.014, -0.168, 192.0, 127.5, 8.0, 15.5, 88.0, 125.0, 96.0, 0.0, 0.0, 0.0, 1.69601619527379E9, 0.0, 2023-09-29 14:36:35.273
184.0, 49302.56149799365, 47117.454960042836, 15517.586829374652, 21482.21689250671, 19072.16239835768, 15025.602582168887, -187500.02235174447, 14636.36930422417, 41303.27448883945, 16309.352673214993, 26239.919810285548, 18168.056686884964, 36291.11931218139, 24256.962449188526, -21960.074837216718, 13756.694049441106, -0.03, 1.014, -0.168, 192.0, 0.0, 0.0, 0.0, 0.0, 0.0, 0.0, 0.0, 0.0, 0.0, 1.696016195273805E9, 0.0, 2023-09-29 14:36:35.273
186.0, 49344.046335702704, 47097.785424922164, 15524.02413177778, 21469.834026078468, 19063.624031975753, 15014.06908202995, -187500.02235174447, 14627.182737253039, 41290.66810496666, 16290.286635194618, 26273.693296157515, 18166.78263745101, 36295.544957583545, 24248.312324084323, -21948.094302188674, 13784.812543965882, -0.03, 1.014, -0.168, 192.0, 0.0, 0.0, 0.0, 0.0, 0.0, 0.0, 0.0, 0.0, 0.0, 1.696016195273856E9, 0.0, 2023-09-29 14:36:35.273
188.0, 49268.13981153248, 47082.765052648196, 15512.200058960923, 21472.471531924195, 19065.501578509997, 15020.238163499615, -187500.02235174447, 14633.351818722704, 41287.80708167638, 16277.74730655519, 26233.37074916014, 18146.755474419057, 36282.7150562662, 24239.237515835466, -21971.876558289117, 13747.552185958886, -0.03, 1.014, -0.168, 192.0, 0.0, 0.0, 0.0, 0.0, 0.0, 0.0, 0.0, 0.0, 0.0, 1.696016195273872E9, 0.0, 2023-09-29 14:36:35.273
190.0, 49332.98222219732, 47081.781575892164, 15519.106747997612, 21469.67756386728, 19055.018610360457, 15011.92331456224, -187500.02235174447, 14624.99226629642, 41283.0461601074, 16272.561701841558, 26222.91013275506, 18155.40559952326, 36292.750989526634, 24238.857536179727, -21966.310973919746, 13772.809657193382, -0.03, 1.014, -0.168, 192.0, 0.0, 0.0, 0.0, 0.0, 0.0, 0.0, 0.0, 0.0, 0.0, 1.696016195273881E9, 0.0, 2023-09-29 14:36:35.273
192.0, 49266.26226499823, 47066.470630940275, 15494.229256418856, 21458.635802106357, 19054.23629930452, 15011.520983162045, -187500.02235174447, 14620.32075170526, 41276.161822815164, 16264.023335459631, 26228.67688282453, 18142.463939483638, 36278.64703877533, 24236.488251267463, -21981.01842177134, 13750.882595882726, -0.032, 1.016, -0.166, 192.0, 127.5, 0.0, 15.5, 96.0, 125.0, 104.0, 0.0, 0.0, 0.0, 1.69601619527389E9, 0.0, 2023-09-29 14:36:35.273
194.0, 49320.26407960225, 47087.101291072526, 15502.342939656131, 21458.00995326161, 19055.48799699402, 15010.850430828385, -187500.02235174447, 14620.767786594366, 41269.85863087876, 16262.704582536768, 26226.106432212167, 18147.64954419727, 36278.624687030875, 24231.03442562037, -21979.20793047046, 13763.53368324443, -0.032, 1.016, -0.166, 192.0, 0.0, 0.0, 0.0, 0.0, 0.0, 0.0, 0.0, 0.0, 0.0, 1.6960161952739E9, 0.0, 2023-09-29 14:36:35.273
196.0, 49247.59855837805, 47066.671796640374, 15481.935796968437, 21451.215022947195, 19057.924337139648, 15011.677445373232, -187500.02235174447, 14621.214821483472, 41273.03257859142, 16265.431495360315, 26258.29294422781, 18141.748683661066, 36270.19807937123, 24242.813794948317, -21987.299261963282, 13744.311183012866, -0.032, 1.016, -0.166, 192.0, 0.0, 0.0, 0.0, 0.0, 0.0, 0.0, 0.0, 0.0, 0.0, 1.696016195334143E9, 0.0, 2023-09-29 14:36:35.334
198.0, 49313.357390565565, 47072.93028508786, 15504.041672234736, 21455.953592771722, 19057.365543528264, 15009.174049994237, -187500.02235174447, 14622.824147084255, 41269.85863087876, 16256.490797578193, 26215.84698150718, 18145.79434940748, 36279.63051553137, 24238.14228035716, -21978.090343247695, 13759.398610520198, -0.032, 1.016, -0.166, 192.0, 0.0, 0.0, 0.0, 0.0, 0.0, 0.0, 0.0, 0.0, 0.0, 1.696016195334165E9, 0.0, 2023-09-29 14:36:35.334
200.0, 49235.550968116644, 47053.953654045305, 15479.186532400434, 21443.257801921107, 19065.926261654648, 15011.92331456224, -187500.02235174447, 14630.13316752114, 41272.943171613595, 16258.793027257088, 26262.96445881897, 18141.905145872253, 36279.02701843107, 24238.812832690815, -21976.54807288028, 13752.201348805589, -0.032, 1.016, -0.166, 192.0, 0.0, 0.0, 0.0, 0.0, 0.0, 0.0, 0.0, 0.0, 0.0, 1.696016195334175E9, 0.0, 2023-09-29 14:36:35.334
202.0, 49308.596468996584, 47080.529878202666, 15501.73944255584, 21451.304429925018, 19060.49478775201, 15005.933047048218, -187500.02235174447, 14624.209955240483, 41269.389244245205, 16257.474274334227, 26185.359202070144, 18144.520299973527, 36283.65382953332, 24234.767166944406, -21966.64625008658, 13758.303375041889, -0.036000000000000004, 1.012, -0.16, 192.0, 127.0, 112.0, 15.5, 80.0, 125.5, 0.0, 0.0, 0.0, 0.0, 1.696016195334184E9, 0.0, 2023-09-29 14:36:35.334
204.0, 49251.8230380801, 47085.02257883818, 15491.479991850852, 21457.272345694586, 19068.67552622265, 15023.903849590284, -187500.02235174447, 14641.554908937802, 41274.910125125665, 16271.108838451963, 26285.740886418927, 18149.392980264784, 36283.94440221124, 24245.406597305133, -21964.34402040768, 13764.539511744919, -0.036000000000000004, 1.012, -0.16, 192.0, 0.0, 0.0, 0.0, 0.0, 0.0, 0.0, 0.0, 0.0, 0.0, 1.696016195334194E9, 0.0, 2023-09-29 14:36:35.334
206.0, 49325.22616687133, 47119.399561810445, 15525.365236445099, 21485.659061152826, 19064.696915709606, 15034.587983439922, -187500.02235174447, 14640.392618226126, 41291.048084622395, 16292.521809640148, 26194.74693474137, 18172.482332287113, 36295.343791883446, 24266.014905692926, -21951.849395257163, 13770.552131003396, -0.036000000000000004, 1.012, -0.16, 192.0, 0.0, 0.0, 0.0, 0.0, 0.0, 0.0, 0.0, 0.0, 0.0, 1.696016195334203E9, 0.0, 2023-09-29 14:36:35.334
208.0, 49278.71218665984, 47102.72516044678, 15502.499401867319, 21470.72809585668, 19061.567671485864, 15023.278000745537, -187500.02235174447, 14632.234231499939, 41295.36197130227, 16296.7462893422, 26305.008090139403, 18175.49981778858, 36291.767512770595, 24269.23355689449, -21952.25172665736, 13793.283855114443, -0.036000000000000004, 1.012, -0.16, 192.0, 0.0, 0.0, 0.0, 0.0, 0.0, 0.0, 0.0, 0.0, 0.0, 1.696016195334245E9, 0.0, 2023-09-29 14:36:35.334
210.0, 49329.227129128834, 47114.12455011899, 15524.02413177778, 21473.38795344686, 19055.30918303838, 15002.87085805784, -187500.02235174447, 14618.443205171014, 41295.965468402566, 16294.756984085678, 26192.71292599594, 18173.778733465522, 36292.37100987089, 24264.964373703526, -21960.655982572556, 13773.100229871301, -0.036000000000000004, 1.012, -0.16, 192.0, 0.0, 0.0, 0.0, 0.0, 0.0, 0.0, 0.0, 0.0, 0.0, 1.696016195394432E9, 0.0, 2023-09-29 14:36:35.394
212.0, 49286.49059373028, 47109.117759361005, 15497.358500642598, 21463.329668441973, 19063.221700575556, 15009.73284360562, -187500.02235174447, 14629.932001821042, 41290.578697988836, 16285.950396770288, 26317.502715289917, 18164.25689032756, 36287.99006795765, 24251.061588652326, -21968.09911347617, 13781.124506130756, -0.036000000000000004, 1.012, -0.158, 192.0, 127.0, 112.0, 15.5, 80.0, 125.5, 8.0, 0.0, 0.0, 0.0, 1.696016195394459E9, 0.0, 2023-09-29 14:36:35.394
214.0, 49321.269908102746, 47128.340259592565, 15520.716073598394, 21473.34324995795, 19065.903909910194, 15011.342169206402, -187500.02235174447, 14630.759016365888, 41305.15203537369, 16302.93772255632, 26177.916071166524, 18178.383192823316, 36295.3661436279, 24260.114045156723, -21966.735657064397, 13753.609508706273, -0.036000000000000004, 1.012, -0.158, 192.0, 0.0, 0.0, 0.0, 0.0, 0.0, 0.0, 0.0, 0.0, 0.0, 1.69601619539447E9, 0.0, 2023-09-29 14:36:35.394
216.0, 49309.33407656361, 47117.119683876, 15493.49164885183, 21450.38800840235, 19062.327630797343, 15006.201267981682, -187500.02235174447, 14623.539402906825, 41299.429988793134, 16297.841524820511, 26304.31518606129, 18174.426934054725, 36290.918146481294, 24253.14030088667, -21965.953346008464, 13778.53170377394, -0.036000000000000004, 1.012, -0.158, 192.0, 0.0, 0.0, 0.0, 0.0, 0.0, 0.0, 0.0, 0.0, 0.0, 1.696016195394479E9, 0.0, 2023-09-29 14:36:35.394
218.0, 49321.78399822521, 47129.41314332642, 15507.170916458479, 21455.417150904796, 19068.362601800276, 15005.888343559307, -187500.02235174447, 14617.862059815177, 41299.295878326404, 16294.824039319044, 26209.633196548606, 18169.934233419208, 36285.8666522344, 24246.99357116146, -21978.35856418116, 13747.060447580869, -0.036000000000000004, 1.012, -0.158, 192.0, 0.0, 0.0, 0.0, 0.0, 0.0, 0.0, 0.0, 0.0, 0.0, 1.696016195394488E9, 0.0, 2023-09-29 14:36:35.394
220.0, 49321.33696333611, 47123.35582057903, 15495.123326197068, 21445.738845555647, 19067.803808188895, 15004.033148769517, -187500.02235174447, 14618.666722615568, 41307.051933652394, 16299.763774843666, 26316.139258878145, 18175.74568697759, 36292.4157133598, 24244.69134148256, -21970.11077047715, 13766.305299556889, -0.036000000000000004, 1.012, -0.158, 192.0, 0.0, 0.0, 0.0, 0.0, 0.0, 0.0, 0.0, 0.0, 0.0, 1.696016195394497E9, 0.0, 2023-09-29 14:36:35.394
222.0, 49320.75581798027, 47123.244061856756, 15506.92504726947, 21460.222775962684, 19073.659965236184, 15003.988445280605, -187500.02235174447, 14621.03600752783, 41312.572814532854, 16305.08349002403, 26196.311556853245, 18167.944928162688, 36294.44972210524, 24252.69326599756, -21976.436314158003, 13733.068255551847, -0.034, 1.008, -0.152, 192.0, 127.0, 120.0, 15.5, 64.0, 125.5, 32.0, 0.0, 0.0, 0.0, 1.696016195394509E9, 0.0, 2023-09-29 14:36:35.394
224.0, 49337.117294921554, 47113.36459080751, 15490.138887183535, 21445.425921133272, 19069.90487216769, 15003.072023757939, -187500.02235174447, 14621.013655783376, 41302.313363827874, 16295.60635037498, 26309.053755885812, 18168.34725956288, 36295.7684750281, 24245.160728116123, -21961.72886630641, 13771.58031124834, -0.034, 1.008, -0.152, 192.0, 0.0, 0.0, 0.0, 0.0, 0.0, 0.0, 0.0, 0.0, 0.0, 1.696016195394518E9, 0.0, 2023-09-29 14:36:35.394
226.0, 49323.43802731491, 47116.672648986896, 15498.364329143087, 21456.780607316567, 19066.954441899594, 15000.456869656668, -187500.02235174447, 14621.147766250107, 41301.35223881629, 16294.667577107857, 26226.732281056917, 18157.350201290872, 36286.02311444558, 24246.837108950273, -21969.194348954483, 13745.451121980086, -0.034, 1.008, -0.152, 192.0, 0.0, 0.0, 0.0, 0.0, 0.0, 0.0, 0.0, 0.0, 0.0, 1.696016195453847E9, 0.0, 2023-09-29 14:36:35.453
228.0, 49349.924844494446, 47123.89226244596, 15502.16412570049, 21462.86028180841, 19073.794075702917, 15011.029244784027, -187500.02235174447, 14630.781368110343, 41297.46303528107, 16299.763774843666, 26329.572657295783, 18165.620346739335, 36292.90745173782, 24251.799196219352, -21952.67640980201, 13784.521971287963, -0.034, 1.008, -0.152, 192.0, 0.0, 0.0, 0.0, 0.0, 0.0, 0.0, 0.0, 0.0, 0.0, 1.69601619545387E9, 0.0, 2023-09-29 14:36:35.453
230.0, 49322.36514358105, 47131.11187590502, 15515.59752411813, 21481.34517447295, 19075.67162223716, 15017.935933820718, -187500.02235174447, 14633.307115233794, 41310.67291625415, 16312.839545350022, 26238.8916300406, 18172.92936717622, 36292.37100987089, 24264.293821369865, -21951.089435945683, 13759.689183198117, -0.034, 1.008, -0.152, 192.0, 0.0, 0.0, 0.0, 0.0, 0.0, 0.0, 0.0, 0.0, 0.0, 1.696016195453913E9, 0.0, 2023-09-29 14:36:35.453
232.0, 49379.429147175455, 47153.82124827162, 15524.001780033324, 21482.909796584823, 19078.666755994174, 15019.455852443678, -187500.02235174447, 14634.692923390023, 41312.08107615484, 16315.298237240106, 26308.78553495235, 18183.725259748135, 36300.797617530545, 24259.577603289796, -21935.264400871325, 13800.34700636232, -0.03, 1.002, -0.158, 192.0, 127.5, 8.0, 15.5, 40.0, 125.5, 8.0, 0.0, 0.0, 0.0, 1.696016195453923E9, 0.0, 2023-09-29 14:36:35.453
234.0, 49349.075478205144, 47159.96797799683, 15523.39828293303, 21481.993375062153, 19071.134218112733, 15014.918448319251, -187500.02235174447, 14631.608382655191, 41323.74868676051, 16327.144661801418, 26263.478548941443, 18187.569759794445, 36305.245614677144, 24267.624231293707, -21942.10403467465, 13776.318881072866, -0.03, 1.002, -0.158, 192.0, 0.0, 0.0, 0.0, 0.0, 0.0, 0.0, 0.0, 0.0, 0.0, 1.696016195453933E9, 0.0, 2023-09-29 14:36:35.453
236.0, 49413.42615049198, 47169.48982113479, 15522.705378854916, 21478.148875015842, 19060.785360429927, 15008.749366849586, -187500.02235174447, 14624.500527918402, 41321.6029192928, 16323.255458266194, 26316.496886789428, 18201.629007056836, 36305.44678037724, 24263.824434736307, -21948.13900567758, 13802.78334650795, -0.03, 1.002, -0.158, 192.0, 0.0, 0.0, 0.0, 0.0, 0.0, 0.0, 0.0, 0.0, 0.0, 1.696016195453942E9, 0.0, 2023-09-29 14:36:35.453
238.0, 49355.89276026401, 47174.76483282624, 15509.696663581928, 21475.913700570312, 19069.1002093673, 15019.053521043483, -187500.02235174447, 14630.915478577075, 41334.388117121234, 16339.32636252956, 26302.459991271495, 18199.684405289223, 36301.915204753306, 24271.558138317843, -21968.277927431816, 13769.591005991819, -0.03, 1.002, -0.158, 192.0, 0.0, 0.0, 0.0, 0.0, 0.0, 0.0, 0.0, 0.0, 0.0, 1.696016195453951E9, 0.0, 2023-09-29 14:36:35.453
240.0, 49419.0140866058, 47186.208925987354, 15514.949323528925, 21471.644517379347, 19069.390782045222, 15009.4422709277, -187500.02235174447, 14624.679341874045, 41337.31619564488, 16337.270002039671, 26309.16551460809, 18205.071175702953, 36308.17369320079, 24278.487179098986, -21961.952383750962, 13791.093384157824, -0.03, 1.002, -0.158, 192.0, 0.0, 0.0, 0.0, 0.0, 0.0, 0.0, 0.0, 0.0, 0.0, 1.696016195513486E9, 0.0, 2023-09-29 14:36:35.513
242.0, 49348.36022238257, 47174.7871845707, 15495.749175041818, 21470.01284003411, 19075.135180370235, 15009.621084883343, -187500.02235174447, 14629.306152976294, 41343.217056181085, 16338.27583054016, 26305.29866281732, 18192.308329618972, 36308.24074843416, 24281.594071578274, -21976.34690718018, 13760.851473909794, -0.032, 1.004, -0.158, 192.0, 127.5, 0.0, 15.5, 48.0, 125.5, 8.0, 0.0, 0.0, 0.0, 1.696016195513514E9, 0.0, 2023-09-29 14:36:35.513
244.0, 49417.60592670512, 47183.10203350807, 15508.064986236692, 21472.270366224097, 19071.380087301743, 15003.541410391499, -187500.02235174447, 14621.70655986149, 41333.762268276485, 16336.37593226146, 26295.82152316827, 18196.398698854293, 36306.18438794427, 24273.45803659654, -21965.01457274134, 13784.074936398858, -0.032, 1.004, -0.158, 192.0, 0.0, 0.0, 0.0, 0.0, 0.0, 0.0, 0.0, 0.0, 0.0, 1.696016195513525E9, 0.0, 2023-09-29 14:36:35.513
246.0, 49340.559463567675, 47169.15454496796, 15492.418765117976, 21472.270366224097, 19077.92914842715, 15015.700759375188, -187500.02235174447, 14638.626830414158, 41335.572759577364, 16343.95317363181, 26337.373416110688, 18190.7437075071, 36300.70821055272, 24271.692248784573, -21972.122427478127, 13763.287814055422, -0.032, 1.004, -0.158, 192.0, 0.0, 0.0, 0.0, 0.0, 0.0, 0.0, 0.0, 0.0, 0.0, 1.696016195513534E9, 0.0, 2023-09-29 14:36:35.513
248.0, 49421.226909306875, 47185.56072539815, 15522.280695710266, 21492.789267634067, 19072.34121231332, 15014.046730285494, -187500.02235174447, 14636.749283879912, 41337.78558227844, 16357.453627282815, 26276.48726421443, 18207.708681548676, 36315.08038223748, 24284.85742626875, -21951.24589815687, 13782.77853522045, -0.032, 1.004, -0.158, 192.0, 0.0, 0.0, 0.0, 0.0, 0.0, 0.0, 0.0, 0.0, 0.0, 1.696016195513543E9, 0.0, 2023-09-29 14:36:35.513
250.0, 49355.87040851956, 47169.95920776835, 15504.913390268493, 21492.67750891179, 19069.524892511952, 15025.490823446611, -187500.02235174447, 14643.298345005316, 41334.90220724371, 16359.66644998389, 26369.738742081972, 18199.88557098932, 36308.50896936762, 24276.229652909, -21952.028209212807, 13788.053546911902, -0.032, 1.004, -0.158, 192.0, 0.0, 0.0, 0.0, 0.0, 0.0, 0.0, 0.0, 0.0, 0.0, 1.696016195513552E9, 0.0, 2023-09-29 14:36:35.513
252.0, 49417.69533368294, 47197.42950170392, 15534.149472016034, 21513.866962655422, 19069.547244256406, 15024.395587968302, -187500.02235174447, 14637.665705402578, 41341.22775092456, 16373.546883290635, 26281.44935148351, 18208.558047837978, 36316.75676307163, 24278.86715875473, -21940.025322440306, 13786.377166077753, -0.036000000000000004, 1.008, -0.158, 192.0, 127.0, 112.0, 15.5, 64.0, 125.5, 8.0, 0.0, 0.0, 0.0, 1.696016195513591E9, 0.0, 2023-09-29 14:36:35.513
