%OpenBCI Raw EXG Data
%Number of channels = 16
%Sample Rate = 125 Hz
%Board = OpenBCI_GUI$BoardCytonSerialDaisy
Sample Index, EXG Channel 0, EXG Channel 1, EXG Channel 2, EXG Channel 3, EXG Channel 4, EXG Channel 5, EXG Channel 6, EXG Channel 7, EXG Channel 8, EXG Channel 9, EXG Channel 10, EXG Channel 11, EXG Channel 12, EXG Channel 13, EXG Channel 14, EXG Channel 15, Accel Channel 0, Accel Channel 1, Accel Channel 2, Other, Other, Other, Other, Other, Other, Other, Analog Channel 0, Analog Channel 1, Analog Channel 2, Timestamp, Other, Timestamp (Formatted)
102.0, 1507.669866999372, 20817.967750783893, 29329.08735622017, -10557.33240334182, 28825.7037193422, 27661.91544078773, -187500.02235174447, 46068.800517177646, 12587.63075919518, -25040.279333624763, -11983.08312691249, 5432.256213695552, 10297.51572579333, -187500.02235174447, 13157.667298038878, -32845.12851776225, 0.0, 0.0, 0.0, 192.0, 0.0, 0.0, 0.0, 0.0, 0.0, 0.0, 0.0, 0.0, 0.0, 1.6959351611883416E9, 0.0, 2023-09-28 16:06:01.188
104.0, 1548.506504119218, 20870.248481064857, 28941.932790509796, -10518.954458112057, 28873.268231543094, 27570.83208213235, -187500.02235174447, 45743.046193486, 12641.409056354649, -25019.313397325684, -11954.204673076234, 5421.326210656906, 10319.174566170523, -187500.02235174447, 13057.710296834744, -32907.825160959386, 0.067, 0.498, 0.068, 192.0, 2.0, 24.0, 15.5, 16.0, 2.0, 32.0, 0.0, 0.0, 0.0, 1.695935161188371E9, 0.0, 2023-09-28 16:06:01.188
106.0, 1496.6951604718163, 20807.440079145443, 29346.94640003996, -10557.824141719835, 28826.106050742397, 27670.52086240302, -187500.02235174447, 46085.07258714111, 12578.77946839088, -25041.173403402976, -11977.763411732127, 5436.391286419784, 10289.625560000606, -187500.02235174447, 13119.065835364561, -32876.08568383285, 0.067, 0.498, 0.068, 192.0, 0.0, 0.0, 0.0, 0.0, 0.0, 0.0, 0.0, 0.0, 0.0, 1.6959351611883912E9, 0.0, 2023-09-28 16:06:01.188
108.0, 1537.2635766581986, 20882.720754470916, 28927.337101380483, -10512.874783620213, 28886.72398170519, 27547.519212665466, -187500.02235174447, 45723.10843743187, 12639.553861564858, -25022.66615899398, -11952.260071308621, 5420.49919611206, 10308.669246276528, -187500.02235174447, 13090.299140250581, -32868.01670408448, 0.067, 0.498, 0.068, 192.0, 0.0, 0.0, 0.0, 0.0, 0.0, 0.0, 0.0, 0.0, 0.0, 1.695935161188411E9, 0.0, 2023-09-28 16:06:01.188
110.0, 1501.7690064631709, 20832.339922468655, 29349.963885541427, -10534.243051319487, 28846.401434707815, 27692.358516735854, -187500.02235174447, 46072.60031373505, 12604.573381492304, -25011.57969374415, -11956.88688241087, 5452.0151557940435, 10313.966609712435, -187500.02235174447, 13055.385715411392, -32951.500469625054, 0.067, 0.498, 0.068, 192.0, 0.0, 0.0, 0.0, 0.0, 0.0, 0.0, 0.0, 0.0, 0.0, 1.6959351611884296E9, 0.0, 2023-09-28 16:06:01.188
112.0, 1543.0973819610338, 20854.714018668416, 28949.331217924504, -10519.446196490073, 28883.393571781347, 27544.859355075285, -187500.02235174447, 45736.98887073861, 12622.8794602012, -25032.94796144342, -11967.74983021615, 5423.807254291446, 10293.112432135635, -187500.02235174447, 13125.659599978877, -32850.22471549806, 0.067, 0.498, 0.068, 192.0, 0.0, 0.0, 0.0, 0.0, 0.0, 0.0, 0.0, 0.0, 0.0, 1.6959351611884506E9, 0.0, 2023-09-28 16:06:01.188
114.0, 1479.0149306076682, 20785.3565556236, 29379.91522311154, -10551.163321872154, 28826.12840248685, 27703.91436861925, -187500.02235174447, 46101.74698850477, 12587.63075919518, -25020.967426415376, -11968.018051149613, 5449.17648424822, 10309.764481754837, -187500.02235174447, 13042.824035027508, -32978.30021122697, 0.1015, 0.747, 0.10400000000000001, 192.0, 2.0, 32.0, 15.5, 16.0, 2.0, 48.0, 0.0, 0.0, 0.0, 1.6959351611884706E9, 0.0, 2023-09-28 16:06:01.188
116.0, 1541.2645389156985, 20861.374838516098, 28953.555697626558, -10527.626934960716, 28885.584042737966, 27528.16260196717, -187500.02235174447, 45747.360080165876, 12604.483974514482, -25053.645676809036, -11987.397013592365, 5400.695550524659, 10284.708176220438, -187500.02235174447, 13198.28041771417, -32765.5339557569, 0.1015, 0.747, 0.10400000000000001, 192.0, 0.0, 0.0, 0.0, 0.0, 0.0, 0.0, 0.0, 0.0, 0.0, 1.695935161188492E9, 0.0, 2023-09-28 16:06:01.188
118.0, 1478.567895718562, 20801.248645931322, 29335.926990023494, -10537.931089154612, 28839.18182124875, 27715.53727573601, -187500.02235174447, 46061.91617988541, 12608.417881538617, -25009.791554187723, -11955.791646932561, 5451.74693486058, 10318.392255114586, -187500.02235174447, 12985.961197133209, -33026.40116529479, 0.1015, 0.747, 0.10400000000000001, 192.0, 0.0, 0.0, 0.0, 0.0, 0.0, 0.0, 0.0, 0.0, 0.0, 1.69593516118851E9, 0.0, 2023-09-28 16:06:01.188
120.0, 1537.1965214248326, 20870.539053742774, 28996.582805703023, -10543.18374910161, 28873.290583287548, 27535.11399449277, -187500.02235174447, 45784.79925212851, 12592.01170110842, -25053.75743553131, -11989.922760715815, 5397.476899323095, 10274.024042370802, -187500.02235174447, 13219.201650524337, -32750.3794730162, 0.1015, 0.747, 0.10400000000000001, 192.0, 0.0, 0.0, 0.0, 0.0, 0.0, 0.0, 0.0, 0.0, 0.0, 1.6959351611885278E9, 0.0, 2023-09-28 16:06:01.188
122.0, 1496.0469598826123, 20805.987215755846, 29302.667594273997, -10532.253746062965, 28845.194440507228, 27717.325415292435, -187500.02235174447, 46029.77437135868, 12604.64043672567, -25010.37269954356, -11960.574920245996, 5440.325193443918, 10313.161946912045, -187500.02235174447, 12978.160438318306, -33030.849162441395, 0.1015, 0.747, 0.10400000000000001, 192.0, 0.0, 0.0, 0.0, 0.0, 0.0, 0.0, 0.0, 0.0, 0.0, 1.6959351611885457E9, 0.0, 2023-09-28 16:06:01.188
124.0, 1547.6571378299163, 20844.432216218975, 29042.448585325314, -10556.460685308062, 28863.32170526048, 27536.455099160088, -187500.02235174447, 45819.89149092335, 12584.21094229352, -25059.01009547831, -12001.56801957703, 5396.605181289337, 10275.566312738218, -187500.02235174447, 13249.711781705832, -32721.702184880043, 0.11675, 0.8714999999999999, 0.12100000000000001, 192.0, 2.0, 16.0, 15.5, 16.0, 2.0, 40.0, 0.0, 0.0, 0.0, 1.6959351611885653E9, 0.0, 2023-09-28 16:06:01.188
126.0, 1476.8915148844142, 20790.184532425945, 29265.206070566903, -10542.781417701413, 28841.08171952745, 27691.799723124474, -187500.02235174447, 45996.29145816463, 12605.959189648533, -25023.560228772192, -11966.721649971207, 5425.662449081236, 10297.269856604322, -187500.02235174447, 12976.506409228614, -33018.131019846325, 0.11675, 0.8714999999999999, 0.12100000000000001, 192.0, 0.0, 0.0, 0.0, 0.0, 0.0, 0.0, 0.0, 0.0, 0.0, 1.6959351611885917E9, 0.0, 2023-09-28 16:06:01.188
128.0, 1520.991506694735, 20851.450663977943, 29073.271640929182, -10562.987394689011, 28859.47720521417, 27540.54546839541, -187500.02235174447, 45836.02945042008, 12574.376174733183, -25059.792406534245, -12006.284237657099, 5396.381663844784, 10268.681975445983, -187500.02235174447, 13268.733116237298, -32688.442789130546, 0.11675, 0.8714999999999999, 0.12100000000000001, 192.0, 0.0, 0.0, 0.0, 0.0, 0.0, 0.0, 0.0, 0.0, 0.0, 1.695935161188609E9, 0.0, 2023-09-28 16:06:01.188
130.0, 1498.8409279395257, 20811.01635825829, 29197.16736044495, -10533.46074026355, 28853.41988246678, 27681.67438288622, -187500.02235174447, 45932.61133821146, 12618.677332243602, -25015.267731579275, -11959.636146978874, 5434.737257330091, 10318.459310347953, -187500.02235174447, 12946.242147236127, -33030.558589763474, 0.11675, 0.8714999999999999, 0.12100000000000001, 192.0, 0.0, 0.0, 0.0, 0.0, 0.0, 0.0, 0.0, 0.0, 0.0, 1.6959351611886263E9, 0.0, 2023-09-28 16:06:01.188
132.0, 1498.5280035171513, 20829.769471856293, 29110.33083323608, -10569.625862792238, 28848.61425740889, 27561.578459927856, -187500.02235174447, 45879.36948291892, 12556.67359312458, -25056.171423932487, -11998.036443953091, 5403.958905215133, 10269.307824290732, -187500.02235174447, 13252.304584062647, -32703.641975360155, 0.11675, 0.8714999999999999, 0.12100000000000001, 192.0, 0.0, 0.0, 0.0, 0.0, 0.0, 0.0, 0.0, 0.0, 0.0, 1.695935161188644E9, 0.0, 2023-09-28 16:06:01.188
134.0, 1466.542657201607, 20798.231160429856, 29136.415319015425, -10532.969001885534, 28845.730882374155, 27667.279859457, -187500.02235174447, 45899.64251513988, 12612.128271118198, -25020.67685373746, -11970.454391295241, 5419.8509955228565, 10292.754804224349, -187500.02235174447, 12950.623089149367, -33016.9910808791, 0.12037500000000001, 0.93475, 0.1285, 192.0, 1.5, 112.0, 15.5, 24.0, 2.0, 32.0, 0.0, 0.0, 0.0, 1.6959351611886675E9, 0.0, 2023-09-28 16:06:01.188
136.0, 1520.1421404054333, 20825.50028866533, 29154.96726691333, -10565.580197045827, 28846.446138196727, 27575.99533510153, -187500.02235174447, 45929.97383236574, 12553.097314011731, -25064.91095601451, -12014.777900550116, 5394.0794341658875, 10269.173713824, -187500.02235174447, 13267.324956336613, -32684.486530361955, 0.12037500000000001, 0.93475, 0.1285, 192.0, 0.0, 0.0, 0.0, 0.0, 0.0, 0.0, 0.0, 0.0, 0.0, 1.6959351611886864E9, 0.0, 2023-09-28 16:06:01.188
138.0, 1516.6776200148608, 20840.632419661575, 29081.295917188636, -10514.17118479862, 28869.535490219056, 27653.89116452827, -187500.02235174447, 45857.93415998628, 12629.897907960167, -25011.780859444247, -11964.866455181414, 5422.175576946209, 10320.806243515759, -187500.02235174447, 12952.590042661435, -33004.04942083948, 0.12037500000000001, 0.93475, 0.1285, 192.0, 0.0, 0.0, 0.0, 0.0, 0.0, 0.0, 0.0, 0.0, 0.0, 1.6959351611887069E9, 0.0, 2023-09-28 16:06:01.188
140.0, 1523.7407712627378, 20838.307838238223, 29209.773744317743, -10549.129313126721, 28857.28673425755, 27611.847533207838, -187500.02235174447, 45968.08355666203, 12569.883474097667, -25040.279333624763, -12001.433909110297, 5413.190175675175, 10283.903513420048, -187500.02235174447, 13227.337685506069, -32731.179324529094, 0.12037500000000001, 0.93475, 0.1285, 192.0, 0.0, 0.0, 0.0, 0.0, 0.0, 0.0, 0.0, 0.0, 0.0, 1.6959351611887252E9, 0.0, 2023-09-28 16:06:01.188
142.0, 1493.6106197369838, 20824.181535742468, 29048.95294296181, -10510.281981263397, 28864.841623883443, 27639.34017888787, -187500.02235174447, 45822.707810724714, 12625.181689880097, -25011.155010599497, -11960.731382457183, 5421.773245546013, 10308.937467209991, -187500.02235174447, 12972.460743482203, -32985.273955497025, 0.12037500000000001, 0.93475, 0.1285, 192.0, 0.0, 0.0, 0.0, 0.0, 0.0, 0.0, 0.0, 0.0, 0.0, 1.695935161188742E9, 0.0, 2023-09-28 16:06:01.188
144.0, 1491.442500524819, 20819.957056040414, 29273.900899160017, -10552.415019561651, 28840.589981149435, 27630.734757272574, -187500.02235174447, 46018.57614738657, 12556.137151257653, -25036.010150433798, -11993.163763661834, 5423.650792080259, 10275.275740060299, -187500.02235174447, 13224.297848260147, -32735.649673420154, 0.1221875, 0.968375, 0.13525, 192.0, 1.5, 112.0, 15.5, 40.0, 2.0, 56.0, 0.0, 0.0, 0.0, 1.69593516118876E9, 0.0, 2023-09-28 16:06:01.188
146.0, 1529.6639835433941, 20865.666373451517, 28995.08523882452, -10503.59880967126, 28887.841568927954, 27612.093402396848, -187500.02235174447, 45764.88384781883, 12633.049503928365, -25001.253187805796, -11946.023934605591, 5432.613841606837, 10325.634220318107, -187500.02235174447, 12999.439299039757, -32942.71623405412, 0.1221875, 0.968375, 0.13525, 192.0, 0.0, 0.0, 0.0, 0.0, 0.0, 0.0, 0.0, 0.0, 0.0, 1.695935161188777E9, 0.0, 2023-09-28 16:06:01.188
148.0, 1532.1897306668438, 20824.06977702019, 29320.90661774953, -10558.002955675478, 28841.484050927647, 27655.075806984405, -187500.02235174447, 46038.7150691408, 12552.739686100447, -25029.215220119386, -11987.08408916999, 5430.959812517144, 10293.313597835731, -187500.02235174447, 13168.46319061079, -32805.70004054309, 0.1221875, 0.968375, 0.13525, 192.0, 0.0, 0.0, 0.0, 0.0, 0.0, 0.0, 0.0, 0.0, 0.0, 1.6959351611887949E9, 0.0, 2023-09-28 16:06:01.188
150.0, 1537.1741696803774, 20855.31751576871, 28975.92979382632, -10519.401493001164, 28877.135083333862, 27586.299489295423, -187500.02235174447, 45744.61081559787, 12653.836626271801, -25018.352272314107, -11966.095801126457, 5420.901527512256, 10314.123071923623, -187500.02235174447, 13032.944563978263, -32917.99520468655, 0.1221875, 0.968375, 0.13525, 192.0, 0.0, 0.0, 0.0, 0.0, 0.0, 0.0, 0.0, 0.0, 0.0, 1.6959351611888137E9, 0.0, 2023-09-28 16:06:01.188
152.0, 1484.96049463278, 20807.998872756823, 29348.443966918465, -10565.088458667811, 28830.017606022073, 27667.57043213492, -187500.02235174447, 46060.57507521809, 12578.980634090976, -25031.539801542738, -11978.99275767717, 5431.02686775051, 10292.79950771326, -187500.02235174447, 13135.002629161196, -32844.65913112869, 0.1221875, 0.968375, 0.13525, 192.0, 0.0, 0.0, 0.0, 0.0, 0.0, 0.0, 0.0, 0.0, 0.0, 1.695935161188832E9, 0.0, 2023-09-28 16:06:01.188
154.0, 1533.1285039339668, 20856.74802741385, 28953.645104604377, -10534.868900164236, 28864.77456865008, 27550.49199467802, -187500.02235174447, 45727.981117723124, 12611.837698440278, -25038.893525468535, -11969.336804072476, 5400.695550524659, 10298.74507173837, -187500.02235174447, 13075.34582320998, -32862.13819529274, 0.12509375, 0.9831875, 0.141625, 192.0, 2.0, 0.0, 15.5, 24.0, 2.0, 80.0, 0.0, 0.0, 0.0, 1.6959351611888509E9, 0.0, 2023-09-28 16:06:01.188
156.0, 1494.4152825373749, 20830.998817801337, 29362.43615894749, -10563.054449922378, 28821.903922784797, 27672.71133335964, -187500.02235174447, 46069.716938700316, 12563.312061227807, -25027.404728818507, -11977.674004754306, 5426.1318357147975, 10291.74897572386, -187500.02235174447, 13109.231067804227, -32859.277172002454, 0.12509375, 0.9831875, 0.141625, 192.0, 0.0, 0.0, 0.0, 0.0, 0.0, 0.0, 0.0, 0.0, 0.0, 1.6959351611888683E9, 0.0, 2023-09-28 16:06:01.188
158.0, 1521.863224728492, 20840.45360570593, 28948.43714814629, -10542.9378799126, 28863.433463982758, 27534.93518053713, -187500.02235174447, 45729.746905535096, 12611.278904828896, -25035.496060311325, -11978.188094876778, 5399.801480746446, 10285.468135531919, -187500.02235174447, 13121.435120276825, -32797.29578462789, 0.12509375, 0.9831875, 0.141625, 192.0, 0.0, 0.0, 0.0, 0.0, 0.0, 0.0, 0.0, 0.0, 0.0, 1.6959351611888864E9, 0.0, 2023-09-28 16:06:01.188
160.0, 1512.6766577573608, 20813.206829214912, 29337.826888302196, -10547.519987525939, 28843.6074666509, 27696.44888597118, -187500.02235174447, 46060.97740661829, 12571.291633998351, -25015.96063565739, -11987.106440914446, 5445.98018479111, 10302.298999106766, -187500.02235174447, 13067.008622528152, -32885.94280313764, 0.12509375, 0.9831875, 0.141625, 192.0, 0.0, 0.0, 0.0, 0.0, 0.0, 0.0, 0.0, 0.0, 0.0, 1.695935161188903E9, 0.0, 2023-09-28 16:06:01.188
162.0, 1551.6804518318716, 20873.31067005523, 28933.68499680579, -10535.874728664725, 28875.704571688722, 27541.283075962434, -187500.02235174447, 45725.053039199476, 12627.796843981367, -25017.413499046983, -11972.60015876295, 5425.461283381139, 10292.866562946625, -187500.02235174447, 13123.402073788891, -32792.22193863654, 0.12509375, 0.9831875, 0.141625, 192.0, 0.0, 0.0, 0.0, 0.0, 0.0, 0.0, 0.0, 0.0, 0.0, 1.6959351611889207E9, 0.0, 2023-09-28 16:06:01.188
164.0, 1483.5523347320957, 20791.97267198237, 29347.61695237362, -10564.373202845241, 28819.221713450162, 27701.00864184006, -187500.02235174447, 46079.68581672738, 12574.040898566354, -25024.81192646169, -11991.599141549963, 5433.194986962675, 10281.310711063232, -187500.02235174447, 13020.00290393864, -32942.76093754303, 0.130546875, 0.9905937499999999, 0.1418125, 192.0, 2.0, 32.0, 15.5, 24.0, 2.0, 56.0, 0.0, 0.0, 0.0, 1.6959351611889405E9, 0.0, 2023-09-28 16:06:01.188
166.0, 1518.8457392270254, 20827.042559032747, 28959.791834329586, -10556.036002163411, 28863.075836071475, 27521.92646526414, -187500.02235174447, 45760.838182072424, 12570.263453753407, -25058.518357100293, -12007.46888011323, 5389.273809107996, 10269.665452202016, -187500.02235174447, 13194.592379879045, -32711.778010341885, 0.130546875, 0.9905937499999999, 0.1418125, 192.0, 0.0, 0.0, 0.0, 0.0, 0.0, 0.0, 0.0, 0.0, 0.0, 1.6959351611889627E9, 0.0, 2023-09-28 16:06:01.188
168.0, 1470.2083432922773, 20792.15148593801, 29319.94549273795, -10539.56276649985, 28839.89707707132, 27705.72485992013, -187500.02235174447, 46051.23204603577, 12583.49568647095, -25022.509696782792, -11970.767315717616, 5433.463207896139, 10310.300923621766, -187500.02235174447, 12993.829011181477, -32953.75799581504, 0.130546875, 0.9905937499999999, 0.1418125, 192.0, 0.0, 0.0, 0.0, 0.0, 0.0, 0.0, 0.0, 0.0, 0.0, 1.6959351611889834E9, 0.0, 2023-09-28 16:06:01.188
170.0, 1517.0128961816904, 20860.480768737885, 28997.901558625887, -10557.175941130632, 28864.349885505428, 27525.569799610355, -187500.02235174447, 45783.97223758367, 12569.212921764009, -25063.659258325013, -12004.451394611764, 5387.060986406921, 10263.719888176905, -187500.02235174447, 13229.662266929421, -32675.32231513528, 0.130546875, 0.9905937499999999, 0.1418125, 192.0, 0.0, 0.0, 0.0, 0.0, 0.0, 0.0, 0.0, 0.0, 0.0, 1.695935161189001E9, 0.0, 2023-09-28 16:06:01.189
172.0, 1485.2734190551544, 20795.68306156195, 29277.87950967306, -10541.015629889445, 28840.925257316263, 27702.260339529555, -187500.02235174447, 46008.71902808178, 12599.9242186456, -25006.170571585964, -11970.521446528608, 5430.915109028234, 10305.540002052785, -187500.02235174447, 12964.056487567006, -32979.79777810547, 0.130546875, 0.9905937499999999, 0.1418125, 192.0, 0.0, 0.0, 0.0, 0.0, 0.0, 0.0, 0.0, 0.0, 0.0, 1.695935161189018E9, 0.0, 2023-09-28 16:06:01.189
174.0, 1515.2247566252659, 20837.21260275991, 29036.74889048921, -10572.062202937866, 28854.179841778263, 27538.31029394988, -187500.02235174447, 45821.389057801855, 12549.610441876703, -25056.48434835486, -12018.354179662965, 5389.765547486013, 10267.542036478762, -187500.02235174447, 13243.073313602605, -32665.778120252864, 0.1322734375, 0.991296875, 0.14390625, 192.0, 2.0, 24.0, 15.5, 0.0, 2.0, 72.0, 0.0, 0.0, 0.0, 1.695935161189034E9, 0.0, 2023-09-28 16:06:01.189
176.0, 1505.3005820871094, 20832.65284689103, 29233.533648673732, -10538.80280718837, 28844.054501540006, 27704.71903141964, -187500.02235174447, 45976.443109088315, 12596.817326166312, -25016.47472577986, -11972.443696551765, 5433.418504407228, 10297.94040893798, -187500.02235174447, 12960.346097987425, -32975.64035363679, 0.1322734375, 0.991296875, 0.14390625, 192.0, 0.0, 0.0, 0.0, 0.0, 0.0, 0.0, 0.0, 0.0, 0.0, 1.6959351611890528E9, 0.0, 2023-09-28 16:06:01.189
178.0, 1534.0672772010896, 20859.430236748485, 29071.394094394935, -10558.89702545369, 28854.91744934529, 27570.83208213235, -187500.02235174447, 45855.430764607285, 12565.636642651158, -25045.129662171563, -12007.75945279115, 5411.245573907563, 10257.483751473876, -187500.02235174447, 13254.427999785901, -32646.756785721398, 0.1322734375, 0.991296875, 0.14390625, 192.0, 0.0, 0.0, 0.0, 0.0, 0.0, 0.0, 0.0, 0.0, 0.0, 1.6959351611890693E9, 0.0, 2023-09-28 16:06:01.189
180.0, 1517.2587653706987, 20823.84625957564, 29168.28890660869, -10528.521004738928, 28847.76489111959, 27706.820095398438, -187500.02235174447, 45927.313974775556, 12598.761927933923, -25002.661347706482, -11964.821751692505, 5443.02975452301, 10292.643045502073, -187500.02235174447, 12932.719341840666, -32991.75596138906, 0.1322734375, 0.991296875, 0.14390625, 192.0, 0.0, 0.0, 0.0, 0.0, 0.0, 0.0, 0.0, 0.0, 0.0, 1.6959351611890864E9, 0.0, 2023-09-28 16:06:01.189
182.0, 1520.7232857612714, 20851.003629088835, 29115.6729001609, -10557.488865553007, 28851.877612099364, 27590.434562019655, -187500.02235174447, 45896.401512193865, 12559.691078626047, -25039.653484780014, -11998.014092208636, 5418.331076899895, 10266.26798704481, -187500.02235174447, 13232.724455919797, -32674.450597101524, 0.1322734375, 0.991296875, 0.14390625, 192.0, 0.0, 0.0, 0.0, 0.0, 0.0, 0.0, 0.0, 0.0, 0.0, 1.6959351611891043E9, 0.0, 2023-09-28 16:06:01.189
184.0, 1503.4677390417742, 20829.97063755639, 29108.27447274619, -10522.642495947182, 28855.56564993449, 27686.032973055004, -187500.02235174447, 45881.55995387554, 12612.731768218491, -25002.393126773015, -11958.362097544921, 5437.844149809379, 10288.127993122102, -187500.02235174447, 12923.532774869534, -33005.32347027343, 0.13213671875, 0.9936484375, 0.141953125, 192.0, 2.0, 16.0, 15.5, 16.0, 2.0, 48.0, 0.0, 0.0, 0.0, 1.6959351611891215E9, 0.0, 2023-09-28 16:06:01.189
186.0, 1506.3287623320537, 20834.955076569924, 29183.57749981612, -10569.245883136498, 28833.727995601657, 27608.070088394892, -187500.02235174447, 45960.640425758414, 12545.631831363658, -25036.770109745277, -12006.217182423734, 5425.148358958764, 10254.801542139237, -187500.02235174447, 13229.550508207145, -32697.450542146034, 0.13213671875, 0.9936484375, 0.141953125, 192.0, 0.0, 0.0, 0.0, 0.0, 0.0, 0.0, 0.0, 0.0, 0.0, 1.6959351611891396E9, 0.0, 2023-09-28 16:06:01.189
188.0, 1518.510463060196, 20835.31270448121, 29058.631248310954, -10522.597792458271, 28860.147757547827, 27656.461615140634, -187500.02235174447, 45845.148962157844, 12590.044747596354, -25016.34061531313, -11986.99468219217, 5422.890832768779, 10290.072594889712, -187500.02235174447, 12965.889330612343, -32953.51212662603, 0.13213671875, 0.9936484375, 0.141953125, 192.0, 0.0, 0.0, 0.0, 0.0, 0.0, 0.0, 0.0, 0.0, 0.0, 1.6959351611891584E9, 0.0, 2023-09-28 16:06:01.189
190.0, 1516.8787857149584, 20833.904544580528, 29228.72802361584, -10557.310051597364, 28845.954399818707, 27630.66770203921, -187500.02235174447, 45993.56454534108, 12552.315002955796, -25036.211316133897, -12011.223973181723, 5422.287335668485, 10269.97837662439, -187500.02235174447, 13225.70600816083, -32697.98698401296, 0.13213671875, 0.9936484375, 0.141953125, 192.0, 0.0, 0.0, 0.0, 0.0, 0.0, 0.0, 0.0, 0.0, 0.0, 1.695935161189178E9, 0.0, 2023-09-28 16:06:01.189
192.0, 1514.733018247249, 20829.41184394501, 29022.086146126527, -10517.970981356024, 28871.413036753303, 27636.27798989749, -187500.02235174447, 45817.186929844254, 12615.458681042039, -25009.121001854062, -11968.219216849711, 5424.701324069658, 10300.220286872422, -187500.02235174447, 12987.145839589339, -32928.09819318035, 0.13213671875, 0.9936484375, 0.141953125, 192.0, 0.0, 0.0, 0.0, 0.0, 0.0, 0.0, 0.0, 0.0, 0.0, 1.695935161189196E9, 0.0, 2023-09-28 16:06:01.189
194.0, 1507.6475152549167, 20812.804497814715, 29274.88437591605, -10551.409191061162, 28847.496670186123, 27654.360551161833, -187500.02235174447, 46040.50320869723, 12539.753322571913, -25041.57573480317, -12016.1860604508, 5419.381608889295, 10269.79956266875, -187500.02235174447, 13224.051979071139, -32703.619623615697, 0.129068359375, 0.99482421875, 0.14297656250000002, 192.0, 1.5, 120.0, 15.5, 16.0, 2.0, 64.0, 0.0, 0.0, 0.0, 1.6959351611892135E9, 0.0, 2023-09-28 16:06:01.189
196.0, 1519.605698538506, 20838.017265560302, 28984.937546841807, -10509.611428929738, 28875.65986819981, 27620.520010056498, -187500.02235174447, 45779.68070264825, 12619.124367132708, -25012.22789433335, -11964.307661570032, 5428.568175860426, 10312.84902248967, -187500.02235174447, 13020.449938827747, -32885.20519557061, 0.129068359375, 0.99482421875, 0.14297656250000002, 192.0, 0.0, 0.0, 0.0, 0.0, 0.0, 0.0, 0.0, 0.0, 0.0, 1.6959351611892316E9, 0.0, 2023-09-28 16:06:01.189
198.0, 1495.3317040600425, 20821.92400955248, 29329.243818431358, -10558.986432431511, 28833.593885134924, 27667.279859457, -187500.02235174447, 46060.8209444071, 12544.447188907527, -25039.58642954665, -11996.449470096764, 5425.103655469854, 10272.101792347645, -187500.02235174447, 13188.84798155403, -32733.99564433046, 0.129068359375, 0.99482421875, 0.14297656250000002, 192.0, 0.0, 0.0, 0.0, 0.0, 0.0, 0.0, 0.0, 0.0, 0.0, 1.6959351611892529E9, 0.0, 2023-09-28 16:06:01.189
200.0, 1525.797131752626, 20857.75385591434, 28955.097967993974, -10522.821309902825, 28872.37416176488, 27580.711553181598, -187500.02235174447, 45738.95582425068, 12621.203079367051, -25025.661292750992, -11976.243493109167, 5417.369951888318, 10298.588609527185, -187500.02235174447, 13067.165084739338, -32821.63683433972, 0.129068359375, 0.99482421875, 0.14297656250000002, 192.0, 0.0, 0.0, 0.0, 0.0, 0.0, 0.0, 0.0, 0.0, 0.0, 1.69593516118927E9, 0.0, 2023-09-28 16:06:01.189
202.0, 1496.8069191940929, 20806.34484366713, 29347.706359351443, -10562.875635966735, 28820.94279777322, 27683.328411975912, -187500.02235174447, 46066.699453198846, 12569.794067119845, -25024.655464250503, -11984.357176346442, 5438.849978309868, 10299.259161860844, -187500.02235174447, 13135.114387883472, -32781.80602572036, 0.129068359375, 0.99482421875, 0.14297656250000002, 192.0, 0.0, 0.0, 0.0, 0.0, 0.0, 0.0, 0.0, 0.0, 0.0, 1.69593516118929E9, 0.0, 2023-09-28 16:06:01.189
204.0, 1532.2344341557543, 20860.21254780442, 28932.612113071933, -10535.628859475715, 28865.33336226146, 27559.008009315494, -187500.02235174447, 45721.38735310881, 12624.824061968811, -25020.207467103897, -11976.221141364711, 5416.07355070991, 10309.295095121277, -187500.02235174447, 13095.797669386588, -32787.550424045374, 0.1285341796875, 0.994412109375, 0.14348828125000002, 192.0, 2.0, 0.0, 15.5, 8.0, 2.0, 64.0, 0.0, 0.0, 0.0, 1.6959351611893072E9, 0.0, 2023-09-28 16:06:01.189
206.0, 1509.6591722558944, 20814.16795422649, 29345.225315716903, -10571.011670948466, 28814.259626181083, 27688.17874052271, -187500.02235174447, 46073.6731974689, 12585.932026616578, -25018.79930720321, -11980.669138511317, 5444.7955423349795, 10299.840307216682, -187500.02235174447, 13086.25347450417, -32832.857410056284, 0.1285341796875, 0.994412109375, 0.14348828125000002, 192.0, 0.0, 0.0, 0.0, 0.0, 0.0, 0.0, 0.0, 0.0, 0.0, 1.6959351611893249E9, 0.0, 2023-09-28 16:06:01.189
208.0, 1564.890332804958, 20876.59637649016, 28923.20202865625, -10552.236205606008, 28854.04573131153, 27537.37152068276, -187500.02235174447, 45727.26586190055, 12606.54033500437, -25034.490231810836, -11992.493211328176, 5413.771321031013, 10279.41081278453, -187500.02235174447, 13145.642059521922, -32726.32899598229, 0.1285341796875, 0.994412109375, 0.14348828125000002, 192.0, 0.0, 0.0, 0.0, 0.0, 0.0, 0.0, 0.0, 0.0, 0.0, 1.6959351611893425E9, 0.0, 2023-09-28 16:06:01.189
210.0, 1495.7787389491486, 20817.83364031716, 29328.685024819973, -10568.75414475848, 28817.679443082747, 27698.795819138984, -187500.02235174447, 46066.140659587465, 12598.538410489371, -25011.62439723306, -11974.522408786108, 5449.869388326334, 10300.734376994895, -187500.02235174447, 13054.29047993308, -32856.66201790119, 0.1285341796875, 0.994412109375, 0.14348828125000002, 192.0, 0.0, 0.0, 0.0, 0.0, 0.0, 0.0, 0.0, 0.0, 0.0, 1.6959351611893597E9, 0.0, 2023-09-28 16:06:01.189
212.0, 1537.956480736313, 20868.281527552786, 28922.330310622492, -10569.514104069962, 28848.211926008695, 27519.06544197386, -187500.02235174447, 45738.95582425068, 12590.245913296452, -25044.570868560182, -12002.126813188412, 5400.583791802382, 10285.848115187659, -187500.02235174447, 13181.449554139323, -32685.961745496006, 0.1285341796875, 0.994412109375, 0.14348828125000002, 192.0, 0.0, 0.0, 0.0, 0.0, 0.0, 0.0, 0.0, 0.0, 0.0, 1.695935161189377E9, 0.0, 2023-09-28 16:06:01.189
214.0, 1501.7690064631709, 20812.98331177036, 29302.354669851622, -10572.24101689351, 28819.780507061543, 27689.408086467756, -187500.02235174447, 46053.266054781205, 12596.213829066019, -25009.94801639891, -11976.198789620255, 5436.525396886515, 10299.572086283219, -187500.02235174447, 13021.299305117049, -32881.40539901321, 0.12926708984375002, 0.9942060546875, 0.14374414062500002, 192.0, 2.0, 8.0, 15.5, 8.0, 2.0, 64.0, 0.0, 0.0, 0.0, 1.6959351611894035E9, 0.0, 2023-09-28 16:06:01.189
216.0, 1538.8952540034359, 20873.444780521964, 28933.170906683317, -10571.078726181833, 28857.040865068542, 27511.6446628147, -187500.02235174447, 45756.300777947996, 12576.454886967527, -25046.314304627696, -12012.632133082407, 5389.989064930566, 10280.416641285019, -187500.02235174447, 13210.439766697857, -32646.086233387738, 0.12926708984375002, 0.9942060546875, 0.14374414062500002, 192.0, 0.0, 0.0, 0.0, 0.0, 0.0, 0.0, 0.0, 0.0, 0.0, 1.6959351611894207E9, 0.0, 2023-09-28 16:06:01.189
218.0, 1496.7175122162716, 20814.100898993125, 29264.535518233242, -10559.746391742992, 28834.175030490762, 27701.165104051248, -187500.02235174447, 46023.38177244446, 12606.339169304272, -25002.929568639946, -11973.60598726344, 5433.463207896139, 10317.14055742509, -187500.02235174447, 12974.382993505358, -32922.71142276662, 0.12926708984375002, 0.9942060546875, 0.14374414062500002, 192.0, 0.0, 0.0, 0.0, 0.0, 0.0, 0.0, 0.0, 0.0, 0.0, 1.695935161189438E9, 0.0, 2023-09-28 16:06:01.189
220.0, 1541.9350912493578, 20837.190251015458, 28971.571203657535, -10570.0952494258, 28860.974772092675, 27528.944913023104, -187500.02235174447, 45789.11313880839, 12556.807703591312, -25052.90806924201, -12025.484386144208, 5383.484707294072, 10274.26991155981, -187500.02235174447, 13233.283249531181, -32629.143611090614, 0.12926708984375002, 0.9942060546875, 0.14374414062500002, 192.0, 0.0, 0.0, 0.0, 0.0, 0.0, 0.0, 0.0, 0.0, 0.0, 1.6959351611894555E9, 0.0, 2023-09-28 16:06:01.189
222.0, 1498.7738727061599, 20803.64028258804, 29219.45204966689, -10539.361600799752, 28848.793071364533, 27709.278787288524, -187500.02235174447, 45984.847365003516, 12622.54418403437, -25005.723536696856, -11972.957786674237, 5438.067667253932, 10311.396159100075, -187500.02235174447, 12941.548280900513, -32966.81141457694, 0.12926708984375002, 0.9942060546875, 0.14374414062500002, 192.0, 0.0, 0.0, 0.0, 0.0, 0.0, 0.0, 0.0, 0.0, 0.0, 1.6959351611894748E9, 0.0, 2023-09-28 16:06:01.189
224.0, 1523.7407712627378, 20825.992027043347, 29037.79942247861, -10577.940711729612, 28851.743501632634, 27545.842831831316, -187500.02235174447, 45841.796200489545, 12558.43938093655, -25065.380342648074, -12027.18311872281, 5393.16301264322, 10248.364239736109, -187500.02235174447, 13246.33666829308, -32635.290340815827, 0.131633544921875, 1.0001030273437501, 0.14187207031250001, 192.0, 2.0, 24.0, 15.5, 56.0, 2.0, 48.0, 0.0, 0.0, 0.0, 1.695935161189493E9, 0.0, 2023-09-28 16:06:01.189
0.0, 859.3351673287353, 10429.59218377974, 14393.383490250528, -5313.166119237676, 14457.62240381508, 13764.830084422838, -93750.01117587223, 22813.866771920537, 6315.977134225027, -12506.113947166676, -5985.864220364598, 2707.2209366823363, 5159.475524362984, -93750.01117587223, 6459.3412231613665, -16484.344480555592, 0.14, 1.006, 0.114, 192.0, 2.0, 48.0, 15.5, 56.0, 1.5, 72.0, 0.0, 0.0, 0.0, 1.6959351617854285E9, 0.0, 2023-09-28 16:06:01.785
2.0, 1657.337147872108, 20781.422648599466, 29172.781607244207, -10615.849270325813, 28877.89504264534, 27745.645075517306, -187500.02235174447, 45941.17205633784, 12572.63273866567, -24989.831446389133, -11905.813146330494, 5502.798319196501, 10327.824691274725, -187500.02235174447, 13025.277915630093, -32763.455243522556, 0.14, 1.006, 0.114, 192.0, 0.0, 0.0, 0.0, 0.0, 0.0, 0.0, 0.0, 0.0, 0.0, 1.6959351617855053E9, 0.0, 2023-09-28 16:06:01.785
4.0, 1731.3884772525403, 20867.65567870804, 29025.5506665171, -10642.760770650002, 28901.453781301236, 27602.07982088087, -187500.02235174447, 45830.687383495264, 12515.591086815726, -25045.822566249677, -11962.608928991429, 5460.486466942605, 10279.276702317798, -187500.02235174447, 13347.098332297604, -32407.056678182686, 0.14, 1.006, 0.114, 192.0, 0.0, 0.0, 0.0, 0.0, 0.0, 0.0, 0.0, 0.0, 0.0, 1.6959351617855225E9, 0.0, 2023-09-28 16:06:01.785
6.0, 1663.1262496860327, 20783.523712578262, 29118.33275775108, -10611.401273179206, 28897.47517078819, 27736.704377735186, -187500.02235174447, 45901.96709656323, 12580.72407015849, -24981.22602477384, -11912.093986522435, 5498.864412172367, 10330.395141887086, -187500.02235174447, 13017.946543448752, -32765.57865924581, 0.14, 1.006, 0.114, 192.0, 0.0, 0.0, 0.0, 0.0, 0.0, 0.0, 0.0, 0.0, 0.0, 1.695935161785535E9, 0.0, 2023-09-28 16:06:01.785
8.0, 1664.6014648200828, 20802.656805832008, 29085.18512072386, -10656.149465578732, 28889.47324627319, 27615.960254187616, -187500.02235174447, 45883.79512832107, 12517.37922637215, -25050.85170875212, -11965.827580192994, 5457.267815741041, 10262.624652698596, -187500.02235174447, 13348.93117534294, -32411.683489284933, 0.14, 1.008, 0.108, 192.0, 2.0, 48.0, 15.5, 64.0, 1.5, 48.0, 0.0, 0.0, 0.0, 1.695935161785548E9, 0.0, 2023-09-28 16:06:01.785
10.0, 1676.3808341480296, 20800.3098726642, 29076.982030508763, -10603.19818296411, 28909.120429649407, 27723.226275828634, -187500.02235174447, 45863.74561354466, 12576.991328834454, -24990.27848127824, -11901.052224761514, 5495.221077826152, 10328.271726163832, -187500.02235174447, 13036.699657046755, -32738.91302811063, 0.14, 1.008, 0.108, 192.0, 0.0, 0.0, 0.0, 0.0, 0.0, 0.0, 0.0, 0.0, 0.0, 1.695935161785561E9, 0.0, 2023-09-28 16:06:01.785
12.0, 1693.9269535454457, 20821.83460257466, 29137.935237638383, -10647.29817477443, 28889.696763717744, 27646.448033624656, -187500.02235174447, 45931.58315796652, 12503.47644132095, -25043.945019715433, -11961.044306879558, 5471.841153125901, 10282.562408752729, -187500.02235174447, 13348.685306153931, -32417.919625987965, 0.14, 1.008, 0.108, 192.0, 0.0, 0.0, 0.0, 0.0, 0.0, 0.0, 0.0, 0.0, 0.0, 1.6959351617855735E9, 0.0, 2023-09-28 16:06:01.785
14.0, 1725.2864510162415, 20835.13389052557, 29018.55457050259, -10600.001883507, 28911.221493628203, 27710.262264044555, -187500.02235174447, 45824.339488069956, 12580.321738758295, -24997.766315670768, -11919.715931381696, 5495.131670848331, 10328.025856974824, -187500.02235174447, 13054.513997377635, -32715.80132434384, 0.14, 1.008, 0.108, 192.0, 0.0, 0.0, 0.0, 0.0, 0.0, 0.0, 0.0, 0.0, 0.0, 1.695935161785588E9, 0.0, 2023-09-28 16:06:01.785
16.0, 1661.0922409405996, 20825.857916576617, 29182.30345038217, -10646.87349162978, 28884.689972959757, 27684.222481754125, -187500.02235174447, 45972.82212648656, 12525.090578209232, -25037.127737656563, -11939.586632202463, 5473.741051404602, 10296.688711248484, -187500.02235174447, 13316.275276693736, -32459.851498586122, 0.14, 1.008, 0.108, 192.0, 0.0, 0.0, 0.0, 0.0, 0.0, 0.0, 0.0, 0.0, 0.0, 1.6959351617856002E9, 0.0, 2023-09-28 16:06:01.785
18.0, 1691.177688977443, 20798.92406450797, 28980.534253184112, -10605.790985320924, 28907.980490682185, 27682.143769519782, -187500.02235174447, 45794.43285398875, 12577.863046868211, -25007.243455319818, -11905.969608541682, 5479.150173562786, 10317.922868481026, -187500.02235174447, 13082.788954113597, -32685.984097240464, 0.14200000000000002, 1.004, 0.10400000000000001, 192.0, 2.0, 56.0, 15.5, 48.0, 1.5, 32.0, 0.0, 0.0, 0.0, 1.6959351617856123E9, 0.0, 2023-09-28 16:06:01.785
20.0, 1735.1659220654872, 20803.68498607695, 29227.83395383763, -10650.15919806471, 28878.923222890287, 27688.223444011623, -187500.02235174447, 46012.161196727895, 12499.162554641076, -25037.66417952349, -11963.771219703105, 5479.463097985161, 10289.402042556054, -187500.02235174447, 13315.11298598206, -32465.4617864444, 0.14200000000000002, 1.004, 0.10400000000000001, 192.0, 0.0, 0.0, 0.0, 0.0, 0.0, 0.0, 0.0, 0.0, 0.0, 1.6959351617856247E9, 0.0, 2023-09-28 16:06:01.785
22.0, 1718.759741635292, 20826.617875888096, 28926.510086835635, -10593.788098548424, 28917.167057653318, 27662.89891754376, -187500.02235174447, 45749.930530778234, 12602.49466925796, -25004.0024523738, -11912.585724900453, 5488.582609722926, 10331.177452943022, -187500.02235174447, 13111.779166672131, -32651.204782868004, 0.14200000000000002, 1.004, 0.10400000000000001, 192.0, 0.0, 0.0, 0.0, 0.0, 0.0, 0.0, 0.0, 0.0, 0.0, 1.695935161785637E9, 0.0, 2023-09-28 16:06:01.785
24.0, 1618.0427811196782, 20795.30308190621, 29279.421780040477, -10650.852102142824, 28864.506347716615, 27719.62764497133, -187500.02235174447, 46047.52165645619, 12502.247095375908, -25032.746795743322, -11936.770312401095, 5490.1695835792525, 10291.972493168414, -187500.02235174447, 13275.930377951907, -32515.507342279834, 0.14200000000000002, 1.004, 0.10400000000000001, 192.0, 0.0, 0.0, 0.0, 0.0, 0.0, 0.0, 0.0, 0.0, 0.0, 1.6959351617856488E9, 0.0, 2023-09-28 16:06:01.785
26.0, 1672.5363341017169, 20858.69262918146, 28913.34490935146, -10600.895953285213, 28920.318653621514, 27644.749301046053, -187500.02235174447, 45738.17351319474, 12556.472427424482, -25017.592313002624, -11913.524498167575, 5477.540847962004, 10301.963722939936, -187500.02235174447, 13176.375708147969, -32579.656848866565, 0.14200000000000002, 1.004, 0.10400000000000001, 192.0, 0.0, 0.0, 0.0, 0.0, 0.0, 0.0, 0.0, 0.0, 0.0, 1.695935161785661E9, 0.0, 2023-09-28 16:06:01.785
28.0, 1650.6539762799712, 20746.82214818265, 29296.453809315422, -10640.860872371302, 28872.888251887354, 27747.76849124056, -187500.02235174447, 46061.69266244086, 12520.441415362528, -25016.8547054356, -11931.383541987365, 5510.822595455957, 10311.820842244726, -187500.02235174447, 13247.454255515846, -32541.792993759274, 0.146, 1.008, 0.11, 192.0, 2.0, 72.0, 15.5, 64.0, 1.5, 56.0, 0.0, 0.0, 0.0, 1.6959351617856753E9, 0.0, 2023-09-28 16:06:01.785
30.0, 1672.5586858461722, 20807.015396000792, 28892.28956607456, -10616.139843003732, 28922.978511211695, 27622.509315313022, -187500.02235174447, 45730.86449275786, 12561.948604816032, -25035.63017077806, -11930.623582675886, 5476.490315972605, 10323.667266806038, -187500.02235174447, 13222.95674359283, -32528.516057552824, 0.146, 1.008, 0.11, 192.0, 0.0, 0.0, 0.0, 0.0, 0.0, 0.0, 0.0, 0.0, 0.0, 1.6959351617856872E9, 0.0, 2023-09-28 16:06:01.785
32.0, 1669.0047584777783, 20777.198168897412, 29308.233178643368, -10640.011506081999, 28885.67344971579, 27763.906450737293, -187500.02235174447, 46080.199906849855, 12516.932191483045, -25024.051967150208, -11931.450597220732, 5506.419301798261, 10326.215365673945, -187500.02235174447, 13228.790548895664, -32563.36242715865, 0.146, 1.008, 0.11, 192.0, 0.0, 0.0, 0.0, 0.0, 0.0, 0.0, 0.0, 0.0, 0.0, 1.6959351617856994E9, 0.0, 2023-09-28 16:06:01.785
34.0, 1701.2583257267866, 20830.97646605688, 28884.891138659852, -10644.794779395435, 28908.51693254911, 27600.40344004672, -187500.02235174447, 45736.05009747149, 12560.696907126536, -25029.394034075027, -11941.620640947896, 5464.219208266641, 10315.508880079851, -187500.02235174447, 13272.219988372326, -32467.94283007894, 0.146, 1.008, 0.11, 192.0, 0.0, 0.0, 0.0, 0.0, 0.0, 0.0, 0.0, 0.0, 0.0, 1.6959351617857115E9, 0.0, 2023-09-28 16:06:01.785
36.0, 1650.9669007023456, 20770.96203219438, 29285.434399298956, -10668.174704095687, 28866.965039606697, 27750.74127325312, -187500.02235174447, 46063.972540375304, 12526.521089854372, -25024.09667063912, -11936.792664145549, 5481.810031152968, 10328.56229884175, -187500.02235174447, 13180.84605703903, -32584.708343113467, 0.146, 1.008, 0.11, 192.0, 0.0, 0.0, 0.0, 0.0, 0.0, 0.0, 0.0, 0.0, 0.0, 1.6959351617857237E9, 0.0, 2023-09-28 16:06:01.785
38.0, 1711.5401281762277, 20836.586753915162, 28871.971830364684, -10634.870604857279, 28927.761784525133, 27604.69497498214, -187500.02235174447, 45725.32126013294, 12511.701883280502, -25031.159821887, -11949.130827084879, 5460.911150087256, 10317.788758014292, -187500.02235174447, 13283.217046644337, -32428.156724948494, 0.14400000000000002, 1.0, 0.10400000000000001, 192.0, 2.0, 64.0, 15.5, 32.0, 1.5, 32.0, 0.0, 0.0, 0.0, 1.6959351617857356E9, 0.0, 2023-09-28 16:06:01.785
40.0, 1672.178706190432, 20778.047535186714, 29275.55492824971, -10651.992041110045, 28877.358600778414, 27783.128950968858, -187500.02235174447, 46058.85399089503, 12533.42777889106, -24994.234740046828, -11931.115321053901, 5508.162737865775, 10357.194883488999, -187500.02235174447, 13119.423463275847, -32641.548829263313, 0.14400000000000002, 1.0, 0.10400000000000001, 192.0, 0.0, 0.0, 0.0, 0.0, 0.0, 0.0, 0.0, 0.0, 0.0, 1.69593516178575E9, 0.0, 2023-09-28 16:06:01.785
42.0, 1703.0911687721216, 20837.61493416011, 28924.051394945553, -10652.707296932615, 28909.075726160496, 27598.637652234753, -187500.02235174447, 45776.7526241246, 12495.60862727268, -25033.39499633253, -11962.787742947072, 5455.837304095901, 10298.74507173837, -187500.02235174447, 13343.678515395943, -32361.772043916233, 0.14400000000000002, 1.0, 0.10400000000000001, 192.0, 0.0, 0.0, 0.0, 0.0, 0.0, 0.0, 0.0, 0.0, 0.0, 1.6959351617857623E9, 0.0, 2023-09-28 16:06:01.785
44.0, 1691.6694273554597, 20803.43911688794, 29237.579314420145, -10631.271973999974, 28897.564577766014, 27780.759666056594, -187500.02235174447, 46028.58972890255, 12533.919517269078, -24965.244527488296, -11906.953085297715, 5525.485339818638, 10344.208519960466, -187500.02235174447, 13111.466242249757, -32629.702404702, 0.14400000000000002, 1.0, 0.10400000000000001, 192.0, 0.0, 0.0, 0.0, 0.0, 0.0, 0.0, 0.0, 0.0, 0.0, 1.6959351617857745E9, 0.0, 2023-09-28 16:06:01.785
46.0, 1673.6762730689375, 20844.9686580859, 28946.40313940086, -10663.167913337698, 28899.86680744491, 27605.209065104613, -187500.02235174447, 45800.60193545842, 12507.544458811815, -25012.652577478002, -11954.204673076234, 5477.965531106655, 10299.773251983315, -187500.02235174447, 13350.629907921542, -32346.72931989781, 0.14400000000000002, 1.0, 0.10400000000000001, 192.0, 0.0, 0.0, 0.0, 0.0, 0.0, 0.0, 0.0, 0.0, 0.0, 1.6959351617857864E9, 0.0, 2023-09-28 16:06:01.785
48.0, 1665.8755142540354, 20840.02892256128, 29177.20725264636, -10627.472177442573, 28893.38480155287, 27782.994840502124, -187500.02235174447, 45980.846402746014, 12542.033200506354, -24969.93839382391, -11918.88891683685, 5512.588383267926, 10333.300868666276, -187500.02235174447, 13081.358442468458, -32643.784003708843, 0.14, 0.994, 0.108, 192.0, 2.0, 48.0, 15.5, 8.0, 1.5, 48.0, 0.0, 0.0, 0.0, 1.6959351617857985E9, 0.0, 2023-09-28 16:06:01.785
50.0, 1712.9929915658226, 20863.45355075044, 28974.54398567009, -10646.9628986076, 28911.690880261765, 27639.407234121234, -187500.02235174447, 45824.07126713649, 12515.211107159987, -24992.558359212682, -11951.678925952785, 5486.570952721948, 10323.063769705746, -187500.02235174447, 13337.64354439301, -32357.949895614376, 0.14, 0.994, 0.108, 192.0, 0.0, 0.0, 0.0, 0.0, 0.0, 0.0, 0.0, 0.0, 0.0, 1.6959351617858107E9, 0.0, 2023-09-28 16:06:01.785
52.0, 1686.014436008267, 20807.998872756823, 29150.47456627781, -10630.064979799388, 28888.445066028245, 27779.01622998908, -187500.02235174447, 45958.964044924265, 12550.504511654915, -24963.210518742864, -11916.921963324781, 5508.229793099141, 10341.548662370285, -187500.02235174447, 13054.134017721894, -32673.824748256775, 0.14, 0.994, 0.108, 192.0, 0.0, 0.0, 0.0, 0.0, 0.0, 0.0, 0.0, 0.0, 0.0, 1.6959351617858253E9, 0.0, 2023-09-28 16:06:01.785
54.0, 1715.0940555446216, 20841.593544673153, 29030.490402041723, -10668.264111073508, 28894.748257964642, 27633.52872532949, -187500.02235174447, 45872.84277353797, 12484.812734700768, -25026.17538287346, -11980.825600722505, 5456.776077363023, 10295.906400192547, -187500.02235174447, 13385.141001360536, -32308.91016827943, 0.14, 0.994, 0.108, 192.0, 0.0, 0.0, 0.0, 0.0, 0.0, 0.0, 0.0, 0.0, 0.0, 1.6959351617858372E9, 0.0, 2023-09-28 16:06:01.785
56.0, 1671.7763747902363, 20806.79187855624, 29087.93438529186, -10623.20299425161, 28903.39838306885, 27754.518718066065, -187500.02235174447, 45904.42578845332, 12555.466598923995, -24961.22121348634, -11918.821861603483, 5496.539830749015, 10341.079275736724, -187500.02235174447, 13062.068887003528, -32647.963779921985, 0.14, 0.994, 0.108, 192.0, 0.0, 0.0, 0.0, 0.0, 0.0, 0.0, 0.0, 0.0, 0.0, 1.6959351617858496E9, 0.0, 2023-09-28 16:06:01.785
58.0, 1689.724825587848, 20836.385588215064, 29075.84209154154, -10658.071715601887, 28899.889159189366, 27659.166176219725, -187500.02235174447, 45903.15173901937, 12490.512429536871, -25005.924702396955, -11960.329051056988, 5478.904304373777, 10287.74801346636, -187500.02235174447, 13368.399544763512, -32321.516552152225, 0.14, 0.994, 0.11, 192.0, 2.0, 48.0, 15.5, 8.0, 1.5, 56.0, 0.0, 0.0, 0.0, 1.6959351617858615E9, 0.0, 2023-09-28 16:06:01.785
60.0, 1678.95128476039, 20831.937591068458, 29033.619646265466, -10618.754997105003, 28907.935787193273, 27735.67619749024, -187500.02235174447, 45853.24029365066, 12569.481142697472, -24964.03753328771, -11912.40691094481, 5501.904249418289, 10344.454389149474, -187500.02235174447, 13056.503302634157, -32647.382634566147, 0.14, 0.994, 0.11, 192.0, 0.0, 0.0, 0.0, 0.0, 0.0, 0.0, 0.0, 0.0, 0.0, 1.695935161785874E9, 0.0, 2023-09-28 16:06:01.785
62.0, 1695.0221890237558, 20834.798614358737, 29132.302598035647, -10669.15818085172, 28890.456723029223, 27666.09521700087, -187500.02235174447, 45943.36252729446, 12490.75829872588, -25014.775993201256, -11966.811056949027, 5472.869333370845, 10293.470060046919, -187500.02235174447, 13352.865082367074, -32345.768194886234, 0.14, 0.994, 0.11, 192.0, 0.0, 0.0, 0.0, 0.0, 0.0, 0.0, 0.0, 0.0, 0.0, 1.695935161785886E9, 0.0, 2023-09-28 16:06:01.785
64.0, 1691.2894476997194, 20837.771396371296, 28982.098875295982, -10616.273953470463, 28916.51885706411, 27701.545083706987, -187500.02235174447, 45804.02175236008, 12581.43932598106, -24969.46900719035, -11917.279591236067, 5494.3940632813055, 10342.308621681765, -187500.02235174447, 13076.73163136621, -32624.18152382154, 0.14, 0.994, 0.11, 192.0, 0.0, 0.0, 0.0, 0.0, 0.0, 0.0, 0.0, 0.0, 0.0, 1.695935161785898E9, 0.0, 2023-09-28 16:06:01.785
66.0, 1679.1300987160325, 20829.07656777818, 29187.06437195115, -10655.367154522795, 28893.630670741877, 27683.641336398287, -187500.02235174447, 45981.87458299096, 12492.837010960224, -25007.95871114239, -11949.331992784977, 5494.2152493256635, 10303.863621218637, -187500.02235174447, 13337.174157759448, -32373.685523710912, 0.14, 0.994, 0.11, 192.0, 0.0, 0.0, 0.0, 0.0, 0.0, 0.0, 0.0, 0.0, 0.0, 1.695935161785912E9, 0.0, 2023-09-28 16:06:01.785
68.0, 1702.5770786496496, 20849.640172677064, 28937.574200341012, -10611.088348756832, 28929.460517103736, 27684.04366779848, -187500.02235174447, 45773.44456594522, 12578.131267801675, -24968.28436473422, -11900.69459685023, 5503.625333741347, 10354.646784621094, -187500.02235174447, 13103.441965990301, -32597.985279319917, 0.132, 0.988, 0.114, 192.0, 2.0, 16.0, 15.0, 112.0, 1.5, 72.0, 0.0, 0.0, 0.0, 1.695935161785924E9, 0.0, 2023-09-28 16:06:01.785
70.0, 1691.982351777834, 20834.68685563646, 29221.709575856876, -10664.285500560463, 28891.127275362884, 27704.987252353105, -187500.02235174447, 46019.69373460934, 12488.478420791438, -25001.722574439358, -11954.919928898804, 5489.119051589853, 10307.37284509812, -187500.02235174447, 13312.363721414056, -32412.488152085323, 0.132, 0.988, 0.114, 192.0, 0.0, 0.0, 0.0, 0.0, 0.0, 0.0, 0.0, 0.0, 0.0, 1.6959351617859364E9, 0.0, 2023-09-28 16:06:01.785
72.0, 1706.8686135850685, 20857.955021614438, 28885.204063082227, -10612.876488313257, 28936.54602009607, 27648.057359225437, -187500.02235174447, 45723.60017580989, 12572.141000287653, -24977.739152638813, -11910.819937088483, 5492.5165167470595, 10323.37669412812, -187500.02235174447, 13148.03369617864, -32559.20500268996, 0.132, 0.988, 0.114, 192.0, 0.0, 0.0, 0.0, 0.0, 0.0, 0.0, 0.0, 0.0, 0.0, 1.6959351617859485E9, 0.0, 2023-09-28 16:06:01.785
74.0, 1663.9756159753342, 20806.657768089506, 29261.495680987322, -10661.379773781273, 28881.560728736014, 27727.20488634168, -187500.02235174447, 46042.15723778692, 12516.775729271858, -24992.111324323574, -11925.572088428986, 5517.394008325817, 10328.294077908287, -187500.02235174447, 13265.268595846725, -32478.559908695213, 0.132, 0.988, 0.114, 192.0, 0.0, 0.0, 0.0, 0.0, 0.0, 0.0, 0.0, 0.0, 0.0, 1.695935161785961E9, 0.0, 2023-09-28 16:06:01.785
76.0, 1699.9395728039233, 20848.343771498654, 28877.04567635604, -10628.0086193095, 28921.637406544378, 27627.158478159727, -187500.02235174447, 45717.18522515121, 12551.331526199761, -25003.600120973602, -11920.364131970899, 5485.1180893323535, 10331.311563409754, -187500.02235174447, 13191.37372867748, -32512.6239672451, 0.132, 0.988, 0.114, 192.0, 0.0, 0.0, 0.0, 0.0, 0.0, 0.0, 0.0, 0.0, 0.0, 1.6959351617859728E9, 0.0, 2023-09-28 16:06:01.785
78.0, 1683.5110406292727, 20808.02122450128, 29284.495626031832, -10650.270956786986, 28889.272080573093, 27753.222316887655, -187500.02235174447, 46050.04740357964, 12526.275220665362, -24987.864492877066, -11928.83544311946, 5513.191880368219, 10318.414606859042, -187500.02235174447, 13238.804130411641, -32500.03993511676, 0.134, 0.992, 0.122, 192.0, 2.0, 24.0, 15.5, 0.0, 1.5, 104.0, 0.0, 0.0, 0.0, 1.695935161785987E9, 0.0, 2023-09-28 16:06:01.785
80.0, 1733.4671894868839, 20869.287356053275, 28865.19925179473, -10625.10289253031, 28928.566447325524, 27620.36354784531, -187500.02235174447, 45707.75278899107, 12544.648354607625, -25000.739097683323, -11920.855870348916, 5487.845002155901, 10310.36797885513, -187500.02235174447, 13244.816749670119, -32453.101271760617, 0.134, 0.992, 0.122, 192.0, 0.0, 0.0, 0.0, 0.0, 0.0, 0.0, 0.0, 0.0, 0.0, 1.6959351617859988E9, 0.0, 2023-09-28 16:06:01.785
82.0, 1666.8366392656135, 20802.142715709535, 29292.5646057802, -10657.959956879611, 28874.22935655467, 27762.341828625424, -187500.02235174447, 46065.55951423163, 12520.553174084804, -24980.354306740082, -11924.588611672953, 5518.064560659476, 10316.067673691234, -187500.02235174447, 13207.779909107676, -32527.39847033006, 0.134, 0.992, 0.122, 192.0, 0.0, 0.0, 0.0, 0.0, 0.0, 0.0, 0.0, 0.0, 0.0, 1.695935161786011E9, 0.0, 2023-09-28 16:06:01.786
84.0, 1749.4039832835178, 20874.048277622256, 28867.836757640453, -10623.806491351903, 28927.49356359167, 27602.102172625328, -187500.02235174447, 45710.09972215888, 12538.009886504398, -25001.744926183812, -11941.285364781066, 5483.955798620677, 10319.308676637254, -187500.02235174447, 13299.287950907703, -32383.40853254897, 0.134, 0.992, 0.122, 192.0, 0.0, 0.0, 0.0, 0.0, 0.0, 0.0, 0.0, 0.0, 0.0, 1.695935161786023E9, 0.0, 2023-09-28 16:06:01.786
86.0, 1670.502325356284, 20828.651884633528, 29283.735666720353, -10639.162139792697, 28878.655001956824, 27775.819930531972, -187500.02235174447, 46043.54304594315, 12534.701828325013, -24967.23383274482, -11897.543000882031, 5534.649555045314, 10340.118150725146, -187500.02235174447, 13156.817931749574, -32571.274944695826, 0.134, 0.992, 0.122, 192.0, 0.0, 0.0, 0.0, 0.0, 0.0, 0.0, 0.0, 0.0, 0.0, 1.6959351617860353E9, 0.0, 2023-09-28 16:06:01.786
88.0, 1703.7170176168702, 20847.69557090945, 28905.410040069826, -10641.374962493774, 28918.843438487464, 27598.79411444594, -187500.02235174447, 45733.1443706923, 12527.81749103278, -25007.645786720015, -11937.954954857225, 5477.026757839532, 10305.338836352686, -187500.02235174447, 13324.098387253092, -32354.619485690535, 0.138, 0.998, 0.13, 192.0, 2.0, 40.0, 15.5, 24.0, 2.0, 8.0, 0.0, 0.0, 0.0, 1.6959351617860472E9, 0.0, 2023-09-28 16:06:01.786
90.0, 1675.5091161142727, 20808.40120415702, 29265.630753711554, -10645.890014873745, 28883.594737481446, 27775.261136920588, -187500.02235174447, 46030.19905450333, 12537.71931382648, -24977.582690427625, -11923.247507005633, 5524.054828173498, 10333.367923899643, -187500.02235174447, 13139.741198985721, -32574.940630786496, 0.138, 0.998, 0.13, 192.0, 0.0, 0.0, 0.0, 0.0, 0.0, 0.0, 0.0, 0.0, 0.0, 1.6959351617860591E9, 0.0, 2023-09-28 16:06:01.786
92.0, 1699.6042966370937, 20862.671239694508, 28926.688900791276, -10647.856968385813, 28912.24967387315, 27593.988489388048, -187500.02235174447, 45750.26580694506, 12522.274258407862, -25020.766260715278, -11941.26301303661, 5476.825592139434, 10299.728548494406, -187500.02235174447, 13362.364573760578, -32301.31057516463, 0.138, 0.998, 0.13, 192.0, 0.0, 0.0, 0.0, 0.0, 0.0, 0.0, 0.0, 0.0, 0.0, 1.695935161786075E9, 0.0, 2023-09-28 16:06:01.786
94.0, 1680.7841278057251, 20820.582904885163, 29230.15853526098, -10622.28657272894, 28902.213740612715, 27780.26792767858, -187500.02235174447, 45994.23509767474, 12549.655145365614, -24964.283402476718, -11902.393329428833, 5531.7885317550345, 10348.298889195787, -187500.02235174447, 13106.861782891963, -32594.96779381845, 0.138, 0.998, 0.13, 192.0, 0.0, 0.0, 0.0, 0.0, 0.0, 0.0, 0.0, 0.0, 0.0, 1.6959351617860873E9, 0.0, 2023-09-28 16:06:01.786
96.0, 1735.72471567687, 20876.84224567917, 28966.854985577465, -10645.599442195826, 28907.846380215455, 27601.789248202953, -187500.02235174447, 45784.73219689515, 12517.736854283436, -25016.05004263521, -11935.630373433874, 5491.913019646767, 10291.436051301485, -187500.02235174447, 13375.283882055746, -32291.43110411538, 0.138, 0.998, 0.13, 192.0, 0.0, 0.0, 0.0, 0.0, 0.0, 0.0, 0.0, 0.0, 0.0, 1.6959351617861087E9, 0.0, 2023-09-28 16:06:01.786
98.0, 1687.6684650979598, 20811.843372803138, 29185.075066694626, -10620.699598872614, 28890.43437128477, 27769.4049798733, -187500.02235174447, 45958.91934143536, 12550.39275293264, -24965.780969355223, -11906.193125986234, 5525.574746796459, 10353.842121820704, -187500.02235174447, 13085.471163448236, -32615.68786092852, 0.14400000000000002, 0.996, 0.13, 192.0, 2.0, 64.0, 15.5, 16.0, 2.0, 8.0, 0.0, 0.0, 0.0, 1.6959351617861304E9, 0.0, 2023-09-28 16:06:01.786
100.0, 1712.43419795444, 20845.84037611966, 29017.057003624082, -10651.165026565199, 28895.75408646513, 27617.90485595523, -187500.02235174447, 45828.83218870547, 12505.19752564401, -25009.52333325426, -11944.056981093525, 5491.935371391221, 10311.194993399977, -187500.02235174447, 13386.325643816668, -32281.10459817703, 0.14400000000000002, 0.996, 0.13, 192.0, 0.0, 0.0, 0.0, 0.0, 0.0, 0.0, 0.0, 0.0, 0.0, 1.6959351617861435E9, 0.0, 2023-09-28 16:06:01.786
102.0, 1667.015453221256, 20818.414785672998, 29134.00133061425, -10622.308924473396, 28884.62291772639, 27761.35835186939, -187500.02235174447, 45925.03409684111, 12560.406334448617, -24966.60798390007, -11900.761652083595, 5518.824519970956, 10352.322203197742, -187500.02235174447, 13073.892959820387, -32617.23013129594, 0.14400000000000002, 0.996, 0.13, 192.0, 0.0, 0.0, 0.0, 0.0, 0.0, 0.0, 0.0, 0.0, 0.0, 1.6959351617861562E9, 0.0, 2023-09-28 16:06:01.786
104.0, 1701.5712501491607, 20827.534297410763, 29073.629268840465, -10660.44100051415, 28888.512121261614, 27636.210934664123, -187500.02235174447, 45884.68919809928, 12494.80396447229, -25013.837219934136, -11965.291138326065, 5482.078252086431, 10294.65470250305, -187500.02235174447, 13400.004911423315, -32267.13475789246, 0.14400000000000002, 0.996, 0.13, 192.0, 0.0, 0.0, 0.0, 0.0, 0.0, 0.0, 0.0, 0.0, 0.0, 1.695935161786171E9, 0.0, 2023-09-28 16:06:01.786
106.0, 1666.1884386764098, 20819.755890340315, 29074.210414196303, -10612.72002610207, 28905.208874369728, 27748.975485441148, -187500.02235174447, 45878.38600616289, 12559.646375137136, -24966.585632155613, -11906.863678319893, 5512.52132803456, 10339.76052281386, -187500.02235174447, 13086.991082071196, -32595.01249730736, 0.14400000000000002, 0.996, 0.13, 192.0, 0.0, 0.0, 0.0, 0.0, 0.0, 0.0, 0.0, 0.0, 0.0, 1.6959351617861836E9, 0.0, 2023-09-28 16:06:01.786
108.0, 1692.205869222387, 20826.103785765623, 29116.90224610594, -10661.402125525728, 28890.747295707144, 27661.133129731792, -187500.02235174447, 45917.97094559323, 12490.445374303506, -25013.43488853394, -11955.679888210285, 5490.527211490537, 10305.450595074964, -187500.02235174447, 13388.203190350914, -32281.57398481059, 0.14400000000000002, 0.998, 0.126, 192.0, 2.0, 64.0, 15.5, 24.0, 1.5, 120.0, 0.0, 0.0, 0.0, 1.6959351617861965E9, 0.0, 2023-09-28 16:06:01.786
110.0, 1694.2622297122753, 20817.45366066142, 29028.210524107282, -10622.666552384682, 28903.37603132439, 27716.520752492044, -187500.02235174447, 45837.035278920564, 12545.453017408016, -24985.741077153813, -11917.234887747156, 5495.958685393177, 10330.216327931445, -187500.02235174447, 13101.765585156154, -32571.185537718004, 0.14400000000000002, 0.998, 0.126, 192.0, 0.0, 0.0, 0.0, 0.0, 0.0, 0.0, 0.0, 0.0, 0.0, 1.695935161786209E9, 0.0, 2023-09-28 16:06:01.786
112.0, 1687.3778924200408, 20822.728672352874, 29172.736903755296, -10661.715049948103, 28882.991240381154, 27678.165159006734, -187500.02235174447, 45965.8483822165, 12501.956522697988, -25008.875132665056, -11940.927736869782, 5490.482508001627, 10317.319371380732, -187500.02235174447, 13379.910693157995, -32289.710019792325, 0.14400000000000002, 0.998, 0.126, 192.0, 0.0, 0.0, 0.0, 0.0, 0.0, 0.0, 0.0, 0.0, 0.0, 1.6959351617862215E9, 0.0, 2023-09-28 16:06:01.786
114.0, 1706.689799629426, 20833.479861435873, 28976.510939182157, -10608.964933033578, 28915.222455885705, 27702.2379877851, -187500.02235174447, 45790.566002197986, 12572.185703776564, -24978.07442880564, -11901.633370117352, 5498.7973569390015, 10355.227929976933, -187500.02235174447, 13123.35737029998, -32534.305159366748, 0.14400000000000002, 0.998, 0.126, 192.0, 0.0, 0.0, 0.0, 0.0, 0.0, 0.0, 0.0, 0.0, 0.0, 1.6959351617862337E9, 0.0, 2023-09-28 16:06:01.786
116.0, 1685.1203662300547, 20840.207736516924, 29227.096346270606, -10651.477950987572, 28885.941670649252, 27713.30210129048, -187500.02235174447, 46005.83565304705, 12501.844763975712, -25005.075336107653, -11935.74213215615, 5500.8984209178, 10321.789720271794, -187500.02235174447, 13344.572585174154, -32322.38827018598, 0.14400000000000002, 0.998, 0.126, 192.0, 0.0, 0.0, 0.0, 0.0, 0.0, 0.0, 0.0, 0.0, 0.0, 1.695935161786248E9, 0.0, 2023-09-28 16:06:01.786
118.0, 1714.3564479775964, 20851.36125700012, 28935.6295985734, -10602.23705795253, 28912.160266895327, 27693.05142081397, -187500.02235174447, 45761.03934777252, 12585.127363816186, -24961.288268719705, -11891.910361279293, 5509.883822188834, 10355.920834055047, -187500.02235174447, 13141.529338542145, -32506.834865431174, 0.138, 1.0, 0.128, 192.0, 2.0, 40.0, 15.5, 32.0, 2.0, 0.0, 0.0, 0.0, 0.0, 1.6959351617862606E9, 0.0, 2023-09-28 16:06:01.786
120.0, 1674.8385637806134, 20813.720919337382, 29270.346971791623, -10659.859855158313, 28866.942687862243, 27734.893886434304, -187500.02235174447, 46048.035746578666, 12501.442432575517, -24995.844065647612, -11941.55358571453, 5509.414435555272, 10323.0861214502, -187500.02235174447, 13319.940962784405, -32347.824555376123, 0.138, 1.0, 0.128, 192.0, 0.0, 0.0, 0.0, 0.0, 0.0, 0.0, 0.0, 0.0, 0.0, 1.6959351622659023E9, 0.0, 2023-09-28 16:06:02.265
122.0, 1704.1640525059763, 20866.56044322973, 28897.497522532645, -10623.29240122943, 28910.796810483553, 27655.18756570668, -187500.02235174447, 45732.33970789191, 12556.561834402304, -24987.730382410336, -11913.278628978567, 5492.807089424979, 10328.942278497492, -187500.02235174447, 13199.822688081586, -32435.823373296666, 0.138, 1.0, 0.128, 192.0, 0.0, 0.0, 0.0, 0.0, 0.0, 0.0, 0.0, 0.0, 0.0, 1.695935162265991E9, 0.0, 2023-09-28 16:06:02.265
124.0, 1722.3807242370517, 20822.996893286338, 29271.55396599221, -10648.415761997196, 28881.18074908027, 27756.284505878033, -187500.02235174447, 46047.320490756094, 12516.798081016314, -24989.85379813359, -11948.996716618147, 5509.816766955468, 10319.0851591927, -187500.02235174447, 13271.303566849658, -32393.466817553857, 0.138, 1.0, 0.128, 192.0, 0.0, 0.0, 0.0, 0.0, 0.0, 0.0, 0.0, 0.0, 0.0, 1.6959351622660196E9, 0.0, 2023-09-28 16:06:02.266
126.0, 1699.6713518704596, 20857.3738762586, 28881.158397335817, -10627.025142553466, 28914.14957215185, 27644.704597557142, -187500.02235174447, 45719.733324019115, 12554.326659956772, -24976.08512354912, -11925.683847151262, 5493.56704873646, 10332.607964588162, -187500.02235174447, 13215.267743500202, -32419.28308239974, 0.138, 1.0, 0.128, 192.0, 0.0, 0.0, 0.0, 0.0, 0.0, 0.0, 0.0, 0.0, 0.0, 1.6959351622660477E9, 0.0, 2023-09-28 16:06:02.266
128.0, 1656.018394949245, 20788.21757891388, 29294.218634869892, -10650.382715509262, 28876.889214144852, 27768.846186261915, -187500.02235174447, 46068.06290961062, 12506.270409377863, -24989.00443184429, -11940.279536280577, 5511.336685578428, 10316.894688236081, -187500.02235174447, 13239.519386234211, -32426.256826669793, 0.134, 1.002, 0.13, 192.0, 2.0, 24.0, 15.5, 40.0, 2.0, 8.0, 0.0, 0.0, 0.0, 1.6959351622660704E9, 0.0, 2023-09-28 16:06:02.266
130.0, 1705.371046706563, 20849.059027321226, 28888.713286961713, -10627.852157098312, 28920.85509548844, 27626.80085024844, -187500.02235174447, 45733.658460814775, 12538.121645226676, -24987.640975432514, -11927.762559385606, 5500.876069173345, 10323.555508083762, -187500.02235174447, 13267.034383658694, -32352.585476945103, 0.134, 1.002, 0.13, 192.0, 0.0, 0.0, 0.0, 0.0, 0.0, 0.0, 0.0, 0.0, 0.0, 1.6959351622660935E9, 0.0, 2023-09-28 16:06:02.266
132.0, 1675.7996887921918, 20821.49932640783, 29293.905710447518, -10638.446883970128, 28894.547092264547, 27778.144511955325, -187500.02235174447, 46054.45069723734, 12506.71744426697, -24973.76054212577, -11915.737320868651, 5531.185034654741, 10329.434016875508, -187500.02235174447, 13203.33191196107, -32455.336446206147, 0.134, 1.002, 0.13, 192.0, 0.0, 0.0, 0.0, 0.0, 0.0, 0.0, 0.0, 0.0, 0.0, 1.6959351622661157E9, 0.0, 2023-09-28 16:06:02.266
134.0, 1699.7831105927362, 20861.88892863857, 28889.60735673992, -10633.730665890058, 28921.883275733388, 27609.03121340647, -187500.02235174447, 45722.84021649841, 12528.644505577626, -24994.27944353574, -11929.416588475298, 5490.37074927935, 10312.491394578385, -187500.02235174447, 13297.119831695538, -32327.842095833075, 0.134, 1.002, 0.13, 192.0, 0.0, 0.0, 0.0, 0.0, 0.0, 0.0, 0.0, 0.0, 0.0, 1.6959351622661347E9, 0.0, 2023-09-28 16:06:02.266
136.0, 1681.3876249060186, 20804.1096692216, 29282.305155075213, -10632.8589478563, 28893.5189120196, 27782.525453868566, -187500.02235174447, 46043.140714542955, 12517.446281605517, -24972.039457802708, -11921.302905238023, 5525.261822374085, 10333.323220410732, -187500.02235174447, 13163.143475430426, -32510.187627099473, 0.134, 1.002, 0.13, 192.0, 0.0, 0.0, 0.0, 0.0, 0.0, 0.0, 0.0, 0.0, 0.0, 1.6959351622661536E9, 0.0, 2023-09-28 16:06:02.266
138.0, 1735.7470674213253, 20871.813103176726, 28916.54120880857, -10644.101875317321, 28912.115563406416, 27598.503541768023, -187500.02235174447, 45742.01801324106, 12530.924383512067, -25001.253187805796, -11943.431132248776, 5482.167659064253, 10316.246487646877, -187500.02235174447, 13339.096407782605, -32291.855787260032, 0.132, 1.004, 0.126, 192.0, 2.0, 16.0, 15.5, 48.0, 1.5, 120.0, 0.0, 0.0, 0.0, 1.6959351622661726E9, 0.0, 2023-09-28 16:06:02.266
140.0, 1669.7647177892588, 20796.5100761068, 29260.26633504228, -10633.39538972323, 28888.33330730597, 27782.056067235004, -187500.02235174447, 46018.2632229642, 12530.656162578603, -24979.52729219524, -11914.530326668064, 5523.898365962311, 10335.804264045271, -187500.02235174447, 13129.50410002519, -32535.981540200897, 0.132, 1.004, 0.126, 192.0, 0.0, 0.0, 0.0, 0.0, 0.0, 0.0, 0.0, 0.0, 0.0, 1.695935162266192E9, 0.0, 2023-09-28 16:06:02.266
142.0, 1704.722846117359, 20846.577983686686, 28949.48768013569, -10648.438113741651, 28907.73462149318, 27603.75620171502, -187500.02235174447, 45767.23078098665, 12502.470612820462, -25005.500019252304, -11950.784856174572, 5484.291074787507, 10309.13863291009, -187500.02235174447, 13370.478256997856, -32251.399129795926, 0.132, 1.004, 0.126, 192.0, 0.0, 0.0, 0.0, 0.0, 0.0, 0.0, 0.0, 0.0, 0.0, 1.6959351622662156E9, 0.0, 2023-09-28 16:06:02.266
144.0, 1667.7083572993706, 20811.21752395839, 29209.840799551108, -10626.868680342279, 28896.17876960978, 27772.73538979714, -187500.02235174447, 45972.28568461963, 12553.521997156382, -24956.594402384093, -11899.107622993903, 5537.778799269056, 10342.018049003846, -187500.02235174447, 13096.065890320051, -32562.513060869347, 0.132, 1.004, 0.126, 192.0, 0.0, 0.0, 0.0, 0.0, 0.0, 0.0, 0.0, 0.0, 0.0, 1.695935162266235E9, 0.0, 2023-09-28 16:06:02.266
146.0, 1696.6538663689932, 20859.206719303933, 28988.670288165846, -10657.021183612489, 28907.53345579308, 27609.88057969577, -187500.02235174447, 45800.35606626941, 12514.451147848506, -25002.52723723975, -11941.97826885918, 5496.1598510932745, 10307.752824753861, -187500.02235174447, 13372.758134932297, -32255.221278097782, 0.132, 1.004, 0.126, 192.0, 0.0, 0.0, 0.0, 0.0, 0.0, 0.0, 0.0, 0.0, 0.0, 1.6959351622662551E9, 0.0, 2023-09-28 16:06:02.266
148.0, 1689.6130668655715, 20807.238913445344, 29155.727226224808, -10632.881299600756, 28892.066048630008, 27760.01724720207, -187500.02235174447, 45933.460704500765, 12546.034162763854, -24966.65268738898, -11917.346646469432, 5519.271554860063, 10329.299906408776, -187500.02235174447, 13083.437154702802, -32573.82304356373, 0.124, 1.002, 0.11800000000000001, 192.0, 1.5, 112.0, 15.5, 40.0, 1.5, 88.0, 0.0, 0.0, 0.0, 1.695935162266274E9, 0.0, 2023-09-28 16:06:02.266
150.0, 1694.1951744789094, 20853.194100045457, 29020.02978563664, -10658.004660368522, 28909.76863023861, 27619.044794922447, -187500.02235174447, 45822.841921191444, 12504.817545988268, -25002.52723723975, -11949.60021371844, 5488.649664956291, 10314.771272512828, -187500.02235174447, 13379.754230946808, -32253.611952497, 0.124, 1.002, 0.11800000000000001, 192.0, 0.0, 0.0, 0.0, 0.0, 0.0, 0.0, 0.0, 0.0, 0.0, 1.6959351622662928E9, 0.0, 2023-09-28 16:06:02.266
152.0, 1679.957113260879, 20824.941495053947, 29107.2686442457, -10625.505223930506, 28902.549016779547, 27750.271886619557, -187500.02235174447, 45883.70572134325, 12563.15559901662, -24955.119187250042, -11907.891858564837, 5523.138406650831, 10358.424229434042, -187500.02235174447, 13065.91338704984, -32601.270985754847, 0.124, 1.002, 0.11800000000000001, 192.0, 0.0, 0.0, 0.0, 0.0, 0.0, 0.0, 0.0, 0.0, 0.0, 1.6959351622663124E9, 0.0, 2023-09-28 16:06:02.266
154.0, 1705.3039914731971, 20828.07073927769, 29080.33479217706, -10667.504151762027, 28896.29052833206, 27643.251734167545, -187500.02235174447, 45878.54246837407, 12503.23057213194, -25005.947054141412, -11948.013239862114, 5491.756557435579, 10299.639141516584, -187500.02235174447, 13388.516114773289, -32268.162938137408, 0.124, 1.002, 0.11800000000000001, 192.0, 0.0, 0.0, 0.0, 0.0, 0.0, 0.0, 0.0, 0.0, 0.0, 1.695935162266334E9, 0.0, 2023-09-28 16:06:02.266
156.0, 1699.827814081647, 20825.07560552068, 29040.79455623562, -10629.10385478781, 28903.107810390928, 27731.183496854723, -187500.02235174447, 45838.64460452135, 12556.897110569134, -24961.310620464163, -11902.326274195466, 5520.545604294015, 10337.212423945955, -187500.02235174447, 13071.97070979723, -32596.733581630422, 0.124, 1.002, 0.11800000000000001, 192.0, 0.0, 0.0, 0.0, 0.0, 0.0, 0.0, 0.0, 0.0, 0.0, 1.6959351622663555E9, 0.0, 2023-09-28 16:06:02.266
158.0, 1700.7665873487697, 20836.07266379269, 29128.391042755968, -10670.365175052308, 28886.299298560538, 27656.483966885087, -187500.02235174447, 45925.03409684111, 12485.639749245614, -25014.977158901354, -11961.60310049094, 5492.85179291389, 10295.101737392157, -187500.02235174447, 13372.109934343092, -32288.212452913816, 0.12, 1.01, 0.124, 192.0, 1.5, 96.0, 15.5, 72.0, 1.5, 112.0, 0.0, 0.0, 0.0, 1.6959351622663748E9, 0.0, 2023-09-28 16:06:02.266
160.0, 1693.8375465676245, 20872.99774563286, 29002.237797050217, -10619.269087227474, 28916.29533961956, 27708.16120006576, -187500.02235174447, 45813.141264097845, 12561.076886782275, -24960.23773673031, -11910.529364410564, 5516.432883314238, 10337.502996623874, -187500.02235174447, 13094.724785652732, -32566.424616149023, 0.12, 1.01, 0.124, 192.0, 0.0, 0.0, 0.0, 0.0, 0.0, 0.0, 0.0, 0.0, 0.0, 1.695935162266394E9, 0.0, 2023-09-28 16:06:02.266
162.0, 1680.113575472066, 20835.446814947943, 29196.5415116002, -10665.49249476105, 28891.686068974268, 27681.60732765285, -187500.02235174447, 45974.47615557625, 12476.028499129832, -25007.89165590902, -11955.635184721374, 5499.0879296169205, 10305.070615419223, -187500.02235174447, 13376.245007067324, -32284.971449967798, 0.12, 1.01, 0.124, 192.0, 0.0, 0.0, 0.0, 0.0, 0.0, 0.0, 0.0, 0.0, 0.0, 1.6959351622664132E9, 0.0, 2023-09-28 16:06:02.266
164.0, 1700.4760146708506, 20850.60129768864, 28958.11545349544, -10620.677247128158, 28918.709328020734, 27684.66951664323, -187500.02235174447, 45763.654501873796, 12559.422857692583, -24969.29019323471, -11909.434128932255, 5511.157871622786, 10334.932546011514, -187500.02235174447, 13133.303896582593, -32514.903845179542, 0.12, 1.01, 0.124, 192.0, 0.0, 0.0, 0.0, 0.0, 0.0, 0.0, 0.0, 0.0, 0.0, 1.6959351622664323E9, 0.0, 2023-09-28 16:06:02.266
166.0, 1688.2049069648872, 20799.035823230246, 29244.530706945745, -10668.0182418845, 28883.751199692633, 27703.15440930777, -187500.02235174447, 45999.443054132826, 12476.430830530027, -24993.07244933515, -11944.213443304712, 5506.151080864797, 10302.94719969597, -187500.02235174447, 13345.489006696822, -32317.940273039374, 0.12, 1.01, 0.124, 192.0, 0.0, 0.0, 0.0, 0.0, 0.0, 0.0, 0.0, 0.0, 0.0, 1.6959351622664516E9, 0.0, 2023-09-28 16:06:02.266
168.0, 1745.5371314927497, 20875.143513100567, 28913.34490935146, -10609.255505711497, 28932.522706094114, 27672.085484514893, -187500.02235174447, 45721.87909148682, 12579.181799791075, -24957.30965820666, -11898.347663682422, 5512.588383267926, 10330.193976186989, -187500.02235174447, 13167.36795513248, -32471.764978380797, 0.122, 1.01, 0.128, 192.0, 1.5, 104.0, 15.5, 72.0, 2.0, 0.0, 0.0, 0.0, 0.0, 1.6959351622664745E9, 0.0, 2023-09-28 16:06:02.266
170.0, 1687.2437819533088, 20824.092128764645, 29281.768713208286, -10668.934663407168, 28878.409132767814, 27735.4973835346, -187500.02235174447, 46035.9658045728, 12502.0012261869, -24971.480664191327, -11930.60123093143, 5523.853662473401, 10314.033664945802, -187500.02235174447, 13296.561038084155, -32373.17143358844, 0.122, 1.01, 0.128, 192.0, 0.0, 0.0, 0.0, 0.0, 0.0, 0.0, 0.0, 0.0, 0.0, 1.6959351622664948E9, 0.0, 2023-09-28 16:06:02.266
172.0, 1720.9055091030014, 20886.252330094856, 28893.54126376406, -10629.506186188006, 28921.592703055467, 27643.341141145367, -187500.02235174447, 45711.10555065937, 12550.19158723254, -24968.865510090058, -11922.018161060592, 5498.70794996118, 10323.71197029495, -187500.02235174447, 13210.551525420133, -32421.250035911806, 0.122, 1.01, 0.128, 192.0, 0.0, 0.0, 0.0, 0.0, 0.0, 0.0, 0.0, 0.0, 0.0, 1.6959351622665143E9, 0.0, 2023-09-28 16:06:02.266
174.0, 1652.6879850254043, 20821.856954319115, 29288.429533055965, -10665.000756383033, 28872.62003095389, 27752.864688976373, -187500.02235174447, 46043.72185989879, 12500.973045941955, -24966.675039133435, -11930.422416975787, 5527.988735197632, 10334.887842522603, -187500.02235174447, 13258.786589954685, -32403.79332349221, 0.122, 1.01, 0.128, 192.0, 0.0, 0.0, 0.0, 0.0, 0.0, 0.0, 0.0, 0.0, 0.0, 1.6959351622665346E9, 0.0, 2023-09-28 16:06:02.266
176.0, 1734.204797053909, 20887.2805103398, 28876.352772277925, -10632.836596111847, 28916.96589195322, 27627.650216537742, -187500.02235174447, 45698.02978015301, 12562.038011793855, -24982.321260252153, -11933.730475155173, 5501.546621507004, 10334.172586700033, -187500.02235174447, 13238.938240878373, -32382.46975928185, 0.122, 1.01, 0.128, 192.0, 0.0, 0.0, 0.0, 0.0, 0.0, 0.0, 0.0, 0.0, 0.0, 1.695935162266559E9, 0.0, 2023-09-28 16:06:02.266
178.0, 1692.8987733005017, 20822.59456188614, 29299.493646561343, -10661.580939481371, 28866.026266339573, 27768.488558350633, -187500.02235174447, 46053.82484839259, 12507.76797625637, -24965.75861761077, -11933.775178644084, 5527.720514264169, 10320.023932459824, -187500.02235174447, 13231.606868697032, -32431.42007963897, 0.122, 1.006, 0.124, 192.0, 1.5, 104.0, 15.5, 56.0, 1.5, 112.0, 0.0, 0.0, 0.0, 1.6959351622665792E9, 0.0, 2023-09-28 16:06:02.266
180.0, 1680.471203383351, 20856.435102991476, 28884.309993304014, -10636.278764757964, 28913.05433667354, 27617.88250421077, -187500.02235174447, 45716.604079795376, 12539.507453382905, -24982.455370718882, -11929.46129196421, 5495.3328365484285, 10331.870357021136, -187500.02235174447, 13302.238381175803, -32311.614729358524, 0.122, 1.006, 0.124, 192.0, 0.0, 0.0, 0.0, 0.0, 0.0, 0.0, 0.0, 0.0, 0.0, 1.6959351622666008E9, 0.0, 2023-09-28 16:06:02.266
182.0, 1661.0922409405996, 20798.432326129954, 29300.90180646203, -10657.62468071278, 28866.227432039672, 27783.039543991035, -187500.02235174447, 46059.16691531741, 12518.675627550558, -24960.394198941496, -11923.918059339292, 5533.129636422353, 10340.364019914154, -187500.02235174447, 13209.433938197368, -32438.147954720018, 0.122, 1.006, 0.124, 192.0, 0.0, 0.0, 0.0, 0.0, 0.0, 0.0, 0.0, 0.0, 0.0, 1.6959351622666209E9, 0.0, 2023-09-28 16:06:02.266
184.0, 1724.3476777491187, 20871.88015841009, 28898.324537077493, -10644.124227061777, 28912.29437736206, 27606.527818027476, -187500.02235174447, 45733.233777670124, 12528.890374766634, -24998.570978471158, -11946.2698037946, 5495.690464459713, 10321.208574915956, -187500.02235174447, 13359.101219070104, -32234.501210987713, 0.122, 1.006, 0.124, 192.0, 0.0, 0.0, 0.0, 0.0, 0.0, 0.0, 0.0, 0.0, 0.0, 1.6959351622666595E9, 0.0, 2023-09-28 16:06:02.266
186.0, 1680.0688719831553, 20827.958980555413, 29273.900899160017, -10637.955145592112, 28887.75216195013, 27788.78394231605, -187500.02235174447, 46030.82490334808, 12532.645467835126, -24953.912193049455, -11916.966666813692, 5548.95467149671, 10345.728438583426, -187500.02235174447, 13172.598263335021, -32457.392806696036, 0.122, 1.006, 0.124, 192.0, 0.0, 0.0, 0.0, 0.0, 0.0, 0.0, 0.0, 0.0, 0.0, 1.695935162266684E9, 0.0, 2023-09-28 16:06:02.266
188.0, 1719.7655701357808, 20884.88887368308, 28923.53730482308, -10639.855043870813, 28918.709328020734, 27611.445201807644, -187500.02235174447, 45739.51461786206, 12529.113892211188, -24985.294042264708, -11927.762559385606, 5515.024723413554, 10319.75571152636, -187500.02235174447, 13368.824227908162, -32216.597463679012, 0.122, 1.002, 0.11800000000000001, 192.0, 1.5, 104.0, 15.5, 40.0, 1.5, 88.0, 0.0, 0.0, 0.0, 1.6959351622667108E9, 0.0, 2023-09-28 16:06:02.266
190.0, 1697.659694869482, 20842.286448751267, 29230.69497712791, -10629.595593165826, 28895.798789954042, 27791.130875483857, -187500.02235174447, 45987.976609227255, 12556.472427424482, -24948.592477869093, -11898.861753804893, 5558.074183234476, 10353.685659609517, -187500.02235174447, 13123.111501110972, -32506.499589264346, 0.122, 1.002, 0.11800000000000001, 192.0, 0.0, 0.0, 0.0, 0.0, 0.0, 0.0, 0.0, 0.0, 0.0, 1.6959351622667334E9, 0.0, 2023-09-28 16:06:02.266
192.0, 1745.9618146374005, 20867.454513007942, 28959.389502929393, -10655.925948134178, 28914.931883207788, 27617.94955944414, -187500.02235174447, 45773.80219385651, 12520.173194429064, -24995.933472625435, -11950.784856174572, 5505.592287253415, 10327.064731963246, -187500.02235174447, 13375.574454733665, -32225.336995761038, 0.122, 1.002, 0.11800000000000001, 192.0, 0.0, 0.0, 0.0, 0.0, 0.0, 0.0, 0.0, 0.0, 0.0, 1.6959351622667525E9, 0.0, 2023-09-28 16:06:02.266
194.0, 1668.6694823109488, 20829.568306156198, 29195.938014499905, -10632.814244367391, 28902.303147590537, 27786.816988803985, -187500.02235174447, 45961.66860600336, 12555.332488457261, -24950.11239649205, -11906.908381808804, 5538.38229636935, 10357.95484280048, -187500.02235174447, 13108.44875674829, -32537.568514057224, 0.122, 1.002, 0.11800000000000001, 192.0, 0.0, 0.0, 0.0, 0.0, 0.0, 0.0, 0.0, 0.0, 0.0, 1.6959351622667735E9, 0.0, 2023-09-28 16:06:02.266
196.0, 1733.3330790201521, 20862.715943183415, 28995.353459757982, -10659.077544102376, 28913.166095395816, 27631.22649565059, -187500.02235174447, 45808.179176828766, 12525.448206120516, -24991.03844058972, -11929.2154227752, 5510.599078011403, 10326.66240056305, -187500.02235174447, 13395.847486954628, -32227.66157718439, 0.122, 1.002, 0.11800000000000001, 192.0, 0.0, 0.0, 0.0, 0.0, 0.0, 0.0, 0.0, 0.0, 0.0, 1.6959351622667916E9, 0.0, 2023-09-28 16:06:02.266
198.0, 1671.0611189676665, 20832.585791657664, 29131.185010812882, -10635.205881024109, 28905.275929603093, 27769.22616591766, -187500.02235174447, 45909.834910611506, 12575.20318927803, -24955.87914656152, -11896.626579359363, 5542.249148160118, 10370.985909817924, -187500.02235174447, 13081.671366890832, -32574.426540664026, 0.128, 1.008, 0.12, 192.0, 2.0, 0.0, 15.5, 64.0, 1.5, 96.0, 0.0, 0.0, 0.0, 1.6959351622668092E9, 0.0, 2023-09-28 16:06:02.266
200.0, 1704.074645528155, 20856.010419846825, 29041.666274269377, -10671.438058786161, 28906.706441248232, 27642.670588811707, -187500.02235174447, 45847.16061915882, 12509.600819301704, -25002.70605119539, -11945.576899716485, 5502.999484896599, 10324.270763906332, -187500.02235174447, 13389.432536295955, -32254.282504830662, 0.128, 1.008, 0.12, 192.0, 0.0, 0.0, 0.0, 0.0, 0.0, 0.0, 0.0, 0.0, 0.0, 1.6959351622668264E9, 0.0, 2023-09-28 16:06:02.266
202.0, 1685.8356220526246, 20826.036730532258, 29085.386286423956, -10632.747189134025, 28906.326461592493, 27756.597430300408, -187500.02235174447, 45874.31798867202, 12563.267357738896, -24964.842196088102, -11900.515782894587, 5520.724418249657, 10354.467970665452, -187500.02235174447, 13088.063965805051, -32577.600488376676, 0.128, 1.008, 0.12, 192.0, 0.0, 0.0, 0.0, 0.0, 0.0, 0.0, 0.0, 0.0, 0.0, 1.6959351622668443E9, 0.0, 2023-09-28 16:06:02.266
204.0, 1705.52750891775, 20860.771341415806, 29100.294899975648, -10668.621738984793, 28895.284699831573, 27660.261411698033, -187500.02235174447, 45902.92822157481, 12486.28794983482, -25003.823638418155, -11956.573957988496, 5497.679769716236, 10311.552621311263, -187500.02235174447, 13402.754175991318, -32245.833545426554, 0.128, 1.008, 0.12, 192.0, 0.0, 0.0, 0.0, 0.0, 0.0, 0.0, 0.0, 0.0, 0.0, 1.6959351622668664E9, 0.0, 2023-09-28 16:06:02.266
206.0, 1712.3224392321636, 20857.75385591434, 29017.191114090816, -10626.041665797433, 28905.186522625274, 27731.116441621358, -187500.02235174447, 45826.50760728212, 12570.732840386969, -24958.002562284775, -11904.002655029613, 5523.026647928554, 10358.200711989488, -187500.02235174447, 13102.011454345162, -32548.185592673493, 0.128, 1.008, 0.12, 192.0, 0.0, 0.0, 0.0, 0.0, 0.0, 0.0, 0.0, 0.0, 0.0, 1.6959351622668903E9, 0.0, 2023-09-28 16:06:02.266
208.0, 1689.791880821214, 20834.26217249181, 29141.62327547351, -10675.550779765937, 28879.90669964632, 27675.974688050115, -187500.02235174447, 45936.81346616906, 12480.90117942109, -25005.27650180775, -11955.255205065634, 5499.378502294839, 10297.538077537785, -187500.02235174447, 13388.60552175111, -32256.405920553916, 0.134, 1.008, 0.122, 192.0, 2.0, 24.0, 15.5, 64.0, 1.5, 104.0, 0.0, 0.0, 0.0, 1.6959351622669132E9, 0.0, 2023-09-28 16:06:02.266
210.0, 1711.406017709496, 20843.158166785022, 28960.372979685424, -10620.476081428062, 28914.082516918483, 27708.250607043577, -187500.02235174447, 45784.128699794855, 12566.195436262542, -24955.990905283797, -11906.863678319893, 5517.706932748191, 10342.688601337506, -187500.02235174447, 13130.845204692509, -32508.354784054136, 0.134, 1.008, 0.122, 192.0, 0.0, 0.0, 0.0, 0.0, 0.0, 0.0, 0.0, 0.0, 0.0, 1.6959351622669337E9, 0.0, 2023-09-28 16:06:02.266
212.0, 1726.716962661381, 20842.88994585156, 29188.91956674094, -10664.754887194025, 28889.093266617452, 27705.188418053203, -187500.02235174447, 45973.939713709326, 12504.214048887974, -24987.260995776775, -11938.916079868804, 5520.500900805104, 10329.769293042338, -187500.02235174447, 13362.342222016123, -32282.222185399794, 0.134, 1.008, 0.122, 192.0, 0.0, 0.0, 0.0, 0.0, 0.0, 0.0, 0.0, 0.0, 0.0, 1.6959351622669525E9, 0.0, 2023-09-28 16:06:02.266
214.0, 1706.2651164847753, 20864.101751339647, 28919.513990821124, -10617.838575582335, 28928.365281625425, 27692.403220224765, -187500.02235174447, 45748.20944645518, 12582.266340525906, -24959.634239630013, -11906.059015519502, 5519.942107193721, 10359.564168401263, -187500.02235174447, 13145.753818244199, -32486.137150065562, 0.134, 1.008, 0.122, 192.0, 0.0, 0.0, 0.0, 0.0, 0.0, 0.0, 0.0, 0.0, 0.0, 1.6959351622669723E9, 0.0, 2023-09-28 16:06:02.266
216.0, 1696.43034892444, 20833.63632364706, 29236.77465161975, -10675.260207088018, 28880.085513601964, 27723.24862757309, -187500.02235174447, 46019.783141587155, 12494.89337145011, -24982.9471090969, -11948.750847429139, 5519.606831026892, 10313.452519589964, -187500.02235174447, 13336.391846703513, -32315.01219451573, 0.134, 1.008, 0.122, 192.0, 0.0, 0.0, 0.0, 0.0, 0.0, 0.0, 0.0, 0.0, 0.0, 1.695935162266994E9, 0.0, 2023-09-28 16:06:02.266
218.0, 1717.4186369679735, 20863.65471645054, 28887.439237527757, -10633.77536937897, 28932.25448516065, 27654.89699302876, -187500.02235174447, 45721.92379497574, 12564.116724028197, -24967.83732984511, -11909.322370209977, 5506.03932214252, 10336.653630334573, -187500.02235174447, 13186.009310008207, -32439.399652409513, 0.134, 1.006, 0.122, 192.0, 2.0, 24.0, 15.5, 56.0, 1.5, 104.0, 0.0, 0.0, 0.0, 1.6959351622670157E9, 0.0, 2023-09-28 16:06:02.267
220.0, 1689.2330872098312, 20837.056140548724, 29259.238154797335, -10672.712108220114, 28891.14962710734, 27741.26413360407, -187500.02235174447, 46027.58390040206, 12505.063415177276, -24979.661402661968, -11929.193071030746, 5519.2268513711515, 10326.818862774237, -187500.02235174447, 13290.838991503597, -32365.325971284627, 0.134, 1.006, 0.122, 192.0, 0.0, 0.0, 0.0, 0.0, 0.0, 0.0, 0.0, 0.0, 0.0, 1.695935162267038E9, 0.0, 2023-09-28 16:06:02.267
222.0, 1715.9881253228339, 20846.667390664505, 28872.19534780924, -10647.186416052153, 28925.794831013067, 27631.002978206037, -187500.02235174447, 45706.1881668792, 12542.547290628827, -24973.782893870222, -11927.092007051946, 5491.734205691124, 10343.001525759879, -187500.02235174447, 13218.732263890775, -32402.563977547168, 0.134, 1.006, 0.122, 192.0, 0.0, 0.0, 0.0, 0.0, 0.0, 0.0, 0.0, 0.0, 0.0, 1.6959351622670617E9, 0.0, 2023-09-28 16:06:02.267
224.0, 1678.0572149821778, 20831.110576523613, 29279.35472480711, -10674.701413476636, 28885.941670649252, 27754.518718066065, -187500.02235174447, 46051.34380475805, 12511.299551880307, -24988.579748699638, -11939.296059524544, 5512.56603152347, 10332.295040165787, -187500.02235174447, 13260.641784744477, -32391.03047740823, 0.134, 1.006, 0.122, 192.0, 0.0, 0.0, 0.0, 0.0, 0.0, 0.0, 0.0, 0.0, 0.0, 1.6959351622670825E9, 0.0, 2023-09-28 16:06:02.267
226.0, 1737.468151744384, 20862.201853060946, 28852.704626644212, -10641.017334582488, 28932.902685749854, 27621.302321112435, -187500.02235174447, 45697.783910964004, 12552.762037844901, -24976.979193327334, -11915.849079590927, 5492.538868491515, 10339.179377458022, -187500.02235174447, 13260.015935899728, -32352.518421711735, 0.134, 1.006, 0.122, 192.0, 0.0, 0.0, 0.0, 0.0, 0.0, 0.0, 0.0, 0.0, 0.0, 1.6959351622671032E9, 0.0, 2023-09-28 16:06:02.267
228.0, 1674.7491568027922, 20804.06496573269, 29274.61615498259, -10660.463352258606, 28889.830874184478, 27777.742180555128, -187500.02235174447, 46045.509999455215, 12518.608572317193, -24961.154158252975, -11918.575992414475, 5529.463950331682, 10332.89853726608, -187500.02235174447, 13205.075348028584, -32451.648408371024, 0.136, 1.014, 0.114, 192.0, 2.0, 32.0, 15.5, 88.0, 1.5, 72.0, 0.0, 0.0, 0.0, 1.695935162267123E9, 0.0, 2023-09-28 16:06:02.267
230.0, 1712.9035845880014, 20862.425370505498, 28871.636554197856, -10660.306890047419, 28917.837609986975, 27607.064259894403, -187500.02235174447, 45711.73139950412, 12527.616325332681, -24993.161856312974, -11938.446693235242, 5479.239580540608, 10303.640103774083, -187500.02235174447, 13306.48521262231, -32310.653604346946, 0.136, 1.014, 0.114, 192.0, 0.0, 0.0, 0.0, 0.0, 0.0, 0.0, 0.0, 0.0, 0.0, 1.695935162267142E9, 0.0, 2023-09-28 16:06:02.267
232.0, 1695.7374448463256, 20808.468259390385, 29272.5597944927, -10661.558587736916, 28885.874615415887, 27783.59833760242, -187500.02235174447, 46048.952168101336, 12504.437566332528, -24971.32420198014, -11938.446693235242, 5512.52132803456, 10331.266859920843, -187500.02235174447, 13185.741089074743, -32469.105120790617, 0.136, 1.014, 0.114, 192.0, 0.0, 0.0, 0.0, 0.0, 0.0, 0.0, 0.0, 0.0, 0.0, 1.695935162267164E9, 0.0, 2023-09-28 16:06:02.267
234.0, 1746.721773948881, 20881.156132359047, 28896.134066120874, -10647.208767796608, 28932.075671205006, 27611.37814657428, -187500.02235174447, 45733.01026022557, 12518.966200228477, -24999.28623429373, -11941.330068269977, 5475.283321772018, 10321.879127249615, -187500.02235174447, 13357.313079513679, -32248.67221697238, 0.136, 1.014, 0.114, 192.0, 0.0, 0.0, 0.0, 0.0, 0.0, 0.0, 0.0, 0.0, 0.0, 1.6959351622671864E9, 0.0, 2023-09-28 16:06:02.267
236.0, 1683.1981162068982, 20806.814230300693, 29263.574393221665, -10646.58291895186, 28895.91054867632, 27789.208625460702, -187500.02235174447, 46023.292365466645, 12536.892299281633, -24957.868451818045, -11904.852021318917, 5529.978040454154, 10355.898482310591, -187500.02235174447, 13155.990917204728, -32492.66385944651, 0.136, 1.014, 0.114, 192.0, 0.0, 0.0, 0.0, 0.0, 0.0, 0.0, 0.0, 0.0, 0.0, 1.695935162267208E9, 0.0, 2023-09-28 16:06:02.267
238.0, 1727.141645806032, 20889.023946407313, 28928.09706069196, -10647.879320130269, 28933.707348550244, 27607.64540525024, -187500.02235174447, 45745.30371967599, 12516.418101360572, -24997.81101915968, -11942.581765959474, 5486.258028299574, 10324.606040073162, -187500.02235174447, 13374.680384955453, -32228.645053940425, 0.13, 1.008, 0.12, 192.0, 2.0, 8.0, 15.5, 64.0, 1.5, 96.0, 0.0, 0.0, 0.0, 1.6959351622672267E9, 0.0, 2023-09-28 16:06:02.267
240.0, 1671.7093195568705, 20815.196134471433, 29235.21002950788, -10643.520729961483, 28896.44699054325, 27781.005535245604, -187500.02235174447, 45987.39546387142, 12546.190624975041, -24956.37088493954, -11897.364186926388, 5533.554319567003, 10357.686621867017, -187500.02235174447, 13115.243687062704, -32535.95918845644, 0.13, 1.008, 0.12, 192.0, 0.0, 0.0, 0.0, 0.0, 0.0, 0.0, 0.0, 0.0, 0.0, 1.695935162745178E9, 0.0, 2023-09-28 16:06:02.745
242.0, 1735.076515087666, 20851.31655351121, 28984.244642763693, -10663.547892993438, 28910.126258149896, 27609.45589655112, -187500.02235174447, 45788.73315915265, 12506.404519844595, -25009.590388487624, -11947.968536373202, 5486.772118422046, 10305.13767065259, -187500.02235174447, 13405.74930974833, -32205.71216412928, 0.13, 1.008, 0.12, 192.0, 0.0, 0.0, 0.0, 0.0, 0.0, 0.0, 0.0, 0.0, 0.0, 1.695935162745273E9, 0.0, 2023-09-28 16:06:02.745
244.0, 1677.721938815348, 20835.17859401448, 29182.459912593356, -10630.1096832883, 28907.399345326347, 27775.17172994277, -187500.02235174447, 45936.83581791351, 12556.539482657849, -24942.7363208218, -11889.45166938921, 5531.43090384375, 10356.837255577715, -187500.02235174447, 13107.867611392452, -32534.14869715556, 0.13, 1.008, 0.12, 192.0, 0.0, 0.0, 0.0, 0.0, 0.0, 0.0, 0.0, 0.0, 0.0, 1.6959351627453148E9, 0.0, 2023-09-28 16:06:02.745
246.0, 1723.8782911155572, 20855.89866112455, 29033.485535798736, -10666.20775058362, 28907.86873195991, 27627.158478159727, -187500.02235174447, 45815.35408679892, 12493.105231893687, -25004.941225640923, -11942.067675837003, 5487.912057389267, 10309.987999199391, -187500.02235174447, 13416.545202320243, -32198.76077160368, 0.13, 1.008, 0.12, 192.0, 0.0, 0.0, 0.0, 0.0, 0.0, 0.0, 0.0, 0.0, 0.0, 1.6959351627453437E9, 0.0, 2023-09-28 16:06:02.745
248.0, 1701.370084449063, 20832.518736424296, 29134.738938181275, -10629.215613510087, 28901.230263856683, 27762.721808281163, -187500.02235174447, 45888.488994656684, 12562.149770516131, -24956.683809361915, -11894.570218869474, 5527.340534608428, 10346.488397894907, -187500.02235174447, 13096.959960098262, -32539.401357102557, 0.13, 1.006, 0.12, 192.0, 2.0, 8.0, 15.5, 56.0, 1.5, 96.0, 0.0, 0.0, 0.0, 1.6959351627453728E9, 0.0, 2023-09-28 16:06:02.745
250.0, 1696.9891425358228, 20855.65279193554, 29090.23661497076, -10670.409878541217, 28902.124333634896, 27642.33531264488, -187500.02235174447, 45861.8233635215, 12484.388051556118, -25009.791554187723, -11954.204673076234, 5490.214287068163, 10319.80041501527, -187500.02235174447, 13417.528679076277, -32200.347745460007, 0.13, 1.006, 0.12, 192.0, 0.0, 0.0, 0.0, 0.0, 0.0, 0.0, 0.0, 0.0, 0.0, 1.6959351627453926E9, 0.0, 2023-09-28 16:06:02.745
252.0, 1705.0357705397334, 20842.487614451366, 29074.165710707395, -10623.113587273787, 28918.61992104291, 27738.53722078052, -187500.02235174447, 45830.53092128407, 12570.82224736479, -24951.74407383729, -11899.934637538749, 5526.513520063582, 10376.037404064824, -187500.02235174447, 13105.006588102173, -32529.790106986777, 0.13, 1.006, 0.12, 192.0, 0.0, 0.0, 0.0, 0.0, 0.0, 0.0, 0.0, 0.0, 0.0, 1.6959351627454104E9, 0.0, 2023-09-28 16:06:02.745
254.0, 1692.2729244557531, 20840.766530128305, 29145.601885986554, -10679.663500745715, 28899.57623476699, 27652.751225561053, -187500.02235174447, 45897.07206452752, 12491.875885948646, -24998.682737193434, -11946.135693327868, 5498.931467405733, 10311.351455611164, -187500.02235174447, 13398.574399778176, -32231.506077230704, 0.13, 1.006, 0.12, 192.0, 0.0, 0.0, 0.0, 0.0, 0.0, 0.0, 0.0, 0.0, 0.0, 1.695935162745452E9, 0.0, 2023-09-28 16:06:02.745
0.0, 1720.7713986362696, 20870.181425831488, 29018.375756546946, -10627.472177442573, 28928.365281625425, 27719.806458926974, -187500.02235174447, 45787.57086844098, 12565.144904273142, -24961.154158252975, -11899.73347183865, 5507.380426809839, 10350.534063641318, -187500.02235174447, 13116.517736496657, -32515.395583557558, 0.13, 1.006, 0.12, 192.0, 0.0, 0.0, 0.0, 0.0, 0.0, 0.0, 0.0, 0.0, 0.0, 1.6959351627454827E9, 0.0, 2023-09-28 16:06:02.745
2.0, 1736.9093581330012, 20833.301047480232, 29176.424941590423, -10673.114439620309, 28892.937766663763, 27693.297290002978, -187500.02235174447, 45944.81539068406, 12479.403612542585, -25002.393126773015, -11962.340708057965, 5493.097662102898, 10311.954952711458, -187500.02235174447, 13386.03507113875, -32251.57794375157, 0.13, 1.006, 0.124, 192.0, 2.0, 8.0, 15.5, 56.0, 1.5, 112.0, 0.0, 0.0, 0.0, 1.6959351627455115E9, 0.0, 2023-09-28 16:06:02.745
4.0, 1708.7685118637696, 20846.779149386784, 28973.404046702868, -10624.611154152293, 28915.624787285902, 27703.757906408064, -187500.02235174447, 45768.05779553149, 12564.452000195028, -24958.583707640613, -11906.684864364252, 5503.960609908177, 10343.202691459977, -187500.02235174447, 13147.385495589435, -32477.755245894823, 0.13, 1.006, 0.124, 192.0, 0.0, 0.0, 0.0, 0.0, 0.0, 0.0, 0.0, 0.0, 0.0, 1.695935162745531E9, 0.0, 2023-09-28 16:06:02.745
6.0, 1691.691779099915, 20829.635361389563, 29239.68037839894, -10663.39143078225, 28890.68024047378, 27718.57711298193, -187500.02235174447, 45983.19333591382, 12497.977912184944, -24989.60792894458, -11933.998696088636, 5511.448444300705, 10322.70614179446, -187500.02235174447, 13369.941815130927, -32263.156147379417, 0.13, 1.006, 0.124, 192.0, 0.0, 0.0, 0.0, 0.0, 0.0, 0.0, 0.0, 0.0, 0.0, 1.6959351627455473E9, 0.0, 2023-09-28 16:06:02.745
8.0, 1706.4215786959624, 20871.32136479871, 28937.373034640914, -10625.751093119514, 28923.67141528981, 27673.47129267112, -187500.02235174447, 45720.87326298634, 12563.826151350278, -24956.527347150728, -11906.126070752869, 5511.001409411599, 10350.489360152407, -187500.02235174447, 13182.343623917535, -32433.252922684303, 0.13, 1.006, 0.124, 192.0, 0.0, 0.0, 0.0, 0.0, 0.0, 0.0, 0.0, 0.0, 0.0, 1.6959351627455633E9, 0.0, 2023-09-28 16:06:02.745
10.0, 1685.7015115858928, 20814.54793388223, 29261.115701331582, -10670.9686721526, 28885.9193189048, 27724.1426973513, -187500.02235174447, 45993.363379640985, 12496.033310417333, -24980.600175929092, -11937.217347290201, 5512.364865823372, 10330.864528520648, -187500.02235174447, 13328.658143121977, -32313.000537514752, 0.13, 1.006, 0.124, 192.0, 0.0, 0.0, 0.0, 0.0, 0.0, 0.0, 0.0, 0.0, 0.0, 1.6959351627455788E9, 0.0, 2023-09-28 16:06:02.745
12.0, 1718.4691689573729, 20845.929783097483, 28905.879426703388, -10639.385657237252, 28924.565485068022, 27638.826088765396, -187500.02235174447, 45693.85000393987, 12548.87283430968, -24983.61766143056, -11922.308733738511, 5493.142365591809, 10338.28530767981, -187500.02235174447, 13200.5155921597, -32410.141218917517, 0.132, 1.0, 0.124, 192.0, 2.0, 16.0, 15.5, 32.0, 1.5, 112.0, 0.0, 0.0, 0.0, 1.6959351627455945E9, 0.0, 2023-09-28 16:06:02.745
14.0, 1691.825889566647, 20810.614026858097, 29287.580166766664, -10670.700451219136, 28877.96209787871, 27739.319531836456, -187500.02235174447, 46021.10189451002, 12491.60766501518, -24984.89171086451, -11945.17456831629, 5511.8284239564455, 10319.979228970913, -187500.02235174447, 13281.786534999197, -32361.570878216135, 0.132, 1.0, 0.124, 192.0, 0.0, 0.0, 0.0, 0.0, 0.0, 0.0, 0.0, 0.0, 0.0, 1.695935162745612E9, 0.0, 2023-09-28 16:06:02.745
16.0, 1724.6158986825824, 20868.817969419717, 28887.707458461224, -10650.047439342432, 28916.96589195322, 27613.389803575257, -187500.02235174447, 45689.91609691574, 12547.688191853547, -24997.520446481758, -11931.830576876471, 5485.453365499183, 10326.170662185034, -187500.02235174447, 13249.264746816725, -32351.378482744516, 0.132, 1.0, 0.124, 192.0, 0.0, 0.0, 0.0, 0.0, 0.0, 0.0, 0.0, 0.0, 0.0, 1.6959351627456279E9, 0.0, 2023-09-28 16:06:02.745
18.0, 1689.4119011654736, 20816.291369949744, 29301.013565184305, -10665.11251510531, 28886.05342937153, 27758.787901257027, -187500.02235174447, 46032.993022560244, 12509.444357090517, -24982.9471090969, -11927.002600074125, 5521.350267094406, 10332.987944243901, -187500.02235174447, 13248.817711927619, -32385.822520950143, 0.132, 1.0, 0.124, 192.0, 0.0, 0.0, 0.0, 0.0, 0.0, 0.0, 0.0, 0.0, 0.0, 1.6959351627456434E9, 0.0, 2023-09-28 16:06:02.745
20.0, 1694.977485534845, 20846.130948797578, 28882.85712991442, -10659.457523758118, 28920.49746757716, 27600.783419702464, -187500.02235174447, 45685.065768368935, 12527.705732310502, -24985.51755970926, -11934.557489700019, 5484.805164909979, 10325.745979040383, -187500.02235174447, 13289.229665902814, -32298.0248687297, 0.132, 1.0, 0.124, 192.0, 0.0, 0.0, 0.0, 0.0, 0.0, 0.0, 0.0, 0.0, 0.0, 1.6959351627456615E9, 0.0, 2023-09-28 16:06:02.745
22.0, 1668.1553921884768, 20794.610177828097, 29288.295422589235, -10671.169837852698, 28881.940708391754, 27752.931744209738, -187500.02235174447, 46024.07467652258, 12492.23351385993, -24984.26586201976, -11935.630373433874, 5508.050979143498, 10331.132749454111, -187500.02235174447, 13208.271647485692, -32413.963367219374, 0.132, 1.0, 0.12, 192.0, 2.0, 16.0, 15.5, 32.0, 1.5, 96.0, 0.0, 0.0, 0.0, 1.6959351627456808E9, 0.0, 2023-09-28 16:06:02.745
24.0, 1725.398209738518, 20864.839358906673, 28881.113693846906, -10653.981346366567, 28926.39832811336, 27587.104152095813, -187500.02235174447, 45691.48071902761, 12530.075017222765, -25000.314414538672, -11929.707161153217, 5483.75463292058, 10317.341723125188, -187500.02235174447, 13318.532802883721, -32257.367045565494, 0.132, 1.0, 0.12, 192.0, 0.0, 0.0, 0.0, 0.0, 0.0, 0.0, 0.0, 0.0, 0.0, 1.695935162745698E9, 0.0, 2023-09-28 16:06:02.745
26.0, 1689.9259912879459, 20827.51194566631, 29256.488890229335, -10646.9628986076, 28900.850284200944, 27768.57796532845, -187500.02235174447, 45992.51401335168, 12529.203299189008, -24962.45055943138, -11900.940466039237, 5529.441598587227, 10351.942223542002, -187500.02235174447, 13150.894719468919, -32473.6648766595, 0.132, 1.0, 0.12, 192.0, 0.0, 0.0, 0.0, 0.0, 0.0, 0.0, 0.0, 0.0, 0.0, 1.695935162745722E9, 0.0, 2023-09-28 16:06:02.745
28.0, 1728.6839161734483, 20874.897643911558, 28900.4703045452, -10665.201922083132, 28919.782211754587, 27585.092495094836, -187500.02235174447, 45712.02197218203, 12529.113892211188, -24999.263882549272, -11937.351457756933, 5480.871257885845, 10323.287287150299, -187500.02235174447, 13335.095445525105, -32254.79659495313, 0.132, 1.0, 0.12, 192.0, 0.0, 0.0, 0.0, 0.0, 0.0, 0.0, 0.0, 0.0, 0.0, 1.695935162745748E9, 0.0, 2023-09-28 16:06:02.745
30.0, 1685.366235419063, 20815.97844552737, 29237.244038253313, -10653.690773688648, 28893.653022486335, 27766.29808739401, -187500.02235174447, 45985.62967605945, 12537.115816726187, -24961.0423995307, -11905.366111441388, 5523.652496773302, 10356.367868944153, -187500.02235174447, 13126.21839359026, -32509.33826081017, 0.132, 1.0, 0.12, 192.0, 0.0, 0.0, 0.0, 0.0, 0.0, 0.0, 0.0, 0.0, 0.0, 1.6959351627457733E9, 0.0, 2023-09-28 16:06:02.745
32.0, 1738.6974976894257, 20876.529321256796, 28938.691787563777, -10674.366137309808, 28912.540246551067, 27580.06335259239, -187500.02235174447, 45745.23666444262, 12511.008979202388, -25014.66423447898, -11961.267824324112, 5471.46117347016, 10300.242638616877, -187500.02235174447, 13381.475315269867, -32215.055193311597, 0.134, 0.998, 0.11800000000000001, 192.0, 2.0, 24.0, 15.5, 24.0, 1.5, 88.0, 0.0, 0.0, 0.0, 1.6959351627458065E9, 0.0, 2023-09-28 16:06:02.745
34.0, 1687.0202645087559, 20816.26901820529, 29193.076991209626, -10652.05909634341, 28897.899853932842, 27756.239802389122, -187500.02235174447, 45944.03307962812, 12552.29265121134, -24968.753751367778, -11909.054149276513, 5518.176319381752, 10362.38048820263, -187500.02235174447, 13098.055195576573, -32538.66374953553, 0.134, 0.998, 0.11800000000000001, 192.0, 0.0, 0.0, 0.0, 0.0, 0.0, 0.0, 0.0, 0.0, 0.0, 1.695935162745841E9, 0.0, 2023-09-28 16:06:02.745
36.0, 1720.503177702806, 20824.740329353852, 28987.26212826516, -10685.273788603996, 28899.509179533623, 27585.85245440632, -187500.02235174447, 45788.21906903018, 12491.786478970824, -25015.84887693511, -11959.211463834223, 5472.422298481739, 10304.534173552296, -187500.02235174447, 13394.528734031766, -32208.66259439738, 0.134, 0.998, 0.11800000000000001, 192.0, 0.0, 0.0, 0.0, 0.0, 0.0, 0.0, 0.0, 0.0, 0.0, 1.695935162745886E9, 0.0, 2023-09-28 16:06:02.745
38.0, 1697.3020669581972, 20812.089241992147, 29153.737920968288, -10649.175721308675, 28895.23999634266, 27736.3467498239, -187500.02235174447, 45912.56182343505, 12550.862139566201, -24973.8946525925, -11908.025969031569, 5506.128729120342, 10352.90334855358, -187500.02235174447, 13101.027977589129, -32526.43734531848, 0.134, 0.998, 0.11800000000000001, 192.0, 0.0, 0.0, 0.0, 0.0, 0.0, 0.0, 0.0, 0.0, 0.0, 1.6959351627459197E9, 0.0, 2023-09-28 16:06:02.745
40.0, 1732.751933664314, 20869.84614966466, 29029.909256685885, -10675.036689643466, 28901.09615338995, 27607.399536061235, -187500.02235174447, 45820.137360112356, 12512.931229225545, -25015.446545534916, -11944.526367727085, 5483.374653264839, 10321.90147899407, -187500.02235174447, 13396.205114865914, -32204.728687373245, 0.134, 0.998, 0.11800000000000001, 192.0, 0.0, 0.0, 0.0, 0.0, 0.0, 0.0, 0.0, 0.0, 0.0, 1.6959351627459466E9, 0.0, 2023-09-28 16:06:02.745
42.0, 1707.6062211520937, 20825.522640409785, 29101.971280809794, -10633.507148445506, 28901.498484790147, 27728.523639264542, -187500.02235174447, 45865.35493914544, 12569.056459552821, -24958.404893684972, -11901.476907906164, 5515.494110047115, 10355.362040443664, -187500.02235174447, 13085.515866937145, -32534.10399366665, 0.134, 0.998, 0.116, 192.0, 2.0, 24.0, 15.5, 24.0, 1.5, 80.0, 0.0, 0.0, 0.0, 1.6959351627459743E9, 0.0, 2023-09-28 16:06:02.745
44.0, 1690.6859505994262, 20838.39724521604, 29103.58060641058, -10681.451640302139, 28886.05342937153, 27624.722138014098, -187500.02235174447, 45878.67657884081, 12504.683435521536, -25008.875132665056, -11939.474873480187, 5492.002426624587, 10314.815976001737, -187500.02235174447, 13404.810536481207, -32199.23015823724, 0.134, 0.998, 0.116, 192.0, 0.0, 0.0, 0.0, 0.0, 0.0, 0.0, 0.0, 0.0, 0.0, 1.695935162745998E9, 0.0, 2023-09-28 16:06:02.745
46.0, 1716.725732889859, 20844.096940052146, 29049.914067973386, -10621.660723884193, 28913.523723307102, 27718.688871704206, -187500.02235174447, 45814.97410714318, 12570.688136898058, -24962.9422978094, -11881.606207085397, 5515.069426902464, 10357.753677100382, -187500.02235174447, 13096.289407764603, -32512.8251329452, 0.134, 0.998, 0.116, 192.0, 0.0, 0.0, 0.0, 0.0, 0.0, 0.0, 0.0, 0.0, 0.0, 1.6959351627460248E9, 0.0, 2023-09-28 16:06:02.746
48.0, 1723.431256226451, 20845.750969141838, 29150.80984244464, -10675.439021043661, 28884.220586326195, 27657.33333317439, -187500.02235174447, 45911.086608301, 12498.760223240879, -24997.47574299285, -11940.592460702952, 5502.395987796305, 10313.65368529006, -187500.02235174447, 13378.346071046124, -32233.6071412095, 0.134, 0.998, 0.116, 192.0, 0.0, 0.0, 0.0, 0.0, 0.0, 0.0, 0.0, 0.0, 0.0, 1.6959351627460556E9, 0.0, 2023-09-28 16:06:02.746
50.0, 1723.0736283151662, 20858.98320185938, 28995.465218480258, -10618.352665704808, 28912.607301784436, 27697.3876592383, -187500.02235174447, 45770.4047286993, 12573.795029377347, -24968.910213578965, -11893.318521179977, 5514.555336779993, 10352.076334008734, -187500.02235174447, 13112.047387605595, -32497.894167649054, 0.134, 0.998, 0.116, 192.0, 0.0, 0.0, 0.0, 0.0, 0.0, 0.0, 0.0, 0.0, 0.0, 1.695935162746086E9, 0.0, 2023-09-28 16:06:02.746
52.0, 1692.697607600404, 20831.110576523613, 29211.6959943409, -10672.220369842098, 28881.538376991557, 27676.04174328348, -187500.02235174447, 45962.71913799276, 12505.62220878866, -24984.6458416755, -11927.963725085703, 5509.861470444378, 10319.934525482002, -187500.02235174447, 13375.038012866738, -32246.682911715856, 0.134, 1.008, 0.11800000000000001, 192.0, 2.0, 24.0, 15.5, 64.0, 1.5, 88.0, 0.0, 0.0, 0.0, 1.6959351627461147E9, 0.0, 2023-09-28 16:06:02.746
54.0, 1741.558520979705, 20880.530283514297, 28960.194165729783, -10615.245773225519, 28921.972682711206, 27670.207937980646, -187500.02235174447, 45741.705088818686, 12556.941814058044, -24958.404893684972, -11892.290340935033, 5513.303639090495, 10346.220176961444, -187500.02235174447, 13161.578853318555, -32442.394786166526, 0.134, 1.008, 0.11800000000000001, 192.0, 0.0, 0.0, 0.0, 0.0, 0.0, 0.0, 0.0, 0.0, 0.0, 1.6959351627461371E9, 0.0, 2023-09-28 16:06:02.746
56.0, 1713.887061344035, 20828.78599510026, 29257.673532685465, -10665.78306743897, 28886.165188093804, 27703.176761052226, -187500.02235174447, 46000.40417914441, 12496.167420884065, -24985.182283542432, -11926.667323907295, 5519.629182771348, 10318.302848136766, -187500.02235174447, 13368.3548412746, -32256.696493231833, 0.134, 1.008, 0.11800000000000001, 192.0, 0.0, 0.0, 0.0, 0.0, 0.0, 0.0, 0.0, 0.0, 0.0, 1.6959351627461631E9, 0.0, 2023-09-28 16:06:02.746
58.0, 1743.6372332140486, 20863.766475172815, 28926.44303160227, -10629.10385478781, 28926.688900791276, 27643.43054812319, -187500.02235174447, 45719.2415856411, 12562.842674594245, -24963.255222231775, -11901.92394279527, 5510.37556056685, 10344.163816471555, -187500.02235174447, 13202.884877071963, -32392.12571288654, 0.134, 1.008, 0.11800000000000001, 192.0, 0.0, 0.0, 0.0, 0.0, 0.0, 0.0, 0.0, 0.0, 0.0, 1.6959351627461803E9, 0.0, 2023-09-28 16:06:02.746
60.0, 1710.6460583980154, 20840.185384772467, 29276.158425350004, -10657.87054990179, 28894.502388775636, 27724.1426973513, -187500.02235174447, 46013.79287407314, 12505.33163611074, -24975.36986772655, -11924.476852950675, 5527.541700308526, 10332.227984932422, -187500.02235174447, 13319.203355217382, -32303.076362976597, 0.134, 1.008, 0.11800000000000001, 192.0, 0.0, 0.0, 0.0, 0.0, 0.0, 0.0, 0.0, 0.0, 0.0, 1.6959351627461956E9, 0.0, 2023-09-28 16:06:02.746
62.0, 1728.5051022178059, 20873.064800866225, 28893.071877130496, -10630.132035032753, 28920.944502466264, 27630.064204938913, -187500.02235174447, 45692.061864383446, 12567.223616507485, -24961.377675697528, -11908.718873109685, 5511.04611290051, 10337.27947917932, -187500.02235174447, 13226.644781427955, -32363.940163128398, 0.138, 1.006, 0.122, 192.0, 2.0, 40.0, 15.5, 56.0, 1.5, 104.0, 0.0, 0.0, 0.0, 1.695935162746212E9, 0.0, 2023-09-28 16:06:02.746
64.0, 1691.2894476997194, 20838.26313474931, 29291.04468715724, -10663.413782526706, 28879.14674033484, 27745.622723772853, -187500.02235174447, 46026.68983062385, 12509.600819301704, -24961.735303608813, -11921.83934710495, 5533.777837011557, 10342.465083892952, -187500.02235174447, 13274.164590139937, -32351.19966878887, 0.138, 1.006, 0.122, 192.0, 0.0, 0.0, 0.0, 0.0, 0.0, 0.0, 0.0, 0.0, 0.0, 1.6959351627462409E9, 0.0, 2023-09-28 16:06:02.746
66.0, 1730.1591313074985, 20878.384516046586, 28875.548109477535, -10649.689811431148, 28913.188447140274, 27612.80865821942, -187500.02235174447, 45691.704236472164, 12556.517130913393, -24977.158007282975, -11919.35830347041, 5498.126804605342, 10342.196862959488, -187500.02235174447, 13258.183092854393, -32324.66814812042, 0.138, 1.006, 0.122, 192.0, 0.0, 0.0, 0.0, 0.0, 0.0, 0.0, 0.0, 0.0, 0.0, 1.6959351627462668E9, 0.0, 2023-09-28 16:06:02.746
68.0, 1695.5139274017724, 20816.58194262766, 29291.826998213175, -10680.82579145739, 28865.80274889502, 27756.418616344767, -187500.02235174447, 46040.1679325304, 12513.221801903463, -24973.201748514384, -11941.106550825423, 5520.679714760747, 10333.882014022114, -187500.02235174447, 13236.278383288192, -32382.93914591541, 0.138, 1.006, 0.122, 192.0, 0.0, 0.0, 0.0, 0.0, 0.0, 0.0, 0.0, 0.0, 0.0, 1.6959351627462945E9, 0.0, 2023-09-28 16:06:02.746
70.0, 1749.20281758342, 20881.55846375924, 28872.37416176488, -10651.545006220938, 28919.223418143207, 27601.923358669683, -187500.02235174447, 45696.77808246352, 12534.634773091648, -24984.42232423095, -11940.79362640305, 5487.107394588876, 10331.33391515421, -187500.02235174447, 13309.279180679225, -32261.613877012, 0.138, 1.006, 0.122, 192.0, 0.0, 0.0, 0.0, 0.0, 0.0, 0.0, 0.0, 0.0, 0.0, 1.6959351627463138E9, 0.0, 2023-09-28 16:06:02.746
72.0, 1682.9745987623453, 20821.655788619017, 29280.338201563147, -10657.512921990505, 28882.834778169967, 27777.853939277404, -187500.02235174447, 46068.085261355074, 12543.463712151493, -24954.04630351619, -11904.337931196444, 5537.220005657674, 10362.0452120358, -187500.02235174447, 13177.18037094836, -32443.445318155926, 0.136, 1.0, 0.11800000000000001, 192.0, 2.0, 32.0, 15.5, 32.0, 1.5, 88.0, 0.0, 0.0, 0.0, 1.695935162746339E9, 0.0, 2023-09-28 16:06:02.746
74.0, 1746.6994222044257, 20867.767437430317, 28905.164170880817, -10673.15914310922, 28900.269138845106, 27594.770800443985, -187500.02235174447, 45834.196607374746, 12525.71642705398, -24991.820751645657, -11935.988001345158, 5489.543734734504, 10322.817900516737, -187500.02235174447, 13340.057532794182, -32238.703338945314, 0.136, 1.0, 0.11800000000000001, 192.0, 0.0, 0.0, 0.0, 0.0, 0.0, 0.0, 0.0, 0.0, 0.0, 1.695935162746364E9, 0.0, 2023-09-28 16:06:02.746
76.0, 1702.4876716718284, 20825.589695643153, 29242.92138134496, -10660.955090636622, 28882.298336303036, 27769.896718251315, -187500.02235174447, 46150.719660606344, 12537.853424293211, -24963.791664098702, -11911.98222780016, 5520.500900805104, 10353.1939212315, -187500.02235174447, 13153.50987357019, -32454.129452005564, 0.136, 1.0, 0.11800000000000001, 192.0, 0.0, 0.0, 0.0, 0.0, 0.0, 0.0, 0.0, 0.0, 0.0, 1.6959351627463949E9, 0.0, 2023-09-28 16:06:02.746
78.0, 1727.9239568619678, 20894.74599298787, 28910.7744587391, -10666.49832326154, 28912.607301784436, 27594.793152188442, -187500.02235174447, 45900.84950934047, 12529.985610244943, -24997.319280781663, -11943.520539226598, 5486.2356765551185, 10322.549679583273, -187500.02235174447, 13360.196454548413, -32212.127114787952, 0.136, 1.0, 0.11800000000000001, 192.0, 0.0, 0.0, 0.0, 0.0, 0.0, 0.0, 0.0, 0.0, 0.0, 1.6959351627464397E9, 0.0, 2023-09-28 16:06:02.746
80.0, 1716.658677656493, 20814.033843759757, 29211.87480829654, -10651.813227154402, 28889.406191039827, 27774.2553084201, -187500.02235174447, 46157.82751534313, 12547.732895342459, -24953.688675604903, -11902.706253851207, 5534.2472236451185, 10362.402839947086, -187500.02235174447, 13111.510945738668, -32511.32756606669, 0.136, 1.0, 0.11800000000000001, 192.0, 0.0, 0.0, 0.0, 0.0, 0.0, 0.0, 0.0, 0.0, 0.0, 1.6959351627464645E9, 0.0, 2023-09-28 16:06:02.746
82.0, 1722.6489451705154, 20857.84326289216, 28946.805470801053, -10675.39431755475, 28899.95621442273, 27597.676527223175, -187500.02235174447, 45958.964044924265, 12517.602743816704, -25005.924702396955, -11949.399048018342, 5484.983978865621, 10321.633258060607, -187500.02235174447, 13376.580283234154, -32216.17278053436, 0.138, 1.002, 0.122, 192.0, 2.0, 40.0, 15.5, 40.0, 1.5, 104.0, 0.0, 0.0, 0.0, 1.695935162746486E9, 0.0, 2023-09-28 16:06:02.746
84.0, 1662.6121595635605, 20813.273884448277, 29179.844758492087, -10642.693715416637, 28893.7200777197, 27778.613898588887, -187500.02235174447, 46161.359090967075, 12552.650279122625, -24939.741187064792, -11901.342797439433, 5527.809921241989, 10361.128790513134, -187500.02235174447, 13092.377852484924, -32535.847429734164, 0.138, 1.002, 0.122, 192.0, 0.0, 0.0, 0.0, 0.0, 0.0, 0.0, 0.0, 0.0, 0.0, 1.695935162746508E9, 0.0, 2023-09-28 16:06:02.746
86.0, 1710.8472240981132, 20842.398207473543, 29000.807285405077, -10678.434154800672, 28899.06214464452, 27614.775611731486, -187500.02235174447, 46032.925967326875, 12481.95171141049, -25001.074373850155, -11957.17745508879, 5476.624426439336, 10306.65758927555, -187500.02235174447, 13412.901867974027, -32180.633506850423, 0.138, 1.002, 0.122, 192.0, 0.0, 0.0, 0.0, 0.0, 0.0, 0.0, 0.0, 0.0, 0.0, 1.695935162746529E9, 0.0, 2023-09-28 16:06:02.746
88.0, 1696.8997355580016, 20813.40799491501, 29123.33954850907, -10639.475064215072, 28902.325499334995, 27761.671276291763, -187500.02235174447, 46138.157980222466, 12548.135226742654, -24953.912193049455, -11904.762614341094, 5516.410531569783, 10355.80907533277, -187500.02235174447, 13101.340902011503, -32514.993252157365, 0.138, 1.002, 0.122, 192.0, 0.0, 0.0, 0.0, 0.0, 0.0, 0.0, 0.0, 0.0, 0.0, 1.6959351627465527E9, 0.0, 2023-09-28 16:06:02.746
90.0, 1716.8821951010461, 20855.60808844663, 29045.019035937672, -10671.281596574974, 28905.611205769925, 27633.908704985228, -187500.02235174447, 46085.31845633012, 12484.097478878199, -24995.307623780685, -11955.769295188105, 5490.661321957269, 10319.308676637254, -187500.02235174447, 13419.696798288442, -32175.179681203328, 0.138, 1.002, 0.122, 192.0, 0.0, 0.0, 0.0, 0.0, 0.0, 0.0, 0.0, 0.0, 0.0, 1.6959351627465749E9, 0.0, 2023-09-28 16:06:02.746
92.0, 1698.3525989475966, 20835.022131803293, 29065.13560594745, -10640.078561315366, 28903.420734813302, 27738.15724112478, -187500.02235174447, 46095.443796568376, 12548.694020354036, -24958.874280318534, -11913.54684991203, 5512.0072379120875, 10342.152159470577, -187500.02235174447, 13105.945361369297, -32508.466542776412, 0.136, 1.002, 0.13, 192.0, 2.0, 32.0, 15.5, 40.0, 2.0, 8.0, 0.0, 0.0, 0.0, 1.6959351627466002E9, 0.0, 2023-09-28 16:06:02.746
94.0, 1726.0240585832667, 20819.778242084773, 29119.942083351863, -10685.385547326274, 28888.646231728344, 27654.114681972824, -187500.02235174447, 46152.954835051874, 12473.748621195391, -25007.28815880873, -11959.099705111947, 5486.213324810663, 10303.70715900745, -187500.02235174447, 13421.686103544964, -32179.717085327757, 0.136, 1.002, 0.13, 192.0, 0.0, 0.0, 0.0, 0.0, 0.0, 0.0, 0.0, 0.0, 0.0, 1.6959351627466228E9, 0.0, 2023-09-28 16:06:02.746
96.0, 1697.5255844027502, 20849.3719517436, 29004.003584862185, -10628.38859896524, 28925.01251995713, 27724.097993862393, -187500.02235174447, 46039.27386275218, 12559.981651303966, -24961.51178616426, -11900.828707316961, 5507.514537276571, 10355.518502654852, -187500.02235174447, 13126.21839359026, -32476.481196460867, 0.136, 1.002, 0.13, 192.0, 0.0, 0.0, 0.0, 0.0, 0.0, 0.0, 0.0, 0.0, 0.0, 1.6959351627466435E9, 0.0, 2023-09-28 16:06:02.746
98.0, 1685.4332906524292, 20849.953097099435, 29163.19270887288, -10679.082355389877, 28894.278871331084, 27681.070885785924, -187500.02235174447, 46177.027663830246, 12487.8972754356, -24995.151161569498, -11939.340763013455, 5497.366845293862, 10329.702237808971, -187500.02235174447, 13384.761021704797, -32228.846219640523, 0.136, 1.002, 0.13, 192.0, 0.0, 0.0, 0.0, 0.0, 0.0, 0.0, 0.0, 0.0, 0.0, 1.6959351627466805E9, 0.0, 2023-09-28 16:06:02.746
100.0, 1716.5469189342166, 20844.141643541057, 28962.652857619865, -10631.160215277698, 28925.39249961287, 27705.031955842016, -187500.02235174447, 46018.5090921532, 12552.694982611536, -24953.375751182528, -11907.780099842561, 5503.155947107786, 10364.325089970242, -187500.02235174447, 13136.947230928807, -32473.03902781475, 0.136, 1.002, 0.13, 192.0, 0.0, 0.0, 0.0, 0.0, 0.0, 0.0, 0.0, 0.0, 0.0, 1.695935162746702E9, 0.0, 2023-09-28 16:06:02.746
102.0, 1714.2223375108645, 20815.509058893807, 29219.139125244514, -10689.744137495058, 28885.025249126586, 27699.846351128384, -187500.02235174447, 46245.111077441106, 12481.75054571039, -24999.442696504917, -11959.479684767686, 5496.249258071096, 10320.828595260215, -187500.02235174447, 13378.502533257311, -32246.14646984893, 0.14200000000000002, 1.0, 0.126, 192.0, 2.0, 56.0, 15.5, 32.0, 1.5, 120.0, 0.0, 0.0, 0.0, 1.695935162746726E9, 0.0, 2023-09-28 16:06:02.746
104.0, 1719.1397212910322, 20849.818986632705, 28925.705424035245, -10636.815206624891, 28925.504258335146, 27669.559737391442, -187500.02235174447, 45992.938696496334, 12552.069133766787, -24972.41943745845, -11913.2115737452, 5494.125842347842, 10351.00345027488, -187500.02235174447, 13184.243522196237, -32414.030422452743, 0.14200000000000002, 1.0, 0.126, 192.0, 0.0, 0.0, 0.0, 0.0, 0.0, 0.0, 0.0, 0.0, 0.0, 1.6959351632259705E9, 0.0, 2023-09-28 16:06:03.225
106.0, 1707.9414973189232, 20846.823852875692, 29237.69107314242, -10666.431268028173, 28897.25165334364, 27722.57807523943, -187500.02235174447, 46251.30251065523, 12499.386072085628, -24977.26976600525, -11914.016236545593, 5520.9255839497555, 10333.300868666276, -187500.02235174447, 13342.49387293981, -32278.847071987042, 0.14200000000000002, 1.0, 0.126, 192.0, 0.0, 0.0, 0.0, 0.0, 0.0, 0.0, 0.0, 0.0, 0.0, 1.6959351632260566E9, 0.0, 2023-09-28 16:06:03.226
108.0, 1725.755837649803, 20877.93748115748, 28885.96402239371, -10634.714142646091, 28923.067918189518, 27651.56658310492, -187500.02235174447, 45954.29253033311, 12543.061380751298, -24960.148329752486, -11907.154250997812, 5507.022798898554, 10348.18713047351, -187500.02235174447, 13202.929580560873, -32395.858454210575, 0.14200000000000002, 1.0, 0.126, 192.0, 0.0, 0.0, 0.0, 0.0, 0.0, 0.0, 0.0, 0.0, 0.0, 1.6959351632260723E9, 0.0, 2023-09-28 16:06:03.226
110.0, 1679.1524504604877, 20808.73648032385, 29265.69780894492, -10674.366137309808, 28877.313897289503, 27736.994950413104, -187500.02235174447, 46277.16347899002, 12494.111060394176, -24974.475797948337, -11926.779082629571, 5516.723455992157, 10310.546792810774, -187500.02235174447, 13315.783538315718, -32307.01027000073, 0.14200000000000002, 1.0, 0.126, 192.0, 0.0, 0.0, 0.0, 0.0, 0.0, 0.0, 0.0, 0.0, 0.0, 1.6959351632260869E9, 0.0, 2023-09-28 16:06:03.226
112.0, 1747.8170094271911, 20875.948175900958, 28857.398492979824, -10624.588802407838, 28938.088290463485, 27638.781385276485, -187500.02235174447, 45939.47332375924, 12552.62792737817, -24966.585632155613, -11896.805393315006, 5506.106377375887, 10351.785761330815, -187500.02235174447, 13237.038342599672, -32348.651569920967, 0.134, 1.01, 0.13, 192.0, 2.0, 24.0, 15.5, 72.0, 2.0, 8.0, 0.0, 0.0, 0.0, 1.6959351632261002E9, 0.0, 2023-09-28 16:06:03.226
114.0, 1743.1901983249425, 20835.379759714575, 29287.870739444585, -10665.894826161246, 28882.81242642551, 27762.520642581065, -187500.02235174447, 46302.9797438359, 12503.699958765503, -24955.186242483407, -11907.757748098105, 5532.704953277702, 10340.453426891974, -187500.02235174447, 13255.34442130857, -32377.954706901874, 0.134, 1.01, 0.13, 192.0, 0.0, 0.0, 0.0, 0.0, 0.0, 0.0, 0.0, 0.0, 0.0, 1.695935163226116E9, 0.0, 2023-09-28 16:06:03.226
116.0, 1738.7645529227916, 20878.69744046896, 28868.931993118764, -10647.25347128552, 28925.258389146136, 27619.73769900056, -187500.02235174447, 45963.00971067068, 12516.149880427109, -24981.51659745176, -11936.971478101192, 5483.486411987115, 10320.806243515759, -187500.02235174447, 13301.836049775608, -32289.86648200351, 0.134, 1.01, 0.13, 192.0, 0.0, 0.0, 0.0, 0.0, 0.0, 0.0, 0.0, 0.0, 0.0, 1.695935163226129E9, 0.0, 2023-09-28 16:06:03.226
118.0, 1664.7355752868148, 20805.562532611195, 29282.260451586302, -10655.635375456259, 28899.777400467086, 27780.804369545505, -187500.02235174447, 46302.26448801333, 12513.735892025936, -24969.156082767975, -11909.098852765424, 5521.059694416487, 10335.558394856262, -187500.02235174447, 13236.703066432843, -32393.824445465143, 0.134, 1.01, 0.13, 192.0, 0.0, 0.0, 0.0, 0.0, 0.0, 0.0, 0.0, 0.0, 0.0, 1.695935163226142E9, 0.0, 2023-09-28 16:06:03.226
120.0, 1727.9016051175124, 20868.505044997342, 28883.170054336795, -10648.326355019373, 28941.172831198317, 27617.413117577213, -187500.02235174447, 45966.76480373917, 12527.213993932486, -24986.635146932025, -11912.988056300648, 5491.778909180035, 10331.244508176387, -187500.02235174447, 13341.376285717046, -32247.24170532724, 0.134, 1.01, 0.13, 192.0, 0.0, 0.0, 0.0, 0.0, 0.0, 0.0, 0.0, 0.0, 0.0, 1.6959351632261548E9, 0.0, 2023-09-28 16:06:03.226
122.0, 1688.2943139427084, 20803.327358165665, 29263.7085036884, -10652.908462632711, 28907.71226974872, 27788.091038237937, -187500.02235174447, 46272.648426610045, 12506.963313455977, -24960.394198941496, -11910.104681265913, 5529.173377653763, 10342.33097342622, -187500.02235174447, 13193.85477231202, -32435.398690152015, 0.134, 1.0, 0.122, 192.0, 2.0, 24.0, 15.5, 32.0, 1.5, 104.0, 0.0, 0.0, 0.0, 1.695935163226168E9, 0.0, 2023-09-28 16:06:03.226
124.0, 1740.5973959681269, 20860.16784431551, 28893.09422887495, -10653.646070199737, 28943.989150999685, 27612.74160298605, -187500.02235174447, 45963.0991176485, 12538.032238248854, -24984.377620742038, -11921.079387793468, 5483.575818964937, 10341.90629028157, -187500.02235174447, 13355.167312045969, -32237.697510444825, 0.134, 1.0, 0.122, 192.0, 0.0, 0.0, 0.0, 0.0, 0.0, 0.0, 0.0, 0.0, 0.0, 1.6959351632261808E9, 0.0, 2023-09-28 16:06:03.226
126.0, 1715.9881253228339, 20825.768509598794, 29243.860154612084, -10661.44682901464, 28894.703554475735, 27784.44770389172, -187500.02235174447, 46255.30347291273, 12544.737761585446, -24962.383504198016, -11898.459422404698, 5513.303639090495, 10367.72255512745, -187500.02235174447, 13144.41271357688, -32498.698830449444, 0.134, 1.0, 0.122, 192.0, 0.0, 0.0, 0.0, 0.0, 0.0, 0.0, 0.0, 0.0, 0.0, 1.695935163226196E9, 0.0, 2023-09-28 16:06:03.226
128.0, 1750.1862943394535, 20888.219283606923, 28921.7268135222, -10671.21454134161, 28917.479982075693, 27603.063297636905, -187500.02235174447, 45993.43043487435, 12518.13918568363, -25000.314414538672, -11944.951050871738, 5471.595283936892, 10317.721702780927, -187500.02235174447, 13380.424783280467, -32217.826809624057, 0.134, 1.0, 0.122, 192.0, 0.0, 0.0, 0.0, 0.0, 0.0, 0.0, 0.0, 0.0, 0.0, 1.6959351632262087E9, 0.0, 2023-09-28 16:06:03.226
130.0, 1682.1699359619543, 20803.997910499325, 29200.095438968594, -10652.617889954792, 28892.49073177466, 27775.663468320785, -187500.02235174447, 46215.405609060006, 12536.758188814902, -24955.566222139147, -11905.366111441388, 5515.181185624741, 10369.220122005954, -187500.02235174447, 13106.235934047216, -32534.43926983348, 0.134, 1.0, 0.122, 192.0, 0.0, 0.0, 0.0, 0.0, 0.0, 0.0, 0.0, 0.0, 0.0, 1.6959351632262216E9, 0.0, 2023-09-28 16:06:03.226
132.0, 1725.9570033499008, 20852.523547711797, 28974.365171714446, -10679.864666445812, 28897.028135899087, 27605.276120337978, -187500.02235174447, 46038.75977262972, 12490.71359523697, -25003.510713995784, -11943.699353182239, 5476.490315972605, 10314.726569023916, -187500.02235174447, 13392.830001453161, -32212.66355665488, 0.136, 0.992, 0.12, 192.0, 2.0, 32.0, 15.5, 0.0, 1.5, 96.0, 0.0, 0.0, 0.0, 1.695935163226237E9, 0.0, 2023-09-28 16:06:03.226
134.0, 1707.4050554519958, 20818.07950950617, 29146.09362436457, -10646.717029418593, 28889.517949762103, 27765.649886804807, -187500.02235174447, 46174.45721321788, 12550.750380843923, -24948.614829613547, -11895.821916558973, 5517.706932748191, 10359.161837001067, -187500.02235174447, 13093.07075656304, -32541.234200147894, 0.136, 0.992, 0.12, 192.0, 0.0, 0.0, 0.0, 0.0, 0.0, 0.0, 0.0, 0.0, 0.0, 1.6959351632262497E9, 0.0, 2023-09-28 16:06:03.226
136.0, 1689.0319215097336, 20845.750969141838, 29023.673119982854, -10681.473992046595, 28886.791036938554, 27620.385899589768, -187500.02235174447, 46088.91708718742, 12478.107211364177, -25000.04619360521, -11949.868434651904, 5479.41839449625, 10304.444766574476, -187500.02235174447, 13409.280885372269, -32195.765637846667, 0.136, 0.992, 0.12, 192.0, 0.0, 0.0, 0.0, 0.0, 0.0, 0.0, 0.0, 0.0, 0.0, 1.6959351632262619E9, 0.0, 2023-09-28 16:06:03.226
