%OpenBCI Raw EXG Data
%Number of channels = 16
%Sample Rate = 125 Hz
%Board = OpenBCI_GUI$BoardCytonSerialDaisy
Sample Index, EXG Channel 0, EXG Channel 1, EXG Channel 2, EXG Channel 3, EXG Channel 4, EXG Channel 5, EXG Channel 6, EXG Channel 7, EXG Channel 8, EXG Channel 9, EXG Channel 10, EXG Channel 11, EXG Channel 12, EXG Channel 13, EXG Channel 14, EXG Channel 15, Accel Channel 0, Accel Channel 1, Accel Channel 2, Other, Other, Other, Other, Other, Other, Other, Analog Channel 0, Analog Channel 1, Analog Channel 2, Timestamp, Other, Timestamp (Formatted)
208.0, 68792.90268336567, 56937.179796359516, -27838.628332451386, -35128.9403592277, -530.362192435526, -5130.954698438013, -187500.02235174447, 32515.61910100211, 35620.67873724446, -17032.74453076655, 12483.762202711368, -2994.7761290998615, 10585.070918210855, -3533.475522217217, -21155.76966473695, -49712.09015990379, 0.088, 0.994, 0.192, 192.0, 1.0, 96.0, 15.5, 8.0, 3.0, 0.0, 0.0, 0.0, 0.0, 1.695762118447947E9, 0.0, 2023-09-26 16:01:58.447
210.0, 68794.42260198863, 56936.822168448234, -27840.237658052167, -35140.853839022384, -527.0094307672299, -5136.564986296295, -187500.02235174447, 32516.021432402307, 35670.120795979594, -17042.55694658243, 12478.643653231104, -3007.561326928297, 10617.570354648871, -3540.248100787175, -21168.197234654097, -49727.19993915557, 0.088, 0.994, 0.192, 192.0, 0.0, 0.0, 0.0, 0.0, 0.0, 0.0, 0.0, 0.0, 0.0, 1.695762118447969E9, 0.0, 2023-09-26 16:01:58.447
212.0, 68792.92503511012, 56937.49272078189, -27846.4737947552, -35149.794536804504, -531.8597593140315, -5147.785562012859, -187500.02235174447, 32491.412161757013, 35617.19186510943, -17043.115740193814, 12477.302548563785, -3004.074454793269, 10577.158400673676, -3545.947795623278, -21165.358563108275, -49725.41179959915, 0.088, 0.994, 0.192, 192.0, 0.0, 0.0, 0.0, 0.0, 0.0, 0.0, 0.0, 0.0, 0.0, 1.69576211844798E9, 0.0, 2023-09-26 16:01:58.447
214.0, 68794.22143628853, 56942.67832549552, -27846.02675986609, -35151.18034496073, -523.3437446765596, -5136.296765362831, -187500.02235174447, 32514.367403312615, 35658.29672316274, -17043.540423338465, 12470.731135693924, -3010.556460685308, 10601.320636429864, -3553.7485544381807, -21177.227339414043, -49737.906424749664, 0.088, 0.994, 0.192, 192.0, 0.0, 0.0, 0.0, 0.0, 0.0, 0.0, 0.0, 0.0, 0.0, 1.69576211844799E9, 0.0, 2023-09-26 16:01:58.447
216.0, 68789.59462518628, 56940.823130705736, -27841.534059230577, -35154.95778977368, -527.9482040343528, -5138.464884574996, -187500.02235174447, 32485.064266331705, 35622.9586151789, -17043.85334776084, 12472.765144439358, -3008.365989728688, 10575.482019839528, -3545.3890020118956, -21174.23220565703, -49731.84910200228, 0.088, 0.994, 0.192, 192.0, 0.0, 0.0, 0.0, 0.0, 0.0, 0.0, 0.0, 0.0, 0.0, 1.695762118447999E9, 0.0, 2023-09-26 16:01:58.447
218.0, 68806.35843352777, 56954.48004656793, -27828.704157913227, -35148.408728648275, -517.0852562290736, -5128.451303059019, -187500.02235174447, 32520.491781293367, 35651.412385870506, -17032.94569646665, 12484.477458533938, -2997.1677657565792, 10609.791947578424, -3527.3958477253736, -21156.171996137142, -49718.59451754028, 0.08600000000000001, 0.992, 0.192, 192.0, 1.0, 88.0, 15.5, 0.0, 3.0, 0.0, 0.0, 0.0, 0.0, 1.695762118448009E9, 0.0, 2023-09-26 16:01:58.448
220.0, 68821.62467499074, 56967.48876184091, -27812.454439694222, -35131.555513328974, -493.6606280399118, -5103.998494624912, -187500.02235174447, 32496.933042637476, 35636.794344996735, -17023.736777751063, 12494.848667961201, -2981.3874341711326, 10601.342988174318, -3513.1801382517983, -21145.197289609587, -49702.76948246593, 0.08600000000000001, 0.992, 0.192, 192.0, 0.0, 0.0, 0.0, 0.0, 0.0, 0.0, 0.0, 0.0, 0.0, 1.695762118448019E9, 0.0, 2023-09-26 16:01:58.448
222.0, 68804.59264571579, 56947.77452323133, -27834.716777171707, -35160.54572588751, -501.84136651055417, -5123.153939623111, -187500.02235174447, 32553.840584020687, 35660.77776679728, -17020.115795149304, 12499.587237785727, -2983.801422572306, 10615.71515985908, -3501.7807485795915, -21148.505347788974, -49706.36811332323, 0.08600000000000001, 0.992, 0.192, 192.0, 0.0, 0.0, 0.0, 0.0, 0.0, 0.0, 0.0, 0.0, 0.0, 1.695762118448028E9, 0.0, 2023-09-26 16:01:58.448
224.0, 68808.97358762904, 56954.14477040109, -27820.813992120504, -35151.60502810538, -492.27481988368277, -5115.241422085932, -187500.02235174447, 32507.170141598006, 35649.62424631408, -17033.280972633478, 12481.817600943757, -3000.2299547469565, 10587.194333934109, -3524.1771965238095, -21161.201138639586, -49720.025029185425, 0.08600000000000001, 0.992, 0.192, 192.0, 0.0, 0.0, 0.0, 0.0, 0.0, 0.0, 0.0, 0.0, 0.0, 1.695762118448038E9, 0.0, 2023-09-26 16:01:58.448
0.0, 34368.04227448014, 28501.11168636223, -13929.562441058451, -17641.20371832892, -272.89244805484395, -2588.421414902379, -93750.01117587223, 14832.930544964142, 17814.116813435176, -8509.711445535595, 6249.7265636594975, -1490.5484307466068, 5302.057302243388, -1748.755782694314, -10571.972795960046, -24851.25063076623, 0.087, 0.993, 0.188, 192.0, 1.0, 96.0, 15.5, 8.0, 2.5, 96.0, 0.0, 0.0, 0.0, 1.69576211859364E9, 0.0, 2023-09-26 16:01:58.593
2.0, 68714.716281261, 56991.13690747463, -27866.165681620325, -35288.80003557206, -531.9715180363081, -5185.157678742133, -187500.02235174447, 29692.951404208114, 36063.735015837556, -17056.66089733373, 12027.205470467266, -3314.8531096998586, 10559.299356853886, -3602.765930028669, -21146.828966954825, -49738.15229393868, 0.087, 0.993, 0.188, 192.0, 0.0, 0.0, 0.0, 0.0, 0.0, 0.0, 0.0, 0.0, 0.0, 1.695762118593667E9, 0.0, 2023-09-26 16:01:58.593
4.0, 68703.02631891088, 56991.94157027502, -27857.090873371468, -35276.28305867709, -526.5847476225791, -5171.657225091127, -187500.02235174447, 29644.425766995642, 36078.062484033406, -17054.85040603285, 12028.85949955696, -3310.9415544201797, 10576.890179740212, -3592.6852932793254, -21129.506365001962, -49723.243680386986, 0.087, 0.993, 0.188, 192.0, 0.0, 0.0, 0.0, 0.0, 0.0, 0.0, 0.0, 0.0, 0.0, 1.695762118593731E9, 0.0, 2023-09-26 16:01:58.593
6.0, 68677.47827499846, 56979.75986954688, -27875.061675913537, -35285.31316343703, -547.9306635773974, -5175.434669904073, -187500.02235174447, 29683.384857581244, 36057.364768667794, -17053.71046706563, 12020.879926786414, -3318.6976097461716, 10557.824141719835, -3597.1779939148423, -21139.56465000685, -49726.730552522014, 0.087, 0.993, 0.188, 192.0, 0.0, 0.0, 0.0, 0.0, 0.0, 0.0, 0.0, 0.0, 0.0, 1.69576211859374E9, 0.0, 2023-09-26 16:01:58.593
8.0, 68666.01183009289, 56969.70158454199, -27871.887728200883, -35287.21306171573, -553.6303584135006, -5176.328739682286, -187500.02235174447, 29641.363578005265, 36082.95751606912, -17072.217711474623, 12004.294932400577, -3325.7607609940483, 10568.75414475848, -3607.437444619828, -21148.57240302234, -49727.915194978144, 0.092, 0.994, 0.188, 192.0, 1.0, 112.0, 15.5, 8.0, 2.5, 112.0, 0.0, 0.0, 0.0, 1.695762118593749E9, 0.0, 2023-09-26 16:01:58.593
10.0, 68676.53950173134, 56977.77056429035, -27867.953821176747, -35278.18295695579, -526.8529685560428, -5157.441515617552, -187500.02235174447, 29682.44608431412, 36043.21611442758, -17060.03601074648, 12010.66517957034, -3313.0202666545233, 10542.826121190325, -3594.4957845802055, -21132.32268480333, -49710.74905523647, 0.092, 0.994, 0.188, 192.0, 0.0, 0.0, 0.0, 0.0, 0.0, 0.0, 0.0, 0.0, 0.0, 1.695762118593758E9, 0.0, 2023-09-26 16:01:58.593
12.0, 68687.38009779216, 56987.82884929524, -27866.590364764976, -35273.98082899819, -553.2056752688497, -5163.4541348760295, -187500.02235174447, 29634.926275602138, 36091.562937684415, -17060.013659002027, 12009.055853969558, -3312.1709003652218, 10554.22551086253, -3603.481185851239, -21138.46941452854, -49715.64408727218, 0.092, 0.994, 0.188, 192.0, 0.0, 0.0, 0.0, 0.0, 0.0, 0.0, 0.0, 0.0, 0.0, 1.695762118593767E9, 0.0, 2023-09-26 16:01:58.593
14.0, 68678.28293779885, 56971.75794503188, -27881.94601320577, -35288.62122161641, -536.4642186718248, -5184.6435886196605, -187500.02235174447, 29654.43934851162, 36046.27830341796, -17059.745438068563, 12012.743891804683, -3309.0863596303893, 10546.111827625255, -3600.7542730276914, -21131.22744932502, -49720.025029185425, 0.092, 0.994, 0.188, 192.0, 0.0, 0.0, 0.0, 0.0, 0.0, 0.0, 0.0, 0.0, 0.0, 1.695762118593776E9, 0.0, 2023-09-26 16:01:58.593
16.0, 68703.07102239979, 56994.288503442825, -27868.400856065855, -35275.94778251026, -549.2717682447158, -5178.45215540554, -187500.02235174447, 29613.37919394722, 36102.85056863434, -17073.558816141944, 12003.512621344642, -3321.580984780906, 10558.517045797951, -3617.495729624716, -21140.61518199625, -49738.37581138323, 0.092, 0.994, 0.188, 192.0, 0.0, 0.0, 0.0, 0.0, 0.0, 0.0, 0.0, 0.0, 0.0, 1.695762118653962E9, 0.0, 2023-09-26 16:01:58.653
18.0, 68704.76975497839, 56991.53923887482, -27873.60881252394, -35281.22279420171, -555.2843875031933, -5181.916675796113, -187500.02235174447, 29640.49185997151, 36063.33268443736, -17057.644374089763, 12021.349313419976, -3305.1748043507105, 10554.806656218369, -3601.2907148946188, -21123.985484121502, -49726.95406996657, 0.1, 0.992, 0.194, 192.0, 1.5, 16.0, 15.5, 0.0, 3.0, 8.0, 0.0, 0.0, 0.0, 1.695762118653985E9, 0.0, 2023-09-26 16:01:58.653
20.0, 68736.66569431612, 57019.90360258861, -27854.498071014652, -35258.69223579076, -539.749925106755, -5174.540600125862, -187500.02235174447, 29608.685327611605, 36127.415135790725, -17054.537481610478, 12021.282258186611, -3305.0183421395236, 10570.430525592628, -3601.670694550359, -21133.70849295956, -49737.437038116106, 0.1, 0.992, 0.194, 192.0, 0.0, 0.0, 0.0, 0.0, 0.0, 0.0, 0.0, 0.0, 0.0, 1.695762118653995E9, 0.0, 2023-09-26 16:01:58.653
22.0, 68741.76189205193, 57020.86472760019, -27857.2249838382, -35252.79137525456, -553.8538758580537, -5156.279224905876, -187500.02235174447, 29632.512287200963, 36073.458024675616, -17020.920457949695, 12057.782656882127, -3273.703548157638, 10589.831839779836, -3581.9788076852333, -21106.193495535077, -49708.80445346886, 0.1, 0.992, 0.194, 192.0, 0.0, 0.0, 0.0, 0.0, 0.0, 0.0, 0.0, 0.0, 0.0, 1.695762118654005E9, 0.0, 2023-09-26 16:01:58.654
24.0, 68731.56949658031, 57008.213640238486, -27874.458178813242, -35268.370541139906, -544.2202739978163, -5172.104259980233, -187500.02235174447, 29611.702813113072, 36134.03125214949, -17053.062266476427, 12028.412464667854, -3308.2146415966326, 10570.318766870352, -3600.977790472244, -21142.04569364139, -49742.600291085284, 0.1, 0.992, 0.194, 192.0, 0.0, 0.0, 0.0, 0.0, 0.0, 0.0, 0.0, 0.0, 0.0, 1.695762118654014E9, 0.0, 2023-09-26 16:01:58.654
26.0, 68741.31485716283, 57013.9580385635, -27874.435827068788, -35259.98863696917, -542.9238728194085, -5161.531884852873, -187500.02235174447, 29600.750458329974, 36085.08093179237, -17044.18862392767, 12041.689400874306, -3296.0105891240346, 10554.51608354045, -3590.0254356891437, -21130.735710947003, -49726.372924610725, 0.1, 0.992, 0.194, 192.0, 0.0, 0.0, 0.0, 0.0, 0.0, 0.0, 0.0, 0.0, 0.0, 1.695762118654061E9, 0.0, 2023-09-26 16:01:58.654
28.0, 68752.60248811275, 57031.95119285002, -27865.405722308842, -35252.858430487926, -550.6575764009448, -5158.290881906853, -187500.02235174447, 29598.71644958454, 36135.05943239444, -17046.356743139833, 12040.013020040158, -3305.197156095166, 10584.467421110561, -3595.278095636141, -21142.068045385844, -49736.47591310453, 0.108, 0.988, 0.194, 192.0, 1.5, 48.0, 15.0, 112.0, 3.0, 8.0, 0.0, 0.0, 0.0, 1.69576211865407E9, 0.0, 2023-09-26 16:01:58.654
30.0, 68745.65109558715, 57022.78697762334, -27870.010181666636, -35257.1723171678, -553.4068409689476, -5158.514399351407, -187500.02235174447, 29589.798103546873, 36090.154777783726, -17030.08467317637, 12056.352145236988, -3290.422653010208, 10569.84938023679, -3582.2246768742416, -21127.204135323067, -49718.92979370711, 0.108, 0.988, 0.194, 192.0, 0.0, 0.0, 0.0, 0.0, 0.0, 0.0, 0.0, 0.0, 0.0, 1.695762118714184E9, 0.0, 2023-09-26 16:01:58.714
32.0, 68752.6248398572, 57023.52458519037, -27861.2259460957, -35257.328779378986, -544.2426257422717, -5156.92742549508, -187500.02235174447, 29592.077981481314, 36141.608493519845, -17033.638600544764, 12048.774903866639, -3295.295333301465, 10592.804621792391, -3593.400549101895, -21132.859126670257, -49732.3408403803, 0.108, 0.988, 0.194, 192.0, 0.0, 0.0, 0.0, 0.0, 0.0, 0.0, 0.0, 0.0, 0.0, 1.69576211871422E9, 0.0, 2023-09-26 16:01:58.714
34.0, 68748.35565666624, 57023.792806123834, -27852.397007035855, -35261.48620384767, -531.0774482580958, -5154.446381860541, -187500.02235174447, 29575.783559773394, 36101.08478082237, -17019.869925960294, 12065.918691863859, -3281.236086039077, 10585.875581011245, -3588.0361304326216, -21109.725071159017, -49717.23106112851, 0.108, 0.988, 0.194, 192.0, 0.0, 0.0, 0.0, 0.0, 0.0, 0.0, 0.0, 0.0, 0.0, 1.69576211871423E9, 0.0, 2023-09-26 16:01:58.714
36.0, 68745.71815082051, 57017.98135256545, -27868.065579899023, -35276.551279610554, -554.3009107471598, -5173.914751281113, -187500.02235174447, 29591.072152980825, 36145.27417961052, -17030.934039465672, 12052.842921357504, -3299.2292403255988, 10602.348816674807, -3600.8436800055124, -21125.19247832209, -49737.39233462719, 0.108, 0.988, 0.194, 192.0, 0.0, 0.0, 0.0, 0.0, 0.0, 0.0, 0.0, 0.0, 0.0, 1.695762118714239E9, 0.0, 2023-09-26 16:01:58.714
38.0, 68753.94359278007, 57024.709227646505, -27862.879975185395, -35271.96917199721, -548.6012159110566, -5171.098431479744, -187500.02235174447, 29555.04114091887, 36111.7242111831, -17024.384978340266, 12062.297709262099, -3286.354635519342, 10572.173961660143, -3601.558935828082, -21120.1856875641, -49730.46329384605, 0.11, 0.992, 0.198, 192.0, 1.5, 56.0, 15.5, 0.0, 3.0, 24.0, 0.0, 0.0, 0.0, 1.695762118714248E9, 0.0, 2023-09-26 16:01:58.714
40.0, 68767.86872957573, 57040.75778016541, -27853.782815192084, -35269.1752039403, -541.6051198965455, -5168.393870400652, -187500.02235174447, 29582.489083109987, 36151.35385410236, -17031.09050167686, 12059.973127838746, -3297.999894380557, 10588.37897639024, -3601.581287572538, -21132.054463869867, -49743.53906435241, 0.11, 0.992, 0.198, 192.0, 0.0, 0.0, 0.0, 0.0, 0.0, 0.0, 0.0, 0.0, 0.0, 1.695762118714257E9, 0.0, 2023-09-26 16:01:58.714
42.0, 68770.01449704343, 57039.930765620564, -27852.50876575813, -35268.75052079565, -540.7557536072437, -5163.521190109395, -187500.02235174447, 29529.51544875091, 36136.44524055067, -17010.79511771144, 12073.2500640452, -3280.6549406832387, 10597.699653828104, -3594.182860157831, -21118.777527663413, -49725.99294495499, 0.11, 0.992, 0.198, 192.0, 0.0, 0.0, 0.0, 0.0, 0.0, 0.0, 0.0, 0.0, 0.0, 1.695762118714266E9, 0.0, 2023-09-26 16:01:58.714
44.0, 68766.99701154197, 57035.259251029405, -27862.70116122975, -35277.825329044506, -535.0784105155958, -5176.395794915652, -187500.02235174447, 29555.734044996985, 36147.755223245054, -17016.09248114735, 12061.493046461708, -3291.9872751220796, 10585.160325188675, -3596.798014259102, -21127.60646672326, -49733.65959330316, 0.11, 0.992, 0.198, 192.0, 0.0, 0.0, 0.0, 0.0, 0.0, 0.0, 0.0, 0.0, 0.0, 1.695762118714275E9, 0.0, 2023-09-26 16:01:58.714
46.0, 68777.50233143596, 57042.79178891084, -27851.100605857446, -35258.714587535214, -535.2125209823276, -5159.0508412183335, -187500.02235174447, 29520.731213179974, 36145.028310421505, -17015.28781834696, 12070.567854710562, -3281.5937139503617, 10569.357641858775, -3598.4743950932498, -21121.41503350914, -49718.08042741781, 0.11, 0.992, 0.198, 192.0, 0.0, 0.0, 0.0, 0.0, 0.0, 0.0, 0.0, 0.0, 0.0, 1.69576211877446E9, 0.0, 2023-09-26 16:01:58.774
48.0, 68769.09807552077, 57037.53912896385, -27868.42320781031, -35270.6280673299, -523.3884481654702, -5172.238370446965, -187500.02235174447, 29564.786501501385, 36144.9836069326, -17018.193545126145, 12067.416258742363, -3284.8570686408366, 10587.32844440084, -3604.3305521405405, -21130.154565591165, -49724.69654377658, 0.106, 0.996, 0.196, 192.0, 1.5, 40.0, 15.5, 16.0, 3.0, 16.0, 0.0, 0.0, 0.0, 1.695762118774517E9, 0.0, 2023-09-26 16:01:58.774
50.0, 68779.51398843694, 57050.637251214655, -27856.062693126525, -35250.98088395368, -535.2795762156935, -5157.217998172999, -187500.02235174447, 29521.066489346802, 36143.709557498645, -17020.384016082768, 12060.24134877221, -3284.2088680516326, 10567.368336602252, -3601.8048050170905, -21134.84843192678, -49720.91909896363, 0.106, 0.996, 0.196, 192.0, 0.0, 0.0, 0.0, 0.0, 0.0, 0.0, 0.0, 0.0, 0.0, 1.695762118774528E9, 0.0, 2023-09-26 16:01:58.774
52.0, 68783.02321231642, 57057.499236762436, -27857.672018727306, -35249.706834519726, -527.0541342561405, -5152.635890559661, -187500.02235174447, 29565.83703349078, 36131.90783642624, -17003.016710640994, 12073.808857656582, -3267.936798088169, 10604.472232398062, -3577.3967000718953, -21120.453908497562, -49705.13876737819, 0.106, 0.996, 0.196, 192.0, 0.0, 0.0, 0.0, 0.0, 0.0, 0.0, 0.0, 0.0, 0.0, 1.695762118774539E9, 0.0, 2023-09-26 16:01:58.774
54.0, 68773.6801831341, 57049.47496050298, -27867.37267582091, -35263.25199165964, -548.2212362553163, -5166.985710499967, -187500.02235174447, 29512.59517819824, 36153.36551110334, -17024.94377195165, 12050.138360278412, -3290.7802809214927, 10580.958197231079, -3609.113825453976, -21139.028208139924, -49726.21646239954, 0.106, 0.996, 0.196, 192.0, 0.0, 0.0, 0.0, 0.0, 0.0, 0.0, 0.0, 0.0, 0.0, 1.695762118774548E9, 0.0, 2023-09-26 16:01:58.774
56.0, 68800.39051775819, 57065.70232697753, -27843.858640653925, -35238.374500080885, -514.7606748057217, -5143.069343932789, -187500.02235174447, 29567.446359091566, 36130.633786992286, -17003.575504252374, 12071.1490000664, -3267.936798088169, 10585.562656588872, -3577.508458794172, -21111.51321071544, -49706.099892389764, 0.106, 0.996, 0.196, 192.0, 0.0, 0.0, 0.0, 0.0, 0.0, 0.0, 0.0, 0.0, 0.0, 1.695762118774557E9, 0.0, 2023-09-26 16:01:58.774
58.0, 68802.49158173699, 57069.166847368106, -27847.837251166973, -35239.067404159, -529.7586953352327, -5149.908977736113, -187500.02235174447, 29534.544591253354, 36172.02921772352, -17000.26744607299, 12078.368613525465, -3263.846428852848, 10601.365339918773, -3573.1275168809316, -21105.567646690328, -49704.35645632225, 0.11, 0.99, 0.2, 192.0, 1.5, 56.0, 15.0, 120.0, 3.0, 32.0, 0.0, 0.0, 0.0, 1.695762118774566E9, 0.0, 2023-09-26 16:01:58.774
60.0, 68781.57034892683, 57047.508006990916, -27874.03349566859, -35266.58240158348, -533.2008639813499, -5176.708719338027, -187500.02235174447, 29554.258829862934, 36127.19161834617, -17015.354873580323, 12064.354069751987, -3282.5995424508505, 10571.682223282127, -3596.5521450700935, -21121.482088742505, -49727.37875311122, 0.11, 0.99, 0.2, 192.0, 0.0, 0.0, 0.0, 0.0, 0.0, 0.0, 0.0, 0.0, 0.0, 1.695762118834791E9, 0.0, 2023-09-26 16:01:58.834
62.0, 68784.54313093939, 57048.78205642487, -27867.484434543185, -35268.862279517925, -554.2562072582492, -5177.803954816336, -187500.02235174447, 29498.759448380406, 36172.81152877945, -17033.61624880031, 12048.819607355548, -3299.8550891703476, 10584.132144943733, -3614.3664854009735, -21134.691969715594, -49748.72466906603, 0.11, 0.99, 0.2, 192.0, 0.0, 0.0, 0.0, 0.0, 0.0, 0.0, 0.0, 0.0, 0.0, 1.695762118834817E9, 0.0, 2023-09-26 16:01:58.834
64.0, 68797.55184621237, 57059.91322516361, -27858.633143738884, -35251.42791884278, -529.3563639350372, -5153.68642254906, -187500.02235174447, 29533.60581798623, 36124.554112500446, -17021.523955049986, 12061.135418550422, -3285.5276209744957, 10574.319729127852, -3599.726092782747, -21124.588981221794, -49735.403029370675, 0.11, 0.99, 0.2, 192.0, 0.0, 0.0, 0.0, 0.0, 0.0, 0.0, 0.0, 0.0, 0.0, 1.695762118834827E9, 0.0, 2023-09-26 16:01:58.834
66.0, 68789.92990135311, 57050.03375411437, -27859.79543445056, -35255.45123284474, -554.9938148252744, -5163.677652320583, -187500.02235174447, 29502.581596682263, 36176.96895324814, -17016.427757314177, 12064.175255796345, -3281.0125685945236, 10600.270104440464, -3596.5744968145486, -21121.102109086765, -49729.16689266764, 0.11, 0.99, 0.2, 192.0, 0.0, 0.0, 0.0, 0.0, 0.0, 0.0, 0.0, 0.0, 0.0, 1.695762118834836E9, 0.0, 2023-09-26 16:01:58.834
68.0, 68789.3934594862, 57053.09594310474, -27856.621486737906, -35244.16360189481, -526.7859133226768, -5147.651451546127, -187500.02235174447, 29523.3687190257, 36121.55897874344, -17024.206164384625, 12061.157770294878, -3287.941609375669, 10576.75606927348, -3598.563802071071, -21123.06906259883, -49729.01043045645, 0.11800000000000001, 0.994, 0.198, 192.0, 1.5, 88.0, 15.5, 8.0, 3.0, 24.0, 0.0, 0.0, 0.0, 1.695762118834845E9, 0.0, 2023-09-26 16:01:58.834
70.0, 68782.39736347168, 57052.0677628598, -27865.204556608744, -35248.991578697154, -550.6575764009448, -5160.526056352384, -187500.02235174447, 29511.23172178647, 36180.85815678336, -17011.84564970084, 12068.176218053844, -3275.9834260920798, 10609.680188856148, -3575.7873744711133, -21113.524867716416, -49719.9356222076, 0.11800000000000001, 0.994, 0.198, 192.0, 0.0, 0.0, 0.0, 0.0, 0.0, 0.0, 0.0, 0.0, 0.0, 1.695762118834887E9, 0.0, 2023-09-26 16:01:58.834
72.0, 68779.40222971466, 57048.17855932457, -27873.385295079388, -35252.54550606555, -556.133753792495, -5163.610597087217, -187500.02235174447, 29511.1646665531, 36124.46470552262, -17024.720254507098, 12054.586357425018, -3284.1865163071775, 10566.18369414612, -3583.5210780526495, -21127.85233591227, -49728.45163684507, 0.11800000000000001, 0.994, 0.198, 192.0, 0.0, 0.0, 0.0, 0.0, 0.0, 0.0, 0.0, 0.0, 0.0, 1.695762118834896E9, 0.0, 2023-09-26 16:01:58.834
74.0, 68778.15053202516, 57049.07262910278, -27875.396952080366, -35261.48620384767, -558.5030387047576, -5174.227675703487, -187500.02235174447, 29494.825541356273, 36176.11958695884, -17034.59972555634, 12042.248194485688, -3298.804557180948, 10589.250694423998, -3587.18676414332, -21144.884365187212, -49744.32137540834, 0.11800000000000001, 0.994, 0.198, 192.0, 0.0, 0.0, 0.0, 0.0, 0.0, 0.0, 0.0, 0.0, 0.0, 1.695762118834921E9, 0.0, 2023-09-26 16:01:58.834
76.0, 68782.44206696059, 57049.966698881, -27871.150120633858, -35264.90602074934, -537.0230122832074, -5171.389004157663, -187500.02235174447, 29499.228835013968, 36122.96713864412, -17021.076920160882, 12057.179159781834, -3282.9795221065906, 10579.728851286036, -3579.0730809060433, -21125.773623677927, -49729.92685197912, 0.11800000000000001, 0.994, 0.198, 192.0, 0.0, 0.0, 0.0, 0.0, 0.0, 0.0, 0.0, 0.0, 0.0, 1.695762118894695E9, 0.0, 2023-09-26 16:01:58.894
78.0, 68802.42452650363, 57062.70719322052, -27857.493204771665, -35264.70485504924, -537.715916361322, -5169.444402390051, -187500.02235174447, 29503.073335060282, 36183.02627599553, -17025.301399862936, 12055.122799291945, -3288.5004029870515, 10598.750185817504, -3584.8174792310574, -21137.687103472603, -49743.98609924151, 0.106, 0.994, 0.20800000000000002, 192.0, 1.5, 40.0, 15.5, 8.0, 3.0, 64.0, 0.0, 0.0, 0.0, 1.695762118894719E9, 0.0, 2023-09-26 16:01:58.894
80.0, 68807.990110873, 57069.74799272395, -27839.298884785043, -35259.16162242432, -514.0677707276071, -5147.316175379297, -187500.02235174447, 29514.428021243577, 36136.86992369532, -17004.916608919695, 12082.48133450524, -3260.1360392732668, 10580.488810597517, -3563.806839443069, -21109.56860894783, -49709.45265405806, 0.106, 0.994, 0.20800000000000002, 192.0, 0.0, 0.0, 0.0, 0.0, 0.0, 0.0, 0.0, 0.0, 0.0, 1.69576211889473E9, 0.0, 2023-09-26 16:01:58.894
82.0, 68802.40217475918, 57068.85392294573, -27847.546678489052, -35272.08093071949, -513.2407561827607, -5157.665033062105, -187500.02235174447, 29545.474594291998, 36188.100121986885, -17005.69891997563, 12082.257817060688, -3264.9640160756135, 10606.86386905478, -3564.3209295655406, -21111.60261769326, -49711.64312501468, 0.106, 0.994, 0.20800000000000002, 192.0, 0.0, 0.0, 0.0, 0.0, 0.0, 0.0, 0.0, 0.0, 0.0, 1.695762118894739E9, 0.0, 2023-09-26 16:01:58.894
84.0, 68801.82102940333, 57066.1717136111, -27835.02970159408, -35266.627105072395, -494.7558635182218, -5147.7185067794935, -187500.02235174447, 29520.17241956859, 36142.502563298054, -17009.3646060663, 12076.91575013587, -3257.6326438942724, 10596.0009212495, -3555.246121316686, -21106.70758565755, -49698.81322369733, 0.106, 0.994, 0.20800000000000002, 192.0, 0.0, 0.0, 0.0, 0.0, 0.0, 0.0, 0.0, 0.0, 0.0, 1.695762118894748E9, 0.0, 2023-09-26 16:01:58.894
86.0, 68800.1893520581, 57071.893760191655, -27836.862544639414, -35276.43952088827, -501.684904299367, -5149.596053313739, -187500.02235174447, 29560.47261482151, 36175.04670322499, -17011.912704934206, 12080.827305415549, -3262.3712137187977, 10609.09904350031, -3551.759249181658, -21111.31204501534, -49703.03770339939, 0.106, 0.994, 0.20800000000000002, 192.0, 0.0, 0.0, 0.0, 0.0, 0.0, 0.0, 0.0, 0.0, 0.0, 1.695762118894758E9, 0.0, 2023-09-26 16:01:58.894
88.0, 68796.1883898006, 57062.28251007587, -27844.909172643325, -35283.77089306962, -537.3806401944925, -5152.792352770848, -187500.02235174447, 29524.106326592726, 36151.77853724701, -17010.236324100057, 12085.744689195715, -3257.6102921498173, 10591.731738058537, -3556.8554469174683, -21110.663844426137, -49697.56152600784, 0.106, 0.99, 0.20600000000000002, 192.0, 1.5, 40.0, 15.0, 120.0, 3.0, 56.0, 0.0, 0.0, 0.0, 1.695762118894767E9, 0.0, 2023-09-26 16:01:58.894
90.0, 68774.21662500103, 57039.304916775814, -27862.455292040744, -35313.23049226171, -523.5449103766573, -5186.498783409451, -187500.02235174447, 29543.172364613103, 36175.225517180625, -17033.61624880031, 12062.05184007309, -3290.55676347694, 10595.442127638118, -3576.5920372715045, -21136.345998805285, -49731.55852932436, 0.106, 0.99, 0.20600000000000002, 192.0, 0.0, 0.0, 0.0, 0.0, 0.0, 0.0, 0.0, 0.0, 0.0, 1.695762118953938E9, 0.0, 2023-09-26 16:01:58.953
92.0, 68771.37795345522, 57038.63436444216, -27857.269687327112, -35312.44818120577, -511.2290991817831, -5182.006082773934, -187500.02235174447, 29483.64966912862, 36155.667740782235, -17052.771693798506, 12054.608709169474, -3304.325438061409, 10593.318711914864, -3586.672674020848, -21137.150661605676, -49743.33789865231, 0.106, 0.99, 0.20600000000000002, 192.0, 0.0, 0.0, 0.0, 0.0, 0.0, 0.0, 0.0, 0.0, 0.0, 1.695762118953999E9, 0.0, 2023-09-26 16:01:58.953
94.0, 68769.67922087661, 57037.628535941665, -27863.28230658559, -35319.62309117593, -521.7344190757775, -5189.0468822773555, -187500.02235174447, 29518.36192826771, 36169.59287757789, -17047.34021989587, 12057.805008626583, -3310.293353830976, 10598.705482328593, -3584.504554808683, -21136.99419939449, -49747.02593648743, 0.106, 0.99, 0.20600000000000002, 192.0, 0.0, 0.0, 0.0, 0.0, 0.0, 0.0, 0.0, 0.0, 0.0, 1.69576211895401E9, 0.0, 2023-09-26 16:01:58.954
96.0, 68776.13887502419, 57044.75874242291, -27854.408664036833, -35311.643518405384, -525.4671603998138, -5181.581399629284, -187500.02235174447, 29470.93152653355, 36180.277011427526, -17045.060341961427, 12061.023659828146, -3305.8230049399144, 10582.008729220477, -3585.622142031448, -21132.65796097016, -49742.75675329647, 0.106, 0.99, 0.20600000000000002, 192.0, 0.0, 0.0, 0.0, 0.0, 0.0, 0.0, 0.0, 0.0, 0.0, 1.695762118954019E9, 0.0, 2023-09-26 16:01:58.954
98.0, 68774.01545930094, 57044.9152046341, -27858.700198972252, -35312.91756783934, -519.2533754412384, -5190.209172989032, -187500.02235174447, 29508.482457218466, 36177.10306371487, -17044.23332741658, 12056.441552214808, -3315.456606800152, 10598.258447439486, -3591.7241682677472, -21134.669617971136, -49747.69648882109, 0.112, 0.986, 0.21, 192.0, 1.5, 64.0, 15.0, 104.0, 3.0, 72.0, 0.0, 0.0, 0.0, 1.695762118954028E9, 0.0, 2023-09-26 16:01:58.954
100.0, 68785.75012513997, 57056.9180914066, -27843.41160576482, -35293.13627399639, -535.1454657489617, -5169.667919834605, -187500.02235174447, 29475.60304112471, 36199.275994214535, -17029.548231309444, 12070.031412843635, -3304.1242723613113, 10600.493621885016, -3573.3957378143955, -21120.78918466439, -49720.784988496904, 0.112, 0.986, 0.21, 192.0, 0.0, 0.0, 0.0, 0.0, 0.0, 0.0, 0.0, 0.0, 0.0, 1.695762118954037E9, 0.0, 2023-09-26 16:01:58.954
102.0, 68794.02027058843, 57063.31069032082, -27841.958742375227, -35286.207233215246, -515.9006137729423, -5160.861332519214, -187500.02235174447, 29531.236533073967, 36183.22744169563, -17027.760091753018, 12069.114991320968, -3309.6451532417723, 10588.28956941242, -3571.8758191914344, -21129.41695802414, -49719.22036638503, 0.112, 0.986, 0.21, 192.0, 0.0, 0.0, 0.0, 0.0, 0.0, 0.0, 0.0, 0.0, 0.0, 1.695762118954046E9, 0.0, 2023-09-26 16:01:58.954
104.0, 68787.85118911877, 57055.532283250366, -27844.953876132236, -35294.589137385985, -540.8228088406097, -5172.126611724689, -187500.02235174447, 29498.357116980213, 36217.045631056506, -17017.791213725952, 12077.63100595844, -3299.408054281241, 10595.822107293858, -3570.8029354575797, -21120.945646875578, -49706.36811332323, 0.112, 0.986, 0.21, 192.0, 0.0, 0.0, 0.0, 0.0, 0.0, 0.0, 0.0, 0.0, 0.0, 1.695762118954055E9, 0.0, 2023-09-26 16:01:58.954
106.0, 68778.46345644754, 57045.42929475657, -27852.08408261348, -35298.83596883249, -527.0094307672299, -5173.087736736266, -187500.02235174447, 29533.449355775043, 36185.21674695215, -17039.65121980324, 12058.073229560046, -3323.123255148322, 10574.945577972601, -3587.4326333323284, -21141.866879685746, -49725.52355832142, 0.112, 0.986, 0.21, 192.0, 0.0, 0.0, 0.0, 0.0, 0.0, 0.0, 0.0, 0.0, 0.0, 1.695762119014233E9, 0.0, 2023-09-26 16:01:59.014
108.0, 68804.65970094917, 57068.25042584544, -27820.858695609415, -35280.7757593126, -514.6042125945345, -5156.860370261714, -187500.02235174447, 29492.478608188467, 36222.52180844806, -17028.65416153123, 12077.854523402993, -3309.2428218415766, 10594.279836926442, -3579.9000954508897, -21125.95243763357, -49704.33410457779, 0.10200000000000001, 0.988, 0.21, 192.0, 1.5, 24.0, 15.0, 112.0, 3.0, 72.0, 0.0, 0.0, 0.0, 1.695762119014257E9, 0.0, 2023-09-26 16:01:59.014
110.0, 68797.46243923456, 57058.16978909609, -27830.335835258466, -35296.1314077534, -509.32920090308204, -5162.448306375541, -187500.02235174447, 29532.912913908116, 36179.47234862713, -17013.27616134598, 12082.324872294053, -3302.358484549342, 10587.931941501134, -3570.2664935906523, -21116.430594495607, -49695.68397947359, 0.10200000000000001, 0.988, 0.21, 192.0, 0.0, 0.0, 0.0, 0.0, 0.0, 0.0, 0.0, 0.0, 0.0, 1.695762119014267E9, 0.0, 2023-09-26 16:01:59.014
112.0, 68787.9405960966, 57047.88798664665, -27838.60598070693, -35314.862169606946, -518.9628027633194, -5186.655245620638, -187500.02235174447, 29490.69046863204, 36219.50432294659, -17018.037082914958, 12074.524113479152, -3313.1320253768, 10601.253581196497, -3583.766947241658, -21132.635609225705, -49712.045456414875, 0.10200000000000001, 0.988, 0.21, 192.0, 0.0, 0.0, 0.0, 0.0, 0.0, 0.0, 0.0, 0.0, 0.0, 1.695762119014276E9, 0.0, 2023-09-26 16:01:59.014
114.0, 68776.29533723538, 57041.42833249907, -27850.00537037914, -35324.96515810074, -505.61881132350106, -5196.199440503054, -187500.02235174447, 29502.000451326425, 36157.2323628941, -17022.976818439583, 12069.070287832057, -3318.7199614906267, 10600.29245618492, -3591.3888921009175, -21134.334341804308, -49718.72862800701, 0.10200000000000001, 0.988, 0.21, 192.0, 0.0, 0.0, 0.0, 0.0, 0.0, 0.0, 0.0, 0.0, 0.0, 1.695762119014323E9, 0.0, 2023-09-26 16:01:59.014
116.0, 68784.34196523929, 57049.47496050298, -27847.50197500014, -35321.81356213255, -546.8801315879979, -5205.140138285177, -187500.02235174447, 29460.202689195, 36210.92125307575, -17041.1711384262, 12052.172369023845, -3339.775304767526, 10591.821145036358, -3603.9505724848, -21156.864900215256, -49738.80049452788, 0.10200000000000001, 0.988, 0.21, 192.0, 0.0, 0.0, 0.0, 0.0, 0.0, 0.0, 0.0, 0.0, 0.0, 1.695762119014333E9, 0.0, 2023-09-26 16:01:59.014
118.0, 68769.76862785443, 57037.71794291949, -27859.99660015066, -35324.719288911736, -535.6595558714338, -5209.521080198417, -187500.02235174447, 29462.482567129442, 36162.216801907634, -17035.382036612278, 12058.363802237966, -3331.303993618965, 10577.828953007336, -3600.4413486053168, -21154.13798739171, -49730.10566593477, 0.10400000000000001, 0.988, 0.21, 192.0, 1.5, 32.0, 15.0, 112.0, 3.0, 72.0, 0.0, 0.0, 0.0, 1.695762119014342E9, 0.0, 2023-09-26 16:01:59.014
120.0, 68794.06497407735, 57066.03760314437, -27832.50395447063, -35299.059486277045, -517.0182009957076, -5177.960417027523, -187500.02235174447, 29453.184241436036, 36220.75602063609, -17028.385940597767, 12061.984784839724, -3326.096037160878, 10612.272991212963, -3595.635723547426, -21146.247821598987, -49720.1367879077, 0.10400000000000001, 0.988, 0.21, 192.0, 0.0, 0.0, 0.0, 0.0, 0.0, 0.0, 0.0, 0.0, 0.0, 1.695762119074598E9, 0.0, 2023-09-26 16:01:59.074
122.0, 68772.07085753333, 57047.44095175755, -27850.117129101414, -35311.19648351628, -525.847140055554, -5194.612466646728, -187500.02235174447, 29461.27557292886, 36164.27316239753, -17024.60849578482, 12063.929386607337, -3321.357467336353, 10572.66570003816, -3593.244086890708, -21138.603524995273, -49712.470139559526, 0.10400000000000001, 0.988, 0.21, 192.0, 0.0, 0.0, 0.0, 0.0, 0.0, 0.0, 0.0, 0.0, 0.0, 1.695762119074628E9, 0.0, 2023-09-26 16:01:59.074
124.0, 68783.31378499435, 57054.1688268386, -27839.70121618524, -35297.27134672062, -547.6400908994783, -5186.342321198264, -187500.02235174447, 29450.837308268226, 36217.40325896779, -17034.37620811179, 12050.227767256232, -3338.322441377931, 10591.262351424975, -3597.7144357817697, -21153.825062969336, -49728.29517463389, 0.10400000000000001, 0.988, 0.21, 192.0, 0.0, 0.0, 0.0, 0.0, 0.0, 0.0, 0.0, 0.0, 0.0, 1.695762119074638E9, 0.0, 2023-09-26 16:01:59.074
126.0, 68775.26715699043, 57047.91033839111, -27845.333855787976, -35302.70282062326, -545.8966548319644, -5194.523059668906, -187500.02235174447, 29428.35145334619, 36160.473365840124, -17031.492833077053, 12061.537749950618, -3329.001763940068, 10580.175886175142, -3587.3655780989625, -21145.51021403196, -49713.028933170914, 0.10400000000000001, 0.988, 0.21, 192.0, 0.0, 0.0, 0.0, 0.0, 0.0, 0.0, 0.0, 0.0, 0.0, 1.695762119074647E9, 0.0, 2023-09-26 16:01:59.074
128.0, 68790.4439914756, 57061.38844029766, -27834.69442542725, -35292.84570131847, -537.0453640276628, -5183.9953880304565, -187500.02235174447, 29429.35728184668, 36221.27011075856, -17038.064245946916, 12046.271508487644, -3345.5420548369952, 10607.333255688342, -3602.050674206099, -21155.590850781304, -49737.54879683838, 0.11, 0.982, 0.20800000000000002, 192.0, 1.5, 56.0, 15.0, 88.0, 3.0, 64.0, 0.0, 0.0, 0.0, 1.695762119074656E9, 0.0, 2023-09-26 16:01:59.074
130.0, 68810.96289288555, 57081.72852775199, -27809.951044315225, -35270.58336384098, -517.7781603071882, -5164.169390698599, -187500.02235174447, 29423.657587010573, 36183.96504926265, -17000.26744607299, 12084.291825806122, -3305.264211328532, 10598.325502672853, -3573.283979092119, -21116.22942879551, -49698.36618880823, 0.11, 0.982, 0.20800000000000002, 192.0, 0.0, 0.0, 0.0, 0.0, 0.0, 0.0, 0.0, 0.0, 0.0, 1.695762119074665E9, 0.0, 2023-09-26 16:01:59.074
132.0, 68793.2379595325, 57066.88696943367, -27837.84602139545, -35297.6289746319, -536.330108205093, -5188.331626454786, -187500.02235174447, 29434.453479582487, 36233.89884637581, -16999.59689373933, 12079.352090281498, -3318.4964440460735, 10621.325447717363, -3579.788336728613, -21125.594809722283, -49717.8345582288, 0.11, 0.982, 0.20800000000000002, 192.0, 0.0, 0.0, 0.0, 0.0, 0.0, 0.0, 0.0, 0.0, 0.0, 1.695762119074674E9, 0.0, 2023-09-26 16:01:59.074
134.0, 68773.50136917847, 57041.964774365995, -27859.594268750465, -35314.19161727329, -567.2202190423274, -5205.0283795629, -187500.02235174447, 29395.986127374905, 36197.97959303613, -17025.3684550963, 12054.966337080758, -3340.1105809343558, 10581.338176886818, -3608.6444388204145, -21143.967943664546, -49733.90546249217, 0.11, 0.982, 0.20800000000000002, 192.0, 0.0, 0.0, 0.0, 0.0, 0.0, 0.0, 0.0, 0.0, 0.0, 1.695762119074683E9, 0.0, 2023-09-26 16:01:59.074
136.0, 68786.84536061829, 57055.57698673928, -27853.447539025252, -35306.681431136305, -542.0521547856516, -5207.263554008431, -187500.02235174447, 29414.046336894793, 36225.762811394074, -17029.056492931424, 12044.617479397952, -3348.1795606827213, 10589.273046168453, -3607.3033341530963, -21154.830891469825, -49744.276671919426, 0.11, 0.982, 0.20800000000000002, 192.0, 0.0, 0.0, 0.0, 0.0, 0.0, 0.0, 0.0, 0.0, 0.0, 1.69576211913482E9, 0.0, 2023-09-26 16:01:59.134
138.0, 68815.05326212088, 57077.414641072115, -27816.053070551527, -35271.4774336192, -524.3719249215037, -5182.609579874227, -187500.02235174447, 29374.05906606425, 36206.98734605162, -17018.57352478189, 12070.43374424383, -3321.7597987365484, 10599.174868962155, -3595.389854358418, -21129.41695802414, -49718.99684894048, 0.114, 0.986, 0.20400000000000001, 192.0, 1.5, 72.0, 15.0, 104.0, 3.0, 48.0, 0.0, 0.0, 0.0, 1.695762119134841E9, 0.0, 2023-09-26 16:01:59.134
140.0, 68807.76659342845, 57072.96664392551, -27827.877143368383, -35270.40454988534, -528.1493697344506, -5181.044957762356, -187500.02235174447, 29415.275682839834, 36230.680195174245, -16995.439469270645, 12087.152849096401, -3309.2875253304874, 10638.826863625869, -3572.5240197806384, -21114.575399705816, -49702.70242723256, 0.114, 0.986, 0.20400000000000001, 192.0, 0.0, 0.0, 0.0, 0.0, 0.0, 0.0, 0.0, 0.0, 0.0, 1.695762119134852E9, 0.0, 2023-09-26 16:01:59.134
142.0, 68801.66456719214, 57068.183370612074, -27830.246428280643, -35266.269477161106, -542.7450588637661, -5187.415204932118, -187500.02235174447, 29367.95703982795, 36209.78131410853, -17008.336425821355, 12069.427915743341, -3319.4352173131965, 10615.91632555918, -3583.319912352552, -21126.019492866933, -49712.336029092796, 0.114, 0.986, 0.20400000000000001, 192.0, 0.0, 0.0, 0.0, 0.0, 0.0, 0.0, 0.0, 0.0, 0.0, 1.695762119134861E9, 0.0, 2023-09-26 16:01:59.134
144.0, 68798.40121250167, 57066.55169326683, -27839.790623163062, -35272.483262119684, -547.0142420547297, -5192.623161390205, -187500.02235174447, 29411.140610115603, 36204.12632276134, -17003.709614719108, 12066.253968030689, -3324.129083648811, 10621.750130862014, -3583.2975606080963, -21132.903830159168, -49721.768465252935, 0.114, 0.986, 0.20400000000000001, 192.0, 0.0, 0.0, 0.0, 0.0, 0.0, 0.0, 0.0, 0.0, 0.0, 1.695762119134869E9, 0.0, 2023-09-26 16:01:59.134
146.0, 68811.56638998585, 57082.10850740773, -27824.479678211177, -35254.668921788805, -544.0638117866292, -5178.206286216532, -187500.02235174447, 29370.43808346249, 36209.58014840843, -17001.51914376249, 12068.019755842657, -3321.290412102987, 10599.823069551358, -3582.1352698964206, -21130.355731291264, -49712.26897385943, 0.114, 0.986, 0.20400000000000001, 192.0, 0.0, 0.0, 0.0, 0.0, 0.0, 0.0, 0.0, 0.0, 0.0, 1.695762119134878E9, 0.0, 2023-09-26 16:01:59.134
148.0, 68800.68109043612, 57074.59832127074, -27833.196858548745, -35265.911849249824, -525.0424772551629, -5185.69412060906, -187500.02235174447, 29420.05895615327, 36198.06900001395, -17000.289797817444, 12065.829284886036, -3328.9123569622466, 10621.43720643964, -3580.078909406532, -21130.400434780175, -49717.23106112851, 0.12, 0.988, 0.196, 192.0, 1.5, 96.0, 15.0, 112.0, 3.0, 16.0, 0.0, 0.0, 0.0, 1.695762119134887E9, 0.0, 2023-09-26 16:01:59.134
150.0, 68780.69863089308, 57053.72179194949, -27858.722550716706, -35292.622183873915, -566.9519981088637, -5214.058484322844, -187500.02235174447, 29366.794749116274, 36214.4975321886, -17022.105100405824, 12045.399790453886, -3345.1397234367996, 10599.599552106805, -3598.697912537803, -21136.41305403865, -49729.8374450013, 0.12, 0.988, 0.196, 192.0, 0.0, 0.0, 0.0, 0.0, 0.0, 0.0, 0.0, 0.0, 0.0, 1.695762119194222E9, 0.0, 2023-09-26 16:01:59.194
152.0, 68785.39249722869, 57059.89087341916, -27857.80612919404, -35292.286907707086, -564.0239195852184, -5201.653266150149, -187500.02235174447, 29394.62267096313, 36186.53549987501, -17024.049702173437, 12040.661220629361, -3348.492485105096, 10586.769650789458, -3595.0098747026773, -21149.0417896559, -49737.81701777184, 0.12, 0.988, 0.196, 192.0, 0.0, 0.0, 0.0, 0.0, 0.0, 0.0, 0.0, 0.0, 0.0, 1.695762119194246E9, 0.0, 2023-09-26 16:01:59.194
154.0, 68806.4925439945, 57080.074498662296, -27831.09579456995, -35271.723302808205, -540.331070462593, -5187.795184587859, -187500.02235174447, 29352.623743131608, 36219.23610201313, -17026.575449296888, 12049.937194578313, -3339.6411943007943, 10608.964933033578, -3592.0147409456663, -21144.437330298108, -49734.218386914545, 0.12, 0.988, 0.196, 192.0, 0.0, 0.0, 0.0, 0.0, 0.0, 0.0, 0.0, 0.0, 0.0, 1.695762119194256E9, 0.0, 2023-09-26 16:01:59.194
156.0, 68796.99305260098, 57070.30678633533, -27837.711910928716, -35281.11103547944, -534.8548930710427, -5199.1275190267, -187500.02235174447, 29387.24659529288, 36193.889223800805, -17006.83885894285, 12076.133439079935, -3316.6636010007387, 10603.24288645302, -3579.095432650499, -21122.51026898745, -49718.6839245181, 0.12, 0.988, 0.196, 192.0, 0.0, 0.0, 0.0, 0.0, 0.0, 0.0, 0.0, 0.0, 0.0, 1.695762119194265E9, 0.0, 2023-09-26 16:01:59.194
158.0, 68799.56350321336, 57065.67997523308, -27831.341663758954, -35278.51823312262, -538.0511925281517, -5202.033245805889, -187500.02235174447, 29339.257399947335, 36229.60731144039, -17016.785385225463, 12059.05670631608, -3331.348697107875, 10627.472177442573, -3594.6522467913924, -21135.764853449447, -49732.9890409695, 0.114, 0.988, 0.194, 192.0, 1.5, 72.0, 15.0, 112.0, 3.0, 8.0, 0.0, 0.0, 0.0, 1.695762119194304E9, 0.0, 2023-09-26 16:01:59.194
160.0, 68796.97070085653, 57069.01038515692, -27831.431070736777, -35274.2266981872, -520.8850527864757, -5189.069234021811, -187500.02235174447, 29374.506100953353, 36181.77457830603, -16999.686300717152, 12071.439572744319, -3318.362333579342, 10605.746281832015, -3577.508458794172, -21118.352844518762, -49713.252450615466, 0.114, 0.988, 0.194, 192.0, 0.0, 0.0, 0.0, 0.0, 0.0, 0.0, 0.0, 0.0, 0.0, 1.695762119194313E9, 0.0, 2023-09-26 16:01:59.194
162.0, 68798.87059913523, 57070.68676599107, -27839.231829551678, -35285.22375645921, -560.3805852390034, -5199.21692600452, -187500.02235174447, 29334.116498722615, 36230.054346329496, -17003.59785599683, 12059.86136911647, -3333.226243642121, 10614.284648213941, -3585.4433280758058, -21142.0903971303, -49727.021125199935, 0.114, 0.988, 0.194, 192.0, 0.0, 0.0, 0.0, 0.0, 0.0, 0.0, 0.0, 0.0, 0.0, 1.695762119194322E9, 0.0, 2023-09-26 16:01:59.194
164.0, 68790.6898606646, 57058.885044918665, -27848.977190134192, -35289.068256505525, -528.0152592677188, -5193.293713723864, -187500.02235174447, 29353.227240231903, 36179.718217816146, -17007.576466509876, 12064.130552307433, -3326.6101272833503, 10599.443089895618, -3586.024473431644, -21136.882440672212, -49716.89578496168, 0.114, 0.988, 0.194, 192.0, 0.0, 0.0, 0.0, 0.0, 0.0, 0.0, 0.0, 0.0, 0.0, 1.695762119194331E9, 0.0, 2023-09-26 16:01:59.194
166.0, 68791.96391009855, 57058.90739666312, -27844.573896476497, -35293.06921876302, -540.2193117403164, -5189.9856555444785, -187500.02235174447, 29337.558667368732, 36225.583997438436, -17033.146862166748, 12043.76811310865, -3352.225226429132, 10607.713235344081, -3605.179918429842, -21150.449949556583, -49732.31848863584, 0.114, 0.988, 0.194, 192.0, 0.0, 0.0, 0.0, 0.0, 0.0, 0.0, 0.0, 0.0, 0.0, 1.695762119253969E9, 0.0, 2023-09-26 16:01:59.253
168.0, 68799.11646832424, 57066.19406535555, -27834.448556238243, -35280.7757593126, -519.3874859079702, -5170.78550705737, -187500.02235174447, 29367.66646715003, 36164.049644952975, -17007.822335698886, 12057.357973737477, -3335.0814384319115, 10607.91440104418, -3589.1984211442973, -21124.14194633269, -49706.256354600955, 0.11, 0.992, 0.2, 192.0, 1.5, 56.0, 15.5, 0.0, 3.0, 32.0, 0.0, 0.0, 0.0, 1.695762119254005E9, 0.0, 2023-09-26 16:01:59.254
170.0, 68792.41094498766, 57061.09786761974, -27846.004408121637, -35290.65523036185, -525.5789191220903, -5186.9905217874675, -187500.02235174447, 29358.457548434446, 36224.33229974894, -17019.17702188218, 12043.902223575382, -3350.5041421060732, 10615.536345903438, -3586.560915298571, -21137.91062091716, -49720.53911930789, 0.11, 0.992, 0.2, 192.0, 0.0, 0.0, 0.0, 0.0, 0.0, 0.0, 0.0, 0.0, 0.0, 1.695762119254016E9, 0.0, 2023-09-26 16:01:59.254
172.0, 68780.16218902614, 57049.027925613875, -27857.51555651612, -35296.399628686864, -538.6546896284449, -5198.233449248487, -187500.02235174447, 29347.482841906887, 36159.355778617355, -17024.49673706254, 12037.889604316904, -3350.839418272903, 10594.078671226343, -3603.6599998068814, -21136.65892322766, -49721.835520486304, 0.11, 0.992, 0.2, 192.0, 0.0, 0.0, 0.0, 0.0, 0.0, 0.0, 0.0, 0.0, 0.0, 1.695762119254027E9, 0.0, 2023-09-26 16:01:59.254
174.0, 68776.78707561339, 57047.61976571319, -27866.2774403426, -35310.70474513826, -550.9034455899532, -5222.350981515763, -187500.02235174447, 29322.582998583675, 36210.87654958684, -17036.164347668215, 12022.735121576205, -3368.9443312817016, 10615.357531947797, -3617.3616191579845, -21158.720095005046, -49750.646919089195, 0.11, 0.992, 0.2, 192.0, 0.0, 0.0, 0.0, 0.0, 0.0, 0.0, 0.0, 0.0, 0.0, 1.695762119254036E9, 0.0, 2023-09-26 16:01:59.254
176.0, 68797.14951481218, 57071.15615262463, -27836.862544639414, -35279.38995115637, -527.5011691452466, -5197.808766103836, -187500.02235174447, 29312.010623456317, 36169.77169153353, -17017.970027681593, 12040.549461907085, -3351.1076392063665, 10592.894028770212, -3606.0292847191436, -21133.32851330382, -49730.440942101595, 0.11, 0.992, 0.2, 192.0, 0.0, 0.0, 0.0, 0.0, 0.0, 0.0, 0.0, 0.0, 0.0, 1.69576211925406E9, 0.0, 2023-09-26 16:01:59.254
178.0, 68804.79381141589, 57075.71590849351, -27832.101623070437, -35276.39481739936, -540.48753267378, -5201.385045216685, -187500.02235174447, 29318.693795048453, 36236.87162838836, -17013.41027181271, 12051.658278901372, -3344.335060636409, 10619.62671513876, -3597.37915961494, -21128.947571390578, -49727.445808344586, 0.112, 0.988, 0.196, 192.0, 1.5, 64.0, 15.0, 112.0, 3.0, 16.0, 0.0, 0.0, 0.0, 1.695762119254069E9, 0.0, 2023-09-26 16:01:59.254
180.0, 68800.43522124711, 57071.15615262463, -27835.141460316358, -35268.21407892872, -533.8267128260986, -5193.830155590792, -187500.02235174447, 29294.106876147616, 36207.21086349617, -17014.907838691215, 12057.022697570646, -3336.7354675216043, 10596.246790438508, -3590.3383601115183, -21121.79501316488, -49717.991020439986, 0.112, 0.988, 0.196, 192.0, 0.0, 0.0, 0.0, 0.0, 0.0, 0.0, 0.0, 0.0, 0.0, 1.695762119314152E9, 0.0, 2023-09-26 16:01:59.314
182.0, 68783.42554371661, 57056.20283558403, -27857.56026000503, -35281.78158781309, -550.6799281454001, -5200.98271381649, -187500.02235174447, 29311.451829844933, 36248.44983201621, -17025.010827185015, 12034.335676948509, -3355.6673950752493, 10607.176793477154, -3599.3908166159176, -21144.750254720482, -49738.84519801679, 0.112, 0.988, 0.196, 192.0, 0.0, 0.0, 0.0, 0.0, 0.0, 0.0, 0.0, 0.0, 0.0, 1.695762119314174E9, 0.0, 2023-09-26 16:01:59.314
184.0, 68783.20202627206, 57055.107600105715, -27857.828480938493, -35279.52406162311, -554.1444485359727, -5197.294675981364, -187500.02235174447, 29287.55781502221, 36210.317755975455, -17034.890298234262, 12030.737046091206, -3358.550770109984, 10578.030118707433, -3605.9845812302333, -21144.794958209393, -49734.53131133691, 0.112, 0.988, 0.196, 192.0, 0.0, 0.0, 0.0, 0.0, 0.0, 0.0, 0.0, 0.0, 0.0, 1.695762119314184E9, 0.0, 2023-09-26 16:01:59.314
186.0, 68801.10577358077, 57072.944292181055, -27846.965533133214, -35267.63293357288, -539.3475937065595, -5183.9953880304565, -187500.02235174447, 29327.27686491929, 36236.469296988165, -17025.904896963228, 12032.346371691987, -3355.063897974956, 10600.113642229277, -3597.4462148483058, -21138.871745928736, -49732.5867095693, 0.112, 0.988, 0.196, 192.0, 0.0, 0.0, 0.0, 0.0, 0.0, 0.0, 0.0, 0.0, 0.0, 1.695762119314194E9, 0.0, 2023-09-26 16:01:59.314
188.0, 68801.82102940333, 57064.696498477046, -27845.713835443716, -35269.130500451385, -559.8888468609866, -5186.632893876183, -187500.02235174447, 29292.206977868915, 36223.97467183765, -17017.098309647838, 12048.327868977532, -3338.8588832448586, 10624.968782063579, -3584.6163135309594, -21126.51123124495, -49712.51484304844, 0.108, 0.988, 0.19, 192.0, 1.5, 48.0, 15.0, 112.0, 2.5, 120.0, 0.0, 0.0, 0.0, 1.695762119314203E9, 0.0, 2023-09-26 16:01:59.314
190.0, 68806.67135795014, 57073.16780962561, -27841.98109411968, -35266.068311461015, -548.7353263777884, -5187.54931539885, -187500.02235174447, 29305.103934419625, 36246.37111978187, -17026.888373719263, 12041.62234564094, -3348.4030781272745, 10605.34395043182, -3601.0448457056104, -21139.251725584476, -49728.339878122795, 0.108, 0.988, 0.19, 192.0, 0.0, 0.0, 0.0, 0.0, 0.0, 0.0, 0.0, 0.0, 0.0, 1.695762119314213E9, 0.0, 2023-09-26 16:01:59.314
192.0, 68810.11352659625, 57077.14642013865, -27834.448556238243, -35257.328779378986, -541.5380646631795, -5182.162544985121, -187500.02235174447, 29265.6084019671, 36239.71029993419, -17013.946713679637, 12058.564967938062, -3332.2427668860873, 10587.194333934109, -3584.9962931867, -21121.32562653132, -49709.8326337138, 0.108, 0.988, 0.19, 192.0, 0.0, 0.0, 0.0, 0.0, 0.0, 0.0, 0.0, 0.0, 0.0, 1.695762119314223E9, 0.0, 2023-09-26 16:01:59.314
194.0, 68804.07855559333, 57074.95594918203, -27841.042320852557, -35267.49882310615, -532.5750151366013, -5194.813632346825, -187500.02235174447, 29304.455733830422, 36234.055308587, -17004.961312408606, 12059.593148183007, -3331.281641874509, 10614.083482513845, -3581.5541245405825, -21115.424765995118, -49708.469177302024, 0.108, 0.988, 0.19, 192.0, 0.0, 0.0, 0.0, 0.0, 0.0, 0.0, 0.0, 0.0, 0.0, 1.695762119314233E9, 0.0, 2023-09-26 16:01:59.314
196.0, 68807.81129691735, 57076.38646082717, -27834.80618414953, -35261.41914861431, -537.6265093835008, -5192.734920112482, -187500.02235174447, 29259.685189686443, 36238.39154701132, -17023.08857716186, 12040.705924118272, -3348.134857193811, 10604.360473675784, -3597.312104381574, -21131.428615025117, -49721.209671641554, 0.108, 0.988, 0.19, 192.0, 0.0, 0.0, 0.0, 0.0, 0.0, 0.0, 0.0, 0.0, 0.0, 1.695762119375928E9, 0.0, 2023-09-26 16:01:59.375
198.0, 68795.29432002238, 57065.38940255516, -27844.640951709862, -35273.10911096443, -532.9549947923416, -5200.893306838669, -187500.02235174447, 29294.732724992362, 36223.77350613755, -17009.632826999765, 12048.216110255255, -3341.161112923755, 10611.468328412573, -3590.4501188337945, -21121.437385253597, -49709.810281969345, 0.098, 0.988, 0.194, 192.0, 1.5, 8.0, 15.0, 112.0, 3.0, 8.0, 0.0, 0.0, 0.0, 1.69576211937595E9, 0.0, 2023-09-26 16:01:59.375
200.0, 68790.6898606646, 57066.03760314437, -27843.053977853535, -35272.05857897503, -550.0987827895622, -5195.685350380582, -187500.02235174447, 29239.7027301434, 36238.905637133794, -17027.35776035282, 12032.771054836638, -3354.8850840193136, 10618.710293616092, -3609.8737847654565, -21135.966019149546, -49722.99781119798, 0.098, 0.988, 0.194, 192.0, 0.0, 0.0, 0.0, 0.0, 0.0, 0.0, 0.0, 0.0, 0.0, 1.695762119375961E9, 0.0, 2023-09-26 16:01:59.375
202.0, 68798.2894537794, 57075.470039304506, -27847.166698833313, -35268.996389984655, -529.9375092908751, -5186.0741002648, -187500.02235174447, 29267.776521179265, 36204.46159892817, -17013.812603212908, 12036.257926971666, -3344.8267990144254, 10622.375979706763, -3597.245049148208, -21130.243972568987, -49716.22523262802, 0.098, 0.988, 0.194, 192.0, 0.0, 0.0, 0.0, 0.0, 0.0, 0.0, 0.0, 0.0, 0.0, 1.695762119376003E9, 0.0, 2023-09-26 16:01:59.376
204.0, 68809.6441399627, 57081.90734170763, -27833.442727737754, -35258.78164276858, -535.5030936602466, -5172.886571036169, -187500.02235174447, 29235.41119520798, 36254.59656174142, -17003.441393785644, 12041.28706947411, -3331.9521942081687, 10629.640296654738, -3580.28007510663, -21121.929123631613, -49703.82001445533, 0.098, 0.988, 0.194, 192.0, 0.0, 0.0, 0.0, 0.0, 0.0, 0.0, 0.0, 0.0, 0.0, 1.695762119376012E9, 0.0, 2023-09-26 16:01:59.376
206.0, 68778.1281802807, 57047.351544779725, -27875.531062547096, -35291.50459665115, -530.4963029022579, -5201.317989983319, -187500.02235174447, 29255.773634406763, 36226.545122450014, -17017.388882325755, 12025.797310566582, -3345.7208687926377, 10593.206953192586, -3594.4957845802055, -21131.9874086365, -49718.63922102919, 0.098, 0.988, 0.194, 192.0, 0.0, 0.0, 0.0, 0.0, 0.0, 0.0, 0.0, 0.0, 0.0, 1.695762119376024E9, 0.0, 2023-09-26 16:01:59.376
208.0, 68790.42163973112, 57062.23780658696, -27856.017989637614, -35277.110073221935, -546.4107449544365, -5189.538620655372, -187500.02235174447, 29214.087630997616, 36269.84045145994, -17045.28385940598, 12003.222048666723, -3369.3690144263524, 10614.888145314235, -3619.7532558147022, -21149.66763850065, -49735.827712515325, 0.10400000000000001, 0.996, 0.194, 192.0, 1.5, 32.0, 15.5, 16.0, 3.0, 8.0, 0.0, 0.0, 0.0, 1.695762119376037E9, 0.0, 2023-09-26 16:01:59.376
210.0, 68794.10967756626, 57068.85392294573, -27853.71575995872, -35271.566840597014, -547.1483525214616, -5180.2402949619645, -187500.02235174447, 29251.146823304516, 36217.91734909026, -17022.954466695126, 12025.417330910843, -3349.1183339498443, 10612.854136568802, -3597.468566592761, -21126.824155667324, -49714.07946516031, 0.10400000000000001, 0.996, 0.194, 192.0, 0.0, 0.0, 0.0, 0.0, 0.0, 0.0, 0.0, 0.0, 0.0, 1.695762119434813E9, 0.0, 2023-09-26 16:01:59.434
212.0, 68803.27389279293, 57071.893760191655, -27844.931524387783, -35264.19076492677, -528.1270179899952, -5182.028434518389, -187500.02235174447, 29227.811602093174, 36275.74131199614, -17009.297550832933, 12033.687476359306, -3342.4351623577077, 10609.210802222588, -3595.9486479698003, -21116.09531832878, -49711.97840118151, 0.10400000000000001, 0.996, 0.194, 192.0, 0.0, 0.0, 0.0, 0.0, 0.0, 0.0, 0.0, 0.0, 0.0, 1.695762119434838E9, 0.0, 2023-09-26 16:01:59.434
214.0, 68794.98139560001, 57065.67997523308, -27852.08408261348, -35266.44829111675, -533.5361401481796, -5182.40841417413, -187500.02235174447, 29244.5530586902, 36214.36342172187, -17019.288780604456, 12026.959601278259, -3353.767496796548, 10587.61901707876, -3602.609467817482, -21127.159431834156, -49726.75290426647, 0.10400000000000001, 0.996, 0.194, 192.0, 0.0, 0.0, 0.0, 0.0, 0.0, 0.0, 0.0, 0.0, 0.0, 1.695762119434848E9, 0.0, 2023-09-26 16:01:59.434
216.0, 68807.65483470618, 57081.05797541833, -27843.255143553633, -35256.18884041176, -541.0463262851628, -5174.361786170219, -187500.02235174447, 29229.555038160688, 36286.82777724598, -17014.997245669038, 12036.23557522721, -3347.352546137875, 10626.376941964263, -3587.9467234548, -21114.351882261264, -49718.28159311791, 0.10400000000000001, 0.996, 0.194, 192.0, 0.0, 0.0, 0.0, 0.0, 0.0, 0.0, 0.0, 0.0, 0.0, 1.695762119434857E9, 0.0, 2023-09-26 16:01:59.434
218.0, 68800.56933171384, 57066.26112058892, -27853.402835536344, -35260.36861662491, -530.8539308135428, -5182.944856041057, -187500.02235174447, 29221.530761901235, 36232.200113797204, -17014.88548694676, 12033.642772870395, -3347.1513804377773, 10599.823069551358, -3590.0701391780544, -21115.447117739575, -49717.52163380643, 0.11, 0.998, 0.194, 192.0, 1.5, 56.0, 15.5, 24.0, 3.0, 8.0, 0.0, 0.0, 0.0, 1.695762119434866E9, 0.0, 2023-09-26 16:01:59.434
220.0, 68803.22918930402, 57071.04439390235, -27854.94510590376, -35253.41722409931, -555.0161665697296, -5181.581399629284, -187500.02235174447, 29202.48707562531, 36294.494425594145, -17020.02638817148, 12026.66902860034, -3356.293243919998, 10633.57420367887, -3598.541450326616, -21127.762928934448, -49728.31752637834, 0.11, 0.998, 0.194, 192.0, 0.0, 0.0, 0.0, 0.0, 0.0, 0.0, 0.0, 0.0, 0.0, 1.695762119434876E9, 0.0, 2023-09-26 16:01:59.434
222.0, 68801.79867765888, 57073.01134741442, -27847.88195465588, -35248.81276474152, -521.5109016312244, -5176.0158152599115, -187500.02235174447, 29205.817485549152, 36240.4032040123, -17019.467594560097, 12035.296801960088, -3343.284528647009, 10605.321598687364, -3590.9642089562667, -21115.08948982829, -49714.32533434932, 0.11, 0.998, 0.194, 192.0, 0.0, 0.0, 0.0, 0.0, 0.0, 0.0, 0.0, 0.0, 0.0, 1.695762119434885E9, 0.0, 2023-09-26 16:01:59.434
224.0, 68810.71702369655, 57079.359242839724, -27841.042320852557, -35241.90607570482, -525.2212912108054, -5166.7398413109595, -187500.02235174447, 29208.700860583886, 36299.5682715855, -17023.71442600661, 12034.335676948509, -3347.1737321822325, 10619.693770372125, -3595.725130525247, -21112.27317002692, -49716.538157050396, 0.11, 0.998, 0.194, 192.0, 0.0, 0.0, 0.0, 0.0, 0.0, 0.0, 0.0, 0.0, 0.0, 1.695762119434928E9, 0.0, 2023-09-26 16:01:59.434
226.0, 68793.86380837725, 57060.717887964, -27852.911097158325, -35251.9196572208, -535.3689831935147, -5173.0206815029005, -187500.02235174447, 29201.704764569375, 36252.98723614064, -17014.304341590923, 12039.498929917685, -3336.9589849661575, 10601.76767131897, -3585.1751071423423, -21101.49962919946, -49705.42934005611, 0.11, 0.998, 0.194, 192.0, 0.0, 0.0, 0.0, 0.0, 0.0, 0.0, 0.0, 0.0, 0.0, 1.695762119494285E9, 0.0, 2023-09-26 16:01:59.494
228.0, 68783.47024720554, 57049.40790526962, -27863.55052751905, -35262.581439325986, -553.9879863247855, -5185.202382231043, -187500.02235174447, 29197.815561034153, 36301.89285300885, -17031.045798187948, 12019.672932585829, -3357.611996842861, 10618.218555238076, -3601.178956172342, -21119.246914296975, -49722.0366861864, 0.112, 0.992, 0.186, 192.0, 1.5, 64.0, 15.5, 0.0, 2.5, 104.0, 0.0, 0.0, 0.0, 1.695762119494308E9, 0.0, 2023-09-26 16:01:59.494
230.0, 68777.6364419027, 57044.714038934, -27870.56897527802, -35266.09066320547, -544.9802333092968, -5183.481297907984, -187500.02235174447, 29178.101322424573, 36260.16214611079, -17037.728969780084, 12017.258944184656, -3360.897703277791, 10585.987339733523, -3604.799938774102, -21119.89511488618, -49717.432226828605, 0.112, 0.992, 0.186, 192.0, 0.0, 0.0, 0.0, 0.0, 0.0, 0.0, 0.0, 0.0, 0.0, 1.695762119494318E9, 0.0, 2023-09-26 16:01:59.494
232.0, 68775.75889536845, 57045.9657366235, -27873.519405546118, -35276.752445310645, -547.4165734549252, -5192.399643945652, -187500.02235174447, 29194.529854599223, 36290.20289065873, -17044.590955327865, 12006.038368468091, -3375.38163368483, 10619.157328505198, -3616.244031935219, -21135.94366740509, -49732.60906131376, 0.112, 0.992, 0.186, 192.0, 0.0, 0.0, 0.0, 0.0, 0.0, 0.0, 0.0, 0.0, 0.0, 1.695762119494327E9, 0.0, 2023-09-26 16:01:59.494
234.0, 68795.31667176685, 57066.797562455846, -27842.78575692007, -35251.96436070971, -522.3602679205261, -5162.828286031281, -187500.02235174447, 29163.86326120654, 36263.179631612256, -17027.17894639718, 12026.691380344795, -3351.867598517847, 10595.375072404751, -3601.0895491945207, -21107.89222811368, -49709.050322657866, 0.112, 0.992, 0.186, 192.0, 0.0, 0.0, 0.0, 0.0, 0.0, 0.0, 0.0, 0.0, 0.0, 1.695762119494336E9, 0.0, 2023-09-26 16:01:59.494
236.0, 68786.39832572917, 57062.68484147607, -27861.09183562897, -35269.622238829405, -532.7314773477885, -5181.73786184047, -187500.02235174447, 29194.798075532686, 36289.48763483616, -17019.244077115545, 12034.559194393063, -3341.384630368308, 10637.82103512538, -3599.1002439379986, -21102.773678633414, -49707.75392147946, 0.112, 0.992, 0.186, 192.0, 0.0, 0.0, 0.0, 0.0, 0.0, 0.0, 0.0, 0.0, 0.0, 1.695762119494345E9, 0.0, 2023-09-26 16:01:59.494
238.0, 68792.43329673211, 57065.814085699814, -27850.050073868046, -35257.038206701065, -535.7266111047996, -5178.1839344720765, -187500.02235174447, 29143.90315340795, 36275.71896025169, -17029.3694173538, 12032.14520599189, -3341.5634443239505, 10601.633560852237, -3605.090511452021, -21106.729937402004, -49710.83846221429, 0.108, 0.984, 0.194, 192.0, 1.5, 48.0, 15.0, 96.0, 3.0, 8.0, 0.0, 0.0, 0.0, 1.695762119494354E9, 0.0, 2023-09-26 16:01:59.494
240.0, 68776.13887502419, 57050.12316109218, -27867.864414198928, -35269.64459057386, -533.5808436370902, -5193.137251512677, -187500.02235174447, 29162.745673983776, 36287.40892260181, -17034.823243000894, 12020.969333764237, -3352.47109561814, 10604.29341844242, -3605.202270174297, -21119.738652674994, -49726.372924610725, 0.108, 0.984, 0.194, 192.0, 0.0, 0.0, 0.0, 0.0, 0.0, 0.0, 0.0, 0.0, 0.0, 1.695762119553917E9, 0.0, 2023-09-26 16:01:59.553
242.0, 68793.19325604358, 57070.44089680206, -27847.36786453341, -35244.7670989951, -527.3670586785148, -5171.277245435387, -187500.02235174447, 29125.3735572545, 36286.872480734884, -17030.88933597676, 12024.210336710255, -3340.445857101185, 10601.611209107783, -3600.620162560959, -21111.714376415537, -49711.3302005923, 0.108, 0.984, 0.194, 192.0, 0.0, 0.0, 0.0, 0.0, 0.0, 0.0, 0.0, 0.0, 0.0, 1.695762119553941E9, 0.0, 2023-09-26 16:01:59.553
244.0, 68783.35848848325, 57057.499236762436, -27859.102530372445, -35256.81468925651, -515.6770963283892, -5182.564876385317, -187500.02235174447, 29164.354999584557, 36284.68200977826, -17019.489946304555, 12036.839072327504, -3329.4935023180847, 10622.755959362503, -3587.253819376686, -21102.907789100147, -49702.52361327691, 0.108, 0.984, 0.194, 192.0, 0.0, 0.0, 0.0, 0.0, 0.0, 0.0, 0.0, 0.0, 0.0, 1.695762119553951E9, 0.0, 2023-09-26 16:01:59.553
246.0, 68780.56452042634, 57055.532283250366, -27858.767254205617, -35259.54160208006, -536.330108205093, -5186.431728176085, -187500.02235174447, 29100.250196486737, 36286.35839061241, -17043.920402994205, 12018.845918040983, -3350.6829560617157, 10606.796813821413, -3615.2605551791858, -21117.27996078491, -49718.92979370711, 0.108, 0.984, 0.194, 192.0, 0.0, 0.0, 0.0, 0.0, 0.0, 0.0, 0.0, 0.0, 0.0, 1.695762119553992E9, 0.0, 2023-09-26 16:01:59.553
248.0, 68777.16705526914, 57053.3194605493, -27860.242469339668, -35262.76025328162, -537.7606198502326, -5186.11880375371, -187500.02235174447, 29135.029510859196, 36256.71997746467, -17037.058417446427, 12018.71180757425, -3353.0522409739783, 10612.138880746232, -3608.107996953487, -21119.35867301925, -49721.94727920858, 0.108, 0.986, 0.194, 192.0, 1.5, 48.0, 15.0, 104.0, 3.0, 8.0, 0.0, 0.0, 0.0, 1.695762119554006E9, 0.0, 2023-09-26 16:01:59.554
250.0, 68778.39640121418, 57053.67708846058, -27855.79447219306, -35258.848698001944, -537.0006605387522, -5186.208210731532, -187500.02235174447, 29099.244367986248, 36293.04156220455, -17037.304286635434, 12022.04221749809, -3344.066839702945, 10600.404214907196, -3605.917525996867, -21112.139059560188, -49715.73349425, 0.108, 0.986, 0.194, 192.0, 0.0, 0.0, 0.0, 0.0, 0.0, 0.0, 0.0, 0.0, 0.0, 1.695762119554019E9, 0.0, 2023-09-26 16:01:59.554
252.0, 68773.90370057865, 57051.061934359306, -27860.376579806398, -35264.235468415674, -532.3514976920483, -5185.470603164506, -187500.02235174447, 29134.87304864801, 36259.17866935476, -17035.35968486782, 12017.214240695745, -3342.9269007357243, 10585.696767055604, -3600.955438727789, -21116.363539262242, -49716.40404658366, 0.108, 0.986, 0.194, 192.0, 0.0, 0.0, 0.0, 0.0, 0.0, 0.0, 0.0, 0.0, 0.0, 1.695762119554028E9, 0.0, 2023-09-26 16:01:59.554
254.0, 68762.70547660656, 57038.34379176424, -27867.21621360972, -35280.28402093459, -545.1813990093946, -5203.061426050834, -187500.02235174447, 29071.95288800632, 36299.881196007875, -17049.284821663477, 12011.916877259837, -3355.801505541981, 10611.334217945841, -3617.182805202342, -21126.37712077822, -49732.1396746802, 0.108, 0.986, 0.194, 192.0, 0.0, 0.0, 0.0, 0.0, 0.0, 0.0, 0.0, 0.0, 0.0, 1.695762119554037E9, 0.0, 2023-09-26 16:01:59.554
0.0, 68741.71718856302, 57027.346733492224, -27882.013068439137, -35286.07312274851, -537.3359367055817, -5204.31312374033, -187500.02235174447, 29103.446495943845, 36248.44983201621, -17048.14488269626, 12008.51941210263, -3355.153304952777, 10603.153479475199, -3617.2275086912528, -21128.41112952365, -49735.2912706484, 0.108, 0.986, 0.194, 192.0, 0.0, 0.0, 0.0, 0.0, 0.0, 0.0, 0.0, 0.0, 0.0, 1.69576211961423E9, 0.0, 2023-09-26 16:01:59.614
2.0, 68742.94653450805, 57035.14749230713, -27868.445559554766, -35271.14215745236, -545.2261024983052, -5187.817536332314, -187500.02235174447, 29066.007323981208, 36286.805425501516, -17054.96216475513, 11992.672025283817, -3364.3845754128192, 10600.270104440464, -3626.9058140404004, -21135.56368774935, -49741.192131184594, 0.098, 0.99, 0.196, 192.0, 1.5, 8.0, 15.0, 120.0, 3.0, 16.0, 0.0, 0.0, 0.0, 1.695762119614264E9, 0.0, 2023-09-26 16:01:59.614
4.0, 68728.61906631221, 57027.637306170145, -27867.685600243283, -35263.81078527102, -525.3777534219925, -5176.418146660108, -187500.02235174447, 29095.399867939934, 36224.89109336032, -17028.02831268648, 12006.619513823929, -3343.7986187694814, 10606.394482421218, -3603.280020151141, -21113.055481082854, -49715.84525297228, 0.098, 0.99, 0.196, 192.0, 0.0, 0.0, 0.0, 0.0, 0.0, 0.0, 0.0, 0.0, 0.0, 1.695762119614285E9, 0.0, 2023-09-26 16:01:59.614
6.0, 68698.17599036408, 57003.76564309188, -27884.13648416239, -35278.920564522814, -546.7907246101767, -5192.9807893014895, -187500.02235174447, 29062.006361723707, 36274.98135268466, -17043.495719849554, 11988.782821748593, -3362.5293806230284, 10611.490680157029, -3610.8572615214903, -21126.220658567032, -49730.731514779516, 0.098, 0.99, 0.196, 192.0, 0.0, 0.0, 0.0, 0.0, 0.0, 0.0, 0.0, 0.0, 0.0, 1.695762119614302E9, 0.0, 2023-09-26 16:01:59.614
8.0, 68680.54046398884, 57001.910448302086, -27887.288080130587, -35271.61154408593, -545.6731373874113, -5188.64455087716, -187500.02235174447, 29068.734236804754, 36197.13022674683, -17050.55887109743, 11972.555455274041, -3370.441898160207, 10588.893066512712, -3617.7863023026352, -21129.998103379978, -49733.36902062524, 0.098, 0.99, 0.196, 192.0, 0.0, 0.0, 0.0, 0.0, 0.0, 0.0, 0.0, 0.0, 0.0, 1.695762119614319E9, 0.0, 2023-09-26 16:01:59.614
10.0, 68686.88835941415, 57012.3040094738, -27867.84206245447, -35252.67961653228, -536.4865704162801, -5157.463867362007, -187500.02235174447, 29079.75364682122, 36241.163163323785, -17046.021466973005, 11974.902388441848, -3369.547828381995, 10595.196258449108, -3610.0078952321883, -21127.60646672326, -49727.75873276696, 0.098, 0.99, 0.196, 192.0, 0.0, 0.0, 0.0, 0.0, 0.0, 0.0, 0.0, 0.0, 0.0, 1.695762119614336E9, 0.0, 2023-09-26 16:01:59.614
12.0, 68677.54533023183, 57005.28556171484, -27874.078199157502, -35260.323913135995, -524.8189598106098, -5164.392908143152, -187500.02235174447, 29096.651565629432, 36179.02531373803, -17031.71635052161, 11983.50781005714, -3359.9812817551237, 10586.43437462263, -3597.8708979929565, -21111.35674850425, -49716.96284019505, 0.108, 0.998, 0.196, 192.0, 1.5, 48.0, 15.5, 24.0, 3.0, 16.0, 0.0, 0.0, 0.0, 1.695762119614392E9, 0.0, 2023-09-26 16:01:59.614
14.0, 68681.38983027815, 57008.45950942749, -27881.297812616565, -35265.39775912735, -539.3699454510147, -5172.663053591616, -187500.02235174447, 29100.04903078664, 36238.637416200334, -17039.18183316968, 11975.170609375313, -3370.330139437931, 10606.729758588048, -3601.894211994912, -21125.974789378022, -49726.26116588845, 0.108, 0.998, 0.196, 192.0, 0.0, 0.0, 0.0, 0.0, 0.0, 0.0, 0.0, 0.0, 0.0, 1.695762119674444E9, 0.0, 2023-09-26 16:01:59.674
16.0, 68681.32277504478, 57005.978465792956, -27883.555338806553, -35268.34818939545, -530.138674990973, -5176.127573982189, -187500.02235174447, 29093.835245828064, 36183.406255651265, -17040.76880702601, 11978.322205343511, -3361.925883522735, 10571.749278515492, -3607.57155508656, -21117.592885207283, -49720.226194885516, 0.108, 0.998, 0.196, 192.0, 0.0, 0.0, 0.0, 0.0, 0.0, 0.0, 0.0, 0.0, 0.0, 1.695762119674468E9, 0.0, 2023-09-26 16:01:59.674
18.0, 68691.80574319432, 57010.158242006095, -27881.61073703894, -35273.60084934245, -540.6216431405119, -5182.944856041057, -187500.02235174447, 29085.878024801976, 36241.07375634596, -17048.860138518827, 11971.79549596256, -3372.4312034167297, 10606.193316721121, -3625.028267506155, -21126.55593473386, -49736.297099148884, 0.108, 0.998, 0.196, 192.0, 0.0, 0.0, 0.0, 0.0, 0.0, 0.0, 0.0, 0.0, 0.0, 1.695762119674485E9, 0.0, 2023-09-26 16:01:59.674
20.0, 68701.93108343257, 57018.22722175446, -27874.83815846898, -35267.85645101743, -534.8548930710427, -5174.048861747845, -187500.02235174447, 29056.284315143148, 36204.14867450579, -17043.540423338465, 11988.715766515228, -3360.361261410864, 10586.43437462263, -3617.4286743913503, -21115.357710761753, -49718.4380553291, 0.108, 0.998, 0.196, 192.0, 0.0, 0.0, 0.0, 0.0, 0.0, 0.0, 0.0, 0.0, 0.0, 1.695762119674503E9, 0.0, 2023-09-26 16:01:59.674
22.0, 68712.3693480932, 57015.701474631016, -27876.447484069766, -35265.844794016455, -527.232948211783, -5179.212114717021, -187500.02235174447, 29061.984009979253, 36261.503250778114, -17052.391714142766, 11984.46893506872, -3372.0959272499, 10621.191337250631, -3630.3926861754285, -21125.32658878882, -49735.9394712376, 0.106, 0.992, 0.192, 192.0, 1.5, 40.0, 15.5, 0.0, 3.0, 0.0, 0.0, 0.0, 0.0, 1.69576211967452E9, 0.0, 2023-09-26 16:01:59.674
24.0, 68710.02241492539, 57011.78991935134, -27884.94114696278, -35269.73399755168, -561.0958410615732, -5185.1129752532215, -187500.02235174447, 29031.339768331025, 36238.61506445588, -17047.429626873687, 11994.862496240437, -3357.8131625429587, 10592.625807836748, -3619.6862005813364, -21109.680367670106, -49719.7344565075, 0.106, 0.992, 0.192, 192.0, 0.0, 0.0, 0.0, 0.0, 0.0, 0.0, 0.0, 0.0, 0.0, 1.695762119674538E9, 0.0, 2023-09-26 16:01:59.674
26.0, 68746.70162757655, 57052.5147977489, -27859.70602747274, -35238.866238458904, -518.4040091519367, -5154.088753949256, -187500.02235174447, 29061.536975090145, 36269.818099715485, -17035.22557440109, 11997.343539874977, -3354.192179941199, 10635.228232768564, -3616.8475290355123, -21111.401451993162, -49726.12705542172, 0.106, 0.992, 0.192, 192.0, 0.0, 0.0, 0.0, 0.0, 0.0, 0.0, 0.0, 0.0, 0.0, 1.695762119674555E9, 0.0, 2023-09-26 16:01:59.674
28.0, 68745.29346767586, 57052.85007391573, -27870.2784026001, -35242.46486931621, -532.6644221144226, -5159.855504018725, -187500.02235174447, 29031.920913686863, 36251.69083496223, -17002.860248429806, 12024.90324078837, -3315.300144588965, 10620.185508750143, -3587.1420606544093, -21089.65320463815, -49699.43907254208, 0.106, 0.992, 0.192, 192.0, 0.0, 0.0, 0.0, 0.0, 0.0, 0.0, 0.0, 0.0, 0.0, 1.695762119674572E9, 0.0, 2023-09-26 16:01:59.674
30.0, 68729.51313609042, 57039.170806309085, -27892.674850544317, -35267.945857995255, -545.6507856429561, -5189.449213677552, -187500.02235174447, 29033.418480565368, 36258.03873038754, -17023.580315539875, 12000.003397465158, -3337.6295372998165, 10610.842479567824, -3610.14200569892, -21122.13028933171, -49734.285442147906, 0.106, 0.992, 0.192, 192.0, 0.0, 0.0, 0.0, 0.0, 0.0, 0.0, 0.0, 0.0, 0.0, 1.695762119734745E9, 0.0, 2023-09-26 16:01:59.734
32.0, 68747.1263107212, 57059.06385887431, -27876.201614880756, -35252.277285132084, -535.7266111047996, -5174.78646931487, -187500.02235174447, 28982.74707588519, 36244.78414592554, -17020.3169608494, 11997.723519530717, -3332.578043052917, 10597.923171272656, -3612.645401077915, -21119.35867301925, -49729.03278220091, 0.10200000000000001, 0.99, 0.19, 192.0, 1.5, 24.0, 15.0, 120.0, 2.5, 120.0, 0.0, 0.0, 0.0, 1.695762119734782E9, 0.0, 2023-09-26 16:01:59.734
34.0, 68741.29250541837, 57051.2183965705, -27894.23947265619, -35268.61641032892, -556.6031404260565, -5187.728129354493, -187500.02235174447, 29013.681890211334, 36251.3555587954, -17012.046815400936, 12000.204563165256, -3336.176673910222, 10622.778311106958, -3608.6891423093252, -21123.024359109924, -49733.07844794732, 0.10200000000000001, 0.99, 0.19, 192.0, 0.0, 0.0, 0.0, 0.0, 0.0, 0.0, 0.0, 0.0, 0.0, 1.695762119734832E9, 0.0, 2023-09-26 16:01:59.734
36.0, 68751.61901135671, 57064.42827754358, -27877.743885248172, -35254.15483166633, -539.6158146400231, -5176.641664104661, -187500.02235174447, 28967.212613488748, 36253.99306464113, -17014.08082414637, 11999.3328451315, -3335.930804721213, 10602.14765097471, -3602.4530056062945, -21118.50930672995, -49725.27768913242, 0.10200000000000001, 0.99, 0.19, 192.0, 0.0, 0.0, 0.0, 0.0, 0.0, 0.0, 0.0, 0.0, 0.0, 1.69576211973485E9, 0.0, 2023-09-26 16:01:59.734
38.0, 68748.981505511, 57053.38651578266, -27882.683620772794, -35260.30156139154, -528.9316807903863, -5179.681501350582, -187500.02235174447, 29000.941395871807, 36248.852163416406, -17014.84078345785, 12002.842069010982, -3335.5955285543837, 10619.783177349947, -3605.0011044741996, -21114.821268894826, -49729.16689266764, 0.10200000000000001, 0.99, 0.19, 192.0, 0.0, 0.0, 0.0, 0.0, 0.0, 0.0, 0.0, 0.0, 0.0, 1.695762119734867E9, 0.0, 2023-09-26 16:01:59.734
40.0, 68767.64521213117, 57067.266949089404, -27860.689504228772, -35244.61063678392, -537.0006605387522, -5160.950739497035, -187500.02235174447, 28957.02021801713, 36274.86959396239, -17010.70571073362, 12006.75362429066, -3331.0134209410458, 10622.174814006665, -3611.2372411772303, -21110.641492681683, -49721.23202338601, 0.10200000000000001, 0.99, 0.19, 192.0, 0.0, 0.0, 0.0, 0.0, 0.0, 0.0, 0.0, 0.0, 0.0, 1.695762119734884E9, 0.0, 2023-09-26 16:01:59.734
42.0, 68766.39351444168, 57070.10562063523, -27871.597155522963, -35252.299636876545, -523.7460760767551, -5169.019719245401, -187500.02235174447, 29009.83739016502, 36248.69570120522, -16990.11975409028, 12028.703037345773, -3315.1213306333225, 10618.710293616092, -3592.3053136235853, -21094.838809351782, -49706.50222378996, 0.10400000000000001, 0.99, 0.188, 192.0, 1.5, 32.0, 15.0, 120.0, 2.5, 112.0, 0.0, 0.0, 0.0, 1.695762119734902E9, 0.0, 2023-09-26 16:01:59.734
44.0, 68775.84830234628, 57074.59832127074, -27863.37171356341, -35251.20440139823, -537.1571227499393, -5170.45023089054, -187500.02235174447, 28971.30298272407, 36284.97258245618, -16997.98756813855, 12017.907144773859, -3321.51392954754, 10642.850177627824, -3597.7814910151355, -21105.120611801223, -49715.9346599501, 0.10400000000000001, 0.99, 0.188, 192.0, 0.0, 0.0, 0.0, 0.0, 0.0, 0.0, 0.0, 0.0, 0.0, 1.695762119794603E9, 0.0, 2023-09-26 16:01:59.794
46.0, 68767.1311220087, 57063.42244904309, -27880.716667260727, -35271.36567489692, -539.0793727730958, -5179.726204839493, -187500.02235174447, 29004.227102306737, 36245.007663370096, -16996.13237334876, 12024.679723343817, -3318.317630090431, 10616.162194748187, -3592.528831068138, -21105.321777501318, -49714.72766574952, 0.10400000000000001, 0.99, 0.188, 192.0, 0.0, 0.0, 0.0, 0.0, 0.0, 0.0, 0.0, 0.0, 0.0, 1.695762119794639E9, 0.0, 2023-09-26 16:01:59.794
48.0, 68778.03877330289, 57074.419507315106, -27869.33962933298, -35268.19172718427, -527.523520889702, -5175.591132115261, -187500.02235174447, 28964.575107643024, 36285.03963768955, -17013.142050879247, 12004.540801589585, -3342.703383291171, 10622.28657272894, -3616.8028255466015, -21125.41599576664, -49733.74900028098, 0.10400000000000001, 0.99, 0.188, 192.0, 0.0, 0.0, 0.0, 0.0, 0.0, 0.0, 0.0, 0.0, 0.0, 1.695762119794656E9, 0.0, 2023-09-26 16:01:59.794
50.0, 68758.01161027093, 57050.12316109218, -27889.724420276216, -35288.88944254988, -566.1920387973832, -5188.689254366071, -187500.02235174447, 28978.20967176076, 36238.011567355585, -17005.520106019987, 12016.1860604508, -3334.3661826093416, 10612.362398190786, -3610.1643574433756, -21113.70368167206, -49723.82482574282, 0.10400000000000001, 0.99, 0.188, 192.0, 0.0, 0.0, 0.0, 0.0, 0.0, 0.0, 0.0, 0.0, 0.0, 1.695762119794674E9, 0.0, 2023-09-26 16:01:59.794
52.0, 68778.99989831446, 57073.74895498144, -27863.70698973024, -35263.94489573776, -534.3184512041154, -5167.052765733334, -187500.02235174447, 28945.263200433637, 36284.078512677974, -17004.670739730685, 12011.38043539291, -3334.6567552872607, 10624.007657052, -3608.510328353683, -21116.94468461808, -49722.886052475704, 0.098, 0.992, 0.188, 192.0, 1.5, 8.0, 15.5, 0.0, 2.5, 112.0, 0.0, 0.0, 0.0, 1.695762119794691E9, 0.0, 2023-09-26 16:01:59.794
54.0, 68772.65200288917, 57071.402021813636, -27873.385295079388, -35265.24129691617, -528.9316807903863, -5168.7962018008475, -187500.02235174447, 28974.834558348008, 36230.054346329496, -16996.55705649341, 12012.855650526959, -3331.32634536342, 10608.026159766456, -3597.088586937021, -21108.607483936248, -49714.37003783823, 0.098, 0.992, 0.188, 192.0, 0.0, 0.0, 0.0, 0.0, 0.0, 0.0, 0.0, 0.0, 0.0, 1.695762119794709E9, 0.0, 2023-09-26 16:01:59.794
56.0, 68790.53339845341, 57085.48362082048, -27856.196803593255, -35246.39877634034, -508.77040729169937, -5156.480390605973, -187500.02235174447, 28956.05909300555, 36278.87055621989, -16992.712556447095, 12017.862441284948, -3327.5712522949284, 10638.759808392502, -3590.114842666965, -21100.65026291016, -49709.36324708024, 0.098, 0.992, 0.188, 192.0, 0.0, 0.0, 0.0, 0.0, 0.0, 0.0, 0.0, 0.0, 0.0, 1.69576211979475E9, 0.0, 2023-09-26 16:01:59.794
58.0, 68768.38281969819, 57053.990012882954, -27874.301716602055, -35267.811747528525, -503.96478223380836, -5176.0158152599115, -187500.02235174447, 28963.01048553115, 36211.301232731494, -16989.002166867514, 12022.846880298483, -3332.645098286283, 10615.826918581357, -3575.3626913264625, -21095.062326796335, -49710.860813958745, 0.098, 0.992, 0.188, 192.0, 0.0, 0.0, 0.0, 0.0, 0.0, 0.0, 0.0, 0.0, 0.0, 1.695762119794768E9, 0.0, 2023-09-26 16:01:59.794
60.0, 68766.63938363068, 57051.2183965705, -27877.006277681146, -35271.83506153048, -507.71987530229995, -5179.793260072859, -187500.02235174447, 28956.170851727828, 36265.92889618026, -17013.253809601523, 12002.819717266526, -3357.768459054048, 10634.1106455458, -3592.0370926901214, -21115.04478633938, -49741.32624165133, 0.098, 0.992, 0.188, 192.0, 0.0, 0.0, 0.0, 0.0, 0.0, 0.0, 0.0, 0.0, 0.0, 1.695762119853912E9, 0.0, 2023-09-26 16:01:59.853
62.0, 68751.82017705681, 57043.73056217797, -27885.34347836298, -35283.815596558525, -497.9074594864201, -5185.045920019856, -187500.02235174447, 28970.140692012395, 36214.63164265533, -17015.28781834696, 12001.456260854753, -3353.90160726328, 10612.362398190786, -3592.3053136235853, -21113.100184571766, -49742.80145678538, 0.10400000000000001, 0.994, 0.192, 192.0, 1.5, 32.0, 15.5, 8.0, 3.0, 0.0, 0.0, 0.0, 0.0, 1.695762119853937E9, 0.0, 2023-09-26 16:01:59.853
64.0, 68769.43335168759, 57058.885044918665, -27879.3308591045, -35276.10424472144, -500.2096891653168, -5176.686367593571, -187500.02235174447, 28975.907442081865, 36263.78312871255, -17008.425832799177, 12000.271618398621, -3356.0920782199, 10622.957125062601, -3589.8466217335013, -21125.55010623337, -49754.0443842464, 0.10400000000000001, 0.994, 0.192, 192.0, 0.0, 0.0, 0.0, 0.0, 0.0, 0.0, 0.0, 0.0, 0.0, 1.695762119853959E9, 0.0, 2023-09-26 16:01:59.853
66.0, 68779.71515413704, 57068.67510899009, -27858.141405360868, -35262.8720120039, -465.43037479285897, -5154.602844071727, -187500.02235174447, 28994.101762068483, 36221.13600029183, -16992.533742491454, 12030.580583880019, -3322.7879789814924, 10600.225400951553, -3571.048804646588, -21097.0292803084, -49722.394314097684, 0.10400000000000001, 0.994, 0.192, 192.0, 0.0, 0.0, 0.0, 0.0, 0.0, 0.0, 0.0, 0.0, 0.0, 1.695762119853977E9, 0.0, 2023-09-26 16:01:59.853
68.0, 68773.70253487855, 57060.11439086371, -27872.08889390098, -35281.31220117953, -490.6654942829006, -5173.6688820921045, -187500.02235174447, 28991.464256222756, 36277.23887887465, -17012.069167145393, 12020.946982019781, -3335.215548898643, 10630.936697833145, -3581.308255351574, -21107.244027524477, -49739.247529416985, 0.10400000000000001, 0.994, 0.192, 192.0, 0.0, 0.0, 0.0, 0.0, 0.0, 0.0, 0.0, 0.0, 0.0, 1.695762119853995E9, 0.0, 2023-09-26 16:01:59.853
70.0, 68775.51302617944, 57054.414696027605, -27864.735169975185, -35277.825329044506, -482.84238372354315, -5166.2704546773975, -187500.02235174447, 28978.88022409442, 36235.50817197659, -17005.922437420184, 12030.04414201309, -3324.509063304551, 10610.507203400994, -3567.2937115780965, -21105.768812390426, -49732.45259910257, 0.10400000000000001, 0.994, 0.192, 192.0, 0.0, 0.0, 0.0, 0.0, 0.0, 0.0, 0.0, 0.0, 0.0, 1.695762119854012E9, 0.0, 2023-09-26 16:01:59.854
72.0, 68774.79777035688, 57056.56046349531, -27870.010181666636, -35293.33743969649, -496.67811354137825, -5184.621236875205, -187500.02235174447, 28992.961823101265, 36284.10086442243, -17013.812603212908, 12026.2890489446, -3330.7675517520374, 10628.589764665337, -3577.731976238725, -21117.816402651835, -49749.238759188505, 0.106, 0.988, 0.186, 192.0, 1.5, 40.0, 15.0, 112.0, 2.5, 104.0, 0.0, 0.0, 0.0, 1.69576211985403E9, 0.0, 2023-09-26 16:01:59.854
74.0, 68783.15732278315, 57064.42827754358, -27855.36978904841, -35285.849605303956, -494.6888082848559, -5176.284036193376, -187500.02235174447, 28968.285497222605, 36254.23893383014, -17011.577428767378, 12038.314287461555, -3321.7150952476377, 10597.47613638355, -3577.0390721606104, -21112.966074105036, -49741.16977944014, 0.106, 0.988, 0.186, 192.0, 0.0, 0.0, 0.0, 0.0, 0.0, 0.0, 0.0, 0.0, 0.0, 1.695762119914218E9, 0.0, 2023-09-26 16:01:59.914
76.0, 68776.87648259121, 57062.43897228706, -27858.40962629433, -35294.25386121916, -494.19706990683915, -5183.16837348561, -187500.02235174447, 29009.300948298092, 36280.457530076215, -17015.399577069235, 12029.552403635074, -3333.203891897666, 10625.527575674962, -3577.4190518163505, -21122.979655621013, -49752.47976213453, 0.106, 0.988, 0.186, 192.0, 0.0, 0.0, 0.0, 0.0, 0.0, 0.0, 0.0, 0.0, 0.0, 1.695762119914242E9, 0.0, 2023-09-26 16:01:59.914
78.0, 68765.92412780812, 57052.9171291491, -27866.635068253883, -35303.61924214593, -501.2155176658056, -5190.298579966853, -187500.02235174447, 28972.44292169129, 36258.75398621011, -17012.73971947905, 12030.04414201309, -3329.2476331290763, 10604.405177164695, -3580.123612895443, -21119.60454220826, -49746.869474276245, 0.106, 0.988, 0.186, 192.0, 0.0, 0.0, 0.0, 0.0, 0.0, 0.0, 0.0, 0.0, 0.0, 1.695762119914293E9, 0.0, 2023-09-26 16:01:59.914
80.0, 68784.6325379172, 57067.60222525623, -27853.671056469808, -35293.829178074506, -497.2369071527609, -5173.6688820921045, -187500.02235174447, 29009.41270702037, 36264.07370139047, -17014.79607996894, 12021.461072142252, -3339.0153454560455, 10621.683075628647, -3588.9972554441997, -21128.05350161237, -49751.85391328978, 0.106, 0.988, 0.186, 192.0, 0.0, 0.0, 0.0, 0.0, 0.0, 0.0, 0.0, 0.0, 0.0, 1.695762119914303E9, 0.0, 2023-09-26 16:01:59.914
82.0, 68786.86771236274, 57068.58570201227, -27843.322198787, -35293.76212284114, -496.5440030746464, -5172.216018702509, -187500.02235174447, 28974.387523458903, 36271.31566659399, -16999.64159722824, 12044.14809276439, -3322.60916502585, 10601.253581196497, -3570.020624401644, -21107.64635892467, -49730.41859035714, 0.11, 0.994, 0.192, 192.0, 1.5, 56.0, 15.5, 8.0, 3.0, 0.0, 0.0, 0.0, 0.0, 1.695762119914312E9, 0.0, 2023-09-26 16:01:59.914
84.0, 68779.26811924794, 57059.510893763414, -27852.866393669417, -35309.49775093767, -486.7986424921325, -5191.080891022789, -187500.02235174447, 29000.896692382896, 36266.13006188036, -17006.816507198397, 12034.2909734596, -3342.971604224635, 10603.891087042224, -3585.8009559870907, -21117.347016018273, -49743.56141609686, 0.11, 0.994, 0.192, 192.0, 0.0, 0.0, 0.0, 0.0, 0.0, 0.0, 0.0, 0.0, 0.0, 1.695762119914322E9, 0.0, 2023-09-26 16:01:59.914
86.0, 68791.91920660963, 57063.17657985409, -27837.577800461986, -35298.27717522111, -483.0659011680962, -5181.8272688182915, -187500.02235174447, 28965.290363465592, 36273.17086138378, -17008.917571177193, 12030.692342602295, -3341.6975547906823, 10605.321598687364, -3585.8456594760014, -21111.870838626724, -49735.80536077087, 0.11, 0.994, 0.192, 192.0, 0.0, 0.0, 0.0, 0.0, 0.0, 0.0, 0.0, 0.0, 0.0, 1.695762119914332E9, 0.0, 2023-09-26 16:01:59.914
88.0, 68783.22437801652, 57050.39138202565, -27849.826556423493, -35315.10803879595, -480.3613400890041, -5188.912771810624, -187500.02235174447, 29008.183361075327, 36264.297218835025, -17013.298513090434, 12027.764264078649, -3352.7616682960593, 10604.159307975688, -3583.655188519381, -21122.75613817646, -49740.789799784405, 0.11, 0.994, 0.192, 192.0, 0.0, 0.0, 0.0, 0.0, 0.0, 0.0, 0.0, 0.0, 0.0, 1.695762119914341E9, 0.0, 2023-09-26 16:01:59.914
90.0, 68795.5401892114, 57060.40496354162, -27835.588495205462, -35306.92730032531, -477.99205517674153, -5180.396757173152, -187500.02235174447, 28957.467252906234, 36290.85109124793, -17009.856344444317, 12029.731217590717, -3349.677127561227, 10607.221496966064, -3588.1255374104426, -21121.392681764686, -49737.906424749664, 0.11, 0.994, 0.192, 192.0, 0.0, 0.0, 0.0, 0.0, 0.0, 0.0, 0.0, 0.0, 0.0, 1.69576211997462E9, 0.0, 2023-09-26 16:01:59.974
92.0, 68767.55580515334, 57040.44485574304, -27867.819710710017, -35341.147821086386, -500.6790757988782, -5211.6444959216715, -187500.02235174447, 28975.147482770382, 36252.271980318066, -17017.813565470406, 12017.52716511812, -3365.502162635584, 10613.748206347014, -3590.7853950006242, -21136.815385438847, -49753.08325923482, 0.10200000000000001, 0.996, 0.188, 192.0, 1.5, 24.0, 15.5, 16.0, 2.5, 112.0, 0.0, 0.0, 0.0, 1.695762119974642E9, 0.0, 2023-09-26 16:01:59.974
94.0, 68793.68499442161, 57064.763553710414, -27839.03066385158, -35313.521064939625, -505.104721201029, -5189.0468822773555, -187500.02235174447, 28938.669435819324, 36283.78794000005, -17022.149803894736, 12006.641865568385, -3376.4098139297744, 10611.62479062376, -3598.7426160267137, -21147.633629755215, -49756.592483114306, 0.10200000000000001, 0.996, 0.188, 192.0, 0.0, 0.0, 0.0, 0.0, 0.0, 0.0, 0.0, 0.0, 0.0, 1.695762119974652E9, 0.0, 2023-09-26 16:01:59.974
96.0, 68775.20010175707, 57041.271870287885, -27858.968419905716, -35334.285835538605, -512.1231689599954, -5204.357827229242, -187500.02235174447, 28981.897709595887, 36243.3536342804, -17015.42192881369, 12016.119005217435, -3370.5313051380285, 10589.764784546469, -3595.032226447133, -21135.206059838067, -49740.499227106484, 0.10200000000000001, 0.996, 0.188, 192.0, 0.0, 0.0, 0.0, 0.0, 0.0, 0.0, 0.0, 0.0, 0.0, 1.695762119974662E9, 0.0, 2023-09-26 16:01:59.974
98.0, 68794.89198862218, 57059.22032108549, -27834.336797515967, -35307.53079742561, -501.10375894352904, -5183.213076974521, -187500.02235174447, 28944.12326146642, 36290.85109124793, -17024.49673706254, 12012.56507784904, -3381.2601424765758, 10607.780290577448, -3599.301409638096, -21130.065158613346, -49734.017221214446, 0.10200000000000001, 0.996, 0.188, 192.0, 0.0, 0.0, 0.0, 0.0, 0.0, 0.0, 0.0, 0.0, 0.0, 1.695762119974671E9, 0.0, 2023-09-26 16:01:59.974
100.0, 68781.52564543791, 57045.3622395232, -27852.46406226922, -35320.025422576124, -511.78789279316584, -5197.048806792356, -187500.02235174447, 28964.753921598665, 36239.01739585607, -17021.546306794444, 12016.09665347298, -3380.164906998266, 10591.463517125072, -3592.506479323683, -21122.622027709727, -49722.77429375343, 0.10200000000000001, 0.996, 0.188, 192.0, 0.0, 0.0, 0.0, 0.0, 0.0, 0.0, 0.0, 0.0, 0.0, 1.695762119974712E9, 0.0, 2023-09-26 16:01:59.974
102.0, 68791.44981997607, 57057.72275420699, -27833.867410882405, -35309.43069570431, -508.34572414704854, -5190.320931711309, -187500.02235174447, 28941.48575562069, 36298.9200709963, -17025.457862074123, 12012.252153426667, -3386.378691956841, 10612.049473768411, -3596.1721654143535, -21125.103071344267, -49724.58478505431, 0.094, 0.994, 0.192, 192.0, 1.0, 120.0, 15.5, 8.0, 3.0, 0.0, 0.0, 0.0, 0.0, 1.695762119974721E9, 0.0, 2023-09-26 16:01:59.974
104.0, 68771.5791191553, 57041.00364935442, -27853.067559369512, -35325.970986601234, -519.298078930149, -5201.675617894604, -187500.02235174447, 28961.177642485818, 36254.95418965271, -17027.84949873084, 12018.108310473957, -3383.651779133294, 10588.557790345883, -3593.75817701318, -21118.777527663413, -49719.55564255186, 0.094, 0.994, 0.192, 192.0, 0.0, 0.0, 0.0, 0.0, 0.0, 0.0, 0.0, 0.0, 0.0, 1.695762120034954E9, 0.0, 2023-09-26 16:02:00.034
106.0, 68779.87161634823, 57043.372934266685, -27848.3736930339, -35326.686242423806, -530.0939715020623, -5203.329646984297, -187500.02235174447, 28939.049415475063, 36312.0181932471, -17049.933022252684, 11994.884847984893, -3411.2338317911426, 10598.90664802869, -3617.0710464800654, -21141.531603518917, -49745.6401283312, 0.094, 0.994, 0.192, 192.0, 0.0, 0.0, 0.0, 0.0, 0.0, 0.0, 0.0, 0.0, 0.0, 1.695762120034983E9, 0.0, 2023-09-26 16:02:00.034
108.0, 68786.62184317372, 57053.9676611385, -27840.32706502999, -35316.113867296444, -524.1260557324953, -5191.706739867537, -187500.02235174447, 28953.95802902675, 36256.63057048686, -17039.047722702948, 12011.291028415088, -3398.6274479183494, 10571.861037237768, -3603.9952759737107, -21128.47818475702, -49729.41276185665, 0.094, 0.994, 0.192, 192.0, 0.0, 0.0, 0.0, 0.0, 0.0, 0.0, 0.0, 0.0, 0.0, 1.695762120034993E9, 0.0, 2023-09-26 16:02:00.034
110.0, 68801.59751195878, 57070.06091714632, -27825.68667241176, -35304.04392529058, -520.9521080198417, -5181.044957762356, -187500.02235174447, 28953.175717970815, 36314.02985024808, -17027.335408608367, 12021.863403542447, -3391.1396135258215, 10622.264220984485, -3595.9039444808895, -21123.381987021206, -49722.48372107551, 0.094, 0.994, 0.192, 192.0, 0.0, 0.0, 0.0, 0.0, 0.0, 0.0, 0.0, 0.0, 0.0, 1.695762120035003E9, 0.0, 2023-09-26 16:02:00.035
112.0, 68802.87156139273, 57071.44672530255, -27826.468983467697, -35307.79901835907, -509.4633113698139, -5180.419108917607, -187500.02235174447, 28951.11935748093, 36275.070759662485, -17020.763995738507, 12030.871156557938, -3379.896686064802, 10597.833764294835, -3592.573534557049, -21113.36840550523, -49714.25827911595, 0.09, 1.0, 0.194, 192.0, 1.0, 104.0, 15.5, 32.0, 3.0, 8.0, 0.0, 0.0, 0.0, 1.695762120035012E9, 0.0, 2023-09-26 16:02:00.035
114.0, 68809.8900091517, 57077.92873119459, -27823.607960177418, -35304.49096017968, -519.4545411413361, -5179.16741122811, -187500.02235174447, 28946.73841556769, 36351.580780933, -17019.89227770475, 12028.501871645674, -3385.350511711897, 10618.464424427084, -3593.5570113130825, -21122.13028933171, -49724.94241296559, 0.09, 1.0, 0.194, 192.0, 0.0, 0.0, 0.0, 0.0, 0.0, 0.0, 0.0, 0.0, 0.0, 1.695762120035022E9, 0.0, 2023-09-26 16:02:00.035
116.0, 68813.17571558664, 57082.4214318301, -27819.964625831202, -35295.483207164194, -501.9531252328307, -5174.093565236755, -187500.02235174447, 28931.6286363159, 36315.50506538213, -17009.49871653303, 12039.364819450953, -3372.2747412055423, 10599.554848617894, -3577.597865771993, -21109.009815336445, -49707.26218310144, 0.09, 1.0, 0.194, 192.0, 0.0, 0.0, 0.0, 0.0, 0.0, 0.0, 0.0, 0.0, 0.0, 1.695762120035031E9, 0.0, 2023-09-26 16:02:00.035
118.0, 68808.30303529538, 57075.447687560045, -27830.760518403116, -35299.21594848823, -536.2407012272718, -5178.519210638906, -187500.02235174447, 28952.460462148247, 36354.64296992338, -17011.35391132282, 12032.771054836638, -3379.9637412981683, 10637.351648491818, -3577.9778454277334, -21117.32466427382, -49709.47500580252, 0.09, 1.0, 0.194, 192.0, 0.0, 0.0, 0.0, 0.0, 0.0, 0.0, 0.0, 0.0, 0.0, 1.69576212003504E9, 0.0, 2023-09-26 16:02:00.035
120.0, 68787.9852995855, 57050.39138202565, -27843.523364487097, -35313.319899239534, -544.2426257422717, -5191.840850334269, -187500.02235174447, 28914.14957215185, 36302.049315220036, -17034.487966834065, 12019.181194207811, -3397.2416397621205, 10583.506296098984, -3599.703741038292, -21131.65213246967, -49716.672267517126, 0.09, 1.0, 0.194, 192.0, 0.0, 0.0, 0.0, 0.0, 0.0, 0.0, 0.0, 0.0, 0.0, 1.695762120094251E9, 0.0, 2023-09-26 16:02:00.094
122.0, 68802.04454684789, 57065.881140933176, -27830.84992538094, -35300.44529443327, -541.5157129187243, -5180.21794321751, -187500.02235174447, 28931.650988060355, 36329.452553922245, -17046.312039650922, 12007.066548713035, -3414.29602078152, 10611.222459223563, -3608.2644591646745, -21142.336266319307, -49730.709163035055, 0.093, 0.991, 0.194, 192.0, 1.5, 0.0, 15.0, 88.0, 3.0, 8.0, 0.0, 0.0, 0.0, 1.695762120094306E9, 0.0, 2023-09-26 16:02:00.094
124.0, 68818.07074762235, 57084.09781266425, -27814.823724606482, -35283.525023880604, -524.10370398804, -5163.275320920387, -187500.02235174447, 28899.352717322436, 36299.79178903005, -17022.596838783844, 12029.61945886844, -3389.709101880682, 10623.985305307544, -3594.048749691099, -21116.676463684616, -49706.12224413422, 0.093, 0.991, 0.194, 192.0, 0.0, 0.0, 0.0, 0.0, 0.0, 0.0, 0.0, 0.0, 0.0, 1.695762120094317E9, 0.0, 2023-09-26 16:02:00.094
126.0, 68785.37014548424, 57055.219358828, -27852.732283202684, -35323.534646455606, -551.8422188570761, -5197.071158536811, -187500.02235174447, 28914.507200063133, 36316.309728182525, -17027.491870819555, 12017.705979073762, -3408.193994545221, 10610.998941779011, -3607.9291829978447, -21134.155527848667, -49727.356401366764, 0.093, 0.991, 0.194, 192.0, 0.0, 0.0, 0.0, 0.0, 0.0, 0.0, 0.0, 0.0, 0.0, 1.695762120094326E9, 0.0, 2023-09-26 16:02:00.094
128.0, 68800.47992473602, 57074.91124569312, -27830.246428280643, -35301.07114327802, -542.2756722302047, -5181.73786184047, -187500.02235174447, 28858.359617991406, 36291.43223660377, -17044.99328672806, 11999.891638742882, -3422.8790906523577, 10579.058298952377, -3620.401456403906, -21144.66084774266, -49736.587671826805, 0.093, 0.991, 0.194, 192.0, 0.0, 0.0, 0.0, 0.0, 0.0, 0.0, 0.0, 0.0, 0.0, 1.695762120094336E9, 0.0, 2023-09-26 16:02:00.094
130.0, 68794.66847117763, 57066.015251399906, -27844.439786009763, -35308.916605581835, -545.1590472649392, -5192.220829990009, -187500.02235174447, 28903.331327835484, 36299.85884426342, -17022.619190528298, 12007.535935346597, -3410.3621137573855, 10604.33812193133, -3601.2907148946188, -21135.384873793708, -49729.4351136011, 0.093, 0.991, 0.194, 192.0, 0.0, 0.0, 0.0, 0.0, 0.0, 0.0, 0.0, 0.0, 0.0, 1.695762120094345E9, 0.0, 2023-09-26 16:02:00.094
132.0, 68796.36720375624, 57071.78200146938, -27835.342626016456, -35294.14210249688, -538.520579161713, -5184.509478152929, -187500.02235174447, 28869.155510563316, 36300.19412043025, -17025.480213818577, 12008.161784191345, -3405.869413121869, 10598.750185817504, -3605.9622294857777, -21125.013664366445, -49721.38848559719, 0.0955, 0.9904999999999999, 0.191, 192.0, 1.5, 8.0, 15.0, 120.0, 2.5, 112.0, 0.0, 0.0, 0.0, 1.695762120094354E9, 0.0, 2023-09-26 16:02:00.094
134.0, 68793.28266302141, 57066.14936186664, -27845.155041832335, -35295.03617227509, -527.5905761230679, -5182.140193240666, -187500.02235174447, 28912.45083957325, 36293.42154186029, -17035.247926145545, 11993.543743317574, -3422.2979452965196, 10594.682168326637, -3614.6794098233477, -21138.312952317352, -49735.69360204859, 0.0955, 0.9904999999999999, 0.191, 192.0, 0.0, 0.0, 0.0, 0.0, 0.0, 0.0, 0.0, 0.0, 0.0, 1.695762120154653E9, 0.0, 2023-09-26 16:02:00.154
136.0, 68797.57419795683, 57066.6187485002, -27843.41160576482, -35284.7767215701, -540.2193117403164, -5180.21794321751, -187500.02235174447, 28873.13412107636, 36311.74997231364, -17027.246001630545, 12000.361025376444, -3411.5020527246065, 10607.936752788633, -3606.8115957750797, -21123.203173065565, -49720.80734024136, 0.0955, 0.9904999999999999, 0.191, 192.0, 0.0, 0.0, 0.0, 0.0, 0.0, 0.0, 0.0, 0.0, 0.0, 1.695762120154677E9, 0.0, 2023-09-26 16:02:00.154
138.0, 68795.36137525576, 57066.8199142003, -27844.529192987586, -35286.58721287098, -533.5361401481796, -5176.820478060303, -187500.02235174447, 28911.512066306124, 36288.772379013586, -17031.828109243885, 11989.855705482449, -3421.6944481962264, 10598.124336972754, -3609.8514330210014, -21130.735710947003, -49733.41372411415, 0.0955, 0.9904999999999999, 0.191, 192.0, 0.0, 0.0, 0.0, 0.0, 0.0, 0.0, 0.0, 0.0, 0.0, 1.695762120154687E9, 0.0, 2023-09-26 16:02:00.154
140.0, 68811.7452039415, 57086.80237374335, -27821.03750956506, -35269.555183596036, -524.2154627103165, -5161.8671610197025, -187500.02235174447, 28879.32555429048, 36328.2232079772, -17024.161460895713, 12000.1822114208, -3408.797491645514, 10605.679226598648, -3602.6541713063925, -21113.83779213879, -49720.91909896363, 0.0955, 0.9904999999999999, 0.191, 192.0, 0.0, 0.0, 0.0, 0.0, 0.0, 0.0, 0.0, 0.0, 0.0, 1.695762120154696E9, 0.0, 2023-09-26 16:02:00.154
142.0, 68801.10577358077, 57078.57693178379, -27835.499088227643, -35286.94484078227, -526.0930092445624, -5178.519210638906, -187500.02235174447, 28911.355604094937, 36297.98129772917, -17013.45497530162, 12011.447490626275, -3398.023950818056, 10595.978569505045, -3596.082758436532, -21104.874742612214, -49716.02406692792, 0.09875, 0.99125, 0.1905, 192.0, 1.5, 24.0, 15.5, 0.0, 2.5, 120.0, 0.0, 0.0, 0.0, 1.695762120154705E9, 0.0, 2023-09-26 16:02:00.154
144.0, 68816.77434644394, 57094.51372558042, -27814.98018681767, -35270.113977207424, -526.9200237894087, -5163.521190109395, -187500.02235174447, 28866.13802506185, 36338.19208600427, -17015.243114858047, 12003.66908355583, -3406.8528898779023, 10617.212726737587, -3600.1954794163084, -21116.676463684616, -49721.94727920858, 0.09875, 0.99125, 0.1905, 192.0, 0.0, 0.0, 0.0, 0.0, 0.0, 0.0, 0.0, 0.0, 0.0, 1.695762120154751E9, 0.0, 2023-09-26 16:02:00.154
146.0, 68784.87840710621, 57066.12701012218, -27855.727416959697, -35304.11098052395, -532.2844424586824, -5185.805879331337, -187500.02235174447, 28893.116580619408, 36305.536187355065, -17008.582295010365, 12009.681702814307, -3398.001599073601, 10613.837613324835, -3590.0030839446886, -21116.028263095413, -49711.24079361449, 0.09875, 0.99125, 0.1905, 192.0, 0.0, 0.0, 0.0, 0.0, 0.0, 0.0, 0.0, 0.0, 0.0, 1.695762120154761E9, 0.0, 2023-09-26 16:02:00.154
148.0, 68803.96679687104, 57083.40490858614, -27826.066652067504, -35289.53764313908, -543.4603146863359, -5170.293768679353, -187500.02235174447, 28856.884402857355, 36348.831516365, -17022.4180248282, 11997.99174046418, -3410.183299801743, 10615.782215092448, -3606.275153908152, -21134.04376912639, -49722.75194200897, 0.09875, 0.99125, 0.1905, 192.0, 0.0, 0.0, 0.0, 0.0, 0.0, 0.0, 0.0, 0.0, 0.0, 1.695762120154771E9, 0.0, 2023-09-26 16:02:00.154
150.0, 68801.68691893661, 57080.34271959576, -27836.303751028034, -35292.353962940455, -518.0016777517412, -5167.186876200066, -187500.02235174447, 28881.292507802547, 36292.259251148615, -17016.74068173655, 12005.881906256904, -3405.7129509106817, 10595.509182871483, -3603.19061317332, -21125.79597542238, -49713.76654073793, 0.09875, 0.99125, 0.1905, 192.0, 0.0, 0.0, 0.0, 0.0, 0.0, 0.0, 0.0, 0.0, 0.0, 1.695762120215147E9, 0.0, 2023-09-26 16:02:00.215
152.0, 68810.38174752973, 57085.84124873177, -27826.446631723244, -35291.75046584016, -529.1104947460287, -5163.096506964745, -187500.02235174447, 28859.00781858061, 36351.91605709983, -17005.3636438088, 12013.347388904976, -3393.9112298382797, 10632.300154244918, -3592.729996768236, -21116.050614839867, -49703.84236619978, 0.097375, 0.993625, 0.18425, 192.0, 1.5, 0.0, 15.5, 16.0, 2.5, 72.0, 0.0, 0.0, 0.0, 1.695762120215169E9, 0.0, 2023-09-26 16:02:00.215
154.0, 68805.82199166084, 57083.89664696415, -27824.166753788802, -35290.63287861739, -512.1902241933614, -5162.247140675443, -187500.02235174447, 28869.736655919154, 36295.1649779278, -17009.49871653303, 12009.99462723668, -3395.8781833503467, 10609.52372664496, -3601.8495085060013, -21111.75907990445, -49706.8822034457, 0.097375, 0.993625, 0.18425, 192.0, 0.0, 0.0, 0.0, 0.0, 0.0, 0.0, 0.0, 0.0, 0.0, 1.695762120215179E9, 0.0, 2023-09-26 16:02:00.215
156.0, 68815.90262841019, 57092.27855113489, -27814.64491065084, -35283.45796864724, -514.3583434055262, -5158.246178417942, -187500.02235174447, 28862.919373860288, 36346.931618086295, -17000.669777473187, 12018.957676763259, -3388.636218146827, 10631.786064122447, -3590.0477874335993, -21101.298463499363, -49699.483776031, 0.097375, 0.993625, 0.18425, 192.0, 0.0, 0.0, 0.0, 0.0, 0.0, 0.0, 0.0, 0.0, 0.0, 1.695762120215188E9, 0.0, 2023-09-26 16:02:00.215
158.0, 68801.86573289224, 57075.15711488213, -27834.403852749332, -35300.601756644464, -522.4496748983473, -5179.837963561769, -187500.02235174447, 28850.13417603185, 36289.889966236355, -17015.667798002698, 12005.881906256904, -3401.0861398084335, 10609.411967922684, -3603.123557939954, -21114.396585750175, -49713.34185759328, 0.097375, 0.993625, 0.18425, 192.0, 0.0, 0.0, 0.0, 0.0, 0.0, 0.0, 0.0, 0.0, 0.0, 1.695762120215197E9, 0.0, 2023-09-26 16:02:00.215
160.0, 68810.80643067438, 57085.19304814256, -27824.613788677907, -35290.72228559521, -518.4710643853026, -5172.059556491323, -187500.02235174447, 28834.532658402048, 36338.50501042664, -17019.42289107119, 11998.595237564474, -3408.5963259454165, 10633.82007286788, -3605.157566685387, -21121.571495720327, -49724.24950888747, 0.097375, 0.993625, 0.18425, 192.0, 0.0, 0.0, 0.0, 0.0, 0.0, 0.0, 0.0, 0.0, 0.0, 1.695762120215206E9, 0.0, 2023-09-26 16:02:00.215
162.0, 68798.87059913523, 57075.11241139322, -27836.884896383872, -35295.66202111984, -524.7966080661545, -5176.418146660108, -187500.02235174447, 28826.843658309423, 36290.024076703085, -17006.257713587012, 12017.2365924402, -3387.8315553464363, 10607.087386499332, -3596.641552047915, -21102.259588510944, -49705.80931971184, 0.09868750000000001, 0.9938125, 0.18212499999999998, 192.0, 1.5, 16.0, 15.5, 8.0, 2.5, 80.0, 0.0, 0.0, 0.0, 1.695762120215215E9, 0.0, 2023-09-26 16:02:00.215
164.0, 68784.52077919494, 57066.28347233337, -27858.65549548334, -35307.26257649214, -547.7071461328443, -5185.7611758424255, -187500.02235174447, 28832.163373489784, 36335.30871096953, -17030.79992899894, 11977.092859398468, -3422.2085383186986, 10620.789005850436, -3624.022439005666, -21141.643362241193, -49744.23196843052, 0.09868750000000001, 0.9938125, 0.18212499999999998, 192.0, 0.0, 0.0, 0.0, 0.0, 0.0, 0.0, 0.0, 0.0, 0.0, 1.695762120274507E9, 0.0, 2023-09-26 16:02:00.274
166.0, 68789.30405250836, 57069.39036481266, -27847.70314070024, -35295.99729728667, -540.554587907146, -5167.768021555904, -187500.02235174447, 28810.41512613477, 36286.313687123504, -17027.737740008564, 11983.865437968427, -3411.122073068866, 10603.28758994193, -3619.887366281434, -21130.75806269146, -49724.629488543214, 0.09868750000000001, 0.9938125, 0.18212499999999998, 192.0, 0.0, 0.0, 0.0, 0.0, 0.0, 0.0, 0.0, 0.0, 0.0, 1.695762120274563E9, 0.0, 2023-09-26 16:02:00.274
168.0, 68798.04358459038, 57071.402021813636, -27849.267762812113, -35299.39476244387, -531.3456691915595, -5171.701928580038, -187500.02235174447, 28825.860181553388, 36330.83836207847, -17023.803832984428, 11977.56224603203, -3416.5311952270504, 10627.114549531289, -3615.640534834926, -21136.32364706083, -49727.9375467226, 0.09868750000000001, 0.9938125, 0.18212499999999998, 192.0, 0.0, 0.0, 0.0, 0.0, 0.0, 0.0, 0.0, 0.0, 0.0, 1.695762120274573E9, 0.0, 2023-09-26 16:02:00.274
170.0, 68795.78605840041, 57069.34566132375, -27842.673998197795, -35297.49486416517, -517.2417184402607, -5174.853524548236, -187500.02235174447, 28797.764038773068, 36302.63046057588, -17020.898106205237, 11985.631225780395, -3411.032666091045, 10607.154441732699, -3617.696895324814, -21120.006873608458, -49717.81220648435, 0.09868750000000001, 0.9938125, 0.18212499999999998, 192.0, 0.0, 0.0, 0.0, 0.0, 0.0, 0.0, 0.0, 0.0, 0.0, 1.695762120274582E9, 0.0, 2023-09-26 16:02:00.274
172.0, 68797.28362527891, 57066.88696943367, -27838.360111517923, -35298.41128568784, -520.1027417305401, -5178.049824005345, -187500.02235174447, 28819.199361705705, 36340.04728079406, -17014.192582868647, 11984.670100768817, -3417.7605411720924, 10613.725854602559, -3609.8961365099117, -21117.883457885204, -49718.70627626256, 0.09734375, 0.99690625, 0.1810625, 192.0, 1.5, 0.0, 15.5, 32.0, 2.5, 80.0, 0.0, 0.0, 0.0, 1.695762120274591E9, 0.0, 2023-09-26 16:02:00.274
174.0, 68798.04358459038, 57066.506989777925, -27834.001521349135, -35293.09157050748, -528.328183690093, -5171.411355902119, -187500.02235174447, 28783.615384532855, 36329.027870777594, -17028.207126642123, 11981.674967011806, -3425.8965761538243, 10603.868735297769, -3618.2556889361967, -21118.777527663413, -49715.5323285499, 0.09734375, 0.99690625, 0.1810625, 192.0, 0.0, 0.0, 0.0, 0.0, 0.0, 0.0, 0.0, 0.0, 0.0, 1.6957621202746E9, 0.0, 2023-09-26 16:02:00.274
176.0, 68804.21266606005, 57076.29705384935, -27831.162849803313, -35286.45310240425, -515.9676690063083, -5161.733050552971, -187500.02235174447, 28831.09048975593, 36355.045301323575, -17014.058472401914, 11988.805173493049, -3418.1181690833773, 10643.028991583466, -3611.9748487442553, -21110.99912059297, -49704.87054644473, 0.09734375, 0.99690625, 0.1810625, 192.0, 0.0, 0.0, 0.0, 0.0, 0.0, 0.0, 0.0, 0.0, 0.0, 1.69576212027461E9, 0.0, 2023-09-26 16:02:00.274
178.0, 68807.47602075053, 57082.35437659674, -27825.016120078104, -35278.62999184489, -524.9530702773417, -5152.457076604018, -187500.02235174447, 28791.237329392115, 36351.15609778835, -17004.424870541676, 11995.868324740926, -3407.165814300277, 10624.633505896749, -3599.614334060471, -21105.500591456963, -49693.20293583905, 0.09734375, 0.99690625, 0.1810625, 192.0, 0.0, 0.0, 0.0, 0.0, 0.0, 0.0, 0.0, 0.0, 0.0, 1.69576212027462E9, 0.0, 2023-09-26 16:02:00.274
180.0, 68798.75884041296, 57071.402021813636, -27838.963608618214, -35294.432675174794, -524.2378144547719, -5169.444402390051, -187500.02235174447, 28807.777620289045, 36359.314484514536, -17008.291722332444, 11991.621493294419, -3410.8762038798577, 10643.051343327921, -3606.2975056526075, -21112.74255666048, -49707.440997057085, 0.09734375, 0.99690625, 0.1810625, 192.0, 0.0, 0.0, 0.0, 0.0, 0.0, 0.0, 0.0, 0.0, 0.0, 1.695762120334815E9, 0.0, 2023-09-26 16:02:00.334
182.0, 68807.47602075053, 57079.649815517645, -27824.636140422364, -35276.484224377185, -515.5653376061127, -5153.820533015792, -187500.02235174447, 28753.507584751558, 36365.34945551747, -17014.483155546564, 11995.153068918356, -3406.249392777609, 10619.425549438662, -3614.8805755234453, -21105.61235017924, -49702.344799321276, 0.10067187500000001, 0.993453125, 0.18153124999999998, 192.0, 1.5, 32.0, 15.0, 120.0, 2.5, 88.0, 0.0, 0.0, 0.0, 1.695762120334848E9, 0.0, 2023-09-26 16:02:00.334
184.0, 68798.15534331267, 57076.00648117143, -27842.98692262017, -35285.60373611495, -524.3495731770483, -5171.679576835582, -187500.02235174447, 28776.149901884786, 36340.51666742762, -17017.858268959317, 11990.99564444967, -3407.38933174483, 10625.14759601922, -3618.85918603649, -21112.116707815734, -49714.25827911595, 0.10067187500000001, 0.993453125, 0.18153124999999998, 192.0, 0.0, 0.0, 0.0, 0.0, 0.0, 0.0, 0.0, 0.0, 0.0, 1.695762120334858E9, 0.0, 2023-09-26 16:02:00.334
186.0, 68802.89391313719, 57083.80723998633, -27836.21434405021, -35276.64068658837, -526.2047679668389, -5164.169390698599, -187500.02235174447, 28723.01980531452, 36351.893705355375, -17026.821318485894, 11985.385356591387, -3408.8198433899697, 10627.271011742474, -3628.537491385638, -21117.70464392956, -49719.48858731849, 0.10067187500000001, 0.993453125, 0.18153124999999998, 192.0, 0.0, 0.0, 0.0, 0.0, 0.0, 0.0, 0.0, 0.0, 0.0, 1.695762120334867E9, 0.0, 2023-09-26 16:02:00.334
188.0, 68799.36233751326, 57079.56040853982, -27846.384387777376, -35283.23445120269, -522.2261574537943, -5176.909885038124, -187500.02235174447, 28762.98472440061, 36314.09690548145, -17014.684321246663, 11992.04617643907, -3402.896631109313, 10625.43816869714, -3618.52390986966, -21112.004949093458, -49718.01337218445, 0.10067187500000001, 0.993453125, 0.18153124999999998, 192.0, 0.0, 0.0, 0.0, 0.0, 0.0, 0.0, 0.0, 0.0, 0.0, 1.695762120334909E9, 0.0, 2023-09-26 16:02:00.334
190.0, 68800.88225613622, 57076.81114397182, -27839.187126062767, -35275.32193366551, -539.7275733622996, -5170.003196001434, -187500.02235174447, 28723.623302414813, 36335.9792633032, -17022.596838783844, 11980.244455366666, -3409.9150788682796, 10617.793872093425, -3626.6822965958477, -21120.342149775286, -49722.79664549788, 0.10067187500000001, 0.993453125, 0.18153124999999998, 192.0, 0.0, 0.0, 0.0, 0.0, 0.0, 0.0, 0.0, 0.0, 0.0, 1.695762120334918E9, 0.0, 2023-09-26 16:02:00.334
192.0, 68797.95417761257, 57075.246521859954, -27841.332893530478, -35274.07023597601, -524.0813522435847, -5166.02458548839, -187500.02235174447, 28770.45020704868, 36296.37197212839, -17022.485080061564, 11981.674967011806, -3407.3446282559194, 10609.166098733676, -3622.86014829399, -21108.74159440298, -49714.81707272733, 0.1013359375, 0.9937265625, 0.181765625, 192.0, 1.5, 24.0, 15.5, 8.0, 2.5, 88.0, 0.0, 0.0, 0.0, 1.695762120334927E9, 0.0, 2023-09-26 16:02:00.334
194.0, 68807.07368935033, 57085.64008303167, -27824.12205029989, -35256.09943343394, -509.7985875366435, -5149.0149079579005, -187500.02235174447, 28744.25396254706, 36348.96562683173, -17015.310170091412, 11980.244455366666, -3404.0812735654445, 10635.563508935395, -3614.7464650567135, -21098.88447509819, -49702.16598536563, 0.1013359375, 0.9937265625, 0.181765625, 192.0, 0.0, 0.0, 0.0, 0.0, 0.0, 0.0, 0.0, 0.0, 0.0, 1.695762120394552E9, 0.0, 2023-09-26 16:02:00.394
196.0, 68792.43329673211, 57071.51378053591, -27848.70896920073, -35273.69025632027, -522.2708609427049, -5161.5765883417835, -187500.02235174447, 28779.45796006417, 36303.94921349874, -17016.293646847447, 11980.892655955871, -3404.9529915992016, 10613.658799369192, -3615.4840726237385, -21096.22461750801, -49697.11449111873, 0.1013359375, 0.9937265625, 0.181765625, 192.0, 0.0, 0.0, 0.0, 0.0, 0.0, 0.0, 0.0, 0.0, 0.0, 1.695762120394576E9, 0.0, 2023-09-26 16:02:00.394
198.0, 68795.51783746693, 57070.26208284642, -27842.025797608592, -35278.36177091143, -532.5973668810567, -5177.580437371783, -187500.02235174447, 28729.63592167329, 36352.78777513358, -17034.018580200503, 11961.647803979851, -3422.9684976301787, 10624.119415774276, -3636.8970438119227, -21116.22942879551, -49717.8345582288, 0.1013359375, 0.9937265625, 0.181765625, 192.0, 0.0, 0.0, 0.0, 0.0, 0.0, 0.0, 0.0, 0.0, 0.0, 1.695762120394586E9, 0.0, 2023-09-26 16:02:00.394
200.0, 68792.94738685458, 57068.5186467789, -27847.770195933605, -35278.49588137816, -524.6624975994226, -5173.937103025568, -187500.02235174447, 28742.421119501727, 36297.578966328976, -17021.970989939095, 11974.947091930759, -3414.5418899705282, 10610.082520256343, -3622.793093060624, -21101.14200128818, -49708.71504649104, 0.1013359375, 0.9937265625, 0.181765625, 192.0, 0.0, 0.0, 0.0, 0.0, 0.0, 0.0, 0.0, 0.0, 0.0, 1.695762120394595E9, 0.0, 2023-09-26 16:02:00.394
202.0, 68795.04845083338, 57070.95498692453, -27850.497108757154, -35280.17226221231, -541.4486576853583, -5174.339434425764, -187500.02235174447, 28713.6767761322, 36349.54677218757, -17035.873774990294, 11958.049173122547, -3433.2055965907093, 10638.558642692406, -3633.186654232342, -21122.75613817646, -49728.67515428962, 0.10366796875, 0.99186328125, 0.1838828125, 192.0, 1.5, 40.0, 15.0, 120.0, 2.5, 104.0, 0.0, 0.0, 0.0, 1.695762120394604E9, 0.0, 2023-09-26 16:02:00.394
204.0, 68780.96685182654, 57059.376783296684, -27865.00339090865, -35281.60277385745, -536.7100878608331, -5176.7757745713925, -187500.02235174447, 28715.30845347744, 36290.62757380338, -17029.972914454094, 11965.31349007052, -3422.253241807609, 10602.348816674807, -3626.9058140404004, -21112.78726014939, -49716.44875007257, 0.10366796875, 0.99186328125, 0.1838828125, 192.0, 0.0, 0.0, 0.0, 0.0, 0.0, 0.0, 0.0, 0.0, 0.0, 1.695762120394614E9, 0.0, 2023-09-26 16:02:00.394
206.0, 68815.09796560979, 57092.859696490734, -27827.1171840569, -35243.24718037214, -520.9297562753864, -5139.537768308851, -187500.02235174447, 28716.314281977928, 36343.98118781819, -17022.976818439583, 11960.217292334712, -3424.778988931059, 10620.096101772322, -3628.604546619004, -21115.625931695216, -49719.33212510731, 0.10366796875, 0.99186328125, 0.1838828125, 192.0, 0.0, 0.0, 0.0, 0.0, 0.0, 0.0, 0.0, 0.0, 0.0, 1.695762120394622E9, 0.0, 2023-09-26 16:02:00.394
208.0, 68813.19806733109, 57084.3213301088, -27832.906285870828, -35251.29380837605, -510.62560208148983, -5140.163617153599, -187500.02235174447, 28723.01980531452, 36304.70917281022, -16999.753355950517, 11992.157935161345, -3397.2192880176653, 10614.798738336414, -3601.313066639074, -21083.014736534922, -49685.80450842435, 0.10366796875, 0.99186328125, 0.1838828125, 192.0, 0.0, 0.0, 0.0, 0.0, 0.0, 0.0, 0.0, 0.0, 0.0, 1.695762120394631E9, 0.0, 2023-09-26 16:02:00.394
210.0, 68795.87546537822, 57069.07744039028, -27851.726454702195, -35278.920564522814, -539.6605181289337, -5165.845771532747, -187500.02235174447, 28721.92456983621, 36358.08513856949, -17021.076920160882, 11969.381507561387, -3422.7226284411704, 10626.265183241985, -3621.139063970931, -21108.69689091407, -49710.994924425475, 0.10366796875, 0.99186328125, 0.1838828125, 192.0, 0.0, 0.0, 0.0, 0.0, 0.0, 0.0, 0.0, 0.0, 0.0, 1.695762120454744E9, 0.0, 2023-09-26 16:02:00.454
212.0, 68809.0853463513, 57082.10850740773, -27840.50587898563, -35268.862279517925, -525.2883464441712, -5159.274358662887, -187500.02235174447, 28697.538816635468, 36299.7694372856, -17025.010827185015, 11968.688603483273, -3416.665305693782, 10591.843496780813, -3627.7775320741575, -21106.752289146458, -49708.31271509084, 0.102833984375, 0.994931640625, 0.18494140625, 192.0, 1.5, 24.0, 15.5, 24.0, 2.5, 104.0, 0.0, 0.0, 0.0, 1.695762120454767E9, 0.0, 2023-09-26 16:02:00.454
214.0, 68819.7918319454, 57094.44667034706, -27832.571009703996, -35266.98473298368, -513.2184044383055, -5155.563969083306, -187500.02235174447, 28711.732174364588, 36357.25812402464, -17014.013768913006, 11982.501981556652, -3404.7965293880143, 10637.731628147558, -3621.988430260233, -21100.382041976696, -49702.70242723256, 0.102833984375, 0.994931640625, 0.18494140625, 192.0, 0.0, 0.0, 0.0, 0.0, 0.0, 0.0, 0.0, 0.0, 0.0, 1.695762120454777E9, 0.0, 2023-09-26 16:02:00.454
216.0, 68825.06684363686, 57101.01808321692, -27820.83634386496, -35257.55229682354, -500.85788975452067, -5143.1140474217, -187500.02235174447, 28696.130656734786, 36318.36608867241, -17009.5657717664, 11994.929551473804, -3392.7489391266035, 10599.107813728788, -3617.6521918359035, -21080.198416733554, -49682.31763628932, 0.102833984375, 0.994931640625, 0.18494140625, 192.0, 0.0, 0.0, 0.0, 0.0, 0.0, 0.0, 0.0, 0.0, 0.0, 1.695762120454786E9, 0.0, 2023-09-26 16:02:00.454
218.0, 68815.992035388, 57092.367958112714, -27838.717739429205, -35275.47839587669, -508.99392473625244, -5154.736954538459, -187500.02235174447, 28714.883770332788, 36356.81108913554, -17015.93601893616, 11982.457278067743, -3405.936468355235, 10628.72387513207, -3620.3567529149955, -21092.625986650706, -49697.293305074374, 0.102833984375, 0.994931640625, 0.18494140625, 192.0, 0.0, 0.0, 0.0, 0.0, 0.0, 0.0, 0.0, 0.0, 0.0, 1.695762120454795E9, 0.0, 2023-09-26 16:02:00.454
220.0, 68815.36618654325, 57092.993806957464, -27835.320274272, -35271.388026641376, -501.684904299367, -5150.937157981058, -187500.02235174447, 28687.927566519687, 36329.98899578917, -17016.763033481006, 11988.916932215327, -3397.778081629048, 10605.455709154096, -3620.1332354704423, -21084.02056503541, -49685.558639235336, 0.102833984375, 0.994931640625, 0.18494140625, 192.0, 0.0, 0.0, 0.0, 0.0, 0.0, 0.0, 0.0, 0.0, 0.0, 1.695762120454804E9, 0.0, 2023-09-26 16:02:00.454
222.0, 68798.37886075722, 57074.39715557065, -27858.85666118344, -35294.41032343034, -523.3884481654702, -5174.965283270512, -187500.02235174447, 28692.95670902213, 36346.95396983075, -17031.381074354777, 11965.738173215172, -3426.2989075540195, 10642.224328783075, -3641.948538058822, -21112.85431538276, -49717.722799506526, 0.0984169921875, 0.9944658203125, 0.185470703125, 192.0, 1.0, 120.0, 15.5, 8.0, 2.5, 104.0, 0.0, 0.0, 0.0, 1.695762120454813E9, 0.0, 2023-09-26 16:02:00.454
224.0, 68802.20100905908, 57082.73435625248, -27846.831422666484, -35282.85447154695, -520.5497766196462, -5163.610597087217, -187500.02235174447, 28658.065635927396, 36329.13962949987, -17022.529783550475, 11979.41744082182, -3408.797491645514, 10603.220534708564, -3635.1983112333196, -21102.214885022033, -49701.428377798606, 0.0984169921875, 0.9944658203125, 0.185470703125, 192.0, 0.0, 0.0, 0.0, 0.0, 0.0, 0.0, 0.0, 0.0, 0.0, 1.695762120514993E9, 0.0, 2023-09-26 16:02:00.514
226.0, 68780.92214833763, 57059.53324550787, -27870.434864811286, -35311.62116666093, -529.8033988241433, -5181.134364740177, -187500.02235174447, 28680.43973212716, 36339.15321101585, -17039.852385503338, 11958.496208011653, -3431.350401800919, 10601.410043407684, -3647.916453828389, -21121.66090269815, -49718.75097975147, 0.0984169921875, 0.9944658203125, 0.185470703125, 192.0, 0.0, 0.0, 0.0, 0.0, 0.0, 0.0, 0.0, 0.0, 0.0, 1.695762120515018E9, 0.0, 2023-09-26 16:02:00.515
228.0, 68803.34094802629, 57083.38255684168, -27841.042320852557, -35282.27332619111, -519.1416167189618, -5146.198588156532, -187500.02235174447, 28640.564220018892, 36324.624577119896, -17032.07397843289, 11967.615719749418, -3422.812035418992, 10609.277857455952, -3640.607433391504, -21104.00302457846, -49697.76269170793, 0.0984169921875, 0.9944658203125, 0.185470703125, 192.0, 0.0, 0.0, 0.0, 0.0, 0.0, 0.0, 0.0, 0.0, 0.0, 1.695762120515027E9, 0.0, 2023-09-26 16:02:00.515
230.0, 68797.84241889029, 57078.10754515023, -27846.89847789985, -35292.17514898481, -504.3447618895486, -5150.557178325317, -187500.02235174447, 28686.050019985443, 36327.93263529929, -17024.854364973828, 11972.935434929781, -3420.576860973461, 10611.334217945841, -3626.9058140404004, -21096.55989367484, -49691.95123814956, 0.0984169921875, 0.9944658203125, 0.185470703125, 192.0, 0.0, 0.0, 0.0, 0.0, 0.0, 0.0, 0.0, 0.0, 0.0, 1.695762120515037E9, 0.0, 2023-09-26 16:02:00.515
232.0, 68799.76466891344, 57082.175562641096, -27844.998579621148, -35287.9283175383, -521.4661981423138, -5148.389059113152, -187500.02235174447, 28630.43887978064, 36338.19208600427, -17031.828109243885, 11973.337766329976, -3419.8169016619804, 10616.542174403927, -3623.061313994088, -21093.184780262087, -49690.252505570956, 0.09920849609375, 0.9922329101562499, 0.1897353515625, 192.0, 1.5, 16.0, 15.0, 120.0, 3.0, 8.0, 0.0, 0.0, 0.0, 1.695762120515077E9, 0.0, 2023-09-26 16:02:00.515
234.0, 68792.45564847656, 57076.14059163816, -27860.08600712848, -35300.93703281129, -512.4807968712803, -5162.716527309004, -187500.02235174447, 28657.90917371621, 36314.320422926, -17026.486042319066, 11973.203655863244, -3416.710009182693, 10610.820127823368, -3630.9067762979007, -21092.51422792843, -49696.93567716309, 0.09920849609375, 0.9922329101562499, 0.1897353515625, 192.0, 0.0, 0.0, 0.0, 0.0, 0.0, 0.0, 0.0, 0.0, 0.0, 1.695762120515086E9, 0.0, 2023-09-26 16:02:00.515
236.0, 68816.72964295503, 57098.469984349016, -27830.40289049183, -35269.622238829405, -511.9220032598977, -5139.82834098677, -187500.02235174447, 28613.205684805595, 36338.08032728199, -17022.46272831711, 11973.31541458552, -3416.7323609271484, 10626.622811153271, -3633.3654681879843, -21092.60363490625, -49697.11449111873, 0.09920849609375, 0.9922329101562499, 0.1897353515625, 192.0, 0.0, 0.0, 0.0, 0.0, 0.0, 0.0, 0.0, 0.0, 0.0, 1.695762120515096E9, 0.0, 2023-09-26 16:02:00.515
238.0, 68785.59366292879, 57062.170751353595, -27865.338667075477, -35300.735867111194, -511.29615441514903, -5163.476486620484, -187500.02235174447, 28654.7128742591, 36308.77719030109, -17011.398614811733, 11991.666196783328, -3408.350456756408, 10632.635430411749, -3618.568613358571, -21077.40444867664, -49683.9269618901, 0.09920849609375, 0.9922329101562499, 0.1897353515625, 192.0, 0.0, 0.0, 0.0, 0.0, 0.0, 0.0, 0.0, 0.0, 0.0, 1.695762120515105E9, 0.0, 2023-09-26 16:02:00.515
240.0, 68800.52462822493, 57080.54388529586, -27850.60886747943, -35284.106169236446, -530.2727854577048, -5153.172332426588, -187500.02235174447, 28604.421449234662, 36344.6293884074, -17042.13226343778, 11957.244510322156, -3436.6701169812823, 10603.66756959767, -3649.481075940261, -21107.22167578002, -49710.74905523647, 0.09920849609375, 0.9922329101562499, 0.1897353515625, 192.0, 0.0, 0.0, 0.0, 0.0, 0.0, 0.0, 0.0, 0.0, 0.0, 1.695762120574765E9, 0.0, 2023-09-26 16:02:00.574
242.0, 68794.55671245536, 57081.125030651696, -27863.662286241328, -35285.69314309277, -504.97061073429717, -5151.339489381253, -187500.02235174447, 28650.510746301505, 36297.780132029075, -17020.339312593856, 11971.281405840089, -3413.8936893813243, 10620.207860494598, -3621.8990232824117, -21089.586149404782, -49688.82199392581, 0.09960424804687501, 0.992116455078125, 0.19186767578125, 192.0, 1.5, 16.0, 15.5, 0.0, 3.0, 8.0, 0.0, 0.0, 0.0, 1.695762120574789E9, 0.0, 2023-09-26 16:02:00.574
244.0, 68802.91626488164, 57085.88595222068, -27849.826556423493, -35274.89725052086, -516.2582416842272, -5148.232596901965, -187500.02235174447, 28624.605074477804, 36341.76836511712, -17020.294609104945, 11969.336804072476, -3411.0103143465894, 10620.945468061624, -3628.0010495187107, -21091.03901279438, -49688.01733112542, 0.09960424804687501, 0.992116455078125, 0.19186767578125, 192.0, 0.0, 0.0, 0.0, 0.0, 0.0, 0.0, 0.0, 0.0, 0.0, 1.6957621205748E9, 0.0, 2023-09-26 16:02:00.574
