%OpenBCI Raw EXG Data
%Number of channels = 16
%Sample Rate = 125 Hz
%Board = OpenBCI_GUI$BoardCytonSerialDaisy
Sample Index, EXG Channel 0, EXG Channel 1, EXG Channel 2, EXG Channel 3, EXG Channel 4, EXG Channel 5, EXG Channel 6, EXG Channel 7, EXG Channel 8, EXG Channel 9, EXG Channel 10, EXG Channel 11, EXG Channel 12, EXG Channel 13, EXG Channel 14, EXG Channel 15, Accel Channel 0, Accel Channel 1, Accel Channel 2, Other, Other, Other, Other, Other, Other, Other, Analog Channel 0, Analog Channel 1, Analog Channel 2, Timestamp, Other, Timestamp (Formatted)
226.0, 531.0774482580958, 976.9947501414717, -81535.43103163612, -83241.98672079883, -30217.16686691843, -25180.13419868162, -187500.02235174447, -60476.198551201654, -1477.8526398959923, -52938.11743713826, -80995.23407164027, -81061.70815965036, -52612.3184099577, -72697.0595356297, -84728.86946545476, -70843.60818190673, 0.0, 0.0, 0.0, 192.0, 0.0, 0.0, 0.0, 0.0, 0.0, 0.0, 0.0, 0.0, 0.0, 1.695407121497759E9, 0.0, 2023-09-22 13:25:21.497
228.0, 512.2572794267272, 972.278532061402, -81524.3892698752, -83234.52123815074, -30208.114410414033, -25173.383971856114, -187500.02235174447, -60465.17914118519, -1484.4017010213972, -52935.502283036985, -80995.09996117353, -81056.52255493672, -52617.1687385045, -72699.1605996085, -84723.43799155211, -70839.54016441586, 0.0, 0.0, 0.0, 192.0, 0.0, 0.0, 0.0, 0.0, 0.0, 0.0, 0.0, 0.0, 0.0, 1.695407121497768E9, 0.0, 2023-09-22 13:25:21.497
230.0, 512.6372590824675, 974.9160379071282, -81528.1443629437, -83236.95757829638, -30216.02692795121, -25179.79892251479, -187500.02235174447, -60473.337527911375, -1481.160698075378, -52935.05524814788, -80990.62961228247, -81053.16979326842, -52607.60219187763, -72699.3617653086, -84716.91128217118, -70836.00858879193, 0.0, 0.0, 0.0, 192.0, 0.0, 0.0, 0.0, 0.0, 0.0, 0.0, 0.0, 0.0, 0.0, 1.695407121497772E9, 0.0, 2023-09-22 13:25:21.497
232.0, 519.0969132300512, 964.7236424355082, -81527.04912746539, -83233.33659569462, -30216.898645984966, -25183.55401558328, -187500.02235174447, -60478.81370530292, -1482.2112300647773, -52936.91044293767, -80991.27781287167, -81052.16396476794, -52611.84902332414, -72697.0595356297, -84716.6430612377, -70837.75202485944, 0.0, 0.0, 0.0, 192.0, 0.0, 0.0, 0.0, 0.0, 0.0, 0.0, 0.0, 0.0, 0.0, 1.695407121497775E9, 0.0, 2023-09-22 13:25:21.497
234.0, 492.0960059280403, 969.8421919157735, -81520.991804718, -83226.63107235802, -30205.812180735134, -25178.36841086965, -187500.02235174447, -60470.56591159891, -1482.926485887347, -52942.81130347387, -80994.65292628443, -81056.00846481425, -52616.140558259554, -72702.49100953234, -84718.90058742769, -70839.89779232714, 0.091, 0.47300000000000003, 0.17300000000000001, 192.0, 2.5, 88.0, 14.5, 72.0, 5.0, 104.0, 0.0, 0.0, 0.0, 1.695407121497778E9, 0.0, 2023-09-22 13:25:21.497
236.0, 502.37780837748153, 973.7313954509968, -81519.44953435058, -83225.75935432427, -30208.047355180664, -25175.105056179174, -187500.02235174447, -60472.845789533356, -1466.6320641794282, -52926.00279164348, -80976.59271676454, -81039.06584251713, -52605.32231394319, -72689.01290762579, -84707.36708728876, -70823.42455666358, 0.091, 0.47300000000000003, 0.17300000000000001, 192.0, 0.0, 0.0, 0.0, 0.0, 0.0, 0.0, 0.0, 0.0, 0.0, 1.695407121497781E9, 0.0, 2023-09-22 13:25:21.497
238.0, 488.13974715945096, 968.9481221375612, -81533.30761591287, -83236.51054340728, -30219.26793089723, -25179.26248064786, -187500.02235174447, -60474.54452211196, -1473.1364218159226, -52936.93279468212, -80982.85120521202, -81045.61490364253, -52614.397122192044, -72697.39481179653, -84716.50895077098, -70833.28167596838, 0.091, 0.47300000000000003, 0.17300000000000001, 192.0, 0.0, 0.0, 0.0, 0.0, 0.0, 0.0, 0.0, 0.0, 0.0, 1.695407121497785E9, 0.0, 2023-09-22 13:25:21.497
240.0, 521.2426806977606, 980.0569391318488, -81523.9422349861, -83223.5465316232, -30211.824799993614, -25172.691067778, -187500.02235174447, -60469.202455187144, -1472.2423520377104, -52938.162140627166, -80991.09899891603, -81047.60420889905, -52618.48749142737, -72700.72522172036, -84723.57210201885, -70839.83073709378, 0.091, 0.47300000000000003, 0.17300000000000001, 192.0, 0.0, 0.0, 0.0, 0.0, 0.0, 0.0, 0.0, 0.0, 0.0, 1.695407121497788E9, 0.0, 2023-09-22 13:25:21.497
242.0, 449.53828448513565, 978.7381862089857, -81507.46899932253, -83207.25210991528, -30189.07072413811, -25153.40151231307, -187500.02235174447, -60456.283146891976, -1465.2909595121098, -52919.073750862335, -80976.34684757554, -81027.82291505611, -52604.22707846488, -72679.06638134317, -84698.60520346227, -70817.6131031052, 0.091, 0.47300000000000003, 0.17300000000000001, 192.0, 0.0, 0.0, 0.0, 0.0, 0.0, 0.0, 0.0, 0.0, 0.0, 1.695407121497791E9, 0.0, 2023-09-22 13:25:21.497
0.0, 311.94094561826535, 468.85019169452096, -40729.259339482705, -41572.233029870156, -15058.839626173929, -12556.606537891215, -93750.01117587223, -30318.12969662305, -723.257747084826, -26456.172937890642, -40486.541746442526, -40511.64275546584, -26297.453200513508, -36335.733394114184, -42347.01154792447, -35408.91831027488, 0.178, 0.9420000000000001, 0.358, 192.0, 2.5, 72.0, 14.5, 56.0, 5.5, 24.0, 0.0, 0.0, 0.0, 1.695407121666906E9, 0.0, 2023-09-22 13:25:21.666
2.0, 696.6368194385552, 954.307729519335, -81455.50119346395, -83145.29307428516, -30125.16708674039, -25114.464773471926, -187500.02235174447, -60641.2661840041, -1236.3867445453102, -52884.92028533462, -80920.4004312039, -81002.63249905498, -52574.07457519467, -72629.0878807411, -84613.6685745321, -70779.8610067202, 0.178, 0.9420000000000001, 0.358, 192.0, 0.0, 0.0, 0.0, 0.0, 0.0, 0.0, 0.0, 0.0, 0.0, 1.695407121666917E9, 0.0, 2023-09-22 13:25:21.666
4.0, 652.1121444835835, 931.888929830662, -81457.06581557583, -83149.8304784096, -30128.20692398631, -25110.150886792053, -187500.02235174447, -60641.400294470826, -1242.9805091596259, -52876.985416052994, -80916.51122766867, -81000.55378682063, -52573.31461588319, -72626.0927469841, -84609.84642623024, -70772.73080023895, 0.178, 0.9420000000000001, 0.358, 192.0, 0.0, 0.0, 0.0, 0.0, 0.0, 0.0, 0.0, 0.0, 0.0, 1.69540712166692E9, 0.0, 2023-09-22 13:25:21.666
6.0, 695.7203979158876, 948.8539038722402, -81450.4720509615, -83145.0248533517, -30127.178743741366, -25106.9769390794, -187500.02235174447, -60651.41387598681, -1235.8950061672933, -52888.094233047275, -80927.30712024058, -81018.25636842924, -52581.40594737601, -72633.42411916544, -84623.3245281368, -70780.15157939811, 0.178, 0.9420000000000001, 0.358, 192.0, 0.0, 0.0, 0.0, 0.0, 0.0, 0.0, 0.0, 0.0, 0.0, 1.695407121666923E9, 0.0, 2023-09-22 13:25:21.666
8.0, 642.7244118123546, 926.0327727833716, -81442.73834737997, -83149.69636794286, -30125.189438484842, -25105.278206500796, -187500.02235174447, -60651.14565505334, -1237.9960701460923, -52878.14770676467, -80917.87468408045, -81010.34385089205, -52567.771383258274, -72623.03055799373, -84612.95331870954, -70766.51701528038, 0.18, 0.9380000000000001, 0.34400000000000003, 192.0, 2.5, 80.0, 14.5, 40.0, 5.0, 96.0, 0.0, 0.0, 0.0, 1.695407121666927E9, 0.0, 2023-09-22 13:25:21.666
10.0, 699.6096014511111, 943.1989125250474, -81451.5225829509, -83155.70898720133, -30134.82304034508, -25114.263607771827, -187500.02235174447, -60666.546006983044, -1237.616090490352, -52894.464480217044, -80924.71431788377, -81029.29813019016, -52576.33210138466, -72637.02275002275, -84630.20886542903, -70784.46546607798, 0.18, 0.9380000000000001, 0.34400000000000003, 192.0, 0.0, 0.0, 0.0, 0.0, 0.0, 0.0, 0.0, 0.0, 0.0, 1.69540712166693E9, 0.0, 2023-09-22 13:25:21.666
12.0, 660.7622695877874, 931.3524879637347, -81453.4224812296, -83143.41552775091, -30123.825982073067, -25102.68540414398, -187500.02235174447, -60652.62087018739, -1245.2156836051565, -52885.05439580136, -80923.88730333892, -81022.5255516202, -52583.61877007708, -72631.25599995327, -84636.04267073187, -70780.64331777612, 0.18, 0.9380000000000001, 0.34400000000000003, 192.0, 0.0, 0.0, 0.0, 0.0, 0.0, 0.0, 0.0, 0.0, 0.0, 1.695407121666933E9, 0.0, 2023-09-22 13:25:21.666
14.0, 667.8477725801197, 955.7829446533854, -81452.3272457513, -83141.8732573835, -30117.031051758655, -25102.81951461071, -187500.02235174447, -60657.471198734194, -1226.0825903514137, -52873.61030264024, -80913.53844565612, -81012.73548754878, -52567.078479180156, -72622.20354344888, -84629.69477530656, -70771.03206766034, 0.18, 0.9380000000000001, 0.34400000000000003, 192.0, 0.0, 0.0, 0.0, 0.0, 0.0, 0.0, 0.0, 0.0, 0.0, 1.695407121666936E9, 0.0, 2023-09-22 13:25:21.666
16.0, 643.7525920572987, 945.8364183707737, -81450.65086491714, -83147.23767605277, -30113.454772645808, -25107.625139668602, -187500.02235174447, -60648.91048060781, -1226.0825903514137, -52871.28572121689, -80911.28091946614, -81009.09215320255, -52572.06291819369, -72620.59421784809, -84624.21859791501, -70767.56754726978, 0.18, 0.9380000000000001, 0.34400000000000003, 192.0, 0.0, 0.0, 0.0, 0.0, 0.0, 0.0, 0.0, 0.0, 0.0, 1.695407121727149E9, 0.0, 2023-09-22 13:25:21.727
18.0, 682.1081855426056, 951.5808166957876, -81462.51964122291, -83161.67690297091, -30125.882342562956, -25120.36563400813, -187500.02235174447, -60653.47023647669, -1228.1836543302124, -52889.211820270044, -80922.38973646042, -81026.70532783333, -52577.71790954089, -72636.66512211146, -84634.83567653128, -70782.207939888, 0.182, 0.934, 0.356, 192.0, 2.5, 88.0, 14.5, 24.0, 5.5, 16.0, 0.0, 0.0, 0.0, 1.695407121727162E9, 0.0, 2023-09-22 13:25:21.727
20.0, 679.3142174856922, 942.1930840245586, -81454.45066147455, -83156.35718779053, -30123.088374506042, -25117.482258973392, -187500.02235174447, -60651.6150416869, -1232.1399130988018, -52889.97177958152, -80921.54037017112, -81026.90649353343, -52582.79175553224, -72638.6991308569, -84634.92508350911, -70783.95137595551, 0.182, 0.934, 0.356, 192.0, 0.0, 0.0, 0.0, 0.0, 0.0, 0.0, 0.0, 0.0, 0.0, 1.695407121727165E9, 0.0, 2023-09-22 13:25:21.727
22.0, 669.4347464364465, 944.763534636919, -81452.9754463405, -83156.51365000173, -30120.58497912705, -25120.29857877476, -187500.02235174447, -60658.924062123784, -1228.0495438634807, -52892.162250538146, -80916.82415209105, -81024.98424351028, -52575.59449381763, -72640.8448983246, -84631.81819102982, -70785.85127423421, 0.182, 0.934, 0.356, 192.0, 0.0, 0.0, 0.0, 0.0, 0.0, 0.0, 0.0, 0.0, 0.0, 1.695407121727169E9, 0.0, 2023-09-22 13:25:21.727
24.0, 675.8273453506644, 939.4214677121006, -81445.12998403668, -83150.76925167671, -30115.421726157874, -25118.801011896256, -187500.02235174447, -60656.219501044696, -1219.7346949261064, -52889.65885515915, -80910.20803573228, -81019.73158356329, -52568.24076989183, -72634.98874127731, -84624.08448744829, -70786.32066086777, 0.182, 0.934, 0.356, 192.0, 0.0, 0.0, 0.0, 0.0, 0.0, 0.0, 0.0, 0.0, 0.0, 1.695407121727172E9, 0.0, 2023-09-22 13:25:21.727
26.0, 677.32491222917, 933.6547176426313, -81457.98223709849, -83161.76630994873, -30127.983406541756, -25125.50653523285, -187500.02235174447, -60663.32735578148, -1221.321668782433, -52893.771576138926, -80913.62785263394, -81022.25733068673, -52566.4079268465, -72633.78174707672, -84620.06117344633, -70786.65593703461, 0.182, 0.934, 0.356, 192.0, 0.0, 0.0, 0.0, 0.0, 0.0, 0.0, 0.0, 0.0, 0.0, 1.695407121727176E9, 0.0, 2023-09-22 13:25:21.727
28.0, 725.9399564194628, 926.3233454612906, -81462.72080692301, -83160.40285353696, -30133.794860100137, -25124.143078821075, -187500.02235174447, -60668.89294015086, -1231.1787880872237, -52901.25941053146, -80931.75511738719, -81032.04739475816, -52587.0609387232, -72642.40952043647, -84630.05240321785, -70798.16708542909, 0.182, 0.93, 0.35000000000000003, 192.0, 2.5, 88.0, 14.5, 8.0, 5.0, 120.0, 0.0, 0.0, 0.0, 1.695407121727179E9, 0.0, 2023-09-22 13:25:21.727
30.0, 695.742749660343, 926.1221797611928, -81442.53718167987, -83149.6293127095, -30121.72491809427, -25109.033299569288, -187500.02235174447, -60653.09025682095, -1240.678279480729, -52898.55484945236, -80933.94558834382, -81029.18637146788, -52575.527438584264, -72637.60389537858, -84621.6704990471, -70787.21473064598, 0.182, 0.93, 0.35000000000000003, 192.0, 0.0, 0.0, 0.0, 0.0, 0.0, 0.0, 0.0, 0.0, 0.0, 1.695407121788287E9, 0.0, 2023-09-22 13:25:21.788
32.0, 736.7358489913761, 935.2193397545028, -81432.99298679746, -83147.03651035267, -30118.126287236966, -25112.274302515307, -187500.02235174447, -60652.28559402056, -1232.9892793881036, -52895.04562557288, -80927.86591385197, -81025.85596154403, -52574.36514787259, -72634.9440377884, -84617.2225019005, -70781.6044427877, 0.182, 0.93, 0.35000000000000003, 192.0, 0.0, 0.0, 0.0, 0.0, 0.0, 0.0, 0.0, 0.0, 0.0, 1.695407121788299E9, 0.0, 2023-09-22 13:25:21.788
34.0, 691.5182699582899, 930.6595838856201, -81440.50317293443, -83146.0306818522, -30119.40033667092, -25112.408412982037, -187500.02235174447, -60655.05721033302, -1243.4498957931871, -52895.783233139904, -80927.64239640742, -81026.79473481116, -52577.22617116287, -72636.642770367, -84621.20111241355, -70784.42076258907, 0.182, 0.93, 0.35000000000000003, 192.0, 0.0, 0.0, 0.0, 0.0, 0.0, 0.0, 0.0, 0.0, 0.0, 1.695407121788302E9, 0.0, 2023-09-22 13:25:21.788
36.0, 721.5590145062226, 949.9938428394607, -81441.48664969047, -83138.22992303729, -30115.466429646785, -25114.17420079401, -187500.02235174447, -60666.568358727505, -1222.4839594941093, -52872.98445379549, -80912.30909971108, -81007.10284794604, -52568.129011169556, -72616.45914512387, -84616.99898445595, -70779.5033788089, 0.182, 0.93, 0.35000000000000003, 192.0, 0.0, 0.0, 0.0, 0.0, 0.0, 0.0, 0.0, 0.0, 0.0, 1.695407121788305E9, 0.0, 2023-09-22 13:25:21.788
38.0, 680.096528541628, 933.2970897313464, -81451.70139690654, -83149.40579526495, -30120.8084965716, -25116.856410128643, -187500.02235174447, -60655.6160039444, -1236.2526340785782, -52882.32748297781, -80918.20996024727, -81013.56250209361, -52575.57214207317, -72629.46786039685, -84624.5762258263, -70786.14184691213, 0.176, 0.936, 0.352, 192.0, 2.5, 64.0, 14.5, 32.0, 5.5, 0.0, 0.0, 0.0, 0.0, 1.695407121788309E9, 0.0, 2023-09-22 13:25:21.788
40.0, 707.8797468995747, 955.5147237199217, -81437.35157696625, -83134.85480962454, -30107.084525476042, -25107.915712346523, -187500.02235174447, -60649.44692247474, -1226.171997329235, -52881.947503322066, -80916.75709685769, -81012.6237288265, -52575.818011262185, -72627.16563071795, -84625.1797229266, -70786.47712307896, 0.176, 0.936, 0.352, 192.0, 0.0, 0.0, 0.0, 0.0, 0.0, 0.0, 0.0, 0.0, 0.0, 1.695407121788312E9, 0.0, 2023-09-22 13:25:21.788
42.0, 646.6583188364887, 936.4263339550894, -81445.95699858153, -83143.63904519546, -30116.11463023599, -25108.094526302164, -187500.02235174447, -60644.55189043903, -1231.9834508876147, -52875.91253231913, -80911.30327121059, -81006.9687374793, -52568.68780478094, -72622.22589519333, -84615.00967919943, -70777.64818401911, 0.176, 0.936, 0.352, 192.0, 0.0, 0.0, 0.0, 0.0, 0.0, 0.0, 0.0, 0.0, 0.0, 1.695407121788315E9, 0.0, 2023-09-22 13:25:21.788
44.0, 691.451214724924, 949.4126974836228, -81450.29323700587, -83145.31542602961, -30122.44017391684, -25116.00704383934, -187500.02235174447, -60670.21169307372, -1222.5957182163856, -52882.0816137888, -80919.3498992145, -81014.3224614051, -52580.73539504235, -72623.54464811619, -84622.9221967366, -70786.54417831232, 0.176, 0.936, 0.352, 192.0, 0.0, 0.0, 0.0, 0.0, 0.0, 0.0, 0.0, 0.0, 0.0, 1.695407121788318E9, 0.0, 2023-09-22 13:25:21.788
46.0, 650.1898944604271, 922.8811768151733, -81457.8257748873, -83156.69246395737, -30126.329377452064, -25114.129497305097, -187500.02235174447, -60662.74621042564, -1241.3711835588435, -52891.89402960468, -80930.34695748652, -81025.69949933286, -52578.813145019194, -72631.56892437565, -84630.99117648497, -70800.58107383025, 0.176, 0.936, 0.352, 192.0, 0.0, 0.0, 0.0, 0.0, 0.0, 0.0, 0.0, 0.0, 0.0, 1.695407121850003E9, 0.0, 2023-09-22 13:25:21.850
48.0, 714.6970289584433, 945.6352526706759, -81458.09399582076, -83153.94319938937, -30126.172915240877, -25117.415203740027, -187500.02235174447, -60658.789951657054, -1233.3469072993885, -52894.6879976616, -80930.54812318661, -81030.52747613519, -52582.12120319858, -72633.73704358781, -84629.53831309537, -70797.72005053998, 0.176, 0.934, 0.34800000000000003, 192.0, 2.5, 64.0, 14.5, 24.0, 5.0, 112.0, 0.0, 0.0, 0.0, 1.695407121850013E9, 0.0, 2023-09-22 13:25:21.850
50.0, 660.0917172541282, 926.1668832501034, -81455.0765103193, -83151.19393482136, -30123.222484972775, -25115.314139761227, -187500.02235174447, -60655.14661731084, -1241.7511632145838, -52886.194334768574, -80923.95435857229, -81019.15043820745, -52579.729566541864, -72626.45037489539, -84620.64231880216, -70792.44503884853, 0.176, 0.934, 0.34800000000000003, 192.0, 0.0, 0.0, 0.0, 0.0, 0.0, 0.0, 0.0, 0.0, 0.0, 1.695407121850017E9, 0.0, 2023-09-22 13:25:21.850
52.0, 723.5259680182896, 939.5332264343771, -81453.69070216308, -83154.36788253402, -30125.81528732959, -25118.44338398497, -187500.02235174447, -60668.35649828392, -1232.229320076623, -52898.62190468573, -80933.43149822134, -81031.26508370222, -52582.098851454124, -72639.48144191282, -84631.68408056308, -70804.91731225459, 0.176, 0.934, 0.34800000000000003, 192.0, 0.0, 0.0, 0.0, 0.0, 0.0, 0.0, 0.0, 0.0, 0.0, 1.695407121850022E9, 0.0, 2023-09-22 13:25:21.850
54.0, 664.22678997836, 919.6625256136091, -81435.16110600962, -83146.58947546357, -30110.504342377706, -25107.893360602066, -187500.02235174447, -60655.39248649985, -1233.4139625327543, -52889.345930736774, -80920.98157655973, -81019.75393530774, -52572.331139127156, -72625.2433806948, -84615.3673071107, -70792.86972199318, 0.176, 0.934, 0.34800000000000003, 192.0, 0.0, 0.0, 0.0, 0.0, 0.0, 0.0, 0.0, 0.0, 0.0, 1.695407121850026E9, 0.0, 2023-09-22 13:25:21.850
56.0, 715.3005260587366, 943.6682991586089, -81436.65867288812, -83148.31055978664, -30117.433383158852, -25120.097413074665, -187500.02235174447, -60670.90459715183, -1222.7968839164835, -52890.79879412637, -80923.99906206121, -81022.21262719782, -52574.72277578387, -72630.76426157526, -84619.43532460158, -70798.63647206264, 0.176, 0.934, 0.34800000000000003, 192.0, 0.0, 0.0, 0.0, 0.0, 0.0, 0.0, 0.0, 0.0, 0.0, 1.695407121850031E9, 0.0, 2023-09-22 13:25:21.850
58.0, 673.9721505608738, 930.9501565635392, -81440.63728340117, -83147.9752836198, -30119.757964582204, -25113.995386838364, -187500.02235174447, -60655.39248649985, -1226.8201979184387, -52881.589875410784, -80914.99130904571, -81010.5226648477, -52570.47594433736, -72627.90323828498, -84614.7191065215, -70791.84154174823, 0.17400000000000002, 0.936, 0.35000000000000003, 192.0, 2.5, 56.0, 14.5, 32.0, 5.0, 120.0, 0.0, 0.0, 0.0, 1.695407121850035E9, 0.0, 2023-09-22 13:25:21.850
60.0, 712.3053923017254, 944.5623689368211, -81457.55755395384, -83156.31248430163, -30134.107784522508, -25134.44723301497, -187500.02235174447, -60678.9735769002, -1218.1924245586902, -52892.51987844943, -80919.59576840351, -81020.08921147457, -52576.108583940106, -72636.21808722235, -84628.979519484, -70800.37990813017, 0.17400000000000002, 0.936, 0.35000000000000003, 192.0, 0.0, 0.0, 0.0, 0.0, 0.0, 0.0, 0.0, 0.0, 0.0, 1.695407121878595E9, 0.0, 2023-09-22 13:25:21.878
62.0, 693.7534444038206, 926.9715460504945, -81461.20088830005, -83154.77021393421, -30137.885229335458, -25134.44723301497, -187500.02235174447, -60672.53627449707, -1232.72105845464, -52893.235134272, -80924.64726265041, -81023.35256616505, -52586.52449685628, -72637.53684014521, -84635.88620852068, -70806.16900994409, 0.17400000000000002, 0.936, 0.35000000000000003, 192.0, 0.0, 0.0, 0.0, 0.0, 0.0, 0.0, 0.0, 0.0, 0.0, 1.695407121878611E9, 0.0, 2023-09-22 13:25:21.878
64.0, 717.6474592265439, 940.7849241238742, -81456.08233881979, -83147.66235919742, -30129.950360053823, -25124.791279410278, -187500.02235174447, -60665.54017848256, -1228.161302585757, -52896.23026802901, -80927.39652721841, -81029.52164763471, -52583.23879042135, -72638.14033724551, -84631.03587997388, -70799.77641102987, 0.17400000000000002, 0.936, 0.35000000000000003, 192.0, 0.0, 0.0, 0.0, 0.0, 0.0, 0.0, 0.0, 0.0, 0.0, 1.695407121878615E9, 0.0, 2023-09-22 13:25:21.878
66.0, 684.678636154966, 930.2572524854246, -81454.69653066355, -83144.80133590715, -30123.267188461687, -25113.816572882723, -187500.02235174447, -60659.52755922408, -1224.0485816059806, -52880.24877074346, -80914.23134973424, -81012.53432184868, -52567.19023790243, -72620.97419750383, -84613.84738848775, -70786.94650971252, 0.17400000000000002, 0.936, 0.35000000000000003, 192.0, 0.0, 0.0, 0.0, 0.0, 0.0, 0.0, 0.0, 0.0, 0.0, 1.695407121930129E9, 0.0, 2023-09-22 13:25:21.930
68.0, 712.6630202130104, 935.1746362655922, -81470.81213841583, -83159.30761805864, -30137.92993282437, -25125.484183488392, -187500.02235174447, -60672.44686751925, -1232.4751892656313, -52891.22347727102, -80928.17883827434, -81025.34187142157, -52581.5624095872, -72629.55726737466, -84624.41976361511, -70797.18360867305, 0.178, 0.928, 0.352, 192.0, 2.5, 72.0, 14.5, 0.0, 5.5, 0.0, 0.0, 0.0, 0.0, 1.695407121930139E9, 0.0, 2023-09-22 13:25:21.930
70.0, 711.7689504347981, 932.7159443755085, -81460.08330107729, -83143.68374868439, -30129.749194353724, -25113.704814160446, -187500.02235174447, -60660.30987028001, -1245.618015005352, -52897.4372622296, -80936.53839070063, -81028.11348773402, -52589.3631684021, -72636.97804653384, -84629.53831309537, -70804.47027736549, 0.178, 0.928, 0.352, 192.0, 0.0, 0.0, 0.0, 0.0, 0.0, 0.0, 0.0, 0.0, 0.0, 1.695407121930143E9, 0.0, 2023-09-22 13:25:21.930
72.0, 709.6678864559992, 940.9190345906061, -81461.20088830005, -83143.7731556622, -30131.604389143515, -25107.982767579888, -187500.02235174447, -60650.92213760879, -1235.3809160448213, -52880.13701202119, -80928.20119001881, -81014.05424047164, -52578.56727583019, -72620.66127308145, -84618.45184784554, -70785.8065707453, 0.178, 0.928, 0.352, 192.0, 0.0, 0.0, 0.0, 0.0, 0.0, 0.0, 0.0, 0.0, 0.0, 1.695407121930146E9, 0.0, 2023-09-22 13:25:21.930
74.0, 724.8447209411528, 938.437990956067, -81450.69556840605, -83133.15607704593, -30125.412955929394, -25105.389965223072, -187500.02235174447, -60655.168969055296, -1232.586947987908, -52880.02525329891, -80929.98932957523, -81017.31759516211, -52579.84132526414, -72625.71276732835, -84624.91150199312, -70789.89693998062, 0.178, 0.928, 0.352, 192.0, 0.0, 0.0, 0.0, 0.0, 0.0, 0.0, 0.0, 0.0, 0.0, 1.695407121930149E9, 0.0, 2023-09-22 13:25:21.930
76.0, 700.548374718234, 938.2144735115139, -81453.10955680723, -83136.93352185888, -30127.402261185918, -25109.50268620285, -187500.02235174447, -60662.1203615809, -1227.9601368856595, -52873.766764851425, -80919.57341665906, -81009.33802239156, -52579.68486305295, -72615.31920615664, -84616.10491467774, -70779.8610067202, 0.178, 0.928, 0.352, 192.0, 0.0, 0.0, 0.0, 0.0, 0.0, 0.0, 0.0, 0.0, 0.0, 1.695407121930152E9, 0.0, 2023-09-22 13:25:21.930
78.0, 725.3364593191695, 947.244578271458, -81442.04544330186, -83128.88689385497, -30118.10393549251, -25116.07409907271, -187500.02235174447, -60673.78797218657, -1224.2497473060785, -52874.41496544063, -80918.74640211421, -81005.96290897882, -52576.13093568456, -72620.32599691463, -84619.74824902395, -70787.19237890153, 0.178, 0.936, 0.354, 192.0, 2.5, 72.0, 14.5, 32.0, 5.5, 8.0, 0.0, 0.0, 0.0, 1.695407121930155E9, 0.0, 2023-09-22 13:25:21.930
80.0, 686.4667757113905, 938.66150840062, -81450.09207130577, -83139.5263242157, -30124.09420300653, -25119.69508167447, -187500.02235174447, -60677.14073385486, -1221.2322618046119, -52871.35277645025, -80911.32562295505, -81000.4196763539, -52569.98420595935, -72620.88479052602, -84612.84155998725, -70784.0631346778, 0.178, 0.936, 0.354, 192.0, 0.0, 0.0, 0.0, 0.0, 0.0, 0.0, 0.0, 0.0, 0.0, 1.695407121990428E9, 0.0, 2023-09-22 13:25:21.990
82.0, 725.0682383857059, 948.406868983134, -81444.37002472521, -83132.97726309029, -30120.160295982398, -25108.25098851335, -187500.02235174447, -60653.403181243324, -1211.330439010911, -52881.27695098841, -80911.03505027713, -81005.5158740897, -52578.679034552464, -72624.50577312778, -84614.3167751213, -70782.76673349937, 0.178, 0.936, 0.354, 192.0, 0.0, 0.0, 0.0, 0.0, 0.0, 0.0, 0.0, 0.0, 0.0, 1.69540712199044E9, 0.0, 2023-09-22 13:25:21.990
84.0, 671.222885992871, 936.8510170997403, -81447.16399278212, -83130.7197369003, -30122.753098339213, -25103.378308222094, -187500.02235174447, -60654.878396377375, -1223.936822883704, -52876.8289538418, -80914.00783228969, -81004.13006593348, -52570.721813526376, -72618.20258119138, -84614.29442337685, -70777.02233517436, 0.178, 0.936, 0.354, 192.0, 0.0, 0.0, 0.0, 0.0, 0.0, 0.0, 0.0, 0.0, 0.0, 1.695407121990443E9, 0.0, 2023-09-22 13:25:21.990
86.0, 729.6056425101332, 948.8986073611508, -81453.19896378505, -83134.78775439117, -30128.698662364324, -25109.413279225028, -187500.02235174447, -60663.32735578148, -1220.6064129598633, -52878.304168975854, -80915.348936957, -81005.64998455644, -52575.97447347337, -72619.34252015859, -84616.7754670114, -70781.58209104325, 0.178, 0.936, 0.354, 192.0, 0.0, 0.0, 0.0, 0.0, 0.0, 0.0, 0.0, 0.0, 0.0, 1.695407121990447E9, 0.0, 2023-09-22 13:25:21.990
88.0, 688.0090460788067, 929.8102175963185, -81456.28350451989, -83140.33098701609, -30124.071851262077, -25111.514343203824, -187500.02235174447, -60666.546006983044, -1238.1078288683689, -52882.573352166815, -80920.06515503707, -81006.54405433465, -52577.09206069614, -72618.5378573582, -84611.9698419535, -70780.7103730095, 0.17200000000000001, 0.934, 0.358, 192.0, 2.5, 48.0, 14.5, 24.0, 5.5, 24.0, 0.0, 0.0, 0.0, 1.69540712199045E9, 0.0, 2023-09-22 13:25:21.990
90.0, 760.0040149693507, 949.3009387613463, -81451.00849282843, -83131.50204795624, -30126.19526698533, -25112.58722693768, -187500.02235174447, -60680.761716456625, -1227.133122340813, -52889.144765036675, -80923.41791670537, -81011.372031137, -52584.40108113302, -72627.32209292914, -84623.50334209244, -70793.83084700476, 0.17200000000000001, 0.934, 0.358, 192.0, 0.0, 0.0, 0.0, 0.0, 0.0, 0.0, 0.0, 0.0, 0.0, 1.695407121990453E9, 0.0, 2023-09-22 13:25:21.990
92.0, 692.3005810142256, 937.0745345442933, -81444.81705961432, -83124.23773100827, -30117.209865714296, -25103.06538379972, -187500.02235174447, -60659.840483646454, -1227.781322930017, -52872.96210205104, -80909.42572467634, -80992.37304834998, -52571.16884841548, -72611.43000262142, -84609.15352215213, -70780.57626254276, 0.17200000000000001, 0.934, 0.358, 192.0, 0.0, 0.0, 0.0, 0.0, 0.0, 0.0, 0.0, 0.0, 0.0, 1.695407121990456E9, 0.0, 2023-09-22 13:25:21.990
94.0, 740.513293804323, 959.6497964441535, -81437.7762601109, -83115.85582683752, -30115.66759534688, -25099.48910468687, -187500.02235174447, -60658.40997200132, -1213.8561861343605, -52871.46453517253, -80908.95633804279, -80991.99306869425, -52578.29905489672, -72612.43583112191, -84610.58403379728, -70784.17489340006, 0.17200000000000001, 0.934, 0.358, 192.0, 0.0, 0.0, 0.0, 0.0, 0.0, 0.0, 0.0, 0.0, 0.0, 1.69540712199046E9, 0.0, 2023-09-22 13:25:21.990
96.0, 684.0527873102174, 939.600281667743, -81434.64701588715, -83117.12987627147, -30108.850313288014, -25097.63390989708, -187500.02235174447, -60655.05721033302, -1224.2720990505338, -52863.44025891308, -80903.94954728479, -80983.03001916767, -52563.301034367214, -72606.40086011897, -84600.07871390328, -70776.82116947426, 0.17200000000000001, 0.934, 0.358, 192.0, 0.0, 0.0, 0.0, 0.0, 0.0, 0.0, 0.0, 0.0, 0.0, 1.695407122048617E9, 0.0, 2023-09-22 13:25:22.048
98.0, 746.1459334070604, 957.1687528096144, -81437.39628045516, -83122.71781238531, -30114.773525568668, -25109.100354802653, -187500.02235174447, -60672.0221843746, -1218.3265350254221, -52868.379994437695, -80907.01173627518, -80983.8123302236, -52569.29130188123, -72608.56897933113, -84599.89989994763, -70781.8056084878, 0.17200000000000001, 0.936, 0.354, 192.0, 2.5, 48.0, 14.5, 32.0, 5.5, 8.0, 0.0, 0.0, 0.0, 1.695407122048627E9, 0.0, 2023-09-22 13:25:22.048
100.0, 679.1577552745051, 942.9753950804943, -81429.03672802886, -83111.65369887992, -30102.211845184785, -25092.694174372456, -187500.02235174447, -60649.96101259721, -1224.9873548731036, -52864.043756013365, -80902.38492517293, -80974.26813534119, -52570.16301991499, -72604.72447928482, -84594.04374290035, -70778.13992239714, 0.17200000000000001, 0.936, 0.354, 192.0, 0.0, 0.0, 0.0, 0.0, 0.0, 0.0, 0.0, 0.0, 0.0, 1.69540712204863E9, 0.0, 2023-09-22 13:25:22.048
102.0, 717.6474592265439, 969.9315988935947, -81434.91523682061, -83111.09490526855, -30105.87753127546, -25093.58824415067, -187500.02235174447, -60655.928928366775, -1214.1467588122796, -52867.64238687067, -80897.71341058177, -80973.4634725408, -52570.76651701528, -72605.93147348541, -84596.05539990132, -70773.93779443954, 0.17200000000000001, 0.936, 0.354, 192.0, 0.0, 0.0, 0.0, 0.0, 0.0, 0.0, 0.0, 0.0, 0.0, 1.695407122048633E9, 0.0, 2023-09-22 13:25:22.048
104.0, 679.7165488858877, 945.8587701152289, -81446.47108870401, -83123.05308855213, -30111.890150533935, -25101.143133776564, -187500.02235174447, -60654.565471955, -1219.846453648383, -52864.35668043574, -80895.88056753643, -80971.98825740675, -52568.24076989183, -72606.62437756352, -84590.48981553195, -70767.61225075868, 0.17200000000000001, 0.936, 0.354, 192.0, 0.0, 0.0, 0.0, 0.0, 0.0, 0.0, 0.0, 0.0, 0.0, 1.695407122048637E9, 0.0, 2023-09-22 13:25:22.048
106.0, 718.7873981937645, 962.5108197344327, -81443.54301018036, -83119.45445769482, -30110.750211566716, -25102.551293677247, -187500.02235174447, -60655.4148382443, -1217.81244490295, -52875.59960789676, -80906.87762580844, -80984.48288255726, -52575.21451416189, -72612.90521775547, -84600.43634181457, -70776.77646598536, 0.17200000000000001, 0.936, 0.354, 192.0, 0.0, 0.0, 0.0, 0.0, 0.0, 0.0, 0.0, 0.0, 0.0, 1.69540712204864E9, 0.0, 2023-09-22 13:25:22.048
108.0, 677.6825401404549, 942.2824910023799, -81446.58284742628, -83124.81887636411, -30111.37606041146, -25100.606691909637, -187500.02235174447, -60651.97266959819, -1223.6462502057852, -52872.090384017276, -80904.57539612954, -80981.17482437789, -52565.91618846848, -72610.24536016528, -84594.80370221182, -70771.52380603836, 0.17, 0.934, 0.36, 192.0, 2.5, 40.0, 14.5, 24.0, 5.5, 32.0, 0.0, 0.0, 0.0, 1.695407122048643E9, 0.0, 2023-09-22 13:25:22.048
110.0, 717.6251074820885, 960.566217966821, -81455.70235916405, -83134.74305090225, -30121.791973327636, -25118.532790962792, -187500.02235174447, -60673.542102997555, -1225.3449827843885, -52880.09230853228, -80912.28674796662, -80992.30599311662, -52571.50412458231, -72618.89548526949, -84606.78423723987, -70785.11366666718, 0.17, 0.934, 0.36, 192.0, 0.0, 0.0, 0.0, 0.0, 0.0, 0.0, 0.0, 0.0, 0.0, 1.695407122108893E9, 0.0, 2023-09-22 13:25:22.108
112.0, 699.4307874954686, 943.7130026475195, -81457.3787399982, -83136.53119045869, -30119.780316326658, -25119.203343296453, -187500.02235174447, -60673.765620442115, -1231.5364159985086, -52882.34983472226, -80915.17012300136, -80991.70249601633, -52575.86271475109, -72621.0412527372, -84609.39939134114, -70796.08837319474, 0.17, 0.934, 0.36, 192.0, 0.0, 0.0, 0.0, 0.0, 0.0, 0.0, 0.0, 0.0, 0.0, 1.695407122108931E9, 0.0, 2023-09-22 13:25:22.108
114.0, 720.2179098389041, 954.0842120747819, -81460.46328073303, -83138.18521954838, -30120.29440644913, -25113.883628116087, -187500.02235174447, -60673.63150997538, -1221.7687036715392, -52885.94846557957, -80919.05932653658, -80998.00568795273, -52574.700424039416, -72623.09761322709, -84615.1661414106, -70801.13986744164, 0.17, 0.934, 0.36, 192.0, 0.0, 0.0, 0.0, 0.0, 0.0, 0.0, 0.0, 0.0, 0.0, 1.695407122108934E9, 0.0, 2023-09-22 13:25:22.108
116.0, 706.2927730432478, 943.4000782251452, -81457.69166442058, -83135.63712068048, -30114.0582697461, -25107.982767579888, -187500.02235174447, -60670.189341329264, -1221.8357589049053, -52877.8794858312, -80918.00879454718, -80992.93184196137, -52572.532304827255, -72619.70014806988, -84612.03689718687, -70800.5587220858, 0.17, 0.934, 0.36, 192.0, 0.0, 0.0, 0.0, 0.0, 0.0, 0.0, 0.0, 0.0, 0.0, 1.695407122108937E9, 0.0, 2023-09-22 13:25:22.108
118.0, 716.7310377038763, 950.3291190062904, -81463.83839414579, -83144.55546671814, -30117.075755247566, -25112.631930426593, -187500.02235174447, -60668.46825700621, -1223.6909536946957, -52882.573352166815, -80921.29450098211, -80997.40219085243, -52576.3097496402, -72620.66127308145, -84611.05342043084, -70798.8599895072, 0.17, 0.936, 0.356, 192.0, 2.5, 40.0, 14.5, 32.0, 5.5, 16.0, 0.0, 0.0, 0.0, 1.695407122108941E9, 0.0, 2023-09-22 13:25:22.108
120.0, 731.7514099778426, 938.6168049117094, -81457.95988535404, -83147.3270830306, -30119.62385411547, -25119.180991551995, -187500.02235174447, -60684.29329208056, -1227.8707299078383, -52892.162250538146, -80927.50828594068, -81004.8676735005, -52575.885066495546, -72632.15006973149, -84615.23319664398, -70804.53733259885, 0.17, 0.936, 0.356, 192.0, 0.0, 0.0, 0.0, 0.0, 0.0, 0.0, 0.0, 0.0, 0.0, 1.695407122108944E9, 0.0, 2023-09-22 13:25:22.108
122.0, 705.1528340760273, 948.2280550274916, -81449.26505676092, -83135.9723968473, -30116.204037213807, -25110.86614261462, -187500.02235174447, -60670.03287911807, -1224.4509130061763, -52888.89889584767, -80919.1487335144, -80994.07178092859, -52572.12997342706, -72630.27252319724, -84607.3206791068, -70800.51401859689, 0.17, 0.936, 0.356, 192.0, 0.0, 0.0, 0.0, 0.0, 0.0, 0.0, 0.0, 0.0, 0.0, 1.695407122108948E9, 0.0, 2023-09-22 13:25:22.108
124.0, 724.3753343075913, 952.0725550738043, -81452.75192889594, -83128.41750722141, -30115.332319180052, -25106.17227627901, -187500.02235174447, -60659.75107666863, -1217.7677414140394, -52877.477154431006, -80908.7998758316, -80981.2642313557, -52567.8607902361, -72615.43096487892, -84601.01748717041, -70786.03008818986, 0.17, 0.936, 0.356, 192.0, 0.0, 0.0, 0.0, 0.0, 0.0, 0.0, 0.0, 0.0, 0.0, 1.695407122108951E9, 0.0, 2023-09-22 13:25:22.108
126.0, 701.9788863633736, 943.8694648587067, -81465.35831276875, -83135.59241719155, -30120.182647726855, -25110.419107725516, -187500.02235174447, -60661.38275401387, -1229.6588694642628, -52887.15545978016, -80916.1983032463, -80992.86478672801, -52577.31557814069, -72627.61266560706, -84611.47810357549, -70793.13794292664, 0.17, 0.936, 0.356, 192.0, 0.0, 0.0, 0.0, 0.0, 0.0, 0.0, 0.0, 0.0, 0.0, 1.695407122169111E9, 0.0, 2023-09-22 13:25:22.169
128.0, 722.2966220732477, 956.1852760535809, -81462.13966156717, -83127.05405080963, -30113.857104046, -25105.412316967526, -187500.02235174447, -60655.32543126648, -1217.6783344362182, -52878.32652072031, -80912.1526374999, -80986.49453955825, -52570.45359259291, -72618.13552595802, -84600.72691449248, -70784.42076258907, 0.17200000000000001, 0.934, 0.356, 192.0, 2.5, 48.0, 14.5, 24.0, 5.5, 16.0, 0.0, 0.0, 0.0, 1.695407122169121E9, 0.0, 2023-09-22 13:25:22.169
130.0, 692.0994153141279, 946.66343291562, -81474.20960357304, -83140.86742888301, -30125.94939779632, -25120.700910174957, -187500.02235174447, -60668.08827735046, -1225.3226310399332, -52885.61318941274, -80918.00879454718, -80995.90462397393, -52572.55465657171, -72623.7905173052, -84605.55489129483, -70792.08741093724, 0.17200000000000001, 0.934, 0.356, 192.0, 0.0, 0.0, 0.0, 0.0, 0.0, 0.0, 0.0, 0.0, 0.0, 1.695407122169125E9, 0.0, 2023-09-22 13:25:22.169
132.0, 721.4696075284014, 958.5098574769328, -81458.76454815443, -83125.13180078648, -30113.81240055709, -25113.21307578243, -187500.02235174447, -60672.17864658579, -1219.8688053928383, -52885.792003368384, -80919.28284398113, -80993.4682838283, -52571.772345515776, -72624.34931091659, -84607.92417620709, -70797.58594007324, 0.17200000000000001, 0.934, 0.356, 192.0, 0.0, 0.0, 0.0, 0.0, 0.0, 0.0, 0.0, 0.0, 0.0, 1.695407122169128E9, 0.0, 2023-09-22 13:25:22.169
134.0, 672.4075284490024, 939.2873572453686, -81467.39232151417, -83132.08319331208, -30118.752136081715, -25114.196552538462, -187500.02235174447, -60671.2175215742, -1221.5004827380756, -52882.05926204434, -80915.84067533501, -80989.31085935961, -52566.49733382432, -72617.66613932444, -84598.49174004696, -70789.02522194687, 0.17200000000000001, 0.934, 0.356, 192.0, 0.0, 0.0, 0.0, 0.0, 0.0, 0.0, 0.0, 0.0, 0.0, 1.695407122169131E9, 0.0, 2023-09-22 13:25:22.169
136.0, 716.2169475814042, 952.0725550738043, -81460.75385341095, -83123.03073680768, -30117.16516222539, -25107.58043617969, -187500.02235174447, -60676.11255360992, -1214.4373314901986, -52885.99316906848, -80923.66378589437, -80994.85409198453, -52572.97933971636, -72619.09665096959, -84601.24100461496, -70792.71325978199, 0.17200000000000001, 0.934, 0.356, 192.0, 0.0, 0.0, 0.0, 0.0, 0.0, 0.0, 0.0, 0.0, 0.0, 1.695407122169134E9, 0.0, 2023-09-22 13:25:22.169
138.0, 671.1111272705946, 934.8840635876732, -81465.33596102429, -83125.0200420642, -30117.0087000142, -25101.120782032107, -187500.02235174447, -60664.48964649316, -1225.456741506665, -52882.88627658919, -80923.79789636111, -80992.70832451682, -52573.60518856111, -72613.93339800042, -84598.17881562457, -70787.52765506836, 0.18, 0.934, 0.356, 192.0, 2.5, 80.0, 14.5, 24.0, 5.5, 16.0, 0.0, 0.0, 0.0, 1.695407122169137E9, 0.0, 2023-09-22 13:25:22.169
140.0, 739.0827821591834, 953.1901422965697, -81468.84518490377, -83126.78582987617, -30119.556798882106, -25106.373441979104, -187500.02235174447, -60678.794762944555, -1213.8561861343605, -52885.300264990365, -80925.74249812872, -80994.27294662868, -52577.80731651871, -72616.14622070148, -84602.29153660436, -70789.51696032488, 0.18, 0.934, 0.356, 192.0, 0.0, 0.0, 0.0, 0.0, 0.0, 0.0, 0.0, 0.0, 0.0, 1.695407122228521E9, 0.0, 2023-09-22 13:25:22.228
142.0, 674.2403714943375, 937.4768659444888, -81464.9336296241, -83126.11527754251, -30110.34788016652, -25098.371517464104, -187500.02235174447, -60668.803533173035, -1226.7084391961623, -52881.07578528831, -80924.24493125021, -80989.33321110407, -52577.919075240985, -72616.54855210168, -84600.01165866992, -70786.43241959006, 0.18, 0.934, 0.356, 192.0, 0.0, 0.0, 0.0, 0.0, 0.0, 0.0, 0.0, 0.0, 0.0, 1.695407122228538E9, 0.0, 2023-09-22 13:25:22.228
144.0, 735.5735582797001, 962.7343371789858, -81467.61583895872, -83127.18816127637, -30115.71229883579, -25099.53380817578, -187500.02235174447, -60672.31275705252, -1212.4033227447658, -52876.60543639725, -80922.18857076032, -80986.60629828052, -52575.661549050994, -72614.58159858962, -84602.20212962653, -70788.9581667135, 0.18, 0.934, 0.356, 192.0, 0.0, 0.0, 0.0, 0.0, 0.0, 0.0, 0.0, 0.0, 0.0, 1.695407122228542E9, 0.0, 2023-09-22 13:25:22.228
146.0, 679.7389006303431, 947.9821858384831, -81461.983199356, -83120.12501002848, -30110.169066210878, -25085.183988235472, -187500.02235174447, -60637.42168395778, -1222.752180427573, -52871.039852027876, -80916.28771022412, -80976.4139028089, -52573.78400251675, -72607.00435721927, -84593.68611498906, -70774.0495531618, 0.18, 0.934, 0.356, 192.0, 0.0, 0.0, 0.0, 0.0, 0.0, 0.0, 0.0, 0.0, 0.0, 1.695407122228545E9, 0.0, 2023-09-22 13:25:22.228
148.0, 731.416133811013, 963.3825377681898, -81468.37579827021, -83122.9189780854, -30116.315795936087, -25096.426915696495, -187500.02235174447, -60657.873530134384, -1213.7891309009947, -52879.153535265155, -80923.350861472, -80983.05237091212, -52580.713043297896, -72613.68752881141, -84600.79396972586, -70779.10104740871, 0.18, 0.934, 0.358, 192.0, 2.5, 80.0, 14.5, 24.0, 5.5, 24.0, 0.0, 0.0, 0.0, 1.695407122228548E9, 0.0, 2023-09-22 13:25:22.228
150.0, 674.2627232387929, 943.6235956696983, -81468.86753664822, -83124.26008275272, -30110.303176677608, -25097.924482575, -187500.02235174447, -60656.53242546707, -1219.198253059179, -52873.140916006676, -80916.62298639095, -80978.49261504324, -52578.23199966336, -72609.30658689816, -84592.23325159946, -70773.53546303934, 0.18, 0.934, 0.358, 192.0, 0.0, 0.0, 0.0, 0.0, 0.0, 0.0, 0.0, 0.0, 0.0, 1.695407122228552E9, 0.0, 2023-09-22 13:25:22.228
152.0, 725.0235348967952, 957.146401065159, -81478.14351059718, -83133.2231322793, -30119.62385411547, -25109.480334458392, -187500.02235174447, -60680.22527458969, -1210.5034244660646, -52886.0825760463, -80921.4509631933, -80989.78024599317, -52574.476906594864, -72621.35417715958, -84597.97764992448, -70786.2089021455, 0.18, 0.934, 0.358, 192.0, 0.0, 0.0, 0.0, 0.0, 0.0, 0.0, 0.0, 0.0, 0.0, 1.695407122228555E9, 0.0, 2023-09-22 13:25:22.228
154.0, 690.870069369086, 934.504083931933, -81479.26109781994, -83134.43012647989, -30120.115592493486, -25106.038165812275, -187500.02235174447, -60671.932777396774, -1223.5121397390533, -52890.24000051499, -80926.18953301782, -80992.08247567207, -52584.7140055554, -72622.7399853158, -84600.25752785892, -70790.18751265854, 0.18, 0.934, 0.358, 192.0, 0.0, 0.0, 0.0, 0.0, 0.0, 0.0, 0.0, 0.0, 0.0, 1.695407122228558E9, 0.0, 2023-09-22 13:25:22.228
156.0, 715.0993603586388, 951.4690579735111, -81466.31943778032, -83119.47680943928, -30108.783258054646, -25094.079982528685, -187500.02235174447, -60669.89876865134, -1213.7220756676288, -52896.073805817825, -80931.59865517601, -80998.89975773093, -52583.03762472125, -72624.97515976134, -84604.21378662752, -70791.84154174823, 0.18, 0.934, 0.358, 192.0, 0.0, 0.0, 0.0, 0.0, 0.0, 0.0, 0.0, 0.0, 0.0, 1.695407122294179E9, 0.0, 2023-09-22 13:25:22.294
158.0, 685.483298955357, 933.0959240312486, -81473.36023728373, -83126.40585022043, -30115.309967435598, -25100.40552620954, -187500.02235174447, -60676.31371931002, -1214.3479245123774, -52883.914456834136, -80925.96601557327, -80987.7685889922, -52574.007519961306, -72614.38043288952, -84595.22838535647, -70783.79491374432, 0.17200000000000001, 0.9380000000000001, 0.362, 192.0, 2.5, 48.0, 14.5, 40.0, 5.5, 40.0, 0.0, 0.0, 0.0, 1.695407122294199E9, 0.0, 2023-09-22 13:25:22.294
160.0, 720.1285028610829, 946.6187294267094, -81475.03661811788, -83125.13180078648, -30121.456697160807, -25098.59503490866, -187500.02235174447, -60673.117419852904, -1211.7327704111065, -52889.99413132598, -80932.55978018758, -80994.38470535097, -52579.21547641939, -72619.47663062533, -84605.95722269503, -70791.46156209249, 0.17200000000000001, 0.9380000000000001, 0.362, 192.0, 0.0, 0.0, 0.0, 0.0, 0.0, 0.0, 0.0, 0.0, 0.0, 1.695407122294202E9, 0.0, 2023-09-22 13:25:22.294
162.0, 699.5425462177451, 934.0346972983715, -81472.24265006097, -83122.94132982986, -30113.700641834814, -25098.930311075488, -187500.02235174447, -60678.34772805545, -1211.9562878556596, -52888.8318406143, -80927.32947198504, -80988.93087970387, -52582.2106101764, -72616.79442129069, -84602.53740579337, -70789.89693998062, 0.17200000000000001, 0.9380000000000001, 0.362, 192.0, 0.0, 0.0, 0.0, 0.0, 0.0, 0.0, 0.0, 0.0, 0.0, 1.695407122294205E9, 0.0, 2023-09-22 13:25:22.294
164.0, 703.1411770750495, 943.310671247324, -81475.95303964056, -83131.68086191188, -30121.68021460536, -25109.25681701384, -187500.02235174447, -60685.45558279224, -1212.1798053002126, -52889.144765036675, -80923.66378589437, -80987.1650918919, -52574.767479272785, -72617.57673234663, -84601.28570810387, -70792.08741093724, 0.17200000000000001, 0.9380000000000001, 0.362, 192.0, 0.0, 0.0, 0.0, 0.0, 0.0, 0.0, 0.0, 0.0, 0.0, 1.695407122294208E9, 0.0, 2023-09-22 13:25:22.294
166.0, 722.6989534734432, 933.7441246204526, -81481.29510656538, -83140.86742888301, -30127.335205952553, -25117.236389784382, -187500.02235174447, -60680.35938505643, -1219.5782327149193, -52899.87360237523, -80935.01847207767, -80995.83756874056, -52592.738281814854, -72632.73121508732, -84612.39452509815, -70806.0572512218, 0.17200000000000001, 0.9380000000000001, 0.362, 192.0, 0.0, 0.0, 0.0, 0.0, 0.0, 0.0, 0.0, 0.0, 0.0, 1.695407122294212E9, 0.0, 2023-09-22 13:25:22.294
168.0, 706.2704212987926, 944.3164997478128, -81471.95207738306, -83131.81497237862, -30119.266226204185, -25113.883628116087, -187500.02235174447, -60678.83946643346, -1214.750255912573, -52898.62190468573, -80930.48106795324, -80990.65196402693, -52587.21740093439, -72634.72052034385, -84608.19239714056, -70803.3079866538, 0.17400000000000002, 0.936, 0.356, 192.0, 2.5, 56.0, 14.5, 32.0, 5.5, 16.0, 0.0, 0.0, 0.0, 1.695407122294215E9, 0.0, 2023-09-22 13:25:22.294
170.0, 716.351058048136, 944.2047410255362, -81469.1357575817, -83127.94812058784, -30118.01452851469, -25117.191686295475, -187500.02235174447, -60687.333129326486, -1200.7133603946402, -52888.60832316975, -80915.348936957, -80975.22926035276, -52577.74026128534, -72627.07622374014, -84601.57628078178, -70798.10003019572, 0.17400000000000002, 0.936, 0.356, 192.0, 0.0, 0.0, 0.0, 0.0, 0.0, 0.0, 0.0, 0.0, 0.0, 1.695407122348653E9, 0.0, 2023-09-22 13:25:22.348
172.0, 690.1995170354268, 945.2105695260251, -81471.32622853831, -83126.42820196488, -30121.38964192744, -25113.280131015796, -187500.02235174447, -60682.75102171314, -1201.3392092393888, -52887.110756291244, -80913.51609391166, -80972.2564783402, -52579.12606944157, -72623.16466846045, -84599.1175888917, -70794.59080631624, 0.17400000000000002, 0.936, 0.356, 192.0, 0.0, 0.0, 0.0, 0.0, 0.0, 0.0, 0.0, 0.0, 0.0, 1.695407122348666E9, 0.0, 2023-09-22 13:25:22.348
174.0, 730.5220640328007, 950.7314504064859, -81473.98608612848, -83123.90245484143, -30126.39643268543, -25117.50461071785, -187500.02235174447, -60692.18345787328, -1196.9582673261484, -52884.16032602314, -80913.8513700785, -80972.77056846269, -52585.42926137797, -72622.78468880472, -84606.18074013958, -70799.75405928542, 0.17400000000000002, 0.936, 0.356, 192.0, 0.0, 0.0, 0.0, 0.0, 0.0, 0.0, 0.0, 0.0, 0.0, 1.695407122348669E9, 0.0, 2023-09-22 13:25:22.348
176.0, 684.1868977769492, 945.2999765038463, -81469.1357575817, -83115.40879194842, -30116.941644780833, -25101.00902330983, -187500.02235174447, -60677.14073385486, -1201.42861621721, -52878.19241025358, -80912.13028575544, -80969.77543470568, -52578.8578485081, -72615.34155790109, -84601.82214997079, -70790.70160278102, 0.17400000000000002, 0.936, 0.356, 192.0, 0.0, 0.0, 0.0, 0.0, 0.0, 0.0, 0.0, 0.0, 0.0, 1.695407122348672E9, 0.0, 2023-09-22 13:25:22.348
178.0, 732.6007762671443, 951.6031684402429, -81472.82379541681, -83119.47680943928, -30122.015490772188, -25100.40552620954, -187500.02235174447, -60684.49445778066, -1195.393645214277, -52877.834782342296, -80916.8018003466, -80972.05531264012, -52583.19408693243, -72612.43583112191, -84604.81728372781, -70789.60636730271, 0.182, 0.934, 0.358, 192.0, 2.5, 88.0, 14.5, 24.0, 5.5, 24.0, 0.0, 0.0, 0.0, 1.695407122348676E9, 0.0, 2023-09-22 13:25:22.348
180.0, 683.8292698656643, 940.0696683013044, -81471.77326342741, -83119.16388501691, -30114.30413893511, -25088.804970837235, -187500.02235174447, -60670.30110005154, -1214.9290698682155, -52878.4829829315, -80920.1992655038, -80973.84345219654, -52584.73635729985, -72609.82067702063, -84599.25169935843, -70782.78908524384, 0.182, 0.934, 0.358, 192.0, 0.0, 0.0, 0.0, 0.0, 0.0, 0.0, 0.0, 0.0, 0.0, 1.695407122348679E9, 0.0, 2023-09-22 13:25:22.348
182.0, 738.5686920367112, 947.5575026938324, -81477.11533035223, -83124.99769031974, -30120.361461682496, -25106.462848956926, -187500.02235174447, -60699.24660912116, -1200.2216220166233, -52884.98734056799, -80923.70848938328, -80979.20787086581, -52583.708177054905, -72617.77789804673, -84606.62777502868, -70790.92512022557, 0.182, 0.934, 0.358, 192.0, 0.0, 0.0, 0.0, 0.0, 0.0, 0.0, 0.0, 0.0, 0.0, 1.695407122348682E9, 0.0, 2023-09-22 13:25:22.348
184.0, 694.4687002263904, 934.3699734652012, -81472.30970529433, -83121.77903911818, -30109.90084527741, -25091.196607493952, -187500.02235174447, -60662.29917553654, -1215.7113809241512, -52889.770613881425, -80927.82121036306, -80983.23118486776, -52580.847153764626, -72619.49898236978, -84607.43243782908, -70795.35076562772, 0.182, 0.934, 0.358, 192.0, 0.0, 0.0, 0.0, 0.0, 0.0, 0.0, 0.0, 0.0, 0.0, 1.695407122348685E9, 0.0, 2023-09-22 13:25:22.348
186.0, 736.9370146914739, 952.921921363106, -81472.28735354988, -83115.5652541596, -30109.67732783286, -25097.075116285698, -187500.02235174447, -60675.30789080953, -1202.0321133175032, -52879.287645731885, -80923.41791670537, -80977.10680688701, -52575.10275543961, -72611.51940959923, -84603.40912382712, -70790.70160278102, 0.182, 0.934, 0.358, 192.0, 0.0, 0.0, 0.0, 0.0, 0.0, 0.0, 0.0, 0.0, 0.0, 1.695407122410095E9, 0.0, 2023-09-22 13:25:22.410
188.0, 672.1616592599939, 942.438953213567, -81476.19890882957, -83111.58664364656, -30114.72882207976, -25090.52605516029, -187500.02235174447, -60657.33708826746, -1210.2575552770563, -52872.67152937312, -80919.01462304767, -80969.57426900558, -52579.4613456084, -72607.51844734173, -84598.73760923596, -70782.18558814355, 0.176, 0.93, 0.356, 192.0, 2.5, 64.0, 14.5, 8.0, 5.5, 16.0, 0.0, 0.0, 0.0, 1.695407122410107E9, 0.0, 2023-09-22 13:25:22.410
190.0, 720.1732063499935, 966.6458924586645, -81475.86363266273, -83112.07838202459, -30122.417822172385, -25106.462848956926, -187500.02235174447, -60683.91331242482, -1191.0574067899474, -52866.54715139236, -80912.3985066889, -80963.29342881363, -52573.49342983883, -72608.34546188658, -84603.07384766029, -70787.48295157946, 0.176, 0.93, 0.356, 192.0, 0.0, 0.0, 0.0, 0.0, 0.0, 0.0, 0.0, 0.0, 0.0, 1.69540712241011E9, 0.0, 2023-09-22 13:25:22.410
192.0, 681.1917640199381, 947.5127992049217, -81479.79753968687, -83118.58273966107, -30119.57915062656, -25106.261683256827, -187500.02235174447, -60682.16987635731, -1196.8688603483272, -52869.83285782729, -80912.26439622216, -80964.54512650313, -52580.13189794206, -72615.09568871208, -84605.24196687246, -70793.09323943773, 0.176, 0.93, 0.356, 192.0, 0.0, 0.0, 0.0, 0.0, 0.0, 0.0, 0.0, 0.0, 0.0, 1.695407122410114E9, 0.0, 2023-09-22 13:25:22.410
194.0, 737.1828838804822, 971.4068140276449, -81472.15324308316, -83111.363126202, -30114.840580802036, -25102.48423844388, -187500.02235174447, -60684.606216502936, -1193.4490434466652, -52873.29737821787, -80912.8008380891, -80967.83083293807, -52577.44968860742, -72613.91104625596, -84602.02331567089, -70792.06505919278, 0.176, 0.93, 0.356, 192.0, 0.0, 0.0, 0.0, 0.0, 0.0, 0.0, 0.0, 0.0, 0.0, 1.695407122410117E9, 0.0, 2023-09-22 13:25:22.410
196.0, 683.1810692764603, 948.7197934055083, -81472.24265006097, -83111.38547794646, -30108.872665032468, -25091.95656680543, -187500.02235174447, -60674.033841375574, -1201.4956714505759, -52865.116639747226, -80912.10793401099, -80964.92510615887, -52579.14842118602, -72604.1880374179, -84594.6695917451, -70784.13018991116, 0.176, 0.93, 0.356, 192.0, 0.0, 0.0, 0.0, 0.0, 0.0, 0.0, 0.0, 0.0, 0.0, 1.69540712241012E9, 0.0, 2023-09-22 13:25:22.410
198.0, 740.0662589152168, 960.0744795888043, -81478.12115885272, -83116.34756521555, -30115.086449991042, -25097.365688963615, -187500.02235174447, -60684.29329208056, -1204.6472674187742, -52867.73179384849, -80925.16135277288, -80972.90467892942, -52583.998749732826, -72608.12194444203, -84599.83284471427, -70784.711335267, 0.17200000000000001, 0.934, 0.352, 192.0, 2.5, 48.0, 14.5, 24.0, 5.5, 0.0, 0.0, 0.0, 0.0, 1.695407122410123E9, 0.0, 2023-09-22 13:25:22.410
200.0, 703.5658602197004, 933.5206071758995, -81476.53418499639, -83118.49333268325, -30112.44894414532, -25091.8224563387, -187500.02235174447, -60677.14073385486, -1219.1759013147237, -52876.627788141705, -80932.44802146532, -80980.07958889956, -52588.78202304626, -72612.63699682201, -84603.58793778277, -70786.16419865658, 0.17200000000000001, 0.934, 0.352, 192.0, 0.0, 0.0, 0.0, 0.0, 0.0, 0.0, 0.0, 0.0, 0.0, 1.695407122469115E9, 0.0, 2023-09-22 13:25:22.469
202.0, 727.0798953866835, 953.3019010188463, -81460.06094933284, -83105.73048659928, -30093.785237525135, -25084.15580799053, -187500.02235174447, -60669.02705061759, -1204.8260813744166, -52876.784250352895, -80932.49272495422, -80983.40999882341, -52580.33306364215, -72609.21717992034, -84600.41399007011, -70782.8114369883, 0.17200000000000001, 0.934, 0.352, 192.0, 0.0, 0.0, 0.0, 0.0, 0.0, 0.0, 0.0, 0.0, 0.0, 1.695407122469129E9, 0.0, 2023-09-22 13:25:22.469
204.0, 696.4356537384574, 931.3301362192793, -81469.1804610706, -83123.18719901887, -30105.117571963976, -25100.047898298253, -187500.02235174447, -60674.324414053495, -1206.748331397573, -52871.106907261244, -80925.49662893971, -80977.12915863146, -52576.577970573664, -72603.89746473997, -84589.88631843166, -70779.34691659771, 0.17200000000000001, 0.934, 0.352, 192.0, 0.0, 0.0, 0.0, 0.0, 0.0, 0.0, 0.0, 0.0, 0.0, 1.695407122469133E9, 0.0, 2023-09-22 13:25:22.469
206.0, 732.4443140559572, 946.66343291562, -81464.10661507925, -83124.03656530817, -30104.715240563783, -25110.44145946997, -187500.02235174447, -60689.7247659832, -1213.0738750784249, -52889.480041203504, -80938.66180642389, -80996.77634200768, -52587.08329046766, -72624.8410492946, -84606.78423723987, -70802.2574546644, 0.17200000000000001, 0.934, 0.352, 192.0, 0.0, 0.0, 0.0, 0.0, 0.0, 0.0, 0.0, 0.0, 0.0, 1.695407122469136E9, 0.0, 2023-09-22 13:25:22.469
208.0, 680.0071215638068, 933.8782350871844, -81454.65182717465, -83119.27564373918, -30094.56754858107, -25105.322909989707, -187500.02235174447, -60691.55760902853, -1206.4130552307433, -52872.1797909951, -80921.13803877092, -80982.7617982342, -52568.17371465847, -72609.79832527618, -84593.23908009996, -70795.84250400573, 0.17400000000000002, 0.9400000000000001, 0.354, 192.0, 2.5, 56.0, 14.5, 48.0, 5.5, 8.0, 0.0, 0.0, 0.0, 1.695407122469139E9, 0.0, 2023-09-22 13:25:22.469
210.0, 689.4619094684017, 950.3514707507456, -81455.54589695286, -83118.20276000533, -30098.38969688293, -25097.946834319453, -187500.02235174447, -60672.513922752616, -1191.8397178458831, -52875.75607010795, -80919.9533963148, -80989.95905994881, -52567.88314198055, -72616.12386895703, -84599.60932726972, -70797.07184995078, 0.17400000000000002, 0.9400000000000001, 0.354, 192.0, 0.0, 0.0, 0.0, 0.0, 0.0, 0.0, 0.0, 0.0, 0.0, 1.695407122469142E9, 0.0, 2023-09-22 13:25:22.469
212.0, 684.2986564992257, 940.114371790215, -81456.68583592009, -83125.64589090896, -30099.127304449954, -25105.009985567332, -187500.02235174447, -60680.31468156751, -1186.2294299876012, -52867.821200826314, -80912.35380319999, -80983.1194261455, -52564.485676823344, -72613.66517706694, -84598.2682226024, -70788.15350391311, 0.17400000000000002, 0.9400000000000001, 0.354, 192.0, 0.0, 0.0, 0.0, 0.0, 0.0, 0.0, 0.0, 0.0, 0.0, 1.695407122469145E9, 0.0, 2023-09-22 13:25:22.469
214.0, 687.1149763005944, 946.3058050043351, -81453.2213155295, -83129.84801886654, -30105.25168243071, -25109.234465269383, -187500.02235174447, -60691.6246642619, -1190.073930033914, -52882.37218646672, -80916.8465038355, -80994.5188158177, -52575.28156939526, -72627.50090688479, -84608.34885935174, -70796.58011157277, 0.17400000000000002, 0.9400000000000001, 0.354, 192.0, 0.0, 0.0, 0.0, 0.0, 0.0, 0.0, 0.0, 0.0, 0.0, 1.695407122469149E9, 0.0, 2023-09-22 13:25:22.469
216.0, 694.513403715301, 946.9987090824496, -81454.62947543019, -83133.51370495722, -30104.022336485665, -25107.982767579888, -187500.02235174447, -60695.49151605267, -1188.1516800107574, -52865.518971147416, -80907.32466069754, -80984.68404825736, -52565.960891957395, -72619.09665096959, -84602.22448137098, -70786.99121320143, 0.17400000000000002, 0.9400000000000001, 0.354, 192.0, 0.0, 0.0, 0.0, 0.0, 0.0, 0.0, 0.0, 0.0, 0.0, 1.695407122528434E9, 0.0, 2023-09-22 13:25:22.528
218.0, 717.0439621262506, 947.8927788606619, -81461.80438540035, -83141.73914691676, -30113.47712439026, -25106.082869301186, -187500.02235174447, -60679.64412923386, -1199.1487382827686, -52875.64431138567, -80924.33433822803, -81005.02413571169, -52582.05414796522, -72626.85270629558, -84615.43436234408, -70789.02522194687, 0.178, 0.9400000000000001, 0.354, 192.0, 2.5, 72.0, 14.5, 48.0, 5.5, 8.0, 0.0, 0.0, 0.0, 1.695407122528445E9, 0.0, 2023-09-22 13:25:22.528
220.0, 714.4735115138902, 947.1104678047261, -81447.90160034914, -83130.16094328892, -30104.022336485665, -25100.740802376367, -187500.02235174447, -60684.606216502936, -1200.7133603946402, -52868.84938107126, -80919.79693410361, -81004.80061826714, -52569.02308094777, -72618.60491259157, -84612.12630416469, -70783.10200966621, 0.178, 0.9400000000000001, 0.354, 192.0, 0.0, 0.0, 0.0, 0.0, 0.0, 0.0, 0.0, 0.0, 0.0, 1.695407122528449E9, 0.0, 2023-09-22 13:25:22.528
222.0, 681.8176128646867, 943.7130026475195, -81453.06485331833, -83138.56519920412, -30114.773525568668, -25097.09746803015, -187500.02235174447, -60681.81224844602, -1196.041845803481, -52862.12150599021, -80913.67255612285, -81002.40898161042, -52565.71502276838, -72610.46887760983, -84601.77744648188, -70768.5063205369, 0.178, 0.9400000000000001, 0.354, 192.0, 0.0, 0.0, 0.0, 0.0, 0.0, 0.0, 0.0, 0.0, 0.0, 1.695407122528452E9, 0.0, 2023-09-22 13:25:22.528
224.0, 732.0643344002169, 945.9928805819608, -81451.85785911774, -83138.16286780393, -30117.835714559045, -25099.10912503113, -187500.02235174447, -60679.93470191178, -1202.300334250967, -52874.9290555631, -80925.13900102842, -81018.01049924022, -52581.31654039819, -72623.72346207184, -84614.89792047715, -70774.36247758419, 0.178, 0.9400000000000001, 0.354, 192.0, 0.0, 0.0, 0.0, 0.0, 0.0, 0.0, 0.0, 0.0, 0.0, 1.695407122528456E9, 0.0, 2023-09-22 13:25:22.528
226.0, 687.9196391009855, 936.6722031440978, -81444.72765263649, -83129.91507409992, -30110.72785982226, -25089.207302237428, -187500.02235174447, -60673.609158230924, -1210.682238421707, -52876.65013988616, -80922.16621901587, -81019.1727899519, -52575.527438584264, -72619.25311318078, -84611.58986229777, -70767.76871296988, 0.178, 0.9400000000000001, 0.354, 192.0, 0.0, 0.0, 0.0, 0.0, 0.0, 0.0, 0.0, 0.0, 0.0, 1.695407122528459E9, 0.0, 2023-09-22 13:25:22.528
228.0, 714.4958632583456, 945.3670317372122, -81443.27478924689, -83126.60701592053, -30107.509208620693, -25094.750534862345, -187500.02235174447, -60690.5741322725, -1194.2537062470565, -52869.18465723809, -80917.62881489145, -81014.83655152757, -52572.86758099408, -72613.46401136686, -84610.94166170855, -70766.58407051374, 0.17400000000000002, 0.932, 0.358, 192.0, 2.5, 56.0, 14.5, 16.0, 5.5, 24.0, 0.0, 0.0, 0.0, 1.695407122528462E9, 0.0, 2023-09-22 13:25:22.528
230.0, 661.2093044768935, 933.118275775704, -81442.49247819096, -83127.76930663221, -30108.29151967663, -25090.816627838212, -187500.02235174447, -60678.25832107763, -1209.6987616656736, -52872.35860495074, -80920.31102422607, -81019.84334228556, -52568.41958384748, -72612.74875554428, -84613.40035359864, -70768.08163739224, 0.17400000000000002, 0.932, 0.358, 192.0, 0.0, 0.0, 0.0, 0.0, 0.0, 0.0, 0.0, 0.0, 0.0, 1.695407122589352E9, 0.0, 2023-09-22 13:25:22.589
232.0, 722.0731046286946, 944.763534636919, -81445.80053637034, -83135.45830672483, -30110.280824933154, -25099.73497387588, -187500.02235174447, -60688.56247527152, -1199.2604970050452, -52877.92418932011, -80922.36738471597, -81026.1241824775, -52571.81704900468, -72619.07429922513, -84619.94941472405, -70776.03885841834, 0.17400000000000002, 0.932, 0.358, 192.0, 0.0, 0.0, 0.0, 0.0, 0.0, 0.0, 0.0, 0.0, 0.0, 1.695407122589371E9, 0.0, 2023-09-22 13:25:22.589
234.0, 641.6515280784998, 934.5264356763882, -81435.74225136546, -83123.18719901887, -30095.863949759478, -25085.96629929141, -187500.02235174447, -60673.45269601974, -1203.4849767070982, -52870.50341016095, -80913.0020037892, -81016.44587712835, -52565.08917392364, -72611.83233402162, -84609.57820529678, -70770.98736417144, 0.17400000000000002, 0.932, 0.358, 192.0, 0.0, 0.0, 0.0, 0.0, 0.0, 0.0, 0.0, 0.0, 0.0, 1.695407122589377E9, 0.0, 2023-09-22 13:25:22.589
236.0, 713.0877033576612, 946.7751916378966, -81455.25532427494, -83136.26296952523, -30115.86876104698, -25110.26264551433, -187500.02235174447, -60702.86759172292, -1191.8844213347938, -52877.119526519724, -80917.53940791362, -81020.13391496347, -52575.035700206245, -72620.61656959254, -84613.89209197665, -70779.30221310881, 0.17400000000000002, 0.932, 0.358, 192.0, 0.0, 0.0, 0.0, 0.0, 0.0, 0.0, 0.0, 0.0, 0.0, 1.695407122589383E9, 0.0, 2023-09-22 13:25:22.589
238.0, 676.2520284953151, 928.5138164179107, -81459.65861793264, -83138.56519920412, -30113.320662179074, -25106.798125123754, -187500.02235174447, -60695.24564686366, -1208.5588226984528, -52882.21572425553, -80924.53550392813, -81019.26219692972, -52586.52449685628, -72624.46106963886, -84614.9649757105, -70783.0573061773, 0.176, 0.93, 0.356, 192.0, 2.5, 64.0, 14.5, 8.0, 5.5, 16.0, 0.0, 0.0, 0.0, 1.695407122589407E9, 0.0, 2023-09-22 13:25:22.589
240.0, 728.5104070318231, 947.5575026938324, -81452.1707835401, -83127.18816127637, -30105.34108940853, -25104.339433233672, -187500.02235174447, -60695.24564686366, -1198.5005376935646, -52885.07674754581, -80923.82024810556, -81017.63051958449, -52583.39525263253, -72627.43385165141, -84614.29442337685, -70784.80074224481, 0.176, 0.93, 0.356, 192.0, 0.0, 0.0, 0.0, 0.0, 0.0, 0.0, 0.0, 0.0, 0.0, 1.695407122589413E9, 0.0, 2023-09-22 13:25:22.589
242.0, 662.5280573997567, 932.6041856532319, -81449.4215189721, -83123.79069611916, -30107.688022576338, -25095.845770340657, -187500.02235174447, -60675.26318732062, -1204.5802121854083, -52869.855209571746, -80916.62298639095, -81004.10771418903, -52576.868543251585, -72616.97323524633, -84600.03401041437, -70771.85908220519, 0.176, 0.93, 0.356, 192.0, 0.0, 0.0, 0.0, 0.0, 0.0, 0.0, 0.0, 0.0, 0.0, 1.695407122589419E9, 0.0, 2023-09-22 13:25:22.589
244.0, 703.3423427751474, 956.9005318761507, -81442.0230915574, -83115.09586752605, -30109.90084527741, -25093.945872061955, -187500.02235174447, -60677.744230955155, -1183.0554822749475, -52865.586026380784, -80910.14098049891, -80997.93863271936, -52565.98324370185, -72609.32893864262, -84593.90963243361, -70761.82314894476, 0.176, 0.93, 0.356, 192.0, 0.0, 0.0, 0.0, 0.0, 0.0, 0.0, 0.0, 0.0, 0.0, 1.695407122589425E9, 0.0, 2023-09-22 13:25:22.589
246.0, 660.8516765656086, 934.9064153321285, -81450.56145793933, -83125.40002171994, -30119.53444713765, -25104.451191955948, -187500.02235174447, -60693.546914285056, -1193.8960783357713, -52870.39165143867, -80915.90773056839, -81003.66067929992, -52577.24852290732, -72612.14525844398, -84597.84353945775, -70770.96501242698, 0.176, 0.93, 0.356, 192.0, 0.0, 0.0, 0.0, 0.0, 0.0, 0.0, 0.0, 0.0, 0.0, 1.695407122648972E9, 0.0, 2023-09-22 13:25:22.648
248.0, 684.3657117325916, 959.9627208665278, -81432.70241411954, -83112.10073376904, -30110.14671446642, -25101.88074134359, -187500.02235174447, -60696.25147536415, -1188.263438733034, -52866.65891011464, -80915.68421312382, -80999.81617925361, -52577.04735720722, -72611.00531947677, -84600.97278368149, -70776.37413458516, 0.17200000000000001, 0.934, 0.358, 192.0, 2.5, 48.0, 14.5, 24.0, 5.5, 24.0, 0.0, 0.0, 0.0, 1.695407122648981E9, 0.0, 2023-09-22 13:25:22.648
250.0, 636.7564960427876, 942.9753950804943, -81430.467239674, -83114.29120472565, -30104.737592308236, -25098.48327618638, -187500.02235174447, -60691.311739839526, -1186.8552788323498, -52863.283796701886, -80909.13515199843, -80992.12717916098, -52575.86271475109, -72606.60202581907, -84591.89797543264, -70773.37900082815, 0.17200000000000001, 0.934, 0.358, 192.0, 0.0, 0.0, 0.0, 0.0, 0.0, 0.0, 0.0, 0.0, 0.0, 1.695407122648987E9, 0.0, 2023-09-22 13:25:22.648
252.0, 690.937124602452, 954.9112266196283, -81439.63145490068, -83126.15998103142, -30108.939720265833, -25109.25681701384, -187500.02235174447, -60703.38168184539, -1187.5034794215537, -52871.1292590057, -80916.28771022412, -81003.43716185537, -52582.14355494304, -72616.23562767931, -84601.82214997079, -70786.83475099025, 0.17200000000000001, 0.934, 0.358, 192.0, 0.0, 0.0, 0.0, 0.0, 0.0, 0.0, 0.0, 0.0, 0.0, 1.695407122648993E9, 0.0, 2023-09-22 13:25:22.648
254.0, 647.9547200148965, 937.856845600229, -81434.04351878686, -83120.72850712878, -30100.513112606182, -25097.410392452526, -187500.02235174447, -60691.84818170645, -1189.5151364225312, -52863.619072868714, -80906.2964804526, -80991.99306869425, -52575.14745892852, -72607.02670896372, -84594.04374290035, -70777.4023148301, 0.17200000000000001, 0.934, 0.358, 192.0, 0.0, 0.0, 0.0, 0.0, 0.0, 0.0, 0.0, 0.0, 0.0, 1.695407122648999E9, 0.0, 2023-09-22 13:25:22.648
0.0, 684.3657117325916, 950.4855812174775, -81440.70433863453, -83124.28243449717, -30109.252644688208, -25099.980843064888, -187500.02235174447, -60702.19703938926, -1191.683255634696, -52882.52864867791, -80917.0029660467, -81005.85115025654, -52579.19312467494, -72621.2424184373, -84606.04662967284, -70787.61706204618, 0.17200000000000001, 0.934, 0.358, 192.0, 0.0, 0.0, 0.0, 0.0, 0.0, 0.0, 0.0, 0.0, 0.0, 1.695407122649004E9, 0.0, 2023-09-22 13:25:22.649
2.0, 696.7485781608318, 934.5934909097542, -81457.33403650929, -83136.06180382513, -30119.15446748191, -25108.988596080377, -187500.02235174447, -60706.80149874705, -1191.4373864456877, -52879.39940445416, -80917.0029660467, -81000.53143507618, -52584.82576427767, -72618.44845038038, -84606.67247851759, -70783.79491374432, 0.17200000000000001, 0.932, 0.366, 192.0, 2.5, 48.0, 14.5, 16.0, 5.5, 56.0, 0.0, 0.0, 0.0, 1.695407122649011E9, 0.0, 2023-09-22 13:25:22.649
4.0, 718.1615493490159, 946.7751916378966, -81449.6226846722, -83123.05308855213, -30107.44215338733, -25101.523113432304, -187500.02235174447, -60704.43221383479, -1196.9582673261484, -52892.81045112735, -80925.09429753952, -81009.13685669148, -52592.76063355931, -72625.19867720589, -84615.85904548873, -70791.79683825932, 0.17200000000000001, 0.932, 0.366, 192.0, 0.0, 0.0, 0.0, 0.0, 0.0, 0.0, 0.0, 0.0, 0.0, 1.695407122649017E9, 0.0, 2023-09-22 13:25:22.649
6.0, 695.2286595378708, 944.3164997478128, -81437.48568743297, -83107.63038487798, -30095.61808057047, -25091.174255749494, -187500.02235174447, -60691.60231251745, -1188.9786945556039, -52870.615168883225, -80908.37519268694, -80984.46053081281, -52575.86271475109, -72606.42321186342, -84593.30613533332, -70772.03789616084, 0.17200000000000001, 0.932, 0.366, 192.0, 0.0, 0.0, 0.0, 0.0, 0.0, 0.0, 0.0, 0.0, 0.0, 1.695407122709834E9, 0.0, 2023-09-22 13:25:22.709
8.0, 704.9963718648401, 947.2892817603686, -81444.37002472521, -83114.9170535704, -30103.485894618738, -25096.29280522976, -187500.02235174447, -60697.324359098006, -1187.5258311660089, -52877.45480268655, -80908.93398629833, -80989.4673215708, -52576.66737755149, -72609.97713923182, -84591.3168300768, -70768.3498583257, 0.17200000000000001, 0.932, 0.366, 192.0, 0.0, 0.0, 0.0, 0.0, 0.0, 0.0, 0.0, 0.0, 0.0, 1.695407122709842E9, 0.0, 2023-09-22 13:25:22.709
10.0, 694.9604386044072, 951.536113206877, -81420.25249245793, -83097.6615068509, -30080.62006004096, -25084.49108415736, -187500.02235174447, -60674.07854486448, -1178.3839676837883, -52868.13412524869, -80903.48016065123, -80982.82885346757, -52570.94533097093, -72602.66811879494, -84586.13122536316, -70760.50439602189, 0.17200000000000001, 0.932, 0.366, 192.0, 0.0, 0.0, 0.0, 0.0, 0.0, 0.0, 0.0, 0.0, 0.0, 1.695407122709845E9, 0.0, 2023-09-22 13:25:22.709
12.0, 675.290903483737, 953.6818806745864, -81421.2136174695, -83101.17073073039, -30081.156501907888, -25086.34627894715, -187500.02235174447, -60676.64899547685, -1172.7736798255062, -52861.31684318982, -80896.30525068108, -80977.2632690982, -52551.87929295055, -72595.29204312469, -84575.15651883562, -70753.73181745193, 0.17200000000000001, 0.932, 0.36, 192.0, 2.5, 48.0, 14.5, 16.0, 5.5, 32.0, 0.0, 0.0, 0.0, 1.695407122709849E9, 0.0, 2023-09-22 13:25:22.709
14.0, 689.8642408685972, 954.8441713862624, -81416.49739938944, -83100.23195746327, -30082.43055134184, -25090.7719243493, -187500.02235174447, -60688.07073689351, -1170.9184850357158, -52854.76778206442, -80895.58999485851, -80972.94938241833, -52558.98714768734, -72594.37562160201, -84580.18566133805, -70763.36541931218, 0.17200000000000001, 0.932, 0.36, 192.0, 0.0, 0.0, 0.0, 0.0, 0.0, 0.0, 0.0, 0.0, 0.0, 1.695407122709852E9, 0.0, 2023-09-22 13:25:22.709
16.0, 667.8477725801197, 943.8247613697961, -81428.67910011759, -83112.50306516924, -30096.33333639304, -25091.97891854989, -187500.02235174447, -60687.19901885975, -1177.2216769721124, -52862.0768025013, -80899.30038443809, -80979.43138831036, -52562.09404016662, -72597.81779024814, -84585.72889396298, -70771.63556476064, 0.17200000000000001, 0.932, 0.36, 192.0, 0.0, 0.0, 0.0, 0.0, 0.0, 0.0, 0.0, 0.0, 0.0, 1.695407122709855E9, 0.0, 2023-09-22 13:25:22.709
18.0, 695.0498455822284, 958.8004301548517, -81428.9696727955, -83102.9588702868, -30094.14286543642, -25085.429857424482, -187500.02235174447, -60685.7238037257, -1171.5666856249197, -52863.484962401984, -80898.51807338215, -80978.5596702766, -52563.368089600575, -72599.56122631565, -84591.0709608878, -70775.36830608468, 0.17200000000000001, 0.932, 0.36, 192.0, 0.0, 0.0, 0.0, 0.0, 0.0, 0.0, 0.0, 0.0, 0.0, 1.695407122709858E9, 0.0, 2023-09-22 13:25:22.709
20.0, 664.2044382339046, 935.8451885992514, -81454.98710334148, -83127.05405080963, -30114.952339524312, -25100.696098887456, -187500.02235174447, -60697.57022828701, -1184.4636421756318, -52873.833820084794, -80906.20707347478, -80990.42844658237, -52573.11345018309, -72605.19386591838, -84601.15159763713, -70782.56556779928, 0.17200000000000001, 0.932, 0.36, 192.0, 0.0, 0.0, 0.0, 0.0, 0.0, 0.0, 0.0, 0.0, 0.0, 1.695407122770096E9, 0.0, 2023-09-22 13:25:22.770
22.0, 711.6795434569768, 944.3164997478128, -81450.74027189497, -83121.08613504007, -30108.269167932176, -25093.498837172847, -187500.02235174447, -60697.14554514236, -1182.876668319305, -52880.628750399206, -80916.22065499076, -81000.75495252073, -52585.40690963351, -72609.97713923182, -84606.87364421769, -70785.89597772312, 0.17400000000000002, 0.936, 0.364, 192.0, 2.5, 56.0, 14.5, 32.0, 5.5, 48.0, 0.0, 0.0, 0.0, 1.695407122770127E9, 0.0, 2023-09-22 13:25:22.770
24.0, 676.9672843178851, 928.7820373513744, -81448.52744919389, -83122.38253621847, -30106.86100803149, -25087.910901059022, -187500.02235174447, -60687.22137060421, -1190.230392245101, -52882.41688995563, -80914.52192241215, -81003.370106622, -52574.141630428036, -72618.02376723573, -84600.88337670367, -70780.59861428721, 0.17400000000000002, 0.936, 0.364, 192.0, 0.0, 0.0, 0.0, 0.0, 0.0, 0.0, 0.0, 0.0, 0.0, 1.695407122770131E9, 0.0, 2023-09-22 13:25:22.770
26.0, 710.7184184453987, 953.9724533525055, -81433.19415249756, -83104.47878890978, -30098.143827693923, -25082.658241112025, -187500.02235174447, -60691.021167161605, -1175.2770752045008, -52872.55977065084, -80902.36257342847, -80993.53533906167, -52570.78886875974, -72603.80805776216, -84590.19924285404, -70768.37221007016, 0.17400000000000002, 0.936, 0.364, 192.0, 0.0, 0.0, 0.0, 0.0, 0.0, 0.0, 0.0, 0.0, 0.0, 1.695407122770134E9, 0.0, 2023-09-22 13:25:22.770
28.0, 651.3074816831925, 937.4321624555782, -81439.09501303376, -83114.62648089249, -30101.071906217567, -25091.15190400504, -187500.02235174447, -60696.29617885306, -1182.7425578525733, -52865.07193625831, -80901.42380016134, -80988.43914132586, -52567.59256930263, -72600.00826120476, -84587.62879224167, -70763.18660535653, 0.17400000000000002, 0.936, 0.364, 192.0, 0.0, 0.0, 0.0, 0.0, 0.0, 0.0, 0.0, 0.0, 0.0, 1.695407122770137E9, 0.0, 2023-09-22 13:25:22.770
30.0, 716.6192789815998, 956.4758487314998, -81437.35157696625, -83116.124047771, -30100.401353883906, -25097.365688963615, -187500.02235174447, -60696.96673118672, -1175.3217786934113, -52877.76772710893, -80910.67742236584, -81004.6665078004, -52573.06874669418, -72615.22979917882, -84600.41399007011, -70774.92127119556, 0.17400000000000002, 0.936, 0.364, 192.0, 0.0, 0.0, 0.0, 0.0, 0.0, 0.0, 0.0, 0.0, 0.0, 1.69540712277014E9, 0.0, 2023-09-22 13:25:22.770
32.0, 661.7680980882762, 932.6488891421425, -81434.93758856507, -83119.7226786283, -30099.127304449954, -25097.611558152625, -187500.02235174447, -60692.8763619514, -1175.075909504403, -52871.531590405895, -80902.47433215074, -80999.68206878687, -52568.84426699213, -72608.70308979787, -84588.29934457534, -70764.3041925793, 0.176, 0.9400000000000001, 0.358, 192.0, 2.5, 64.0, 14.5, 48.0, 5.5, 24.0, 0.0, 0.0, 0.0, 1.695407122770143E9, 0.0, 2023-09-22 13:25:22.770
34.0, 714.0488283692395, 954.598302197254, -81423.44879191504, -83109.12795175648, -30097.58503408254, -25097.63390989708, -187500.02235174447, -60702.04057717807, -1168.2139239566236, -52875.51020091894, -80902.07200075054, -81002.61014731052, -52568.888970481035, -72611.54176134369, -84593.3731905667, -70769.3556868262, 0.176, 0.9400000000000001, 0.358, 192.0, 0.0, 0.0, 0.0, 0.0, 0.0, 0.0, 0.0, 0.0, 0.0, 1.695407122770147E9, 0.0, 2023-09-22 13:25:22.770
36.0, 648.7146793263769, 939.1755985230922, -81418.28553894587, -83109.35146920104, -30093.360554380484, -25089.58728189317, -187500.02235174447, -60686.50611478164, -1173.2430664590677, -52860.86980830071, -80892.10312272348, -80987.94740294784, -52559.322423854166, -72596.99077570329, -84583.69488521754, -70755.96699189747, 0.176, 0.9400000000000001, 0.358, 192.0, 0.0, 0.0, 0.0, 0.0, 0.0, 0.0, 0.0, 0.0, 0.0, 1.695407122829009E9, 0.0, 2023-09-22 13:25:22.829
38.0, 723.8835959295745, 956.0735173313043, -81430.64605362965, -83122.09196354056, -30102.301252162608, -25104.048860555755, -187500.02235174447, -60707.40499584735, -1169.4209181572103, -52882.34983472226, -80907.32466069754, -81008.19808342434, -52573.26991239428, -72612.72640379982, -84603.40912382712, -70781.58209104325, 0.176, 0.9400000000000001, 0.358, 192.0, 0.0, 0.0, 0.0, 0.0, 0.0, 0.0, 0.0, 0.0, 0.0, 1.695407122829019E9, 0.0, 2023-09-22 13:25:22.829
40.0, 671.4464034374241, 943.1765607805921, -81434.06587053131, -83117.1745797604, -30098.38969688293, -25092.470656927904, -187500.02235174447, -60697.592580031465, -1174.8523920598498, -52861.808581567835, -80896.1934919588, -80990.11552216, -52567.078479180156, -72596.25316813626, -84591.60740275471, -70775.3012508513, 0.176, 0.9400000000000001, 0.358, 192.0, 0.0, 0.0, 0.0, 0.0, 0.0, 0.0, 0.0, 0.0, 0.0, 1.695407122829022E9, 0.0, 2023-09-22 13:25:22.829
42.0, 719.5920609941555, 958.6886714325752, -81444.39237646967, -83119.7673821172, -30104.916406263877, -25098.34916571965, -187500.02235174447, -60712.54589707207, -1170.8067263134392, -52871.7774595949, -80904.4412856628, -80997.44689434134, -52573.33696762764, -72605.70795604086, -84599.98930692546, -70784.711335267, 0.176, 0.936, 0.36, 192.0, 2.5, 64.0, 14.5, 32.0, 5.5, 32.0, 0.0, 0.0, 0.0, 1.695407122829026E9, 0.0, 2023-09-22 13:25:22.829
44.0, 673.5251156717677, 939.8014473678408, -81447.49926894894, -83113.91122506991, -30104.849351030512, -25085.876892313587, -187500.02235174447, -60701.302969611046, -1177.847525816861, -52866.97183453701, -80906.45294266379, -80991.97071694979, -52574.700424039416, -72600.94703447187, -84599.3187545918, -70779.43632357554, 0.176, 0.936, 0.36, 192.0, 0.0, 0.0, 0.0, 0.0, 0.0, 0.0, 0.0, 0.0, 0.0, 1.695407122829029E9, 0.0, 2023-09-22 13:25:22.829
46.0, 717.4909970153567, 952.7878108963741, -81453.28837076288, -83121.15319027343, -30113.0077377567, -25094.035279039777, -187500.02235174447, -60715.74219652918, -1175.9476275381598, -52877.94654106457, -80915.19247474581, -81002.61014731052, -52583.2611421658, -72609.64186306499, -84608.28180411838, -70779.34691659771, 0.176, 0.936, 0.36, 192.0, 0.0, 0.0, 0.0, 0.0, 0.0, 0.0, 0.0, 0.0, 0.0, 1.695407122829033E9, 0.0, 2023-09-22 13:25:22.829
48.0, 683.4269384654688, 938.7062118895307, -81446.91812359312, -83114.4700186813, -30102.72593530726, -25093.610595895123, -187500.02235174447, -60708.05319643655, -1186.5423544099754, -52874.482020674, -80914.16429450086, -80996.39636235194, -52573.985168216845, -72611.58646483261, -84605.04080117236, -70779.41397183109, 0.176, 0.936, 0.36, 192.0, 0.0, 0.0, 0.0, 0.0, 0.0, 0.0, 0.0, 0.0, 0.0, 1.695407122829036E9, 0.0, 2023-09-22 13:25:22.829
50.0, 722.6542499845326, 944.2717962589022, -81452.41665272912, -83121.71198388482, -30110.59374935553, -25101.03137505429, -187500.02235174447, -60703.71695801222, -1185.1788979982016, -52879.75703236545, -80922.21092250478, -81001.00082170973, -52581.204781675915, -72614.53689510071, -84608.34885935174, -70779.95041369801, 0.176, 0.936, 0.36, 192.0, 0.0, 0.0, 0.0, 0.0, 0.0, 0.0, 0.0, 0.0, 0.0, 1.695407122890683E9, 0.0, 2023-09-22 13:25:22.890
52.0, 705.7563311763205, 928.2232437399917, -81444.81705961432, -83124.08126879708, -30103.172970196363, -25105.278206500796, -187500.02235174447, -60707.941437714275, -1182.2061159856457, -52880.51699167693, -80915.81832359056, -80995.99403095174, -52573.06874669418, -72613.32990090012, -84599.09523714725, -70782.0067741879, 0.176, 0.936, 0.356, 192.0, 2.5, 64.0, 14.5, 32.0, 5.5, 16.0, 0.0, 0.0, 0.0, 1.695407122890695E9, 0.0, 2023-09-22 13:25:22.890
54.0, 710.6737149564881, 930.6819356300755, -81442.80540261333, -83126.22703626478, -30099.306118405595, -25104.92057858951, -187500.02235174447, -60715.429272106805, -1184.173069497713, -52895.00092208397, -80922.23327424923, -81008.44395261335, -52583.12703169907, -72625.95863651736, -84602.09037090426, -70787.92998646856, 0.176, 0.936, 0.356, 192.0, 0.0, 0.0, 0.0, 0.0, 0.0, 0.0, 0.0, 0.0, 0.0, 1.695407122890699E9, 0.0, 2023-09-22 13:25:22.890
56.0, 706.0469038542395, 930.7713426078967, -81435.60814089872, -83123.36601297451, -30096.132170692945, -25097.410392452526, -187500.02235174447, -60701.302969611046, -1172.6619211032298, -52883.37801496721, -80908.68811710931, -80999.3691443645, -52573.04639494973, -72613.73223230032, -84584.94658290704, -70776.84352121872, 0.176, 0.936, 0.356, 192.0, 0.0, 0.0, 0.0, 0.0, 0.0, 0.0, 0.0, 0.0, 0.0, 1.695407122890702E9, 0.0, 2023-09-22 13:25:22.890
58.0, 696.3238950161809, 939.6226334121983, -81433.52942866438, -83121.10848678452, -30091.974746224256, -25088.983784792876, -187500.02235174447, -60693.9268939408, -1170.784374568984, -52890.37411098172, -80914.2537014787, -81007.34871713504, -52567.145534413525, -72620.03542423672, -84591.9203271771, -70779.79395148682, 0.176, 0.936, 0.356, 192.0, 0.0, 0.0, 0.0, 0.0, 0.0, 0.0, 0.0, 0.0, 0.0, 1.695407122890705E9, 0.0, 2023-09-22 13:25:22.890
60.0, 697.7767584057759, 944.2047410255362, -81436.14458276566, -83123.34366123006, -30092.935871235833, -25092.0236220388, -187500.02235174447, -60705.16982140182, -1158.915598263216, -52875.39844219667, -80903.30134669559, -80995.79286525166, -52561.98228144435, -72608.45722060886, -84587.3158678193, -70779.07869566426, 0.176, 0.936, 0.356, 192.0, 0.0, 0.0, 0.0, 0.0, 0.0, 0.0, 0.0, 0.0, 0.0, 1.695407122890708E9, 0.0, 2023-09-22 13:25:22.890
62.0, 699.095511328639, 940.0473165568492, -81453.60129518525, -83136.44178348086, -30110.01260399969, -25109.167410036018, -187500.02235174447, -60723.02886522161, -1170.650264102252, -52889.077709803314, -80915.77362010165, -81008.4663043578, -52576.15328742901, -72621.66710158194, -84609.95818495253, -70798.16708542909, 0.17400000000000002, 0.934, 0.356, 192.0, 2.5, 56.0, 14.5, 24.0, 5.5, 16.0, 0.0, 0.0, 0.0, 1.695407122890712E9, 0.0, 2023-09-22 13:25:22.890
64.0, 703.4988049863344, 950.954967851039, -81432.90357981964, -83113.0171552917, -30096.087467204034, -25096.561026163225, -187500.02235174447, -60713.596429061465, -1163.9000372767493, -52872.917398562124, -80908.46459966476, -80996.57517630758, -52572.241732149334, -72611.96644448834, -84605.28667036137, -70794.61315806069, 0.17400000000000002, 0.934, 0.356, 192.0, 0.0, 0.0, 0.0, 0.0, 0.0, 0.0, 0.0, 0.0, 0.0, 1.695407122890715E9, 0.0, 2023-09-22 13:25:22.890
66.0, 674.2850749832481, 945.4340869705782, -81443.23008575798, -83117.71102162731, -30104.491723119227, -25096.49397092986, -187500.02235174447, -60699.91716145482, -1163.8106302989281, -52865.36250893623, -80901.96024202828, -80988.23797562576, -52562.96575820038, -72605.0374037072, -84597.57531852428, -70782.56556779928, 0.17400000000000002, 0.934, 0.356, 192.0, 0.0, 0.0, 0.0, 0.0, 0.0, 0.0, 0.0, 0.0, 0.0, 1.695407122949539E9, 0.0, 2023-09-22 13:25:22.949
68.0, 702.5600317192116, 954.3524330082456, -81442.98421656898, -83117.75572511622, -30104.983461497246, -25097.879779086088, -187500.02235174447, -60715.22810640671, -1159.3179296634114, -52868.60351188225, -80904.4412856628, -80990.87548147148, -52571.057089693204, -72608.72544154232, -84606.13603665067, -70788.13115216866, 0.17400000000000002, 0.934, 0.356, 192.0, 0.0, 0.0, 0.0, 0.0, 0.0, 0.0, 0.0, 0.0, 0.0, 1.695407122949549E9, 0.0, 2023-09-22 13:25:22.949
70.0, 677.839002351642, 932.0453920418493, -81463.12313832321, -83135.70417591384, -30120.517923893683, -25104.942930333964, -187500.02235174447, -60709.908391226345, -1177.5793048833973, -52879.51116317644, -80913.60550088949, -81002.1184089325, -52574.141630428036, -72615.31920615664, -84610.13699890817, -70791.64037604813, 0.17400000000000002, 0.934, 0.356, 192.0, 0.0, 0.0, 0.0, 0.0, 0.0, 0.0, 0.0, 0.0, 0.0, 1.695407122949553E9, 0.0, 2023-09-22 13:25:22.949
72.0, 731.1926163664599, 950.2397120284692, -81450.38264398368, -83122.20372226283, -30110.705508077805, -25107.178104779498, -187500.02235174447, -60716.63626630739, -1174.1594879817353, -52887.62484641372, -80924.87078009496, -81008.77922878019, -52589.13965095755, -72626.07039523964, -84623.43628685907, -70805.43140237706, 0.17400000000000002, 0.9380000000000001, 0.358, 192.0, 2.5, 56.0, 14.5, 40.0, 5.5, 24.0, 0.0, 0.0, 0.0, 1.695407122949557E9, 0.0, 2023-09-22 13:25:22.949
74.0, 674.8215168501755, 939.4438194565558, -81451.76845213992, -83119.67797513938, -30108.649147587916, -25101.03137505429, -187500.02235174447, -60696.58675153098, -1176.9534560386487, -52873.40913694014, -80912.51026541117, -80991.47897857177, -52576.801488018216, -72609.4406973649, -84605.73370525047, -70791.72978302596, 0.17400000000000002, 0.9380000000000001, 0.358, 192.0, 0.0, 0.0, 0.0, 0.0, 0.0, 0.0, 0.0, 0.0, 0.0, 1.69540712294956E9, 0.0, 2023-09-22 13:25:22.949
76.0, 727.3928198090578, 955.0676888308154, -81446.89577184866, -83119.45445769482, -30105.29638591962, -25104.406488467037, -187500.02235174447, -60702.06292892253, -1166.425784400199, -52872.51506716193, -80907.77169558665, -80988.14856864793, -52574.32044438368, -72607.56315083065, -84601.86685345971, -70789.53931206933, 0.17400000000000002, 0.9380000000000001, 0.358, 192.0, 0.0, 0.0, 0.0, 0.0, 0.0, 0.0, 0.0, 0.0, 0.0, 1.695407122949563E9, 0.0, 2023-09-22 13:25:22.949
78.0, 656.7613073302874, 940.0920200457598, -81441.86662934622, -83114.80529484812, -30096.266281159675, -25092.314194716717, -187500.02235174447, -60690.23885610567, -1176.238200216079, -52873.476192173504, -80906.58705313053, -80986.69570525835, -52566.07265067967, -72610.37947063202, -84595.47425454548, -70788.75700101341, 0.17400000000000002, 0.9380000000000001, 0.358, 192.0, 0.0, 0.0, 0.0, 0.0, 0.0, 0.0, 0.0, 0.0, 0.0, 1.695407122949567E9, 0.0, 2023-09-22 13:25:22.949
80.0, 703.4317497529686, 962.9131511346283, -81448.50509744944, -83117.48750418276, -30105.497551619716, -25100.360822720628, -187500.02235174447, -60710.62364704891, -1160.1225924638024, -52870.346947949765, -80902.25081470619, -80984.48288255726, -52565.91618846848, -72607.07141245263, -84594.73664697846, -70788.55583531331, 0.17400000000000002, 0.9380000000000001, 0.358, 192.0, 0.0, 0.0, 0.0, 0.0, 0.0, 0.0, 0.0, 0.0, 0.0, 1.695407123009789E9, 0.0, 2023-09-22 13:25:23.009
82.0, 644.7807723022428, 940.5837584237765, -81451.61198992873, -83115.45349543732, -30107.509208620693, -25096.762191863323, -187500.02235174447, -60705.9297807133, -1174.0924327483694, -52869.497581660464, -80906.9446810418, -80983.9687924348, -52572.532304827255, -72607.138467686, -84599.67638250308, -70791.55096907032, 0.176, 0.932, 0.36, 192.0, 2.5, 64.0, 14.5, 16.0, 5.5, 32.0, 0.0, 0.0, 0.0, 1.695407123009801E9, 0.0, 2023-09-22 13:25:23.009
84.0, 683.2704762542816, 962.3096540343349, -81445.35350148124, -83106.53514939966, -30102.234196929243, -25091.263662727317, -187500.02235174447, -60705.46039407974, -1161.8213250424058, -52867.57533163731, -80906.76586708616, -80981.39834182244, -52567.4584588359, -72600.9917379608, -84596.90476619062, -70787.6617655351, 0.176, 0.932, 0.36, 192.0, 0.0, 0.0, 0.0, 0.0, 0.0, 0.0, 0.0, 0.0, 0.0, 1.695407123009805E9, 0.0, 2023-09-22 13:25:23.009
86.0, 643.9537577573965, 936.1357612771704, -81460.70914992204, -83120.08030653957, -30114.594711613026, -25097.54450291926, -187500.02235174447, -60707.27088538062, -1176.0146827715257, -52867.24005547048, -80909.82805607654, -80983.1641296344, -52574.767479272785, -72596.8343134921, -84597.95529818002, -70784.64428003362, 0.176, 0.932, 0.36, 192.0, 0.0, 0.0, 0.0, 0.0, 0.0, 0.0, 0.0, 0.0, 0.0, 1.695407123009808E9, 0.0, 2023-09-22 13:25:23.009
88.0, 696.5027089718234, 962.7343371789858, -81452.59546668475, -83107.7197918558, -30109.029127243655, -25095.286976729272, -187500.02235174447, -60709.975446459706, -1168.1245169788024, -52872.53741890639, -80917.02531779115, -80989.55672854862, -52574.767479272785, -72605.28327289621, -84609.39939134114, -70791.41685860358, 0.176, 0.932, 0.36, 192.0, 0.0, 0.0, 0.0, 0.0, 0.0, 0.0, 0.0, 0.0, 0.0, 1.695407123009811E9, 0.0, 2023-09-22 13:25:23.009
90.0, 656.7836590747427, 940.762572379419, -81456.86464987573, -83110.13378025696, -30108.447981887817, -25094.571720906704, -187500.02235174447, -60709.483708081694, -1177.333435694389, -52872.783288095394, -80917.15942825787, -80987.79094073665, -52575.84036300664, -72604.81388626265, -84606.78423723987, -70788.26526263538, 0.176, 0.932, 0.36, 192.0, 0.0, 0.0, 0.0, 0.0, 0.0, 0.0, 0.0, 0.0, 0.0, 1.695407123009814E9, 0.0, 2023-09-22 13:25:23.009
92.0, 702.4259212524797, 954.374784752701, -81465.71594068002, -83117.55455941612, -30115.73465058025, -25099.936139575977, -187500.02235174447, -60714.669312795326, -1167.4539646451433, -52874.34791020727, -80919.21578874777, -80989.19910063733, -52579.08136595266, -72603.96451997335, -84607.83476922927, -70785.62775678966, 0.17400000000000002, 0.932, 0.352, 192.0, 2.5, 56.0, 14.5, 16.0, 5.5, 0.0, 0.0, 0.0, 0.0, 1.695407123009817E9, 0.0, 2023-09-22 13:25:23.009
94.0, 695.5639357047005, 932.7159443755085, -81472.19794657207, -83125.33296648657, -30114.52765637966, -25102.372479721605, -187500.02235174447, -60711.1824406603, -1181.2449909740676, -52881.70163413306, -80926.54716092911, -80996.91045247442, -52581.8082787762, -72616.39208989049, -84615.970804211, -70798.36825112918, 0.17400000000000002, 0.932, 0.352, 192.0, 0.0, 0.0, 0.0, 0.0, 0.0, 0.0, 0.0, 0.0, 0.0, 1.695407123009821E9, 0.0, 2023-09-22 13:25:23.009
96.0, 712.8194824241975, 952.9442731075613, -81462.98902785649, -83111.40782969091, -30106.548083609116, -25089.408467937526, -187500.02235174447, -60699.693644010265, -1176.394662427266, -52874.66083462964, -80920.78041085965, -80990.47315007128, -52582.27766540977, -72608.85955200906, -84606.20309188403, -70789.76282951389, 0.17400000000000002, 0.932, 0.352, 192.0, 0.0, 0.0, 0.0, 0.0, 0.0, 0.0, 0.0, 0.0, 0.0, 1.695407123071318E9, 0.0, 2023-09-22 13:25:23.071
98.0, 677.9284093294632, 942.8412846137625, -81458.20575454304, -83108.367992445, -30104.29055741913, -25087.039183025263, -187500.02235174447, -60703.78401324559, -1168.3033309344448, -52868.69291886007, -80913.13611425592, -80984.03584766816, -52575.34862462862, -72602.4893048393, -84598.78231272487, -70783.83961723323, 0.17400000000000002, 0.932, 0.352, 192.0, 0.0, 0.0, 0.0, 0.0, 0.0, 0.0, 0.0, 0.0, 0.0, 1.695407123071328E9, 0.0, 2023-09-22 13:25:23.071
100.0, 684.4551187104129, 957.3475667652568, -81456.976408598, -83107.40686743341, -30105.139923708433, -25085.318098702206, -187500.02235174447, -60705.639208035376, -1160.882551775283, -52874.392613696175, -80912.53261715564, -80986.7180570028, -52571.10179318211, -72605.75265952977, -84595.20603361202, -70778.6093090307, 0.17400000000000002, 0.932, 0.352, 192.0, 0.0, 0.0, 0.0, 0.0, 0.0, 0.0, 0.0, 0.0, 0.0, 1.695407123071331E9, 0.0, 2023-09-22 13:25:23.071
102.0, 687.6961216564324, 945.0317555703826, -81455.94822835305, -83106.24457672174, -30102.636528329436, -25082.792351578755, -187500.02235174447, -60702.64407427837, -1169.264455946023, -52879.82408759881, -80918.0534980361, -80990.0708186711, -52580.780098531264, -72607.29492989718, -84596.63654525716, -70780.88918696514, 0.17200000000000001, 0.934, 0.352, 192.0, 2.5, 48.0, 14.5, 24.0, 5.5, 0.0, 0.0, 0.0, 0.0, 1.695407123071334E9, 0.0, 2023-09-22 13:25:23.071
104.0, 669.8817813255527, 950.373822495201, -81454.00362658544, -83107.20570173333, -30100.893092261922, -25079.037258510263, -187500.02235174447, -60700.52065855511, -1169.0632902459254, -52878.103003275755, -80913.71725961176, -80987.88034771447, -52566.27381637977, -72604.76918277373, -84584.87952767366, -70776.37413458516, 0.17200000000000001, 0.934, 0.352, 192.0, 0.0, 0.0, 0.0, 0.0, 0.0, 0.0, 0.0, 0.0, 0.0, 1.695407123071337E9, 0.0, 2023-09-22 13:25:23.071
106.0, 697.1062060721167, 943.534188691877, -81462.89962087866, -83116.07934428207, -30110.660804588893, -25090.794276093755, -187500.02235174447, -60709.43900459278, -1170.3149879354226, -52884.406195212156, -80918.56758815856, -80994.89879547343, -52571.70529028241, -72607.42904036392, -84589.93102192057, -70782.92319571057, 0.17200000000000001, 0.934, 0.352, 192.0, 0.0, 0.0, 0.0, 0.0, 0.0, 0.0, 0.0, 0.0, 0.0, 1.695407123071341E9, 0.0, 2023-09-22 13:25:23.071
108.0, 668.5630284026895, 949.2562352724357, -81459.479803977, -83111.20666399082, -30105.788124297636, -25086.480389413882, -187500.02235174447, -60706.53327781359, -1172.2595897030342, -52882.863924844736, -80917.47235268026, -80994.71998151779, -52576.77913627376, -72615.45331662337, -84593.95433592252, -70786.96886145697, 0.17200000000000001, 0.934, 0.352, 192.0, 0.0, 0.0, 0.0, 0.0, 0.0, 0.0, 0.0, 0.0, 0.0, 1.695407123071344E9, 0.0, 2023-09-22 13:25:23.071
110.0, 698.1343863170608, 945.4564387150334, -81470.07453084881, -83119.40975420592, -30113.946511023823, -25101.187837265476, -187500.02235174447, -60725.24168792268, -1166.8504675448498, -52879.622921898714, -80916.37711720195, -80992.99889719473, -52575.57214207317, -72615.90035151248, -84600.10106564773, -70791.64037604813, 0.17200000000000001, 0.934, 0.352, 192.0, 0.0, 0.0, 0.0, 0.0, 0.0, 0.0, 0.0, 0.0, 0.0, 1.695407123129363E9, 0.0, 2023-09-22 13:25:23.129
112.0, 658.6612056089886, 945.6799561595865, -81459.2786382769, -83112.90539656942, -30098.747324794214, -25092.425953438993, -187500.02235174447, -60703.94047545677, -1172.9971972700594, -52880.87461958821, -80915.23717823472, -80990.5178535602, -52575.41567986199, -72618.51550561374, -84597.66472550211, -70790.79100975883, 0.17400000000000002, 0.9380000000000001, 0.356, 192.0, 2.5, 56.0, 14.5, 40.0, 5.5, 16.0, 0.0, 0.0, 0.0, 1.695407123129375E9, 0.0, 2023-09-22 13:25:23.129
114.0, 690.0430548242397, 948.7868486388742, -81461.67027493361, -83114.8723500815, -30101.54129285113, -25097.611558152625, -187500.02235174447, -60713.99876046166, -1155.4063743837328, -52876.13604976369, -80909.4927799097, -80986.9192227029, -52562.474019822366, -72611.63116832152, -84595.67542024558, -70787.6617655351, 0.17400000000000002, 0.9380000000000001, 0.356, 192.0, 0.0, 0.0, 0.0, 0.0, 0.0, 0.0, 0.0, 0.0, 0.0, 1.695407123129379E9, 0.0, 2023-09-22 13:25:23.129
116.0, 645.6524903359998, 937.8344938557738, -81468.2863912924, -83118.04629779415, -30104.938758008335, -25098.237406997374, -187500.02235174447, -60716.43510060729, -1172.6395693587745, -52881.679282388606, -80916.17595150185, -80992.37304834998, -52572.97933971636, -72612.48053461082, -84602.15742613762, -70790.96982371448, 0.17400000000000002, 0.9380000000000001, 0.356, 192.0, 0.0, 0.0, 0.0, 0.0, 0.0, 0.0, 0.0, 0.0, 0.0, 1.695407123129382E9, 0.0, 2023-09-22 13:25:23.129
118.0, 691.7864908917536, 953.4807149744887, -81464.7771674129, -83111.5195884132, -30102.547121351618, -25093.76705810631, -187500.02235174447, -60715.60808606244, -1162.693043076163, -52881.14284052168, -80913.47139042275, -80989.89200471545, -52574.07457519467, -72612.52523809973, -84602.24683311544, -70789.85223649172, 0.17400000000000002, 0.9380000000000001, 0.356, 192.0, 0.0, 0.0, 0.0, 0.0, 0.0, 0.0, 0.0, 0.0, 0.0, 1.695407123129385E9, 0.0, 2023-09-22 13:25:23.129
120.0, 645.6748420804552, 941.0084415684273, -81461.6255714447, -83110.62551863499, -30101.89892076241, -25085.519264402305, -187500.02235174447, -60709.01432144813, -1167.431612900688, -52880.3828812102, -80908.53165489814, -80986.5168913027, -52569.20189490341, -72611.72057529933, -84596.3683243237, -70783.75021025541, 0.17400000000000002, 0.9380000000000001, 0.356, 192.0, 0.0, 0.0, 0.0, 0.0, 0.0, 0.0, 0.0, 0.0, 0.0, 1.695407123129388E9, 0.0, 2023-09-22 13:25:23.129
122.0, 698.7602351618094, 958.1298778211925, -81456.7752428979, -83106.80337033313, -30100.222539928265, -25084.96047079092, -187500.02235174447, -60710.22131564872, -1155.7640022950177, -52878.103003275755, -80902.7425530842, -80980.77249297769, -52567.97254895837, -72608.94895898688, -84589.39458005365, -70780.24098637592, 0.176, 0.936, 0.356, 192.0, 2.5, 64.0, 14.5, 32.0, 5.5, 16.0, 0.0, 0.0, 0.0, 1.695407123129391E9, 0.0, 2023-09-22 13:25:23.129
124.0, 647.0606502366842, 939.6226334121983, -81460.9773708555, -83107.54097790015, -30097.741496293726, -25082.702944600936, -187500.02235174447, -60704.8792487239, -1165.777583810995, -52876.87365733072, -80906.11766649695, -80979.47609179928, -52575.28156939526, -72607.11611594155, -84587.78525445286, -70780.7103730095, 0.176, 0.936, 0.356, 192.0, 0.0, 0.0, 0.0, 0.0, 0.0, 0.0, 0.0, 0.0, 0.0, 1.695407123129394E9, 0.0, 2023-09-22 13:25:23.129
126.0, 697.7544066613206, 963.0919650902707, -81452.88603936268, -83095.67220159438, -30092.801760769104, -25076.82443580919, -187500.02235174447, -60704.92395221281, -1151.427763870688, -52871.01750028342, -80903.61427111796, -80976.07862664206, -52568.59839780312, -72602.98104321731, -84584.4101410401, -70779.88335846465, 0.176, 0.936, 0.356, 192.0, 0.0, 0.0, 0.0, 0.0, 0.0, 0.0, 0.0, 0.0, 0.0, 1.695407123189184E9, 0.0, 2023-09-22 13:25:23.189
128.0, 646.5465601142121, 947.2892817603686, -81459.36804525471, -83099.5614051296, -30096.713316048783, -25076.73502883137, -187500.02235174447, -60700.051271921555, -1160.4355168861769, -52868.245883970965, -80903.12253273994, -80973.12819637397, -52569.805392003705, -72597.59427280359, -84580.72210320499, -70774.4071810731, 0.176, 0.936, 0.356, 192.0, 0.0, 0.0, 0.0, 0.0, 0.0, 0.0, 0.0, 0.0, 0.0, 1.695407123189194E9, 0.0, 2023-09-22 13:25:23.189
130.0, 690.1995170354268, 964.9024563911506, -81458.51867896541, -83101.72952434178, -30097.897958504913, -25084.647546368546, -187500.02235174447, -60720.8830977539, -1145.303385889934, -52865.40721242514, -80901.31204143907, -80970.80361495062, -52570.58770305964, -72598.17541815942, -84583.40431253963, -70778.2069776305, 0.176, 0.936, 0.356, 192.0, 0.0, 0.0, 0.0, 0.0, 0.0, 0.0, 0.0, 0.0, 0.0, 1.695407123189197E9, 0.0, 2023-09-22 13:25:23.189
132.0, 638.4328768769357, 937.3651072222123, -81466.52060348041, -83115.20762624832, -30101.0048509842, -25095.48814242937, -187500.02235174447, -60726.22516467872, -1157.4180313847103, -52871.64334912817, -80906.11766649695, -80973.01643765169, -52570.38653735955, -72608.21135141986, -84587.38292305266, -70786.16419865658, 0.168, 0.936, 0.356, 192.0, 2.5, 32.0, 14.5, 32.0, 5.5, 16.0, 0.0, 0.0, 0.0, 1.695407123189201E9, 0.0, 2023-09-22 13:25:23.189
134.0, 690.0207030797843, 956.7217179205082, -81465.64888544666, -83116.19110300436, -30103.53059810765, -25104.004157066844, -187500.02235174447, -60734.160033960354, -1149.974900481093, -52882.66275914464, -80910.61036713248, -80980.77249297769, -52576.376804873566, -72621.17536320393, -84599.65403075863, -70800.37990813017, 0.168, 0.936, 0.356, 192.0, 0.0, 0.0, 0.0, 0.0, 0.0, 0.0, 0.0, 0.0, 0.0, 1.695407123189204E9, 0.0, 2023-09-22 13:25:23.189
136.0, 630.2297866618379, 935.8228368547962, -81460.19505979956, -83108.34564070054, -30097.137999193434, -25091.889511572066, -187500.02235174447, -60712.16591741633, -1156.523961606498, -52876.985416052994, -80904.66480310736, -80973.19525160734, -52567.994900702826, -72615.83329627912, -84593.32848707777, -70792.19916965952, 0.168, 0.936, 0.356, 192.0, 0.0, 0.0, 0.0, 0.0, 0.0, 0.0, 0.0, 0.0, 0.0, 1.695407123189207E9, 0.0, 2023-09-22 13:25:23.189
138.0, 658.4823916533461, 954.5759504527987, -81463.97250461251, -83104.79171333215, -30100.557816095094, -25091.129552260587, -187500.02235174447, -60720.34665588697, -1149.170237680702, -52879.220590498524, -80904.35187868499, -80974.53635627465, -52564.418621589975, -72608.56897933113, -84593.6190597557, -70789.09227718023, 0.168, 0.936, 0.356, 192.0, 0.0, 0.0, 0.0, 0.0, 0.0, 0.0, 0.0, 0.0, 0.0, 1.69540712318921E9, 0.0, 2023-09-22 13:25:23.189
140.0, 626.7652662712653, 935.0628775433156, -81473.76256868393, -83113.4194866919, -30113.208903456798, -25094.594072651158, -187500.02235174447, -60731.88015602591, -1160.5472756084532, -52873.54324740687, -80906.4976461527, -80970.91537367289, -52572.48760133834, -72604.25509265126, -84598.44703655805, -70789.29344288033, 0.168, 0.936, 0.356, 192.0, 0.0, 0.0, 0.0, 0.0, 0.0, 0.0, 0.0, 0.0, 0.0, 1.695407123250948E9, 0.0, 2023-09-22 13:25:23.250
142.0, 683.1363657875497, 950.2173602840138, -81478.16586234163, -83118.85096059453, -30117.478086647763, -25103.49006694437, -187500.02235174447, -60733.51183337114, -1162.1342494647802, -52888.742433636486, -80917.22648349125, -80984.08055115707, -52579.863677008594, -72617.01793873524, -84611.67926927558, -70800.3128528968, 0.17400000000000002, 0.9380000000000001, 0.358, 192.0, 2.5, 56.0, 14.5, 40.0, 5.5, 24.0, 0.0, 0.0, 0.0, 1.695407123250962E9, 0.0, 2023-09-22 13:25:23.250
144.0, 651.8886270390304, 944.115334047715, -81465.5818302133, -83108.07741976708, -30104.134095207944, -25093.230616239383, -187500.02235174447, -60720.43606286479, -1163.4082988987327, -52876.985416052994, -80909.73864909871, -80970.98242890625, -52579.371938630575, -72610.24536016528, -84601.86685345971, -70795.75309702792, 0.17400000000000002, 0.9380000000000001, 0.358, 192.0, 0.0, 0.0, 0.0, 0.0, 0.0, 0.0, 0.0, 0.0, 0.0, 1.695407123250966E9, 0.0, 2023-09-22 13:25:23.250
146.0, 663.8021068337091, 958.5098574769328, -81465.6265337022, -83115.98993730426, -30103.19532194082, -25098.952662819942, -187500.02235174447, -60729.15324320236, -1154.3781941387886, -52874.75024160746, -80903.97189902925, -80971.34005681754, -52567.68197628045, -72608.77014503123, -84596.61419351271, -70793.69673653803, 0.17400000000000002, 0.9380000000000001, 0.358, 192.0, 0.0, 0.0, 0.0, 0.0, 0.0, 0.0, 0.0, 0.0, 0.0, 1.69540712325097E9, 0.0, 2023-09-22 13:25:23.250
148.0, 666.3949091905248, 940.3155374903129, -81480.51279550944, -83128.46221071032, -30111.62192960047, -25108.698023402456, -187500.02235174447, -60732.0366182371, -1165.1517349662465, -52880.24877074346, -80910.2974427101, -80978.93964993235, -52575.54979032872, -72610.69239505439, -84600.03401041437, -70800.67048080808, 0.17400000000000002, 0.9380000000000001, 0.358, 192.0, 0.0, 0.0, 0.0, 0.0, 0.0, 0.0, 0.0, 0.0, 0.0, 1.695407123250973E9, 0.0, 2023-09-22 13:25:23.250
150.0, 674.5085924278012, 948.2727585164022, -81478.00940013044, -83118.80625710562, -30104.20115044131, -25101.120782032107, -187500.02235174447, -60729.48851936919, -1180.0603485179363, -52891.1340702932, -80924.13317252793, -80989.0202866817, -52582.88116251006, -72618.58256084712, -84604.54906279434, -70803.77737328738, 0.17400000000000002, 0.9380000000000001, 0.358, 192.0, 0.0, 0.0, 0.0, 0.0, 0.0, 0.0, 0.0, 0.0, 0.0, 1.695407123250976E9, 0.0, 2023-09-22 13:25:23.250
152.0, 694.0216653372843, 939.2650055009134, -81485.8325106898, -83122.85192285203, -30112.24777844522, -25099.310290731228, -187500.02235174447, -60726.26986816763, -1175.3217786934113, -52884.383843467695, -80917.91938756936, -80980.95130693332, -52581.98709273185, -72612.01114797726, -84597.39650456865, -70794.74726852743, 0.182, 0.932, 0.356, 192.0, 2.5, 88.0, 14.5, 16.0, 5.5, 16.0, 0.0, 0.0, 0.0, 1.695407123250979E9, 0.0, 2023-09-22 13:25:23.250
154.0, 680.901191342019, 946.0599358153268, -81477.91999315262, -83115.90053032644, -30106.458676631293, -25088.514398159314, -187500.02235174447, -60710.28837088208, -1175.9029240492493, -52888.40715746965, -80922.45679169378, -80987.25449886972, -52586.47979336736, -72618.24728468028, -84601.75509473743, -70795.01548946089, 0.182, 0.932, 0.356, 192.0, 0.0, 0.0, 0.0, 0.0, 0.0, 0.0, 0.0, 0.0, 0.0, 1.695407123250982E9, 0.0, 2023-09-22 13:25:23.250
156.0, 693.0828920701614, 945.7023079040418, -81484.93844091159, -83122.44959145183, -30115.399374413417, -25098.237406997374, -187500.02235174447, -60730.49434786968, -1157.5968453403527, -52879.95819806555, -80909.80570433209, -80976.99504816474, -52580.55658108671, -72612.65934856646, -84596.07775164577, -70790.27691963637, 0.182, 0.932, 0.356, 192.0, 0.0, 0.0, 0.0, 0.0, 0.0, 0.0, 0.0, 0.0, 0.0, 1.695407123309888E9, 0.0, 2023-09-22 13:25:23.309
158.0, 689.5289647017676, 938.0803630447821, -81493.45445554906, -83128.10458279903, -30125.748232096226, -25105.367613478615, -187500.02235174447, -60738.83154855151, -1172.5501623809532, -52896.29732326238, -80924.93783532832, -80992.73067626127, -52589.54198235774, -72630.6972063419, -84616.68606003358, -70809.54412335684, 0.182, 0.932, 0.356, 192.0, 0.0, 0.0, 0.0, 0.0, 0.0, 0.0, 0.0, 0.0, 0.0, 1.695407123309898E9, 0.0, 2023-09-22 13:25:23.309
160.0, 697.0615025832061, 948.1609997941256, -81473.65080996166, -83107.69744011134, -30104.223502185763, -25088.514398159314, -187500.02235174447, -60725.86753676743, -1158.13328720728, -52881.16519226613, -80915.63950963492, -80982.38181857846, -52583.93169449946, -72613.15108694448, -84610.98636519747, -70800.84929476373, 0.182, 0.932, 0.356, 192.0, 0.0, 0.0, 0.0, 0.0, 0.0, 0.0, 0.0, 0.0, 0.0, 1.695407123309902E9, 0.0, 2023-09-22 13:25:23.309
162.0, 671.289941226237, 944.0035753254385, -81483.48557752199, -83115.14057101496, -30113.67829009036, -25095.24227324036, -187500.02235174447, -60723.56530708854, -1154.4899528610651, -52877.72302362002, -80910.2974427101, -80977.57619352058, -52575.23686590634, -72608.43486886441, -84604.41495232761, -70792.69090803753, 0.178, 0.934, 0.35000000000000003, 192.0, 2.5, 72.0, 14.5, 24.0, 5.0, 120.0, 0.0, 0.0, 0.0, 1.695407123309905E9, 0.0, 2023-09-22 13:25:23.309
164.0, 705.8010346652311, 952.3631277517234, -81478.90346990866, -83106.95983254431, -30107.03982198713, -25092.425953438993, -187500.02235174447, -60728.415635635334, -1151.5171708485093, -52876.22545674151, -80913.67255612285, -80975.2069086083, -52581.048319464724, -72608.77014503123, -84604.86198721672, -70791.77448651487, 0.178, 0.934, 0.35000000000000003, 192.0, 0.0, 0.0, 0.0, 0.0, 0.0, 0.0, 0.0, 0.0, 0.0, 1.695407123309908E9, 0.0, 2023-09-22 13:25:23.309
166.0, 680.1859355194492, 932.6488891421425, -81490.86165319225, -83122.36018447402, -30116.047575002623, -25097.320985474707, -187500.02235174447, -60727.87919376841, -1168.4374414011768, -52885.52378243492, -80924.98253881723, -80983.94644069034, -52591.15130795853, -72617.30851141317, -84609.55585355233, -70796.49070459494, 0.178, 0.934, 0.35000000000000003, 192.0, 0.0, 0.0, 0.0, 0.0, 0.0, 0.0, 0.0, 0.0, 0.0, 1.695407123309911E9, 0.0, 2023-09-22 13:25:23.309
168.0, 723.5930232516555, 945.1882177815697, -81477.60706873024, -83111.69840236884, -30108.67149933237, -25093.230616239383, -187500.02235174447, -60723.72176929972, -1162.4248221426992, -52884.13797427869, -80923.99906206121, -80985.04167616865, -52584.26697066629, -72621.71180507085, -84607.54419655135, -70796.1107249392, 0.178, 0.934, 0.35000000000000003, 192.0, 0.0, 0.0, 0.0, 0.0, 0.0, 0.0, 0.0, 0.0, 0.0, 1.695407123309915E9, 0.0, 2023-09-22 13:25:23.309
170.0, 690.579496691167, 926.5021594169331, -81485.36312405624, -83121.37670771798, -30113.834752301547, -25096.829247096688, -187500.02235174447, -60724.12410069992, -1170.784374568984, -52885.25556150146, -80924.91548358387, -80986.4721878138, -52587.12799395657, -72619.05194748068, -84604.14673139414, -70791.14863767012, 0.178, 0.934, 0.35000000000000003, 192.0, 0.0, 0.0, 0.0, 0.0, 0.0, 0.0, 0.0, 0.0, 0.0, 1.695407123370086E9, 0.0, 2023-09-22 13:25:23.370
172.0, 744.737773506376, 947.7363166494748, -81475.32719079581, -83109.37382094549, -30104.067039974576, -25096.851598841145, -187500.02235174447, -60729.10853971345, -1156.1886854396685, -52889.90472434816, -80926.81538186257, -80990.47315007128, -52590.145479458035, -72619.40957539197, -84606.04662967284, -70795.14959992762, 0.18, 0.9480000000000001, 0.358, 192.0, 2.5, 80.0, 14.5, 80.0, 5.5, 24.0, 0.0, 0.0, 0.0, 1.695407123370102E9, 0.0, 2023-09-22 13:25:23.370
174.0, 690.870069369086, 927.5303396618772, -81477.40590303016, -83116.21345474881, -30098.166179438376, -25097.924482575, -187500.02235174447, -60737.5351473731, -1167.2751506895008, -52886.619017913225, -80925.54133242862, -80990.78607449366, -52587.776194545775, -72617.75554630227, -84599.13994063616, -70793.58497781574, 0.18, 0.9480000000000001, 0.358, 192.0, 0.0, 0.0, 0.0, 0.0, 0.0, 0.0, 0.0, 0.0, 0.0, 1.695407123370106E9, 0.0, 2023-09-22 13:25:23.370
176.0, 726.252880841837, 955.5370754643769, -81453.24366727397, -83097.70621033982, -30083.23521414223, -25082.881758556578, -187500.02235174447, -60719.45258610876, -1150.2878249034673, -52879.42175619862, -80917.2488352357, -80983.85703371251, -52578.76844153029, -72613.32990090012, -84590.0204288984, -70789.20403590251, 0.18, 0.9480000000000001, 0.358, 192.0, 0.0, 0.0, 0.0, 0.0, 0.0, 0.0, 0.0, 0.0, 0.0, 1.69540712337011E9, 0.0, 2023-09-22 13:25:23.370
178.0, 672.4298801934576, 932.1124472752151, -81458.18340279859, -83113.68770762536, -30096.266281159675, -25091.084848771676, -187500.02235174447, -60724.079397211004, -1152.5006476045428, -52874.41496544063, -80907.3917159309, -80976.97269642029, -52574.87923799506, -72610.96061598786, -84585.77359745189, -70783.81726548877, 0.18, 0.9480000000000001, 0.358, 192.0, 0.0, 0.0, 0.0, 0.0, 0.0, 0.0, 0.0, 0.0, 0.0, 1.695407123370113E9, 0.0, 2023-09-22 13:25:23.370
180.0, 708.2150230664042, 953.0113283409272, -81448.34863523825, -83105.618727877, -30098.344993394017, -25086.748610347346, -187500.02235174447, -60731.96956300373, -1146.4433248571545, -52875.3313869633, -80907.01173627518, -80981.57715577807, -52575.34862462862, -72618.62726433603, -84598.84936795823, -70789.33814636923, 0.18, 0.9480000000000001, 0.358, 192.0, 0.0, 0.0, 0.0, 0.0, 0.0, 0.0, 0.0, 0.0, 0.0, 1.695407123370116E9, 0.0, 2023-09-22 13:25:23.370
182.0, 661.6563393659997, 929.3631827072123, -81456.28350451989, -83117.1745797604, -30112.8065720566, -25082.05474401173, -187500.02235174447, -60725.3310949005, -1149.1925894251574, -52868.15647699314, -80902.45198040629, -80981.39834182244, -52573.091098438636, -72607.83137176411, -84598.2682226024, -70776.59765202971, 0.18, 0.9380000000000001, 0.358, 192.0, 2.5, 80.0, 14.5, 40.0, 5.5, 24.0, 0.0, 0.0, 0.0, 1.695407123370119E9, 0.0, 2023-09-22 13:25:23.370
184.0, 713.3782760355803, 956.8334766427847, -81448.25922826043, -83107.74214360025, -30108.71620282128, -25074.589261363657, -187500.02235174447, -60723.27473441062, -1144.4540196006321, -52870.95044505006, -80906.51999789715, -80992.57421405008, -52577.82966826316, -72609.93243574291, -84608.68413551858, -70770.47327404896, 0.18, 0.9380000000000001, 0.358, 192.0, 0.0, 0.0, 0.0, 0.0, 0.0, 0.0, 0.0, 0.0, 0.0, 1.695407123370122E9, 0.0, 2023-09-22 13:25:23.370
186.0, 665.5008394123125, 937.1192380332039, -81446.76166138193, -83111.65369887992, -30101.831865529046, -25070.878871784076, -187500.02235174447, -60719.96667623123, -1148.2985196469451, -52860.199255967054, -80900.88735829442, -80989.9143564599, -52571.280607137756, -72601.57288331662, -84600.81632147031, -70753.79887268531, 0.18, 0.9380000000000001, 0.358, 192.0, 0.0, 0.0, 0.0, 0.0, 0.0, 0.0, 0.0, 0.0, 0.0, 1.695407123429545E9, 0.0, 2023-09-22 13:25:23.429
188.0, 696.837985138653, 953.212494041025, -81444.45943170303, -83112.68187912487, -30102.994156240722, -25071.19179620645, -187500.02235174447, -60720.25724890915, -1138.6425660422524, -52863.86494205773, -80902.96607052875, -81000.64319379845, -52571.772345515776, -72601.70699378336, -84603.90086220513, -70754.98351514143, 0.18, 0.9380000000000001, 0.358, 192.0, 0.0, 0.0, 0.0, 0.0, 0.0, 0.0, 0.0, 0.0, 0.0, 1.69540712342956E9, 0.0, 2023-09-22 13:25:23.429
190.0, 660.2928829542259, 930.27960422988, -81442.47012644651, -83120.68380363987, -30099.306118405595, -25082.792351578755, -187500.02235174447, -60727.14158620138, -1150.8019150259395, -52870.838686327785, -80906.45294266379, -81009.40507762494, -52568.79956350322, -72604.635072307, -84604.81728372781, -70759.65502973259, 0.18, 0.9380000000000001, 0.358, 192.0, 0.0, 0.0, 0.0, 0.0, 0.0, 0.0, 0.0, 0.0, 0.0, 1.695407123429565E9, 0.0, 2023-09-22 13:25:23.429
192.0, 696.6144676941, 941.276662501891, -81442.44777470206, -83125.19885601984, -30105.028164986154, -25096.404563952037, -187500.02235174447, -60736.6857810838, -1145.0128132120149, -52876.761898608434, -80908.68811710931, -81017.2728916732, -52567.03377569125, -72611.43000262142, -84603.14090289366, -70768.43926530353, 0.178, 0.932, 0.362, 192.0, 2.5, 72.0, 14.5, 16.0, 5.5, 40.0, 0.0, 0.0, 0.0, 1.69540712342957E9, 0.0, 2023-09-22 13:25:23.429
194.0, 673.4133569494912, 928.312650717813, -81434.08822227576, -83116.5710826601, -30097.80855152709, -25096.44926744095, -187500.02235174447, -60739.815025307544, -1147.56091207992, -52872.76093635094, -80905.96120428578, -81012.60137708204, -52569.42541234796, -72613.93339800042, -84598.42468481358, -70772.3061170943, 0.178, 0.932, 0.362, 192.0, 0.0, 0.0, 0.0, 0.0, 0.0, 0.0, 0.0, 0.0, 0.0, 1.695407123429575E9, 0.0, 2023-09-22 13:25:23.429
196.0, 700.1236915735831, 945.3893834816676, -81436.61396939922, -83117.12987627147, -30106.01164174219, -25096.20339825194, -187500.02235174447, -60739.07741774052, -1137.7037927751294, -52874.37026195172, -80904.55304438509, -81013.49544686025, -52566.36322335759, -72612.1899619329, -84600.92808019258, -70774.94362294002, 0.178, 0.932, 0.362, 192.0, 0.0, 0.0, 0.0, 0.0, 0.0, 0.0, 0.0, 0.0, 0.0, 1.69540712342958E9, 0.0, 2023-09-22 13:25:23.429
198.0, 684.321008243681, 942.6401189136648, -81426.95801579452, -83105.4622656658, -30095.90865324839, -25082.591185878657, -187500.02235174447, -60730.89667926988, -1142.8893974887608, -52863.82023856881, -80898.85334954898, -81002.81131301062, -52566.27381637977, -72607.04906070817, -84595.78717896786, -70771.12147463816, 0.178, 0.932, 0.362, 192.0, 0.0, 0.0, 0.0, 0.0, 0.0, 0.0, 0.0, 0.0, 0.0, 1.695407123429586E9, 0.0, 2023-09-22 13:25:23.429
200.0, 697.4638339834016, 946.4622672155223, -81449.04153931637, -83120.1697135174, -30108.91736852138, -25079.663107355012, -187500.02235174447, -60728.8850222689, -1135.2898043739563, -52861.965043779026, -80896.55111987008, -81002.1184089325, -52566.31851986868, -72601.01408970525, -84597.217690613, -70767.32167808077, 0.178, 0.932, 0.362, 192.0, 0.0, 0.0, 0.0, 0.0, 0.0, 0.0, 0.0, 0.0, 0.0, 1.695407123489296E9, 0.0, 2023-09-22 13:25:23.489
202.0, 701.3083340297144, 938.728563633986, -81444.23591425848, -83111.00549829072, -30102.81534228508, -25070.14126421705, -187500.02235174447, -60725.152280944865, -1147.4044498687329, -52873.09621251777, -80911.5491403996, -81010.7685340367, -52582.36707238759, -72609.10542119807, -84609.98053669698, -70776.88822470764, 0.18, 0.93, 0.36, 192.0, 2.5, 80.0, 14.5, 8.0, 5.5, 32.0, 0.0, 0.0, 0.0, 1.695407123489309E9, 0.0, 2023-09-22 13:25:23.489
204.0, 679.4036244635134, 941.4554764575335, -81450.38264398368, -83115.0735157816, -30110.750211566716, -25076.667973598003, -187500.02235174447, -60721.12896694291, -1141.682403288174, -52868.75997409344, -80903.63662286242, -81003.86184500002, -52564.575083801166, -72599.11419142655, -84600.72691449248, -70763.9018611791, 0.18, 0.93, 0.36, 192.0, 0.0, 0.0, 0.0, 0.0, 0.0, 0.0, 0.0, 0.0, 0.0, 1.695407123489312E9, 0.0, 2023-09-22 13:25:23.489
206.0, 689.8865926130525, 946.6187294267094, -81445.21939101451, -83105.864597066, -30101.96597599578, -25079.372534677095, -187500.02235174447, -60722.04538846557, -1131.758228750018, -52862.70265134605, -80899.00981176017, -80994.67527802888, -52566.49733382432, -72594.2862146242, -84597.64237375766, -70759.27505007686, 0.18, 0.93, 0.36, 192.0, 0.0, 0.0, 0.0, 0.0, 0.0, 0.0, 0.0, 0.0, 0.0, 1.695407123489316E9, 0.0, 2023-09-22 13:25:23.489
208.0, 659.9576067873963, 946.1269910486926, -81445.97935032599, -83107.3621639445, -30100.33429865054, -25084.20051147944, -187500.02235174447, -60723.98999023319, -1134.6639555292077, -52865.78719208088, -80901.75907632818, -80996.66458328541, -52565.69267102393, -72599.9859094603, -84597.32944933527, -70765.17591061305, 0.18, 0.93, 0.36, 192.0, 0.0, 0.0, 0.0, 0.0, 0.0, 0.0, 0.0, 0.0, 0.0, 1.695407123489319E9, 0.0, 2023-09-22 13:25:23.489
210.0, 702.5600317192116, 950.7314504064859, -81449.08624280528, -83109.4632279233, -30105.452848130808, -25092.247139483352, -187500.02235174447, -60730.9860862477, -1130.8418072273503, -52859.998090266956, -80903.30134669559, -80995.79286525166, -52569.33600537015, -72595.15793265795, -84595.89893769014, -70765.93586992453, 0.18, 0.93, 0.36, 192.0, 0.0, 0.0, 0.0, 0.0, 0.0, 0.0, 0.0, 0.0, 0.0, 1.695407123489322E9, 0.0, 2023-09-22 13:25:23.489
212.0, 669.9488365589186, 936.1804647660811, -81453.75775739644, -83113.30772796962, -30108.559740610093, -25091.509531916327, -187500.02235174447, -60727.14158620138, -1144.3869643672663, -52864.42373566911, -80911.70560261079, -81000.79965600964, -52575.97447347337, -72597.59427280359, -84600.86102495922, -70770.38386707114, 0.178, 0.932, 0.362, 192.0, 2.5, 72.0, 14.5, 16.0, 5.5, 40.0, 0.0, 0.0, 0.0, 1.695407123489325E9, 0.0, 2023-09-22 13:25:23.489
214.0, 715.3452295476473, 943.601243925243, -81442.87245784671, -83110.89373956845, -30100.200188183808, -25092.62711913909, -187500.02235174447, -60739.79267356309, -1142.1070864328249, -52869.11760200472, -80915.81832359056, -81004.82297001159, -52570.94533097093, -72601.81875250564, -84602.67151626009, -70777.13409389665, 0.178, 0.932, 0.362, 192.0, 0.0, 0.0, 0.0, 0.0, 0.0, 0.0, 0.0, 0.0, 0.0, 1.695407123489328E9, 0.0, 2023-09-22 13:25:23.489
216.0, 656.4036794190025, 934.1464560206481, -81437.66450138862, -83112.70423086932, -30089.873682245456, -25085.58631963567, -187500.02235174447, -60737.28927818409, -1150.4219353701992, -52869.98932003848, -80911.61619563296, -81003.41481011092, -52567.68197628045, -72601.19290366089, -84594.49077778946, -70777.4023148301, 0.178, 0.932, 0.362, 192.0, 0.0, 0.0, 0.0, 0.0, 0.0, 0.0, 0.0, 0.0, 0.0, 1.695407123549661E9, 0.0, 2023-09-22 13:25:23.549
218.0, 721.290793572759, 946.730488148986, -81437.06100428832, -83113.24067273625, -30091.728877035246, -25081.607709122625, -187500.02235174447, -60731.231955436706, -1138.5308073199758, -52869.81050608284, -80911.68325086634, -81004.95708047833, -52564.88800822354, -72603.0928019396, -84593.59670801125, -70776.44118981854, 0.178, 0.932, 0.362, 192.0, 0.0, 0.0, 0.0, 0.0, 0.0, 0.0, 0.0, 0.0, 0.0, 1.695407123549671E9, 0.0, 2023-09-22 13:25:23.549
220.0, 661.2763597102595, 924.7140198605085, -81436.50221067693, -83120.12501002848, -30087.102065933, -25082.233557967375, -187500.02235174447, -60733.42242639333, -1156.0769267173919, -52876.337215463784, -80918.56758815856, -81014.16599919391, -52578.969607230385, -72612.34642414408, -84591.60740275471, -70779.43632357554, 0.178, 0.932, 0.362, 192.0, 0.0, 0.0, 0.0, 0.0, 0.0, 0.0, 0.0, 0.0, 0.0, 1.695407123549675E9, 0.0, 2023-09-22 13:25:23.549
222.0, 717.7368662043651, 944.696479403553, -81433.01533854191, -83118.2251117498, -30090.700696790303, -25084.96047079092, -187500.02235174447, -60741.51375788615, -1138.7990282534395, -52874.325558462806, -80915.81832359056, -81011.86376951501, -52573.96281647239, -72609.84302876508, -84590.33335332076, -70779.41397183109, 0.17400000000000002, 0.936, 0.362, 192.0, 2.5, 56.0, 14.5, 32.0, 5.5, 40.0, 0.0, 0.0, 0.0, 1.695407123549678E9, 0.0, 2023-09-22 13:25:23.549
224.0, 638.6116908325781, 932.4477234420448, -81419.40312616863, -83098.9132045404, -30078.72016176226, -25063.614554836102, -187500.02235174447, -60710.57894356, -1141.3471271213446, -52864.401383924655, -80905.6482798634, -80998.67624028638, -52559.97062444337, -72601.52817982771, -84584.5666032513, -70767.67930599205, 0.17400000000000002, 0.936, 0.362, 192.0, 0.0, 0.0, 0.0, 0.0, 0.0, 0.0, 0.0, 0.0, 0.0, 1.695407123549681E9, 0.0, 2023-09-22 13:25:23.549
226.0, 703.0294183527731, 953.2795492743909, -81431.98715829696, -83110.80433259062, -30098.367345138475, -25081.898281800542, -187500.02235174447, -60729.60027809147, -1120.6270600112748, -52856.39945940965, -80897.37813441493, -80988.34973434803, -52561.423487832966, -72598.5330460707, -84584.4101410401, -70759.00682914339, 0.17400000000000002, 0.936, 0.362, 192.0, 0.0, 0.0, 0.0, 0.0, 0.0, 0.0, 0.0, 0.0, 0.0, 1.695407123549685E9, 0.0, 2023-09-22 13:25:23.549
228.0, 653.6097113620891, 932.9171100756062, -81431.60717864122, -83108.34564070054, -30100.133132950443, -25076.15388347553, -187500.02235174447, -60720.07843495351, -1138.4861038310653, -52861.249787956454, -80906.36353568596, -80996.35165886303, -52570.230075148356, -72608.97131073133, -84597.8211877133, -70770.29446009333, 0.17400000000000002, 0.936, 0.362, 192.0, 0.0, 0.0, 0.0, 0.0, 0.0, 0.0, 0.0, 0.0, 0.0, 1.695407123549688E9, 0.0, 2023-09-22 13:25:23.549
230.0, 707.6562294550216, 948.406868983134, -81435.89871357665, -83110.98314654626, -30101.697755062316, -25084.20051147944, -187500.02235174447, -60738.87625204042, -1126.393810080744, -52863.82023856881, -80908.57635838704, -81001.67137404339, -52571.95115947141, -72607.85372350857, -84599.98930692546, -70771.47910254945, 0.17400000000000002, 0.936, 0.362, 192.0, 0.0, 0.0, 0.0, 0.0, 0.0, 0.0, 0.0, 0.0, 0.0, 1.695407123609777E9, 0.0, 2023-09-22 13:25:23.609
232.0, 635.6612605644775, 930.8831013301732, -81426.6227396277, -83102.62359411998, -30082.81053099758, -25072.68936308496, -187500.02235174447, -60718.983199475195, -1136.8767782302832, -52854.9242442756, -80901.58026237253, -80992.93184196137, -52567.704328024905, -72601.25995889425, -84587.9193649196, -70765.71235247998, 0.17400000000000002, 0.934, 0.356, 192.0, 2.5, 56.0, 14.5, 24.0, 5.5, 16.0, 0.0, 0.0, 0.0, 1.695407123609791E9, 0.0, 2023-09-22 13:25:23.609
234.0, 686.3326652446586, 950.5079329619329, -81426.84625707225, -83103.42825692038, -30077.960202450777, -25075.125703230588, -187500.02235174447, -60719.6314000644, -1124.0021734240263, -52861.78622982338, -80903.41310541787, -80996.53047281867, -52564.73154601235, -72602.75752577276, -84583.09138811725, -70764.28184083484, 0.17400000000000002, 0.934, 0.356, 192.0, 0.0, 0.0, 0.0, 0.0, 0.0, 0.0, 0.0, 0.0, 0.0, 1.695407123609795E9, 0.0, 2023-09-22 13:25:23.609
236.0, 637.583510587634, 930.8383978412626, -81425.97453903849, -83108.88208256746, -30078.787216995624, -25074.209281707917, -187500.02235174447, -60720.90544949835, -1132.4064293392216, -52849.11279071722, -80896.79698905909, -80988.70736225932, -52548.414772559976, -72595.49320882479, -84575.46944325799, -70762.53840476733, 0.17400000000000002, 0.934, 0.356, 192.0, 0.0, 0.0, 0.0, 0.0, 0.0, 0.0, 0.0, 0.0, 0.0, 1.695407123609798E9, 0.0, 2023-09-22 13:25:23.609
238.0, 680.7223773863766, 946.4175637266117, -81429.99785304045, -83115.05116403714, -30084.553967065094, -25079.551348632736, -187500.02235174447, -60730.941382758785, -1127.55610079242, -52868.42469792661, -80908.10697175348, -81008.37689737999, -52565.178580901455, -72612.45818286636, -84593.2167283555, -70782.207939888, 0.17400000000000002, 0.934, 0.356, 192.0, 0.0, 0.0, 0.0, 0.0, 0.0, 0.0, 0.0, 0.0, 0.0, 1.695407123609801E9, 0.0, 2023-09-22 13:25:23.609
240.0, 634.2307489193379, 938.437990956067, -81420.92304479159, -83102.98122203127, -30077.28965011712, -25069.314249672207, -187500.02235174447, -60721.46424310974, -1127.9360804481603, -52859.1263722332, -80900.01564026067, -80999.03386819767, -52560.81999073267, -72606.75848803026, -84587.58408875276, -70775.99415492942, 0.17400000000000002, 0.934, 0.356, 192.0, 0.0, 0.0, 0.0, 0.0, 0.0, 0.0, 0.0, 0.0, 0.0, 1.695407123609806E9, 0.0, 2023-09-22 13:25:23.609
242.0, 674.2627232387929, 943.9365200920726, -81443.40889971363, -83124.68476589737, -30100.446057372817, -25090.861331327123, -187500.02235174447, -60750.92384230183, -1122.0352199119593, -52861.13802923418, -80898.11574198196, -81001.35844962102, -52560.46236282139, -72610.13360144301, -84594.37901906717, -70780.01746893137, 0.18, 0.9380000000000001, 0.35000000000000003, 192.0, 2.5, 80.0, 14.5, 40.0, 5.0, 120.0, 0.0, 0.0, 0.0, 1.695407123609811E9, 0.0, 2023-09-22 13:25:23.609
