%OpenBCI Raw EXG Data
%Number of channels = 16
%Sample Rate = 125 Hz
%Board = OpenBCI_GUI$BoardCytonSerialDaisy
Sample Index, EXG Channel 0, EXG Channel 1, EXG Channel 2, EXG Channel 3, EXG Channel 4, EXG Channel 5, EXG Channel 6, EXG Channel 7, EXG Channel 8, EXG Channel 9, EXG Channel 10, EXG Channel 11, EXG Channel 12, EXG Channel 13, EXG Channel 14, EXG Channel 15, Accel Channel 0, Accel Channel 1, Accel Channel 2, Other, Other, Other, Other, Other, Other, Other, Analog Channel 0, Analog Channel 1, Analog Channel 2, Timestamp, Other, Timestamp (Formatted)
208.0, 56992.09803248621, 62294.04357600732, -22699.090564142534, -30162.762720914212, -2984.4272714170543, -1388.870345219415, -187500.02235174447, 7637.725190845155, 36946.02542472189, -7532.671991905212, 9776.295396840025, -1442.603938889973, 21177.875540003246, 9147.250252634318, -17150.560575790474, -44366.31284550582, 0.065, 0.499, 0.082, 192.0, 2.0, 8.0, 15.5, 24.0, 2.5, 16.0, 0.0, 0.0, 0.0, 1.695763088059495E9, 0.0, 2023-09-26 16:18:08.059
210.0, 57003.720939602965, 62306.918180813576, -22688.138209359433, -30151.385682986464, -2972.2008672000015, -1380.2649236041218, -187500.02235174447, 7651.560920662991, 36906.753409713914, -7524.625363901301, 9788.879428968363, -1430.3998864173755, 21158.496577560494, 9151.072400936175, -17141.508119286074, -44359.62967391368, 0.065, 0.499, 0.082, 192.0, 0.0, 0.0, 0.0, 0.0, 0.0, 0.0, 0.0, 0.0, 0.0, 1.695763088059518E9, 0.0, 2023-09-26 16:18:08.059
212.0, 57003.743291347426, 62308.21458199198, -22692.96618616178, -30161.645133691447, -2985.075472006258, -1391.5749062985071, -187500.02235174447, 7629.835025052432, 36950.78634629087, -7521.183195255184, 9790.153478402315, -1426.7565520711605, 21187.598548841306, 9148.680764279457, -17148.459511811678, -44368.10098506224, 0.065, 0.499, 0.082, 192.0, 0.0, 0.0, 0.0, 0.0, 0.0, 0.0, 0.0, 0.0, 0.0, 1.695763088059529E9, 0.0, 2023-09-26 16:18:08.059
214.0, 57003.944457047524, 62310.49445992643, -22692.943834417325, -30159.186441801365, -2972.2902741778225, -1385.6293422733954, -187500.02235174447, 7640.519158902069, 36904.83115969076, -7511.303724205938, 9798.535382573054, -1416.675915321817, 21169.180711410132, 9148.926633468465, -17136.38956980581, -44360.277874502885, 0.065, 0.499, 0.082, 192.0, 0.0, 0.0, 0.0, 0.0, 0.0, 0.0, 0.0, 0.0, 0.0, 1.695763088059539E9, 0.0, 2023-09-26 16:18:08.059
216.0, 57002.62570412466, 62307.0075877914, -22704.34322408953, -30169.17767157289, -2991.40101568711, -1397.319304623521, -187500.02235174447, 7621.833100537432, 36955.05552948183, -7522.34548596686, 9782.956216687706, -1431.3610114289536, 21208.67624386266, 9139.337735097139, -17155.38855259282, -44378.00280785594, 0.065, 0.499, 0.082, 192.0, 0.0, 0.0, 0.0, 0.0, 0.0, 0.0, 0.0, 0.0, 0.0, 1.695763088059548E9, 0.0, 2023-09-26 16:18:08.059
218.0, 57007.72190186047, 62315.72476812897, -22699.001157164712, -30162.561555214117, -2980.3816056706437, -1383.997664928158, -187500.02235174447, 7649.571615406468, 36915.984680173955, -7528.671029647712, 9788.901780712817, -1433.0820957520123, 21151.813405968358, 9144.948022955421, -17153.287488614023, -44369.91147636312, 0.065, 0.499, 0.082, 192.0, 0.0, 0.0, 0.0, 0.0, 0.0, 0.0, 0.0, 0.0, 0.0, 1.695763088059558E9, 0.0, 2023-09-26 16:18:08.059
220.0, 57008.92889606106, 62323.99491357743, -22702.06334615509, -30163.030941847675, -2980.962751026482, -1380.3990340708535, -187500.02235174447, 7651.784438107543, 36965.69495984256, -7519.05977953193, 9791.405176091812, -1429.550520128074, 21185.13985695122, 9149.999517202321, -17151.16407289077, -44367.0728048173, 0.134, 1.004, 0.162, 192.0, 2.0, 24.0, 15.5, 48.0, 2.5, 8.0, 0.0, 0.0, 0.0, 1.695763088059567E9, 0.0, 2023-09-26 16:18:08.059
222.0, 57012.61693389618, 62321.89384959863, -22696.184837363344, -30157.241840033752, -2975.464221890476, -1378.454432303242, -187500.02235174447, 7666.625996425867, 36925.50652331192, -7519.283296976483, 9793.260370881602, -1421.6827060798057, 21176.646194058205, 9155.453342849416, -17144.905584443284, -44354.421717455596, 0.134, 1.004, 0.162, 192.0, 0.0, 0.0, 0.0, 0.0, 0.0, 0.0, 0.0, 0.0, 0.0, 1.695763088059577E9, 0.0, 2023-09-26 16:18:08.059
224.0, 57011.700512373514, 62318.56343967479, -22699.06821239808, -30157.375950500485, -2974.503096878898, -1381.3378073379765, -187500.02235174447, 7658.355850977404, 36960.35289291774, -7519.596221398858, 9788.342987101434, -1425.191929959289, 21197.008633256988, 9154.134589926553, -17147.923069944747, -44362.13306929268, 0.134, 1.004, 0.162, 192.0, 0.0, 0.0, 0.0, 0.0, 0.0, 0.0, 0.0, 0.0, 0.0, 1.695763088059586E9, 0.0, 2023-09-26 16:18:08.059
0.0, 28490.941642635065, 31148.83227930454, -11347.220700647915, -15096.994053959139, -1510.150910633911, -696.3462467606362, -93750.01117587223, 3795.616781189058, 18467.61476607499, -3756.0318417587096, 4895.6131810680845, -711.1431015900495, 10587.61901707876, 4582.5099447381435, -8570.239969520566, -22175.746819465974, 0.131, 1.0, 0.163, 192.0, 2.0, 0.0, 15.5, 16.0, 2.5, 16.0, 0.0, 0.0, 0.0, 1.695763088151256E9, 0.0, 2023-09-26 16:18:08.151
2.0, 56996.724843588454, 62316.551782673814, -22684.02548837966, -30178.20777633283, -3013.819815375783, -1379.7284817371944, -187500.02235174447, 7588.193725132195, 36939.67752929658, -7452.183360121651, 9529.21921363106, -1474.2987125275986, 21018.529953781363, 9085.671196659947, -17254.160911340823, -44319.64240308314, 0.131, 1.0, 0.163, 192.0, 0.0, 0.0, 0.0, 0.0, 0.0, 0.0, 0.0, 0.0, 0.0, 1.695763088210438E9, 0.0, 2023-09-26 16:18:08.210
4.0, 57010.20294549501, 62332.13094855916, -22659.751493901193, -30154.20200278783, -2993.725597110462, -1359.4330977717755, -187500.02235174447, 7615.284039412027, 36904.250014334924, -7433.8549296682995, 9554.387277887736, -1441.5087034116632, 21011.422099044576, 9147.339659612138, -17221.907344091815, -44281.44327180902, 0.131, 1.0, 0.163, 192.0, 0.0, 0.0, 0.0, 0.0, 0.0, 0.0, 0.0, 0.0, 0.0, 1.695763088210461E9, 0.0, 2023-09-26 16:18:08.210
6.0, 56993.103860986696, 62314.584829161744, -22679.711601699782, -30166.964848871812, -3016.7702456438838, -1376.7556997246386, -187500.02235174447, 7598.319065370449, 36945.44427936605, -7433.18437733464, 9542.138521926228, -1447.1189912699451, 21042.625134304184, 9095.550667709193, -17235.944239609747, -44292.61914403667, 0.131, 1.0, 0.163, 192.0, 0.0, 0.0, 0.0, 0.0, 0.0, 0.0, 0.0, 0.0, 0.0, 1.695763088210471E9, 0.0, 2023-09-26 16:18:08.210
8.0, 57012.01343679589, 62334.41082649361, -22658.34333400051, -30143.20494451582, -2987.4224051740653, -1352.3699465238985, -187500.02235174447, 7626.012876750574, 36910.0614678933, -7441.096894871819, 9544.753676027498, -1442.6933458677943, 21014.372529312674, 9103.865516646567, -17229.350474995434, -44281.063292153274, 0.124, 0.994, 0.16, 192.0, 1.5, 112.0, 15.5, 8.0, 2.5, 0.0, 0.0, 0.0, 0.0, 1.69576308821048E9, 0.0, 2023-09-26 16:18:08.210
10.0, 56991.18161096354, 62310.65092213761, -22685.947738402814, -30170.54112798466, -3014.2221467759787, -1379.0579294035351, -187500.02235174447, 7613.473548111147, 36935.78832576136, -7432.312659300883, 9539.389257358225, -1443.5874156460065, 21023.492041050442, 9118.215336586874, -17231.87622211888, -44283.34317008772, 0.124, 0.994, 0.16, 192.0, 0.0, 0.0, 0.0, 0.0, 0.0, 0.0, 0.0, 0.0, 0.0, 1.69576308821049E9, 0.0, 2023-09-26 16:18:08.210
12.0, 56998.37887267815, 62313.7578146169, -22679.890415655427, -30170.76464542921, -3000.6322861471517, -1371.771260711105, -187500.02235174447, 7612.7135887996665, 36908.161569614604, -7452.272767099473, 9531.387332843226, -1457.065517552557, 21014.372529312674, 9097.539972965715, -17236.771254154595, -44292.08270216974, 0.124, 0.994, 0.16, 192.0, 0.0, 0.0, 0.0, 0.0, 0.0, 0.0, 0.0, 0.0, 0.0, 1.695763088210499E9, 0.0, 2023-09-26 16:18:08.210
14.0, 57013.66746588558, 62325.715997900494, -22675.509473742186, -30170.719941940304, -2996.6536756341075, -1371.0560048885352, -187500.02235174447, 7612.378312632837, 36927.98756694646, -7442.102723372308, 9533.17547239965, -1460.0159478206574, 21005.72240420847, 9103.664350946468, -17240.97338211219, -44301.04575169632, 0.124, 0.994, 0.16, 192.0, 0.0, 0.0, 0.0, 0.0, 0.0, 0.0, 0.0, 0.0, 0.0, 1.695763088210508E9, 0.0, 2023-09-26 16:18:08.210
16.0, 57005.01734078138, 62317.35644547421, -22669.228633550243, -30167.88127039448, -2998.9782570574594, -1370.5642665105186, -187500.02235174447, 7598.833155492921, 36918.152799386124, -7443.041496639431, 9544.373696371758, -1448.5942064039955, 21006.504715264407, 9097.56232471017, -17228.83638487296, -44292.28386786984, 0.124, 0.994, 0.16, 192.0, 0.0, 0.0, 0.0, 0.0, 0.0, 0.0, 0.0, 0.0, 0.0, 1.695763088270712E9, 0.0, 2023-09-26 16:18:08.270
18.0, 57005.57613439276, 62318.89871584162, -22683.53375000164, -30177.0231338767, -3015.496196209931, -1385.8305079734932, -187500.02235174447, 7592.976998445631, 36927.83110473527, -7451.401049065716, 9538.696353280111, -1450.225883749233, 21017.702939236515, 9097.003531098788, -17239.02878034458, -44300.97869646295, 0.12, 0.992, 0.162, 192.0, 1.5, 96.0, 15.5, 0.0, 2.5, 8.0, 0.0, 0.0, 0.0, 1.695763088270737E9, 0.0, 2023-09-26 16:18:08.270
20.0, 57014.74034961943, 62329.627553180166, -22671.48615974023, -30171.63636346297, -3009.9976670739256, -1383.1035951499457, -187500.02235174447, 7584.17041113024, 36931.47443908149, -7456.988985179542, 9535.209481145082, -1456.5290756856293, 21006.01297688639, 9081.312606491161, -17241.532175723576, -44306.320763387776, 0.12, 0.992, 0.162, 192.0, 0.0, 0.0, 0.0, 0.0, 0.0, 0.0, 0.0, 0.0, 0.0, 1.695763088270747E9, 0.0, 2023-09-26 16:18:08.270
22.0, 57024.53041369086, 62337.47301548398, -22666.747589915703, -30162.9191831254, -2999.7382163689394, -1370.7207287217057, -187500.02235174447, 7605.628085807334, 36926.78057274587, -7450.462275798593, 9553.046173220417, -1440.927558055825, 21017.59118051424, 9099.663388688969, -17231.5185942076, -44299.57053656227, 0.12, 0.992, 0.162, 192.0, 0.0, 0.0, 0.0, 0.0, 0.0, 0.0, 0.0, 0.0, 0.0, 1.695763088270756E9, 0.0, 2023-09-26 16:18:08.270
24.0, 57034.18636729555, 62346.748989432934, -22664.06538058107, -30163.477976736784, -3002.085149536747, -1369.8490106879487, -187500.02235174447, 7593.826364734932, 36943.45497410953, -7442.885034428244, 9556.242472677526, -1431.7186393402385, 21013.411404301096, 9116.628362730547, -17228.143480794846, -44295.77074000487, 0.12, 0.992, 0.162, 192.0, 0.0, 0.0, 0.0, 0.0, 0.0, 0.0, 0.0, 0.0, 0.0, 1.6957630882708E9, 0.0, 2023-09-26 16:18:08.270
26.0, 57020.97648632246, 62330.56632644729, -22681.879720911948, -30169.088264595066, -3008.4106932175987, -1374.6546357458396, -187500.02235174447, 7608.086777697418, 36928.12167741319, -7442.907386172698, 9550.31926039687, -1438.1782934878224, 21020.631017760163, 9106.011284114276, -17237.151233810335, -44303.7056092865, 0.12, 0.992, 0.162, 192.0, 0.0, 0.0, 0.0, 0.0, 0.0, 0.0, 0.0, 0.0, 0.0, 1.695763088270809E9, 0.0, 2023-09-26 16:18:08.270
28.0, 57018.09311128773, 62326.25243976742, -22678.951642388303, -30172.485729752272, -3016.054989821314, -1379.0579294035351, -187500.02235174447, 7596.799146747488, 36946.7183288, -7462.889845715743, 9535.477702078546, -1450.7846773606154, 21034.0644161778, 9073.735365120812, -17249.154120582836, -44309.51706284488, 0.12, 0.998, 0.17200000000000001, 192.0, 1.5, 96.0, 15.5, 24.0, 2.5, 48.0, 0.0, 0.0, 0.0, 1.695763088270818E9, 0.0, 2023-09-26 16:18:08.270
30.0, 57012.99691355192, 62326.18538453405, -22683.891377912925, -30169.53529948417, -3024.7498184144283, -1372.1512403668453, -187500.02235174447, 7627.6222023513565, 36913.056601650314, -7458.151275891219, 9539.299850380403, -1446.8954738253922, 20986.879883632646, 9085.715900148858, -17245.309620536522, -44302.76683601938, 0.12, 0.998, 0.17200000000000001, 192.0, 0.0, 0.0, 0.0, 0.0, 0.0, 0.0, 0.0, 0.0, 0.0, 1.695763088270827E9, 0.0, 2023-09-26 16:18:08.270
32.0, 57031.72767540547, 62346.257251054914, -22667.664011438374, -30154.313761510108, -3016.703190410518, -1365.8033449415382, -187500.02235174447, 7614.41232137827, 36942.78442177587, -7460.945243948132, 9535.902385223197, -1440.122895255434, 21003.509581507395, 9083.592484425602, -17250.383466527877, -44302.185690663544, 0.12, 0.998, 0.17200000000000001, 192.0, 0.0, 0.0, 0.0, 0.0, 0.0, 0.0, 0.0, 0.0, 0.0, 1.695763088330825E9, 0.0, 2023-09-26 16:18:08.330
34.0, 57021.60233516721, 62335.39430324964, -22674.77186617516, -30157.0183225892, -3017.2843357663555, -1371.547743266552, -187500.02235174447, 7615.619315578857, 36910.48615103795, -7442.929737917154, 9549.916928996674, -1418.933441511803, 20998.078107604757, 9098.881077633034, -17238.537041966563, -44289.33343760174, 0.12, 0.998, 0.17200000000000001, 192.0, 0.0, 0.0, 0.0, 0.0, 0.0, 0.0, 0.0, 0.0, 0.0, 1.695763088330849E9, 0.0, 2023-09-26 16:18:08.330
36.0, 57035.683934174056, 62346.279602799375, -22665.2500230372, -30152.413863231406, -3008.7683211288836, -1366.8091734420268, -187500.02235174447, 7587.746690243089, 36953.91559051461, -7449.724668231567, 9539.232795147038, -1424.4319706478084, 21013.54551476783, 9099.104595077586, -17245.93546938127, -44300.777530762854, 0.12, 0.998, 0.17200000000000001, 192.0, 0.0, 0.0, 0.0, 0.0, 0.0, 0.0, 0.0, 0.0, 0.0, 1.695763088330858E9, 0.0, 2023-09-26 16:18:08.330
38.0, 57030.498329460424, 62344.58087022077, -22663.931270114335, -30149.99987483023, -3007.4495682060206, -1367.6585397313286, -187500.02235174447, 7592.775832745533, 36914.39770631763, -7441.923909416665, 9548.620527818266, -1417.346467655476, 20990.143238323122, 9101.697397434402, -17233.686713419764, -44288.01468467888, 0.12, 0.992, 0.17, 192.0, 1.5, 96.0, 15.5, 0.0, 2.5, 40.0, 0.0, 0.0, 0.0, 1.695763088330867E9, 0.0, 2023-09-26 16:18:08.330
40.0, 57034.45458822902, 62347.15132083313, -22658.90212761189, -30152.995008587244, -3008.1871757730455, -1372.5982752559514, -187500.02235174447, 7575.810858703954, 36958.497698127954, -7442.28153732795, 9548.799341773909, -1413.256098420155, 21021.994474171934, 9099.350464266594, -17233.2173267862, -44288.215850378976, 0.12, 0.992, 0.17, 192.0, 0.0, 0.0, 0.0, 0.0, 0.0, 0.0, 0.0, 0.0, 0.0, 1.695763088330877E9, 0.0, 2023-09-26 16:18:08.330
42.0, 57039.0143440979, 62355.60028023724, -22653.872985109447, -30143.696682893835, -2993.59148664373, -1362.7858594400716, -187500.02235174447, 7589.959512944164, 36916.63288076316, -7435.598365735814, 9551.235681919537, -1406.6176303169289, 21009.81277344379, 9110.749853938802, -17227.78585288356, -44286.4053590781, 0.12, 0.992, 0.17, 192.0, 0.0, 0.0, 0.0, 0.0, 0.0, 0.0, 0.0, 0.0, 0.0, 1.695763088330886E9, 0.0, 2023-09-26 16:18:08.330
44.0, 57025.98327708046, 62342.8150824088, -22673.564871974573, -30158.67235167889, -3027.476731237976, -1385.7634527401274, -187500.02235174447, 7571.407565046259, 36962.02927375189, -7431.932679645143, 9548.776990029453, -1401.61083955894, 21031.337503354254, 9126.351371568606, -17240.101664078436, -44297.31301037229, 0.12, 0.992, 0.17, 192.0, 0.0, 0.0, 0.0, 0.0, 0.0, 0.0, 0.0, 0.0, 0.0, 1.695763088330895E9, 0.0, 2023-09-26 16:18:08.330
46.0, 57039.327268520276, 62353.85684416972, -22661.20435729079, -30143.271999749184, -3009.952963585015, -1371.257170588633, -187500.02235174447, 7587.523172798536, 36912.92249118358, -7441.409819294193, 9548.17349292916, -1400.8285285030042, 20984.39883999811, 9091.214429284862, -17241.532175723576, -44290.33926610223, 0.12, 0.992, 0.17, 192.0, 0.0, 0.0, 0.0, 0.0, 0.0, 0.0, 0.0, 0.0, 0.0, 1.695763088391169E9, 0.0, 2023-09-26 16:18:08.391
48.0, 57037.09209407474, 62352.76160869141, -22672.000249862704, -30152.12329055349, -3013.0598560643025, -1377.6274177583955, -187500.02235174447, 7584.036300663508, 36962.9233435301, -7430.412761022182, 9548.799341773909, -1395.8887929783814, 21025.68251200706, 9101.809156156678, -17243.36501876891, -44292.417978336576, 0.122, 0.996, 0.166, 192.0, 1.5, 104.0, 15.5, 16.0, 2.5, 24.0, 0.0, 0.0, 0.0, 1.695763088391194E9, 0.0, 2023-09-26 16:18:08.391
50.0, 57044.80344591182, 62358.23778608296, -22663.86421488097, -30142.310874737606, -2999.5146989243867, -1359.2319320716779, -187500.02235174447, 7604.26462939556, 36910.463799293495, -7434.592537235325, 9547.681754551144, -1391.1949266427669, 20996.11115409269, 9107.866478904067, -17233.999637842135, -44279.02928340784, 0.122, 0.996, 0.166, 192.0, 0.0, 0.0, 0.0, 0.0, 0.0, 0.0, 0.0, 0.0, 0.0, 1.695763088391204E9, 0.0, 2023-09-26 16:18:08.391
52.0, 57050.14551283664, 62365.74797221994, -22663.90891836988, -30140.120403780988, -2993.3903209436326, -1357.4884960041638, -187500.02235174447, 7617.36275164637, 36953.89323877016, -7425.204804564096, 9550.36396388578, -1387.4621853187307, 21027.627113774673, 9113.767339440268, -17237.84413788845, -44279.14104213012, 0.122, 0.996, 0.166, 192.0, 0.0, 0.0, 0.0, 0.0, 0.0, 0.0, 0.0, 0.0, 0.0, 1.695763088391213E9, 0.0, 2023-09-26 16:18:08.391
54.0, 57037.695591175034, 62352.068704613295, -22674.324831286056, -30152.12329055349, -3011.9869723304478, -1358.4272692712868, -187500.02235174447, 7619.419112136258, 36914.64357550664, -7419.5945167058135, 9551.436847619636, -1390.189098142278, 20996.088802348233, 9116.293086563717, -17239.45346348923, -44275.78828046183, 0.122, 0.996, 0.166, 192.0, 0.0, 0.0, 0.0, 0.0, 0.0, 0.0, 0.0, 0.0, 0.0, 1.695763088391222E9, 0.0, 2023-09-26 16:18:08.391
56.0, 57040.73542842096, 62354.25917556992, -22675.1518458309, -30149.843412619048, -3005.7955391163277, -1359.5001530051416, -187500.02235174447, 7619.575574347446, 36941.26450315291, -7429.965726133076, 9540.12686492525, -1401.3649703699316, 21013.76903221238, 9106.36891202556, -17255.36790554141, -44286.6512282671, 0.122, 0.996, 0.166, 192.0, 0.0, 0.0, 0.0, 0.0, 0.0, 0.0, 0.0, 0.0, 0.0, 1.695763088391231E9, 0.0, 2023-09-26 16:18:08.391
58.0, 57045.69751569004, 62358.03662038287, -22670.077999839545, -30148.34584574054, -2994.7314256109507, -1354.2698448025997, -187500.02235174447, 7621.341362159415, 36922.2655203659, -7422.790816162922, 9556.577748844356, -1384.958789939736, 21009.119869365677, 9115.555478996692, -17233.664361675306, -44265.9982163904, 0.122, 0.99, 0.17200000000000001, 192.0, 1.5, 104.0, 15.0, 120.0, 2.5, 48.0, 0.0, 0.0, 0.0, 1.69576308839124E9, 0.0, 2023-09-26 16:18:08.391
60.0, 57041.00364935442, 62346.748989432934, -22676.112970842478, -30156.414825488908, -3008.1201205396796, -1366.451545530742, -187500.02235174447, 7608.489109097613, 36951.143974202154, -7435.263089568984, 9539.009277702484, -1395.4417580892753, 21024.117889895188, 9101.94326662341, -17252.12690259539, -44288.99816143491, 0.122, 0.99, 0.17200000000000001, 192.0, 0.0, 0.0, 0.0, 0.0, 0.0, 0.0, 0.0, 0.0, 0.0, 1.695763088391249E9, 0.0, 2023-09-26 16:18:08.391
62.0, 57053.498274504935, 62361.38938205116, -22655.929345599336, -30146.7141683953, -2990.64105637563, -1360.1483535943453, -187500.02235174447, 7607.438577108214, 36944.527857843386, -7433.318487801372, 9551.45919936409, -1385.6516940178508, 20987.39397375512, 9119.601144743103, -17234.78194889807, -44276.77175721786, 0.122, 0.99, 0.17200000000000001, 192.0, 0.0, 0.0, 0.0, 0.0, 0.0, 0.0, 0.0, 0.0, 0.0, 1.69576308845044E9, 0.0, 2023-09-26 16:18:08.450
64.0, 57044.9152046341, 62351.39815227964, -22666.233499793234, -30151.117462053, -3000.788748358339, -1367.9491124092476, -187500.02235174447, 7611.171318432251, 36960.35289291774, -7424.04251385242, 9545.781856272442, -1388.6468277748618, 21003.598988485217, 9114.169670840463, -17243.186204813268, -44288.19349863452, 0.122, 0.99, 0.17200000000000001, 192.0, 0.0, 0.0, 0.0, 0.0, 0.0, 0.0, 0.0, 0.0, 0.0, 1.695763088450483E9, 0.0, 2023-09-26 16:18:08.450
66.0, 57046.09984709023, 62355.82379768179, -22664.802988148094, -30151.92212485339, -3006.823719361272, -1363.1881908402672, -187500.02235174447, 7605.717492785156, 36959.99526500646, -7433.89963315721, 9551.190978430626, -1391.8431272319708, 20993.786572669338, 9090.163897295464, -17241.35336176793, -44275.967094417465, 0.122, 0.99, 0.17200000000000001, 192.0, 0.0, 0.0, 0.0, 0.0, 0.0, 0.0, 0.0, 0.0, 0.0, 1.695763088450494E9, 0.0, 2023-09-26 16:18:08.450
68.0, 57031.63826842765, 62340.78107366337, -22679.644546466418, -30167.07660759409, -3013.886870609149, -1378.8791154478927, -187500.02235174447, 7606.969190474652, 36955.81548879331, -7443.086200128341, 9537.645821290711, -1405.5447465830741, 21002.39199428463, 9082.340786736106, -17255.881995663884, -44294.563745804284, 0.12, 0.992, 0.164, 192.0, 1.5, 96.0, 15.5, 0.0, 2.5, 16.0, 0.0, 0.0, 0.0, 1.695763088450556E9, 0.0, 2023-09-26 16:18:08.450
70.0, 57031.92884110557, 62336.28837302785, -22683.913729657383, -30169.06591285061, -3028.6837254385623, -1382.611856771929, -187500.02235174447, 7587.187896631706, 36954.9214190151, -7452.183360121651, 9539.970402714063, -1407.288182650588, 20993.25013080241, 9093.181382796929, -17260.061771877023, -44294.40728359309, 0.12, 0.992, 0.164, 192.0, 0.0, 0.0, 0.0, 0.0, 0.0, 0.0, 0.0, 0.0, 0.0, 1.695763088450566E9, 0.0, 2023-09-26 16:18:08.450
72.0, 57035.326306262774, 62340.177576563074, -22679.175159832856, -30155.34194175505, -3012.8363386197498, -1367.7702984536052, -187500.02235174447, 7607.0138939635635, 36939.16343917411, -7455.178493878662, 9537.22113814606, -1411.4009036303644, 20990.9031976346, 9086.475859460337, -17273.673984250305, -44306.25370815441, 0.12, 0.992, 0.164, 192.0, 0.0, 0.0, 0.0, 0.0, 0.0, 0.0, 0.0, 0.0, 0.0, 1.695763088450575E9, 0.0, 2023-09-26 16:18:08.450
74.0, 57044.57992846727, 62343.15035857563, -22669.608613205983, -30147.004741073222, -3006.086111794247, -1361.489458261664, -187500.02235174447, 7603.661132295268, 36960.107023728735, -7436.246566325018, 9550.788647030431, -1398.7051127797502, 21025.548401540327, 9104.334903280129, -17253.669172962807, -44285.846565466716, 0.12, 0.992, 0.164, 192.0, 0.0, 0.0, 0.0, 0.0, 0.0, 0.0, 0.0, 0.0, 0.0, 1.695763088450584E9, 0.0, 2023-09-26 16:18:08.450
76.0, 57040.847187143234, 62339.976410862975, -22668.669839938862, -30146.9153340954, -3006.7119606389956, -1361.3329960504766, -187500.02235174447, 7616.714551057166, 36941.77859327538, -7438.99583089302, 9550.833350519342, -1399.867403491426, 21003.151953596112, 9099.015188099766, -17255.70318170824, -44291.59096379173, 0.12, 0.992, 0.164, 192.0, 0.0, 0.0, 0.0, 0.0, 0.0, 0.0, 0.0, 0.0, 0.0, 1.695763088510358E9, 0.0, 2023-09-26 16:18:08.510
78.0, 57053.81119892731, 62353.63332672517, -22655.459958965774, -30131.984368799254, -3011.6516961636185, -1357.3767372818872, -187500.02235174447, 7598.788452004011, 36968.64539011066, -7435.419551780171, 9550.945109241618, -1396.2687726341217, 21004.940093152534, 9096.869420632056, -17255.300850308045, -44290.786300991334, 0.12, 0.994, 0.162, 192.0, 1.5, 96.0, 15.5, 8.0, 2.5, 8.0, 0.0, 0.0, 0.0, 1.695763088510439E9, 0.0, 2023-09-26 16:18:08.510
80.0, 57049.09498084724, 62351.57696623528, -22656.309325255075, -30128.38573794195, -3005.7061321385067, -1354.7392314361612, -187500.02235174447, 7605.605734062879, 36931.34032861475, -7430.479816255548, 9557.494170367023, -1387.2833713630882, 21002.77197394037, 9113.365008040073, -17246.606021714928, -44281.17505087555, 0.12, 0.994, 0.162, 192.0, 0.0, 0.0, 0.0, 0.0, 0.0, 0.0, 0.0, 0.0, 0.0, 1.695763088510451E9, 0.0, 2023-09-26 16:18:08.510
82.0, 57058.21449258501, 62355.33205930377, -22652.509528697676, -30127.20109548582, -3008.298934495322, -1358.7178419492056, -187500.02235174447, 7587.143193142795, 36972.28872445688, -7424.646010952713, 9565.920778026673, -1377.9179904363145, 21022.687378250048, 9120.718731965868, -17242.895632135347, -44272.971960660456, 0.12, 0.994, 0.162, 192.0, 0.0, 0.0, 0.0, 0.0, 0.0, 0.0, 0.0, 0.0, 0.0, 1.695763088510461E9, 0.0, 2023-09-26 16:18:08.510
84.0, 57053.63238497167, 62347.57600397778, -22654.990572332215, -30128.542200153137, -3001.459300691998, -1359.7013187052391, -187500.02235174447, 7595.390986846804, 36924.813619233806, -7434.0337436239415, 9569.072373994872, -1385.1823073842893, 20994.367718025176, 9128.072455891665, -17245.667248447808, -44284.639571266125, 0.12, 0.994, 0.162, 192.0, 0.0, 0.0, 0.0, 0.0, 0.0, 0.0, 0.0, 0.0, 0.0, 1.695763088510471E9, 0.0, 2023-09-26 16:18:08.510
86.0, 57046.457475001516, 62337.22714629497, -22665.786464904126, -30134.44306068934, -3012.7692833863834, -1365.7586414526274, -187500.02235174447, 7590.518306555547, 36962.900991785646, -7434.570185490869, 9559.84110353483, -1393.0501214325573, 21013.523163023372, 9092.711996163369, -17253.758579940626, -44290.98746669143, 0.12, 0.994, 0.162, 192.0, 0.0, 0.0, 0.0, 0.0, 0.0, 0.0, 0.0, 0.0, 0.0, 1.69576308851048E9, 0.0, 2023-09-26 16:18:08.510
88.0, 57029.67131491558, 62324.77722463337, -22683.667860468373, -30146.9153340954, -3022.8052166468165, -1371.927722922292, -187500.02235174447, 7604.130518928829, 36912.58721501675, -7450.574034520869, 9544.440751605123, -1404.4271593603087, 20986.58931095473, 9095.595371198104, -17266.141446368867, -44301.17986216305, 0.124, 1.002, 0.16, 192.0, 1.5, 112.0, 15.5, 40.0, 2.5, 0.0, 0.0, 0.0, 0.0, 1.69576308851049E9, 0.0, 2023-09-26 16:18:08.510
90.0, 57034.72280916248, 62326.05127406732, -22677.789351676627, -30148.1670317849, -3028.661373694107, -1371.614798499918, -187500.02235174447, 7605.069292195952, 36956.039006237865, -7446.081333885352, 9536.997620701506, -1412.2726216641215, 21020.474555548975, 9093.874286875045, -17275.529179040095, -44306.83485351025, 0.124, 1.002, 0.16, 192.0, 0.0, 0.0, 0.0, 0.0, 0.0, 0.0, 0.0, 0.0, 0.0, 1.695763088510542E9, 0.0, 2023-09-26 16:18:08.510
92.0, 57025.17861428006, 62312.12613727166, -22687.78058144815, -30157.755930156225, -3030.5165684838976, -1375.5710572685073, -187500.02235174447, 7616.960420246175, 36896.49395900893, -7464.43211608316, 9532.661382277178, -1414.351333898465, 20966.092761289212, 9087.325225749639, -17277.965519185724, -44307.12542618816, 0.124, 1.002, 0.16, 192.0, 0.0, 0.0, 0.0, 0.0, 0.0, 0.0, 0.0, 0.0, 0.0, 1.695763088572024E9, 0.0, 2023-09-26 16:18:08.572
94.0, 57031.8617858722, 62321.06683505379, -22686.90886341439, -30156.68304642237, -3021.7099811685066, -1377.8732869474038, -187500.02235174447, 7612.512423099569, 36942.96323573151, -7453.747982233523, 9535.567109056366, -1409.3668948849315, 20988.936244122535, 9086.855839116079, -17281.005356431648, -44306.164301176585, 0.124, 1.002, 0.16, 192.0, 0.0, 0.0, 0.0, 0.0, 0.0, 0.0, 0.0, 0.0, 0.0, 1.695763088572049E9, 0.0, 2023-09-26 16:18:08.572
96.0, 57035.52747196287, 62329.202870035515, -22680.180988333344, -30140.478031692273, -3019.0948270672357, -1375.4592985462307, -187500.02235174447, 7610.120786442851, 36904.250014334924, -7457.19015087964, 9537.869338735263, -1402.70607503725, 20955.788607095314, 9091.549705451693, -17275.395068573365, -44296.754216760906, 0.124, 1.002, 0.16, 192.0, 0.0, 0.0, 0.0, 0.0, 0.0, 0.0, 0.0, 0.0, 0.0, 1.69576308857206E9, 0.0, 2023-09-26 16:18:08.572
98.0, 57055.264062316906, 62350.72759994598, -22663.931270114335, -30125.792935585134, -3005.8178908607833, -1364.5516472520408, -187500.02235174447, 7603.236449150616, 36955.569619604306, -7437.073580869864, 9547.927623740152, -1381.4942695491636, 20998.748659938414, 9099.32811252214, -17269.673021992807, -44287.232373622945, 0.126, 1.006, 0.168, 192.0, 1.5, 120.0, 15.5, 56.0, 2.5, 32.0, 0.0, 0.0, 0.0, 1.69576308857207E9, 0.0, 2023-09-26 16:18:08.572
100.0, 57047.99974536893, 62347.933631889064, -22662.366648002466, -30125.0106245292, -3012.277545008367, -1366.8091734420268, -187500.02235174447, 7607.036245708018, 36916.31995634079, -7432.156197089696, 9557.516522111478, -1366.3397868084655, 20976.48632246093, 9105.765414925268, -17255.74788519715, -44272.39081530462, 0.126, 1.006, 0.168, 192.0, 0.0, 0.0, 0.0, 0.0, 0.0, 0.0, 0.0, 0.0, 0.0, 1.695763088572081E9, 0.0, 2023-09-26 16:18:08.572
102.0, 57044.17759706707, 62344.13383533166, -22664.847691637005, -30132.498458921727, -3010.847033363227, -1369.7596037101275, -187500.02235174447, 7605.449271851692, 36954.78730854837, -7427.32822028735, 9551.235681919537, -1370.9218944218035, 21008.762241454395, 9132.654563505002, -17262.676925978296, -44280.68331249754, 0.126, 1.006, 0.168, 192.0, 0.0, 0.0, 0.0, 0.0, 0.0, 0.0, 0.0, 0.0, 0.0, 1.69576308857209E9, 0.0, 2023-09-26 16:18:08.572
104.0, 57047.59741396874, 62346.95015513303, -22658.2986305116, -30120.830848316058, -2997.6818558790515, -1352.5934639684515, -187500.02235174447, 7611.439539365714, 36919.73977324245, -7428.579917976847, 9550.542777841423, -1370.2960455770549, 20985.806999898792, 9111.062778361176, -17254.406780529833, -44270.6473792371, 0.126, 1.006, 0.168, 192.0, 0.0, 0.0, 0.0, 0.0, 0.0, 0.0, 0.0, 0.0, 0.0, 1.695763088572099E9, 0.0, 2023-09-26 16:18:08.572
106.0, 57041.45068424353, 62342.85978589771, -22668.15574981639, -30141.8638398485, -3006.019056560881, -1370.2960455770549, -187500.02235174447, 7609.360827131371, 36948.50646835643, -7425.89770864221, 9549.715763296577, -1372.9111996783256, 21006.34825305322, 9108.559382982181, -17258.072466620502, -44280.951533431, 0.126, 1.006, 0.168, 192.0, 0.0, 0.0, 0.0, 0.0, 0.0, 0.0, 0.0, 0.0, 0.0, 1.695763088630811E9, 0.0, 2023-09-26 16:18:08.630
108.0, 57046.12219883469, 62344.53616673186, -22664.132435814434, -30145.30600849462, -2993.0326930323477, -1366.5856559974739, -187500.02235174447, 7609.204364920183, 36928.65811928012, -7431.485644756037, 9555.482513366045, -1373.4699932897083, 20979.660270173583, 9116.203679585897, -17251.299888050544, -44281.66678925357, 0.128, 1.006, 0.168, 192.0, 2.0, 0.0, 15.5, 56.0, 2.5, 32.0, 0.0, 0.0, 0.0, 1.695763088630836E9, 0.0, 2023-09-26 16:18:08.630
110.0, 57041.49538773244, 62335.59546894974, -22673.76603767467, -30156.995970844746, -2996.6089721451967, -1371.8606676889262, -187500.02235174447, 7620.089664469918, 36947.254770666936, -7436.537139002936, 9544.239585905027, -1384.2211823727112, 21001.497924506417, 9108.782900426735, -17265.023859146102, -44296.68716152754, 0.128, 1.006, 0.168, 192.0, 0.0, 0.0, 0.0, 0.0, 0.0, 0.0, 0.0, 0.0, 0.0, 1.695763088630847E9, 0.0, 2023-09-26 16:18:08.630
112.0, 57043.037658099856, 62335.72957941647, -22665.71940967076, -30159.365255757006, -2986.9083150515935, -1364.5069437631303, -187500.02235174447, 7627.063408739974, 36938.64934905164, -7437.542967503425, 9545.491283594523, -1382.969484683214, 21001.83320067325, 9112.51564175077, -17257.759542198128, -44288.46171956798, 0.128, 1.006, 0.168, 192.0, 0.0, 0.0, 0.0, 0.0, 0.0, 0.0, 0.0, 0.0, 0.0, 1.695763088630889E9, 0.0, 2023-09-26 16:18:08.630
114.0, 57026.72088464748, 62322.11736704319, -22674.995383619713, -30165.176709315387, -2997.7489111124173, -1375.6381125018731, -187500.02235174447, 7635.691182099722, 36943.54438108735, -7437.9676506480755, 9544.12782718275, -1388.8926969638703, 21011.01976764438, 9109.006417871287, -17255.636126474874, -44288.61818177917, 0.128, 1.006, 0.168, 192.0, 0.0, 0.0, 0.0, 0.0, 0.0, 0.0, 0.0, 0.0, 0.0, 1.695763088630899E9, 0.0, 2023-09-26 16:18:08.630
116.0, 57034.365181251196, 62333.51675671539, -22667.507549227186, -30158.49353772325, -2994.7984808443166, -1366.4738972751973, -187500.02235174447, 7641.457932169192, 36950.49577361295, -7449.925833931665, 9551.302737152904, -1387.864516718926, 21006.39295654213, 9115.264906318773, -17248.192995571255, -44273.106071127186, 0.128, 1.006, 0.168, 192.0, 0.0, 0.0, 0.0, 0.0, 0.0, 0.0, 0.0, 0.0, 0.0, 1.695763088630908E9, 0.0, 2023-09-26 16:18:08.630
118.0, 57022.29523924533, 62321.04448330933, -22676.425895264852, -30166.24959304924, -3004.5438414268306, -1372.12888862239, -187500.02235174447, 7642.08378101394, 36938.96227347401, -7447.221272852573, 9539.501016080501, -1398.5933540574736, 21005.58829374174, 9111.08513010563, -17264.889748679372, -44288.90875445709, 0.122, 0.998, 0.17400000000000002, 192.0, 1.5, 104.0, 15.5, 24.0, 2.5, 56.0, 0.0, 0.0, 0.0, 1.695763088630918E9, 0.0, 2023-09-26 16:18:08.630
120.0, 57037.51677721939, 62337.20479455052, -22655.728179899237, -30153.598505687536, -2985.567210384275, -1353.5769407244852, -187500.02235174447, 7636.428789666747, 36951.59100909126, -7438.973479148564, 9554.856664521298, -1390.7478917536607, 20992.49017149093, 9120.696380221412, -17244.124978080392, -44264.97003614545, 0.122, 0.998, 0.17400000000000002, 192.0, 0.0, 0.0, 0.0, 0.0, 0.0, 0.0, 0.0, 0.0, 0.0, 1.695763088630928E9, 0.0, 2023-09-26 16:18:08.630
122.0, 57024.37395147967, 62324.598410677725, -22667.1499213159, -30167.993029116755, -2990.2163732309787, -1362.517638506608, -187500.02235174447, 7623.353019160393, 36932.435564093066, -7443.086200128341, 9546.832388261842, -1407.869328006426, 21004.515410007883, 9137.437836818437, -17250.98696362817, -44275.832983950735, 0.122, 0.998, 0.17400000000000002, 192.0, 0.0, 0.0, 0.0, 0.0, 0.0, 0.0, 0.0, 0.0, 0.0, 1.695763088691022E9, 0.0, 2023-09-26 16:18:08.691
124.0, 57026.18444278055, 62326.967695589985, -22668.558081216586, -30165.713151182314, -2994.0385215328365, -1355.4097837698203, -187500.02235174447, 7609.606696320378, 36958.497698127954, -7432.826749423355, 9550.6545365637, -1408.8081012735488, 21019.200506115023, 9117.27656331975, -17247.70125719324, -44261.81844017726, 0.122, 0.998, 0.17400000000000002, 192.0, 0.0, 0.0, 0.0, 0.0, 0.0, 0.0, 0.0, 0.0, 0.0, 1.695763088691045E9, 0.0, 2023-09-26 16:18:08.691
126.0, 57035.28160277386, 62329.828718880264, -22660.77967414614, -30163.612087203514, -2988.852916819205, -1338.578920194974, -187500.02235174447, 7626.839891295421, 36924.34423260024, -7445.634298996246, 9545.424228361158, -1421.5262438686186, 21003.375471040665, 9111.129833594541, -17260.32999281049, -44269.23921933642, 0.122, 0.998, 0.17400000000000002, 192.0, 0.0, 0.0, 0.0, 0.0, 0.0, 0.0, 0.0, 0.0, 0.0, 1.695763088691055E9, 0.0, 2023-09-26 16:18:08.691
128.0, 57043.57409996678, 62338.27767828437, -22657.091636311012, -30172.575136730095, -2983.913181294582, -1335.0920480599461, -187500.02235174447, 7617.630972579834, 36964.867945297716, -7427.730551687545, 9553.515559853979, -1417.7935025445822, 21035.763148756403, 9123.982086656342, -17245.376675769887, -44268.52396351385, 0.126, 0.99, 0.17200000000000001, 192.0, 1.5, 120.0, 15.0, 120.0, 2.5, 48.0, 0.0, 0.0, 0.0, 1.695763088691064E9, 0.0, 2023-09-26 16:18:08.691
130.0, 57026.07268405827, 62315.90358208461, -22673.11783708547, -30195.373916074506, -2994.217335488479, -1354.3816035248763, -187500.02235174447, 7622.704818571189, 36932.65908153762, -7436.492435514026, 9549.961632485585, -1431.6068806179621, 21018.909933437102, 9119.109406365085, -17242.2697832906, -44284.348998588204, 0.126, 0.99, 0.17200000000000001, 192.0, 0.0, 0.0, 0.0, 0.0, 0.0, 0.0, 0.0, 0.0, 0.0, 1.695763088691074E9, 0.0, 2023-09-26 16:18:08.691
132.0, 57035.259251029405, 62326.00657057841, -22670.234462050732, -30195.195102118865, -2994.7761290998615, -1355.0745076029907, -187500.02235174447, 7612.199498677194, 36962.74452957446, -7450.708144987601, 9535.500053823002, -1453.8468663509925, 20996.513485492884, 9109.162880082475, -17248.640030460363, -44304.48792034244, 0.126, 0.99, 0.17200000000000001, 192.0, 0.0, 0.0, 0.0, 0.0, 0.0, 0.0, 0.0, 0.0, 0.0, 1.695763088691083E9, 0.0, 2023-09-26 16:18:08.691
134.0, 57030.6100881827, 62316.17180301807, -22670.39092426192, -30204.69459351237, -2996.899544823116, -1370.676025232795, -187500.02235174447, 7618.659152824778, 36913.03424990586, -7452.228063610562, 9542.965536471074, -1457.0208140636462, 20987.528084221853, 9102.680874190435, -17237.330047765976, -44304.15264417561, 0.126, 0.99, 0.17200000000000001, 192.0, 0.0, 0.0, 0.0, 0.0, 0.0, 0.0, 0.0, 0.0, 0.0, 1.695763088691125E9, 0.0, 2023-09-26 16:18:08.691
136.0, 57026.34090499174, 62312.26024773839, -22679.398677277408, -30216.943349473877, -3017.6419636776404, -1390.0773394200016, -187500.02235174447, 7596.732091514122, 36947.21006717802, -7464.074488171875, 9529.778007242443, -1476.444479995308, 21010.2598083329, 9075.098821532587, -17253.982097385182, -44328.02430725388, 0.126, 0.99, 0.17200000000000001, 192.0, 0.0, 0.0, 0.0, 0.0, 0.0, 0.0, 0.0, 0.0, 0.0, 1.695763088751932E9, 0.0, 2023-09-26 16:18:08.751
138.0, 57038.14262606414, 62323.81609962179, -22664.557118959085, -30200.715982999325, -3000.811100102794, -1373.4699932897083, -187500.02235174447, 7620.112016214373, 36896.04692411982, -7461.079354414864, 9542.496149837512, -1469.157811302878, 20999.39686052762, 9099.842202644611, -17242.873280390893, -44312.15456869061, 0.134, 0.99, 0.168, 192.0, 2.0, 24.0, 15.0, 120.0, 2.5, 32.0, 0.0, 0.0, 0.0, 1.695763088751968E9, 0.0, 2023-09-26 16:18:08.751
140.0, 57038.18732955305, 62331.43804448105, -22657.784540389126, -30186.20970084783, -3003.5827164152524, -1360.4389262722643, -187500.02235174447, 7622.011914493074, 36948.841744523255, -7448.4729705420705, 9544.440751605123, -1465.3580147454757, 21031.717483009994, 9078.384527967517, -17244.616716458408, -44305.06906569828, 0.134, 0.99, 0.168, 192.0, 0.0, 0.0, 0.0, 0.0, 0.0, 0.0, 0.0, 0.0, 0.0, 1.695763088751985E9, 0.0, 2023-09-26 16:18:08.751
142.0, 57029.604259682215, 62323.4584717105, -22664.333601514532, -30186.433218292383, -3008.1648240285904, -1361.2435890726554, -187500.02235174447, 7615.909888256775, 36908.18392135906, -7460.878188714766, 9542.451446348601, -1465.2015525342886, 20995.172380825567, 9068.616815640547, -17244.102626335934, -44297.42476909456, 0.134, 0.99, 0.168, 192.0, 0.0, 0.0, 0.0, 0.0, 0.0, 0.0, 0.0, 0.0, 0.0, 1.695763088752001E9, 0.0, 2023-09-26 16:18:08.752
144.0, 57046.591585468246, 62338.59060270675, -22654.901165354393, -30168.618877961504, -3002.6439431481294, -1343.2727865305885, -187500.02235174447, 7621.766045304066, 36952.753299802935, -7446.729534474556, 9543.7031440381, -1460.4182792208528, 21024.699035251026, 9091.929685107432, -17240.12401582289, -44289.06521666828, 0.134, 0.99, 0.168, 192.0, 0.0, 0.0, 0.0, 0.0, 0.0, 0.0, 0.0, 0.0, 0.0, 1.695763088752016E9, 0.0, 2023-09-26 16:18:08.752
146.0, 57031.079474816266, 62325.090149055744, -22662.25488928019, -30173.849186164047, -3001.5263559253644, -1344.2115597977115, -187500.02235174447, 7613.6523620667895, 36918.33161334177, -7444.8072844514, 9548.352306884803, -1456.7525931301825, 20977.000412583402, 9103.597295713103, -17226.914134849805, -44275.967094417465, 0.134, 0.99, 0.168, 192.0, 0.0, 0.0, 0.0, 0.0, 0.0, 0.0, 0.0, 0.0, 0.0, 1.695763088752031E9, 0.0, 2023-09-26 16:18:08.752
148.0, 57021.37881772266, 62318.161108274595, -22675.375363275452, -30183.54984325765, -3018.2231090334785, -1346.804362154527, -187500.02235174447, 7605.270457896049, 36952.08274746928, -7453.591520022335, 9521.709027494077, -1481.026587608646, 20996.87111340417, 9092.063795574164, -17252.46217876222, -44295.614277793684, 0.136, 0.988, 0.166, 192.0, 2.0, 32.0, 15.0, 112.0, 2.5, 24.0, 0.0, 0.0, 0.0, 1.695763088752048E9, 0.0, 2023-09-26 16:18:08.752
150.0, 57027.48084395896, 62326.341846745236, -22670.167406817367, -30171.68106695188, -2996.8101378452943, -1338.8471411284377, -187500.02235174447, 7616.826309779443, 36909.32386032627, -7445.6566507407015, 9539.36690561377, -1461.737032143716, 20992.892502891125, 9102.055025345686, -17235.541908209554, -44261.59492273271, 0.136, 0.988, 0.166, 192.0, 0.0, 0.0, 0.0, 0.0, 0.0, 0.0, 0.0, 0.0, 0.0, 1.695763088752064E9, 0.0, 2023-09-26 16:18:08.752
152.0, 57035.72863766297, 62337.20479455052, -22666.747589915703, -30165.10965408202, -2990.7975185868168, -1333.3709637368875, -187500.02235174447, 7623.375370904848, 36932.23439839297, -7440.247528582518, 9529.018047930962, -1466.0732705680455, 21010.617436244185, 9103.440833501916, -17247.298925793046, -44266.48995476842, 0.136, 0.988, 0.166, 192.0, 0.0, 0.0, 0.0, 0.0, 0.0, 0.0, 0.0, 0.0, 0.0, 1.695763088811615E9, 0.0, 2023-09-26 16:18:08.811
154.0, 57030.74419864943, 62336.824814894775, -22670.077999839545, -30171.278735551685, -2987.981198785448, -1334.421495726287, -187500.02235174447, 7621.6319348373345, 36907.69218298104, -7426.076522597853, 9541.535024825935, -1450.5388081716071, 20993.093668591224, 9116.248383074806, -17234.491376220154, -44249.72614642694, 0.136, 0.988, 0.166, 192.0, 0.0, 0.0, 0.0, 0.0, 0.0, 0.0, 0.0, 0.0, 0.0, 1.695763088811644E9, 0.0, 2023-09-26 16:18:08.811
156.0, 57027.59260268124, 62331.77332064788, -22675.800046420103, -30191.37295381701, -2988.49528890792, -1352.258187801622, -187500.02235174447, 7617.675676068745, 36927.652290779624, -7432.491473256526, 9526.112321151772, -1465.7826978901267, 21019.3122648373, 9126.306668079695, -17251.255184561633, -44279.69983574151, 0.136, 0.988, 0.166, 192.0, 0.0, 0.0, 0.0, 0.0, 0.0, 0.0, 0.0, 0.0, 0.0, 1.69576308881166E9, 0.0, 2023-09-26 16:18:08.811
158.0, 57030.14070154914, 62335.8636898832, -22667.507549227186, -30191.842340450567, -2990.5292976533533, -1351.6546907013287, -187500.02235174447, 7624.1576819607835, 36913.72715398397, -7421.784987662433, 9534.829501489343, -1461.8487908659924, 20994.2559593029, 9087.548743194193, -17237.88884137736, -44269.9991786479, 0.132, 0.99, 0.17200000000000001, 192.0, 2.0, 16.0, 15.0, 120.0, 2.5, 48.0, 0.0, 0.0, 0.0, 1.695763088811712E9, 0.0, 2023-09-26 16:18:08.811
160.0, 57025.04450381333, 62329.87342236918, -22669.139226572424, -30207.55561680265, -2999.8052716023058, -1363.7469844516497, -187500.02235174447, 7647.8728828278645, 36922.2655203659, -7425.964763875576, 9528.258088619481, -1473.2928840271097, 21002.481401262452, 9072.349556964584, -17249.444693260753, -44285.131309644144, 0.132, 0.99, 0.17200000000000001, 192.0, 0.0, 0.0, 0.0, 0.0, 0.0, 0.0, 0.0, 0.0, 0.0, 1.695763088811728E9, 0.0, 2023-09-26 16:18:08.811
162.0, 57027.54789919232, 62333.09207357074, -22659.52797645664, -30206.035698179687, -3003.7391786264398, -1369.4019757988426, -187500.02235174447, 7632.494882642613, 36923.51721805539, -7441.163950105185, 9533.019010188462, -1473.5611049605734, 21009.723366465973, 9082.541952436204, -17238.917021622303, -44272.77079496036, 0.132, 0.99, 0.17200000000000001, 192.0, 0.0, 0.0, 0.0, 0.0, 0.0, 0.0, 0.0, 0.0, 0.0, 1.695763088811742E9, 0.0, 2023-09-26 16:18:08.811
164.0, 57024.79863462432, 62326.31949500078, -22656.778711888637, -30201.721811499814, -2992.965637798982, -1373.380586311887, -187500.02235174447, 7630.751446575099, 36920.186808131555, -7445.679002485157, 9530.269745620459, -1475.0810235835343, 21000.179171583553, 9075.456449443871, -17239.855794889427, -44279.409263063586, 0.132, 0.99, 0.17200000000000001, 192.0, 0.0, 0.0, 0.0, 0.0, 0.0, 0.0, 0.0, 0.0, 0.0, 1.695763088811758E9, 0.0, 2023-09-26 16:18:08.811
166.0, 57027.72671314797, 62326.52066070088, -22652.554232186587, -30193.07168639561, -2998.240649490434, -1364.1716675963007, -187500.02235174447, 7615.596963834401, 36933.329633871275, -7453.323299088872, 9532.057885176884, -1471.8400206375147, 20999.195694827522, 9085.201810026385, -17229.484585462164, -44270.312103070275, 0.132, 0.99, 0.17200000000000001, 192.0, 0.0, 0.0, 0.0, 0.0, 0.0, 0.0, 0.0, 0.0, 0.0, 1.695763088870572E9, 0.0, 2023-09-26 16:18:08.870
168.0, 57024.776282879866, 62323.81609962179, -22658.186871789323, -30186.321459570107, -3000.3864169581434, -1363.970501896203, -187500.02235174447, 7626.146987217306, 36926.44529657904, -7442.482703028048, 9538.31637362437, -1463.9498548447914, 21016.853572947213, 9079.859743101566, -17226.2659342606, -44259.270341309355, 0.13, 0.994, 0.17200000000000001, 192.0, 2.0, 8.0, 15.5, 8.0, 2.5, 48.0, 0.0, 0.0, 0.0, 1.695763088870616E9, 0.0, 2023-09-26 16:18:08.870
170.0, 57039.97546910948, 62340.82577715228, -22644.90993558287, -30170.96581112931, -2984.5837336282416, -1343.6974696752393, -187500.02235174447, 7624.738827316622, 36947.388881133666, -7446.327203074361, 9533.443693333113, -1461.8711426104478, 20997.832238415747, 9085.291217004207, -17227.495280205643, -44254.91175114057, 0.13, 0.994, 0.17200000000000001, 192.0, 0.0, 0.0, 0.0, 0.0, 0.0, 0.0, 0.0, 0.0, 0.0, 1.695763088870633E9, 0.0, 2023-09-26 16:18:08.870
172.0, 57032.308820761304, 62331.05806482531, -22655.281145010133, -30179.928860655888, -2989.9034488086045, -1344.6809464312728, -187500.02235174447, 7629.343286674415, 36924.70186051153, -7429.049304610408, 9544.17253067166, -1444.056802279568, 20997.072279104268, 9110.951019638898, -17214.374806210377, -44243.35589925717, 0.13, 0.994, 0.17200000000000001, 192.0, 0.0, 0.0, 0.0, 0.0, 0.0, 0.0, 0.0, 0.0, 0.0, 1.695763088870649E9, 0.0, 2023-09-26 16:18:08.870
174.0, 57026.63147766966, 62323.39141647714, -22665.361781759475, -30186.50027352575, -3001.21343150299, -1352.414650012809, -187500.02235174447, 7614.680542311734, 36956.41898589361, -7448.070639141874, 9531.40968458768, -1464.2404275227104, 21004.69422396353, 9086.27469376024, -17235.005466342624, -44266.62406523515, 0.13, 0.994, 0.17200000000000001, 192.0, 0.0, 0.0, 0.0, 0.0, 0.0, 0.0, 0.0, 0.0, 0.0, 1.695763088870665E9, 0.0, 2023-09-26 16:18:08.870
176.0, 57013.98039030795, 62316.28356174035, -22668.133398071936, -30186.947308414856, -3000.8334518472498, -1353.5098854911191, -187500.02235174447, 7620.0449609810075, 36913.324822583774, -7449.367040320282, 9525.777044984943, -1468.2413897802103, 20993.25013080241, 9051.115399732042, -17241.867451890404, -44269.686254225526, 0.13, 0.994, 0.17200000000000001, 192.0, 0.0, 0.0, 0.0, 0.0, 0.0, 0.0, 0.0, 0.0, 0.0, 1.695763088870679E9, 0.0, 2023-09-26 16:18:08.870
178.0, 57024.19513752403, 62327.6605996681, -22658.47744446724, -30179.21360483332, -2992.563306398786, -1349.7324406781722, -187500.02235174447, 7613.026513222041, 36950.16049744612, -7447.623604252769, 9517.372789069746, -1476.3774247619422, 21005.34242455273, 9053.015298010743, -17246.471911248198, -44275.16243161708, 0.134, 0.988, 0.17200000000000001, 192.0, 2.0, 24.0, 15.0, 112.0, 2.5, 48.0, 0.0, 0.0, 0.0, 1.695763088870696E9, 0.0, 2023-09-26 16:18:08.870
180.0, 57023.09990204572, 62325.939515345046, -22654.163557787368, -30164.05912209262, -2984.851954561705, -1342.4681237301975, -187500.02235174447, 7631.600812864401, 36909.97206091548, -7426.61296446478, 9539.344553869314, -1453.0422035506015, 21009.701014721515, 9096.780013654234, -17219.828631857472, -44250.866085394155, 0.134, 0.988, 0.17200000000000001, 192.0, 0.0, 0.0, 0.0, 0.0, 0.0, 0.0, 0.0, 0.0, 0.0, 1.69576308887075E9, 0.0, 2023-09-26 16:18:08.870
182.0, 57021.490576444936, 62322.47499495447, -22657.2480985222, -30166.74133142726, -2992.943286054526, -1351.7664494236053, -187500.02235174447, 7612.244202166105, 36944.41609912111, -7448.540025775436, 9520.300867593392, -1468.442555480308, 21031.270448120886, 9084.88888560401, -17240.436940245265, -44276.21296360648, 0.134, 0.988, 0.17200000000000001, 192.0, 0.0, 0.0, 0.0, 0.0, 0.0, 0.0, 0.0, 0.0, 0.0, 1.695763088930876E9, 0.0, 2023-09-26 16:18:08.930
184.0, 57003.36331169168, 62309.5556866593, -22672.49198824072, -30179.101846111043, -3010.6905711520403, -1363.5011152626414, -187500.02235174447, 7619.329705158438, 36899.17616834357, -7443.37677280626, 9527.386370585726, -1462.4299362218305, 20974.698182904503, 9083.771298381245, -17236.1677570543, -44273.441347294014, 0.134, 0.988, 0.17200000000000001, 192.0, 0.0, 0.0, 0.0, 0.0, 0.0, 0.0, 0.0, 0.0, 0.0, 1.695763088930906E9, 0.0, 2023-09-26 16:18:08.930
186.0, 57020.0600647998, 62321.446814709525, -22670.033296350633, -30178.721866455304, -3005.147338527124, -1371.0113013996247, -187500.02235174447, 7613.853527766887, 36946.40540437763, -7445.030801895953, 9514.020027401451, -1473.9857881052242, 20990.09853483421, 9075.277635488228, -17247.723608937697, -44283.27611485435, 0.134, 0.988, 0.17200000000000001, 192.0, 0.0, 0.0, 0.0, 0.0, 0.0, 0.0, 0.0, 0.0, 0.0, 1.695763088930928E9, 0.0, 2023-09-26 16:18:08.930
188.0, 57022.83168111226, 62328.97935259096, -22656.264621766168, -30163.701494181336, -3003.314495481789, -1356.5273709925857, -187500.02235174447, 7625.141158716818, 36906.84281669174, -7444.315546073383, 9528.906289208686, -1465.514476956663, 20983.705935919996, 9106.592429470114, -17234.021989586592, -44271.58615250423, 0.132, 0.99, 0.17200000000000001, 192.0, 2.0, 16.0, 15.0, 120.0, 2.5, 48.0, 0.0, 0.0, 0.0, 1.695763088930943E9, 0.0, 2023-09-26 16:18:08.930
190.0, 57026.27384975837, 62332.33211425926, -22654.297668254098, -30162.561555214117, -3000.8334518472498, -1360.707147205728, -187500.02235174447, 7618.636801080323, 36961.11285222922, -7433.363191290283, 9533.51074856648, -1463.5698751890511, 21020.74277648244, 9066.895731317489, -17237.0171233436, -44268.47926002494, 0.132, 0.99, 0.17200000000000001, 192.0, 0.0, 0.0, 0.0, 0.0, 0.0, 0.0, 0.0, 0.0, 0.0, 1.695763088930957E9, 0.0, 2023-09-26 16:18:08.930
192.0, 57011.11936701767, 62318.74225363044, -22662.791331147117, -30183.30397406864, -3001.9957425589255, -1355.387432025365, -187500.02235174447, 7629.6785628412445, 36917.191674374546, -7427.663496454179, 9536.483530579035, -1458.9430640868027, 20992.378412768652, 9096.42238574295, -17231.3174285075, -44260.76790818786, 0.132, 0.99, 0.17200000000000001, 192.0, 0.0, 0.0, 0.0, 0.0, 0.0, 0.0, 0.0, 0.0, 0.0, 1.695763088930973E9, 0.0, 2023-09-26 16:18:08.930
194.0, 57020.28358224435, 62325.917163600585, -22652.598935675494, -30198.436105064884, -2989.434062175043, -1364.1046123629346, -187500.02235174447, 7632.3160686869705, 36947.79121253386, -7445.231967596051, 9524.525347295446, -1474.6339886944281, 21012.67379673407, 9181.157848973018, -17240.74986466764, -44285.57834453325, 0.132, 0.99, 0.17200000000000001, 192.0, 0.0, 0.0, 0.0, 0.0, 0.0, 0.0, 0.0, 0.0, 0.0, 1.695763088930988E9, 0.0, 2023-09-26 16:18:08.930
196.0, 57009.19711699452, 62314.04838729482, -22657.315153755564, -30154.559630699117, -2991.7139401094846, -1333.974460837181, -187500.02235174447, 7625.945821517208, 36918.577482530774, -7418.7675021609675, 9535.611812545278, -1456.9984623191908, 21005.185962341544, 9061.79953358168, -17226.467099960697, -44256.20815231898, 0.132, 0.99, 0.17200000000000001, 192.0, 0.0, 0.0, 0.0, 0.0, 0.0, 0.0, 0.0, 0.0, 0.0, 1.695763088991515E9, 0.0, 2023-09-26 16:18:08.991
198.0, 56992.43330865304, 62298.91625629858, -22666.926403871348, -30177.648982721446, -2999.134719268646, -1377.6497695028509, -187500.02235174447, 7616.98277199063, 36943.49967759844, -7447.5341972749475, 9520.12205363775, -1482.188878320322, 21011.48915427794, 9102.770281168256, -17243.253260046633, -44275.38594906163, 0.128, 0.99, 0.17400000000000002, 192.0, 2.0, 0.0, 15.0, 120.0, 2.5, 56.0, 0.0, 0.0, 0.0, 1.695763088991549E9, 0.0, 2023-09-26 16:18:08.991
200.0, 56987.56062836178, 62291.0037387614, -22665.808816648583, -30190.523587527703, -2991.1998499870124, -1381.7624904826273, -187500.02235174447, 7607.103300941384, 36903.55711025681, -7464.119191660785, 9526.671114763156, -1478.411433507375, 20987.19280805502, 9190.322064199694, -17227.472928461186, -44274.96126591698, 0.128, 0.99, 0.17400000000000002, 192.0, 0.0, 0.0, 0.0, 0.0, 0.0, 0.0, 0.0, 0.0, 0.0, 1.695763088991572E9, 0.0, 2023-09-26 16:18:08.991
202.0, 56986.19717195001, 62299.653863865606, -22661.38317124643, -30179.951212400345, -2983.823774316761, -1371.8606676889262, -187500.02235174447, 7619.955554003186, 36920.85736046521, -7470.914121975198, 9511.941315167107, -1489.8778784129477, 21012.651444989617, 9187.617503120602, -17235.676018676284, -44284.39370207712, 0.128, 0.99, 0.17400000000000002, 192.0, 0.0, 0.0, 0.0, 0.0, 0.0, 0.0, 0.0, 0.0, 0.0, 1.695763088991623E9, 0.0, 2023-09-26 16:18:08.991
204.0, 56993.57324762026, 62305.71118661299, -22658.320982256053, -30183.572195002103, -2971.5526666107976, -1369.5584380100297, -187500.02235174447, 7633.858339054387, 36886.122749581664, -7472.031709197964, 9519.205632115083, -1488.670884212361, 20987.19280805502, 9271.101268661174, -17218.30871323451, -44263.00308263339, 0.128, 0.99, 0.17400000000000002, 192.0, 0.0, 0.0, 0.0, 0.0, 0.0, 0.0, 0.0, 0.0, 0.0, 1.695763088991639E9, 0.0, 2023-09-26 16:18:08.991
206.0, 56985.057232982785, 62295.585846374735, -22668.803950405592, -30183.639250235472, -2985.8801348066495, -1366.451545530742, -187500.02235174447, 7655.383068964848, 36906.57459575828, -7446.260147840995, 9523.36305658377, -1484.3346457880314, 21016.473593291474, 9244.368582292627, -17220.700349891227, -44259.20328607599, 0.128, 0.99, 0.17400000000000002, 192.0, 0.0, 0.0, 0.0, 0.0, 0.0, 0.0, 0.0, 0.0, 0.0, 1.695763088991656E9, 0.0, 2023-09-26 16:18:08.991
208.0, 56983.42555563755, 62294.17768647405, -22662.72427591375, -30179.16890134441, -2984.8966580506158, -1359.0754698604906, -187500.02235174447, 7649.661022384289, 36889.11788333868, -7471.249398142028, 9511.762501211466, -1495.8457941825145, 20984.10826732019, 9264.060469157752, -17226.467099960697, -44256.34226278571, 0.122, 0.998, 0.18, 192.0, 1.5, 104.0, 15.5, 24.0, 2.5, 80.0, 0.0, 0.0, 0.0, 1.695763088991673E9, 0.0, 2023-09-26 16:18:08.991
210.0, 56979.91633175807, 62291.0037387614, -22663.10425556949, -30186.96966015931, -2975.4195184015657, -1361.2435890726554, -187500.02235174447, 7653.237301497138, 36891.040133361836, -7465.4379445836485, 9515.942277424607, -1485.899267899903, 21017.83704970325, 9241.194634579973, -17218.331064978967, -44253.30242553978, 0.122, 0.998, 0.18, 192.0, 0.0, 0.0, 0.0, 0.0, 0.0, 0.0, 0.0, 0.0, 0.0, 1.69576308899169E9, 0.0, 2023-09-26 16:18:08.991
212.0, 56961.431439093525, 62279.224369433454, -22673.944851630313, -30204.046392923166, -2984.0249400168586, -1385.8528597179486, -187500.02235174447, 7617.429806879736, 36887.39679901562, -7456.899578201721, 9502.710044707066, -1494.5493930041068, 20986.58931095473, 9197.452270680937, -17231.965629096703, -44273.7989752053, 0.122, 0.998, 0.18, 192.0, 0.0, 0.0, 0.0, 0.0, 0.0, 0.0, 0.0, 0.0, 0.0, 1.695763089051564E9, 0.0, 2023-09-26 16:18:09.051
214.0, 56949.80853197677, 62274.37404088665, -22678.169331332367, -30220.69844254237, -2980.82864055975, -1384.8917347063702, -187500.02235174447, 7620.760216803577, 36871.28119126334, -7476.971444722587, 9500.698387706088, -1493.7447302037158, 20988.086877833233, 9166.740973799346, -17231.3174285075, -44284.013722421376, 0.122, 0.998, 0.18, 192.0, 0.0, 0.0, 0.0, 0.0, 0.0, 0.0, 0.0, 0.0, 0.0, 1.695763089051612E9, 0.0, 2023-09-26 16:18:09.051
216.0, 56942.7900842178, 62265.00865995987, -22671.374401017954, -30202.191198133376, -2974.212524200979, -1392.8713074769148, -187500.02235174447, 7611.260725410071, 36891.598926973216, -7496.171593209696, 9497.435033015614, -1501.836061696537, 20986.499903976906, 9147.741991012334, -17230.915097107303, -44286.15948988909, 0.122, 0.998, 0.18, 192.0, 0.0, 0.0, 0.0, 0.0, 0.0, 0.0, 0.0, 0.0, 0.0, 1.695763089051627E9, 0.0, 2023-09-26 16:18:09.051
218.0, 56938.65501149357, 62266.774447771844, -22663.953621858793, -30184.890947924967, -2965.696509563507, -1376.3980718133537, -187500.02235174447, 7630.237356452627, 36866.363807483176, -7482.62643606978, 9499.625503972233, -1488.2685528121654, 20992.736040679938, 9137.348429840617, -17222.01910281409, -44285.10895789969, 0.124, 0.992, 0.166, 192.0, 1.5, 112.0, 15.5, 0.0, 2.5, 24.0, 0.0, 0.0, 0.0, 1.695763089051642E9, 0.0, 2023-09-26 16:18:09.051
220.0, 56928.6861334665, 62271.75888678538, -22663.707752669783, -30179.928860655888, -2968.4904776204203, -1373.4252898007978, -187500.02235174447, 7618.905022013787, 36888.11205483819, -7471.115287675297, 9504.40877728567, -1478.7467096742046, 21016.674758991572, 9055.228120711818, -17215.22417249968, -44265.61823673466, 0.124, 0.992, 0.166, 192.0, 0.0, 0.0, 0.0, 0.0, 0.0, 0.0, 0.0, 0.0, 0.0, 1.695763089051657E9, 0.0, 2023-09-26 16:18:09.051
222.0, 56894.197391771966, 62236.10785437917, -22683.332584301545, -30207.332099358096, -2982.4826696494424, -1405.2094704162444, -187500.02235174447, 7607.997370719597, 36846.47075491795, -7489.667235573201, 9487.801431155376, -1493.185936592333, 21007.689357720537, 9042.442922883383, -17230.401006984834, -44288.551126545804, 0.124, 0.992, 0.166, 192.0, 0.0, 0.0, 0.0, 0.0, 0.0, 0.0, 0.0, 0.0, 0.0, 1.695763089051671E9, 0.0, 2023-09-26 16:18:09.051
224.0, 56898.06424356273, 62257.92315696755, -22670.234462050732, -30192.244671850764, -2975.821849801761, -1394.033598188591, -187500.02235174447, 7602.45413809468, 36872.3540749972, -7503.122985735296, 9469.428297213113, -1508.8545094555034, 20961.018915297856, 9049.260204942251, -17243.476777491185, -44305.560804076296, 0.124, 0.992, 0.166, 192.0, 0.0, 0.0, 0.0, 0.0, 0.0, 0.0, 0.0, 0.0, 0.0, 1.695763089051739E9, 0.0, 2023-09-26 16:18:09.051
226.0, 56889.79409811427, 62239.304153836274, -22671.642621951418, -30188.73544797128, -2968.758698553884, -1388.222144630211, -187500.02235174447, 7628.203347707195, 36835.89837979059, -7493.891715275254, 9482.749936908476, -1496.2257738382548, 20966.360982222675, 9070.31554821915, -17227.718797650195, -44287.27707711185, 0.124, 0.992, 0.166, 192.0, 0.0, 0.0, 0.0, 0.0, 0.0, 0.0, 0.0, 0.0, 0.0, 1.695763089051756E9, 0.0, 2023-09-26 16:18:09.051
228.0, 56889.25765624734, 62236.82311020173, -22677.4540755098, -30185.673258980903, -2976.8053265577946, -1384.6682172618173, -187500.02235174447, 7625.655248839289, 36875.796243643315, -7492.192982696651, 9478.592512439789, -1500.025570395657, 20975.43579047153, 9071.164914508452, -17231.36213199641, -44280.99623691991, 0.122, 0.996, 0.17, 192.0, 1.5, 104.0, 15.5, 16.0, 2.5, 40.0, 0.0, 0.0, 0.0, 1.695763089111245E9, 0.0, 2023-09-26 16:18:09.111
230.0, 56874.10317350664, 62231.72691246592, -22678.571662732564, -30185.047410136154, -2976.6488643466073, -1375.6604642463285, -187500.02235174447, 7644.095438014918, 36831.51743787735, -7501.446604901148, 9472.87046585923, -1508.5192332886736, 20960.86245308667, 9072.103687775576, -17234.871355875894, -44275.0506728948, 0.122, 0.996, 0.17, 192.0, 0.0, 0.0, 0.0, 0.0, 0.0, 0.0, 0.0, 0.0, 0.0, 1.695763089111277E9, 0.0, 2023-09-26 16:18:09.111
232.0, 56885.41315620103, 62246.993153928895, -22674.704810941796, -30186.433218292383, -2981.789765571328, -1383.3047608500435, -187500.02235174447, 7625.588193605923, 36865.69325514952, -7477.865514500799, 9467.617805912234, -1517.7505037487156, 20988.220988299967, 9070.248492985786, -17239.766387911604, -44279.83394620824, 0.122, 0.996, 0.17, 192.0, 0.0, 0.0, 0.0, 0.0, 0.0, 0.0, 0.0, 0.0, 0.0, 1.695763089111299E9, 0.0, 2023-09-26 16:18:09.111
234.0, 56891.47047894842, 62250.97176444194, -22669.116874827967, -30170.384665773472, -2965.7412130524176, -1375.191077612767, -187500.02235174447, 7632.405475664792, 36823.82843778472, -7493.8470117863435, 9486.460326488057, -1492.8283086810482, 20972.44065671452, 9093.740176408313, -17221.057977802513, -44264.18772508952, 0.122, 0.996, 0.17, 192.0, 0.0, 0.0, 0.0, 0.0, 0.0, 0.0, 0.0, 0.0, 0.0, 1.695763089111313E9, 0.0, 2023-09-26 16:18:09.111
236.0, 56887.73773762438, 62245.42853181703, -22682.438514523332, -30184.756837458237, -2980.7392335819286, -1387.4845370631858, -187500.02235174447, 7611.640705065812, 36866.2520487609, -7506.900430548243, 9475.932654849608, -1495.376407548953, 20998.9051221496, 9116.04721737471, -17236.726550665684, -44284.41605382157, 0.122, 0.996, 0.17, 192.0, 0.0, 0.0, 0.0, 0.0, 0.0, 0.0, 0.0, 0.0, 0.0, 1.695763089111328E9, 0.0, 2023-09-26 16:18:09.111
238.0, 56869.856342060135, 62230.989304898896, -22699.671709498372, -30190.32242182761, -2988.11530925218, -1395.352351111454, -187500.02235174447, 7606.611562563367, 36825.57187385224, -7497.669160088201, 9474.30097750437, -1500.2714395846654, 20981.0013748409, 9078.183362267418, -17241.062789090014, -44286.27124861137, 0.122, 1.0, 0.176, 192.0, 1.5, 104.0, 15.5, 32.0, 2.5, 64.0, 0.0, 0.0, 0.0, 1.695763089111344E9, 0.0, 2023-09-26 16:18:09.111
240.0, 56864.71544083541, 62223.41206352855, -22704.007947922702, -30204.761648745734, -3001.8616320921938, -1406.774092528116, -187500.02235174447, 7601.291847383005, 36868.53192669534, -7504.732311336078, 9447.568291135824, -1524.8136549965925, 20966.405685711587, 9076.015243055253, -17271.1258853824, -44313.316859402286, 0.122, 1.0, 0.176, 192.0, 0.0, 0.0, 0.0, 0.0, 0.0, 0.0, 0.0, 0.0, 0.0, 1.695763089111362E9, 0.0, 2023-09-26 16:18:09.111
242.0, 56882.10509802164, 62250.278860363826, -22687.3558983035, -30183.885119424478, -2988.718806352473, -1391.8207754875154, -187500.02235174447, 7621.654286581789, 36827.18119945302, -7504.240572958061, 9459.481770930503, -1516.3870473369418, 20955.18510999502, 9095.841240387112, -17257.916004409315, -44297.00008594991, 0.122, 1.0, 0.176, 192.0, 0.0, 0.0, 0.0, 0.0, 0.0, 0.0, 0.0, 0.0, 0.0, 1.695763089171574E9, 0.0, 2023-09-26 16:18:09.171
244.0, 56876.695975863455, 62237.38190381312, -22697.63770075294, -30190.612994505525, -3003.02392280387, -1406.3941128723757, -187500.02235174447, 7606.969190474652, 36874.879822120645, -7495.992779254053, 9462.119276776228, -1506.082893143045, 20992.646633702116, 9112.537993495225, -17260.50880676613, -44298.18472840604, 0.122, 1.0, 0.176, 192.0, 0.0, 0.0, 0.0, 0.0, 0.0, 0.0, 0.0, 0.0, 0.0, 1.695763089171606E9, 0.0, 2023-09-26 16:18:09.171
246.0, 56890.37524347011, 62249.429494074524, -22677.0517441096, -30175.078532109088, -2986.528335395853, -1392.156051654345, -187500.02235174447, 7614.188803933716, 36837.46300190246, -7505.402863669738, 9470.367070480237, -1502.0819308855453, 20963.43290369903, 9127.983048913842, -17248.774140927093, -44288.126443401154, 0.122, 1.0, 0.176, 192.0, 0.0, 0.0, 0.0, 0.0, 0.0, 0.0, 0.0, 0.0, 0.0, 1.695763089171717E9, 0.0, 2023-09-26 16:18:09.171
248.0, 56895.985531328384, 62253.89984296559, -22687.11002911449, -30176.59845073205, -2990.886925564638, -1395.8440894894707, -187500.02235174447, 7608.958495731175, 36872.018798830366, -7498.876154288788, 9465.7849628669, -1501.053750640601, 20992.57957846875, 9122.819795944666, -17255.233795074677, -44297.24595513892, 0.12, 0.996, 0.17200000000000001, 192.0, 1.5, 96.0, 15.5, 16.0, 2.5, 48.0, 0.0, 0.0, 0.0, 1.695763089171733E9, 0.0, 2023-09-26 16:18:09.171
250.0, 56890.73287138139, 62250.74824699739, -22695.73780247424, -30186.679087481392, -2994.7984808443166, -1396.224069145211, -187500.02235174447, 7604.354036373382, 36852.10339452069, -7488.706110561623, 9473.563369937345, -1492.8059569365928, 20977.648613172605, 9124.786749456734, -17248.349457782442, -44287.14296664512, 0.12, 0.996, 0.17200000000000001, 192.0, 0.0, 0.0, 0.0, 0.0, 0.0, 0.0, 0.0, 0.0, 0.0, 1.695763089171751E9, 0.0, 2023-09-26 16:18:09.171
252.0, 56892.45395570445, 62251.6423167756, -22698.420011808874, -30185.53914851417, -3005.1026350382135, -1400.6497145473618, -187500.02235174447, 7604.1975741621945, 36872.82346163076, -7487.074433216386, 9453.133875505195, -1511.9390501903356, 20990.456162745497, 9112.001551628298, -17275.26095810663, -44310.34407738973, 0.12, 0.996, 0.17200000000000001, 192.0, 0.0, 0.0, 0.0, 0.0, 0.0, 0.0, 0.0, 0.0, 0.0, 1.695763089171771E9, 0.0, 2023-09-26 16:18:09.171
254.0, 56904.34508375467, 62253.81043598777, -22687.53471225914, -30173.983296630777, -3006.5107949388976, -1389.7197115087167, -187500.02235174447, 7597.827326992432, 36859.83709810222, -7500.10550023383, 9468.847151857275, -1495.1528901044, 20964.550490921796, 9145.909147966999, -17260.64291723286, -44291.23333588044, 0.12, 0.996, 0.17200000000000001, 192.0, 0.0, 0.0, 0.0, 0.0, 0.0, 0.0, 0.0, 0.0, 0.0, 1.695763089171787E9, 0.0, 2023-09-26 16:18:09.171
0.0, 56918.31492403924, 62267.690869294514, -22681.2538720672, -30163.25445929223, -3001.3922454586323, -1373.1347171228788, -187500.02235174447, 7623.50948137158, 36879.43957798953, -7490.650712329235, 9467.550750678867, -1484.8487359105036, 20976.91100560558, 9128.89947043651, -17264.1744928568, -44289.48989981293, 0.12, 0.996, 0.17200000000000001, 192.0, 0.0, 0.0, 0.0, 0.0, 0.0, 0.0, 0.0, 0.0, 0.0, 1.695763089171803E9, 0.0, 2023-09-26 16:18:09.171
2.0, 56931.74832245688, 62279.649052578105, -22670.61444170647, -30154.425520232384, -2998.3524082127105, -1368.6867199762726, -187500.02235174447, 7619.262649925072, 36888.246165304925, -7463.359232349305, 9482.92875086412, -1459.6359681649171, 20972.306546247786, 9162.985880730854, -17243.119149579903, -44268.00987339138, 0.126, 0.992, 0.17200000000000001, 192.0, 1.5, 120.0, 15.5, 0.0, 2.5, 48.0, 0.0, 0.0, 0.0, 1.695763089233248E9, 0.0, 2023-09-26 16:18:09.233
4.0, 56924.662819464545, 62275.46927636496, -22683.44434302382, -30162.606258703025, -2999.40294020211, -1372.8441444449597, -187500.02235174447, 7618.770911547054, 36888.87201414967, -7466.980214951064, 9471.216436769539, -1471.3035787705874, 20995.082973847744, 9163.09763945313, -17263.146312611858, -44291.970943447464, 0.126, 0.992, 0.17200000000000001, 192.0, 0.0, 0.0, 0.0, 0.0, 0.0, 0.0, 0.0, 0.0, 0.0, 1.695763089233287E9, 0.0, 2023-09-26 16:18:09.233
6.0, 56931.8377294347, 62282.19715144601, -22679.130456343944, -30165.355523271028, -3007.5166234393864, -1376.3980718133537, -187500.02235174447, 7609.271420153549, 36900.65138347762, -7456.47489505707, 9477.609035683756, -1459.5018576981852, 20974.09468580421, 9172.597130846636, -17254.227966574188, -44279.72218748596, 0.126, 0.992, 0.17200000000000001, 192.0, 0.0, 0.0, 0.0, 0.0, 0.0, 0.0, 0.0, 0.0, 0.0, 1.695763089233302E9, 0.0, 2023-09-26 16:18:09.233
8.0, 56932.441226535, 62283.337090413224, -22682.885549412436, -30170.295258795653, -3007.538975183842, -1377.515659036119, -187500.02235174447, 7618.703856313688, 36874.92452560956, -7459.402973580715, 9471.529361191913, -1464.7768693896378, 20976.419267227564, 9162.248273163828, -17265.292080079565, -44289.75812074639, 0.126, 0.992, 0.17200000000000001, 192.0, 0.0, 0.0, 0.0, 0.0, 0.0, 0.0, 0.0, 0.0, 0.0, 1.695763089233316E9, 0.0, 2023-09-26 16:18:09.233
10.0, 56939.54908127178, 62286.75690731489, -22680.71743020027, -30175.34675304255, -3011.9869723304478, -1383.3047608500435, -187500.02235174447, 7595.078062424429, 36901.12077011118, -7469.282444629961, 9475.530323449413, -1464.2627792671656, 20978.542682950818, 9168.372651144582, -17261.51463526662, -44284.97484743295, 0.126, 0.992, 0.17200000000000001, 192.0, 0.0, 0.0, 0.0, 0.0, 0.0, 0.0, 0.0, 0.0, 0.0, 1.695763089233331E9, 0.0, 2023-09-26 16:18:09.233
12.0, 56934.877566680625, 62279.716107811466, -22679.622194721964, -30177.559575743628, -3012.210489775001, -1382.4553945607418, -187500.02235174447, 7605.7845480185215, 36880.93714486804, -7462.778086993467, 9484.091041575795, -1461.446459465797, 20981.269595774367, 9167.322119155184, -17260.307641066032, -44281.711492742485, 0.128, 0.992, 0.17400000000000002, 192.0, 2.0, 0.0, 15.5, 0.0, 2.5, 56.0, 0.0, 0.0, 0.0, 1.695763089233383E9, 0.0, 2023-09-26 16:18:09.233
14.0, 56944.444113307494, 62289.48382013844, -22670.793255662116, -30171.81517741861, -3005.8178908607833, -1379.1026328924459, -187500.02235174447, 7603.88464973982, 36912.18488361655, -7468.7236510185785, 9481.006500840962, -1462.5416949441071, 20989.159761567087, 9167.05389822172, -17259.88295792138, -44278.44813805201, 0.128, 0.992, 0.17400000000000002, 192.0, 0.0, 0.0, 0.0, 0.0, 0.0, 0.0, 0.0, 0.0, 0.0, 1.695763089233398E9, 0.0, 2023-09-26 16:18:09.233
16.0, 56948.154502887075, 62286.04165149232, -22680.382154033443, -30173.469206508307, -3004.9685245714813, -1379.3261503369988, -187500.02235174447, 7611.618353321356, 36886.52508098186, -7465.393241094737, 9482.392308997192, -1456.0149855631573, 20996.44643025952, 9197.787546847767, -17257.245452075655, -44277.934047929535, 0.128, 0.992, 0.17400000000000002, 192.0, 0.0, 0.0, 0.0, 0.0, 0.0, 0.0, 0.0, 0.0, 0.0, 1.695763089291112E9, 0.0, 2023-09-26 16:18:09.291
18.0, 56965.007718206376, 62298.871552809665, -22663.43953173632, -30166.964848871812, -3011.9422688415375, -1377.0909758914681, -187500.02235174447, 7599.257838637572, 36927.20525589052, -7464.163895149696, 9484.269855531438, -1452.7963343615932, 21010.2598083329, 9163.388212131049, -17264.085085878978, -44279.85629795269, 0.128, 0.992, 0.17400000000000002, 192.0, 0.0, 0.0, 0.0, 0.0, 0.0, 0.0, 0.0, 0.0, 0.0, 1.695763089291146E9, 0.0, 2023-09-26 16:18:09.291
20.0, 56964.8959594841, 62300.816154577275, -22667.082866082535, -30164.01441860371, -3003.40390245961, -1375.705167735239, -187500.02235174447, 7611.573649832446, 36887.15092982661, -7440.761618704989, 9501.905381906674, -1436.2113399757552, 20983.080087075246, 9192.020796778297, -17252.998620629147, -44267.22756233544, 0.128, 0.992, 0.17400000000000002, 192.0, 0.0, 0.0, 0.0, 0.0, 0.0, 0.0, 0.0, 0.0, 0.0, 1.69576308929116E9, 0.0, 2023-09-26 16:18:09.291
22.0, 56968.27107289685, 62306.26998022437, -22666.76994166016, -30163.9697151148, -3006.890774594638, -1379.192039870267, -187500.02235174447, 7591.747652500589, 36936.21300890601, -7452.5856915218465, 9491.668282946144, -1441.799276089582, 21002.906084407103, 9187.282226953772, -17269.874187692905, -44285.33247534424, 0.124, 0.992, 0.17400000000000002, 192.0, 1.5, 112.0, 15.5, 0.0, 2.5, 56.0, 0.0, 0.0, 0.0, 1.695763089291177E9, 0.0, 2023-09-26 16:18:09.291
24.0, 56968.762811274864, 62300.36911968817, -22670.413276006377, -30157.420653989397, -3001.3251902252664, -1376.4651270467195, -187500.02235174447, 7616.423978379247, 36883.39583675812, -7443.935566417643, 9502.26300981796, -1426.4659793932415, 20981.604871941196, 9213.232602266384, -17261.06760037751, -44269.127460614145, 0.124, 0.992, 0.17400000000000002, 192.0, 0.0, 0.0, 0.0, 0.0, 0.0, 0.0, 0.0, 0.0, 0.0, 1.695763089291194E9, 0.0, 2023-09-26 16:18:09.291
26.0, 56981.1009742142, 62314.71893962848, -22663.573642203053, -30151.184517286365, -2994.284390721845, -1370.2960455770549, -187500.02235174447, 7613.585306833424, 36935.1177734277, -7436.693601214123, 9494.194030069593, -1423.4708456362303, 21013.34434906773, 9219.960477347431, -17268.33191732549, -44271.76496645987, 0.124, 0.992, 0.17400000000000002, 192.0, 0.0, 0.0, 0.0, 0.0, 0.0, 0.0, 0.0, 0.0, 0.0, 1.695763089291207E9, 0.0, 2023-09-26 16:18:09.291
28.0, 56982.196209692505, 62320.19511702003, -22664.713581170272, -30153.77731964318, -3002.7780536148616, -1365.1104408634235, -187500.02235174447, 7621.497824370602, 36887.955592627004, -7441.454522783104, 9500.564277239357, -1413.2784501646104, 20979.68262191804, 9226.263669283828, -17261.536987011074, -44265.059443123275, 0.124, 0.992, 0.17400000000000002, 192.0, 0.0, 0.0, 0.0, 0.0, 0.0, 0.0, 0.0, 0.0, 0.0, 1.695763089291222E9, 0.0, 2023-09-26 16:18:09.291
30.0, 56992.343901675216, 62321.91620134309, -22663.998325347704, -30148.904639351924, -3001.056969291803, -1358.583731482474, -187500.02235174447, 7630.371466919359, 36937.82233450679, -7427.015295864975, 9504.229963330026, -1410.931516996803, 21035.807852245314, 9236.25489905535, -17261.961670155724, -44265.28296056783, 0.124, 0.992, 0.17400000000000002, 192.0, 0.0, 0.0, 0.0, 0.0, 0.0, 0.0, 0.0, 0.0, 0.0, 1.695763089291237E9, 0.0, 2023-09-26 16:18:09.291
32.0, 56977.725860801445, 62305.66648312408, -22683.265529068176, -30164.84143314856, -3011.562289185797, -1369.7819554545827, -187500.02235174447, 7628.963307018675, 36895.06344736379, -7433.653763968202, 9503.335893551814, -1409.389246629387, 20982.11896206367, 9264.686318002501, -17260.08412362148, -44260.745556443406, 0.124, 0.988, 0.17400000000000002, 192.0, 1.5, 112.0, 15.0, 112.0, 2.5, 56.0, 0.0, 0.0, 0.0, 1.695763089350977E9, 0.0, 2023-09-26 16:18:09.350
34.0, 56978.57522709075, 62307.56638140278, -22684.02548837966, -30164.662619192914, -3015.049161320825, -1369.4913827766638, -187500.02235174447, 7621.654286581789, 36936.86120949521, -7441.946261161121, 9483.532247964413, -1425.929537526314, 20995.77587792586, 9230.577555963702, -17283.575807044006, -44284.52781254385, 0.124, 0.988, 0.17400000000000002, 192.0, 0.0, 0.0, 0.0, 0.0, 0.0, 0.0, 0.0, 0.0, 0.0, 1.695763089351054E9, 0.0, 2023-09-26 16:18:09.351
36.0, 56983.582017848734, 62312.86374483869, -22670.905014384392, -30152.34680799804, -2995.7372541114396, -1363.1211356069011, -187500.02235174447, 7626.012876750574, 36896.18103458655, -7444.561415262391, 9495.110451592262, -1413.7254850537165, 20968.998488068402, 9230.085817585685, -17261.157007355334, -44264.14302160061, 0.124, 0.988, 0.17400000000000002, 192.0, 0.0, 0.0, 0.0, 0.0, 0.0, 0.0, 0.0, 0.0, 0.0, 1.695763089351073E9, 0.0, 2023-09-26 16:18:09.351
38.0, 56994.288503442825, 62321.871497854176, -22665.428836992844, -30151.29627600864, -2996.4301581895543, -1361.6682722173064, -187500.02235174447, 7627.063408739974, 36923.51721805539, -7439.912252415687, 9492.852925402276, -1414.70896180975, 21001.319110550776, 9243.720381703422, -17268.600138258953, -44271.40733854858, 0.124, 0.988, 0.17400000000000002, 192.0, 0.0, 0.0, 0.0, 0.0, 0.0, 0.0, 0.0, 0.0, 0.0, 1.695763089351088E9, 0.0, 2023-09-26 16:18:09.351
40.0, 56991.31572143027, 62318.00464606341, -22669.4521509948, -30150.804537630625, -3010.6682194075847, -1367.0550426310353, -187500.02235174447, 7613.719417300155, 36888.1567583271, -7427.439979009626, 9507.247448831493, -1403.1084064374456, 20997.519313993373, 9255.097419631174, -17259.07829512099, -44260.49968725439, 0.124, 0.988, 0.17400000000000002, 192.0, 0.0, 0.0, 0.0, 0.0, 0.0, 0.0, 0.0, 0.0, 0.0, 1.695763089351102E9, 0.0, 2023-09-26 16:18:09.351
42.0, 56993.729709831445, 62318.6081431637, -22671.597918462507, -30155.29723826614, -3014.6021264317187, -1374.7663944681162, -187500.02235174447, 7609.450234109192, 36915.40353481812, -7427.439979009626, 9498.6420272162, -1405.2988773940656, 21022.64267476114, 9243.78743693679, -17273.04813540556, -44279.9010014416, 0.11800000000000001, 0.99, 0.178, 192.0, 1.5, 88.0, 15.0, 120.0, 2.5, 72.0, 0.0, 0.0, 0.0, 1.695763089351118E9, 0.0, 2023-09-26 16:18:09.351
44.0, 56997.21658196647, 62317.602314663214, -22665.741761415215, -30152.659732420416, -3012.188138030546, -1377.94034218077, -187500.02235174447, 7602.163565416761, 36894.97404038597, -7439.621679737768, 9506.934524409118, -1398.5262988241077, 20985.427020243053, 9248.056620127752, -17261.46993177771, -44270.06623388127, 0.11800000000000001, 0.99, 0.178, 192.0, 0.0, 0.0, 0.0, 0.0, 0.0, 0.0, 0.0, 0.0, 0.0, 1.695763089351132E9, 0.0, 2023-09-26 16:18:09.351
46.0, 56996.702491844, 62319.636323408646, -22672.96137487428, -30153.464395220806, -3016.9043561106155, -1376.487478791175, -187500.02235174447, 7608.802033519988, 36906.46283703599, -7434.369019790772, 9502.575934240334, -1401.1414529253784, 20990.9031976346, 9248.257785827851, -17270.79060921557, -44280.54920203081, 0.11800000000000001, 0.99, 0.178, 192.0, 0.0, 0.0, 0.0, 0.0, 0.0, 0.0, 0.0, 0.0, 0.0, 1.69576308941134E9, 0.0, 2023-09-26 16:18:09.411
48.0, 57002.51394540238, 62325.85010836722, -22660.265584023666, -30148.72582539628, -3006.086111794247, -1365.579827496985, -187500.02235174447, 7610.321952142948, 36900.58432824425, -7425.316563286372, 9508.566201754356, -1392.4689760767194, 20980.62139518516, 9254.87390218662, -17259.480626521185, -44262.64545472211, 0.11800000000000001, 0.99, 0.178, 192.0, 0.0, 0.0, 0.0, 0.0, 0.0, 0.0, 0.0, 0.0, 0.0, 1.69576308941137E9, 0.0, 2023-09-26 16:18:09.411
50.0, 57000.97167503496, 62328.15233804612, -22664.557118959085, -30157.64417143395, -3010.8023298743165, -1368.7761269540938, -187500.02235174447, 7615.731074301133, 36903.1100753677, -7434.346668046316, 9503.648817974188, -1397.967505212725, 20988.57861621125, 9268.486114559902, -17268.354269069943, -44275.02832115034, 0.11800000000000001, 0.99, 0.178, 192.0, 0.0, 0.0, 0.0, 0.0, 0.0, 0.0, 0.0, 0.0, 0.0, 1.695763089411386E9, 0.0, 2023-09-26 16:18:09.411
52.0, 56997.59656162222, 62313.60135240571, -22666.077037582047, -30150.02222657469, -3014.490367709442, -1369.8266589434934, -187500.02235174447, 7602.521193328046, 36908.586252759254, -7444.04732513992, 9502.97826564053, -1402.7954820150712, 20981.0013748409, 9232.343343775672, -17274.4786470507, -44274.31306532778, 0.121, 0.989, 0.181, 192.0, 1.5, 112.0, 15.0, 112.0, 2.5, 96.0, 0.0, 0.0, 0.0, 1.695763089411402E9, 0.0, 2023-09-26 16:18:09.411
54.0, 56996.523677888355, 62315.34478847323, -22665.205319548288, -30147.71999689579, -3015.138568298646, -1369.93841766577, -187500.02235174447, 7616.088702212418, 36902.283060822854, -7437.52061575897, 9508.074463376339, -1398.638057546384, 20989.807962156294, 9248.034268383297, -17271.863492949426, -44275.542411272814, 0.121, 0.989, 0.181, 192.0, 0.0, 0.0, 0.0, 0.0, 0.0, 0.0, 0.0, 0.0, 0.0, 1.695763089411417E9, 0.0, 2023-09-26 16:18:09.411
56.0, 56998.75885233389, 62316.82000360728, -22663.886566625424, -30144.613104416505, -3012.6575246641073, -1370.6536734883398, -187500.02235174447, 7611.841870765909, 36920.812656976304, -7440.761618704989, 9503.78292844092, -1402.3931506148758, 21005.09655536372, 9245.530873004303, -17271.41645806032, -44273.39664380511, 0.121, 0.989, 0.181, 192.0, 0.0, 0.0, 0.0, 0.0, 0.0, 0.0, 0.0, 0.0, 0.0, 1.695763089411468E9, 0.0, 2023-09-26 16:18:09.411
58.0, 57004.9055820591, 62321.938553087544, -22659.416217734364, -30134.57717115607, -2999.8723268356716, -1361.1094786059236, -187500.02235174447, 7643.715458359177, 36902.10424686721, -7428.624621465758, 9510.399044799691, -1396.358179611943, 20987.371622010665, 9255.566806264736, -17265.85087369095, -44267.0487483798, 0.121, 0.989, 0.181, 192.0, 0.0, 0.0, 0.0, 0.0, 0.0, 0.0, 0.0, 0.0, 0.0, 1.695763089411482E9, 0.0, 2023-09-26 16:18:09.411
60.0, 57002.73746284693, 62311.81321284929, -22667.127569571447, -30142.86966834899, -3016.5243764548754, -1371.8159642000157, -187500.02235174447, 7609.6961032982, 36939.99045371896, -7445.991926907531, 9509.393216299202, -1390.1667463978229, 20993.697165691516, 9252.795189952278, -17268.197806858756, -44270.98265540393, 0.121, 0.989, 0.181, 192.0, 0.0, 0.0, 0.0, 0.0, 0.0, 0.0, 0.0, 0.0, 0.0, 1.695763089411496E9, 0.0, 2023-09-26 16:18:09.411
62.0, 56994.154392976096, 62303.90069531211, -22682.34910754551, -30146.088319550556, -3015.3620857431993, -1383.0812434054903, -187500.02235174447, 7605.270457896049, 36907.178092858565, -7440.448694282615, 9497.099756848784, -1399.3980168578646, 20989.271520289367, 9243.027477625308, -17279.954824442248, -44283.76785323237, 0.1225, 0.9884999999999999, 0.1785, 192.0, 1.5, 112.0, 15.0, 112.0, 2.5, 64.0, 0.0, 0.0, 0.0, 1.695763089471492E9, 0.0, 2023-09-26 16:18:09.471
64.0, 57006.40314893761, 62326.90064035662, -22667.932232371837, -30137.192325257343, -3010.7352746409506, -1376.2192578577112, -187500.02235174447, 7587.366710587348, 36947.79121253386, -7432.9161564011765, 9501.391291784203, -1393.6536185328507, 20991.193770312522, 9246.69316371598, -17273.137542383378, -44280.50449854189, 0.1225, 0.9884999999999999, 0.1785, 192.0, 0.0, 0.0, 0.0, 0.0, 0.0, 0.0, 0.0, 0.0, 0.0, 1.695763089471524E9, 0.0, 2023-09-26 16:18:09.471
66.0, 56996.724843588454, 62319.368102475186, -22675.77769467565, -30142.176764270876, -3021.017077090392, -1376.5768857689961, -187500.02235174447, 7597.737920014611, 36907.22279634748, -7438.973479148564, 9501.033663872919, -1387.0375021740797, 20976.083991060736, 9257.801980710266, -17271.1258853824, -44279.878649697144, 0.1225, 0.9884999999999999, 0.1785, 192.0, 0.0, 0.0, 0.0, 0.0, 0.0, 0.0, 0.0, 0.0, 0.0, 1.69576308947154E9, 0.0, 2023-09-26 16:18:09.471
68.0, 57017.13198627615, 62331.88507937016, -22660.556156701587, -30129.033938531156, -3009.1930042735344, -1365.7586414526274, -187500.02235174447, 7599.950742715686, 36947.5676950893, -7426.791778420423, 9503.179431340628, -1379.7955369705603, 21005.878866419658, 9281.31601587725, -17274.255129606143, -44279.0516351523, 0.1225, 0.9884999999999999, 0.1785, 192.0, 0.0, 0.0, 0.0, 0.0, 0.0, 0.0, 0.0, 0.0, 0.0, 1.695763089471554E9, 0.0, 2023-09-26 16:18:09.471
70.0, 57007.81130883829, 62324.598410677725, -22662.38899974692, -30130.822078087578, -3018.2678125223892, -1361.6906239617615, -187500.02235174447, 7621.587231348423, 36902.35011605622, -7425.562432475381, 9510.846079688798, -1368.2396850871664, 21001.944959395525, 9249.531835261803, -17261.671097477807, -44257.57160873075, 0.1225, 0.9884999999999999, 0.1785, 192.0, 0.0, 0.0, 0.0, 0.0, 0.0, 0.0, 0.0, 0.0, 0.0, 1.695763089471571E9, 0.0, 2023-09-26 16:18:09.471
72.0, 57014.33801821924, 62330.00753283591, -22663.126607313945, -30135.471240934283, -3022.6487544356296, -1370.7654322106162, -187500.02235174447, 7607.460928852669, 36947.14301194465, -7419.527461472448, 9507.02393138694, -1366.7868216975717, 20992.445468002017, 9262.40644006806, -17274.65746100634, -44266.35584430169, 0.12425, 0.99225, 0.17225000000000001, 192.0, 1.5, 120.0, 15.5, 16.0, 2.5, 24.0, 0.0, 0.0, 0.0, 1.695763089471585E9, 0.0, 2023-09-26 16:18:09.471
74.0, 57015.56736416428, 62334.05319858232, -22661.360819501977, -30131.559685654604, -3008.6118589176967, -1364.6857577187727, -187500.02235174447, 7622.190728448717, 36898.505616009905, -7420.175662061652, 9513.707102979077, -1359.9471878942477, 20980.174360296056, 9272.934111706509, -17272.735210983185, -44261.19259133251, 0.12425, 0.99225, 0.17225000000000001, 192.0, 0.0, 0.0, 0.0, 0.0, 0.0, 0.0, 0.0, 0.0, 0.0, 1.6957630894716E9, 0.0, 2023-09-26 16:18:09.471
76.0, 57025.31272474679, 62340.84812889673, -22657.181043288834, -30130.35269145402, -3003.9403443265373, -1361.5341617505744, -187500.02235174447, 7629.767969819066, 36950.36166314622, -7409.3797694897385, 9516.054036146885, -1352.9957953686471, 21002.704918707004, 9271.414193083549, -17271.9752516717, -44258.10805059768, 0.12425, 0.99225, 0.17225000000000001, 192.0, 0.0, 0.0, 0.0, 0.0, 0.0, 0.0, 0.0, 0.0, 0.0, 1.695763089532011E9, 0.0, 2023-09-26 16:18:09.532
78.0, 57014.24861124142, 62329.38168399116, -22661.092598568513, -30138.600485158026, -2999.3805884576545, -1370.5195630216078, -187500.02235174447, 7633.098379742906, 36909.03328764836, -7414.855946881288, 9519.675018748643, -1352.8840366463705, 20983.3036045198, 9277.40446059757, -17268.913062681328, -44255.627006963135, 0.12425, 0.99225, 0.17225000000000001, 192.0, 0.0, 0.0, 0.0, 0.0, 0.0, 0.0, 0.0, 0.0, 0.0, 1.69576308953209E9, 0.0, 2023-09-26 16:18:09.532
80.0, 57009.398282694616, 62322.206774021004, -22666.322906771053, -30157.554764456127, -3005.92964958306, -1380.5331445375855, -187500.02235174447, 7608.667923053256, 36948.573523589796, -7427.775255176456, 9507.605076742779, -1368.3067403205325, 21014.797212457324, 9266.206236625461, -17280.021879675613, -44275.14007987262, 0.12425, 0.99225, 0.17225000000000001, 192.0, 0.0, 0.0, 0.0, 0.0, 0.0, 0.0, 0.0, 0.0, 0.0, 1.695763089532103E9, 0.0, 2023-09-26 16:18:09.532
82.0, 57029.49250095994, 62343.463282998004, -22646.519261183654, -30140.522735181185, -2977.341768424722, -1362.8976181623482, -187500.02235174447, 7623.196556949206, 36913.190712117044, -7422.23202255154, 9520.703198993588, -1367.4573740312308, 20996.759354681893, 9280.086669932207, -17265.917928924315, -44259.58326573173, 0.123125, 0.9961249999999999, 0.17112500000000003, 192.0, 1.5, 104.0, 15.5, 32.0, 2.5, 40.0, 0.0, 0.0, 0.0, 1.695763089532116E9, 0.0, 2023-09-26 16:18:09.532
84.0, 57021.15530027811, 62329.09111131324, -22661.38317124643, -30159.87934587948, -2984.9637132839816, -1374.8110979570267, -187500.02235174447, 7614.814652778466, 36960.06232023982, -7404.283571753928, 9524.033608917429, -1368.3067403205325, 21030.666951020594, 9292.670702060544, -17265.292080079565, -44266.91463791307, 0.123125, 0.9961249999999999, 0.17112500000000003, 192.0, 0.0, 0.0, 0.0, 0.0, 0.0, 0.0, 0.0, 0.0, 0.0, 1.695763089532129E9, 0.0, 2023-09-26 16:18:09.532
86.0, 57008.25834372739, 62318.42932920806, -22667.932232371837, -30176.1737675874, -2991.02103603137, -1388.4903655636747, -187500.02235174447, 7598.8555072373765, 36923.65132852213, -7422.679057440646, 9517.484547792024, -1384.3105893505324, 20990.97025286797, 9299.398577141594, -17274.2774813506, -44282.963190431976, 0.123125, 0.9961249999999999, 0.17112500000000003, 192.0, 0.0, 0.0, 0.0, 0.0, 0.0, 0.0, 0.0, 0.0, 0.0, 1.695763089532141E9, 0.0, 2023-09-26 16:18:09.532
88.0, 57026.56442243629, 62336.66835268359, -22653.493005453707, -30156.057197577622, -2976.760623068884, -1364.8422199299598, -187500.02235174447, 7627.711609329178, 36942.896180498145, -7426.948240631609, 9514.154137868183, -1389.8761737199038, 20997.04992735981, 9259.88069294461, -17276.535007540584, -44281.19740262001, 0.123125, 0.9961249999999999, 0.17112500000000003, 192.0, 0.0, 0.0, 0.0, 0.0, 0.0, 0.0, 0.0, 0.0, 0.0, 1.695763089532154E9, 0.0, 2023-09-26 16:18:09.532
90.0, 57033.82873938427, 62343.329172531274, -22649.29087749611, -30151.92212485339, -2974.346634667711, -1355.7227081921947, -187500.02235174447, 7642.7096298586885, 36915.82821796277, -7407.412815977671, 9539.880995736241, -1376.0180921576134, 20998.279273304855, 9300.560867853268, -17249.578803727487, -44246.954530114475, 0.123125, 0.9961249999999999, 0.17112500000000003, 192.0, 0.0, 0.0, 0.0, 0.0, 0.0, 0.0, 0.0, 0.0, 0.0, 1.695763089532167E9, 0.0, 2023-09-26 16:18:09.532
92.0, 57024.508061946406, 62333.87438462668, -22665.317078270564, -30159.946401112844, -2996.2960477228225, -1361.8470861729488, -187500.02235174447, 7640.206234479694, 36935.006014705425, -7412.75488290249, 9518.93741118162, -1398.4368918462865, 21021.68154974956, 9288.401518869581, -17269.963594670724, -44263.80774543378, 0.1195625, 0.9950625, 0.1725625, 192.0, 1.5, 80.0, 15.5, 8.0, 2.5, 56.0, 0.0, 0.0, 0.0, 1.695763089590983E9, 0.0, 2023-09-26 16:18:09.590
94.0, 57023.234012512454, 62328.53231770186, -22659.05858982308, -30162.472148236295, -3000.341713469233, -1359.7013187052391, -187500.02235174447, 7633.120731487362, 36921.997299432434, -7420.108606828286, 9518.020989658951, -1403.3766273709093, 20998.949825638512, 9278.83497224271, -17268.957766170235, -44257.37044303065, 0.1195625, 0.9950625, 0.1725625, 192.0, 0.0, 0.0, 0.0, 0.0, 0.0, 0.0, 0.0, 0.0, 0.0, 1.695763089591013E9, 0.0, 2023-09-26 16:18:09.591
96.0, 57024.59746892422, 62334.56728870479, -22654.297668254098, -30156.21365978881, -2993.859707577194, -1346.5584929655188, -187500.02235174447, 7652.0973625299175, 36934.2684071384, -7407.904554355688, 9521.440806560613, -1403.8236622600155, 21008.605779243208, 9285.004053712375, -17262.162835855823, -44251.80485866128, 0.1195625, 0.9950625, 0.1725625, 192.0, 0.0, 0.0, 0.0, 0.0, 0.0, 0.0, 0.0, 0.0, 0.0, 1.695763089591029E9, 0.0, 2023-09-26 16:18:09.591
98.0, 57023.926916590564, 62334.70139917152, -22648.888546095914, -30158.15826155642, -2994.4632046774873, -1336.611966682907, -187500.02235174447, 7648.9904700506295, 36934.938959472056, -7409.290362511917, 9523.608925772778, -1414.2395751761885, 21022.262695105397, 9291.307245648772, -17248.55062348254, -44242.417125990054, 0.1195625, 0.9950625, 0.1725625, 192.0, 0.0, 0.0, 0.0, 0.0, 0.0, 0.0, 0.0, 0.0, 0.0, 1.695763089591044E9, 0.0, 2023-09-26 16:18:09.591
100.0, 57010.20294549501, 62323.72669264397, -22660.556156701587, -30171.03286636268, -3001.3922454586323, -1349.7324406781722, -187500.02235174447, 7646.956461305197, 36927.62993903517, -7416.867603882266, 9515.674056491143, -1429.1481887278783, 21005.431831530554, 9273.872884973633, -17252.819806673506, -44254.08473659572, 0.1195625, 0.9950625, 0.1725625, 192.0, 0.0, 0.0, 0.0, 0.0, 0.0, 0.0, 0.0, 0.0, 0.0, 1.695763089591058E9, 0.0, 2023-09-26 16:18:09.591
102.0, 57015.79088160883, 62325.5595356893, -22654.56588918756, -30172.485729752272, -2995.692550622529, -1355.834466914471, -187500.02235174447, 7622.615411593368, 36931.80971524832, -7437.230043081051, 9506.331027308826, -1447.2083982477664, 20987.05869758829, 9257.422001054527, -17257.379562542388, -44266.33349255723, 0.12078125, 0.99653125, 0.17328125, 192.0, 1.5, 104.0, 15.5, 24.0, 2.5, 56.0, 0.0, 0.0, 0.0, 1.695763089591106E9, 0.0, 2023-09-26 16:18:09.591
104.0, 57002.44689016901, 62314.69658788402, -22666.278203282145, -30178.051314121643, -2999.3805884576545, -1364.8198681855044, -187500.02235174447, 7615.306391156482, 36917.92928194157, -7427.127054587252, 9507.001579642485, -1454.7632878736601, 21004.44835477452, 9275.437507085504, -17254.429132274287, -44280.7503677309, 0.12078125, 0.99653125, 0.17328125, 192.0, 0.0, 0.0, 0.0, 0.0, 0.0, 0.0, 0.0, 0.0, 0.0, 1.695763089591123E9, 0.0, 2023-09-26 16:18:09.591
106.0, 57008.39245419413, 62320.9103728426, -22660.869081123958, -30173.536261741672, -3001.3251902252664, -1363.769336196105, -187500.02235174447, 7600.151908415784, 36932.904950726625, -7434.61488897978, 9490.818916656843, -1472.1529450598891, 20999.48626750544, 9231.96336411993, -17259.435923032277, -44283.23141136544, 0.12078125, 0.99653125, 0.17328125, 192.0, 0.0, 0.0, 0.0, 0.0, 0.0, 0.0, 0.0, 0.0, 0.0, 1.695763089650929E9, 0.0, 2023-09-26 16:18:09.650
108.0, 57004.793823336826, 62318.652846652614, -22666.322906771053, -30171.703418696336, -2995.4466814335206, -1352.3028912905327, -187500.02235174447, 7626.392856406314, 36904.40647654611, -7430.435112766638, 9500.296056305893, -1466.8555816239814, 20992.132543579646, 9245.217948581929, -17249.020010116103, -44277.82228920726, 0.12078125, 0.99653125, 0.17328125, 192.0, 0.0, 0.0, 0.0, 0.0, 0.0, 0.0, 0.0, 0.0, 0.0, 1.69576308965097E9, 0.0, 2023-09-26 16:18:09.650
110.0, 57007.81130883829, 62330.38751249165, -22672.469636496262, -30169.132968083977, -3001.436948947543, -1352.8616849019152, -187500.02235174447, 7613.764120789066, 36934.447221094044, -7436.3806767917495, 9490.237771301005, -1470.7000816702941, 21000.58150298375, 9237.327782789205, -17259.771199199105, -44285.265420110874, 0.12078125, 0.99653125, 0.17328125, 192.0, 0.0, 0.0, 0.0, 0.0, 0.0, 0.0, 0.0, 0.0, 0.0, 1.69576308965098E9, 0.0, 2023-09-26 16:18:09.650
112.0, 57007.14075650463, 62328.46526246849, -22670.569738217564, -30164.327343026085, -2998.7100361239955, -1339.9870800956585, -187500.02235174447, 7641.256766469093, 36900.964307899994, -7418.7675021609675, 9500.474870261534, -1462.094660055001, 20996.982872126446, 9250.939995162487, -17252.03749561757, -44271.206172848484, 0.125390625, 0.9962656249999999, 0.169640625, 192.0, 2.0, 8.0, 15.5, 16.0, 2.5, 24.0, 0.0, 0.0, 0.0, 1.695763089650989E9, 0.0, 2023-09-26 16:18:09.650
114.0, 57005.64318962613, 62322.206774021004, -22673.16254057438, -30168.328305283583, -3012.948097342026, -1346.9608243657142, -187500.02235174447, 7633.590118120924, 36942.471497353494, -7434.23490932404, 9493.523477735935, -1473.024663093646, 21006.571770497772, 9249.800056195267, -17257.916004409315, -44272.5025740269, 0.125390625, 0.9962656249999999, 0.169640625, 192.0, 0.0, 0.0, 0.0, 0.0, 0.0, 0.0, 0.0, 0.0, 0.0, 1.695763089650999E9, 0.0, 2023-09-26 16:18:09.650
116.0, 57007.76660534938, 62327.325323501274, -22663.841863136517, -30163.16505231441, -3005.8402426052385, -1339.8306178844712, -187500.02235174447, 7659.652252155812, 36904.518235268384, -7431.373886033761, 9493.724643436033, -1473.315235771565, 20987.05869758829, 9249.129503861608, -17255.524367752598, -44267.316969313266, 0.125390625, 0.9962656249999999, 0.169640625, 192.0, 0.0, 0.0, 0.0, 0.0, 0.0, 0.0, 0.0, 0.0, 0.0, 1.695763089651009E9, 0.0, 2023-09-26 16:18:09.651
118.0, 57018.897774088124, 62338.14356781764, -22653.269488009155, -30160.706360424327, -3004.566193171286, -1335.4943794601418, -187500.02235174447, 7663.228531268661, 36952.44037538056, -7418.454577738593, 9498.306751049371, -1472.6670351823611, 21020.027520659867, 9264.015765668843, -17246.717780437208, -44261.46081226597, 0.125390625, 0.9962656249999999, 0.169640625, 192.0, 0.0, 0.0, 0.0, 0.0, 0.0, 0.0, 0.0, 0.0, 0.0, 1.695763089651018E9, 0.0, 2023-09-26 16:18:09.651
120.0, 57022.36229447869, 62337.51771897289, -22647.63684840642, -30158.962924356812, -2992.362140698688, -1324.7878938660497, -187500.02235174447, 7677.623054697879, 36902.864206178696, -7412.8442898803105, 9510.913134922164, -1461.960549588269, 20999.57567448326, 9262.7864197238, -17227.450576716732, -44244.875817880136, 0.125390625, 0.9962656249999999, 0.169640625, 192.0, 0.0, 0.0, 0.0, 0.0, 0.0, 0.0, 0.0, 0.0, 0.0, 1.695763089651027E9, 0.0, 2023-09-26 16:18:09.651
122.0, 57017.86959384318, 62330.09693981373, -22661.137302057425, -30173.31274429712, -3009.818853118283, -1348.1678185663009, -187500.02235174447, 7645.972984549164, 36950.58518059077, -7414.453615481093, 9510.019065143952, -1469.9177706143585, 21033.93030571107, 9274.677547774023, -17233.664361675306, -44254.68823369601, 0.1276953125, 0.9951328125, 0.1728203125, 192.0, 2.0, 8.0, 15.5, 8.0, 2.5, 64.0, 0.0, 0.0, 0.0, 1.695763089711155E9, 0.0, 2023-09-26 16:18:09.711
124.0, 57018.987181065946, 62330.94630610303, -22650.810796119073, -30165.154357570933, -2993.569134899275, -1340.165894051301, -187500.02235174447, 7649.459856684191, 36903.91473816809, -7415.504147470492, 9504.92286740814, -1474.1646020608666, 21002.369642540176, 9228.945878618464, -17235.98894309866, -44255.29173079631, 0.1276953125, 0.9951328125, 0.1728203125, 192.0, 0.0, 0.0, 0.0, 0.0, 0.0, 0.0, 0.0, 0.0, 0.0, 1.695763089711208E9, 0.0, 2023-09-26 16:18:09.711
126.0, 57020.61885841118, 62331.594506692236, -22652.53188044213, -30175.659677464926, -2990.2387249754343, -1350.3135860340103, -187500.02235174447, 7617.407455135281, 36954.60849459273, -7415.302981770395, 9504.989922641507, -1477.740881173716, 21040.83699474776, 9233.706800187445, -17240.526347223087, -44269.70860596998, 0.1276953125, 0.9951328125, 0.1728203125, 192.0, 0.0, 0.0, 0.0, 0.0, 0.0, 0.0, 0.0, 0.0, 0.0, 1.695763089711218E9, 0.0, 2023-09-26 16:18:09.711
128.0, 57011.25347748441, 62322.83262286575, -22657.784540389126, -30181.73935195677, -2989.791690086328, -1353.9569203802253, -187500.02235174447, 7618.234469680127, 36906.46283703599, -7420.8238626508555, 9506.375730797736, -1474.5222299721515, 20993.719517435973, 9232.92448913151, -17233.865527375405, -44263.78539368932, 0.1276953125, 0.9951328125, 0.1728203125, 192.0, 0.0, 0.0, 0.0, 0.0, 0.0, 0.0, 0.0, 0.0, 0.0, 1.695763089711226E9, 0.0, 2023-09-26 16:18:09.711
130.0, 57004.078567514254, 62317.5576111743, -22668.602784705494, -30191.7752852172, -3008.1648240285904, -1361.511810006119, -187500.02235174447, 7627.666905840267, 36947.45593636703, -7422.321429529361, 9492.540000979901, -1484.7593289326824, 21020.698072993528, 9220.832195381188, -17250.56228048352, -44276.324722328754, 0.1276953125, 0.9951328125, 0.1728203125, 192.0, 0.0, 0.0, 0.0, 0.0, 0.0, 0.0, 0.0, 0.0, 0.0, 1.695763089711235E9, 0.0, 2023-09-26 16:18:09.711
132.0, 57006.85018382671, 62325.224259522474, -22663.372476502955, -30186.701439225846, -2994.820832588772, -1356.1473913368454, -187500.02235174447, 7625.118806972362, 36910.754371971416, -7421.203842306596, 9492.338835279803, -1478.8137649075707, 20995.44060175903, 9225.168433805518, -17247.45538800423, -44266.93698965752, 0.12684765625, 0.9945664062499999, 0.17241015625, 192.0, 1.5, 120.0, 15.5, 8.0, 2.5, 48.0, 0.0, 0.0, 0.0, 1.695763089711244E9, 0.0, 2023-09-26 16:18:09.711
134.0, 57014.74034961943, 62330.65573342511, -22656.979877588736, -30178.677162966393, -2995.4913849224313, -1350.6488622008399, -187500.02235174447, 7630.259708197083, 36952.01569223591, -7417.672266682657, 9494.6410649587, -1476.7127009287717, 21025.704863751514, 9233.63974495408, -17249.489396749665, -44264.99238788991, 0.12684765625, 0.9945664062499999, 0.17241015625, 192.0, 0.0, 0.0, 0.0, 0.0, 0.0, 0.0, 0.0, 0.0, 0.0, 1.695763089711253E9, 0.0, 2023-09-26 16:18:09.711
136.0, 57024.88804160214, 62342.94919287553, -22645.62519140544, -30165.82490990459, -2993.4126726880877, -1342.3116615190104, -187500.02235174447, 7642.08378101394, 36921.6173197767, -7406.719911899557, 9506.30867556437, -1464.3298345005317, 21000.693261706027, 9239.406495023548, -17239.006428600125, -44249.681442938025, 0.12684765625, 0.9945664062499999, 0.17241015625, 192.0, 0.0, 0.0, 0.0, 0.0, 0.0, 0.0, 0.0, 0.0, 0.0, 1.695763089771551E9, 0.0, 2023-09-26 16:18:09.771
138.0, 57027.793768381336, 62354.21447208101, -22645.37932221643, -30166.607220960526, -2994.3290942107556, -1343.5186557195968, -187500.02235174447, 7655.427772453759, 36951.300436413345, -7408.955086345088, 9509.661437232666, -1458.6301396644283, 21036.076073178778, 9253.286928330293, -17241.97921061268, -44253.41418426206, 0.12684765625, 0.9945664062499999, 0.17241015625, 192.0, 0.0, 0.0, 0.0, 0.0, 0.0, 0.0, 0.0, 0.0, 0.0, 1.695763089771574E9, 0.0, 2023-09-26 16:18:09.771
140.0, 57025.04450381333, 62350.191158079055, -22649.91672634086, -30161.667485435904, -2997.190117501035, -1334.0415160705468, -187500.02235174447, 7656.634766654345, 36934.69309028305, -7400.260257751973, 9509.996713399496, -1449.2647587376546, 21034.51145106691, 9263.635786013101, -17234.960762853716, -44249.72614642694, 0.12684765625, 0.9945664062499999, 0.17241015625, 192.0, 0.0, 0.0, 0.0, 0.0, 0.0, 0.0, 0.0, 0.0, 0.0, 1.695763089771584E9, 0.0, 2023-09-26 16:18:09.771
142.0, 57005.03969252583, 62331.54980320333, -22661.472578224253, -30176.441988520863, -3023.2298997914672, -1352.191132568256, -187500.02235174447, 7653.9749090641635, 36934.53662807186, -7408.7986241339, 9490.193067812093, -1458.8536571089815, 21005.521238508372, 9222.128596559596, -17252.350420039944, -44258.17510583104, 0.125423828125, 0.993283203125, 0.17120507812500002, 192.0, 1.5, 112.0, 15.5, 0.0, 2.5, 40.0, 0.0, 0.0, 0.0, 1.695763089771593E9, 0.0, 2023-09-26 16:18:09.771
144.0, 57023.166957279085, 62349.63236446767, -22645.491080938707, -30161.868651136003, -2999.9617338134926, -1340.9258533627813, -187500.02235174447, 7642.575519391957, 36924.27717736688, -7419.236888794529, 9488.561390466857, -1465.894456612403, 20999.374508783163, 9231.292811786272, -17248.014181615614, -44257.437498264015, 0.125423828125, 0.993283203125, 0.17120507812500002, 192.0, 0.0, 0.0, 0.0, 0.0, 0.0, 0.0, 0.0, 0.0, 0.0, 1.695763089771602E9, 0.0, 2023-09-26 16:18:09.771
146.0, 57015.053274041806, 62337.67418118408, -22656.24227002171, -30168.149491327942, -2997.5477454123197, -1356.415612270309, -187500.02235174447, 7618.390931891315, 36934.53662807186, -7407.189298533118, 9492.78587016891, -1458.1384012864116, 21015.82539270227, 9237.618355467124, -17245.2202135587, -44264.72416695645, 0.125423828125, 0.993283203125, 0.17120507812500002, 192.0, 0.0, 0.0, 0.0, 0.0, 0.0, 0.0, 0.0, 0.0, 0.0, 1.695763089771643E9, 0.0, 2023-09-26 16:18:09.771
148.0, 57018.78601536585, 62341.98806786395, -22648.508566440174, -30163.63443894797, -2994.6867221220405, -1358.6507867158398, -187500.02235174447, 7596.6873880252115, 36934.98366296097, -7411.369074746261, 9494.574009725335, -1458.540732686607, 21009.946883910525, 9225.928393117, -17240.526347223087, -44268.18868734702, 0.125423828125, 0.993283203125, 0.17120507812500002, 192.0, 0.0, 0.0, 0.0, 0.0, 0.0, 0.0, 0.0, 0.0, 0.0, 1.695763089771653E9, 0.0, 2023-09-26 16:18:09.771
150.0, 57014.13685251914, 62338.300030028826, -22652.3977699754, -30160.572249957593, -2993.59148664373, -1358.7178419492056, -187500.02235174447, 7613.920583000253, 36923.09253491074, -7410.720874157057, 9491.444765501592, -1461.2452937656992, 21016.093613635734, 9223.715570415923, -17249.824672916493, -44279.56572527477, 0.125423828125, 0.993283203125, 0.17120507812500002, 192.0, 0.0, 0.0, 0.0, 0.0, 0.0, 0.0, 0.0, 0.0, 0.0, 1.695763089771662E9, 0.0, 2023-09-26 16:18:09.771
152.0, 57019.121291532676, 62341.652791697124, -22651.57075543055, -30157.107729567022, -3002.085149536747, -1358.7178419492056, -187500.02235174447, 7606.633914307823, 36941.33155838628, -7413.827766636345, 9491.668282946144, -1459.7924303761042, 21016.58535201375, 9230.376390263604, -17248.640030460363, -44274.33541707223, 0.12571191406249999, 0.9946416015624999, 0.1706025390625, 192.0, 1.5, 120.0, 15.5, 16.0, 2.5, 40.0, 0.0, 0.0, 0.0, 1.695763089831853E9, 0.0, 2023-09-26 16:18:09.831
154.0, 56995.98723602143, 62321.69268389854, -22672.559043474084, -30175.369104787005, -3025.4874259814533, -1366.9879873976693, -187500.02235174447, 7617.8768417688425, 36917.459895308006, -7426.948240631609, 9487.801431155376, -1463.6145786779618, 21020.96629392699, 9233.349172276161, -17257.088989864467, -44279.14104213012, 0.12571191406249999, 0.9946416015624999, 0.1706025390625, 192.0, 0.0, 0.0, 0.0, 0.0, 0.0, 0.0, 0.0, 0.0, 0.0, 1.695763089831894E9, 0.0, 2023-09-26 16:18:09.831
156.0, 57004.32443670326, 62330.65573342511, -22669.80977890608, -30171.479901251783, -3026.180330059568, -1366.675062975295, -187500.02235174447, 7605.516327085058, 36942.15857293112, -7429.719856944068, 9476.737317649999, -1479.4396137523192, 21029.54936379783, 9222.30741051524, -17269.27069059261, -44286.204193378, 0.12571191406249999, 0.9946416015624999, 0.1706025390625, 192.0, 0.0, 0.0, 0.0, 0.0, 0.0, 0.0, 0.0, 0.0, 0.0, 1.695763089831904E9, 0.0, 2023-09-26 16:18:09.831
158.0, 57016.57319266477, 62341.7645504194, -22648.217993762257, -30149.552839941127, -3002.9121640815933, -1334.3767922373763, -187500.02235174447, 7648.61049039489, 36912.87778769467, -7406.071711310353, 9492.182373068616, -1466.7885263906153, 20998.30162504931, 9249.196559094973, -17256.776065442093, -44271.496745526405, 0.12571191406249999, 0.9946416015624999, 0.1706025390625, 192.0, 0.0, 0.0, 0.0, 0.0, 0.0, 0.0, 0.0, 0.0, 0.0, 1.695763089831913E9, 0.0, 2023-09-26 16:18:09.831
160.0, 57015.99204730893, 62340.0658178408, -22648.352104228987, -30155.029017332676, -2998.5535739128086, -1340.83644638496, -187500.02235174447, 7653.997260808619, 36955.10023297075, -7404.238868265018, 9498.619675471744, -1466.4532502237857, 21023.670855006083, 9227.358904762139, -17246.51661473711, -44255.559951729774, 0.12571191406249999, 0.9946416015624999, 0.1706025390625, 192.0, 0.0, 0.0, 0.0, 0.0, 0.0, 0.0, 0.0, 0.0, 0.0, 1.695763089831922E9, 0.0, 2023-09-26 16:18:09.831
162.0, 56998.356520933696, 62316.484727440446, -22662.076075324545, -30172.64219196346, -3007.315457739289, -1353.2416645576554, -187500.02235174447, 7660.389859722836, 36907.49101728094, -7412.441958480115, 9491.869448646243, -1474.2540090386879, 21003.24136057393, 9229.504672229848, -17245.913117636814, -44258.979768631434, 0.12685595703125, 0.99732080078125, 0.17030126953125002, 192.0, 2.0, 0.0, 15.5, 32.0, 2.5, 40.0, 0.0, 0.0, 0.0, 1.695763089831931E9, 0.0, 2023-09-26 16:18:09.831
164.0, 57005.10674775919, 62319.30104724182, -22656.91282235537, -30176.35258154304, -3003.985047815448, -1359.5672082385074, -187500.02235174447, 7640.385048435337, 36946.56186658882, -7431.396237778215, 9477.229056028016, -1493.767081948171, 21022.553267783318, 9221.279230270295, -17263.41453354532, -44280.28098109734, 0.12685595703125, 0.99732080078125, 0.17030126953125002, 192.0, 0.0, 0.0, 0.0, 0.0, 0.0, 0.0, 0.0, 0.0, 0.0, 1.695763089831941E9, 0.0, 2023-09-26 16:18:09.831
166.0, 57008.43715768304, 62321.7597391319, -22656.957525844282, -30174.407979775428, -3000.3193617247775, -1356.4379640147645, -187500.02235174447, 7644.698935115211, 36899.08676136575, -7415.571202703858, 9489.231942800516, -1481.7865469201265, 21012.092651378232, 9232.812730409232, -17255.010277630125, -44271.56380075977, 0.12685595703125, 0.99732080078125, 0.17030126953125002, 192.0, 0.0, 0.0, 0.0, 0.0, 0.0, 0.0, 0.0, 0.0, 0.0, 1.695763089891571E9, 0.0, 2023-09-26 16:18:09.891
168.0, 57004.81617508128, 62323.838451366246, -22669.474502739253, -30179.81710193361, -3011.40582697461, -1368.9325891652811, -187500.02235174447, 7604.8457747513985, 36943.45497410953, -7416.688789926624, 9482.347605508281, -1486.703930700294, 21031.538669054353, 9230.644611197069, -17274.32218483951, -44287.67940851205, 0.12685595703125, 0.99732080078125, 0.17030126953125002, 192.0, 0.0, 0.0, 0.0, 0.0, 0.0, 0.0, 0.0, 0.0, 0.0, 1.695763089891627E9, 0.0, 2023-09-26 16:18:09.891
170.0, 57004.212677980984, 62323.95021008852, -22669.34039227252, -30173.62566871949, -3008.1648240285904, -1362.741155951161, -187500.02235174447, 7611.618353321356, 36896.09162760874, -7414.811243392378, 9480.894742118686, -1485.5639917330734, 21021.480384049464, 9235.047904854764, -17274.121019139413, -44287.47824281195, 0.12685595703125, 0.99732080078125, 0.17030126953125002, 192.0, 0.0, 0.0, 0.0, 0.0, 0.0, 0.0, 0.0, 0.0, 0.0, 1.695763089891637E9, 0.0, 2023-09-26 16:18:09.891
172.0, 57010.47116642847, 62328.375855490674, -22663.171310802856, -30168.082436094577, -3023.4087137471097, -1361.6235687283956, -187500.02235174447, 7605.896306740798, 36945.488982854964, -7411.547888701903, 9478.436050228602, -1486.1004336000008, 21014.260770590397, 9227.716532673423, -17273.89750169486, -44285.77951023335, 0.12842797851562499, 0.996660400390625, 0.16915063476562503, 192.0, 2.0, 8.0, 15.5, 16.0, 2.5, 32.0, 0.0, 0.0, 0.0, 1.695763089891646E9, 0.0, 2023-09-26 16:18:09.891
174.0, 57018.6072014102, 62336.24366953894, -22657.583374689028, -30158.359427256517, -3004.655600149107, -1349.9559581227254, -187500.02235174447, 7628.27040294056, 36904.83115969076, -7408.999789833998, 9486.415622999148, -1473.829325894037, 20998.413383771585, 9251.744657962878, -17261.358173055432, -44268.99335014741, 0.12842797851562499, 0.996660400390625, 0.16915063476562503, 192.0, 0.0, 0.0, 0.0, 0.0, 0.0, 0.0, 0.0, 0.0, 0.0, 1.695763089891655E9, 0.0, 2023-09-26 16:18:09.891
176.0, 57025.20096602452, 62348.60418422273, -22645.736950127717, -30150.312799252606, -3004.6779518935623, -1343.74217316415, -187500.02235174447, 7639.446275168214, 36948.55117184534, -7390.872525080744, 9494.730471936522, -1461.0888315545121, 21025.59310502924, 9263.21110286845, -17252.66334446232, -44261.9972541329, 0.12842797851562499, 0.996660400390625, 0.16915063476562503, 192.0, 0.0, 0.0, 0.0, 0.0, 0.0, 0.0, 0.0, 0.0, 0.0, 1.695763089891664E9, 0.0, 2023-09-26 16:18:09.891
178.0, 57011.208773995495, 62338.07651258427, -22654.58824093202, -30157.465357478304, -3013.21631827549, -1347.810190655016, -187500.02235174447, 7635.624126866356, 36911.939014427546, -7403.0989292977965, 9494.216381814049, -1460.4853344542187, 21006.10238386421, 9219.513442458325, -17247.097760092947, -44253.23537030642, 0.12842797851562499, 0.996660400390625, 0.16915063476562503, 192.0, 0.0, 0.0, 0.0, 0.0, 0.0, 0.0, 0.0, 0.0, 0.0, 1.695763089891673E9, 0.0, 2023-09-26 16:18:09.891
180.0, 57013.39924495212, 62334.38847474915, -22650.11789204096, -30155.78897664416, -3007.538975183842, -1341.0823155739683, -187500.02235174447, 7650.80096135151, 36944.95254098804, -7417.8287288938445, 9482.705233419567, -1465.67093916785, 21024.54257303984, 9216.63006742359, -17260.575861999496, -44264.83592567872, 0.12842797851562499, 0.996660400390625, 0.16915063476562503, 192.0, 0.0, 0.0, 0.0, 0.0, 0.0, 0.0, 0.0, 0.0, 0.0, 1.695763089891682E9, 0.0, 2023-09-26 16:18:09.891
182.0, 57011.38758795114, 62332.44387298154, -22649.96142982977, -30154.067892321098, -3001.079321036258, -1337.260167272111, -187500.02235174447, 7660.948653334219, 36915.49294179594, -7410.698522412601, 9493.590532969301, -1453.2657209951547, 20986.76812491037, 9225.503709972347, -17239.74403616715, -44242.01479458986, 0.1292139892578125, 0.9963302001953125, 0.1665753173828125, 192.0, 2.0, 8.0, 15.5, 16.0, 2.5, 16.0, 0.0, 0.0, 0.0, 1.695763089951724E9, 0.0, 2023-09-26 16:18:09.951
184.0, 57003.34095994723, 62324.95603858901, -22663.48423522523, -30169.49059599526, -3009.908260096104, -1348.0560598440243, -187500.02235174447, 7654.846627097921, 36944.68432005457, -7424.064865596875, 9477.631387428211, -1469.2472182806991, 21029.124680653178, 9224.16260530503, -17256.08316136398, -44264.52300125635, 0.1292139892578125, 0.9963302001953125, 0.1665753173828125, 192.0, 0.0, 0.0, 0.0, 0.0, 0.0, 0.0, 0.0, 0.0, 0.0, 1.695763089951746E9, 0.0, 2023-09-26 16:18:09.951
186.0, 57002.37983493565, 62328.35350374621, -22663.305421269586, -30172.664543707913, -3010.847033363227, -1353.845161657949, -187500.02235174447, 7627.644554095812, 36918.95746218651, -7416.062941081875, 9480.537114207402, -1464.9109798563695, 20974.385258482132, 9224.140253560574, -17256.329030552988, -44264.657111723085, 0.1292139892578125, 0.9963302001953125, 0.1665753173828125, 192.0, 0.0, 0.0, 0.0, 0.0, 0.0, 0.0, 0.0, 0.0, 0.0, 1.695763089951756E9, 0.0, 2023-09-26 16:18:09.951
188.0, 57010.47116642847, 62341.3622190192, -22657.851595622495, -30171.88223265198, -3008.1201205396796, -1352.0793738459795, -187500.02235174447, 7622.79422554901, 36934.98366296097, -7405.982304332531, 9475.910303105153, -1462.318177499554, 20999.53097099435, 9224.609640194136, -17265.292080079565, -44279.0516351523, 0.1292139892578125, 0.9963302001953125, 0.1665753173828125, 192.0, 0.0, 0.0, 0.0, 0.0, 0.0, 0.0, 0.0, 0.0, 0.0, 1.695763089951765E9, 0.0, 2023-09-26 16:18:09.951
190.0, 57027.503195703415, 62350.41467552361, -22646.072226294546, -30154.134947554467, -2997.3912832011324, -1347.452562743731, -187500.02235174447, 7610.165489931762, 36927.69699426854, -7398.159193773174, 9489.522515478435, -1448.2589302371657, 20992.423116257563, 9230.979887363897, -17249.020010116103, -44265.28296056783, 0.1292139892578125, 0.9963302001953125, 0.1665753173828125, 192.0, 0.0, 0.0, 0.0, 0.0, 0.0, 0.0, 0.0, 0.0, 0.0, 1.69576308995181E9, 0.0, 2023-09-26 16:18:09.951
192.0, 57014.87446008617, 62336.86951838369, -22660.086770068025, -30174.63149721998, -3006.980181572459, -1364.0152053851134, -187500.02235174447, 7604.823423006943, 36935.45304959453, -7403.814185120366, 9486.907361377163, -1451.991671561202, 21007.57759899826, 9248.615413739135, -17255.434960774775, -44275.65416999509, 0.12660699462890623, 0.9961651000976562, 0.16328765869140627, 192.0, 1.5, 112.0, 15.5, 16.0, 2.5, 0.0, 0.0, 0.0, 0.0, 1.695763089951819E9, 0.0, 2023-09-26 16:18:09.951
194.0, 57021.93761133404, 62340.78107366337, -22652.218956019755, -30155.63251443297, -3003.1356815261465, -1343.9433388642478, -187500.02235174447, 7610.366655631859, 36928.88163672467, -7411.212612535073, 9481.87821887472, -1464.5310002006293, 20990.433811001043, 9210.72920688739, -17259.570033499007, -44274.491879283414, 0.12660699462890623, 0.9961651000976562, 0.16328765869140627, 192.0, 0.0, 0.0, 0.0, 0.0, 0.0, 0.0, 0.0, 0.0, 0.0, 1.695763089951828E9, 0.0, 2023-09-26 16:18:09.951
196.0, 57012.683989129546, 62333.71792241549, -22659.72914215674, -30159.767587157203, -3012.0093240749034, -1348.9054261333258, -187500.02235174447, 7620.760216803577, 36923.00312793293, -7401.9813420750315, 9481.408832241159, -1456.4843721967188, 21008.44931703202, 9211.310352243228, -17258.631260231883, -44267.60754199118, 0.12660699462890623, 0.9961651000976562, 0.16328765869140627, 192.0, 0.0, 0.0, 0.0, 0.0, 0.0, 0.0, 0.0, 0.0, 0.0, 1.695763090012077E9, 0.0, 2023-09-26 16:18:10.012
198.0, 57022.45170145651, 62343.91031788711, -22650.92255484135, -30153.55380219863, -3004.8791175936603, -1342.423420241287, -187500.02235174447, 7615.798129534499, 36935.855380994726, -7399.9249815851435, 9485.968588110041, -1450.3599942159647, 20981.62722368565, 9225.123730316607, -17256.530196253087, -44264.232428578434, 0.12660699462890623, 0.9961651000976562, 0.16328765869140627, 192.0, 0.0, 0.0, 0.0, 0.0, 0.0, 0.0, 0.0, 0.0, 0.0, 1.695763090012102E9, 0.0, 2023-09-26 16:18:10.012
200.0, 57011.05231178431, 62332.89090787064, -22657.33750550002, -30163.9697151148, -3009.014190317892, -1359.902484405337, -187500.02235174447, 7629.432693652237, 36921.371450587685, -7395.521687927448, 9488.427280000125, -1448.6836133818167, 20999.91095065009, 9221.502747714847, -17255.300850308045, -44262.93602740002, 0.12660699462890623, 0.9961651000976562, 0.16328765869140627, 192.0, 0.0, 0.0, 0.0, 0.0, 0.0, 0.0, 0.0, 0.0, 0.0, 1.695763090012112E9, 0.0, 2023-09-26 16:18:10.012
202.0, 57009.599448394714, 62330.00753283591, -22658.76801714516, -30166.227241304787, -3012.88104210866, -1364.8198681855044, -187500.02235174447, 7619.12853945834, 36945.66779681061, -7411.056150323886, 9479.77715489592, -1462.318177499554, 20989.226816800456, 9209.052826053241, -17265.515597524118, -44271.31793157076, 0.12430349731445312, 0.9960825500488282, 0.16164382934570315, 192.0, 1.5, 104.0, 15.5, 16.0, 2.5, 0.0, 0.0, 0.0, 0.0, 1.695763090012121E9, 0.0, 2023-09-26 16:18:10.012
204.0, 57004.25738146989, 62323.972561832976, -22659.706790412285, -30161.756892413723, -3016.703190410518, -1358.4049175268315, -187500.02235174447, 7647.671717127767, 36919.67271800908, -7422.187319062629, 9478.704271162065, -1460.9547210877802, 20988.511560977884, 9203.263724239318, -17263.638050989874, -44267.696948969, 0.12430349731445312, 0.9960825500488282, 0.16164382934570315, 192.0, 0.0, 0.0, 0.0, 0.0, 0.0, 0.0, 0.0, 0.0, 0.0, 1.69576309001213E9, 0.0, 2023-09-26 16:18:10.012
206.0, 57018.92012583258, 62339.43996899605, -22644.798176860593, -30146.803575373124, -3007.2036990170122, -1343.9433388642478, -187500.02235174447, 7660.948653334219, 36951.81452653582, -7401.89193509721, 9485.141573565195, -1447.834247092515, 21007.97993039846, 9211.91384934352, -17255.971402641702, -44253.03420460632, 0.12430349731445312, 0.9960825500488282, 0.16164382934570315, 192.0, 0.0, 0.0, 0.0, 0.0, 0.0, 0.0, 0.0, 0.0, 0.0, 1.695763090012139E9, 0.0, 2023-09-26 16:18:10.012
208.0, 57014.38272170815, 62340.42344575208, -22649.06736005156, -30149.105805052022, -3003.761530370895, -1346.7820104100717, -187500.02235174447, 7657.37237422137, 36914.934148184555, -7406.094063054808, 9492.316483535347, -1438.2453487211883, 21009.924532166067, 9228.051808840253, -17248.952954882738, -44246.86512313666, 0.12430349731445312, 0.9960825500488282, 0.16164382934570315, 192.0, 0.0, 0.0, 0.0, 0.0, 0.0, 0.0, 0.0, 0.0, 0.0, 1.695763090012148E9, 0.0, 2023-09-26 16:18:10.012
210.0, 57015.612067653194, 62332.17565204807, -22645.53578442762, -30159.745235412745, -3015.339733998744, -1363.1658390958119, -187500.02235174447, 7618.1674144467615, 36955.81548879331, -7406.406987477182, 9487.868486388741, -1442.4027731898755, 20986.946938866015, 9239.250032812362, -17255.099684607947, -44260.52203899885, 0.12430349731445312, 0.9960825500488282, 0.16164382934570315, 192.0, 0.0, 0.0, 0.0, 0.0, 0.0, 0.0, 0.0, 0.0, 0.0, 1.695763090012157E9, 0.0, 2023-09-26 16:18:10.012
212.0, 57013.019265296374, 62332.62268693718, -22639.903144824882, -30145.93185733937, -2997.3912832011324, -1350.6935656897506, -187500.02235174447, 7619.441463880714, 36911.089648138244, -7409.5585834453805, 9488.561390466857, -1439.6311568774172, 20982.141313808123, 9206.594134163159, -17251.903385150836, -44262.48899251092, 0.12215174865722656, 0.9930412750244141, 0.16482191467285157, 192.0, 1.5, 96.0, 15.0, 120.0, 2.5, 32.0, 0.0, 0.0, 0.0, 1.695763090070949E9, 0.0, 2023-09-26 16:18:10.070
214.0, 57015.16503276408, 62333.67321892658, -22642.00420880368, -30144.85897360551, -3000.5875826582414, -1355.0521558585353, -187500.02235174447, 7602.36473111686, 36962.72217783001, -7410.3185427568615, 9487.108527077262, -1438.737087099205, 21008.762241454395, 9207.219983007906, -17248.304754293535, -44258.778602931336, 0.12215174865722656, 0.9930412750244141, 0.16482191467285157, 192.0, 0.0, 0.0, 0.0, 0.0, 0.0, 0.0, 0.0, 0.0, 0.0, 1.695763090070974E9, 0.0, 2023-09-26 16:18:10.070
216.0, 57000.457584912496, 62327.63824792365, -22650.34140948551, -30141.930895081867, -3002.599239659219, -1347.9443011217477, -187500.02235174447, 7624.180033705239, 36910.955537671514, -7404.149461287197, 9485.454497987568, -1431.6515841068726, 20997.832238415747, 9226.7777594063, -17246.002524614636, -44251.648396450095, 0.12215174865722656, 0.9930412750244141, 0.16482191467285157, 192.0, 0.0, 0.0, 0.0, 0.0, 0.0, 0.0, 0.0, 0.0, 0.0, 1.695763090070984E9, 0.0, 2023-09-26 16:18:10.070
218.0, 57009.33122746125, 62336.690704428045, -22642.786519859616, -30132.878438577467, -3004.700303638018, -1343.3621935084097, -187500.02235174447, 7619.7543883030885, 36960.48700338447, -7403.523612442447, 9469.49535244648, -1438.4018109323754, 21010.840953688737, 9228.185919306985, -17254.026800874093, -44256.386966274615, 0.12215174865722656, 0.9930412750244141, 0.16482191467285157, 192.0, 0.0, 0.0, 0.0, 0.0, 0.0, 0.0, 0.0, 0.0, 0.0, 1.695763090070993E9, 0.0, 2023-09-26 16:18:10.070
220.0, 57006.85018382671, 62331.05806482531, -22639.21024074677, -30128.8104210866, -3003.090978037236, -1335.4943794601418, -187500.02235174447, 7638.373391434359, 36923.472514566485, -7399.209725762574, 9482.92875086412, -1424.1637497143447, 21001.475572761963, 9247.40841953855, -17230.959800596214, -44232.40354447407, 0.12215174865722656, 0.9930412750244141, 0.16482191467285157, 192.0, 0.0, 0.0, 0.0, 0.0, 0.0, 0.0, 0.0, 0.0, 0.0, 1.695763090071002E9, 0.0, 2023-09-26 16:18:10.071
222.0, 57019.23305025495, 62339.61878295169, -22626.827374318527, -30124.38477568445, -2992.5186029098754, -1327.1124752894016, -187500.02235174447, 7646.822350838465, 36971.9758000345, -7395.946371072098, 9484.940407865097, -1423.1355694694007, 21020.1616311266, 9242.73690494739, -17229.283419762065, -44234.884588108616, 0.12207587432861328, 0.991520637512207, 0.1654109573364258, 192.0, 1.5, 104.0, 15.0, 120.0, 2.5, 24.0, 0.0, 0.0, 0.0, 1.695763090071011E9, 0.0, 2023-09-26 16:18:10.071
224.0, 57013.42159669657, 62334.8131578938, -22640.305476225076, -30130.218580987286, -2994.239687232934, -1325.5702049219854, -187500.02235174447, 7660.300452745016, 36927.317014612796, -7407.077539810842, 9488.092003833295, -1422.219147946733, 21002.77197394037, 9240.054695612753, -17227.36116973891, -44231.37536422913, 0.12207587432861328, 0.991520637512207, 0.1654109573364258, 192.0, 0.0, 0.0, 0.0, 0.0, 0.0, 0.0, 0.0, 0.0, 0.0, 1.69576309007102E9, 0.0, 2023-09-26 16:18:10.071
226.0, 57007.31957046027, 62329.73931190244, -22647.01099956167, -30138.57813341357, -3012.8363386197498, -1327.7606758786055, -187500.02235174447, 7664.703746402711, 36964.1750412196, -7394.493507682504, 9481.431183985613, -1425.638964848395, 21028.78940448635, 9245.530873004303, -17245.26491704761, -44238.03618407681, 0.12207587432861328, 0.991520637512207, 0.1654109573364258, 192.0, 0.0, 0.0, 0.0, 0.0, 0.0, 0.0, 0.0, 0.0, 0.0, 1.695763090131268E9, 0.0, 2023-09-26 16:18:10.131
228.0, 57014.11450077469, 62333.31559101529, -22642.831223348527, -30131.045595532134, -3000.5205274248756, -1324.0502862990245, -187500.02235174447, 7666.13425804785, 36925.64063377865, -7403.5683159313585, 9485.633311943211, -1426.8906625378922, 20973.133560792634, 9257.176131865517, -17247.544794982052, -44240.606634689175, 0.12207587432861328, 0.991520637512207, 0.1654109573364258, 192.0, 0.0, 0.0, 0.0, 0.0, 0.0, 0.0, 0.0, 0.0, 0.0, 1.695763090131295E9, 0.0, 2023-09-26 16:18:10.131
230.0, 57000.77050933487, 62315.12127102867, -22654.744703143206, -30146.669464906394, -3020.7041526680177, -1352.414650012809, -187500.02235174447, 7630.237356452627, 36957.871849283205, -7411.190260790618, 9471.954044336564, -1433.3726684299313, 21017.2112008585, 9212.673808655001, -17265.157969612836, -44256.92340814155, 0.12207587432861328, 0.991520637512207, 0.1654109573364258, 192.0, 0.0, 0.0, 0.0, 0.0, 0.0, 0.0, 0.0, 0.0, 0.0, 1.695763090131305E9, 0.0, 2023-09-26 16:18:10.131
232.0, 56999.809384323285, 62312.28259948285, -22655.795235132606, -30152.592677187047, -3019.273641022878, -1371.7936124555604, -187500.02235174447, 7596.776795003033, 36930.89329372565, -7421.874394640255, 9476.022061827429, -1435.250214964177, 20976.061639316278, 9227.381256506593, -17260.64291723286, -44263.40541403359, 0.12503793716430664, 0.9917603187561035, 0.1667054786682129, 192.0, 2.0, 0.0, 15.5, 0.0, 2.5, 32.0, 0.0, 0.0, 0.0, 1.695763090131314E9, 0.0, 2023-09-26 16:18:10.131
234.0, 57002.62570412466, 62317.64701815212, -22654.56588918756, -30153.509098709717, -3016.010286332403, -1374.7440427236609, -187500.02235174447, 7597.8049752479765, 36952.93211375858, -7427.8646621542775, 9463.929768077109, -1441.3075377115654, 21000.737965194938, 9216.63006742359, -17274.32218483951, -44283.298466598804, 0.12503793716430664, 0.9917603187561035, 0.1667054786682129, 192.0, 0.0, 0.0, 0.0, 0.0, 0.0, 0.0, 0.0, 0.0, 0.0, 1.69576309013136E9, 0.0, 2023-09-26 16:18:10.131
236.0, 57011.968733306974, 62325.715997900494, -22647.592144917508, -30136.275903734673, -3003.5156611818866, -1350.2688825450996, -187500.02235174447, 7610.858394009876, 36942.71736654251, -7412.397254991205, 9482.034681085906, -1419.8498630344704, 20988.53391272234, 9231.561032719736, -17254.719704952207, -44256.69989069699, 0.12503793716430664, 0.9917603187561035, 0.1667054786682129, 192.0, 0.0, 0.0, 0.0, 0.0, 0.0, 0.0, 0.0, 0.0, 0.0, 1.695763090131369E9, 0.0, 2023-09-26 16:18:10.131
238.0, 57004.12327100316, 62317.84818385222, -22658.946831100802, -30141.372101470486, -3009.4835769514534, -1355.7227081921947, -187500.02235174447, 7617.8768417688425, 36943.611436320716, -7416.688789926624, 9465.986128566996, -1427.7847323161045, 21014.95367466851, 9221.994486092864, -17272.712859238727, -44266.08762336822, 0.12503793716430664, 0.9917603187561035, 0.1667054786682129, 192.0, 0.0, 0.0, 0.0, 0.0, 0.0, 0.0, 0.0, 0.0, 0.0, 1.695763090131379E9, 0.0, 2023-09-26 16:18:10.131
