%OpenBCI Raw EXG Data
%Number of channels = 16
%Sample Rate = 125 Hz
%Board = OpenBCI_GUI$BoardCytonSerialDaisy
Sample Index, EXG Channel 0, EXG Channel 1, EXG Channel 2, EXG Channel 3, EXG Channel 4, EXG Channel 5, EXG Channel 6, EXG Channel 7, EXG Channel 8, EXG Channel 9, EXG Channel 10, EXG Channel 11, EXG Channel 12, EXG Channel 13, EXG Channel 14, EXG Channel 15, Accel Channel 0, Accel Channel 1, Accel Channel 2, Other, Other, Other, Other, Other, Other, Other, Analog Channel 0, Analog Channel 1, Analog Channel 2, Timestamp, Other, Timestamp (Formatted)
0.0, 20174.483379660058, 31481.448588543964, -49526.727143135926, -48416.53834778528, -33720.221664931974, -19396.26269295963, -187500.02235174447, -17954.061085469853, 0.0, 0.0, 0.0, 0.0, 0.0, 0.0, 0.0, 0.0, 0.0, 0.0, 0.0, 192.0, 0.0, 0.0, 0.0, 0.0, 0.0, 0.0, 0.0, 0.0, 0.0, 1.695420179006187E9, 0.0, 2023-09-22 17:02:59.006
194.0, 20194.957577581117, 31505.677879533516, -49536.919538607544, -48422.30509785475, -33730.369356914685, -19404.376376196906, -187500.02235174447, -17961.16894020664, -8749.366849585396, 19056.35971502778, -45939.22745457023, -42020.98900329936, -14213.004912496199, -34916.19645550209, -46716.91169940373, -42272.84845982176, 0.0, 0.0, 0.0, 192.0, 0.0, 0.0, 0.0, 0.0, 0.0, 0.0, 0.0, 0.0, 0.0, 1.695420179006196E9, 0.0, 2023-09-22 17:02:59.006
196.0, 20169.096609246328, 31478.118178620123, -49530.839864115704, -48419.89110945357, -33725.94371151253, -19402.8788093184, -187500.02235174447, -17953.50229185847, -8745.052962905522, 19031.571630426843, -45932.23135855572, -42015.13284625207, -14209.652150827904, -34908.08277226481, -46713.33542029088, -42267.26052370793, 0.0, 0.0, 0.0, 192.0, 0.0, 0.0, 0.0, 0.0, 0.0, 0.0, 0.0, 0.0, 0.0, 1.6954201790062E9, 0.0, 2023-09-22 17:02:59.006
198.0, 20193.57176942489, 31501.207530642456, -49537.12070430764, -48427.82597873521, -33727.12835396866, -19409.629036143906, -187500.02235174447, -17960.431332639615, -8750.68560250826, 19045.34030501131, -45942.73667844971, -42019.62554688758, -14216.491784631227, -34920.2421212485, -46717.47049301511, -42278.4810994245, 0.0, 0.0, 0.0, 192.0, 0.0, 0.0, 15.5, 64.0, 2.0, 56.0, 0.0, 0.0, 0.0, 1.695420179006203E9, 0.0, 2023-09-22 17:02:59.006
200.0, 20167.46493190109, 31477.157053608546, -49525.83307335772, -48412.4256268055, -33717.96413874199, -19393.133448735887, -187500.02235174447, -17944.516890587438, -8742.30369833752, 19024.799051856884, -45931.650213199886, -42007.779122326276, -14204.801822281102, -34908.8427315763, -46708.462739999624, -42269.83097432029, 0.0, 0.0, 0.0, 192.0, 0.0, 0.0, 0.0, 0.0, 0.0, 0.0, 0.0, 0.0, 0.0, 1.695420179006206E9, 0.0, 2023-09-22 17:02:59.006
202.0, 20195.85164735933, 31502.593338798684, -49538.97589909744, -48426.50722581235, -33719.305243409304, -19406.32097796452, -187500.02235174447, -17954.530472103415, -8745.365887327896, 19049.788302157915, -45937.90870164737, -42002.526462379275, -14206.880534515445, -34914.58712990131, -46707.36750452132, -42276.290628467876, 0.0, 0.0, 0.0, 192.0, 0.0, 0.0, 0.0, 0.0, 0.0, 0.0, 0.0, 0.0, 0.0, 1.69542017900621E9, 0.0, 2023-09-22 17:02:59.006
204.0, 20168.09078074584, 31479.436931542987, -49536.89718686309, -48407.28472558078, -33723.9097027671, -19388.350175422453, -187500.02235174447, -17943.913393487142, -8748.293965851542, 19020.798089599382, -45935.22649231273, -41997.005581498815, -14217.72113057627, -34911.92727231113, -46710.496748745056, -42277.92230581311, 0.0, 0.0, 0.0, 192.0, 0.0, 0.0, 0.0, 0.0, 0.0, 0.0, 0.0, 0.0, 0.0, 1.695420179006213E9, 0.0, 2023-09-22 17:02:59.006
206.0, 20201.149010795238, 31510.61761505814, -49544.36266951116, -48419.287612353284, -33716.35481314121, -19400.531876150595, -187500.02235174447, -17948.31668714484, -8736.447541290228, 19051.24116554751, -45925.414076496854, -41980.73351153535, -14206.411147881885, -34905.71348735255, -46696.52690846049, -42270.903858054146, 0.0, 0.0, 0.0, 192.0, 0.0, 0.0, 0.0, 0.0, 0.0, 0.0, 0.0, 0.0, 0.0, 1.695420179006216E9, 0.0, 2023-09-22 17:02:59.006
208.0, 20173.634013370756, 31484.019039156323, -49544.966166611455, -48405.094254624164, -33727.284816179854, -19386.092649232465, -187500.02235174447, -17944.60629756526, -8742.30369833752, 19030.297580992887, -45924.162378807356, -41981.87345050257, -14211.037958984132, -34907.41221993115, -46702.49482423006, -42277.8776023242, -0.001, 0.502, 0.074, 192.0, 127.5, 120.0, 15.5, 48.0, 2.0, 80.0, 0.0, 0.0, 0.0, 1.69542017900622E9, 0.0, 2023-09-22 17:02:59.006
0.0, 10113.717331137339, 15738.645582037638, -24741.257696301665, -24179.02191627287, -16816.75962409492, -9688.877724275319, -93750.01117587223, -8903.90681074939, -4375.711605037643, 9524.994733929007, -22964.02579117129, -20991.618453457173, -7109.21819319942, -17459.41698067391, -23352.074426659874, -21143.342094819796, 0.016, 1.002, 0.152, 192.0, 0.0, 64.0, 15.5, 40.0, 2.0, 96.0, 0.0, 0.0, 0.0, 1.695420179169364E9, 0.0, 2023-09-22 17:02:59.169
2.0, 20212.70486267863, 31466.80819592574, -49475.65340705555, -48353.23820748785, -33630.8370388552, -19372.03340197008, -187500.02235174447, -17797.777688238348, -8723.639991717338, 19100.035023693446, -45872.55220086005, -41943.11552561707, -14253.483921704761, -34777.86150906819, -46652.51632362799, -42255.16822995761, 0.016, 1.002, 0.152, 192.0, 0.0, 0.0, 0.0, 0.0, 0.0, 0.0, 0.0, 0.0, 0.0, 1.69542017916938E9, 0.0, 2023-09-22 17:02:59.169
4.0, 20218.04692960345, 31468.708094204438, -49491.210221196445, -48372.594818186146, -33637.721376147434, -19390.831219056992, -187500.02235174447, -17814.586200068738, -8738.280384335565, 19096.123468413767, -45888.24312546768, -41956.75008973481, -14260.748238652735, -34794.33474473176, -46662.127573743775, -42268.75809058644, 0.016, 1.002, 0.152, 192.0, 0.0, 0.0, 0.0, 0.0, 0.0, 0.0, 0.0, 0.0, 0.0, 1.695420179169383E9, 0.0, 2023-09-22 17:02:59.169
6.0, 20209.106231821326, 31467.903431404047, -49482.71655830343, -48350.33248070866, -33636.55908543576, -19367.585404823472, -187500.02235174447, -17796.436583571027, -8729.853776675913, 19091.854285222806, -45878.65422709635, -41948.9493309199, -14253.461569960305, -34782.913003315094, -46657.05372775242, -42257.78338405888, 0.016, 1.002, 0.152, 192.0, 0.0, 0.0, 0.0, 0.0, 0.0, 0.0, 0.0, 0.0, 0.0, 1.695420179169386E9, 0.0, 2023-09-22 17:02:59.169
8.0, 20217.085804591872, 31471.680876216997, -49496.50758463235, -48369.175001284486, -33636.02264356883, -19386.78555331058, -187500.02235174447, -17812.060452945287, -8735.955802912213, 19094.1565149017, -45885.98559927769, -41953.26321759978, -14258.222491529286, -34787.85273883972, -46660.51824814299, -42259.61622710422, 0.028, 0.996, 0.15, 192.0, 0.0, 112.0, 15.5, 16.0, 2.0, 88.0, 0.0, 0.0, 0.0, 1.69542017916939E9, 0.0, 2023-09-22 17:02:59.169
10.0, 20207.295740520447, 31469.84803317166, -49492.260753185845, -48354.84753308863, -33643.532829705815, -19374.73796304917, -187500.02235174447, -17809.937037222033, -8739.017991902589, 19086.333404342342, -45888.93602954579, -41955.72190948986, -14261.575253197581, -34789.350305718224, -46666.866143568295, -42261.44907014955, 0.028, 0.996, 0.15, 192.0, 0.0, 0.0, 0.0, 0.0, 0.0, 0.0, 0.0, 0.0, 0.0, 1.695420179169393E9, 0.0, 2023-09-22 17:02:59.169
12.0, 20220.28210404898, 31480.46511178793, -49476.70393904495, -48353.68524237695, -33620.197608494476, -19376.79432353906, -187500.02235174447, -17803.9020662191, -8727.86447141939, 19100.035023693446, -45876.50845962864, -41942.199104094405, -14248.700648391325, -34779.44848292452, -46651.219922449585, -42248.41800313211, 0.028, 0.996, 0.15, 192.0, 0.0, 0.0, 0.0, 0.0, 0.0, 0.0, 0.0, 0.0, 0.0, 1.695420179169396E9, 0.0, 2023-09-22 17:02:59.169
14.0, 20216.549362724945, 31481.269774588323, -49471.2277616534, -48339.64834685902, -33631.596998166686, -19363.048000699044, -187500.02235174447, -17795.184885881532, -8727.730360952659, 19103.678358039662, -45875.010892750135, -41942.08734537212, -14249.907642591912, -34778.33089570176, -46648.761230559496, -42247.635692076175, 0.028, 0.996, 0.15, 192.0, 0.0, 0.0, 0.0, 0.0, 0.0, 0.0, 0.0, 0.0, 0.0, 1.695420179169399E9, 0.0, 2023-09-22 17:02:59.169
16.0, 20227.14408959676, 31486.72360023542, -49464.20931389443, -48345.6609661175, -33615.32492820322, -19368.79239902406, -187500.02235174447, -17793.977891680945, -8719.504918993107, 19113.960160489103, -45867.388947890875, -41933.7501446903, -14246.420770456883, -34769.12197698617, -46641.072230466874, -42240.95252048403, 0.028, 0.996, 0.15, 192.0, 0.0, 0.0, 0.0, 0.0, 0.0, 0.0, 0.0, 0.0, 0.0, 1.695420179229646E9, 0.0, 2023-09-22 17:02:59.229
18.0, 20222.38316802778, 31483.79552171177, -49473.46293609893, -48345.83978007314, -33639.10718430366, -19371.966346736714, -187500.02235174447, -17804.594970297214, -8719.996657371123, 19114.653064567217, -45867.63481707988, -41935.426525524446, -14252.858072860012, -34770.17250897557, -46647.80010554792, -42246.38399438668, 0.024, 1.002, 0.148, 192.0, 0.0, 96.0, 15.5, 40.0, 2.0, 80.0, 0.0, 0.0, 0.0, 1.695420179229657E9, 0.0, 2023-09-22 17:02:59.229
20.0, 20225.71357795162, 31485.27073684582, -49467.62913079609, -48345.92918705096, -33622.25396898436, -19373.01687872611, -187500.02235174447, -17798.358833594186, -8720.57780272696, 19107.858134252805, -45867.12072695741, -41934.5995109796, -14248.544186180137, -34770.73130258695, -46649.878817782264, -42246.69691880905, 0.024, 1.002, 0.148, 192.0, 0.0, 0.0, 0.0, 0.0, 0.0, 0.0, 0.0, 0.0, 0.0, 1.695420179229661E9, 0.0, 2023-09-22 17:02:59.229
22.0, 20221.220877316104, 31486.298917090768, -49476.525125089305, -48344.968062039385, -33643.30931226126, -19371.63107056988, -187500.02235174447, -17802.784478996335, -8729.227927831165, 19107.098174941322, -45877.44723289576, -41942.176752349944, -14250.53349143666, -34773.50291889941, -46654.95266377362, -42249.46853512151, 0.024, 1.002, 0.148, 192.0, 0.0, 0.0, 0.0, 0.0, 0.0, 0.0, 0.0, 0.0, 0.0, 1.695420179229664E9, 0.0, 2023-09-22 17:02:59.229
24.0, 20212.883676634276, 31476.531204763796, -49479.967293735426, -48360.12254478008, -33635.217980768444, -19388.864265544926, -187500.02235174447, -17809.04296744382, -8731.552509254518, 19101.242017894034, -45882.275209698106, -41943.98724365082, -14252.187520526353, -34774.35228518871, -46656.71845158559, -42252.12839271169, 0.024, 1.002, 0.148, 192.0, 0.0, 0.0, 0.0, 0.0, 0.0, 0.0, 0.0, 0.0, 0.0, 1.695420179229667E9, 0.0, 2023-09-22 17:02:59.229
26.0, 20219.34333078186, 31484.42137055652, -49479.944941990965, -48348.47728591887, -33641.27530351583, -19377.442524128262, -187500.02235174447, -17803.030348185344, -8741.25316634812, 19093.73183175705, -45895.216869737735, -41951.36331932108, -14262.603433442526, -34785.706971372005, -46667.67080636869, -42267.01465451893, 0.024, 1.002, 0.148, 192.0, 0.0, 0.0, 0.0, 0.0, 0.0, 0.0, 0.0, 0.0, 0.0, 1.69542017922967E9, 0.0, 2023-09-22 17:02:59.229
28.0, 20215.208258057628, 31475.79359719677, -49474.155840177045, -48354.37814645507, -33624.53384691881, -19383.74571606466, -187500.02235174447, -17800.146973150608, -8725.808110929504, 19096.078764924856, -45883.54925913206, -41936.58881623612, -14253.170997282386, -34775.98396253395, -46656.83021030787, -42262.589009116775, 0.014, 1.008, 0.146, 192.0, 0.0, 56.0, 15.5, 64.0, 2.0, 72.0, 0.0, 0.0, 0.0, 1.695420179229674E9, 0.0, 2023-09-22 17:02:59.229
30.0, 20227.836993674875, 31486.388324068586, -49474.93815123298, -48346.28681496225, -33631.39583246659, -19373.46391361522, -187500.02235174447, -17794.313167847773, -8724.735227195648, 19097.77749750346, -45885.359750432945, -41934.86773191306, -14253.640383915948, -34785.9081370721, -46658.551294630925, -42272.8261080773, 0.014, 1.008, 0.146, 192.0, 0.0, 0.0, 0.0, 0.0, 0.0, 0.0, 0.0, 0.0, 0.0, 1.695420179289963E9, 0.0, 2023-09-22 17:02:59.289
32.0, 20220.863249404818, 31479.414579798533, -49470.93718897548, -48345.61626262859, -33618.87885557161, -19371.16168393632, -187500.02235174447, -17786.04302239931, -8707.636142687339, 19103.03015745046, -45864.88555251188, -41908.984411833815, -14239.134101764454, -34769.34549443072, -46640.51343685549, -42258.02925324789, 0.014, 1.008, 0.146, 192.0, 0.0, 0.0, 0.0, 0.0, 0.0, 0.0, 0.0, 0.0, 0.0, 1.695420179289977E9, 0.0, 2023-09-22 17:02:59.289
34.0, 20224.327769795393, 31482.543824022276, -49488.684474072994, -48352.00886154281, -33631.77581212232, -19377.196654939253, -187500.02235174447, -17795.073127159256, -8726.076331862967, 19097.86690448128, -45883.66101785434, -41923.20012130739, -14255.428523472372, -34789.68558188505, -46651.57755036087, -42279.06224478033, 0.014, 1.008, 0.146, 192.0, 0.0, 0.0, 0.0, 0.0, 0.0, 0.0, 0.0, 0.0, 0.0, 1.69542017928998E9, 0.0, 2023-09-22 17:02:59.289
36.0, 20210.71555742211, 31469.445701771463, -49489.71265431794, -48352.99233829884, -33622.61159689565, -19380.281195674088, -187500.02235174447, -17793.128525391643, -8717.470910247674, 19094.58119804635, -45868.50653511364, -41910.54903394569, -14249.751180380725, -34780.76723584739, -46640.938120000144, -42269.62980862019, 0.014, 1.008, 0.146, 192.0, 0.0, 0.0, 0.0, 0.0, 0.0, 0.0, 0.0, 0.0, 0.0, 1.695420179289983E9, 0.0, 2023-09-22 17:02:59.289
38.0, 20219.164516826215, 31473.647829729063, -49512.75730285136, -48366.73866113886, -33645.94681810699, -19397.894370304868, -187500.02235174447, -17815.68143554705, -8741.879015192868, 19082.26538685148, -45890.16537549083, -41933.951310390396, -14268.638404445459, -34815.635957197665, -46666.41910867919, -42302.12924505821, 0.016, 1.006, 0.14200000000000002, 192.0, 0.0, 64.0, 15.5, 56.0, 2.0, 56.0, 0.0, 0.0, 0.0, 1.695420179289987E9, 0.0, 2023-09-22 17:02:59.289
40.0, 20215.543534224456, 31473.647829729063, -49492.238401441384, -48337.05554450221, -33626.187876008495, -19369.954689735736, -187500.02235174447, -17791.787420724326, -8726.411608029795, 19081.21485486208, -45863.16446818882, -41913.25359502478, -14255.62968917247, -34795.05000055433, -46651.08581198285, -42281.811509348336, 0.016, 1.006, 0.14200000000000002, 192.0, 0.0, 0.0, 0.0, 0.0, 0.0, 0.0, 0.0, 0.0, 0.0, 1.69542017928999E9, 0.0, 2023-09-22 17:02:59.289
42.0, 20230.876830920795, 31482.4320653, -49491.61255259664, -48335.3568119236, -33619.191779993984, -19368.41241936832, -187500.02235174447, -17788.792286967313, -8724.243488817632, 19102.851343494815, -45852.145058172355, -41902.14477803049, -14247.940689079845, -34788.52329117338, -46638.81470427689, -42271.35089294325, 0.016, 1.006, 0.14200000000000002, 192.0, 0.0, 0.0, 0.0, 0.0, 0.0, 0.0, 0.0, 0.0, 0.0, 1.695420179289993E9, 0.0, 2023-09-22 17:02:59.289
44.0, 20212.414290000714, 31466.651733714552, -49493.89243053108, -48338.41900091398, -33620.15290500557, -19371.943994992256, -187500.02235174447, -17789.865170701167, -8725.29402080703, 19092.077802667358, -45847.16061915882, -41901.27305999673, -14247.91833733539, -34787.49511092843, -46638.30061415442, -42270.479174909495, 0.016, 1.006, 0.14200000000000002, 192.0, 0.0, 0.0, 0.0, 0.0, 0.0, 0.0, 0.0, 0.0, 0.0, 1.695420179289996E9, 0.0, 2023-09-22 17:02:59.289
46.0, 20229.848650675853, 31476.128873363603, -49495.389997409584, -48344.23045447236, -33616.7330881039, -19379.364774151418, -187500.02235174447, -17797.24124637142, -8728.1103406084, 19093.195389890123, -45850.84865699395, -41909.65496416747, -14251.159340281409, -34798.82744536727, -46645.38611714675, -42280.962143059034, 0.016, 1.006, 0.14200000000000002, 192.0, 0.0, 0.0, 0.0, 0.0, 0.0, 0.0, 0.0, 0.0, 0.0, 1.695420179349621E9, 0.0, 2023-09-22 17:02:59.349
48.0, 20220.52797323799, 31468.730445948895, -49489.44443338447, -48330.88646303254, -33617.76126834885, -19366.780742023082, -187500.02235174447, -17790.692185246015, -8719.884898648847, 19089.462648566085, -45840.611558033415, -41904.42465596493, -14247.560709424104, -34792.83717785325, -46644.31323341289, -42278.97283780251, 0.02, 1.01, 0.14200000000000002, 192.0, 0.0, 80.0, 15.5, 72.0, 2.0, 56.0, 0.0, 0.0, 0.0, 1.695420179349639E9, 0.0, 2023-09-22 17:02:59.349
50.0, 20236.19654610116, 31481.783864710793, -49493.40069215306, -48337.10024799112, -33611.70394560146, -19373.620375826406, -187500.02235174447, -17792.61443526917, -8708.686674676737, 19107.74637553053, -45832.989613174155, -41894.54518491569, -14241.0116482987, -34783.98588704895, -46635.43959086414, -42271.261485965435, 0.02, 1.01, 0.14200000000000002, 192.0, 0.0, 0.0, 0.0, 0.0, 0.0, 0.0, 0.0, 0.0, 0.0, 1.695420179349643E9, 0.0, 2023-09-22 17:02:59.349
52.0, 20214.872981890796, 31466.830547670193, -49501.46967190143, -48333.635727600544, -33624.17621900752, -19369.194730424253, -187500.02235174447, -17793.46380155847, -8719.415512015285, 19096.21287539159, -45843.897264468345, -41902.50240594178, -14259.161264796408, -34787.07042778378, -46648.02362299247, -42277.11764301272, 0.02, 1.01, 0.14200000000000002, 192.0, 0.0, 0.0, 0.0, 0.0, 0.0, 0.0, 0.0, 0.0, 0.0, 1.695420179349647E9, 0.0, 2023-09-22 17:02:59.349
54.0, 20223.366644783815, 31469.021018626812, -49500.39678816757, -48342.21879747138, -33615.906073559054, -19376.526102605596, -187500.02235174447, -17797.24124637142, -8723.036494617045, 19099.07389868187, -45851.74272677216, -41906.257499010266, -14255.383819983463, -34790.467892940986, -46648.560064859405, -42279.68809362508, 0.02, 1.01, 0.14200000000000002, 192.0, 0.0, 0.0, 0.0, 0.0, 0.0, 0.0, 0.0, 0.0, 0.0, 1.69542017934965E9, 0.0, 2023-09-22 17:02:59.349
56.0, 20211.117888822304, 31462.27079180131, -49493.91478227553, -48330.03709674324, -33620.0858497722, -19366.69133504526, -187500.02235174447, -17791.18392362403, -8720.376637026864, 19097.933959714646, -45850.2228081492, -41904.40230422048, -14245.794921612136, -34787.517462672884, -46646.68251832516, -42277.29645696837, 0.02, 1.01, 0.14200000000000002, 192.0, 0.0, 0.0, 0.0, 0.0, 0.0, 0.0, 0.0, 0.0, 0.0, 1.695420179349654E9, 0.0, 2023-09-22 17:02:59.349
58.0, 20216.750528425044, 31460.3261900337, -49505.44828241447, -48354.22168424389, -33621.7845823508, -19390.294777190065, -187500.02235174447, -17805.71255751998, -8719.549622482016, 19100.884389982748, -45853.754383773135, -41906.592775177094, -14245.884328589957, -34794.82648310977, -46647.28601542545, -42281.90091632616, 0.022, 1.002, 0.14400000000000002, 192.0, 0.0, 88.0, 15.5, 40.0, 2.0, 64.0, 0.0, 0.0, 0.0, 1.695420179349657E9, 0.0, 2023-09-22 17:02:59.349
60.0, 20207.38514749827, 31455.006474853337, -49506.029427770314, -48346.53268415126, -33636.91671334705, -19381.331727663484, -187500.02235174447, -17806.0031301979, -8733.810035444503, 19077.3032995824, -45868.26066592463, -41924.094191085605, -14263.229282287275, -34810.3162420173, -46665.748556345534, -42298.06122756735, 0.022, 1.002, 0.14400000000000002, 192.0, 0.0, 0.0, 0.0, 0.0, 0.0, 0.0, 0.0, 0.0, 0.0, 1.695420179409836E9, 0.0, 2023-09-22 17:02:59.409
62.0, 20216.392900513758, 31458.60510571064, -49502.49785214637, -48355.3616232111, -33621.449306183975, -19390.831219056992, -187500.02235174447, -17805.220819141963, -8727.037456874545, 19088.97091018807, -45861.21986642121, -41917.32161251565, -14255.406171727916, -34805.68943091505, -46659.93710278715, -42292.69680889807, 0.022, 1.002, 0.14400000000000002, 192.0, 0.0, 0.0, 0.0, 0.0, 0.0, 0.0, 0.0, 0.0, 0.0, 1.695420179409856E9, 0.0, 2023-09-22 17:02:59.409
64.0, 20213.822449901396, 31460.728521433895, -49497.20048871046, -48341.03415501525, -33630.34530047719, -19377.55428285054, -187500.02235174447, -17800.23638012843, -8727.909174908302, 19087.898026454215, -45858.67176755331, -41915.15349330348, -14256.188482783853, -34805.443561726046, -46658.59599811983, -42292.160367031145, 0.022, 1.002, 0.14400000000000002, 192.0, 0.0, 0.0, 0.0, 0.0, 0.0, 0.0, 0.0, 0.0, 0.0, 1.69542017940986E9, 0.0, 2023-09-22 17:02:59.409
66.0, 20218.695130192653, 31460.19207956697, -49493.244229941876, -48347.493809162836, -33614.40850668055, -19384.79624805406, -187500.02235174447, -17798.448240572005, -8718.29792479252, 19098.135125414745, -45848.05468893703, -41902.547109430685, -14244.811444856101, -34796.07818079927, -46645.833152035855, -42280.626866892206, 0.022, 1.002, 0.14400000000000002, 192.0, 0.0, 0.0, 0.0, 0.0, 0.0, 0.0, 0.0, 0.0, 0.0, 1.695420179409863E9, 0.0, 2023-09-22 17:02:59.409
68.0, 20212.637807445266, 31458.76156792183, -49499.659180600545, -48339.26836720328, -33630.34530047719, -19375.073239216, -187500.02235174447, -17796.637749271125, -8729.831424931459, 19093.664776523685, -45857.86710475291, -41912.62774618003, -14258.714229907302, -34802.7166489025, -46654.81855330689, -42287.62296290672, 0.02, 1.008, 0.14200000000000002, 192.0, 0.0, 80.0, 15.5, 64.0, 2.0, 56.0, 0.0, 0.0, 0.0, 1.695420179409866E9, 0.0, 2023-09-22 17:02:59.409
70.0, 20210.648502188746, 31455.40880625353, -49495.0323694983, -48343.85047481662, -33615.45903866995, -19380.50471311864, -187500.02235174447, -17793.575560280748, -8731.597212743427, 19090.91551195568, -45858.515305342116, -41911.219586279345, -14260.904700863923, -34800.77204713489, -46650.12468697127, -42282.929096571104, 0.02, 1.008, 0.14200000000000002, 192.0, 0.0, 0.0, 0.0, 0.0, 0.0, 0.0, 0.0, 0.0, 0.0, 1.695420179409869E9, 0.0, 2023-09-22 17:02:59.409
72.0, 20222.98666512807, 31468.194004081968, -49480.63784606908, -48320.403494883, -33614.78848633629, -19357.750637263136, -187500.02235174447, -17778.04109788431, -8721.605982971905, 19104.81829700688, -45849.19462790425, -41899.79784486268, -14245.236128000752, -34790.75846561891, -46640.62519557777, -42271.7755760879, 0.02, 1.008, 0.14200000000000002, 192.0, 0.0, 0.0, 0.0, 0.0, 0.0, 0.0, 0.0, 0.0, 0.0, 1.695420179409873E9, 0.0, 2023-09-22 17:02:59.409
74.0, 20219.008054615028, 31460.75087317835, -49477.285084400784, -48328.98656475384, -33606.25011995436, -19366.713686789713, -187500.02235174447, -17779.0469263848, -8713.112320078888, 19111.814393021392, -45838.06345916551, -41889.91837381344, -14234.999029040222, -34779.53788990234, -46628.354087871805, -42258.76686081492, 0.02, 1.008, 0.14200000000000002, 192.0, 0.0, 0.0, 0.0, 0.0, 0.0, 0.0, 0.0, 0.0, 0.0, 1.695420179409876E9, 0.0, 2023-09-22 17:02:59.409
76.0, 20219.455089504136, 31460.884983645083, -49488.617418839625, -48334.5074456343, -33625.94200681949, -19369.105323446434, -187500.02235174447, -17786.91474043307, -8723.550584739516, 19103.477192339564, -45848.9711104597, -41902.74827513078, -14246.510177434706, -34792.54660517533, -46640.3569746443, -42270.50152665395, 0.02, 1.008, 0.14200000000000002, 192.0, 0.0, 0.0, 0.0, 0.0, 0.0, 0.0, 0.0, 0.0, 0.0, 1.695420179470062E9, 0.0, 2023-09-22 17:02:59.470
78.0, 20209.508563221523, 31447.719806160905, -49483.230648425895, -48333.859245045096, -33611.05574501226, -19367.764218779113, -187500.02235174447, -17782.824371197745, -8721.829500416457, 19092.323671856364, -45847.42884009229, -41904.13408328701, -14245.191424511842, -34792.144273775135, -46639.44055312163, -42267.349930685756, 0.012, 1.008, 0.14200000000000002, 192.0, 0.0, 48.0, 15.5, 64.0, 2.0, 56.0, 0.0, 0.0, 0.0, 1.695420179470073E9, 0.0, 2023-09-22 17:02:59.470
80.0, 20211.94490336715, 31452.950114363448, -49496.75345382136, -48342.241149215835, -33628.26658824284, -19377.39782063935, -187500.02235174447, -17794.626092270148, -8731.016067387589, 19096.145820158225, -45858.98469197568, -41912.65009792449, -14253.975660082777, -34801.77787563537, -46646.727221814064, -42275.08363426729, 0.012, 1.008, 0.14200000000000002, 192.0, 0.0, 0.0, 0.0, 0.0, 0.0, 0.0, 0.0, 0.0, 0.0, 1.695420179470077E9, 0.0, 2023-09-22 17:02:59.470
82.0, 20206.356967253323, 31446.55751544923, -49484.638808326585, -48335.93795727944, -33610.98868977889, -19370.960518236225, -187500.02235174447, -17784.634862498628, -8720.622506215872, 19094.40238409071, -45847.607654047926, -41904.42465596493, -14244.543223922637, -34790.84787259673, -46638.92646299917, -42265.60649461824, 0.012, 1.008, 0.14200000000000002, 192.0, 0.0, 0.0, 0.0, 0.0, 0.0, 0.0, 0.0, 0.0, 0.0, 1.69542017947008E9, 0.0, 2023-09-22 17:02:59.470
84.0, 20212.436641745167, 31453.084224830178, -49495.85938404315, -48341.32472769317, -33624.109163774156, -19374.469742115707, -187500.02235174447, -17793.66496725857, -8729.898480164824, 19097.3081108699, -45862.33745364397, -41915.131141559024, -14254.020363571688, -34800.72734364597, -46649.94587301563, -42275.3295034563, 0.012, 1.008, 0.14200000000000002, 192.0, 0.0, 0.0, 0.0, 0.0, 0.0, 0.0, 0.0, 0.0, 0.0, 1.695420179470083E9, 0.0, 2023-09-22 17:02:59.470
86.0, 20197.550379937933, 31442.243628769356, -49489.01975023982, -48342.84464631613, -33613.067402013236, -19374.49209386016, -187500.02235174447, -17790.222798612453, -8725.897517907324, 19084.88054095275, -45857.464773352716, -41912.828911880126, -14250.935822836856, -34797.68750640005, -46644.156771201706, -42268.869849308714, 0.012, 1.008, 0.14200000000000002, 192.0, 0.0, 0.0, 0.0, 0.0, 0.0, 0.0, 0.0, 0.0, 0.0, 1.695420179470086E9, 0.0, 2023-09-22 17:02:59.470
88.0, 20212.682510934177, 31453.59831495265, -49493.378340408606, -48348.32082370768, -33621.20343699496, -19379.744753807157, -187500.02235174447, -17798.157667894087, -8725.517538251584, 19091.29549161142, -45860.07992745399, -41919.62384219454, -14256.590814184048, -34806.1141140597, -46644.53675085745, -42275.06128252283, 0.016, 1.002, 0.146, 192.0, 0.0, 64.0, 15.5, 40.0, 2.0, 72.0, 0.0, 0.0, 0.0, 1.69542017947009E9, 0.0, 2023-09-22 17:02:59.470
90.0, 20197.32686249338, 31442.64596016955, -49488.59506709517, -48338.061373002696, -33622.27632072882, -19370.066448458012, -187500.02235174447, -17790.17809512354, -8729.786721442548, 19081.326613584355, -45861.1751629323, -41923.22247305184, -14263.028116587177, -34803.186035536055, -46651.73401257206, -42275.26244822293, 0.016, 1.002, 0.146, 192.0, 0.0, 0.0, 0.0, 0.0, 0.0, 0.0, 0.0, 0.0, 0.0, 1.695420179530371E9, 0.0, 2023-09-22 17:02:59.530
92.0, 20215.56588596891, 31460.41559701152, -49487.38807289459, -48337.18965496894, -33620.823457339226, -19369.59706182445, -187500.02235174447, -17790.222798612453, -8731.999544143622, 19094.20121839061, -45865.287883912075, -41923.20012130739, -14259.407133985416, -34798.49216920044, -46649.58824510434, -42270.16625048712, 0.016, 1.002, 0.146, 192.0, 0.0, 0.0, 0.0, 0.0, 0.0, 0.0, 0.0, 0.0, 0.0, 1.695420179530384E9, 0.0, 2023-09-22 17:02:59.530
94.0, 20205.597007941844, 31452.391320752064, -49482.828317025705, -48332.62989910006, -33621.27049222833, -19366.51252108962, -187500.02235174447, -17784.076068887243, -8726.076331862967, 19093.15068640121, -45857.68829079727, -41915.80169389268, -14253.8639013605, -34788.65740164011, -46647.46482938109, -42262.63371260568, 0.016, 1.002, 0.146, 192.0, 0.0, 0.0, 0.0, 0.0, 0.0, 0.0, 0.0, 0.0, 0.0, 1.695420179530388E9, 0.0, 2023-09-22 17:02:59.530
96.0, 20216.683473191675, 31456.45933824293, -49492.37251190812, -48350.62305338658, -33624.55619866326, -19386.673794588303, -187500.02235174447, -17798.716461505468, -8731.641916232338, 19095.005881191002, -45869.333549658484, -41924.80944690817, -14258.9153956074, -34805.08593381476, -46654.88560854025, -42278.861079080234, 0.016, 1.002, 0.146, 192.0, 0.0, 0.0, 0.0, 0.0, 0.0, 0.0, 0.0, 0.0, 0.0, 1.695420179530391E9, 0.0, 2023-09-22 17:02:59.530
98.0, 20206.356967253323, 31447.496288716353, -49481.55426759175, -48341.07885850416, -33622.72335561793, -19377.73309680618, -187500.02235174447, -17791.295682346306, -8723.997619628622, 19089.909683455193, -45861.84571526596, -41921.434333495425, -14252.589851926548, -34803.476608213976, -46652.80689630591, -42276.04475927887, 0.014, 1.004, 0.14200000000000002, 192.0, 0.0, 56.0, 15.5, 48.0, 2.0, 56.0, 0.0, 0.0, 0.0, 1.695420179530395E9, 0.0, 2023-09-22 17:02:59.530
100.0, 20222.13729883877, 31457.666332443518, -49476.815697767226, -48342.37525968257, -33609.66993685603, -19379.20831194023, -187500.02235174447, -17789.418135812062, -8716.77800616956, 19098.895084726228, -45857.956511730736, -41915.30995551467, -14247.650116401926, -34799.207425023014, -46645.72139331358, -42273.36254994423, 0.014, 1.004, 0.14200000000000002, 192.0, 0.0, 0.0, 0.0, 0.0, 0.0, 0.0, 0.0, 0.0, 0.0, 1.695420179530398E9, 0.0, 2023-09-22 17:02:59.530
102.0, 20206.222856786593, 31448.79268989476, -49476.79334602277, -48331.132332221554, -33612.66507061304, -19365.93137573378, -187500.02235174447, -17783.070240386754, -8722.34359053893, 19091.273139866968, -45861.35397688794, -41916.874577626535, -14251.516968192695, -34797.15106453312, -46646.74957355852, -42270.278009209396, 0.014, 1.004, 0.14200000000000002, 192.0, 0.0, 0.0, 0.0, 0.0, 0.0, 0.0, 0.0, 0.0, 0.0, 1.695420179530401E9, 0.0, 2023-09-22 17:02:59.530
104.0, 20212.011958600517, 31453.084224830178, -49482.35893039214, -48342.12939049356, -33604.01494550883, -19377.084896216977, -187500.02235174447, -17786.89238868861, -8721.427169016262, 19096.2575788805, -45863.85737226694, -41916.65106018198, -14250.15351178092, -34797.4639889555, -46639.57466358837, -42265.74060508497, 0.014, 1.004, 0.14200000000000002, 192.0, 0.0, 0.0, 0.0, 0.0, 0.0, 0.0, 0.0, 0.0, 0.0, 1.695420179530405E9, 0.0, 2023-09-22 17:02:59.530
106.0, 20189.637862400756, 31438.2203147674, -49495.8817357876, -48346.577387640165, -33623.21509399594, -19377.040192728065, -187500.02235174447, -17791.899179446602, -8735.508768023106, 19082.26538685148, -45876.24023869518, -41926.91051088697, -14264.413924743407, -34805.37650649268, -46650.83994279384, -42273.071977266314, 0.014, 1.004, 0.14200000000000002, 192.0, 0.0, 0.0, 0.0, 0.0, 0.0, 0.0, 0.0, 0.0, 0.0, 1.695420179590632E9, 0.0, 2023-09-22 17:02:59.590
108.0, 20199.09265030535, 31438.2203147674, -49497.9827997664, -48362.26831224779, -33617.69421311548, -19390.004204512144, -187500.02235174447, -17799.454069072493, -8741.499035537128, 19078.86792169427, -45883.63866610988, -41935.337118546624, -14263.698668920837, -34816.17239906459, -46658.975977775575, -42282.41500644863, 0.016, 1.006, 0.14, 192.0, 0.0, 64.0, 15.5, 56.0, 2.0, 48.0, 0.0, 0.0, 0.0, 1.695420179590645E9, 0.0, 2023-09-22 17:02:59.590
110.0, 20192.32007173539, 31437.885038600572, -49493.22187819742, -48350.80186734222, -33628.06542254274, -19378.940091006767, -187500.02235174447, -17793.754374236392, -8738.34743956893, 19079.851398450304, -45877.313122429034, -41932.744316189805, -14261.8658258755, -34814.22779729698, -46659.5124196425, -42281.945619815066, 0.016, 1.006, 0.14, 192.0, 0.0, 0.0, 0.0, 0.0, 0.0, 0.0, 0.0, 0.0, 0.0, 1.695420179590649E9, 0.0, 2023-09-22 17:02:59.590
112.0, 20210.38028125528, 31450.73729166237, -49477.26273265633, -48346.04094577324, -33603.053820497254, -19373.955651993234, -187500.02235174447, -17783.874903187145, -8727.328029552464, 19092.34602360082, -45862.51626759962, -41919.266214283256, -14252.63455541546, -34804.14716054763, -46644.17912294616, -42270.52387839841, 0.016, 1.006, 0.14, 192.0, 0.0, 0.0, 0.0, 0.0, 0.0, 0.0, 0.0, 0.0, 0.0, 1.695420179590653E9, 0.0, 2023-09-22 17:02:59.590
114.0, 20201.976025340085, 31446.490460215864, -49486.15872694954, -48339.84951255912, -33622.03045153981, -19367.585404823472, -187500.02235174447, -17787.27236834435, -8732.267765077087, 19091.273139866968, -45864.9749594897, -41922.127237573535, -14257.328421751074, -34804.996526836934, -46647.39777414773, -42270.903858054146, 0.016, 1.006, 0.14, 192.0, 0.0, 0.0, 0.0, 0.0, 0.0, 0.0, 0.0, 0.0, 0.0, 1.695420179590656E9, 0.0, 2023-09-22 17:02:59.590
116.0, 20199.42792647218, 31442.958884591924, -49491.81371829673, -48349.95250105292, -33614.676727614016, -19378.247186928653, -187500.02235174447, -17792.770897480357, -8733.385352299852, 19091.094325911323, -45866.338415901475, -41922.14958931799, -14259.004802585221, -34803.09662855823, -46647.35307065881, -42269.227477219996, 0.016, 1.006, 0.14, 192.0, 0.0, 0.0, 0.0, 0.0, 0.0, 0.0, 0.0, 0.0, 0.0, 1.69542017959066E9, 0.0, 2023-09-22 17:02:59.590
118.0, 20193.6164729138, 31442.400090980544, -49500.06151200074, -48343.51519864979, -33626.79137310879, -19374.402686882342, -187500.02235174447, -17796.28012135984, -8739.82265470298, 19088.568578787876, -45876.061424739535, -41930.375031277545, -14268.124314322988, -34810.02566933938, -46657.32194868588, -42275.91064881213, 0.02, 1.004, 0.14, 192.0, 0.0, 80.0, 15.5, 48.0, 2.0, 48.0, 0.0, 0.0, 0.0, 1.695420179590663E9, 0.0, 2023-09-22 17:02:59.590
120.0, 20196.499847948533, 31439.89669560155, -49489.399729895566, -48344.208102727905, -33608.82057056673, -19376.056715972034, -187500.02235174447, -17790.33455733473, -8733.407704044308, 19090.64729102222, -45870.49584037016, -41925.32353703064, -14265.553863710627, -34803.40955298061, -46648.87298928178, -42269.49569815346, 0.02, 1.004, 0.14, 192.0, 0.0, 0.0, 0.0, 0.0, 0.0, 0.0, 0.0, 0.0, 0.0, 1.695420179649638E9, 0.0, 2023-09-22 17:02:59.649
122.0, 20202.490115462555, 31446.535163704775, -49484.482346115394, -48337.72609683587, -33613.9838235359, -19368.702992046237, -187500.02235174447, -17787.42883055554, -8731.641916232338, 19096.078764924856, -45870.048805481056, -41928.899816143494, -14260.144741552442, -34806.829369882274, -46647.21896019208, -42268.98160803099, 0.02, 1.004, 0.14, 192.0, 0.0, 0.0, 0.0, 0.0, 0.0, 0.0, 0.0, 0.0, 0.0, 1.695420179649652E9, 0.0, 2023-09-22 17:02:59.649
124.0, 20197.058641559917, 31438.84616361215, -49481.621322825114, -48346.68914636244, -33604.9313670315, -19376.59315783896, -187500.02235174447, -17789.038156156323, -8732.267765077087, 19086.445163064618, -45868.46183162473, -41930.95617663338, -14257.194311284342, -34810.91973911759, -46645.65433808021, -42270.50152665395, 0.02, 1.004, 0.14, 192.0, 0.0, 0.0, 0.0, 0.0, 0.0, 0.0, 0.0, 0.0, 0.0, 1.695420179649656E9, 0.0, 2023-09-22 17:02:59.649
126.0, 20210.29087427746, 31452.056044585235, -49474.26759889932, -48334.842721801135, -33607.07713449921, -19364.232643155177, -187500.02235174447, -17784.05371714279, -8721.717741694181, 19098.179828903656, -45858.73882278667, -41922.52956897373, -14248.991221069244, -34805.17534079258, -46639.03822172144, -42266.16528822962, 0.02, 1.004, 0.14, 192.0, 0.0, 0.0, 0.0, 0.0, 0.0, 0.0, 0.0, 0.0, 0.0, 1.695420179649659E9, 0.0, 2023-09-22 17:02:59.649
128.0, 20206.781650397978, 31447.585695694175, -49464.723404016906, -48332.384029911045, -33592.25792792534, -19359.896404730847, -187500.02235174447, -17773.32487980424, -8707.613790942883, 19104.728890029062, -45841.818552234006, -41906.816292621654, -14239.424674442373, -34787.673924884075, -46625.67187853717, -42249.49088686596, 0.018000000000000002, 1.0, 0.14200000000000002, 192.0, 0.0, 72.0, 15.5, 32.0, 2.0, 56.0, 0.0, 0.0, 0.0, 1.695420179649662E9, 0.0, 2023-09-22 17:02:59.649
130.0, 20214.515353979514, 31454.85001264215, -49474.424061110505, -48335.44621890142, -33607.43476241049, -19360.611660553415, -187500.02235174447, -17777.974042650945, -8720.823671915969, 19105.48884934054, -45857.50947684163, -41916.98633634882, -14249.035924558155, -34802.33666924675, -46635.14901818622, -42258.96802651502, 0.018000000000000002, 1.0, 0.14200000000000002, 192.0, 0.0, 0.0, 0.0, 0.0, 0.0, 0.0, 0.0, 0.0, 0.0, 1.695420179649666E9, 0.0, 2023-09-22 17:02:59.649
132.0, 20191.202484512625, 31435.49340194385, -49487.36572115013, -48350.26542547529, -33611.32396594572, -19373.039230470567, -187500.02235174447, -17782.444391542005, -8725.58459348495, 19093.798886990415, -45861.21986642121, -41920.96494686186, -14251.67343040388, -34802.58253843577, -46634.61257631929, -42253.715366568016, 0.018000000000000002, 1.0, 0.14200000000000002, 192.0, 0.0, 0.0, 0.0, 0.0, 0.0, 0.0, 0.0, 0.0, 0.0, 1.695420179649669E9, 0.0, 2023-09-22 17:02:59.649
134.0, 20205.462897475114, 31449.68675967297, -49488.10332871715, -48347.38205044056, -33616.17429449252, -19369.59706182445, -187500.02235174447, -17779.829237440736, -8741.387276814852, 19089.44029682163, -45879.2800759411, -41935.49358075781, -14267.587872456059, -34813.24432054094, -46646.23548343605, -42263.773651572905, 0.018000000000000002, 1.0, 0.14200000000000002, 192.0, 0.0, 0.0, 0.0, 0.0, 0.0, 0.0, 0.0, 0.0, 0.0, 1.695420179649673E9, 0.0, 2023-09-22 17:02:59.649
136.0, 20191.7165746351, 31438.086204300667, -49484.66116007104, -48347.89614056303, -33608.06061125524, -19367.87597750139, -187500.02235174447, -17778.063449628764, -8734.078256377967, 19086.378107831253, -45870.76406130363, -41926.44112425341, -14261.754067153224, -34802.44842796903, -46637.56300658739, -42251.50254386694, 0.018000000000000002, 1.0, 0.14200000000000002, 192.0, 0.0, 0.0, 0.0, 0.0, 0.0, 0.0, 0.0, 0.0, 0.0, 1.695420179709841E9, 0.0, 2023-09-22 17:02:59.709
138.0, 20209.776784154987, 31456.638152198575, -49486.06931997172, -48350.75716385331, -33614.47556191392, -19372.659250814828, -187500.02235174447, -17784.05371714279, -8736.760465712603, 19093.508314312498, -45876.01672125062, -41928.139856832015, -14270.091267835054, -34810.56211120631, -46642.972128745576, -42258.118660225715, 0.016, 1.008, 0.146, 192.0, 0.0, 64.0, 15.5, 64.0, 2.0, 72.0, 0.0, 0.0, 0.0, 1.695420179709853E9, 0.0, 2023-09-22 17:02:59.709
140.0, 20198.019766571495, 31449.977332350893, -49479.63201756859, -48344.11869575008, -33612.218035723934, -19366.892500745358, -187500.02235174447, -17780.9468246635, -8732.223061588176, 19089.909683455193, -45867.679520568796, -41920.383801506025, -14262.804599142624, -34803.00722158042, -46644.13441945725, -42253.93888401257, 0.016, 1.008, 0.146, 192.0, 0.0, 0.0, 0.0, 0.0, 0.0, 0.0, 0.0, 0.0, 0.0, 1.695420179709857E9, 0.0, 2023-09-22 17:02:59.709
142.0, 20220.371511026802, 31468.395169782067, -49467.31620637372, -48334.08276248965, -33595.49893087136, -19357.795340752047, -187500.02235174447, -17772.184940837018, -8721.762445183092, 19110.316826142887, -45859.767003031615, -41911.46545546835, -14250.287622247652, -34794.17828252057, -46632.533864084944, -42245.51227635292, 0.016, 1.008, 0.146, 192.0, 0.0, 0.0, 0.0, 0.0, 0.0, 0.0, 0.0, 0.0, 0.0, 1.69542017970986E9, 0.0, 2023-09-22 17:02:59.709
144.0, 20205.887580619765, 31456.526393476295, -49464.87986622809, -48328.248957186814, -33598.091733228175, -19351.35803834892, -187500.02235174447, -17765.45706575597, -8717.403855014307, 19103.432488850653, -45854.40258436234, -41910.101999056584, -14247.180729768364, -34785.0587707828, -46625.51541632598, -42235.36458437021, 0.016, 1.008, 0.146, 192.0, 0.0, 0.0, 0.0, 0.0, 0.0, 0.0, 0.0, 0.0, 0.0, 1.695420179709863E9, 0.0, 2023-09-22 17:02:59.709
146.0, 20218.203391814637, 31464.617724969117, -49471.36187212013, -48337.16730322449, -33596.772980305315, -19361.72924777618, -187500.02235174447, -17771.156760592075, -8721.784796927548, 19105.377090618265, -45861.28692165457, -41915.265252025754, -14251.338154237052, -34791.07139004128, -46627.81764600488, -42239.07497394979, 0.016, 1.008, 0.146, 192.0, 0.0, 0.0, 0.0, 0.0, 0.0, 0.0, 0.0, 0.0, 0.0, 1.695420179709867E9, 0.0, 2023-09-22 17:02:59.709
148.0, 20195.7175368926, 31451.027864340293, -49477.016863467325, -48335.64738460152, -33609.11114324464, -19358.756465763625, -187500.02235174447, -17770.46385651396, -8730.546680754029, 19091.273139866968, -45869.11003221393, -41924.27300504124, -14262.178750297875, -34795.11705578769, -46633.65145130771, -42242.22656991799, 0.016, 1.006, 0.148, 192.0, 0.0, 64.0, 15.5, 56.0, 2.0, 80.0, 0.0, 0.0, 0.0, 1.69542017970987E9, 0.0, 2023-09-22 17:02:59.709
150.0, 20211.453164989136, 31460.907335389536, -49470.66896804202, -48340.162436981496, -33593.59903259266, -19363.20446291023, -187500.02235174447, -17768.094571601698, -8725.226965573665, 19101.040852193935, -45866.09254671247, -41922.30605152918, -14257.261366517707, -34794.20063426503, -46625.8059890039, -42238.963215227515, 0.016, 1.006, 0.148, 192.0, 0.0, 0.0, 0.0, 0.0, 0.0, 0.0, 0.0, 0.0, 0.0, 1.695420179769984E9, 0.0, 2023-09-22 17:02:59.769
152.0, 20195.538722936955, 31448.166841050013, -49479.63201756859, -48347.24793997383, -33614.453210169464, -19369.686468802272, -187500.02235174447, -17778.398725795596, -8732.267765077087, 19083.11475314078, -45874.18387820529, -41934.152476090494, -14262.58108169807, -34806.762314648906, -46636.64658506472, -42251.27902642239, 0.016, 1.006, 0.148, 192.0, 0.0, 0.0, 0.0, 0.0, 0.0, 0.0, 0.0, 0.0, 0.0, 1.695420179770018E9, 0.0, 2023-09-22 17:02:59.770
154.0, 20212.52604872299, 31458.18042256599, -49476.391014622575, -48351.204198742416, -33599.276375684305, -19374.44739037125, -187500.02235174447, -17780.499789774392, -8731.664267976794, 19083.941767685625, -45876.262590439634, -41935.91826390246, -14259.854168874523, -34811.992622851445, -46637.89828275422, -42258.00690150343, 0.016, 1.006, 0.148, 192.0, 0.0, 0.0, 0.0, 0.0, 0.0, 0.0, 0.0, 0.0, 0.0, 1.695420179770022E9, 0.0, 2023-09-22 17:02:59.770
156.0, 20205.6193596863, 31458.538050477273, -49471.898313987054, -48333.68043108946, -33606.42893391001, -19358.8682244859, -187500.02235174447, -17772.363754792663, -8720.309581793497, 19091.563712544885, -45865.220828678706, -41924.80944690817, -14249.415904213894, -34796.39110522164, -46632.44445710712, -42249.580293843785, 0.016, 1.006, 0.148, 192.0, 0.0, 0.0, 0.0, 0.0, 0.0, 0.0, 0.0, 0.0, 0.0, 1.695420179770026E9, 0.0, 2023-09-22 17:02:59.770
158.0, 20217.018749358507, 31465.33298079169, -49466.86917148461, -48333.18869271144, -33588.2793174123, -19357.281250629574, -187500.02235174447, -17765.90410064508, -8716.018046858078, 19104.706538284605, -45862.2256949217, -41921.434333495425, -14247.113674534998, -34789.55147141832, -46627.37061111577, -42243.79119202986, 0.014, 1.006, 0.15, 192.0, 0.0, 56.0, 15.5, 56.0, 2.0, 88.0, 0.0, 0.0, 0.0, 1.695420179770029E9, 0.0, 2023-09-22 17:02:59.770
160.0, 20195.80694387042, 31453.97829460839, -49489.1315089621, -48344.31986145018, -33616.777791592816, -19366.93720423427, -187500.02235174447, -17780.27627232984, -8725.29402080703, 19100.92909347166, -45870.71935781471, -41928.899816143494, -14257.954270595823, -34794.96059357651, -46635.5066460975, -42249.021500232404, 0.014, 1.006, 0.15, 192.0, 0.0, 0.0, 0.0, 0.0, 0.0, 0.0, 0.0, 0.0, 0.0, 1.695420179770032E9, 0.0, 2023-09-22 17:02:59.770
162.0, 20205.842877130854, 31456.571096965206, -49484.41529088203, -48348.79021034124, -33602.137398974584, -19370.64759381385, -187500.02235174447, -17777.169379850555, -8733.161834855298, 19092.59189278983, -45878.65422709635, -41936.36529879156, -14265.732677666269, -34801.733172146465, -46641.96630024508, -42253.24597993446, 0.014, 1.006, 0.15, 192.0, 0.0, 0.0, 0.0, 0.0, 0.0, 0.0, 0.0, 0.0, 0.0, 1.695420179770036E9, 0.0, 2023-09-22 17:02:59.770
164.0, 20195.337557236857, 31450.536125962273, -49501.67083760152, -48356.6133209006, -33627.61838765364, -19376.682564816783, -187500.02235174447, -17789.060507900776, -8744.896500694334, 19086.713383998085, -45889.22660222371, -41946.08830762962, -14280.574235984594, -34814.250149041436, -46654.19270446214, -42264.958294029035, 0.014, 1.006, 0.15, 192.0, 0.0, 0.0, 0.0, 0.0, 0.0, 0.0, 0.0, 0.0, 0.0, 1.695420179770039E9, 0.0, 2023-09-22 17:02:59.770
166.0, 20200.94784509514, 31447.920971861004, -49488.39390139507, -48359.00495755732, -33607.881797299604, -19378.247186928653, -187500.02235174447, -17783.85255144269, -8737.20750060171, 19085.43933456413, -45881.35878817544, -41939.91922615996, -14275.567445226605, -34807.49992221593, -46647.42012589218, -42259.05743349283, 0.014, 1.006, 0.15, 192.0, 0.0, 0.0, 0.0, 0.0, 0.0, 0.0, 0.0, 0.0, 0.0, 1.695420179830371E9, 0.0, 2023-09-22 17:02:59.830
168.0, 20198.779725882974, 31452.257210285334, -49488.192735694975, -48351.02538478677, -33618.923559060524, -19372.01105022562, -187500.02235174447, -17786.445353799507, -8741.722552981682, 19081.170151373168, -45886.119709744424, -41947.2505983413, -14274.807485915124, -34813.75841066342, -46652.42691665017, -42263.37132017271, 0.016, 1.004, 0.148, 192.0, 0.0, 64.0, 15.5, 48.0, 2.0, 80.0, 0.0, 0.0, 0.0, 1.695420179830397E9, 0.0, 2023-09-22 17:02:59.830
170.0, 20202.981853840574, 31454.157108564035, -49475.78751752228, -48347.38205044056, -33596.638869838585, -19371.429904869783, -187500.02235174447, -17780.008051396377, -8724.556413240005, 19086.266349108977, -45869.132383958386, -41930.95617663338, -14254.847378116534, -34797.30752674431, -46635.77486703097, -42248.01567173191, 0.016, 1.004, 0.148, 192.0, 0.0, 0.0, 0.0, 0.0, 0.0, 0.0, 0.0, 0.0, 0.0, 1.695420179830403E9, 0.0, 2023-09-22 17:02:59.830
172.0, 20204.457068974625, 31460.214431311422, -49488.349197906166, -48351.15949525351, -33618.87885557161, -19376.660213072326, -187500.02235174447, -17789.552246278792, -8731.86543367689, 19090.513180555485, -45877.40252940685, -41936.07472611365, -14263.497503220739, -34805.98000359297, -46643.7097363126, -42255.972892758, 0.016, 1.004, 0.148, 192.0, 0.0, 0.0, 0.0, 0.0, 0.0, 0.0, 0.0, 0.0, 0.0, 1.695420179830407E9, 0.0, 2023-09-22 17:02:59.830
174.0, 20200.456106717123, 31458.247477799356, -49478.53678209028, -48346.152704495515, -33603.344393175175, -19372.569843837005, -187500.02235174447, -17782.734964219926, -8732.804206944014, 19083.58413977434, -45877.78250906259, -41932.67726095644, -14263.564558454103, -34802.94016634705, -46644.04501247943, -42253.558904356825, 0.016, 1.004, 0.148, 192.0, 0.0, 0.0, 0.0, 0.0, 0.0, 0.0, 0.0, 0.0, 0.0, 1.69542017983041E9, 0.0, 2023-09-22 17:02:59.830
176.0, 20202.758336396022, 31460.61676271162, -49494.764148564835, -48357.73090812337, -33624.243274240886, -19382.56107360853, -187500.02235174447, -17793.016766669367, -8736.91692792379, 19092.167209645177, -45881.98463702019, -41936.387650536024, -14267.230244544775, -34806.80701813782, -46646.63781483624, -42256.1740584581, 0.016, 1.004, 0.148, 192.0, 0.0, 0.0, 0.0, 0.0, 0.0, 0.0, 0.0, 0.0, 0.0, 1.695420179830414E9, 0.0, 2023-09-22 17:02:59.830
178.0, 20188.743792622543, 31444.434099725975, -49496.999323010365, -48367.65508266152, -33622.52218991783, -19392.59700686896, -187500.02235174447, -17797.57652253825, -8743.801265216025, 19075.291642581422, -45887.79609057857, -41944.76955470676, -14274.673375448392, -34812.484361229464, -46655.62321610728, -42263.50543063944, 0.018000000000000002, 1.008, 0.146, 192.0, 0.0, 72.0, 15.5, 64.0, 2.0, 72.0, 0.0, 0.0, 0.0, 1.695420179830417E9, 0.0, 2023-09-22 17:02:59.830
180.0, 20201.171362539695, 31455.207640553435, -49495.255886942854, -48363.363547726105, -33630.099431288174, -19388.70780333374, -187500.02235174447, -17798.38118533864, -8752.138465897855, 19076.520988526463, -45899.70957037325, -41955.67720600095, -14283.25644531923, -34827.3706230367, -46664.58626563386, -42275.19539298957, 0.018000000000000002, 1.008, 0.146, 192.0, 0.0, 0.0, 0.0, 0.0, 0.0, 0.0, 0.0, 0.0, 0.0, 1.695420179890523E9, 0.0, 2023-09-22 17:02:59.890
182.0, 20197.975063082584, 31455.85584114264, -49476.01103496683, -48348.678451618965, -33608.52999788881, -19375.944957249758, -187500.02235174447, -17781.57267350825, -8729.96553539819, 19084.277043852457, -45877.93897127378, -41936.4994092583, -14269.018384101199, -34808.10341931623, -46646.81662879189, -42256.66579683612, 0.018000000000000002, 1.008, 0.146, 192.0, 0.0, 0.0, 0.0, 0.0, 0.0, 0.0, 0.0, 0.0, 0.0, 1.69542017989054E9, 0.0, 2023-09-22 17:02:59.890
184.0, 20212.34723476735, 31474.676009974006, -49476.4804216004, -48345.0127655283, -33608.55234963326, -19375.050887471545, -187500.02235174447, -17781.259749085875, -8726.992753385633, 19101.890218483237, -45874.80972705004, -41929.41390626597, -14267.163189311408, -34806.628204182176, -46642.681556067655, -42254.31886366831, 0.018000000000000002, 1.008, 0.146, 192.0, 0.0, 0.0, 0.0, 0.0, 0.0, 0.0, 0.0, 0.0, 0.0, 1.695420179890543E9, 0.0, 2023-09-22 17:02:59.890
186.0, 20195.985757826063, 31459.94621037796, -49480.302569902255, -48351.31595746469, -33615.28022471431, -19382.382259652884, -187500.02235174447, -17786.71357473297, -8729.92083190928, 19095.519971313475, -45872.68631132678, -41929.3468510326, -14260.100038063532, -34801.64376516864, -46641.67572756717, -42250.697881066546, 0.018000000000000002, 1.008, 0.146, 192.0, 0.0, 0.0, 0.0, 0.0, 0.0, 0.0, 0.0, 0.0, 0.0, 1.695420179890546E9, 0.0, 2023-09-22 17:02:59.890
188.0, 20214.828278401885, 31471.300896561253, -49476.391014622575, -48348.83491383016, -33612.32979444621, -19379.320070662507, -187500.02235174447, -17786.691222988513, -8730.993715643133, 19095.989357947037, -45877.93897127378, -41937.10290635859, -14264.480979976772, -34811.76910540689, -46647.88951252574, -42257.80573580334, 0.016, 1.008, 0.14400000000000002, 192.0, 0.0, 64.0, 15.5, 64.0, 2.0, 64.0, 0.0, 0.0, 0.0, 1.69542017989055E9, 0.0, 2023-09-22 17:02:59.890
190.0, 20198.08682180486, 31456.03465509828, -49477.866229756626, -48351.539474909245, -33616.554274148264, -19379.83416078498, -187500.02235174447, -17787.674699744548, -8728.266802819588, 19091.228436378056, -45872.149869459856, -41934.778324935236, -14262.312860764607, -34806.3152797598, -46642.2121694341, -42253.290683423365, 0.016, 1.008, 0.14400000000000002, 192.0, 0.0, 0.0, 0.0, 0.0, 0.0, 0.0, 0.0, 0.0, 0.0, 1.695420179890553E9, 0.0, 2023-09-22 17:02:59.890
192.0, 20221.19852557165, 31473.80429194025, -49473.50763958784, -48350.62305338658, -33609.200550222464, -19380.415306140818, -187500.02235174447, -17787.09355438871, -8730.25610807611, 19096.4587445806, -45875.05559623904, -41936.2982435582, -14262.245805531242, -34811.52323621789, -46642.2121694341, -42256.10700322474, 0.016, 1.008, 0.14400000000000002, 192.0, 0.0, 0.0, 0.0, 0.0, 0.0, 0.0, 0.0, 0.0, 0.0, 1.695420179890556E9, 0.0, 2023-09-22 17:02:59.890
194.0, 20203.5182957075, 31465.645905214064, -49476.77099427831, -48345.77272483978, -33620.77875385031, -19378.873035773402, -187500.02235174447, -17787.004147410888, -8729.63025923136, 19094.40238409071, -45871.03228223709, -41932.07376385615, -14261.642308430948, -34807.90225361613, -46643.173294445674, -42253.581256101286, 0.016, 1.008, 0.14400000000000002, 192.0, 0.0, 0.0, 0.0, 0.0, 0.0, 0.0, 0.0, 0.0, 0.0, 1.695420179890559E9, 0.0, 2023-09-22 17:02:59.890
196.0, 20218.024577858996, 31477.157053608546, -49482.962427492435, -48354.24403598834, -33619.59411139418, -19387.523160877605, -187500.02235174447, -17795.09547890371, -8732.133654610356, 19101.59964580532, -45873.93800901628, -41932.67726095644, -14271.365317269006, -34811.50088447343, -46646.101372969315, -42256.151706713645, 0.016, 1.008, 0.14400000000000002, 192.0, 0.0, 0.0, 0.0, 0.0, 0.0, 0.0, 0.0, 0.0, 0.0, 1.695420179949471E9, 0.0, 2023-09-22 17:02:59.949
198.0, 20205.976987597584, 31471.122082605612, -49477.46389835643, -48342.12939049356, -33621.85163758417, -19373.46391361522, -187500.02235174447, -17783.316109575764, -8730.613735987394, 19095.475267824564, -45871.00993049263, -41931.53732198922, -14274.673375448392, -34807.90225361613, -46650.68348058266, -42255.3246921688, 0.016, 1.01, 0.14400000000000002, 192.0, 0.0, 64.0, 15.5, 72.0, 2.0, 64.0, 0.0, 0.0, 0.0, 1.695420179949482E9, 0.0, 2023-09-22 17:02:59.949
200.0, 20217.734005181075, 31477.26881233082, -49474.04408145477, -48347.42675392947, -33609.31230894474, -19378.0236694841, -187500.02235174447, -17780.924472919043, -8725.763407440592, 19107.835782508348, -45869.02062523611, -41927.53635973172, -14263.20693054282, -34803.40955298061, -46641.921596756176, -42248.61916883221, 0.016, 1.01, 0.14400000000000002, 192.0, 0.0, 0.0, 0.0, 0.0, 0.0, 0.0, 0.0, 0.0, 0.0, 1.695420179949486E9, 0.0, 2023-09-22 17:02:59.949
202.0, 20200.210237528114, 31466.674085459006, -49476.77099427831, -48344.74454459483, -33623.393907951584, -19372.525140348094, -187500.02235174447, -17781.08093513023, -8727.77506444157, 19103.83482025085, -45871.45696538174, -41930.53149348873, -14260.97175609729, -34803.09662855823, -46644.42499213517, -42250.02732873289, 0.016, 1.01, 0.14400000000000002, 192.0, 0.0, 0.0, 0.0, 0.0, 0.0, 0.0, 0.0, 0.0, 0.0, 1.695420179949489E9, 0.0, 2023-09-22 17:02:59.949
204.0, 20208.279217276482, 31468.082245359692, -49478.51443034583, -48355.5627889112, -33615.41433518104, -19384.237454442675, -187500.02235174447, -17785.37247006565, -8730.25610807611, 19102.91839872818, -45876.55316311755, -41934.10777260158, -14264.033945087665, -34807.522273960385, -46643.19564619013, -42250.87669502219, 0.016, 1.01, 0.14400000000000002, 192.0, 0.0, 0.0, 0.0, 0.0, 0.0, 0.0, 0.0, 0.0, 0.0, 1.695420179949492E9, 0.0, 2023-09-22 17:02:59.949
206.0, 20194.108211291816, 31461.622591212108, -49482.51539260333, -48350.511294664306, -33629.339471976695, -19378.26953867311, -187500.02235174447, -17785.03719389882, -8736.738113968147, 19093.55301780141, -45879.68240734129, -41939.36043254858, -14269.733639923768, -34810.40564899512, -46646.28018692496, -42252.307206667334, 0.016, 1.01, 0.14400000000000002, 192.0, 0.0, 0.0, 0.0, 0.0, 0.0, 0.0, 0.0, 0.0, 0.0, 1.695420179949496E9, 0.0, 2023-09-22 17:02:59.949
208.0, 20205.440545730657, 31466.919954648016, -49479.34144489068, -48354.3110912217, -33611.21220722344, -19381.957576508234, -187500.02235174447, -17787.65234800009, -8740.359096569908, 19086.892197953726, -45886.72320684471, -41946.89297043002, -14276.282701049175, -34816.4182682536, -46652.00223350552, -42259.79504105986, 0.02, 1.012, 0.14, 192.0, 0.0, 80.0, 15.5, 80.0, 2.0, 48.0, 0.0, 0.0, 0.0, 1.695420179949499E9, 0.0, 2023-09-22 17:02:59.949
210.0, 20201.506638706524, 31470.138605849577, -49471.40657560904, -48339.91656779249, -33613.51443690234, -19368.233605412675, -187500.02235174447, -17779.67277522955, -8721.695389949726, 19101.39848010522, -45870.13821245888, -41932.9454818899, -14263.743372409746, -34800.07914305677, -46638.81470427689, -42247.143953698156, 0.02, 1.012, 0.14, 192.0, 0.0, 0.0, 0.0, 0.0, 0.0, 0.0, 0.0, 0.0, 0.0, 1.695420180010026E9, 0.0, 2023-09-22 17:03:00.010
212.0, 20199.76320263901, 31462.4272540125, -49477.1286221896, -48359.295530235235, -33607.99355602188, -19388.26076844463, -187500.02235174447, -17787.205313110986, -8727.037456874545, 19094.871770724272, -45875.502631128154, -41938.399307537, -14260.412962485905, -34806.762314648906, -46641.31809965588, -42252.97775900099, 0.02, 1.012, 0.14, 192.0, 0.0, 0.0, 0.0, 0.0, 0.0, 0.0, 0.0, 0.0, 0.0, 1.695420180010041E9, 0.0, 2023-09-22 17:03:00.010
214.0, 20195.5163711925, 31461.98021912339, -49480.25786641334, -48352.321785965185, -33624.64560564108, -19382.94105326427, -187500.02235174447, -17785.7971532103, -8735.352305811919, 19086.95925318709, -45883.057520754046, -41946.82591519665, -14268.481942234272, -34818.854608399226, -46649.878817782264, -42262.54430562786, 0.02, 1.012, 0.14, 192.0, 0.0, 0.0, 0.0, 0.0, 0.0, 0.0, 0.0, 0.0, 0.0, 1.695420180010045E9, 0.0, 2023-09-22 17:03:00.010
216.0, 20199.696147405644, 31463.857765657638, -49468.634959296585, -48344.699841105925, -33604.4843321424, -19375.810846783024, -187500.02235174447, -17772.296699559298, -8731.194881343232, 19091.898988711713, -45877.40252940685, -41940.90270291599, -14262.223453786786, -34811.76910540689, -46641.921596756176, -42252.68718632307, 0.02, 1.012, 0.14, 192.0, 0.0, 0.0, 0.0, 0.0, 0.0, 0.0, 0.0, 0.0, 0.0, 1.695420180010048E9, 0.0, 2023-09-22 17:03:00.010
218.0, 20193.638824658254, 31465.534146491787, -49477.150973934054, -48341.347079437626, -33616.911902059546, -19370.133503691377, -187500.02235174447, -17770.70972570297, -8733.340648810941, 19098.40334634821, -45878.81068930754, -41942.08734537212, -14262.558729953615, -34809.44452398354, -46637.94298624313, -42247.07689846479, 0.02, 1.008, 0.14, 192.0, 0.0, 80.0, 15.5, 64.0, 2.0, 48.0, 0.0, 0.0, 0.0, 1.695420180010051E9, 0.0, 2023-09-22 17:03:00.010
220.0, 20181.725344863575, 31453.50890797483, -49472.345348876166, -48347.985547540855, -33601.46684664093, -19374.8720735159, -187500.02235174447, -17767.692240201504, -8728.378561541864, 19096.81637249188, -45873.78154680509, -41938.756935448284, -14259.071857818588, -34801.934337846564, -46630.23163440605, -42236.90685473762, 0.02, 1.008, 0.14, 192.0, 0.0, 0.0, 0.0, 0.0, 0.0, 0.0, 0.0, 0.0, 0.0, 1.695420180010054E9, 0.0, 2023-09-22 17:03:00.010
222.0, 20168.828388312864, 31440.991931079858, -49484.88467751559, -48356.009823800305, -33619.92938756101, -19379.431829384786, -187500.02235174447, -17778.734001962424, -8749.836236218958, 19083.472381052063, -45892.60171563646, -41958.04649091321, -14279.277834806186, -34822.45323925653, -46646.57075960288, -42254.0729944793, 0.02, 1.008, 0.14, 192.0, 0.0, 0.0, 0.0, 0.0, 0.0, 0.0, 0.0, 0.0, 0.0, 1.695420180010058E9, 0.0, 2023-09-22 17:03:00.010
224.0, 20142.02864671095, 31413.476933655376, -49486.78457579429, -48365.889294849556, -33611.726297345915, -19386.293814932564, -187500.02235174447, -17780.47743802994, -8751.40085833083, 19072.095343124314, -45891.774701091614, -41959.61111302509, -14272.25938704722, -34819.74867817744, -46643.866198523785, -42251.390785144664, 0.02, 1.008, 0.14, 192.0, 0.0, 0.0, 0.0, 0.0, 0.0, 0.0, 0.0, 0.0, 0.0, 1.695420180010061E9, 0.0, 2023-09-22 17:03:00.010
226.0, 20129.71283551608, 31403.64216609504, -49492.77484330832, -48362.5141814368, -33622.902169573565, -19382.203445697243, -187500.02235174447, -17781.61737699716, -8770.601006817938, 19069.1002093673, -45907.577384421515, -41972.91040097599, -14280.104849351032, -34830.65632947163, -46652.80689630591, -42259.61622710422, 0.02, 1.008, 0.14, 192.0, 0.0, 0.0, 0.0, 0.0, 0.0, 0.0, 0.0, 0.0, 0.0, 1.695420180070131E9, 0.0, 2023-09-22 17:03:00.070
228.0, 20104.053032881384, 31377.53532857124, -49482.671854814515, -48358.82614360168, -33604.953718775956, -19375.810846783024, -187500.02235174447, -17771.246167569898, -8769.461067850718, 19063.400514531197, -45902.95057331927, -41969.08825267413, -14272.304090536129, -34819.43575375507, -46641.42985837816, -42246.20518043103, 0.024, 1.008, 0.136, 192.0, 0.0, 96.0, 15.5, 64.0, 2.0, 32.0, 0.0, 0.0, 0.0, 1.695420180070142E9, 0.0, 2023-09-22 17:03:00.070
230.0, 20098.241579323003, 31369.73456975634, -49487.499831616864, -48358.3120534792, -33612.910939802045, -19371.49696010315, -187500.02235174447, -17772.408458281574, -8783.341501157463, 19061.63472671923, -45919.87084387193, -41983.0580929587, -14278.16024758342, -34826.87888465868, -46644.648509579725, -42251.92722701159, 0.024, 1.008, 0.136, 192.0, 0.0, 0.0, 0.0, 0.0, 0.0, 0.0, 0.0, 0.0, 0.0, 1.695420180070146E9, 0.0, 2023-09-22 17:03:00.070
232.0, 20070.570119687334, 31348.72392996835, -49486.8292792832, -48357.0156523008, -33608.75351533336, -19368.9712129797, -187500.02235174447, -17766.261728556365, -8788.817678549014, 19055.800921416394, -45922.28483227311, -41980.88997374654, -14278.473172005793, -34814.89834963064, -46639.28409091045, -42242.69595655155, 0.024, 1.008, 0.136, 192.0, 0.0, 0.0, 0.0, 0.0, 0.0, 0.0, 0.0, 0.0, 0.0, 1.695420180070149E9, 0.0, 2023-09-22 17:03:00.070
234.0, 20079.332003513813, 31353.93188642644, -49495.255886942854, -48365.82223961619, -33621.22578873942, -19379.007146240136, -187500.02235174447, -17780.23156884093, -8794.517373385117, 19065.34511629881, -45928.968003865244, -41985.58384008215, -14283.368204041506, -34818.429925254575, -46645.14024795774, -42248.57446534329, 0.024, 1.008, 0.136, 192.0, 0.0, 0.0, 0.0, 0.0, 0.0, 0.0, 0.0, 0.0, 0.0, 1.695420180070152E9, 0.0, 2023-09-22 17:03:00.070
236.0, 20054.655677635157, 31332.11658383806, -49498.63100035561, -48371.63369317457, -33625.9867103084, -19388.75250682265, -187500.02235174447, -17789.70870848998, -8796.998417019657, 19046.703761423083, -45930.6890881883, -41990.83650002915, -14295.058166391633, -34823.92845439058, -46655.131477729265, -42255.19058170207, 0.024, 1.008, 0.136, 192.0, 0.0, 0.0, 0.0, 0.0, 0.0, 0.0, 0.0, 0.0, 0.0, 1.695420180070156E9, 0.0, 2023-09-22 17:03:00.070
238.0, 20058.701343381566, 31331.177810570935, -49508.91280280505, -48384.57535321419, -33635.8885331021, -19404.912818063836, -187500.02235174447, -17804.483211574938, -8813.158728260843, 19039.10416830828, -45948.25755933017, -42008.76259908231, -14304.691768251869, -34845.72140523451, -46670.42007093669, -42275.5306691564, 0.018000000000000002, 1.008, 0.136, 192.0, 0.0, 72.0, 15.5, 64.0, 2.0, 32.0, 0.0, 0.0, 0.0, 1.695420180070159E9, 0.0, 2023-09-22 17:03:00.070
240.0, 20043.6809711076, 31319.554903454176, -49498.29572418878, -48374.24884727584, -33628.288939987295, -19393.26755920262, -187500.02235174447, -17789.57459802325, -8803.614533378426, 19033.0915490498, -45935.00297486818, -42000.26893618929, -14288.754974455236, -34834.70199521804, -46662.77577433298, -42265.40532891814, 0.018000000000000002, 1.008, 0.136, 192.0, 0.0, 0.0, 0.0, 0.0, 0.0, 0.0, 0.0, 0.0, 0.0, 1.695420180130349E9, 0.0, 2023-09-22 17:03:00.130
242.0, 20056.622631147224, 31329.121450081046, -49503.74954983587, -48382.42958574648, -33629.7865068658, -19401.805925584547, -187500.02235174447, -17796.213066126475, -8811.728216615704, 19039.774720641937, -45943.47428601674, -42007.01916301479, -14294.767593713714, -34844.53676277838, -46665.748556345534, -42273.45195692205, 0.018000000000000002, 1.008, 0.136, 192.0, 0.0, 0.0, 0.0, 0.0, 0.0, 0.0, 0.0, 0.0, 0.0, 1.695420180130363E9, 0.0, 2023-09-22 17:03:00.130
244.0, 20044.463282163535, 31322.885313378018, -49506.1858899815, -48380.686149678964, -33637.69902440298, -19399.682509861294, -187500.02235174447, -17797.420060327062, -8806.632018879893, 19037.718360152052, -45936.61230046896, -42000.715971078396, -14294.365262313517, -34836.73600396347, -46663.871009811286, -42268.51222139743, 0.018000000000000002, 1.008, 0.136, 192.0, 0.0, 0.0, 0.0, 0.0, 0.0, 0.0, 0.0, 0.0, 0.0, 1.695420180130367E9, 0.0, 2023-09-22 17:03:00.130
246.0, 20057.047314291874, 31332.496563493798, -49520.33454422171, -48400.132167355085, -33642.52700120533, -19420.112004293445, -187500.02235174447, -17815.390862869128, -8816.086806784488, 19039.573554941842, -45946.98350989622, -42008.047343259735, -14308.066881664621, -34849.49885004745, -46673.90694307172, -42280.760977358936, 0.018000000000000002, 1.008, 0.136, 192.0, 0.0, 0.0, 0.0, 0.0, 0.0, 0.0, 0.0, 0.0, 0.0, 1.69542018013037E9, 0.0, 2023-09-22 17:03:00.130
248.0, 20052.107578767253, 31332.742432682808, -49511.46090167295, -48383.770690413796, -33645.38802449561, -19404.9798732972, -187500.02235174447, -17805.042005186322, -8812.912859071834, 19033.426825216633, -45944.61422498396, -42007.913232793006, -14315.487660823783, -34849.43179481409, -46680.03132105248, -42283.21966924902, 0.016, 1.008, 0.136, 192.0, 0.0, 64.0, 15.5, 64.0, 2.0, 32.0, 0.0, 0.0, 0.0, 1.695420180130373E9, 0.0, 2023-09-22 17:03:00.130
250.0, 20070.614823176245, 31345.594685744607, -49510.65623887256, -48393.80662367423, -33638.302521503276, -19417.005111814156, -187500.02235174447, -17809.691168033027, -8806.296742713064, 19044.468586977553, -45941.12735284893, -42004.64987810253, -14307.441032819872, -34849.72236749201, -46675.44921343913, -42281.118605270225, 0.016, 1.008, 0.136, 192.0, 0.0, 0.0, 0.0, 0.0, 0.0, 0.0, 0.0, 0.0, 0.0, 1.695420180130376E9, 0.0, 2023-09-22 17:03:00.130
252.0, 20064.222224262026, 31346.24288633381, -49499.68153234501, -48376.90870486602, -33641.96820759394, -19400.46482091723, -187500.02235174447, -17797.66592951607, -8801.69228335527, 19040.065293319858, -45935.47236150174, -42002.392351912546, -14301.473117050306, -34846.391957568165, -46673.48225992707, -42277.542326157374, 0.016, 1.008, 0.136, 192.0, 0.0, 0.0, 0.0, 0.0, 0.0, 0.0, 0.0, 0.0, 0.0, 1.695420180130379E9, 0.0, 2023-09-22 17:03:00.130
254.0, 20080.7401634145, 31354.334217826632, -49497.9827997664, -48382.094309579654, -33628.49010568739, -19405.091632019477, -187500.02235174447, -17795.028423670345, -8792.282198939587, 19049.00599110198, -45927.35867826446, -41995.88799427605, -14290.297244822652, -34839.529972020384, -46660.63000686526, -42266.38880567418, 0.016, 1.008, 0.136, 192.0, 0.0, 0.0, 0.0, 0.0, 0.0, 0.0, 0.0, 0.0, 0.0, 1.695420180130382E9, 0.0, 2023-09-22 17:03:00.130
0.0, 20086.037526850407, 31363.990171431327, -49490.04793048477, -48359.027309301775, -33632.64753015608, -19381.68935557477, -187500.02235174447, -17780.47743802994, -8791.008149505633, 19045.094435822302, -45926.97869860872, -41995.35155240912, -14295.616960003015, -34838.434736542076, -46663.49103015554, -42264.24303820646, 0.016, 1.008, 0.136, 192.0, 0.0, 0.0, 0.0, 0.0, 0.0, 0.0, 0.0, 0.0, 0.0, 1.695420180190708E9, 0.0, 2023-09-22 17:03:00.190
2.0, 20106.82464919384, 31378.74232277183, -49480.235514668886, -48358.37910871257, -33607.255948454855, -19380.951748007745, -187500.02235174447, -17772.967251892955, -8769.014032961612, 19067.24501457751, -45906.549204176576, -41974.58678181014, -14278.026137116687, -34821.648576456144, -46643.39681189023, -42246.0710699643, 0.022, 1.004, 0.136, 192.0, 0.0, 88.0, 15.5, 48.0, 2.0, 32.0, 0.0, 0.0, 0.0, 1.69542018019072E9, 0.0, 2023-09-22 17:03:00.190
4.0, 20099.292111312403, 31379.189357660933, -49504.15188123607, -48373.82416413119, -33637.05082381378, -19395.74860283716, -187500.02235174447, -17789.9992811679, -8769.773992273093, 19066.887386666225, -45907.35386697696, -41975.14557542153, -14284.932826153377, -34826.7224224475, -46648.694175326134, -42251.971930500506, 0.022, 1.004, 0.136, 192.0, 0.0, 0.0, 0.0, 0.0, 0.0, 0.0, 0.0, 0.0, 0.0, 1.695420180190724E9, 0.0, 2023-09-22 17:03:00.190
6.0, 20114.781870219933, 31390.92402349997, -49489.958523506946, -48367.02923381677, -33616.353108448166, -19391.725288835205, -187500.02235174447, -17783.651385742593, -8773.842009763957, 19056.49382549451, -45913.254727513166, -41981.761691780295, -14298.656797248936, -34835.39489929615, -46660.98763477655, -42263.23720970598, 0.022, 1.004, 0.136, 192.0, 0.0, 0.0, 0.0, 0.0, 0.0, 0.0, 0.0, 0.0, 0.0, 1.695420180190727E9, 0.0, 2023-09-22 17:03:00.190
8.0, 20119.945123189107, 31397.942471258935, -49493.04306424178, -48361.0166145583, -33635.79912612428, -19389.75833532314, -187500.02235174447, -17786.400650310596, -8762.979061958678, 19066.39564828821, -45902.771759363626, -41974.36326436559, -14284.552846497638, -34828.68937595956, -46656.5619893744, -42257.40340440314, 0.022, 1.004, 0.136, 192.0, 0.0, 0.0, 0.0, 0.0, 0.0, 0.0, 0.0, 0.0, 0.0, 1.69542018019073E9, 0.0, 2023-09-22 17:03:00.190
10.0, 20126.248315125504, 31402.63633759455, -49484.99643623787, -48360.144896524536, -33622.05280328426, -19392.59700686896, -187500.02235174447, -17782.153818864088, -8759.49218982365, 19063.422866275654, -45898.45787268375, -41972.01633119778, -14284.217570330808, -34826.387146280664, -46656.584341118854, -42253.98358750148, 0.022, 1.004, 0.136, 192.0, 0.0, 0.0, 0.0, 0.0, 0.0, 0.0, 0.0, 0.0, 0.0, 1.695420180190734E9, 0.0, 2023-09-22 17:03:00.190
12.0, 20137.89357398672, 31419.2660354693, -49479.34144489068, -48350.10896326411, -33629.54063767679, -19382.27050093061, -187500.02235174447, -17779.158685107075, -8758.754582256626, 19072.117694868768, -45897.586154649995, -41970.6081712971, -14282.9211691524, -34826.65536721413, -46656.249064952026, -42254.74354681296, 0.028, 1.004, 0.132, 192.0, 0.0, 112.0, 15.5, 48.0, 2.0, 16.0, 0.0, 0.0, 0.0, 1.695420180190737E9, 0.0, 2023-09-22 17:03:00.190
14.0, 20147.281306657947, 31424.541047160754, -49472.09947968715, -48352.411192943, -33614.07323051372, -19384.662137587326, -187500.02235174447, -17774.71068796047, -8741.230814603665, 19085.86401770878, -45877.313122429034, -41949.9998629093, -14268.146666067441, -34808.46104722751, -46642.70390781211, -42240.214912917014, 0.028, 1.004, 0.132, 192.0, 0.0, 0.0, 0.0, 0.0, 0.0, 0.0, 0.0, 0.0, 0.0, 1.695420180249958E9, 0.0, 2023-09-22 17:03:00.249
16.0, 20153.629202083255, 31431.64890189754, -49484.616456582124, -48361.8659808476, -33628.35599522066, -19392.328785935497, -187500.02235174447, -17787.22766485544, -8752.652556020326, 19081.84070370683, -45893.831061581506, -41964.17086889397, -14281.691823207359, -34825.96246313601, -46656.29376844094, -42258.45393639254, 0.028, 1.004, 0.132, 192.0, 0.0, 0.0, 0.0, 0.0, 0.0, 0.0, 0.0, 0.0, 0.0, 1.695420180249973E9, 0.0, 2023-09-22 17:03:00.249
18.0, 20153.204518938604, 31428.69847162944, -49470.512505830826, -48355.115754022096, -33608.105314744156, -19387.098477732954, -187500.02235174447, -17778.80105719579, -8746.885805950858, 19073.43644779163, -45889.74069234618, -41962.09215665962, -14277.556750483127, -34822.16266657861, -46653.83507655085, -42256.3752241582, 0.028, 1.004, 0.132, 192.0, 0.0, 0.0, 0.0, 0.0, 0.0, 0.0, 0.0, 0.0, 0.0, 1.695420180249977E9, 0.0, 2023-09-22 17:03:00.249
20.0, 20158.211309696595, 31434.353462976633, -49486.22578218291, -48372.68422516397, -33626.14317251959, -19404.197562241265, -187500.02235174447, -17794.447278314507, -8741.454332048217, 19086.691032253628, -45889.65128536836, -41958.15824963549, -14272.639366702959, -34821.98385262297, -46651.53284687196, -42258.386881159175, 0.028, 1.004, 0.132, 192.0, 0.0, 0.0, 0.0, 0.0, 0.0, 0.0, 0.0, 0.0, 0.0, 1.69542018024998E9, 0.0, 2023-09-22 17:03:00.249
22.0, 20152.198690438116, 31431.872419342093, -49475.832221011195, -48364.03410005976, -33612.66507061304, -19394.78747782558, -187500.02235174447, -17785.216007854462, -8753.88190196537, 19070.463665779076, -45905.073989042525, -41969.177659651956, -14293.001805901744, -34830.70103296054, -46665.72620460108, -42273.630770877695, 0.016, 1.008, 0.138, 192.0, 0.0, 64.0, 15.5, 64.0, 2.0, 40.0, 0.0, 0.0, 0.0, 1.695420180249984E9, 0.0, 2023-09-22 17:03:00.249
24.0, 20174.773952337975, 31449.575000950696, -49473.17236342101, -48357.30622497872, -33610.63106186761, -19387.098477732954, -187500.02235174447, -17778.868112429158, -8737.743942468636, 19092.837761978837, -45894.76983484862, -41950.715118731874, -14279.858980162024, -34819.413402010614, -46652.762192817, -42265.33827368478, 0.016, 1.008, 0.138, 192.0, 0.0, 0.0, 0.0, 0.0, 0.0, 0.0, 0.0, 0.0, 0.0, 1.695420180249987E9, 0.0, 2023-09-22 17:03:00.249
26.0, 20169.36483017979, 31447.742157905363, -49469.059642441236, -48353.372317954585, -33606.071305998725, -19383.99158525367, -187500.02235174447, -17770.195635580498, -8727.842119674935, 19089.976738688558, -45883.526907387604, -41934.62186272405, -14267.051430589132, -34811.21031179551, -46646.30253866941, -42260.01855850441, 0.016, 1.008, 0.138, 192.0, 0.0, 0.0, 0.0, 0.0, 0.0, 0.0, 0.0, 0.0, 0.0, 1.69542018024999E9, 0.0, 2023-09-22 17:03:00.249
28.0, 20186.75448736602, 31465.08711160268, -49482.09070945868, -48359.943730824445, -33615.79431483678, -19393.066393502522, -187500.02235174447, -17780.008051396377, -8735.15114011182, 19093.77653524596, -45891.88645981389, -41932.58785397862, -14275.120410337498, -34823.973157879496, -46652.113992227794, -42273.60841913324, 0.016, 1.008, 0.138, 192.0, 0.0, 0.0, 0.0, 0.0, 0.0, 0.0, 0.0, 0.0, 0.0, 1.695420180249994E9, 0.0, 2023-09-22 17:03:00.249
30.0, 20179.89250181824, 31460.057969100235, -49476.61453206713, -48345.48215216186, -33607.881797299604, -19382.248149186154, -187500.02235174447, -17772.006126881377, -8726.992753385633, 19089.77557298846, -45879.7271108302, -41913.812388636165, -14271.164151568908, -34814.40661125262, -46647.017794491985, -42269.093366753266, 0.016, 1.008, 0.138, 192.0, 0.0, 0.0, 0.0, 0.0, 0.0, 0.0, 0.0, 0.0, 0.0, 1.695420180309852E9, 0.0, 2023-09-22 17:03:00.309
32.0, 20195.136391536762, 31469.490405260374, -49488.058625228245, -48351.65123363152, -33609.289957200286, -19390.585349867983, -187500.02235174447, -17782.33263281973, -8729.764369698092, 19095.944654458126, -45883.191631220776, -41912.828911880126, -14273.578139970083, -34824.19667532405, -46647.21896019208, -42279.46457618053, 0.01, 1.008, 0.14400000000000002, 192.0, 0.0, 40.0, 15.5, 64.0, 2.0, 64.0, 0.0, 0.0, 0.0, 1.695420180309874E9, 0.0, 2023-09-22 17:03:00.309
34.0, 20186.128638521273, 31459.029788855292, -49485.24230542687, -48341.52589339327, -33612.285090957295, -19382.046983486056, -187500.02235174447, -17775.247129827396, -8719.683732948748, 19091.809581733894, -45866.91956125732, -41902.278888497225, -14263.653965431926, -34816.73119267597, -46640.736954300046, -42273.340198199774, 0.01, 1.008, 0.14400000000000002, 192.0, 0.0, 0.0, 0.0, 0.0, 0.0, 0.0, 0.0, 0.0, 0.0, 1.695420180309878E9, 0.0, 2023-09-22 17:03:00.309
36.0, 20203.562999196412, 31469.758626193838, -49490.3832066516, -48344.409268428004, -33606.16071297654, -19385.824428299, -187500.02235174447, -17777.57171125075, -8721.673038205272, 19102.046680694424, -45861.59984607695, -41901.496577441285, -14265.352698010529, -34821.916797389604, -46640.51343685549, -42275.21774473402, 0.01, 1.008, 0.14400000000000002, 192.0, 0.0, 0.0, 0.0, 0.0, 0.0, 0.0, 0.0, 0.0, 0.0, 1.695420180309881E9, 0.0, 2023-09-22 17:03:00.309
38.0, 20185.4133826987, 31459.476823744397, -49495.8817357876, -48340.363602681595, -33617.42599218202, -19380.661175329828, -187500.02235174447, -17777.37054555065, -8728.669134219783, 19090.468477066574, -45860.526962343094, -41907.017458321745, -14279.59075922856, -34825.87305615819, -46647.06249798089, -42278.83872733578, 0.01, 1.008, 0.14400000000000002, 192.0, 0.0, 0.0, 0.0, 0.0, 0.0, 0.0, 0.0, 0.0, 0.0, 1.695420180309884E9, 0.0, 2023-09-22 17:03:00.309
40.0, 20203.317130007403, 31469.959791893936, -49489.75735780685, -48337.56963462468, -33600.326907673705, -19378.64951832885, -187500.02235174447, -17770.86618791416, -8720.421340515773, 19104.930055729157, -45848.524075570596, -41900.75896987426, -14264.749200910235, -34818.139352576654, -46634.6572798082, -42269.69686385356, 0.01, 1.008, 0.14400000000000002, 192.0, 0.0, 0.0, 0.0, 0.0, 0.0, 0.0, 0.0, 0.0, 0.0, 1.695420180309888E9, 0.0, 2023-09-22 17:03:00.309
42.0, 20183.535836164458, 31459.18625106648, -49497.55811662175, -48333.859245045096, -33614.49791365837, -19375.69908806075, -187500.02235174447, -17773.213121081964, -8728.289154564041, 19094.424735835164, -45850.13340117138, -41905.78811237671, -14273.309919036617, -34819.72632643298, -46638.635890321246, -42269.76391908692, 0.016, 1.002, 0.148, 192.0, 0.0, 64.0, 15.5, 40.0, 2.0, 80.0, 0.0, 0.0, 0.0, 1.695420180309891E9, 0.0, 2023-09-22 17:03:00.309
44.0, 20191.515408935, 31462.695474945962, -49498.11691023313, -48340.74358233733, -33605.087829242686, -19381.175265452297, -187500.02235174447, -17773.70485945998, -8732.290116821541, 19098.783326003948, -45852.34622387245, -41909.118522300545, -14271.857055647024, -34823.50377124593, -46638.6582420657, -42271.529706898895, 0.016, 1.002, 0.148, 192.0, 0.0, 0.0, 0.0, 0.0, 0.0, 0.0, 0.0, 0.0, 0.0, 1.695420180370098E9, 0.0, 2023-09-22 17:03:00.370
46.0, 20179.154894251216, 31454.827660897692, -49501.53672713479, -48334.79801831222, -33619.437649183, -19373.486265359672, -187500.02235174447, -17771.402629781085, -8734.659401733805, 19089.68616601064, -45855.60957856293, -41913.946499102894, -14276.640328960459, -34827.12475384769, -46644.71556481309, -42274.59189588927, 0.016, 1.002, 0.148, 192.0, 0.0, 0.0, 0.0, 0.0, 0.0, 0.0, 0.0, 0.0, 0.0, 1.695420180370113E9, 0.0, 2023-09-22 17:03:00.370
48.0, 20193.124734535784, 31461.019094111813, -49493.22187819742, -48335.535625879245, -33600.058686740245, -19374.201521182244, -187500.02235174447, -17767.960461134968, -8727.506843508107, 19100.146782415723, -45852.05565119453, -41910.14670254549, -14273.198160314341, -34820.665099700105, -46638.79235253243, -42270.278009209396, 0.016, 1.002, 0.148, 192.0, 0.0, 0.0, 0.0, 0.0, 0.0, 0.0, 0.0, 0.0, 0.0, 1.695420180370118E9, 0.0, 2023-09-22 17:03:00.370
50.0, 20181.121847763283, 31451.854878885137, -49506.27529695932, -48337.32376543567, -33623.14803876258, -19377.30841366153, -187500.02235174447, -17776.14119960561, -8729.943183653735, 19098.001014948015, -45856.36953787441, -41912.22541477984, -14281.803581929635, -34819.94984387754, -46644.760268302, -42273.563715644326, 0.016, 1.002, 0.148, 192.0, 0.0, 0.0, 0.0, 0.0, 0.0, 0.0, 0.0, 0.0, 0.0, 1.695420180370121E9, 0.0, 2023-09-22 17:03:00.370
52.0, 20185.8157140989, 31450.08909107317, -49503.41427366904, -48345.16922773948, -33608.39588742208, -19388.05960274453, -187500.02235174447, -17779.80688569628, -8734.77116045608, 19087.741564243028, -45862.20334317724, -41916.15932180397, -14284.463439519817, -34825.53777999136, -46650.6611288382, -42280.04572153637, 0.014, 1.0, 0.146, 192.0, 0.0, 56.0, 15.5, 32.0, 2.0, 72.0, 0.0, 0.0, 0.0, 1.695420180370124E9, 0.0, 2023-09-22 17:03:00.370
54.0, 20186.933301321664, 31455.341751020165, -49495.01001775385, -48328.38306765355, -33613.24621596887, -19372.368678136907, -187500.02235174447, -17773.123714104142, -8730.412570287297, 19090.133200899745, -45858.33649138648, -41911.219586279345, -14274.785134170668, -34823.21319856801, -46648.31419567039, -42276.89412556817, 0.014, 1.0, 0.146, 192.0, 0.0, 0.0, 0.0, 0.0, 0.0, 0.0, 0.0, 0.0, 0.0, 1.695420180370128E9, 0.0, 2023-09-22 17:03:00.370
56.0, 20196.455144459625, 31459.18625106648, -49481.82248852521, -48327.08666647514, -33589.59807033516, -19374.0227072266, -187500.02235174447, -17767.535777990317, -8716.263916047086, 19102.471363839075, -45843.42787783479, -41893.85228083757, -14264.078648576577, -34809.131599561166, -46634.27730015246, -42263.3266166838, 0.014, 1.0, 0.146, 192.0, 0.0, 0.0, 0.0, 0.0, 0.0, 0.0, 0.0, 0.0, 0.0, 1.695420180370131E9, 0.0, 2023-09-22 17:03:00.370
58.0, 20195.873999103787, 31459.588582466673, -49490.74083456288, -48333.52396887827, -33608.932329289004, -19379.45418112924, -187500.02235174447, -17776.498827516894, -8718.990828870634, 19105.73471852955, -45846.93710171427, -41897.27209773923, -14265.307994521618, -34815.99358510895, -46637.2053786761, -42266.96995103001, 0.014, 1.0, 0.146, 192.0, 0.0, 0.0, 0.0, 0.0, 0.0, 0.0, 0.0, 0.0, 0.0, 1.695420180370134E9, 0.0, 2023-09-22 17:03:00.370
60.0, 20194.197618269638, 31453.263038785823, -49487.6786455725, -48339.62599511457, -33598.40465765055, -19384.326861420497, -187500.02235174447, -17778.04109788431, -8726.523366752073, 19091.742526500526, -45854.78256401808, -41905.29637399869, -14270.426544001884, -34824.8225241688, -46645.29671016893, -42277.29645696837, 0.014, 1.0, 0.146, 192.0, 0.0, 0.0, 0.0, 0.0, 0.0, 0.0, 0.0, 0.0, 0.0, 1.695420180430456E9, 0.0, 2023-09-22 17:03:00.430
62.0, 20197.595083426844, 31461.153204578546, -49487.07514847221, -48332.29462293323, -33605.713678087435, -19376.056715972034, -187500.02235174447, -17774.397763538094, -8722.187128327743, 19100.951445216113, -45851.228636649685, -41901.787150119206, -14263.005764842721, -34821.13448633367, -46638.0100414765, -42272.24496272147, 0.014, 1.002, 0.14200000000000002, 192.0, 0.0, 56.0, 15.5, 40.0, 2.0, 56.0, 0.0, 0.0, 0.0, 1.695420180430467E9, 0.0, 2023-09-22 17:03:00.430
64.0, 20190.75544962352, 31452.346617263156, -49481.151936191556, -48335.98266076835, -33594.381343648594, -19381.26467243012, -187500.02235174447, -17774.665984471558, -8721.896555649824, 19090.982567189047, -45848.14409591485, -41900.6919146409, -14263.519854965194, -34818.40757351012, -46635.551349586414, -42268.22164871951, 0.014, 1.002, 0.14200000000000002, 192.0, 0.0, 0.0, 0.0, 0.0, 0.0, 0.0, 0.0, 0.0, 0.0, 1.695420180430471E9, 0.0, 2023-09-22 17:03:00.430
66.0, 20201.86426661781, 31463.142509835066, -49485.44347112697, -48334.418038656484, -33606.56304437674, -19378.873035773402, -187500.02235174447, -17775.738868205415, -8724.511709751096, 19091.63076777825, -45852.5250378281, -41908.40326647798, -14269.666584690403, -34828.152934092635, -46641.496913611525, -42275.66477962313, 0.014, 1.002, 0.14200000000000002, 192.0, 0.0, 0.0, 0.0, 0.0, 0.0, 0.0, 0.0, 0.0, 0.0, 1.695420180430474E9, 0.0, 2023-09-22 17:03:00.430
68.0, 20196.70101364863, 31459.2756580443, -49475.72046228892, -48330.03709674324, -33590.98387849139, -19372.25691941463, -187500.02235174447, -17761.634917454114, -8709.267820032575, 19095.519971313475, -45836.67765100928, -41894.656943637965, -14267.029078844676, -34813.71370717451, -46628.421143105166, -42260.46559339352, 0.014, 1.002, 0.14200000000000002, 192.0, 0.0, 0.0, 0.0, 0.0, 0.0, 0.0, 0.0, 0.0, 0.0, 1.695420180430477E9, 0.0, 2023-09-22 17:03:00.430
70.0, 20202.937150351663, 31463.991876124368, -49493.69126483098, -48345.14687599503, -33614.16263749154, -19389.93714927878, -187500.02235174447, -17782.95848166448, -8730.770198198581, 19091.384898589244, -45857.44242160826, -41912.895967113494, -14276.953253382833, -34833.02561438389, -46644.26852992398, -42279.66574188063, 0.014, 1.002, 0.14200000000000002, 192.0, 0.0, 0.0, 0.0, 0.0, 0.0, 0.0, 0.0, 0.0, 0.0, 1.69542018043048E9, 0.0, 2023-09-22 17:03:00.430
72.0, 20196.678661904178, 31461.55553597874, -49474.6252268106, -48328.45012288691, -33594.02371573731, -19374.91677700481, -187500.02235174447, -17767.33461229022, -8722.209480072199, 19087.942729943126, -45846.557122058526, -41903.70940014236, -14265.129180565977, -34822.94497763455, -46637.04891646492, -42270.188602231574, 0.014, 1.006, 0.138, 192.0, 0.0, 56.0, 15.5, 56.0, 2.0, 40.0, 0.0, 0.0, 0.0, 1.695420180430484E9, 0.0, 2023-09-22 17:03:00.430
74.0, 20205.90993236422, 31470.18330933849, -49482.962427492435, -48336.027364257265, -33603.0314687528, -19382.605777097437, -187500.02235174447, -17774.688336216015, -8719.817843415482, 19103.2089714061, -45845.21601739121, -41899.73078962932, -14260.63647993046, -34824.04021311286, -46630.723372784065, -42269.428642920095, 0.014, 1.006, 0.138, 192.0, 0.0, 0.0, 0.0, 0.0, 0.0, 0.0, 0.0, 0.0, 0.0, 1.695420180490561E9, 0.0, 2023-09-22 17:03:00.490
76.0, 20193.43765895816, 31458.247477799356, -49482.805965281244, -48333.27809968926, -33598.76228556184, -19378.470704373205, -187500.02235174447, -17771.29087105881, -8720.711913193692, 19087.249825865012, -45843.98667144617, -41902.1894815194, -14266.604395700026, -34825.87305615819, -46635.77486703097, -42269.853326064745, 0.014, 1.006, 0.138, 192.0, 0.0, 0.0, 0.0, 0.0, 0.0, 0.0, 0.0, 0.0, 0.0, 1.695420180490575E9, 0.0, 2023-09-22 17:03:00.490
78.0, 20205.686414919666, 31465.243573813867, -49496.35112242116, -48344.25280621681, -33609.155846733556, -19385.39974515435, -187500.02235174447, -17781.416211297063, -8726.880994663357, 19095.899950969215, -45851.720375027704, -41909.23028102282, -14276.126238837987, -34833.78557369537, -46643.41916363468, -42277.92230581311, 0.014, 1.006, 0.138, 192.0, 0.0, 0.0, 0.0, 0.0, 0.0, 0.0, 0.0, 0.0, 0.0, 1.695420180490578E9, 0.0, 2023-09-22 17:03:00.490
80.0, 20197.371565982292, 31461.80140516775, -49484.012959481835, -48328.830102542655, -33599.18696870649, -19367.518349590107, -187500.02235174447, -17765.94880413399, -8716.733302680648, 19095.519971313475, -45841.59503478945, -41901.02719080773, -14268.72781142328, -34817.312338031814, -46636.5571780869, -42265.07005275131, 0.014, 1.006, 0.138, 192.0, 0.0, 0.0, 0.0, 0.0, 0.0, 0.0, 0.0, 0.0, 0.0, 1.695420180490582E9, 0.0, 2023-09-22 17:03:00.490
82.0, 20210.603798699834, 31473.290201817777, -49490.47261362942, -48339.26836720328, -33603.344393175175, -19377.934262506278, -187500.02235174447, -17773.458990270974, -8714.743997424126, 19110.920323243183, -45843.36082260142, -41898.501443684276, -14258.334250251562, -34817.22293105399, -46635.5066460975, -42265.76295682943, 0.016, 1.002, 0.146, 192.0, 0.0, 64.0, 15.5, 40.0, 2.0, 72.0, 0.0, 0.0, 0.0, 1.695420180490585E9, 0.0, 2023-09-22 17:03:00.490
84.0, 20188.877903089277, 31455.364102764623, -49499.50271838936, -48343.53755039425, -33616.71073635945, -19381.868169530415, -187500.02235174447, -17780.119810118653, -8725.405779529308, 19094.49179106853, -45853.46381109522, -41910.75019964579, -14269.241901545753, -34825.94011139156, -46648.47065788158, -42274.56954414482, 0.016, 1.002, 0.146, 192.0, 0.0, 0.0, 0.0, 0.0, 0.0, 0.0, 0.0, 0.0, 0.0, 1.695420180490588E9, 0.0, 2023-09-22 17:03:00.490
86.0, 20205.10526956383, 31463.52248949081, -49500.24032595639, -48349.14783825253, -33611.79335257928, -19388.372527166906, -187500.02235174447, -17786.33359507723, -8732.178358099265, 19096.39168934723, -45862.09158445497, -41920.13793231701, -14275.992128371256, -34832.757393450425, -46654.148000973226, -42281.744454114974, 0.016, 1.002, 0.146, 192.0, 0.0, 0.0, 0.0, 0.0, 0.0, 0.0, 0.0, 0.0, 0.0, 1.695420180490591E9, 0.0, 2023-09-22 17:03:00.490
88.0, 20195.337557236857, 31460.259134800333, -49491.16551770753, -48337.144951480026, -33613.22386422442, -19378.82833228449, -187500.02235174447, -17778.42107754005, -8724.779930684559, 19094.91647421318, -45855.430764607285, -41917.500426471284, -14268.839570145557, -34824.68841370206, -46651.17521896067, -42276.51414591243, 0.016, 1.002, 0.146, 192.0, 0.0, 0.0, 0.0, 0.0, 0.0, 0.0, 0.0, 0.0, 0.0, 1.695420180490595E9, 0.0, 2023-09-22 17:03:00.490
90.0, 20215.074147590894, 31475.435969285485, -49483.76709029282, -48339.82716081467, -33598.98580300639, -19383.99158525367, -187500.02235174447, -17777.258786828374, -8719.34845678192, 19106.427622607665, -45853.08383143948, -41911.890138613, -14263.698668920837, -34821.49211424495, -46645.22965493556, -42272.088500510275, 0.016, 1.002, 0.146, 192.0, 0.0, 0.0, 0.0, 0.0, 0.0, 0.0, 0.0, 0.0, 0.0, 1.695420180550006E9, 0.0, 2023-09-22 17:03:00.550
92.0, 20204.166496296704, 31469.13277734909, -49481.911895503035, -48330.48413163234, -33608.865274055635, -19373.665079315317, -187500.02235174447, -17770.888539658612, -8716.129805580355, 19101.443183594132, -45852.74855527265, -41912.44893222439, -14267.990203856256, -34820.866265400204, -46647.73305031456, -42270.88150630969, 0.016, 1.01, 0.146, 192.0, 0.0, 64.0, 15.5, 72.0, 2.0, 72.0, 0.0, 0.0, 0.0, 1.695420180550017E9, 0.0, 2023-09-22 17:03:00.550
94.0, 20216.504659236034, 31477.201757097457, -49478.827354768204, -48335.84855030162, -33596.81768379422, -19377.286061917075, -187500.02235174447, -17768.340440790707, -8712.039436345034, 19109.690977298138, -45851.34039537196, -41909.09617055609, -14260.189445041353, -34816.8653031427, -46640.66989906668, -42264.55596262884, 0.016, 1.01, 0.146, 192.0, 0.0, 0.0, 0.0, 0.0, 0.0, 0.0, 0.0, 0.0, 0.0, 1.695420180550021E9, 0.0, 2023-09-22 17:03:00.550
96.0, 20198.891484605254, 31463.52248949081, -49491.12081421862, -48341.548245137725, -33617.91773056003, -19383.209274197732, -187500.02235174447, -17777.772876950847, -8720.041360860034, 19098.69391902613, -45862.985654233176, -41917.790999149205, -14273.242863803252, -34824.84487591325, -46649.811762548896, -42273.898991811155, 0.016, 1.01, 0.146, 192.0, 0.0, 0.0, 0.0, 0.0, 0.0, 0.0, 0.0, 0.0, 0.0, 1.695420180550024E9, 0.0, 2023-09-22 17:03:00.550
98.0, 20210.38028125528, 31470.920916905514, -49481.621322825114, -48342.35290793812, -33597.62234659462, -19387.79138181107, -187500.02235174447, -17776.36471705016, -8719.907250393302, 19093.39655559022, -45866.09254671247, -41917.925109615935, -14273.935767881367, -34828.33174804828, -46648.02362299247, -42277.27410522391, 0.016, 1.01, 0.146, 192.0, 0.0, 0.0, 0.0, 0.0, 0.0, 0.0, 0.0, 0.0, 0.0, 1.695420180550028E9, 0.0, 2023-09-22 17:03:00.550
100.0, 20202.512467207012, 31469.84803317166, -49482.60479958115, -48337.8602073026, -33610.85457931216, -19384.37156490941, -187500.02235174447, -17778.443429284507, -8718.432035259251, 19096.83872423634, -45862.426860621796, -41914.639403181005, -14265.017421843699, -34828.152934092635, -46645.676689824664, -42276.5812011458, 0.016, 1.01, 0.146, 192.0, 0.0, 0.0, 0.0, 0.0, 0.0, 0.0, 0.0, 0.0, 0.0, 1.695420180550031E9, 0.0, 2023-09-22 17:03:00.550
102.0, 20207.47455447609, 31469.535108749285, -49481.59897108066, -48346.42092542898, -33598.31525067273, -19391.144143479367, -187500.02235174447, -17778.532836262326, -8722.075369605467, 19095.02823293546, -45861.97982573269, -41913.49946421379, -14267.945500367345, -34828.19763758154, -46645.78844854694, -42275.41891043412, 0.014, 1.01, 0.146, 192.0, 0.0, 56.0, 15.5, 72.0, 2.0, 72.0, 0.0, 0.0, 0.0, 1.695420180550034E9, 0.0, 2023-09-22 17:03:00.550
104.0, 20204.90410386373, 31471.993800639368, -49484.72821530441, -48338.64251835853, -33613.35797469115, -19383.879826531393, -187500.02235174447, -17778.37637405114, -8728.132692352854, 19094.380032346253, -45865.3772908899, -41914.90762411447, -14278.070840605598, -34831.304530060836, -46650.795239304935, -42277.72114011302, 0.014, 1.01, 0.146, 192.0, 0.0, 0.0, 0.0, 0.0, 0.0, 0.0, 0.0, 0.0, 0.0, 1.695420180609832E9, 0.0, 2023-09-22 17:03:00.609
106.0, 20210.62615044429, 31473.737236706882, -49477.10627044515, -48342.48701840485, -33598.94109951748, -19390.92062603481, -187500.02235174447, -17776.945862406, -8718.901421892813, 19099.811506248894, -45854.00025296215, -41904.20113852038, -14265.352698010529, -34823.950806135035, -46641.1616374447, -42268.869849308714, 0.014, 1.01, 0.146, 192.0, 0.0, 0.0, 0.0, 0.0, 0.0, 0.0, 0.0, 0.0, 0.0, 1.695420180609846E9, 0.0, 2023-09-22 17:03:00.609
108.0, 20210.112060321815, 31477.42527454201, -49483.61062808164, -48340.18478872595, -33614.78848633629, -19388.439582400275, -187500.02235174447, -17785.216007854462, -8726.456311518707, 19095.02823293546, -45863.477392611196, -41916.114618315056, -14274.449858003838, -34837.18303885258, -46654.99736726253, -42283.42083494912, 0.014, 1.01, 0.146, 192.0, 0.0, 0.0, 0.0, 0.0, 0.0, 0.0, 0.0, 0.0, 0.0, 1.695420180609849E9, 0.0, 2023-09-22 17:03:00.609
110.0, 20214.80592665743, 31480.88979493258, -49465.975101706405, -48329.746524065326, -33589.75453254635, -19377.97896599519, -187500.02235174447, -17767.669888457047, -8710.027779344056, 19098.06807018138, -45845.97597670269, -41901.38481871901, -14262.849302631534, -34817.312338031814, -46637.96533798759, -42265.60649461824, 0.014, 1.01, 0.146, 192.0, 0.0, 0.0, 0.0, 0.0, 0.0, 0.0, 0.0, 0.0, 0.0, 1.695420180609853E9, 0.0, 2023-09-22 17:03:00.609
112.0, 20211.5202202225, 31483.482597289396, -49486.76222404984, -48340.38595442605, -33615.16846599203, -19387.612567855427, -187500.02235174447, -17783.718440975957, -8715.749825924615, 19102.3596051168, -45855.162543673825, -41910.660792667964, -14273.175808569886, -34827.70589920353, -46645.98961424704, -42273.496660410965, 0.018000000000000002, 1.01, 0.146, 192.0, 0.0, 72.0, 15.5, 72.0, 2.0, 72.0, 0.0, 0.0, 0.0, 1.695420180609856E9, 0.0, 2023-09-22 17:03:00.609
114.0, 20208.547438209946, 31478.45345478695, -49472.948845976454, -48330.73000082136, -33593.777846548306, -19378.85068402895, -187500.02235174447, -17770.396801280596, -8711.72651192266, 19093.843590479326, -45851.16158141632, -41908.11269380006, -14262.514026464705, -34819.10047758824, -46639.686422310646, -42265.27121845141, 0.018000000000000002, 1.01, 0.146, 192.0, 0.0, 0.0, 0.0, 0.0, 0.0, 0.0, 0.0, 0.0, 0.0, 1.695420180609859E9, 0.0, 2023-09-22 17:03:00.609
116.0, 20213.174249312193, 31487.394152569075, -49486.20343043845, -48336.876730546566, -33613.201512479965, -19386.249111443653, -187500.02235174447, -17783.13729562012, -8717.49326199213, 19098.87273298177, -45859.31996814251, -41914.81821713665, -14270.381840512973, -34827.34827129224, -46648.493009626036, -42275.03893077838, 0.018000000000000002, 1.01, 0.146, 192.0, 0.0, 0.0, 0.0, 0.0, 0.0, 0.0, 0.0, 0.0, 0.0, 1.695420180609863E9, 0.0, 2023-09-22 17:03:00.609
118.0, 20206.20050504214, 31481.158015866044, -49476.14514543357, -48330.68529733244, -33600.930404774, -19378.761277051126, -187500.02235174447, -17776.43177228353, -8719.549622482016, 19087.182770631644, -45859.65524430934, -41914.97467934784, -14269.286605034662, -34825.44837301354, -46651.37638466077, -42274.21191623353, 0.018000000000000002, 1.01, 0.146, 192.0, 0.0, 0.0, 0.0, 0.0, 0.0, 0.0, 0.0, 0.0, 0.0, 1.695420180609866E9, 0.0, 2023-09-22 17:03:00.609
120.0, 20221.086766849374, 31492.624460771618, -49471.6747965425, -48325.544396107725, -33599.36578266213, -19371.139332191866, -187500.02235174447, -17770.79913268079, -8704.573953696961, 19108.10400344181, -45844.880741224384, -41901.071894296634, -14255.026192072177, -34811.724401917985, -46635.976032731065, -42259.63857884867, 0.018000000000000002, 1.01, 0.146, 192.0, 0.0, 0.0, 0.0, 0.0, 0.0, 0.0, 0.0, 0.0, 0.0, 1.695420180670178E9, 0.0, 2023-09-22 17:03:00.670
122.0, 20205.19467654165, 31479.74985596536, -49473.395880865566, -48328.51717812028, -33600.192797206975, -19371.116980447412, -187500.02235174447, -17768.42984776853, -8711.01125610009, 19098.358642859297, -45849.50755232663, -41907.08451355511, -14262.357564253518, -34811.81380889581, -46640.021698477474, -42258.83391604828, 0.024, 1.006, 0.146, 192.0, 0.0, 96.0, 15.5, 56.0, 2.0, 72.0, 0.0, 0.0, 0.0, 1.695420180670188E9, 0.0, 2023-09-22 17:03:00.670
124.0, 20215.18590631317, 31487.260042102345, -49482.76126179234, -48336.47439914637, -33610.809875823245, -19377.286061917075, -187500.02235174447, -17773.883673415625, -8720.801320171515, 19101.48788708304, -45862.20334317724, -41916.40519099298, -14270.53830272416, -34824.12962009068, -46646.50370436951, -42268.06518650832, 0.024, 1.006, 0.146, 192.0, 0.0, 0.0, 0.0, 0.0, 0.0, 0.0, 0.0, 0.0, 0.0, 1.695420180670192E9, 0.0, 2023-09-22 17:03:00.670
126.0, 20206.289912019958, 31480.80038795476, -49470.46780234192, -48327.19842519741, -33598.76228556184, -19366.64663155635, -187500.02235174447, -17762.59604246569, -8711.055959589, 19099.699747526618, -45849.619311048904, -41903.463530953355, -14266.023250344188, -34812.12673331818, -46639.23938742154, -42257.761032314425, 0.024, 1.006, 0.146, 192.0, 0.0, 0.0, 0.0, 0.0, 0.0, 0.0, 0.0, 0.0, 0.0, 1.695420180670195E9, 0.0, 2023-09-22 17:03:00.670
128.0, 20220.259752304526, 31489.74108573688, -49473.395880865566, -48337.32376543567, -33601.55625361875, -19375.073239216, -187500.02235174447, -17769.703897202482, -8716.085102091445, 19105.175924918167, -45856.3248343855, -41909.25263276728, -14269.599529457037, -34821.93914913406, -46638.702945554614, -42263.617189361714, 0.024, 1.006, 0.146, 192.0, 0.0, 0.0, 0.0, 0.0, 0.0, 0.0, 0.0, 0.0, 0.0, 1.695420180670198E9, 0.0, 2023-09-22 17:03:00.670
130.0, 20202.177191040184, 31473.3796087956, -49470.84778199766, -48334.59685261212, -33602.629137352604, -19371.675774058793, -187500.02235174447, -17765.345307033695, -8708.396101998818, 19099.67739578216, -45849.55225581554, -41905.832815865615, -14258.669526418393, -34813.333727518766, -46634.32200364137, -42254.49767762395, 0.024, 1.006, 0.146, 192.0, 0.0, 0.0, 0.0, 0.0, 0.0, 0.0, 0.0, 0.0, 0.0, 1.695420180670202E9, 0.0, 2023-09-22 17:03:00.670
132.0, 20217.04110110296, 31481.42623679951, -49474.69228204397, -48343.291681205235, -33600.930404774, -19382.203445697243, -187500.02235174447, -17773.190769337507, -8717.761482925593, 19099.342119615332, -45862.493915855164, -41917.25455728228, -14266.11265732201, -34825.2695590579, -46642.4580386231, -42263.706596339536, 0.018000000000000002, 1.006, 0.14400000000000002, 192.0, 0.0, 72.0, 15.5, 56.0, 2.0, 64.0, 0.0, 0.0, 0.0, 1.695420180670205E9, 0.0, 2023-09-22 17:03:00.670
134.0, 20204.054737574428, 31472.910222162038, -49474.714633788426, -48341.52589339327, -33611.301614201264, -19381.152913707843, -187500.02235174447, -17775.269481571853, -8721.471872505173, 19091.362546844786, -45864.036186222576, -41918.416847993954, -14272.639366702959, -34825.493076502455, -46646.77192530298, -42266.008826018435, 0.018000000000000002, 1.006, 0.14400000000000002, 192.0, 0.0, 0.0, 0.0, 0.0, 0.0, 0.0, 0.0, 0.0, 0.0, 1.695420180730464E9, 0.0, 2023-09-22 17:03:00.730
136.0, 20225.445357018158, 31484.935460678993, -49470.89248548657, -48344.38691668355, -33601.310384429744, -19385.667966087814, -187500.02235174447, -17775.202426338485, -8719.907250393302, 19097.419869592177, -45863.343282144466, -41915.980507848326, -14267.185541055864, -34826.90123640314, -46642.99448049003, -42265.2265149625, 0.018000000000000002, 1.006, 0.14400000000000002, 192.0, 0.0, 0.0, 0.0, 0.0, 0.0, 0.0, 0.0, 0.0, 0.0, 1.695420180730477E9, 0.0, 2023-09-22 17:03:00.730
138.0, 20207.340444009358, 31470.69739946096, -49472.926494232, -48343.53755039425, -33610.94398628998, -19384.438620142773, -187500.02235174447, -17775.023612382844, -8718.72260793717, 19090.02144217747, -45862.136287943875, -41918.148627060495, -14266.269119533197, -34826.85653291423, -46642.92742525666, -42264.198334717556, 0.018000000000000002, 1.006, 0.14400000000000002, 192.0, 0.0, 0.0, 0.0, 0.0, 0.0, 0.0, 0.0, 0.0, 0.0, 1.695420180730481E9, 0.0, 2023-09-22 17:03:00.730
140.0, 20211.67668243369, 31470.69739946096, -49481.95659899194, -48360.52487618028, -33607.36770717713, -19401.358890695443, -187500.02235174447, -17785.774801465846, -8729.20557608671, 19083.62884326325, -45874.876782283405, -41932.543150489706, -14275.187465570863, -34839.73113772048, -46649.92352127117, -42274.971875545016, 0.018000000000000002, 1.006, 0.14400000000000002, 192.0, 0.0, 0.0, 0.0, 0.0, 0.0, 0.0, 0.0, 0.0, 0.0, 1.695420180730484E9, 0.0, 2023-09-22 17:03:00.730
142.0, 20201.37252823979, 31469.98214363839, -49475.11696518862, -48344.58808238365, -33610.832227567706, -19383.96923350921, -187500.02235174447, -17774.308356560276, -8731.239584832143, 19076.453933293098, -45877.33547417349, -41937.30407205869, -14283.502314508238, -34840.736966220975, -46652.829248050366, -42275.441262178574, 0.016, 1.004, 0.14200000000000002, 192.0, 0.0, 64.0, 15.5, 48.0, 2.0, 56.0, 0.0, 0.0, 0.0, 1.695420180730487E9, 0.0, 2023-09-22 17:03:00.730
144.0, 20216.95169412514, 31481.694457732974, -49469.1266976746, -48344.87865506156, -33593.93430875949, -19387.053774244043, -187500.02235174447, -17770.441504769507, -8715.146328824321, 19095.609378291294, -45861.53279084359, -41920.98729860631, -14264.43627648786, -34825.60483522473, -46636.31130889789, -42259.7726893154, 0.016, 1.004, 0.14200000000000002, 192.0, 0.0, 0.0, 0.0, 0.0, 0.0, 0.0, 0.0, 0.0, 0.0, 1.695420180730491E9, 0.0, 2023-09-22 17:03:00.730
146.0, 20206.602836442333, 31475.547728007765, -49475.31813088872, -48341.16826548198, -33614.34145144719, -19381.30937591903, -187500.02235174447, -17774.397763538094, -8722.812977172493, 19086.333404342342, -45868.35007290245, -41927.96104287637, -14273.041698103154, -34832.4221172836, -46648.560064859405, -42269.62980862019, 0.016, 1.004, 0.14200000000000002, 192.0, 0.0, 0.0, 0.0, 0.0, 0.0, 0.0, 0.0, 0.0, 0.0, 1.695420180730494E9, 0.0, 2023-09-22 17:03:00.730
148.0, 20212.48134523408, 31477.67114373102, -49472.77003202082, -48351.04773653123, -33597.42118089452, -19391.948806279757, -187500.02235174447, -17775.202426338485, -8711.882974133847, 19092.30132011191, -45857.35301463044, -41919.57913870563, -14264.123352065488, -34823.973157879496, -46638.837056021344, -42259.25859919293, 0.016, 1.004, 0.14200000000000002, 192.0, 0.0, 0.0, 0.0, 0.0, 0.0, 0.0, 0.0, 0.0, 0.0, 1.695420180730497E9, 0.0, 2023-09-22 17:03:00.730
150.0, 20208.99447309905, 31478.85578618715, -49469.43962209697, -48336.6085096131, -33607.45711415495, -19378.761277051126, -187500.02235174447, -17770.888539658612, -8719.504918993107, 19084.947596186114, -45866.494878112666, -41929.27979579924, -14276.34975628254, -34834.94786440705, -46648.493009626036, -42270.345064442765, 0.016, 1.004, 0.14200000000000002, 192.0, 0.0, 0.0, 0.0, 0.0, 0.0, 0.0, 0.0, 0.0, 0.0, 1.695420180790889E9, 0.0, 2023-09-22 17:03:00.790
152.0, 20216.5717144694, 31478.90048967606, -49461.66121502653, -48339.13425673655, -33587.92168950101, -19382.471666630707, -187500.02235174447, -17765.054734355777, -8705.557430452995, 19095.96700620258, -45851.519209327605, -41915.287603770215, -14258.021325829188, -34819.01107061042, -46631.46098035109, -42254.542381112864, 0.018000000000000002, 1.002, 0.14100000000000001, 192.0, 0.0, 80.0, 15.5, 32.0, 2.0, 48.0, 0.0, 0.0, 0.0, 1.695420180790919E9, 0.0, 2023-09-22 17:03:00.790
154.0, 20212.436641745167, 31473.71488496243, -49474.46876459942, -48342.889349805046, -33612.486256657394, -19383.678660831294, -187500.02235174447, -17774.777743193834, -8719.862546904391, 19089.842628221828, -45868.19361069127, -41931.80554292268, -14270.806523657624, -34832.71268996152, -46646.23548343605, -42268.26635220842, 0.018000000000000002, 1.002, 0.14100000000000001, 192.0, 0.0, 0.0, 0.0, 0.0, 0.0, 0.0, 0.0, 0.0, 0.0, 1.695420180790922E9, 0.0, 2023-09-22 17:03:00.790
156.0, 20213.822449901396, 31471.546765750263, -49467.04798544026, -48343.224625971874, -33591.63207908059, -19384.863303287424, -187500.02235174447, -17768.31808904625, -8710.519517722072, 19088.859151465793, -45860.79518327656, -41926.530531231234, -14265.643270688448, -34823.92845439058, -46637.786524031944, -42258.58804685927, 0.018000000000000002, 1.002, 0.14100000000000001, 192.0, 0.0, 0.0, 0.0, 0.0, 0.0, 0.0, 0.0, 0.0, 0.0, 1.695420180790926E9, 0.0, 2023-09-22 17:03:00.790
158.0, 20215.498830735545, 31475.771245452317, -49468.970235463414, -48337.81550381369, -33605.154884476055, -19380.795285796557, -187500.02235174447, -17769.61449022466, -8714.520479979574, 19090.177904388656, -45866.338415901475, -41932.65490921198, -14272.862884147513, -34832.31035856132, -46643.66503282369, -42266.38880567418, 0.018000000000000002, 1.002, 0.14100000000000001, 192.0, 0.0, 0.0, 0.0, 0.0, 0.0, 0.0, 0.0, 0.0, 0.0, 1.695420180790929E9, 0.0, 2023-09-22 17:03:00.790
160.0, 20209.821487643898, 31466.115291847622, -49465.99745345086, -48346.867960318086, -33592.81672153672, -19387.21023645523, -187500.02235174447, -17768.720420446447, -8710.452462488707, 19089.172075888167, -45862.985654233176, -41927.60341496509, -14262.357564253518, -34825.202503824534, -46636.601881575814, -42257.93984627007, 0.018000000000000002, 1.002, 0.14100000000000001, 192.0, 0.0, 0.0, 0.0, 0.0, 0.0, 0.0, 0.0, 0.0, 0.0, 1.695420180790932E9, 0.0, 2023-09-22 17:03:00.790
162.0, 20216.527010980488, 31473.848995429158, -49467.427965095994, -48338.66487010299, -33602.74089607488, -19379.230663684688, -187500.02235174447, -17767.356964034672, -8717.426206758762, 19087.227474120555, -45871.12168921491, -41935.8512086691, -14268.861921890011, -34832.10919286122, -46640.7593060445, -42262.05256724985, 0.018000000000000002, 1.001, 0.14250000000000002, 192.0, 0.0, 72.0, 15.5, 32.0, 2.0, 64.0, 0.0, 0.0, 0.0, 1.695420180790935E9, 0.0, 2023-09-22 17:03:00.790
164.0, 20207.072223075895, 31464.640076713575, -49467.00328195134, -48341.74941083782, -33590.98387849139, -19379.0742014735, -187500.02235174447, -17760.85260639818, -8709.983075855145, 19088.501523554507, -45861.21986642121, -41925.23413005282, -14261.351735753029, -34819.70397468853, -46631.72920128456, -42247.345119398255, 0.018000000000000002, 1.001, 0.14250000000000002, 192.0, 0.0, 0.0, 0.0, 0.0, 0.0, 0.0, 0.0, 0.0, 0.0, 1.695420180850159E9, 0.0, 2023-09-22 17:03:00.850
166.0, 20212.928380123187, 31471.591469239174, -49477.21802916742, -48344.677489361464, -33606.74185833238, -19382.002279997145, -187500.02235174447, -17771.000298380888, -8726.501015007618, 19082.533607784942, -45878.0283782516, -41939.29337731521, -14278.473172005793, -34833.2714835729, -46645.92255901368, -42260.68911083807, 0.018000000000000002, 1.001, 0.14250000000000002, 192.0, 0.0, 0.0, 0.0, 0.0, 0.0, 0.0, 0.0, 0.0, 0.0, 1.695420180850173E9, 0.0, 2023-09-22 17:03:00.850
168.0, 20205.14997305274, 31469.713922704927, -49462.64469178256, -48334.060410745195, -33591.78854129178, -19371.362849636418, -187500.02235174447, -17757.544548218793, -8716.845061402924, 19086.333404342342, -45863.49974435565, -41923.4459904964, -14273.220512058797, -34818.3181665323, -46635.819570519874, -42246.94278799806, 0.018000000000000002, 1.001, 0.14250000000000002, 192.0, 0.0, 0.0, 0.0, 0.0, 0.0, 0.0, 0.0, 0.0, 0.0, 1.695420180850177E9, 0.0, 2023-09-22 17:03:00.850
170.0, 20220.058586604428, 31484.823701956717, -49457.54849404675, -48331.534663621744, -33596.46005588294, -19372.055753714532, -187500.02235174447, -17758.796245908292, -8717.850889903413, 19098.090421925834, -45864.08088971149, -41922.59662420709, -14269.331308523573, -34822.87792240118, -46632.84678850732, -42248.3732996432, 0.018000000000000002, 1.001, 0.14250000000000002, 192.0, 0.0, 0.0, 0.0, 0.0, 0.0, 0.0, 0.0, 0.0, 0.0, 1.69542018085018E9, 0.0, 2023-09-22 17:03:00.850
172.0, 20209.150935310237, 31477.402922797555, -49454.35219458964, -48329.27713743176, -33591.587375591684, -19372.54749209255, -187500.02235174447, -17754.03532433931, -8709.044302588023, 19096.88342772525, -45851.13922967187, -41910.81725487915, -14260.837645630556, -34812.73023041847, -46622.073247679866, -42236.45981984852, 0.017, 1.0005, 0.14325000000000002, 192.0, 0.0, 64.0, 15.5, 32.0, 2.0, 64.0, 0.0, 0.0, 0.0, 1.695420180850184E9, 0.0, 2023-09-22 17:03:00.850
174.0, 20220.796194171453, 31488.176463625012, -49463.29289237176, -48336.25088170182, -33598.06938148372, -19378.873035773402, -187500.02235174447, -17762.193711065498, -8719.549622482016, 19102.44901209462, -45862.18099143279, -41919.601490450084, -14271.767648669202, -34825.2695590579, -46631.013945461986, -42245.75814554193, 0.017, 1.0005, 0.14325000000000002, 192.0, 0.0, 0.0, 0.0, 0.0, 0.0, 0.0, 0.0, 0.0, 0.0, 1.695420180850187E9, 0.0, 2023-09-22 17:03:00.850
176.0, 20209.48621147707, 31480.062780387736, -49457.14616264655, -48328.31601242018, -33593.46492212593, -19369.530006591085, -187500.02235174447, -17752.13542606061, -8714.967514868678, 19098.135125414745, -45856.39188961886, -41912.96302234686, -14269.733639923768, -34816.08299208677, -46628.46584659408, -42236.83979950426, 0.017, 1.0005, 0.14325000000000002, 192.0, 0.0, 0.0, 0.0, 0.0, 0.0, 0.0, 0.0, 0.0, 0.0, 1.695420180850191E9, 0.0, 2023-09-22 17:03:00.850
178.0, 20218.113984836815, 31485.449550801462, -49472.50181108735, -48347.40440218501, -33599.74576231787, -19389.825390556503, -187500.02235174447, -17769.36862103565, -8722.276535305564, 19101.219666149576, -45866.472526368205, -41921.97077536235, -14277.802619672135, -34829.203466082035, -46635.32783214186, -42247.92626475409, 0.017, 1.0005, 0.14325000000000002, 192.0, 0.0, 0.0, 0.0, 0.0, 0.0, 0.0, 0.0, 0.0, 0.0, 1.695420180850194E9, 0.0, 2023-09-22 17:03:00.850
180.0, 20193.37060372479, 31472.016152383825, -49475.675758800004, -48346.443277173435, -33610.51930314533, -19388.55134112255, -187500.02235174447, -17770.687373958513, -8733.072427877478, 19083.338270585333, -45876.55316311755, -41931.78319117823, -14291.459535534328, -34834.232608584476, -46644.357936901804, -42255.05647123534, 0.017, 1.0005, 0.14325000000000002, 192.0, 0.0, 0.0, 0.0, 0.0, 0.0, 0.0, 0.0, 0.0, 0.0, 1.695420180909812E9, 0.0, 2023-09-22 17:03:00.909
182.0, 20214.940037124165, 31489.025829914313, -49461.88473247108, -48338.01666951379, -33594.35899190414, -19381.242320685666, -187500.02235174447, -17762.149007576587, -8726.121035351878, 19094.06710792388, -45871.54637235956, -41926.664641697964, -14277.40028827194, -34830.96925389401, -46637.51830309848, -42251.77076480041, 0.0155, 1.0002499999999999, 0.142625, 192.0, 0.0, 56.0, 15.5, 32.0, 2.0, 56.0, 0.0, 0.0, 0.0, 1.695420180909824E9, 0.0, 2023-09-22 17:03:00.909
184.0, 20199.874961361285, 31477.917012920025, -49462.91291271603, -48333.434561900445, -33599.45518963995, -19374.0227072266, -187500.02235174447, -17757.56689996325, -8720.734264938148, 19091.92134045617, -45863.76796528912, -41922.44016199591, -14272.371145769495, -34822.050907856334, -46632.10918094029, -42243.634729818674, 0.0155, 1.0002499999999999, 0.142625, 192.0, 0.0, 0.0, 0.0, 0.0, 0.0, 0.0, 0.0, 0.0, 0.0, 1.695420180909828E9, 0.0, 2023-09-22 17:03:00.909
186.0, 20210.693205677653, 31482.119140877625, -49472.814735509724, -48348.812562085695, -33598.8293407952, -19389.378355667395, -187500.02235174447, -17768.921586146545, -8723.818805672981, 19097.755145759005, -45870.40643339234, -41929.90564464398, -14277.467343505305, -34829.628149226686, -46635.66310830869, -42250.474363621994, 0.0155, 1.0002499999999999, 0.142625, 192.0, 0.0, 0.0, 0.0, 0.0, 0.0, 0.0, 0.0, 0.0, 0.0, 1.695420180909831E9, 0.0, 2023-09-22 17:03:00.909
188.0, 20196.008109570517, 31475.055989629745, -49470.6242645531, -48339.13425673655, -33606.65245135456, -19378.917739262313, -187500.02235174447, -17763.825388410736, -8723.908212650802, 19085.215817119577, -45871.97105550421, -41932.274929556246, -14276.752087682735, -34829.42698352659, -46640.26756766648, -42253.08951772327, 0.0155, 1.0002499999999999, 0.142625, 192.0, 0.0, 0.0, 0.0, 0.0, 0.0, 0.0, 0.0, 0.0, 0.0, 1.695420180909834E9, 0.0, 2023-09-22 17:03:00.909
190.0, 20206.669891675698, 31481.582699010694, -49470.98189246439, -48348.49963766333, -33595.856558782645, -19387.813733555526, -187500.02235174447, -17768.38514427962, -8725.651648718316, 19088.076840409856, -45874.31798867202, -41935.06889761316, -14274.047526603643, -34832.86915217271, -46639.75347754401, -42254.184753201574, 0.0155, 1.0002499999999999, 0.142625, 192.0, 0.0, 0.0, 0.0, 0.0, 0.0, 0.0, 0.0, 0.0, 0.0, 1.695420180909837E9, 0.0, 2023-09-22 17:03:00.909
192.0, 20203.071260818393, 31480.845091443673, -49463.96344470543, -48333.23339620035, -33605.087829242686, -19372.59219558146, -187500.02235174447, -17760.31616453125, -8723.796453928526, 19086.623977020263, -45871.32285491501, -41934.219531323855, -14275.500389993238, -34830.34340504926, -46641.38515488925, -42253.93888401257, 0.017750000000000002, 1.001125, 0.1463125, 192.0, 0.0, 80.0, 15.5, 40.0, 2.0, 88.0, 0.0, 0.0, 0.0, 1.695420180909841E9, 0.0, 2023-09-22 17:03:00.909
194.0, 20218.628074959288, 31487.237690357888, -49460.20835163693, -48341.63765211555, -33594.49310237087, -19384.438620142773, -187500.02235174447, -17765.32295528924, -8709.96072411069, 19098.40334634821, -45856.88362799688, -41920.6967259284, -14266.514988722205, -34820.57569272228, -46629.27050939447, -42243.47826760748, 0.017750000000000002, 1.001125, 0.1463125, 192.0, 0.0, 0.0, 0.0, 0.0, 0.0, 0.0, 0.0, 0.0, 0.0, 1.695420180970182E9, 0.0, 2023-09-22 17:03:00.970
196.0, 20213.66598769021, 31486.589489768685, -49455.40272657904, -48325.61145134109, -33599.2316721954, -19368.814750768513, -187500.02235174447, -17760.494978486895, -8709.468985732674, 19094.894122468726, -45855.63193030738, -41922.44016199591, -14272.549959725138, -34822.58734972326, -46633.07030595187, -42246.24988391995, 0.017750000000000002, 1.001125, 0.1463125, 192.0, 0.0, 0.0, 0.0, 0.0, 0.0, 0.0, 0.0, 0.0, 0.0, 1.695420180970196E9, 0.0, 2023-09-22 17:03:00.970
198.0, 20222.33846453887, 31492.602109027164, -49448.02665090879, -48325.52204436327, -33577.88575624058, -19368.50182634614, -187500.02235174447, -17752.046019082787, -8698.136651293833, 19103.700709784116, -45845.26072088012, -41910.236109523314, -14249.0135728137, -34808.95278560553, -46616.73118075504, -42231.56478781281, 0.017750000000000002, 1.001125, 0.1463125, 192.0, 0.0, 0.0, 0.0, 0.0, 0.0, 0.0, 0.0, 0.0, 0.0, 1.6954201809702E9, 0.0, 2023-09-22 17:03:00.970
200.0, 20215.699996435644, 31487.75178048036, -49459.76131674783, -48324.58327109615, -33597.041201238775, -19366.825445511993, -187500.02235174447, -17757.723362174434, -8707.747901409615, 19102.44901209462, -45855.02843320709, -41917.61218519356, -14259.854168874523, -34813.08785832976, -46626.6553552932, -42239.07497394979, 0.017750000000000002, 1.001125, 0.1463125, 192.0, 0.0, 0.0, 0.0, 0.0, 0.0, 0.0, 0.0, 0.0, 0.0, 1.695420180970203E9, 0.0, 2023-09-22 17:03:00.970
202.0, 20218.225743559095, 31483.639059500583, -49456.676776012995, -48332.98752701134, -33581.61849756462, -19373.352154892942, -187500.02235174447, -17755.689353429003, -8708.127881065355, 19102.1584394167, -45853.620273306406, -41912.9406706024, -14258.043677573643, -34809.22100653899, -46625.18014015915, -42235.90102623714, 0.020875, 1.0025625, 0.14415625, 192.0, 0.0, 96.0, 15.5, 48.0, 2.0, 56.0, 0.0, 0.0, 0.0, 1.695420180970207E9, 0.0, 2023-09-22 17:03:00.970
204.0, 20215.23060980208, 31487.774132224815, -49465.46101158393, -48333.81454155619, -33600.12574197361, -19372.368678136907, -187500.02235174447, -17763.66892619955, -8718.074407347967, 19097.73279401455, -45864.19264843377, -41923.42363875194, -14268.01255560071, -34821.581521222775, -46634.791390274935, -42246.60751183123, 0.020875, 1.0025625, 0.14415625, 192.0, 0.0, 0.0, 0.0, 0.0, 0.0, 0.0, 0.0, 0.0, 0.0, 1.69542018097021E9, 0.0, 2023-09-22 17:03:00.970
206.0, 20205.976987597584, 31479.302821076253, -49463.60581679414, -48342.732887593855, -33588.88281451259, -19381.041154985567, -187500.02235174447, -17761.031420353822, -8714.72164567967, 19098.67156728167, -45860.392851876364, -41919.93676661691, -14266.805561400124, -34815.300681030836, -46629.404619861205, -42239.969043728, 0.020875, 1.0025625, 0.14415625, 192.0, 0.0, 0.0, 0.0, 0.0, 0.0, 0.0, 0.0, 0.0, 0.0, 1.695420180970213E9, 0.0, 2023-09-22 17:03:00.970
208.0, 20207.720423665098, 31484.533129278796, -49465.773936006306, -48335.3568119236, -33600.88570128509, -19373.30745140403, -187500.02235174447, -17761.23258605392, -8728.713837708692, 19090.155552644203, -45874.34034041648, -41934.152476090494, -14277.512046994216, -34831.12571610519, -46641.4075066337, -42251.16726770011, 0.020875, 1.0025625, 0.14415625, 192.0, 0.0, 0.0, 0.0, 0.0, 0.0, 0.0, 0.0, 0.0, 0.0, 1.695420180970216E9, 0.0, 2023-09-22 17:03:00.970
210.0, 20206.42402248669, 31479.772207709815, -49454.173380634, -48334.66390784549, -33581.9761254759, -19371.966346736714, -187500.02235174447, -17749.408513237064, -8710.564221210983, 19100.16913416018, -45853.687328539774, -41915.064086325656, -14257.641346173448, -34811.25501528443, -46620.39686684572, -42229.12844766718, 0.020875, 1.0025625, 0.14415625, 192.0, 0.0, 0.0, 0.0, 0.0, 0.0, 0.0, 0.0, 0.0, 0.0, 1.695420181030487E9, 0.0, 2023-09-22 17:03:01.030
212.0, 20209.70972892162, 31484.689591489983, -49471.65244479805, -48341.816466071185, -33607.546521132776, -19382.248149186154, -187500.02235174447, -17767.602833223682, -8731.910137165802, 19092.413078834186, -45876.30729392854, -41937.1476098475, -14283.099983108043, -34838.501791775445, -46644.53675085745, -42255.101174724245, 0.021437499999999998, 1.00428125, 0.142078125, 192.0, 0.0, 88.0, 15.5, 56.0, 2.0, 48.0, 0.0, 0.0, 0.0, 1.695420181030508E9, 0.0, 2023-09-22 17:03:01.030
214.0, 20203.115964307304, 31475.771245452317, -49458.84489522516, -48335.33446017915, -33594.64956458206, -19376.54845435005, -187500.02235174447, -17757.87982438562, -8715.906288135802, 19098.805677748405, -45856.43659310778, -41916.98633634882, -14273.935767881367, -34816.328861275775, -46629.76224777249, -42236.45981984852, 0.021437499999999998, 1.00428125, 0.142078125, 192.0, 0.0, 0.0, 0.0, 0.0, 0.0, 0.0, 0.0, 0.0, 0.0, 1.695420181030513E9, 0.0, 2023-09-22 17:03:01.030
216.0, 20214.62711270179, 31483.348486822666, -49466.377433106594, -48335.62503285707, -33606.40658216555, -19376.995489239158, -187500.02235174447, -17764.741809933403, -8729.049113875522, 19100.370299860275, -45871.300503170554, -41930.46443825537, -14281.423602273895, -34832.37741379469, -46642.6592043232, -42251.63665433367, 0.021437499999999998, 1.00428125, 0.142078125, 192.0, 0.0, 0.0, 0.0, 0.0, 0.0, 0.0, 0.0, 0.0, 0.0, 1.695420181030516E9, 0.0, 2023-09-22 17:03:01.030
218.0, 20207.832182387374, 31476.62061174162, -49454.151028889544, -48331.355849666106, -33588.77105579031, -19374.290928160066, -187500.02235174447, -17754.23649003941, -8711.480642733652, 19103.03015745046, -45854.35788087343, -41916.449894481884, -14267.00672710022, -34817.28998628735, -46629.6057855613, -42236.79509601535, 0.021437499999999998, 1.00428125, 0.142078125, 192.0, 0.0, 0.0, 0.0, 0.0, 0.0, 0.0, 0.0, 0.0, 0.0, 1.695420181030519E9, 0.0, 2023-09-22 17:03:01.030
220.0, 20217.018749358507, 31487.0812281467, -49461.81767723771, -48340.005974770305, -33596.52711111631, -19383.522198620107, -187500.02235174447, -17766.28408030082, -8720.57780272696, 19103.052509194913, -45865.3772908899, -41928.47513299884, -14271.34296552455, -34833.09266961726, -46636.266605408986, -42249.714404310515, 0.021437499999999998, 1.00428125, 0.142078125, 192.0, 0.0, 0.0, 0.0, 0.0, 0.0, 0.0, 0.0, 0.0, 0.0, 1.695420181030523E9, 0.0, 2023-09-22 17:03:01.030
222.0, 20205.95463585313, 31481.023905399314, -49453.34636608915, -48330.28296593225, -33586.66999181151, -19373.93330024878, -187500.02235174447, -17755.018801095342, -8710.832442144447, 19100.012671948993, -45855.52017158511, -41918.95328986088, -14266.090305577554, -34819.01107061042, -46629.471675094566, -42238.963215227515, 0.02371875, 1.006140625, 0.1390390625, 192.0, 0.0, 104.0, 15.5, 64.0, 2.0, 32.0, 0.0, 0.0, 0.0, 1.695420181030526E9, 0.0, 2023-09-22 17:03:01.030
224.0, 20224.841859917862, 31498.011231185348, -49457.302624857744, -48332.29462293323, -33591.56502384723, -19376.682564816783, -187500.02235174447, -17761.679620943025, -8715.749825924615, 19115.97181749008, -45862.47156411071, -41920.56261546166, -14273.622843458992, -34821.089782844756, -46633.740858285535, -42243.38886062966, 0.02371875, 1.006140625, 0.1390390625, 192.0, 0.0, 0.0, 0.0, 0.0, 0.0, 0.0, 0.0, 0.0, 0.0, 1.695420181090823E9, 0.0, 2023-09-22 17:03:01.090
226.0, 20215.744699924555, 31494.32319335022, -49451.20059862144, -48323.62214608457, -33593.17434944801, -19368.41241936832, -187500.02235174447, -17755.443484239993, -8707.72554966516, 19117.73760530205, -45852.5250378281, -41912.67244966894, -14265.48680847726, -34808.03636408286, -46630.879834995256, -42236.12454368169, 0.02371875, 1.006140625, 0.1390390625, 192.0, 0.0, 0.0, 0.0, 0.0, 0.0, 0.0, 0.0, 0.0, 0.0, 1.695420181090837E9, 0.0, 2023-09-22 17:03:01.090
228.0, 20229.848650675853, 31505.43201034451, -49453.36871783361, -48329.54535836523, -33595.94596576047, -19376.257881672132, -187500.02235174447, -17764.495940744393, -8711.078311333456, 19126.03010249497, -45858.716471042215, -41915.846397381596, -14267.029078844676, -34813.42313449659, -46634.54552108592, -42240.72900303948, 0.02371875, 1.006140625, 0.1390390625, 192.0, 0.0, 0.0, 0.0, 0.0, 0.0, 0.0, 0.0, 0.0, 0.0, 1.695420181090841E9, 0.0, 2023-09-22 17:03:01.090
230.0, 20217.756356925533, 31497.407734085053, -49447.46785729741, -48319.33061114915, -33595.83420703819, -19368.21125366822, -187500.02235174447, -17759.13152207512, -8704.238677530131, 19120.30805591441, -45851.00511920513, -41908.358562989066, -14262.357564253518, -34806.56114894881, -46630.455151850605, -42234.87284599219, 0.02371875, 1.006140625, 0.1390390625, 192.0, 0.0, 0.0, 0.0, 0.0, 0.0, 0.0, 0.0, 0.0, 0.0, 1.695420181090844E9, 0.0, 2023-09-22 17:03:01.090
232.0, 20232.48615652158, 31505.119085922135, -49445.16562761851, -48326.34905890811, -33582.64667780956, -19374.648556071348, -187500.02235174447, -17758.148045319085, -8701.824689128958, 19130.58985836385, -45849.08286918198, -41904.84933910958, -14260.100038063532, -34806.65055592663, -46620.93330871264, -42231.22951164598, 0.022859375, 1.0070703125, 0.13851953125, 192.0, 0.0, 88.0, 15.5, 64.0, 2.0, 40.0, 0.0, 0.0, 0.0, 1.695420181090847E9, 0.0, 2023-09-22 17:03:01.090
234.0, 20205.932284108672, 31484.778998467806, -49457.45908706893, -48336.22852995736, -33598.78463730629, -19382.203445697243, -187500.02235174447, -17764.674754700038, -8711.39123575583, 19107.96989297508, -45857.59888381945, -41918.75212416078, -14271.700593435837, -34818.1170008322, -46629.78459951694, -42239.07497394979, 0.022859375, 1.0070703125, 0.13851953125, 192.0, 0.0, 0.0, 0.0, 0.0, 0.0, 0.0, 0.0, 0.0, 0.0, 1.695420181090851E9, 0.0, 2023-09-22 17:03:01.090
236.0, 20215.454127246634, 31489.964603181437, -49459.71661325891, -48343.93988179444, -33590.469788368915, -19389.60187311195, -187500.02235174447, -17766.306432045276, -8719.862546904391, 19100.16913416018, -45867.36659614642, -41928.16220857647, -14273.086401592065, -34829.73990794896, -46635.059611208395, -42246.987491486965, 0.022859375, 1.0070703125, 0.13851953125, 192.0, 0.0, 0.0, 0.0, 0.0, 0.0, 0.0, 0.0, 0.0, 0.0, 1.695420181090854E9, 0.0, 2023-09-22 17:03:01.090
238.0, 20206.80400214243, 31485.60601301265, -49452.765220733316, -48328.18190195345, -33595.00719249334, -19372.793361281558, -187500.02235174447, -17755.08585632871, -8722.053017861012, 19097.241055636532, -45865.26553216762, -41926.61993820905, -14276.617977216003, -34826.63301546968, -46633.18206467415, -42243.858247263226, 0.022859375, 1.0070703125, 0.13851953125, 192.0, 0.0, 0.0, 0.0, 0.0, 0.0, 0.0, 0.0, 0.0, 0.0, 1.695420181090857E9, 0.0, 2023-09-22 17:03:01.090
240.0, 20218.33750228137, 31491.640984015583, -49452.42994456649, -48336.11677123509, -33587.38524763408, -19383.879826531393, -187500.02235174447, -17759.13152207512, -8713.335837523442, 19112.619055821786, -45858.157677430834, -41917.61218519356, -14263.989241598754, -34819.681622944074, -46625.78363725945, -42235.811619259315, 0.022859375, 1.0070703125, 0.13851953125, 192.0, 0.0, 0.0, 0.0, 0.0, 0.0, 0.0, 0.0, 0.0, 0.0, 1.695420181150634E9, 0.0, 2023-09-22 17:03:01.150
242.0, 20206.982816098072, 31484.60018451216, -49452.98873817787, -48325.4549891299, -33602.74089607488, -19375.78849503857, -187500.02235174447, -17756.382257507117, -8721.002485871611, 19103.678358039662, -45863.76796528912, -41923.803618407685, -14273.734602181268, -34826.27538755839, -46635.059611208395, -42241.17603792859, 0.0204296875, 1.00453515625, 0.139259765625, 192.0, 0.0, 72.0, 15.5, 40.0, 2.0, 48.0, 0.0, 0.0, 0.0, 1.695420181150645E9, 0.0, 2023-09-22 17:03:01.150
