%OpenBCI Raw EXG Data
%Number of channels = 16
%Sample Rate = 125 Hz
%Board = OpenBCI_GUI$BoardCytonSerialDaisy
Sample Index, EXG Channel 0, EXG Channel 1, EXG Channel 2, EXG Channel 3, EXG Channel 4, EXG Channel 5, EXG Channel 6, EXG Channel 7, EXG Channel 8, EXG Channel 9, EXG Channel 10, EXG Channel 11, EXG Channel 12, EXG Channel 13, EXG Channel 14, EXG Channel 15, Accel Channel 0, Accel Channel 1, Accel Channel 2, Other, Other, Other, Other, Other, Other, Other, Analog Channel 0, Analog Channel 1, Analog Channel 2, Timestamp, Other, Timestamp (Formatted)
12.0, 32953.80269930395, 19965.025182369376, -62785.40197436834, -44962.50092536223, -26980.164883156405, -33553.567058273205, -187500.02235174447, -52050.44025784019, -31261.44036787038, -29388.945327871483, -60734.160033960354, -72087.10278118882, -29391.426371506022, -187500.02235174447, -51171.12263096841, -35216.38038353687, 0.0, 0.0, 0.0, 192.0, 0.0, 0.0, 0.0, 0.0, 0.0, 0.0, 0.0, 0.0, 0.0, 1.695337275431998E9, 0.0, 2023-09-21 18:01:15.431
14.0, 32920.29743436544, 19958.252603799418, -62785.73725053517, -44970.54755336614, -26962.171728869886, -33555.98104667438, -187500.02235174447, -52046.10401941586, -31244.90007697345, -29378.81998763323, -60713.14939417236, -72065.53334778946, -29470.819767811274, -187500.02235174447, -51208.584154675504, -35257.820517757005, 0.0, 0.0, 0.0, 192.0, 0.0, 0.0, 0.0, 0.0, 0.0, 0.0, 0.0, 0.0, 0.0, 1.695337275432007E9, 0.0, 2023-09-21 18:01:15.432
16.0, 32953.668588837216, 19972.80358943982, -62782.160971422316, -44959.52814334967, -26966.686781249857, -33545.520430269295, -187500.02235174447, -52042.01365018054, -31256.56768757912, -29376.00366783186, -60724.63819082239, -72076.82097873939, -29395.025002363327, -187500.02235174447, -51162.807782031035, -35219.554331249514, -0.016, 0.506, 0.048, 192.0, 127.5, 0.0, 15.5, 80.0, 1.5, 0.0, 0.0, 0.0, 0.0, 1.695337275432011E9, 0.0, 2023-09-21 18:01:15.432
18.0, 32907.55694002592, 19966.343935292236, -62776.57303530849, -44963.68556781836, -26954.728597966267, -33545.40867154702, -187500.02235174447, -52030.793074463974, -31237.65811176993, -29372.181519530004, -60703.78401324559, -72060.4595017981, -29460.985000250937, -187500.02235174447, -51199.084663282, -35256.05472994503, -0.016, 0.506, 0.048, 192.0, 0.0, 0.0, 0.0, 0.0, 0.0, 0.0, 0.0, 0.0, 0.0, 1.695337275432015E9, 0.0, 2023-09-21 18:01:15.432
20.0, 32958.27304819501, 19976.33516506376, -62782.630358055874, -44963.84203002954, -26962.23878410325, -33549.7672617158, -187500.02235174447, -52043.95825194815, -31265.553088850153, -29384.117351069137, -60737.19987120627, -72090.25437715702, -29386.397229003578, -187500.02235174447, -51155.74463078316, -35216.38038353687, -0.016, 0.506, 0.048, 192.0, 0.0, 0.0, 0.0, 0.0, 0.0, 0.0, 0.0, 0.0, 0.0, 1.695337275432018E9, 0.0, 2023-09-21 18:01:15.432
22.0, 32901.767838212, 19967.28270855936, -62783.18915166726, -44968.37943415397, -26959.936554424356, -33553.79057571776, -187500.02235174447, -52047.44512408318, -31233.433632067878, -29363.911374081537, -60698.374891087406, -72054.08925462834, -29449.429148367544, -187500.02235174447, -51197.98942780369, -35254.08777643296, -0.016, 0.506, 0.048, 192.0, 0.0, 0.0, 0.0, 0.0, 0.0, 0.0, 0.0, 0.0, 0.0, 1.695337275432021E9, 0.0, 2023-09-21 18:01:15.432
24.0, 32964.933868042695, 19980.447886043537, -62782.47389584469, -44960.7127858058, -26955.48855727775, -33538.658444721514, -187500.02235174447, -52033.34117333188, -31261.686237059384, -29376.741275398887, -60731.991914748185, -72083.03476369796, -29388.654755193566, -187500.02235174447, -51160.23733141868, -35214.63694746935, -0.016, 0.506, 0.048, 192.0, 0.0, 0.0, 0.0, 0.0, 0.0, 0.0, 0.0, 0.0, 0.0, 1.695337275432025E9, 0.0, 2023-09-21 18:01:15.432
26.0, 32893.900024163726, 19974.05528712932, -62781.55747432202, -44959.90812300541, -26965.792711471644, -33547.64384599255, -187500.02235174447, -52041.79013273599, -31237.255780369735, -29368.33701948369, -60702.711129511736, -72058.69371398613, -29441.829555252738, -187500.02235174447, -51194.92723881331, -35241.61550302691, -0.022, 0.76, 0.07300000000000001, 192.0, 127.5, 16.0, 15.5, 88.0, 1.5, 8.0, 0.0, 0.0, 0.0, 1.695337275432028E9, 0.0, 2023-09-21 18:01:15.432
28.0, 32964.777405831504, 19964.75696143591, -62799.93060826429, -44978.59418137004, -26961.411769558403, -33564.38530258957, -187500.02235174447, -52056.944615476685, -31259.56282133613, -29376.13777829859, -60731.03078973661, -72083.19122590915, -29400.300014054777, -187500.02235174447, -51164.193590187264, -35221.47658127268, -0.022, 0.76, 0.07300000000000001, 192.0, 0.0, 0.0, 0.0, 0.0, 0.0, 0.0, 0.0, 0.0, 0.0, 1.695337275432032E9, 0.0, 2023-09-21 18:01:15.432
0.0, 16476.677832207424, 9985.93240808635, -31358.379883573045, -22403.37698499882, -13492.742299168385, -16762.802512979808, -93750.01117587223, -26002.52193242573, -15633.90530752007, -14695.981406686475, -30366.163595457507, -36043.529038849956, -14699.870610221698, -93750.01117587223, -25591.138075725805, -17608.927799335455, -0.022, 1.014, 0.092, 192.0, 127.5, 40.0, 15.5, 88.0, 1.0, 112.0, 0.0, 0.0, 0.0, 1.695337275608453E9, 0.0, 2023-09-21 18:01:15.608
2.0, 32963.592763375374, 19969.04849637133, -62731.400159764315, -44805.949307197254, -27019.77217433121, -33519.368889256584, -187500.02235174447, -52000.19353630466, -31249.45983284233, -29311.720050778396, -60705.43804233528, -72004.8483615933, -29521.2676550469, -187500.02235174447, -51092.86917363038, -35209.1607700778, -0.022, 1.014, 0.092, 192.0, 0.0, 0.0, 0.0, 0.0, 0.0, 0.0, 0.0, 0.0, 0.0, 1.695337275608465E9, 0.0, 2023-09-21 18:01:15.608
4.0, 32920.27508262099, 19954.721028175478, -62746.68875297174, -44825.90941499584, -27019.325139442106, -33541.83239243417, -187500.02235174447, -52022.79114994898, -31251.00210320975, -29326.114574207615, -60702.66642602282, -72001.89793132519, -29602.069211252834, -187500.02235174447, -51146.379249856385, -35241.14611639334, -0.022, 1.014, 0.092, 192.0, 0.0, 0.0, 0.0, 0.0, 0.0, 0.0, 0.0, 0.0, 0.0, 1.695337275608469E9, 0.0, 2023-09-21 18:01:15.608
6.0, 32974.299248969466, 19961.605365467713, -62758.64693625533, -44834.000746488666, -27035.418395449924, -33551.890677439056, -187500.02235174447, -52032.08947564238, -31277.511272133743, -29334.742347567364, -60737.49044388419, -72034.84440265232, -29546.972161170503, -187500.02235174447, -51123.803987956526, -35206.47856074316, -0.022, 1.014, 0.092, 192.0, 0.0, 0.0, 0.0, 0.0, 0.0, 0.0, 0.0, 0.0, 0.0, 1.695337275608472E9, 0.0, 2023-09-21 18:01:15.608
8.0, 32908.428658059674, 19937.89016460063, -62740.005581379606, -44825.84235976248, -27031.68565412589, -33542.21237208991, -187500.02235174447, -52023.41699879373, -31256.85826025704, -29336.128155723592, -60707.941437714275, -72011.7997541189, -29621.2917114844, -187500.02235174447, -51169.46860187872, -35240.900247204336, -0.016, 1.018, 0.09, 192.0, 127.5, 64.0, 15.5, 104.0, 1.0, 104.0, 0.0, 0.0, 0.0, 1.695337275608476E9, 0.0, 2023-09-21 18:01:15.608
10.0, 32962.45282440815, 19946.13795830464, -62737.770406934076, -44820.12031318192, -27018.498124897258, -33537.04911912073, -187500.02235174447, -52015.079798111896, -31281.62399311352, -29343.90656279404, -60735.635249094405, -72037.12428058675, -29563.065417178324, -187500.02235174447, -51130.442456059754, -35216.223921325676, -0.016, 1.018, 0.09, 192.0, 0.0, 0.0, 0.0, 0.0, 0.0, 0.0, 0.0, 0.0, 0.0, 1.695337275608479E9, 0.0, 2023-09-21 18:01:15.608
12.0, 32886.32278279338, 19948.99898159492, -62716.98328459064, -44800.29431585006, -27007.523418369703, -33506.20371177241, -187500.02235174447, -51976.88066683777, -31251.046806698658, -29334.407071400532, -60698.33018759849, -72005.42950694913, -29616.709603871062, -187500.02235174447, -51166.428764632794, -35251.874953731894, -0.016, 1.018, 0.09, 192.0, 0.0, 0.0, 0.0, 0.0, 0.0, 0.0, 0.0, 0.0, 0.0, 1.695337275608482E9, 0.0, 2023-09-21 18:01:15.608
14.0, 32959.77061507352, 19940.550022190815, -62738.44095926773, -44825.70824929574, -27008.506895125734, -33535.08216560867, -187500.02235174447, -52013.49282425557, -31258.55699283564, -29331.90367602154, -60718.02207446362, -72022.64035017972, -29565.591164301775, -187500.02235174447, -51118.68543847626, -35225.67870923027, -0.016, 1.018, 0.09, 192.0, 0.0, 0.0, 0.0, 0.0, 0.0, 0.0, 0.0, 0.0, 0.0, 1.695337275608486E9, 0.0, 2023-09-21 18:01:15.608
16.0, 32880.08664609035, 19947.009676338395, -62720.4031014923, -44807.268060120114, -27022.364976688026, -33521.604063702114, -187500.02235174447, -52009.46951025361, -31255.785376523185, -29339.90560053654, -60701.235914377685, -72008.20112326159, -29600.683403096606, -187500.02235174447, -51158.38213662888, -35243.269532116596, -0.016, 1.018, 0.09, 192.0, 0.0, 0.0, 0.0, 0.0, 0.0, 0.0, 0.0, 0.0, 0.0, 1.695337275668737E9, 0.0, 2023-09-21 18:01:15.668
18.0, 32962.56458313043, 19942.18169953605, -62741.16787209128, -44830.62563307591, -27009.423316648405, -33536.69149120945, -187500.02235174447, -52011.61527772132, -31260.501594603254, -29323.61117882862, -60714.55755407305, -72016.96300708807, -29574.263641150435, -187500.02235174447, -51132.43176131627, -35233.278302345076, -0.02, 1.014, 0.09, 192.0, 127.5, 48.0, 15.5, 88.0, 1.0, 104.0, 0.0, 0.0, 0.0, 1.695337275668749E9, 0.0, 2023-09-21 18:01:15.668
20.0, 32880.55603272391, 19958.23025205496, -62706.74618563011, -44789.85605118943, -27021.02387202071, -33496.77127561227, -187500.02235174447, -51974.01964354749, -31259.31695214712, -29332.976559755392, -60705.43804233528, -72013.38672797522, -29576.76703652943, -187500.02235174447, -51160.147924440855, -35235.6699390018, -0.02, 1.014, 0.09, 192.0, 0.0, 0.0, 0.0, 0.0, 0.0, 0.0, 0.0, 0.0, 0.0, 1.695337275668753E9, 0.0, 2023-09-21 18:01:15.668
22.0, 32949.779385302, 19947.255545527405, -62725.05226433901, -44824.6800690508, -26996.52636009769, -33534.612778975104, -187500.02235174447, -52017.09145511287, -31239.759175748728, -29303.069925674194, -60698.73251899869, -72005.80948660488, -29573.548385327864, -187500.02235174447, -51136.83505497397, -35245.66116877332, -0.02, 1.014, 0.09, 192.0, 0.0, 0.0, 0.0, 0.0, 0.0, 0.0, 0.0, 0.0, 0.0, 1.695337275668757E9, 0.0, 2023-09-21 18:01:15.668
24.0, 32891.731904951565, 19946.964972849488, -62711.23888626563, -44802.462435062225, -27026.880029067997, -33504.19205477143, -187500.02235174447, -51985.016701819506, -31250.80093750965, -29325.287559662767, -60707.85203073645, -72018.3041117554, -29559.310324109832, -187500.02235174447, -51147.630947545884, -35232.67480524478, -0.02, 1.014, 0.09, 192.0, 0.0, 0.0, 0.0, 0.0, 0.0, 0.0, 0.0, 0.0, 0.0, 1.69533727566876E9, 0.0, 2023-09-21 18:01:15.668
26.0, 32966.29732445447, 19938.71717914548, -62718.972589847166, -44817.5275108251, -27004.863560779522, -33530.25418880632, -187500.02235174447, -52012.03996086597, -31252.656132299442, -29317.486800847866, -60717.68679829679, -72025.38961474772, -29570.57560331531, -187500.02235174447, -51137.41620032981, -35231.043127899546, -0.02, 1.014, 0.09, 192.0, 0.0, 0.0, 0.0, 0.0, 0.0, 0.0, 0.0, 0.0, 0.0, 1.695337275668763E9, 0.0, 2023-09-21 18:01:15.668
28.0, 32912.25080636154, 19922.489812670927, -62719.68784566973, -44816.231109646695, -27039.91109608544, -33531.17061032899, -187500.02235174447, -52010.29652479846, -31254.533678833686, -29316.74919328084, -60716.65861805184, -72023.57912344685, -29549.341446082766, -187500.02235174447, -51148.56972081301, -35224.806991196514, -0.026000000000000002, 1.016, 0.098, 192.0, 127.5, 24.0, 15.5, 96.0, 1.5, 8.0, 0.0, 0.0, 0.0, 1.695337275668767E9, 0.0, 2023-09-21 18:01:15.668
30.0, 32967.83959482188, 19910.397518920603, -62721.341874759426, -44830.849150520466, -27010.92088352691, -33547.26386633681, -187500.02235174447, -52028.31203082944, -31262.04386497067, -29326.18162944098, -60731.74604555918, -72040.14176608823, -29589.641641335686, -187500.02235174447, -51163.12070645341, -35240.81084022651, -0.026000000000000002, 1.016, 0.098, 192.0, 0.0, 0.0, 0.0, 0.0, 0.0, 0.0, 0.0, 0.0, 0.0, 1.695337275728196E9, 0.0, 2023-09-21 18:01:15.728
32.0, 32919.13514365377, 19920.589914392225, -62690.76468834456, -44788.53729826657, -27028.534058157693, -33498.91704307998, -187500.02235174447, -51982.24508550705, -31258.80286202465, -29331.14371671006, -60727.74508330168, -72039.47121375457, -29544.46876579151, -187500.02235174447, -51156.303424394544, -35224.181142351765, -0.026000000000000002, 1.016, 0.098, 192.0, 0.0, 0.0, 0.0, 0.0, 0.0, 0.0, 0.0, 0.0, 0.0, 1.69533727572821E9, 0.0, 2023-09-21 18:01:15.728
34.0, 32968.46544366663, 19903.312015928273, -62706.07563329645, -44818.399228858856, -26997.621595576, -33528.73427018336, -187500.02235174447, -52005.915582885216, -31245.95060896285, -29303.762829752308, -60717.57503957451, -72021.2545420235, -29600.14696122968, -187500.02235174447, -51162.36074714193, -35256.3229508785, -0.026000000000000002, 1.016, 0.098, 192.0, 0.0, 0.0, 0.0, 0.0, 0.0, 0.0, 0.0, 0.0, 0.0, 1.695337275728214E9, 0.0, 2023-09-21 18:01:15.728
36.0, 32949.824088790905, 19895.198332690994, -62710.03189206504, -44814.51002532364, -27039.35230247406, -33529.583636472664, -187500.02235174447, -52017.382027790794, -31277.533623878197, -29334.027091744792, -60753.22607198073, -72054.89391742872, -29542.345350068255, -187500.02235174447, -51141.01483118711, -35223.15296210682, -0.026000000000000002, 1.016, 0.098, 192.0, 0.0, 0.0, 0.0, 0.0, 0.0, 0.0, 0.0, 0.0, 0.0, 1.695337275728218E9, 0.0, 2023-09-21 18:01:15.728
38.0, 32977.07086528192, 19897.61232109217, -62697.17963900324, -44813.10186542295, -26996.191083930862, -33521.268787535286, -187500.02235174447, -51996.885478125274, -31247.068196185613, -29315.810420013717, -60725.59931583397, -72027.42362349316, -29618.05070853838, -187500.02235174447, -51176.5317531266, -35268.370541139906, -0.026000000000000002, 1.012, 0.098, 192.0, 127.5, 24.0, 15.5, 80.0, 1.5, 8.0, 0.0, 0.0, 0.0, 1.695337275728221E9, 0.0, 2023-09-21 18:01:15.728
40.0, 32977.719065871126, 19902.149725216597, -62693.40219419029, -44797.142719881864, -27025.404813933947, -33506.516636194785, -187500.02235174447, -51989.50940245503, -31262.89323125997, -29320.99602472735, -60742.899566042375, -72043.09219635633, -29541.719501223506, -187500.02235174447, -51138.623194530395, -35229.25498834312, -0.026000000000000002, 1.012, 0.098, 192.0, 0.0, 0.0, 0.0, 0.0, 0.0, 0.0, 0.0, 0.0, 0.0, 1.695337275728225E9, 0.0, 2023-09-21 18:01:15.728
42.0, 32994.30406025697, 19886.011765719864, -62705.2039152627, -44816.20875790224, -27004.930616012887, -33531.79645917374, -187500.02235174447, -52013.64928646675, -31251.046806698658, -29314.670481046498, -60730.9860862477, -72030.97755086154, -29607.880664811215, -187500.02235174447, -51165.42293613231, -35261.06152070302, -0.026000000000000002, 1.012, 0.098, 192.0, 0.0, 0.0, 0.0, 0.0, 0.0, 0.0, 0.0, 0.0, 0.0, 1.695337275728228E9, 0.0, 2023-09-21 18:01:15.728
44.0, 33019.606234980376, 19871.97487020193, -62731.1542905753, -44832.234958676694, -27046.773081633222, -33545.185154102466, -187500.02235174447, -52025.830987194895, -31282.495711147276, -29327.165106197015, -60760.445685439794, -72058.44784479712, -29522.5193527364, -187500.02235174447, -51134.75634273962, -35215.35220329192, -0.026000000000000002, 1.012, 0.098, 192.0, 0.0, 0.0, 0.0, 0.0, 0.0, 0.0, 0.0, 0.0, 0.0, 1.695337275728232E9, 0.0, 2023-09-21 18:01:15.728
46.0, 32994.48287421261, 19880.848512750686, -62707.7520141306, -44814.59943230146, -27019.459249908836, -33527.99666261634, -187500.02235174447, -52008.32957128639, -31268.212946440333, -29331.27782717679, -60744.75476083217, -72048.8589464258, -29606.80778107736, -187500.02235174447, -51184.51132589714, -35251.00323569813, -0.026000000000000002, 1.012, 0.098, 192.0, 0.0, 0.0, 0.0, 0.0, 0.0, 0.0, 0.0, 0.0, 0.0, 1.69533727578794E9, 0.0, 2023-09-21 18:01:15.787
48.0, 33017.34870879039, 19891.800867533788, -62704.131031528836, -44802.9765251847, -27024.801316833655, -33505.62256641657, -187500.02235174447, -51987.90007685424, -31264.61431558303, -29309.686042032965, -60743.59247012049, -72044.74622544601, -29538.70201572204, -187500.02235174447, -51146.446305089754, -35222.996499895635, -0.022, 1.006, 0.094, 192.0, 127.5, 40.0, 15.5, 56.0, 1.0, 120.0, 0.0, 0.0, 0.0, 1.695337275787955E9, 0.0, 2023-09-21 18:01:15.787
50.0, 32984.223423507625, 19895.31009141327, -62689.8482668219, -44797.366237326416, -26996.749877542246, -33508.55064494022, -187500.02235174447, -51982.75917562952, -31226.88457094247, -29296.61027152661, -60701.504135311145, -72008.26817849495, -29617.84954283828, -187500.02235174447, -51184.51132589714, -35270.27043941861, -0.022, 1.006, 0.094, 192.0, 0.0, 0.0, 0.0, 0.0, 0.0, 0.0, 0.0, 0.0, 0.0, 1.695337275787959E9, 0.0, 2023-09-21 18:01:15.787
52.0, 33017.147543090294, 19917.19244923502, -62680.54994112849, -44776.936742894264, -27005.37765090199, -33493.61967964407, -187500.02235174447, -51980.92633258419, -31253.393739866468, -29305.394507097546, -60728.59444959098, -72033.34683577382, -29538.903181422138, -187500.02235174447, -51129.950717681735, -35233.144191878346, -0.022, 1.006, 0.094, 192.0, 0.0, 0.0, 0.0, 0.0, 0.0, 0.0, 0.0, 0.0, 0.0, 1.695337275787963E9, 0.0, 2023-09-21 18:01:15.787
54.0, 32963.19043197518, 19909.525800886848, -62675.27492943704, -44785.63157148738, -26985.886929736964, -33497.82180760167, -187500.02235174447, -51980.65811165072, -31213.27235856919, -29283.623907998077, -60683.555684513536, -71991.75023934248, -29614.72029861454, -187500.02235174447, -51165.71350881023, -35280.7757593126, -0.022, 1.006, 0.094, 192.0, 0.0, 0.0, 0.0, 0.0, 0.0, 0.0, 0.0, 0.0, 0.0, 1.695337275787967E9, 0.0, 2023-09-21 18:01:15.787
56.0, 33024.03188038253, 19912.811507321778, -62685.93671154222, -44785.38570229837, -26995.90051125294, -33496.503054678804, -187500.02235174447, -51979.3170069834, -31254.62308581151, -29299.001908183327, -60726.51573735663, -72031.24577179502, -29533.35994879722, -187500.02235174447, -51111.53288025056, -35235.513476790606, -0.022, 1.006, 0.094, 192.0, 0.0, 0.0, 0.0, 0.0, 0.0, 0.0, 0.0, 0.0, 0.0, 1.69533727578797E9, 0.0, 2023-09-21 18:01:15.787
58.0, 32973.53928965799, 19895.22068443545, -62689.937673799715, -44794.30404833604, -26998.00157523174, -33504.37086872708, -187500.02235174447, -51983.608541918824, -31240.697949015852, -29295.336222092657, -60701.77235624461, -72007.53057092793, -29594.514321626943, -187500.02235174447, -51152.883607492884, -35261.530907336586, -0.026000000000000002, 1.014, 0.092, 192.0, 127.5, 24.0, 15.5, 88.0, 1.0, 112.0, 0.0, 0.0, 0.0, 1.695337275787973E9, 0.0, 2023-09-21 18:01:15.787
60.0, 33045.15427889279, 19897.925245514543, -62702.14172627232, -44804.205871129736, -26995.855807764034, -33515.92672061047, -187500.02235174447, -51997.06429208092, -31272.124501720013, -29315.922178735997, -60741.714923586245, -72045.32737080185, -29534.298722064344, -187500.02235174447, -51110.03531337206, -35218.88377891586, -0.026000000000000002, 1.014, 0.092, 192.0, 0.0, 0.0, 0.0, 0.0, 0.0, 0.0, 0.0, 0.0, 0.0, 1.695337275848191E9, 0.0, 2023-09-21 18:01:15.848
62.0, 32975.88622282579, 19889.342175643706, -62697.96195005917, -44803.91529845182, -27010.876180037998, -33517.80426714471, -187500.02235174447, -52002.60752470583, -31255.47245210081, -29310.021318199793, -60714.91518198433, -72022.46153622407, -29587.22765293451, -187500.02235174447, -51152.324813881496, -35246.53288680707, -0.026000000000000002, 1.014, 0.092, 192.0, 0.0, 0.0, 0.0, 0.0, 0.0, 0.0, 0.0, 0.0, 0.0, 1.695337275848205E9, 0.0, 2023-09-21 18:01:15.848
64.0, 33055.25726738659, 19886.145876186594, -62719.732549158645, -44819.89679573737, -27011.39027016047, -33538.56903774369, -187500.02235174447, -52018.8795946693, -31284.86499605954, -29317.352690381136, -60750.387400434905, -72053.9551441616, -29548.022693159903, -187500.02235174447, -51123.84869144543, -35221.744802206136, -0.026000000000000002, 1.014, 0.092, 192.0, 0.0, 0.0, 0.0, 0.0, 0.0, 0.0, 0.0, 0.0, 0.0, 1.695337275848209E9, 0.0, 2023-09-21 18:01:15.848
66.0, 32975.66270538124, 19895.22068443545, -62695.525609913544, -44792.49355703516, -27026.365938945528, -33509.73528739635, -187500.02235174447, -52001.75815841653, -31264.72607430531, -29314.871646746597, -60719.899620997865, -72029.45763223858, -29579.09161795278, -187500.02235174447, -51160.907883752334, -35236.58636052446, -0.026000000000000002, 1.014, 0.092, 192.0, 0.0, 0.0, 0.0, 0.0, 0.0, 0.0, 0.0, 0.0, 0.0, 1.695337275848212E9, 0.0, 2023-09-21 18:01:15.848
68.0, 33050.138717906324, 19890.526818099836, -62713.87639211135, -44818.64509804787, -27015.25712195124, -33531.55058998473, -187500.02235174447, -52017.85141442435, -31273.57736510961, -29307.94260596545, -60736.194042705785, -72041.19229807763, -29564.451225334553, -187500.02235174447, -51135.02456367309, -35227.37744180887, -0.028, 1.014, 0.092, 192.0, 127.5, 16.0, 15.5, 88.0, 1.0, 112.0, 0.0, 0.0, 0.0, 1.695337275848216E9, 0.0, 2023-09-21 18:01:15.848
70.0, 32976.042685036984, 19899.914550771064, -62698.0960605259, -44799.512004794124, -27033.093814026575, -33510.94228159694, -187500.02235174447, -51992.48218446758, -31265.28486791669, -29315.76571652481, -60724.63819082239, -72032.54217297342, -29570.910879482137, -187500.02235174447, -51159.56677908502, -35230.64079649935, -0.028, 1.014, 0.092, 192.0, 0.0, 0.0, 0.0, 0.0, 0.0, 0.0, 0.0, 0.0, 0.0, 1.695337275848219E9, 0.0, 2023-09-21 18:01:15.848
72.0, 33044.975464937146, 19890.88444601112, -62721.94537185972, -44825.68589755129, -27011.032642249185, -33538.3678720436, -187500.02235174447, -52021.00301039255, -31274.38202791, -29311.921216478495, -60742.74310383119, -72046.82493768036, -29570.553251570855, -187500.02235174447, -51142.15477015433, -35227.71271797571, -0.028, 1.014, 0.092, 192.0, 0.0, 0.0, 0.0, 0.0, 0.0, 0.0, 0.0, 0.0, 0.0, 1.695337275848223E9, 0.0, 2023-09-21 18:01:15.848
74.0, 32970.320638456426, 19896.517085613857, -62703.19225826172, -44802.61889727341, -27029.338720958083, -33521.268787535286, -187500.02235174447, -52001.73580667208, -31266.625972584006, -29324.013510228815, -60728.63915307989, -72037.19133582013, -29556.47165256401, -187500.02235174447, -51161.24315991916, -35231.15488662182, -0.028, 1.014, 0.092, 192.0, 0.0, 0.0, 0.0, 0.0, 0.0, 0.0, 0.0, 0.0, 0.0, 1.695337275848226E9, 0.0, 2023-09-21 18:01:15.848
76.0, 33026.378813550335, 19896.204161191483, -62714.345778744915, -44819.71798178172, -27000.840246777567, -33535.328034797676, -187500.02235174447, -52008.73190268659, -31271.968039508825, -29320.28076890478, -60741.67022009733, -72046.5567167469, -29572.60961206074, -187500.02235174447, -51150.089639435966, -35241.21317162671, -0.028, 1.014, 0.092, 192.0, 0.0, 0.0, 0.0, 0.0, 0.0, 0.0, 0.0, 0.0, 0.0, 1.695337275908492E9, 0.0, 2023-09-21 18:01:15.908
78.0, 32962.45282440815, 19905.122507229153, -62694.40802269078, -44792.27003959061, -27023.43786042188, -33500.14638902502, -187500.02235174447, -51983.519134941, -31262.692065559873, -29322.739460794863, -60726.15810944535, -72033.45859449609, -29543.351178568744, -187500.02235174447, -51149.59790105795, -35236.16167737981, -0.024, 1.014, 0.098, 192.0, 127.5, 32.0, 15.5, 88.0, 1.5, 8.0, 0.0, 0.0, 0.0, 1.695337275908504E9, 0.0, 2023-09-21 18:01:15.908
80.0, 33011.47019999864, 19900.383937404626, -62714.301075256, -44817.9298422253, -26992.458342606824, -33529.62833996157, -187500.02235174447, -52004.84269915136, -31255.85243175655, -29305.37215535309, -60721.710112298744, -72025.79194614792, -29585.305402911355, -187500.02235174447, -51149.84377024696, -35256.010026456126, -0.024, 1.014, 0.098, 192.0, 0.0, 0.0, 0.0, 0.0, 0.0, 0.0, 0.0, 0.0, 0.0, 1.695337275908508E9, 0.0, 2023-09-21 18:01:15.908
82.0, 32957.42368190571, 19917.7512428464, -62689.42358367725, -44786.34682730995, -27015.25712195124, -33494.67021163347, -187500.02235174447, -51977.79708836044, -31248.968094464315, -29308.546103065742, -60715.96571397373, -72024.47319322506, -29534.768108697906, -187500.02235174447, -51137.3714968409, -35236.83222971347, -0.024, 1.014, 0.098, 192.0, 0.0, 0.0, 0.0, 0.0, 0.0, 0.0, 0.0, 0.0, 0.0, 1.695337275908511E9, 0.0, 2023-09-21 18:01:15.908
84.0, 32993.00765907856, 19897.098230969696, -62712.20001127721, -44822.176673671805, -26991.318403639605, -33532.73523244086, -187500.02235174447, -52003.79216716196, -31242.441385083366, -29303.762829752308, -60715.51867908463, -72022.72975715755, -29589.127551213212, -187500.02235174447, -51146.446305089754, -35266.71651205022, -0.024, 1.014, 0.098, 192.0, 0.0, 0.0, 0.0, 0.0, 0.0, 0.0, 0.0, 0.0, 0.0, 1.695337275908514E9, 0.0, 2023-09-21 18:01:15.908
86.0, 32964.59859187587, 19908.385861919625, -62698.207819248186, -44794.86284194742, -27019.459249908836, -33504.974365827366, -187500.02235174447, -51984.457908208125, -31262.870879515518, -29321.89009450556, -60732.52835661511, -72042.26518181148, -29515.27738753288, -187500.02235174447, -51127.51437753611, -35228.025642398075, -0.024, 1.014, 0.098, 192.0, 0.0, 0.0, 0.0, 0.0, 0.0, 0.0, 0.0, 0.0, 0.0, 1.695337275908518E9, 0.0, 2023-09-21 18:01:15.908
88.0, 32973.449882680165, 19902.395594405603, -62699.660682637776, -44808.63151653189, -26988.54678732715, -33516.32905201067, -187500.02235174447, -51992.839812378865, -31240.4744315713, -29305.37215535309, -60708.924914470306, -72016.80654487689, -29578.24225166348, -187500.02235174447, -51154.157656926836, -35262.11205269242, -0.016, 1.012, 0.098, 192.0, 127.5, 64.0, 15.5, 80.0, 1.5, 8.0, 0.0, 0.0, 0.0, 1.695337275908521E9, 0.0, 2023-09-21 18:01:15.908
90.0, 32972.46640592413, 19893.343137901204, -62713.76463338907, -44811.15726365534, -27030.389252947483, -33520.4641247349, -187500.02235174447, -52004.48507124008, -31277.690086089384, -29324.99698698485, -60746.69936259978, -72050.93765866014, -29503.855646116215, -187500.02235174447, -51116.09263611944, -35218.392040537845, -0.016, 1.012, 0.098, 192.0, 0.0, 0.0, 0.0, 0.0, 0.0, 0.0, 0.0, 0.0, 0.0, 1.695337275969137E9, 0.0, 2023-09-21 18:01:15.969
92.0, 32960.91055404074, 19887.643443065102, -62709.20487752019, -44816.29816488006, -27005.37765090199, -33529.27071205029, -187500.02235174447, -52007.70372244164, -31253.013760210724, -29315.27397814679, -60719.743158786674, -72026.23898103702, -29592.659126837152, -187500.02235174447, -51160.7290697967, -35262.82730851499, -0.016, 1.012, 0.098, 192.0, 0.0, 0.0, 0.0, 0.0, 0.0, 0.0, 0.0, 0.0, 0.0, 1.69533727596915E9, 0.0, 2023-09-21 18:01:15.969
94.0, 32975.260373981044, 19889.342175643706, -62719.91136311428, -44812.85599623394, -27039.173488518416, -33525.15799107051, -187500.02235174447, -52010.98942887657, -31293.760990352752, -29338.162164469024, -60762.5914529075, -72066.98621117904, -29509.242416529945, -187500.02235174447, -51125.10038913493, -35217.565025993, -0.016, 1.012, 0.098, 192.0, 0.0, 0.0, 0.0, 0.0, 0.0, 0.0, 0.0, 0.0, 0.0, 1.695337275969154E9, 0.0, 2023-09-21 18:01:15.969
96.0, 32941.75510904254, 19892.404364634083, -62706.79088911902, -44812.028981689095, -27003.902435767945, -33525.82854340417, -187500.02235174447, -52012.263478310524, -31243.581324050585, -29306.13211466457, -60711.025978449106, -72017.18652453262, -29595.90012978317, -187500.02235174447, -51174.207171703245, -35269.95751499623, -0.016, 1.012, 0.098, 192.0, 0.0, 0.0, 0.0, 0.0, 0.0, 0.0, 0.0, 0.0, 0.0, 1.695337275969158E9, 0.0, 2023-09-21 18:01:15.969
98.0, 32969.65008612276, 19895.868885024654, -62713.69757815571, -44811.134911910885, -27029.986921547286, -33531.751755684825, -187500.02235174447, -52025.830987194895, -31289.827083328615, -29321.89009450556, -60757.60701389397, -72054.98332440655, -29525.00039637094, -187500.02235174447, -51128.38609556986, -35226.706889475216, -0.022, 1.01, 0.094, 192.0, 127.5, 40.0, 15.5, 72.0, 1.0, 120.0, 0.0, 0.0, 0.0, 1.695337275969161E9, 0.0, 2023-09-21 18:01:15.969
100.0, 32927.874675735795, 19887.151704687083, -62714.07755781145, -44813.16892065632, -27010.652662593446, -33516.53021771076, -187500.02235174447, -51994.29267576846, -31253.41609161092, -29299.69481226144, -60718.11148144144, -72014.996053576, -29610.138191001202, -187500.02235174447, -51175.14594497037, -35273.22086968671, -0.022, 1.01, 0.094, 192.0, 0.0, 0.0, 0.0, 0.0, 0.0, 0.0, 0.0, 0.0, 0.0, 1.695337275969164E9, 0.0, 2023-09-21 18:01:15.969
102.0, 32967.370208188324, 19897.23234143643, -62715.1504415453, -44804.45174031875, -27023.236694721785, -33508.39418272903, -187500.02235174447, -51995.365559502316, -31299.214815999847, -29323.678234061987, -60767.62059540994, -72060.39244656473, -29537.450318032545, -187500.02235174447, -51134.152845639335, -35230.618444754895, -0.022, 1.01, 0.094, 192.0, 0.0, 0.0, 0.0, 0.0, 0.0, 0.0, 0.0, 0.0, 0.0, 1.695337275969168E9, 0.0, 2023-09-21 18:01:15.969
104.0, 32903.55597776842, 19896.539437358315, -62698.65485413729, -44795.28752509207, -27005.735278813278, -33511.70224090842, -187500.02235174447, -51988.05653906543, -31248.454004341842, -29295.246815114835, -60715.22810640671, -72012.6938238971, -29617.201342249078, -187500.02235174447, -51176.9787880157, -35278.76410231162, -0.022, 1.01, 0.094, 192.0, 0.0, 0.0, 0.0, 0.0, 0.0, 0.0, 0.0, 0.0, 0.0, 1.695337275969171E9, 0.0, 2023-09-21 18:01:15.969
106.0, 32971.840557079384, 19892.292605911804, -62715.57512468995, -44812.028981689095, -27007.165790458417, -33518.117191567086, -187500.02235174447, -52002.45106249465, -31272.437426142387, -29305.23804488636, -60747.05699051106, -72041.72873994455, -29550.41432981662, -187500.02235174447, -51124.854519945926, -35244.945912950745, -0.022, 1.01, 0.094, 192.0, 0.0, 0.0, 0.0, 0.0, 0.0, 0.0, 0.0, 0.0, 0.0, 1.695337276028986E9, 0.0, 2023-09-21 18:01:16.028
108.0, 32906.484056292065, 19885.385916875115, -62708.668435653264, -44808.72092350971, -27016.173543473906, -33521.87228463558, -187500.02235174447, -52001.19936480515, -31267.542394106677, -29315.408088613523, -60734.49531012718, -72032.47511774006, -29597.397696661676, -187500.02235174447, -51163.97007274271, -35267.252953917145, -0.028, 1.008, 0.098, 192.0, 127.5, 16.0, 15.5, 64.0, 1.5, 8.0, 0.0, 0.0, 0.0, 1.695337276028998E9, 0.0, 2023-09-21 18:01:16.028
110.0, 32989.65489741026, 19877.65221329358, -62737.36807553388, -44836.19121744528, -27022.029700521198, -33548.20263960393, -187500.02235174447, -52031.19540586417, -31284.2838507037, -29321.130135194082, -60759.037525539105, -72055.8103389514, -29549.43085306059, -187500.02235174447, -51133.54934853904, -35239.87206695939, -0.028, 1.008, 0.098, 192.0, 0.0, 0.0, 0.0, 0.0, 0.0, 0.0, 0.0, 0.0, 0.0, 1.695337276029003E9, 0.0, 2023-09-21 18:01:16.029
112.0, 32913.256634862024, 19887.50933259837, -62715.46336596768, -44811.403132844345, -27029.696348869365, -33520.911159624, -187500.02235174447, -52002.205193305635, -31276.170167466425, -29332.82009754421, -60741.06672299704, -72043.02514112295, -29589.194606446577, -187500.02235174447, -51175.59297985947, -35251.62908454288, -0.028, 1.008, 0.098, 192.0, 0.0, 0.0, 0.0, 0.0, 0.0, 0.0, 0.0, 0.0, 0.0, 1.695337276029007E9, 0.0, 2023-09-21 18:01:16.029
114.0, 32982.79291186248, 19890.66092856657, -62727.24273529563, -44823.718944039225, -27014.58656961758, -33531.34942428463, -187500.02235174447, -52015.90681265674, -31284.373257681524, -29324.661710818018, -60757.9422900608, -72055.96680116258, -29566.798158502363, -187500.02235174447, -51147.40743010133, -35240.40850882632, -0.028, 1.008, 0.098, 192.0, 0.0, 0.0, 0.0, 0.0, 0.0, 0.0, 0.0, 0.0, 0.0, 1.69533727602901E9, 0.0, 2023-09-21 18:01:16.029
116.0, 32900.62789924478, 19901.9485595165, -62702.02996755004, -44790.25838258963, -27017.827572563598, -33498.42530470197, -187500.02235174447, -51985.88841985326, -31258.847565513563, -29316.883303747574, -60726.31457165654, -72028.54121071592, -29586.892376767682, -187500.02235174447, -51169.96034025674, -35254.75832876663, -0.028, 1.008, 0.098, 192.0, 0.0, 0.0, 0.0, 0.0, 0.0, 0.0, 0.0, 0.0, 0.0, 1.695337276029014E9, 0.0, 2023-09-21 18:01:16.029
118.0, 32977.42849319321, 19883.977756974433, -62737.613944722885, -44834.22426393322, -27009.31155792613, -33552.29300883925, -187500.02235174447, -52033.98937392108, -31285.647307115476, -29321.443059616457, -60759.037525539105, -72054.93862091764, -29571.581431815797, -187500.02235174447, -51139.33845035297, -35250.37738685338, -0.028, 1.01, 0.096, 192.0, 127.5, 16.0, 15.5, 72.0, 1.5, 0.0, 0.0, 0.0, 0.0, 1.695337276029018E9, 0.0, 2023-09-21 18:01:16.029
120.0, 32905.992317914046, 19894.32661465724, -62719.97841834765, -44811.64900203336, -27032.35620645955, -33523.32514802518, -187500.02235174447, -52004.306257284436, -31276.19251921088, -29334.4741266339, -60742.81015906455, -72047.38373129175, -29578.28695515239, -187500.02235174447, -51155.00702321614, -35248.05280543004, -0.028, 1.01, 0.096, 192.0, 0.0, 0.0, 0.0, 0.0, 0.0, 0.0, 0.0, 0.0, 0.0, 1.695337276088062E9, 0.0, 2023-09-21 18:01:16.088
122.0, 32965.73853084308, 19905.770707818356, -62720.53721195903, -44816.4769788357, -26999.521493854703, -33520.79940090173, -187500.02235174447, -51998.04776883695, -31271.029266241705, -29314.402260113035, -60737.06576073954, -72036.87841139775, -29599.655222851663, -187500.02235174447, -51146.111028922925, -35256.72528227869, -0.028, 1.01, 0.096, 192.0, 0.0, 0.0, 0.0, 0.0, 0.0, 0.0, 0.0, 0.0, 0.0, 1.695337276088076E9, 0.0, 2023-09-21 18:01:16.088
124.0, 32899.487960277555, 19927.161327262085, -62695.63736863582, -44779.90952490682, -27013.938369028376, -33492.166816254474, -187500.02235174447, -51972.81264934691, -31257.819385268616, -29309.283710632768, -60714.35638837295, -72017.23122802154, -29581.66206856514, -187500.02235174447, -51145.77575275609, -35252.701968276735, -0.028, 1.01, 0.096, 192.0, 0.0, 0.0, 0.0, 0.0, 0.0, 0.0, 0.0, 0.0, 0.0, 1.69533727608808E9, 0.0, 2023-09-21 18:01:16.088
126.0, 32957.35662667234, 19917.907705057587, -62720.47015672567, -44809.86086247693, -26993.86650250751, -33523.235741047356, -187500.02235174447, -52003.34513227286, -31259.272248658213, -29301.617062284597, -60720.659580309344, -72019.10877455577, -29606.76307758845, -187500.02235174447, -51133.392886327856, -35262.626142814894, -0.028, 1.01, 0.096, 192.0, 0.0, 0.0, 0.0, 0.0, 0.0, 0.0, 0.0, 0.0, 0.0, 1.695337276088083E9, 0.0, 2023-09-21 18:01:16.088
128.0, 32910.2167976161, 19926.244905739415, -62709.92013334276, -44789.319609322505, -27023.124935999505, -33507.50011295082, -187500.02235174447, -51992.92921935669, -31258.244068413267, -29304.120457663594, -60714.5799058175, -72014.66077740917, -29559.33267585429, -187500.02235174447, -51132.52116829409, -35241.86137221591, -0.03, 1.008, 0.09, 192.0, 127.5, 8.0, 15.5, 64.0, 1.0, 104.0, 0.0, 0.0, 0.0, 1.695337276088087E9, 0.0, 2023-09-21 18:01:16.088
130.0, 32954.96499001563, 19910.062242753775, -62727.198031806714, -44819.181539914796, -27003.477752623294, -33539.46310752191, -187500.02235174447, -52022.72409471561, -31270.693990074873, -29311.116553678105, -60732.19308044828, -72033.34683577382, -29594.111990226746, -187500.02235174447, -51146.111028922925, -35254.55716306653, -0.03, 1.008, 0.09, 192.0, 0.0, 0.0, 0.0, 0.0, 0.0, 0.0, 0.0, 0.0, 0.0, 1.69533727608809E9, 0.0, 2023-09-21 18:01:16.088
132.0, 32913.88248370677, 19924.79204234982, -62715.19514503422, -44791.91241167932, -27028.44465117987, -33507.38835422854, -187500.02235174447, -51992.705701912135, -31274.784359310193, -29316.74919328084, -60733.31066767105, -72034.50912648549, -29535.103384864735, -187500.02235174447, -51137.90793870782, -35228.60678775392, -0.03, 1.008, 0.09, 192.0, 0.0, 0.0, 0.0, 0.0, 0.0, 0.0, 0.0, 0.0, 0.0, 1.695337276088094E9, 0.0, 2023-09-21 18:01:16.088
134.0, 32933.28379789398, 19921.305170214793, -62717.11739505737, -44806.865728719924, -26989.373801871992, -33522.29696778023, -187500.02235174447, -52000.23823979357, -31251.56089682113, -29293.637489514054, -60709.0813766815, -72009.38576571773, -29599.319946684835, -187500.02235174447, -51159.253854662646, -35263.31904689301, -0.03, 1.008, 0.09, 192.0, 0.0, 0.0, 0.0, 0.0, 0.0, 0.0, 0.0, 0.0, 0.0, 1.695337276088097E9, 0.0, 2023-09-21 18:01:16.088
136.0, 32923.60549254483, 19913.683225355533, -62728.539136474035, -44806.932783953285, -27034.703139627356, -33524.59919745913, -187500.02235174447, -52010.96707713212, -31271.72217031982, -29311.496533333844, -60732.908336270855, -72034.88910614123, -29523.480477747977, -187500.02235174447, -51123.40165655633, -35227.01981389759, -0.03, 1.008, 0.09, 192.0, 0.0, 0.0, 0.0, 0.0, 0.0, 0.0, 0.0, 0.0, 0.0, 1.695337276148276E9, 0.0, 2023-09-21 18:01:16.148
138.0, 32926.80179200194, 19909.168172975562, -62728.31561902948, -44816.655792791345, -27016.01708126272, -33543.39701454604, -187500.02235174447, -52022.61233599333, -31277.28775468919, -29322.314777650212, -60733.64594383788, -72036.6548939532, -29597.75532457296, -187500.02235174447, -51157.59982557295, -35256.85939274543, -0.024, 1.012, 0.092, 192.0, 127.5, 32.0, 15.5, 80.0, 1.0, 112.0, 0.0, 0.0, 0.0, 1.695337276148288E9, 0.0, 2023-09-21 18:01:16.148
140.0, 32922.644367533256, 19928.41302495158, -62708.22140076416, -44789.83369944498, -27022.63319762149, -33505.42140071648, -187500.02235174447, -51982.356844229325, -31248.90103923095, -29308.009661198816, -60714.937533728786, -72021.9027426127, -29529.582503984275, -187500.02235174447, -51126.55325252453, -35229.1655813653, -0.024, 1.012, 0.092, 192.0, 0.0, 0.0, 0.0, 0.0, 0.0, 0.0, 0.0, 0.0, 0.0, 1.695337276148292E9, 0.0, 2023-09-21 18:01:16.148
142.0, 32905.90291093623, 19925.462594683482, -62704.063976295474, -44797.45564430424, -27000.750839799744, -33518.27365377828, -187500.02235174447, -51985.933123342176, -31244.453042084344, -29309.864855988606, -60709.550763315056, -72016.8959518547, -29605.824304321326, -187500.02235174447, -51147.0721539345, -35260.681541047285, -0.024, 1.012, 0.092, 192.0, 0.0, 0.0, 0.0, 0.0, 0.0, 0.0, 0.0, 0.0, 0.0, 1.695337276148295E9, 0.0, 2023-09-21 18:01:16.148
144.0, 32931.62976880428, 19935.766748877377, -62712.95997058869, -44792.00181865714, -27024.28722671118, -33511.70224090842, -187500.02235174447, -51988.14594604325, -31253.304332888645, -29304.85806523062, -60720.50311809816, -72025.16609730317, -29531.728271451986, -187500.02235174447, -51100.58052546746, -35224.047031885035, -0.024, 1.012, 0.092, 192.0, 0.0, 0.0, 0.0, 0.0, 0.0, 0.0, 0.0, 0.0, 0.0, 1.695337276148298E9, 0.0, 2023-09-21 18:01:16.148
146.0, 32898.6162422438, 19925.70846387249, -62717.58678169093, -44811.09020842197, -27009.602130604046, -33537.429098776476, -187500.02235174447, -52005.915582885216, -31240.541486804665, -29305.170989652994, -60706.890905724875, -72012.38089947474, -29606.42780142162, -187500.02235174447, -51142.177121898785, -35260.14509918036, -0.024, 1.012, 0.092, 192.0, 0.0, 0.0, 0.0, 0.0, 0.0, 0.0, 0.0, 0.0, 0.0, 1.695337276148302E9, 0.0, 2023-09-21 18:01:16.148
148.0, 32934.51314383902, 19947.903746116608, -62705.33802572943, -44788.894926177854, -27009.602130604046, -33511.545778697226, -187500.02235174447, -51975.89719008174, -31248.02932119719, -29308.70256527693, -60720.77133903162, -72025.16609730317, -29528.554323739332, -187500.02235174447, -51111.44347327274, -35227.28803483105, -0.026000000000000002, 1.008, 0.094, 192.0, 127.5, 24.0, 15.5, 64.0, 1.0, 120.0, 0.0, 0.0, 0.0, 1.695337276148305E9, 0.0, 2023-09-21 18:01:16.148
150.0, 32884.400532770225, 19950.18362405105, -62689.98237728863, -44777.11555684991, -26992.793618773656, -33505.42140071648, -187500.02235174447, -51975.87483833729, -31215.284015570167, -29287.93779467795, -60681.946358912755, -71987.1904834736, -29602.896225797682, -187500.02235174447, -51149.866121991414, -35268.5270033511, -0.026000000000000002, 1.008, 0.094, 192.0, 0.0, 0.0, 0.0, 0.0, 0.0, 0.0, 0.0, 0.0, 0.0, 1.69533727620843E9, 0.0, 2023-09-21 18:01:16.208
152.0, 32952.841574292375, 19935.43147271055, -62720.8054328925, -44806.575156042, -27008.708060825833, -33535.171572586485, -187500.02235174447, -52002.8757456393, -31236.540524547167, -29290.530597034765, -60709.14843191486, -72011.62094016325, -29525.290969048856, -187500.02235174447, -51097.987723110644, -35231.19959011073, -0.026000000000000002, 1.008, 0.094, 192.0, 0.0, 0.0, 0.0, 0.0, 0.0, 0.0, 0.0, 0.0, 0.0, 1.695337276208443E9, 0.0, 2023-09-21 18:01:16.208
154.0, 32890.949593895624, 19925.17202200556, -62723.97938060515, -44807.40217058685, -27024.220171477817, -33534.769241186295, -187500.02235174447, -52006.45202475214, -31251.449138098855, -29321.778335783285, -60715.60808606244, -72021.32159725686, -29575.537690584388, -187500.02235174447, -51143.33941261046, -35248.14221240785, -0.026000000000000002, 1.008, 0.094, 192.0, 0.0, 0.0, 0.0, 0.0, 0.0, 0.0, 0.0, 0.0, 0.0, 1.695337276208448E9, 0.0, 2023-09-21 18:01:16.208
156.0, 32958.72008308412, 19924.32265571626, -62738.99975287912, -44819.4274091038, -27026.321235456617, -33549.856668693625, -187500.02235174447, -52024.17695810521, -31275.4325598994, -29318.537332837266, -60742.49723464218, -72041.86285041129, -29522.69816669204, -187500.02235174447, -51114.19273784074, -35220.470752772184, -0.026000000000000002, 1.008, 0.094, 192.0, 0.0, 0.0, 0.0, 0.0, 0.0, 0.0, 0.0, 0.0, 0.0, 1.695337276208452E9, 0.0, 2023-09-21 18:01:16.208
158.0, 32883.059428102904, 19934.112719787685, -62710.54598218751, -44793.25351634664, -27024.30957845564, -33518.050136333724, -187500.02235174447, -51990.15760304423, -31245.57062930711, -29315.94453048045, -60708.075548181005, -72011.73269888553, -29575.224766162013, -187500.02235174447, -51159.589130829474, -35246.555238551526, -0.024, 1.01, 0.094, 192.0, 127.5, 32.0, 15.5, 72.0, 1.0, 120.0, 0.0, 0.0, 0.0, 1.695337276208455E9, 0.0, 2023-09-21 18:01:16.208
160.0, 32957.602495861356, 19929.105929029694, -62730.46138649719, -44818.48863583668, -27018.386366174982, -33543.39701454604, -187500.02235174447, -52019.416036536226, -31266.067178972626, -29311.496533333844, -60733.08715022649, -72030.39640550571, -29538.813774444316, -187500.02235174447, -51116.249098330634, -35225.723412719184, -0.024, 1.01, 0.094, 192.0, 0.0, 0.0, 0.0, 0.0, 0.0, 0.0, 0.0, 0.0, 0.0, 1.695337276208459E9, 0.0, 2023-09-21 18:01:16.208
162.0, 32870.54245120793, 19950.85417638471, -62691.85992382288, -44774.969789382194, -27013.804258561642, -33500.77223786977, -187500.02235174447, -51971.82917259088, -31236.94285594736, -29304.500437319333, -60695.80444047505, -71999.46159117957, -29566.686399780087, -187500.02235174447, -51145.3734213559, -35247.00227344064, -0.024, 1.01, 0.094, 192.0, 0.0, 0.0, 0.0, 0.0, 0.0, 0.0, 0.0, 0.0, 0.0, 1.695337276208462E9, 0.0, 2023-09-21 18:01:16.208
164.0, 32943.94557999916, 19945.355647248703, -62712.15530778829, -44801.18838562827, -26997.174560686897, -33535.4174417755, -187500.02235174447, -52004.9768096181, -31238.283960614677, -29295.13505639256, -60703.87342022341, -72004.78130635993, -29544.178193113592, -187500.02235174447, -51111.17525233928, -35242.77779373858, -0.024, 1.01, 0.094, 192.0, 0.0, 0.0, 0.0, 0.0, 0.0, 0.0, 0.0, 0.0, 0.0, 1.695337276208466E9, 0.0, 2023-09-21 18:01:16.208
166.0, 32873.82815764286, 19939.834766368243, -62715.93275260124, -44794.81813845851, -27029.91986631392, -33523.05692709171, -187500.02235174447, -51999.16535605972, -31252.164393921423, -29310.870684489095, -60706.30976036904, -72008.08936453931, -29550.03435016088, -187500.02235174447, -51130.55421478203, -35240.54261929305, -0.024, 1.01, 0.094, 192.0, 0.0, 0.0, 0.0, 0.0, 0.0, 0.0, 0.0, 0.0, 0.0, 1.695337276268697E9, 0.0, 2023-09-21 18:01:16.268
168.0, 32946.6277893338, 19935.073844799263, -62731.42251150877, -44819.092132936974, -27008.193970703363, -33550.25900009382, -187500.02235174447, -52021.69591447066, -31256.03124571219, -29301.55000705123, -60715.78690001809, -72014.37020473125, -29559.71265551003, -187500.02235174447, -51127.4696740472, -35239.80501172603, -0.026000000000000002, 1.01, 0.098, 192.0, 127.5, 24.0, 15.5, 72.0, 1.5, 8.0, 0.0, 0.0, 0.0, 1.695337276268709E9, 0.0, 2023-09-21 18:01:16.268
170.0, 32882.03124785796, 19930.447033697015, -62729.50026148561, -44810.777283999596, -27046.281343255207, -33535.193924330946, -187500.02235174447, -52009.38010327579, -31277.131292478003, -29322.627702072587, -60728.81796703553, -72026.73071941503, -29549.207335616036, -187500.02235174447, -51141.39481084285, -35226.88570343086, -0.026000000000000002, 1.01, 0.098, 192.0, 0.0, 0.0, 0.0, 0.0, 0.0, 0.0, 0.0, 0.0, 0.0, 1.695337276268713E9, 0.0, 2023-09-21 18:01:16.268
172.0, 32938.37999562979, 19935.140900032628, -62730.79666266402, -44820.18736841528, -27008.43983989237, -33550.54957277174, -187500.02235174447, -52020.95830690364, -31262.826176026607, -29315.34103338016, -60721.10661519845, -72020.11460305627, -29578.018734218924, -187500.02235174447, -51149.08381093548, -35238.97799718118, -0.026000000000000002, 1.01, 0.098, 192.0, 0.0, 0.0, 0.0, 0.0, 0.0, 0.0, 0.0, 0.0, 0.0, 1.695337276268717E9, 0.0, 2023-09-21 18:01:16.268
174.0, 32883.37235252528, 19936.504356444402, -62723.86762188288, -44800.54018503907, -27044.180279276407, -33528.35429052762, -187500.02235174447, -52004.59682996236, -31273.778530809705, -29329.109707964624, -60726.7839582901, -72028.65296943819, -29547.575658270798, -187500.02235174447, -51143.49587482165, -35226.37161330839, -0.026000000000000002, 1.01, 0.098, 192.0, 0.0, 0.0, 0.0, 0.0, 0.0, 0.0, 0.0, 0.0, 0.0, 1.69533727626872E9, 0.0, 2023-09-21 18:01:16.268
176.0, 32927.69586178015, 19937.577240178256, -62723.778214905054, -44810.01732468812, -27004.95296775734, -33537.831430176666, -187500.02235174447, -52011.928202143696, -31245.034187440182, -29299.5159983058, -60699.87245796591, -72000.35566095778, -29594.62608034922, -187500.02235174447, -51151.69896503675, -35252.23258164318, -0.026000000000000002, 1.01, 0.098, 192.0, 0.0, 0.0, 0.0, 0.0, 0.0, 0.0, 0.0, 0.0, 0.0, 1.695337276268723E9, 0.0, 2023-09-21 18:01:16.268
178.0, 32891.441332273644, 19939.834766368243, -62723.353531760404, -44795.93572568127, -27043.174450775918, -33522.27461603578, -187500.02235174447, -51997.310161269925, -31274.359676165543, -29323.56647533971, -60726.44868212327, -72029.27881828294, -29539.953713411538, -187500.02235174447, -51131.80591247153, -35217.29680505953, -0.028, 1.008, 0.096, 192.0, 127.5, 16.0, 15.5, 64.0, 1.5, 0.0, 0.0, 0.0, 0.0, 1.695337276268727E9, 0.0, 2023-09-21 18:01:16.268
180.0, 32913.480152306576, 19946.227365282462, -62710.903610098794, -44796.42746405929, -26994.49235135226, -33523.66042419201, -187500.02235174447, -51992.03514957847, -31235.71351000232, -29288.720105733886, -60686.751983970644, -71986.96696602905, -29607.63479562221, -187500.02235174447, -51155.677575549795, -35257.664055545814, -0.028, 1.008, 0.096, 192.0, 0.0, 0.0, 0.0, 0.0, 0.0, 0.0, 0.0, 0.0, 0.0, 1.695337276329025E9, 0.0, 2023-09-21 18:01:16.329
182.0, 32898.996221899535, 19936.929039589053, -62729.99199986363, -44802.663600762324, -27050.997561335276, -33533.5175434968, -187500.02235174447, -52010.452987009645, -31281.221661713324, -29320.548989838244, -60732.17072870383, -72034.33031252984, -29531.527105751888, -187500.02235174447, -51123.513415278605, -35219.286110316054, -0.028, 1.008, 0.096, 192.0, 0.0, 0.0, 0.0, 0.0, 0.0, 0.0, 0.0, 0.0, 0.0, 1.695337276329039E9, 0.0, 2023-09-21 18:01:16.329
184.0, 32920.76682099901, 19937.33137098925, -62730.841366152934, -44820.366182370926, -27023.773136588712, -33552.78474721727, -187500.02235174447, -52029.742542474574, -31259.674580058407, -29313.46348684591, -60711.74123427168, -72015.01840532046, -29605.466676410044, -187500.02235174447, -51156.45988660573, -35251.517325820605, -0.028, 1.008, 0.096, 192.0, 0.0, 0.0, 0.0, 0.0, 0.0, 0.0, 0.0, 0.0, 0.0, 1.695337276329044E9, 0.0, 2023-09-21 18:01:16.329
186.0, 32904.539454524456, 19953.89401363063, -62711.10477579889, -44792.56061226852, -27038.97232281832, -33525.29210153724, -187500.02235174447, -52005.80382416294, -31254.511327089233, -29305.550969308733, -60705.10276616845, -72012.0456233079, -29535.684530220573, -187500.02235174447, -51136.1197991514, -35223.77881095157, -0.028, 1.008, 0.096, 192.0, 0.0, 0.0, 0.0, 0.0, 0.0, 0.0, 0.0, 0.0, 0.0, 1.695337276329048E9, 0.0, 2023-09-21 18:01:16.329
188.0, 32902.10311437883, 19935.43147271055, -62727.488604484635, -44816.81225500253, -27022.05205226565, -33547.10740412562, -187500.02235174447, -52022.81350169343, -31258.668751557918, -29309.19430365495, -60707.15912665834, -72009.96691107356, -29610.696984612583, -187500.02235174447, -51165.71350881023, -35261.19563116976, -0.022, 1.012, 0.09, 192.0, 127.5, 40.0, 15.5, 80.0, 1.0, 104.0, 0.0, 0.0, 0.0, 1.695337276329051E9, 0.0, 2023-09-21 18:01:16.329
190.0, 32915.268291863, 19948.462539727992, -62715.77629039005, -44793.76760646911, -27035.39604370547, -33524.196866058934, -187500.02235174447, -51997.108995569826, -31266.625972584006, -29323.18649568397, -60720.86074600944, -72028.27298978246, -29535.930399409583, -187500.02235174447, -51131.895319449344, -35223.756459207114, -0.022, 1.012, 0.09, 192.0, 0.0, 0.0, 0.0, 0.0, 0.0, 0.0, 0.0, 0.0, 0.0, 1.695337276329055E9, 0.0, 2023-09-21 18:01:16.329
192.0, 32891.50838750701, 19941.04176056883, -62715.57512468995, -44805.2787548636, -27015.05595625114, -33536.35621504262, -187500.02235174447, -52008.06135035293, -31238.149850147947, -29306.780315253774, -60690.50707703914, -71997.2934719674, -29612.753345102472, -187500.02235174447, -51165.62410183241, -35262.626142814894, -0.022, 1.012, 0.09, 192.0, 0.0, 0.0, 0.0, 0.0, 0.0, 0.0, 0.0, 0.0, 0.0, 1.695337276329059E9, 0.0, 2023-09-21 18:01:16.329
194.0, 32924.07487917839, 19947.61317343869, -62717.899706113305, -44795.66750474781, -27033.853773338054, -33528.86838065009, -187500.02235174447, -52003.456890995134, -31265.866013272527, -29315.117515935603, -60719.29612389757, -72025.18844904762, -29534.879867420183, -187500.02235174447, -51119.959487910215, -35217.49797075963, -0.022, 1.012, 0.09, 192.0, 0.0, 0.0, 0.0, 0.0, 0.0, 0.0, 0.0, 0.0, 0.0, 1.695337276329063E9, 0.0, 2023-09-21 18:01:16.329
196.0, 32884.534643236955, 19937.688998900532, -62719.240810780626, -44804.25057461865, -27023.34845344406, -33541.36300580061, -187500.02235174447, -52016.7785306905, -31242.061405427627, -29307.763792009806, -60691.60231251745, -72000.46741968005, -29614.76500210345, -187500.02235174447, -51161.08669770798, -35251.02558744259, -0.022, 1.012, 0.09, 192.0, 0.0, 0.0, 0.0, 0.0, 0.0, 0.0, 0.0, 0.0, 0.0, 1.695337276388444E9, 0.0, 2023-09-21 18:01:16.388
198.0, 32937.68709155168, 19928.770652862866, -62746.42053203828, -44820.79086551558, -27054.149157303473, -33551.667159994504, -187500.02235174447, -52027.46266454014, -31280.014667512736, -29327.85801027513, -60735.635249094405, -72040.54409748843, -29536.980931398983, -187500.02235174447, -51120.83120594397, -35209.83132241146, -0.026000000000000002, 1.008, 0.088, 192.0, 127.5, 24.0, 15.5, 64.0, 1.0, 96.0, 0.0, 0.0, 0.0, 1.695337276388456E9, 0.0, 2023-09-21 18:01:16.388
200.0, 32876.9574018666, 19933.822147109764, -62724.962857361184, -44802.663600762324, -27035.59720940557, -33535.462145264406, -187500.02235174447, -52007.43550150818, -31269.509347618743, -29332.730690566386, -60718.49146109718, -72025.25550428098, -29604.930234543113, -187500.02235174447, -51173.98365425869, -35243.40364258333, -0.026000000000000002, 1.008, 0.088, 192.0, 0.0, 0.0, 0.0, 0.0, 0.0, 0.0, 0.0, 0.0, 0.0, 1.69533727638846E9, 0.0, 2023-09-21 18:01:16.388
202.0, 32935.11664093931, 19945.780330393354, -62727.332142273444, -44803.33415309598, -27029.15990700244, -33534.83629641966, -187500.02235174447, -52007.56961197491, -31269.19642319637, -29316.436268858466, -60724.21350767774, -72024.78611764743, -29549.43085306059, -187500.02235174447, -51130.42010431529, -35219.10729636041, -0.026000000000000002, 1.008, 0.088, 192.0, 0.0, 0.0, 0.0, 0.0, 0.0, 0.0, 0.0, 0.0, 0.0, 1.695337276388464E9, 0.0, 2023-09-21 18:01:16.388
204.0, 32866.72030290608, 19944.349818748215, -62717.072691568465, -44797.90267919334, -27019.5263051422, -33529.7624504283, -187500.02235174447, -51995.76789090251, -31237.099318158547, -29309.037841443762, -60689.94828342775, -71996.68997486711, -29608.14888574468, -187500.02235174447, -51167.25577917764, -35247.73988100766, -0.026000000000000002, 1.008, 0.088, 192.0, 0.0, 0.0, 0.0, 0.0, 0.0, 0.0, 0.0, 0.0, 0.0, 1.695337276388467E9, 0.0, 2023-09-21 18:01:16.388
206.0, 32940.99514973106, 19938.448958212015, -62744.90061341532, -44822.69076379428, -27029.741052358277, -33557.09863389714, -187500.02235174447, -52025.36160056134, -31273.62206859852, -29321.08543170517, -60732.57306010403, -72036.11845208627, -29551.308399594833, -187500.02235174447, -51126.97793566918, -35219.509627760606, -0.026000000000000002, 1.008, 0.088, 192.0, 0.0, 0.0, 0.0, 0.0, 0.0, 0.0, 0.0, 0.0, 0.0, 1.695337276388471E9, 0.0, 2023-09-21 18:01:16.388
208.0, 32864.77570113846, 19936.929039589053, -62730.55079347501, -44805.65873451933, -27046.05782581065, -33532.35525278512, -187500.02235174447, -52002.6745799392, -31262.870879515518, -29334.541181867266, -60717.84326050798, -72024.96493160307, -29592.703830326063, -187500.02235174447, -51165.400584387855, -35240.52026754859, -0.02, 1.004, 0.08600000000000001, 192.0, 127.5, 48.0, 15.5, 48.0, 1.0, 88.0, 0.0, 0.0, 0.0, 1.695337276388474E9, 0.0, 2023-09-21 18:01:16.388
210.0, 32933.75318452754, 19945.020371081875, -62742.28545931405, -44816.83460674699, -27028.265837224226, -33551.331883827675, -187500.02235174447, -52026.36742906182, -31268.749388307264, -29320.258417160323, -60730.40494089186, -72032.83274565134, -29572.47550159401, -187500.02235174447, -51137.639717774364, -35235.78169772407, -0.02, 1.004, 0.08600000000000001, 192.0, 0.0, 0.0, 0.0, 0.0, 0.0, 0.0, 0.0, 0.0, 0.0, 1.695337276448297E9, 0.0, 2023-09-21 18:01:16.448
212.0, 32862.04878831492, 19948.66370542809, -62720.73837765913, -44792.51590877961, -27042.459194953346, -33520.419421245984, -187500.02235174447, -51998.11482407032, -31247.80580375264, -29315.586902569165, -60699.71599575472, -72001.36148945827, -29592.055629736857, -187500.02235174447, -51158.38213662888, -35242.93425594977, -0.02, 1.004, 0.08600000000000001, 192.0, 0.0, 0.0, 0.0, 0.0, 0.0, 0.0, 0.0, 0.0, 0.0, 1.69533727644831E9, 0.0, 2023-09-21 18:01:16.448
214.0, 32935.8766002508, 19952.46350198549, -62736.161081333295, -44809.100903165454, -27027.43882267938, -33534.277502808276, -187500.02235174447, -52010.78826317647, -31268.347056907067, -29313.508190334822, -60719.54199308658, -72015.37603323175, -29577.683458052095, -187500.02235174447, -51129.07899964798, -35225.54459876354, -0.02, 1.004, 0.08600000000000001, 192.0, 0.0, 0.0, 0.0, 0.0, 0.0, 0.0, 0.0, 0.0, 0.0, 1.695337276448314E9, 0.0, 2023-09-21 18:01:16.448
216.0, 32861.42293947017, 19965.449865514027, -62713.76463338907, -44776.84733591644, -27044.515555443235, -33509.02003157378, -187500.02235174447, -51993.37625424579, -31256.388873623477, -29307.383812354066, -60698.95603644324, -71999.50629466848, -29582.198510432067, -187500.02235174447, -51147.38507835688, -35229.076174387475, -0.02, 1.004, 0.08600000000000001, 192.0, 0.0, 0.0, 0.0, 0.0, 0.0, 0.0, 0.0, 0.0, 0.0, 1.695337276448318E9, 0.0, 2023-09-21 18:01:16.448
218.0, 32934.11081243883, 19960.33131603376, -62728.382674262844, -44800.2719641056, -27019.280435953195, -33539.373700544085, -187500.02235174447, -52012.1740713327, -31251.31502763212, -29290.262376101302, -60699.60423703244, -71997.18171324513, -29582.57849008781, -187500.02235174447, -51127.13439788036, -35229.72437497668, -0.026000000000000002, 1.004, 0.088, 192.0, 127.5, 24.0, 15.5, 48.0, 1.0, 96.0, 0.0, 0.0, 0.0, 1.695337276448321E9, 0.0, 2023-09-21 18:01:16.448
220.0, 32877.404436755714, 19960.9124613896, -62724.24760153861, -44790.19132735626, -27056.697256171377, -33530.008319617315, -187500.02235174447, -52003.81451890642, -31273.242088942778, -29315.296329891247, -60713.97640871721, -72012.6938238971, -29553.56592578482, -187500.02235174447, -51123.31224957851, -35207.37263052138, -0.026000000000000002, 1.004, 0.088, 192.0, 0.0, 0.0, 0.0, 0.0, 0.0, 0.0, 0.0, 0.0, 0.0, 1.695337276448324E9, 0.0, 2023-09-21 18:01:16.448
222.0, 32934.55784732793, 19950.697714173522, -62737.03279936705, -44813.03481018959, -27030.00927329174, -33554.952866429434, -187500.02235174447, -52026.79211220647, -31264.61431558303, -29311.965919967406, -60708.6790452813, -72005.16128601567, -29591.876815781216, -187500.02235174447, -51128.900185692335, -35224.20349409622, -0.026000000000000002, 1.004, 0.088, 192.0, 0.0, 0.0, 0.0, 0.0, 0.0, 0.0, 0.0, 0.0, 0.0, 1.695337276448331E9, 0.0, 2023-09-21 18:01:16.448
224.0, 32865.60271568331, 19985.454676801524, -62689.378880188335, -44750.584036181455, -27037.20653500635, -33485.17072023996, -187500.02235174447, -51964.90013180973, -31265.396626638965, -29316.95035898094, -60705.639208035376, -72006.3459284718, -29553.588277529274, -187500.02235174447, -51127.9167089363, -35207.52909273256, -0.026000000000000002, 1.004, 0.088, 192.0, 0.0, 0.0, 0.0, 0.0, 0.0, 0.0, 0.0, 0.0, 0.0, 1.695337276448336E9, 0.0, 2023-09-21 18:01:16.448
226.0, 32909.635652260265, 19965.405162025116, -62713.719929900166, -44791.19715585675, -26998.113333954017, -33533.718709196895, -187500.02235174447, -52008.88836489777, -31230.773774477697, -29268.84940491312, -60676.31371931002, -71969.6890675651, -29597.554158872863, -187500.02235174447, -51120.87590943288, -35243.470697816694, -0.026000000000000002, 1.004, 0.088, 192.0, 0.0, 0.0, 0.0, 0.0, 0.0, 0.0, 0.0, 0.0, 0.0, 1.695337276508556E9, 0.0, 2023-09-21 18:01:16.508
228.0, 32873.51523322049, 19979.933795921064, -62697.33610121442, -44755.076736816976, -27028.377595946506, -33489.462255175386, -187500.02235174447, -51963.60373063132, -31245.347111862557, -29290.28472784576, -60692.362271828926, -71989.15743698567, -29538.813774444316, -187500.02235174447, -51100.78169116756, -35208.75843867761, -0.02, 1.008, 0.088, 192.0, 127.5, 48.0, 15.5, 64.0, 1.0, 96.0, 0.0, 0.0, 0.0, 1.695337276508568E9, 0.0, 2023-09-21 18:01:16.508
230.0, 32903.80184695743, 19967.6626882151, -62706.41090946328, -44781.00476038513, -27005.40000264645, -33516.865493877594, -187500.02235174447, -51995.499669969045, -31243.246047883757, -29279.421780040477, -60692.272864851104, -71984.15064622767, -29602.67270835313, -187500.02235174447, -51117.858423931415, -35238.530962292076, -0.02, 1.008, 0.088, 192.0, 0.0, 0.0, 0.0, 0.0, 0.0, 0.0, 0.0, 0.0, 0.0, 1.695337276508572E9, 0.0, 2023-09-21 18:01:16.508
232.0, 32896.85045443183, 19960.89010964514, -62715.239848523124, -44780.06598711801, -27046.661322910946, -33509.48941820734, -187500.02235174447, -51993.55506820144, -31254.04194045567, -29289.27889934527, -60709.21548714823, -72004.53543717093, -29536.824469187795, -187500.02235174447, -51090.522240462575, -35198.11900831688, -0.02, 1.008, 0.088, 192.0, 0.0, 0.0, 0.0, 0.0, 0.0, 0.0, 0.0, 0.0, 0.0, 1.695337276508575E9, 0.0, 2023-09-21 18:01:16.508
234.0, 32900.203216100126, 19954.296345030827, -62697.984301803626, -44777.920219650296, -27011.94906377185, -33510.83052287466, -187500.02235174447, -51993.48801296807, -31239.781527493185, -29282.551024264223, -60700.453603321745, -71995.43827717761, -29621.62698765123, -187500.02235174447, -51132.29765084954, -35230.77490696608, -0.02, 1.008, 0.088, 192.0, 0.0, 0.0, 0.0, 0.0, 0.0, 0.0, 0.0, 0.0, 0.0, 1.695337276508579E9, 0.0, 2023-09-21 18:01:16.508
236.0, 32909.70270749363, 19944.483929214948, -62703.013444306074, -44775.84150741596, -27042.83917460909, -33508.21536877339, -187500.02235174447, -51999.9253153712, -31257.50646084624, -29285.054419643217, -60726.56044084555, -72020.56163794537, -29545.98868441447, -187500.02235174447, -51096.69132193224, -35192.240499525135, -0.02, 1.008, 0.088, 192.0, 0.0, 0.0, 0.0, 0.0, 0.0, 0.0, 0.0, 0.0, 0.0, 1.695337276508582E9, 0.0, 2023-09-21 18:01:16.508
238.0, 32900.56084401141, 19932.905725587098, -62692.955159301186, -44779.6189522289, -27012.686671338877, -33515.36792699908, -187500.02235174447, -51992.25866702302, -31238.23925712577, -29275.08554161615, -60703.6275510344, -71999.08161152383, -29631.931141845125, -187500.02235174447, -51141.50656956513, -35234.50764829012, -0.026000000000000002, 1.008, 0.09, 192.0, 127.5, 24.0, 15.5, 64.0, 1.0, 104.0, 0.0, 0.0, 0.0, 1.695337276508586E9, 0.0, 2023-09-21 18:01:16.508
240.0, 32925.483039079074, 19942.785196636345, -62681.86869405135, -44760.75407990862, -27035.932485572397, -33500.839293103134, -187500.02235174447, -51982.89328609625, -31264.14492894947, -29289.27889934527, -60733.958868260255, -72027.42362349316, -29553.655332762643, -187500.02235174447, -51098.61357195539, -35186.80902562249, -0.026000000000000002, 1.008, 0.09, 192.0, 0.0, 0.0, 0.0, 0.0, 0.0, 0.0, 0.0, 0.0, 0.0, 1.695337276569387E9, 0.0, 2023-09-21 18:01:16.569
242.0, 32903.44421904614, 19931.251696497406, -62674.26910093655, -44763.101013076426, -27015.793563818166, -33505.466104205385, -187500.02235174447, -51980.27813199498, -31235.13236464648, -29273.096236359626, -60700.27478936611, -71994.74537309949, -29633.92044710165, -187500.02235174447, -51140.5230928091, -35229.63496799886, -0.026000000000000002, 1.008, 0.09, 192.0, 0.0, 0.0, 0.0, 0.0, 0.0, 0.0, 0.0, 0.0, 0.0, 1.695337276569402E9, 0.0, 2023-09-21 18:01:16.569
244.0, 32950.382882402286, 19938.89599310112, -62677.420696904745, -44758.85418162992, -27029.00344479125, -33501.80041811471, -187500.02235174447, -51983.29561749645, -31250.912696231928, -29271.531614247753, -60722.60418207695, -72012.82793436384, -29554.035312418382, -187500.02235174447, -51097.69715043273, -35189.714752401684, -0.026000000000000002, 1.008, 0.09, 192.0, 0.0, 0.0, 0.0, 0.0, 0.0, 0.0, 0.0, 0.0, 0.0, 1.695337276569405E9, 0.0, 2023-09-21 18:01:16.569
246.0, 32909.278024348976, 19936.370245977672, -62656.47711235013, -44744.39260296734, -26999.34267989906, -33491.45156043191, -187500.02235174447, -51967.671748122186, -31215.79810569264, -29259.41696875298, -60685.27676883659, -71978.96504151405, -29630.970016833548, -187500.02235174447, -51142.668860276804, -35229.52320927659, -0.026000000000000002, 1.008, 0.09, 192.0, 0.0, 0.0, 0.0, 0.0, 0.0, 0.0, 0.0, 0.0, 0.0, 1.695337276569409E9, 0.0, 2023-09-21 18:01:16.569
248.0, 32976.06503678144, 19935.163251777085, -62668.479999122625, -44753.64622517183, -27010.11622072652, -33496.033668045246, -187500.02235174447, -51979.80874536142, -31241.435556582877, -29266.435416511944, -60717.105652940954, -72007.57527441684, -29545.09461463626, -187500.02235174447, -51091.34925500742, -35193.46984547017, -0.016, 1.008, 0.092, 192.0, 127.5, 64.0, 15.5, 64.0, 1.0, 112.0, 0.0, 0.0, 0.0, 1.695337276569412E9, 0.0, 2023-09-21 18:01:16.569
250.0, 32927.98643445807, 19921.483984170438, -62666.02130723254, -44759.90471361932, -27011.904360282944, -33495.474874433865, -187500.02235174447, -51975.293692981446, -31230.058518655125, -29269.855233413607, -60698.06196666503, -71994.49950391048, -29599.074077495825, -187500.02235174447, -51132.29765084954, -35223.130610362365, -0.016, 1.008, 0.092, 192.0, 0.0, 0.0, 0.0, 0.0, 0.0, 0.0, 0.0, 0.0, 0.0, 1.695337276569416E9, 0.0, 2023-09-21 18:01:16.569
252.0, 33000.42843823772, 19914.71140560048, -62683.47801965213, -44771.52762073608, -27014.6759765954, -33499.520540180274, -187500.02235174447, -51984.7708326305, -31245.213001395823, -29269.45290201341, -60722.11244369894, -72013.52083844195, -29545.675759992097, -187500.02235174447, -51097.652446943815, -35194.45332222621, -0.016, 1.008, 0.092, 192.0, 0.0, 0.0, 0.0, 0.0, 0.0, 0.0, 0.0, 0.0, 0.0, 1.695337276569419E9, 0.0, 2023-09-21 18:01:16.569
254.0, 32926.757088513026, 19927.51895517337, -62652.56555707045, -44742.44800119972, -27003.58951134557, -33469.5021473768, -187500.02235174447, -51948.85157929082, -31224.761155219217, -29274.571451493677, -60693.43515556278, -71993.20310273208, -29606.070173510336, -187500.02235174447, -51139.9195957088, -35226.50572377512, -0.016, 1.008, 0.092, 192.0, 0.0, 0.0, 0.0, 0.0, 0.0, 0.0, 0.0, 0.0, 0.0, 1.695337276569423E9, 0.0, 2023-09-21 18:01:16.569
0.0, 33010.12909533132, 19924.836745838733, -62675.43139164823, -44767.4148997563, -26994.000612974243, -33498.268842490776, -187500.02235174447, -51980.27813199498, -31237.14402164746, -29263.97672462186, -60711.29419938257, -72006.56944591635, -29562.976010200502, -187500.02235174447, -51096.08782483194, -35208.89254914434, -0.016, 1.008, 0.092, 192.0, 0.0, 0.0, 0.0, 0.0, 0.0, 0.0, 0.0, 0.0, 0.0, 1.695337276628491E9, 0.0, 2023-09-21 18:01:16.628
2.0, 32943.69971081015, 19918.108870757686, -62668.23412993362, -44762.58692295396, -27011.54673237166, -33494.82667384466, -187500.02235174447, -51966.8670853218, -31236.115841402512, -29278.259489328804, -60699.35836784344, -72000.10979176877, -29587.47352212352, -187500.02235174447, -51119.803025699024, -35221.811857439505, -0.018000000000000002, 1.006, 0.098, 192.0, 127.5, 56.0, 15.5, 56.0, 1.5, 8.0, 0.0, 0.0, 0.0, 1.695337276628502E9, 0.0, 2023-09-21 18:01:16.628
4.0, 33026.49057227261, 19915.33725444523, -62690.20589473318, -44784.826908686984, -27003.96949100131, -33520.2629590348, -187500.02235174447, -51994.11386181282, -31253.505498588744, -29286.12730337707, -60723.14062394389, -72020.36047224527, -29562.148995655658, -187500.02235174447, -51093.76324340859, -35207.10440958791, -0.018000000000000002, 1.006, 0.098, 192.0, 0.0, 0.0, 0.0, 0.0, 0.0, 0.0, 0.0, 0.0, 0.0, 1.695337276628506E9, 0.0, 2023-09-21 18:01:16.628
6.0, 32948.84061203487, 19909.637559609124, -62675.52079862604, -44768.130155578874, -27028.109375013042, -33511.50107520832, -187500.02235174447, -51987.22952452058, -31256.411225367934, -29301.75117275133, -60721.576001832014, -72020.87456236775, -29575.604745817753, -187500.02235174447, -51125.99445891315, -35210.904206145315, -0.018000000000000002, 1.006, 0.098, 192.0, 0.0, 0.0, 0.0, 0.0, 0.0, 0.0, 0.0, 0.0, 0.0, 1.695337276628509E9, 0.0, 2023-09-21 18:01:16.628
8.0, 33018.689813457706, 19907.961178774975, -62686.56256038697, -44789.185498855775, -27000.43791537737, -33517.33488051115, -187500.02235174447, -51984.882591352776, -31250.443309598366, -29282.148692864026, -60720.74898728717, -72015.66660590966, -29581.57266158732, -187500.02235174447, -51115.71265646371, -35220.06842137199, -0.018000000000000002, 1.006, 0.098, 192.0, 0.0, 0.0, 0.0, 0.0, 0.0, 0.0, 0.0, 0.0, 0.0, 1.695337276628513E9, 0.0, 2023-09-21 18:01:16.628
10.0, 32947.320693411915, 19923.361530704682, -62663.1379321978, -44759.94941710823, -27017.335834185582, -33490.512787164786, -187500.02235174447, -51959.513361396, -31253.527850333197, -29298.376059338578, -60715.78690001809, -72014.61607392026, -29570.888527737683, -187500.02235174447, -51127.20145311373, -35212.804104424016, -0.018000000000000002, 1.006, 0.098, 192.0, 0.0, 0.0, 0.0, 0.0, 0.0, 0.0, 0.0, 0.0, 0.0, 1.695337276628516E9, 0.0, 2023-09-21 18:01:16.628
12.0, 33027.16112460627, 19886.011765719864, -62722.07948232645, -44828.72573479721, -27015.212418462328, -33563.53593630027, -187500.02235174447, -52032.625917509315, -31269.28583017419, -29290.977631923874, -60737.669257839836, -72029.65879793868, -29586.42299013412, -187500.02235174447, -51111.4658250172, -35219.39786903833, -0.02, 1.008, 0.098, 192.0, 127.5, 48.0, 15.5, 64.0, 1.5, 8.0, 0.0, 0.0, 0.0, 1.695337276628519E9, 0.0, 2023-09-21 18:01:16.628
14.0, 32962.38576917479, 19912.431527666038, -62685.28851095302, -44777.786109183566, -27040.760462374743, -33511.56813044169, -187500.02235174447, -51985.91077159772, -31286.34021119359, -29330.204943442935, -60747.74989458918, -72044.79092893493, -29575.04595220637, -187500.02235174447, -51130.95654618223, -35196.42027573827, -0.02, 1.008, 0.098, 192.0, 0.0, 0.0, 0.0, 0.0, 0.0, 0.0, 0.0, 0.0, 0.0, 1.69533727669002E9, 0.0, 2023-09-21 18:01:16.690
16.0, 33007.648051696786, 19913.973798033454, -62690.45176392219, -44788.71611222221, -26997.33102289808, -33526.40968876001, -187500.02235174447, -51998.33834151487, -31250.376254365, -29287.75898072231, -60716.39039711838, -72009.83280060683, -29633.071080812348, -187500.02235174447, -51139.02552593059, -35227.824476697984, -0.02, 1.008, 0.098, 192.0, 0.0, 0.0, 0.0, 0.0, 0.0, 0.0, 0.0, 0.0, 0.0, 1.695337276690033E9, 0.0, 2023-09-21 18:01:16.690
18.0, 32967.75018784406, 19915.33725444523, -62689.02125227705, -44774.25453355963, -27038.50293618476, -33508.81886587368, -187500.02235174447, -51982.692120396154, -31266.156585950448, -29299.3148326057, -60729.98025774721, -72022.1486118017, -29584.4336848776, -187500.02235174447, -51117.8137204425, -35198.6554501838, -0.02, 1.008, 0.098, 192.0, 0.0, 0.0, 0.0, 0.0, 0.0, 0.0, 0.0, 0.0, 0.0, 1.695337276690037E9, 0.0, 2023-09-21 18:01:16.690
20.0, 33003.22240629463, 19915.247847467406, -62692.06108952297, -44789.7219407227, -27005.77998230219, -33532.28819755175, -187500.02235174447, -52004.59682996236, -31261.66388531493, -29300.007736683816, -60724.302914655564, -72016.02423382095, -29631.349996489287, -187500.02235174447, -51131.15771188232, -35218.48144751566, -0.02, 1.008, 0.098, 192.0, 0.0, 0.0, 0.0, 0.0, 0.0, 0.0, 0.0, 0.0, 0.0, 1.695337276690041E9, 0.0, 2023-09-21 18:01:16.690
22.0, 32973.09225476888, 19932.168118020072, -62676.77249631554, -44759.65884443031, -27031.529191914702, -33500.571072169674, -187500.02235174447, -51970.08573652336, -31264.591963838575, -29301.013565184305, -60723.833528022, -72016.38186173224, -29568.27337363641, -187500.02235174447, -51117.12081636439, -35197.58256644995, -0.024, 1.008, 0.098, 192.0, 127.5, 32.0, 15.5, 64.0, 1.5, 8.0, 0.0, 0.0, 0.0, 1.695337276690045E9, 0.0, 2023-09-21 18:01:16.690
24.0, 32995.06401956845, 19919.42762368055, -62688.64127262131, -44786.302123821035, -27004.505932868236, -33533.45048826343, -187500.02235174447, -52003.79216716196, -31233.813611723617, -29287.267242344293, -60699.20190563225, -71996.04177427791, -29623.705699885573, -187500.02235174447, -51132.78938922756, -35231.62427325538, -0.024, 1.008, 0.098, 192.0, 0.0, 0.0, 0.0, 0.0, 0.0, 0.0, 0.0, 0.0, 0.0, 1.695337276690048E9, 0.0, 2023-09-21 18:01:16.690
26.0, 32979.64131589429, 19940.013580323885, -62674.492618381104, -44752.17101003778, -27026.16477324543, -33492.09976102111, -187500.02235174447, -51963.58137888687, -31262.312085904134, -29300.09714366164, -60722.02303672112, -72015.75601288749, -29543.21706810201, -187500.02235174447, -51103.240383057644, -35195.7050199157, -0.024, 1.008, 0.098, 192.0, 0.0, 0.0, 0.0, 0.0, 0.0, 0.0, 0.0, 0.0, 0.0, 1.695337276690051E9, 0.0, 2023-09-21 18:01:16.690
28.0, 32971.39352219028, 19934.447995954513, -62675.09611548139, -44764.352710765925, -26989.127932682986, -33512.037517075245, -187500.02235174447, -51972.835001091364, -31237.27813211419, -29275.66668697199, -60691.57996077299, -71983.16716947165, -29617.357804460265, -187500.02235174447, -51129.57073802599, -35235.93815993526, -0.024, 1.008, 0.098, 192.0, 0.0, 0.0, 0.0, 0.0, 0.0, 0.0, 0.0, 0.0, 0.0, 1.695337276690055E9, 0.0, 2023-09-21 18:01:16.690
30.0, 32981.80943510645, 19934.403292465602, -62699.034833793026, -44773.36046378141, -27028.332892457594, -33521.134677068556, -187500.02235174447, -51996.14787055825, -31269.151719707457, -29294.531559292267, -60725.7334263007, -72014.57137043135, -29530.65538771813, -187500.02235174447, -51086.63303692735, -35191.614650680385, -0.024, 1.008, 0.098, 192.0, 0.0, 0.0, 0.0, 0.0, 0.0, 0.0, 0.0, 0.0, 0.0, 1.695337276748928E9, 0.0, 2023-09-21 18:01:16.748
32.0, 32957.40133016126, 19938.672475656567, -62688.37305168785, -44770.924123635785, -27009.356261415036, -33517.60310144462, -187500.02235174447, -51983.742652385554, -31254.556030578144, -29292.408143569013, -60707.33794061398, -71998.03107953443, -29618.184819005113, -187500.02235174447, -51135.829226473485, -35228.62913949837, -0.028, 1.01, 0.094, 192.0, 127.5, 16.0, 15.5, 72.0, 1.0, 120.0, 0.0, 0.0, 0.0, 1.695337276748958E9, 0.0, 2023-09-21 18:01:16.748
34.0, 32984.04460955198, 19946.160310049094, -62688.5965691324, -44767.303141034026, -27026.477697667804, -33507.67892690646, -187500.02235174447, -51981.35101572884, -31258.445234113366, -29290.910576690505, -60717.664446552335, -72010.7939256184, -29541.160707612125, -187500.02235174447, -51095.57373470948, -35193.223976281166, -0.028, 1.01, 0.094, 192.0, 0.0, 0.0, 0.0, 0.0, 0.0, 0.0, 0.0, 0.0, 0.0, 1.695337276748962E9, 0.0, 2023-09-21 18:01:16.748
36.0, 32943.677359065696, 19946.18266179355, -62678.22535970514, -44760.19528629724, -27000.750839799744, -33501.24162450333, -187500.02235174447, -51970.73393711256, -31226.862219198018, -29276.761922450296, -60682.03576589058, -71978.80857930286, -29617.87189458274, -187500.02235174447, -51139.58431954197, -35241.19081988226, -0.028, 1.01, 0.094, 192.0, 0.0, 0.0, 0.0, 0.0, 0.0, 0.0, 0.0, 0.0, 0.0, 1.695337276748966E9, 0.0, 2023-09-21 18:01:16.748
38.0, 32996.51688295804, 19934.917382588075, -62704.756880373585, -44781.205926085226, -27027.796450590668, -33520.285310779254, -187500.02235174447, -51994.4714897241, -31265.418978383423, -29295.269166859292, -60726.56044084555, -72016.94065534361, -29539.12669886669, -187500.02235174447, -51093.09269107493, -35200.39888625132, -0.028, 1.01, 0.094, 192.0, 0.0, 0.0, 0.0, 0.0, 0.0, 0.0, 0.0, 0.0, 0.0, 1.695337276748969E9, 0.0, 2023-09-21 18:01:16.748
40.0, 32932.45678334913, 19946.76380714939, -62676.861903293364, -44756.306082762014, -27005.176485201897, -33492.14446451002, -187500.02235174447, -51958.57458812888, -31231.80195472264, -29286.75315222182, -60689.88122819439, -71986.36346892876, -29608.86414156725, -187500.02235174447, -51137.438552074265, -35235.647587257336, -0.028, 1.01, 0.094, 192.0, 0.0, 0.0, 0.0, 0.0, 0.0, 0.0, 0.0, 0.0, 0.0, 1.695337276748973E9, 0.0, 2023-09-21 18:01:16.748
42.0, 32994.706391657164, 19939.097158801218, -62700.24182799362, -44780.8706499184, -27013.178409716897, -33518.22895028936, -187500.02235174447, -51988.28005650998, -31246.218829896312, -29280.427608540966, -60709.416652848326, -72002.81435284787, -29537.115041865713, -187500.02235174447, -51089.85168812892, -35207.66320319929, -0.028, 1.008, 0.098, 192.0, 127.5, 16.0, 15.5, 64.0, 1.5, 8.0, 0.0, 0.0, 0.0, 1.695337276748977E9, 0.0, 2023-09-21 18:01:16.748
44.0, 32931.24978914855, 19930.178812763552, -62695.391499446814, -44775.617989971404, -27027.237656979283, -33517.424287488975, -187500.02235174447, -51983.38502447427, -31247.381120607988, -29298.979556438873, -60706.622684791415, -72005.58596916033, -29584.679554066606, -187500.02235174447, -51132.02942991608, -35222.77298245108, -0.028, 1.008, 0.098, 192.0, 0.0, 0.0, 0.0, 0.0, 0.0, 0.0, 0.0, 0.0, 0.0, 1.69533727680939E9, 0.0, 2023-09-21 18:01:16.809
46.0, 32997.45565622517, 19928.368321462673, -62711.44005196572, -44790.660713989826, -27028.64581687997, -33532.13173534057, -187500.02235174447, -52001.445233994156, -31264.390798138476, -29297.571396538187, -60729.66733332483, -72023.75793740248, -29542.3229983238, -187500.02235174447, -51105.72142669218, -35202.05291534101, -0.028, 1.008, 0.098, 192.0, 0.0, 0.0, 0.0, 0.0, 0.0, 0.0, 0.0, 0.0, 0.0, 1.695337276809405E9, 0.0, 2023-09-21 18:01:16.809
48.0, 32916.207065130126, 19936.52670818886, -62682.114563240364, -44764.24095204365, -27018.900456297455, -33508.327127495664, -187500.02235174447, -51973.70671912512, -31239.021568181703, -29297.347879093635, -60697.90550445384, -71998.03107953443, -29586.691211067584, -187500.02235174447, -51142.8700259769, -35228.36091856491, -0.028, 1.008, 0.098, 192.0, 0.0, 0.0, 0.0, 0.0, 0.0, 0.0, 0.0, 0.0, 0.0, 1.695337276809409E9, 0.0, 2023-09-21 18:01:16.809
50.0, 32991.24187126659, 19931.31875173077, -62701.91820882777, -44785.76568195411, -27014.765383573224, -33544.80517444672, -187500.02235174447, -52011.637629465775, -31257.439405612877, -29293.861006958607, -60725.01817047813, -72019.57816118935, -29549.944943183058, -187500.02235174447, -51103.48625224665, -35207.43968575474, -0.028, 1.008, 0.098, 192.0, 0.0, 0.0, 0.0, 0.0, 0.0, 0.0, 0.0, 0.0, 0.0, 1.695337276809412E9, 0.0, 2023-09-21 18:01:16.809
52.0, 32910.93205343867, 19926.13314701714, -62692.48577266762, -44769.046577101544, -27035.999540805762, -33518.608929945105, -187500.02235174447, -51985.374329730796, -31239.60271353754, -29299.113666905603, -60702.82288823401, -72002.12144876974, -29584.38898138869, -187500.02235174447, -51134.778694484085, -35226.46102028621, -0.026000000000000002, 1.01, 0.09, 192.0, 127.5, 24.0, 15.5, 72.0, 1.0, 104.0, 0.0, 0.0, 0.0, 1.695337276809416E9, 0.0, 2023-09-21 18:01:16.809
54.0, 32994.19230153469, 19921.059301025787, -62707.88612459733, -44790.504251778635, -27020.912113298433, -33543.26290407931, -187500.02235174447, -52000.84173689387, -31264.368446394023, -29302.041745429247, -60732.84128103749, -72025.45666998108, -29571.13439692669, -187500.02235174447, -51108.02365637108, -35214.882816658355, -0.026000000000000002, 1.01, 0.09, 192.0, 0.0, 0.0, 0.0, 0.0, 0.0, 0.0, 0.0, 0.0, 0.0, 1.695337276809419E9, 0.0, 2023-09-21 18:01:16.809
56.0, 32919.358661098326, 19934.582106421247, -62682.4945428961, -44757.98246359616, -27037.519459428724, -33514.54091245424, -187500.02235174447, -51982.490954696055, -31252.43261485489, -29309.283710632768, -60714.26698139513, -72014.83959136481, -29573.973068472515, -187500.02235174447, -51125.68153449077, -35211.038316612045, -0.026000000000000002, 1.01, 0.09, 192.0, 0.0, 0.0, 0.0, 0.0, 0.0, 0.0, 0.0, 0.0, 0.0, 1.695337276809422E9, 0.0, 2023-09-21 18:01:16.809
58.0, 32991.19716777768, 19919.04764402481, -62706.63442690783, -44795.86867044791, -27014.25129345075, -33548.64967449304, -187500.02235174447, -52009.22364106461, -31243.737786261772, -29288.60834701161, -60713.21644940573, -72007.55292267239, -29584.478388366508, -187500.02235174447, -51107.62132497088, -35217.92265390428, -0.026000000000000002, 1.01, 0.09, 192.0, 0.0, 0.0, 0.0, 0.0, 0.0, 0.0, 0.0, 0.0, 0.0, 1.695337276809426E9, 0.0, 2023-09-21 18:01:16.809
60.0, 32920.47624832109, 19920.18758299203, -62686.16022898677, -44770.47708874668, -27042.056863553153, -33515.747906654826, -187500.02235174447, -51987.09541405385, -31258.601696324553, -29315.13986768006, -60722.47007161022, -72018.57233268885, -29567.982800958493, -187500.02235174447, -51118.84190068745, -35204.93629037575, -0.026000000000000002, 1.01, 0.09, 192.0, 0.0, 0.0, 0.0, 0.0, 0.0, 0.0, 0.0, 0.0, 0.0, 1.695337276868699E9, 0.0, 2023-09-21 18:01:16.868
62.0, 32977.11556877084, 19911.023367765352, -62704.1533832733, -44795.22046985871, -27015.950026029353, -33538.43492727696, -187500.02235174447, -52007.25668755254, -31264.994295238772, -29307.65203328753, -60730.76256880315, -72021.79098389042, -29605.95841478806, -187500.02235174447, -51118.81954894299, -35222.61652023989, -0.026000000000000002, 1.012, 0.092, 192.0, 127.5, 24.0, 15.5, 80.0, 1.0, 112.0, 0.0, 0.0, 0.0, 1.695337276868718E9, 0.0, 2023-09-21 18:01:16.868
64.0, 32913.99424242905, 19929.575315663256, -62684.08151675243, -44759.323568263484, -27039.01702630723, -33502.26980474828, -187500.02235174447, -51973.30438772493, -31263.630838826997, -29308.27788213228, -60721.19602217627, -72014.16903903116, -29576.74468478497, -187500.02235174447, -51111.555231995015, -35205.87506364287, -0.026000000000000002, 1.012, 0.092, 192.0, 0.0, 0.0, 0.0, 0.0, 0.0, 0.0, 0.0, 0.0, 0.0, 1.695337276868724E9, 0.0, 2023-09-21 18:01:16.868
66.0, 32955.61319060483, 19927.764824362377, -62683.76859233005, -44771.79584166954, -26998.716831054313, -33524.10745908111, -187500.02235174447, -51990.09054781086, -31249.057501442137, -29290.59765226813, -60706.93560921379, -71998.81339059037, -29617.536618415907, -187500.02235174447, -51114.438607029755, -35232.5183430336, -0.026000000000000002, 1.012, 0.092, 192.0, 0.0, 0.0, 0.0, 0.0, 0.0, 0.0, 0.0, 0.0, 0.0, 1.695337276868731E9, 0.0, 2023-09-21 18:01:16.868
68.0, 32914.597739529345, 19940.102987301707, -62674.17969395873, -44749.35469023642, -27028.06467152413, -33498.44765644642, -187500.02235174447, -51967.93996905565, -31253.17022242191, -29296.81143722671, -60705.214524890725, -71998.25459697898, -29559.28797236538, -187500.02235174447, -51096.06547308749, -35209.67486020027, -0.026000000000000002, 1.012, 0.092, 192.0, 0.0, 0.0, 0.0, 0.0, 0.0, 0.0, 0.0, 0.0, 0.0, 1.695337276868737E9, 0.0, 2023-09-21 18:01:16.868
70.0, 32946.31486491142, 19923.294475471317, -62694.81035409097, -44782.9717138972, -27007.657528836433, -33530.50005799533, -187500.02235174447, -51997.51132697002, -31254.198402666858, -29297.2137686269, -60710.10955692644, -72002.5461319144, -29620.263531239456, -187500.02235174447, -51115.51149076361, -35235.088793645955, -0.026000000000000002, 1.012, 0.092, 192.0, 0.0, 0.0, 0.0, 0.0, 0.0, 0.0, 0.0, 0.0, 0.0, 1.695337276868743E9, 0.0, 2023-09-21 18:01:16.868
72.0, 32929.819277503404, 19919.114699258174, -62705.15921177378, -44781.36238829642, -27050.304657257162, -33535.97623538688, -187500.02235174447, -52007.63666720828, -31282.56276638064, -29319.029071215282, -60735.143510716385, -72026.32838801484, -29549.788480971874, -187500.02235174447, -51088.39882473932, -35195.99559259362, -0.022, 1.008, 0.092, 192.0, 127.5, 40.0, 15.5, 64.0, 1.0, 112.0, 0.0, 0.0, 0.0, 1.695337276868749E9, 0.0, 2023-09-21 18:01:16.868
74.0, 32929.484001336576, 19939.007751823396, -62677.26423469356, -44758.65301592982, -27005.757630557735, -33508.72945889586, -187500.02235174447, -51968.67757662268, -31242.46373682782, -29298.912501205505, -60698.28548410958, -71994.83478007732, -29621.33641497331, -187500.02235174447, -51127.02263915809, -35233.63593025636, -0.022, 1.008, 0.092, 192.0, 0.0, 0.0, 0.0, 0.0, 0.0, 0.0, 0.0, 0.0, 0.0, 1.695337276928342E9, 0.0, 2023-09-21 18:01:16.928
76.0, 32928.9699112141, 19930.067054041276, -62698.4983919261, -44775.17095508229, -27037.29594198417, -33526.96848237139, -187500.02235174447, -51994.06915832391, -31254.1760509224, -29295.090352903648, -60708.72374877021, -72003.90958832618, -29548.536783282376, -187500.02235174447, -51085.58250493795, -35200.01890659558, -0.022, 1.008, 0.092, 192.0, 0.0, 0.0, 0.0, 0.0, 0.0, 0.0, 0.0, 0.0, 0.0, 1.695337276928359E9, 0.0, 2023-09-21 18:01:16.928
78.0, 32921.45972507712, 19907.55884737478, -62714.479889211645, -44803.75883624063, -27027.662340123934, -33554.14820362904, -187500.02235174447, -52020.64538248126, -31270.3810656525, -29326.338091652167, -60726.00164723417, -72023.42266123566, -29624.175086519135, -187500.02235174447, -51124.318078079, -35231.28899708855, -0.022, 1.008, 0.092, 192.0, 0.0, 0.0, 0.0, 0.0, 0.0, 0.0, 0.0, 0.0, 0.0, 1.695337276928364E9, 0.0, 2023-09-21 18:01:16.928
80.0, 32932.635597304776, 19930.290571485828, -62700.89002858282, -44776.57911498298, -27041.40866296395, -33516.61962468858, -187500.02235174447, -51985.48608845307, -31271.744522064273, -29325.958111996428, -60730.15907170285, -72027.73654791553, -29543.70880648003, -187500.02235174447, -51101.09461558994, -35201.807046152004, -0.022, 1.008, 0.092, 192.0, 0.0, 0.0, 0.0, 0.0, 0.0, 0.0, 0.0, 0.0, 0.0, 1.69533727692837E9, 0.0, 2023-09-21 18:01:16.928
82.0, 32901.34315506735, 19934.85032735471, -62687.903665054284, -44767.437251500756, -27018.498124897258, -33511.32226125267, -187500.02235174447, -51979.87580059479, -31246.643513040963, -29306.981480953873, -60700.34184459947, -71998.52281791244, -29623.3927754632, -187500.02235174447, -51134.97986018418, -35238.82153496999, -0.02, 1.004, 0.092, 192.0, 127.5, 48.0, 15.5, 48.0, 1.0, 112.0, 0.0, 0.0, 0.0, 1.695337276928375E9, 0.0, 2023-09-21 18:01:16.928
84.0, 32937.888257251776, 19935.23030701045, -62704.51101118458, -44776.33324579397, -27037.228886750807, -33522.34167126914, -187500.02235174447, -51989.08471931038, -31257.193536423867, -29299.784219239264, -60715.65278955136, -72010.70451864059, -29554.974085685502, -187500.02235174447, -51089.67287417327, -35204.042220597534, -0.02, 1.004, 0.092, 192.0, 0.0, 0.0, 0.0, 0.0, 0.0, 0.0, 0.0, 0.0, 0.0, 1.695337276928381E9, 0.0, 2023-09-21 18:01:16.928
86.0, 32889.40732352821, 19939.007751823396, -62693.82687733494, -44768.44308000125, -27025.851848823055, -33515.747906654826, -187500.02235174447, -51979.071137794395, -31242.28492287218, -29303.80753324122, -60695.849143963955, -71993.96306204356, -29629.852429610783, -187500.02235174447, -51131.87296770489, -35239.49208730365, -0.02, 1.004, 0.092, 192.0, 0.0, 0.0, 0.0, 0.0, 0.0, 0.0, 0.0, 0.0, 0.0, 1.695337276928386E9, 0.0, 2023-09-21 18:01:16.928
88.0, 32942.31390265392, 19939.924173346066, -62706.567371674464, -44776.08737660496, -27030.657473880947, -33520.62058694608, -187500.02235174447, -51983.98852157456, -31255.04776895616, -29296.006774426318, -60712.903524983354, -72005.04952729339, -29559.779710743394, -187500.02235174447, -51092.04215908553, -35209.92072938928, -0.02, 1.004, 0.092, 192.0, 0.0, 0.0, 0.0, 0.0, 0.0, 0.0, 0.0, 0.0, 0.0, 1.695337276928392E9, 0.0, 2023-09-21 18:01:16.928
90.0, 32884.19936707013, 19943.634562925647, -62688.28364471003, -44763.07866133197, -27022.92377029941, -33512.28338626425, -187500.02235174447, -51976.16541101521, -31244.274228128703, -29307.56262630971, -60700.677120766304, -71999.1933702461, -29622.610464407262, -187500.02235174447, -51124.78746471256, -35232.65245350033, -0.02, 1.004, 0.092, 192.0, 0.0, 0.0, 0.0, 0.0, 0.0, 0.0, 0.0, 0.0, 0.0, 1.69533727698865E9, 0.0, 2023-09-21 18:01:16.988
92.0, 32945.86783002232, 19946.18266179355, -62697.2466942366, -44771.14764108034, -27020.621540620512, -33517.692508422435, -187500.02235174447, -51981.23925700656, -31242.88841997247, -29294.75507673682, -60708.075548181005, -72006.07770753834, -29573.70484753905, -187500.02235174447, -51085.001359582115, -35210.904206145315, -0.022, 1.006, 0.09, 192.0, 127.5, 40.0, 15.5, 56.0, 1.0, 104.0, 0.0, 0.0, 0.0, 1.695337276988666E9, 0.0, 2023-09-21 18:01:16.988
94.0, 32874.968096610086, 19949.580126950757, -62685.73554584212, -44755.970806595185, -27024.600151133556, -33501.21927275888, -187500.02235174447, -51962.4637916641, -31234.975902435293, -29291.245852857337, -60688.8753996939, -71985.82702706182, -29624.935045830614, -187500.02235174447, -51122.820511200494, -35233.814744212, -0.022, 1.006, 0.09, 192.0, 0.0, 0.0, 0.0, 0.0, 0.0, 0.0, 0.0, 0.0, 0.0, 1.695337276988672E9, 0.0, 2023-09-21 18:01:16.988
96.0, 32947.9241905122, 19953.268164785884, -62699.61597914887, -44766.49847823363, -27019.503953397747, -33513.04334557573, -187500.02235174447, -51977.730033127074, -31256.590039323575, -29289.74828597883, -60714.71401628423, -72006.81531510536, -29584.18781568859, -187500.02235174447, -51085.38133923785, -35207.260871799095, -0.022, 1.006, 0.09, 192.0, 0.0, 0.0, 0.0, 0.0, 0.0, 0.0, 0.0, 0.0, 0.0, 1.695337276988678E9, 0.0, 2023-09-21 18:01:16.988
98.0, 32869.782491896454, 19965.963955636496, -62672.682127080225, -44734.9601668072, -27018.386366174982, -33486.154196996, -187500.02235174447, -51950.550311869425, -31232.450155311843, -29283.981535909363, -60680.8734751789, -71974.71821006754, -29618.743612616494, -187500.02235174447, -51118.10429312042, -35221.320119061485, -0.022, 1.006, 0.09, 192.0, 0.0, 0.0, 0.0, 0.0, 0.0, 0.0, 0.0, 0.0, 0.0, 1.695337276988684E9, 0.0, 2023-09-21 18:01:16.988
100.0, 32943.83382127689, 19957.85027239922, -62693.96098780167, -44761.04465258654, -27007.88104628099, -33520.37471775708, -187500.02235174447, -51988.995312332554, -31234.730033246284, -29272.336277048147, -60692.89871369585, -71982.42956190462, -29591.80976054785, -187500.02235174447, -51090.2093160402, -35209.093714844435, -0.022, 1.006, 0.09, 192.0, 0.0, 0.0, 0.0, 0.0, 0.0, 0.0, 0.0, 0.0, 0.0, 1.69533727698869E9, 0.0, 2023-09-21 18:01:16.988
102.0, 32868.62020118478, 19947.836690883243, -62692.84340057891, -44753.7132804052, -27035.64191289448, -33498.49235993533, -187500.02235174447, -51967.0682510219, -31236.69698675835, -29288.18366386696, -60687.98132991569, -71980.99905025949, -29606.271339210434, -187500.02235174447, -51114.75153145213, -35211.2618340566, -0.022, 1.008, 0.09, 192.0, 127.5, 40.0, 15.5, 64.0, 1.0, 104.0, 0.0, 0.0, 0.0, 1.695337276988696E9, 0.0, 2023-09-21 18:01:16.988
104.0, 32943.78911778797, 19945.13212980415, -62705.74035712962, -44771.10293759143, -27023.01317727723, -33522.63224394706, -187500.02235174447, -51989.73291989958, -31266.603620839553, -29297.884320960562, -60722.33596114349, -72008.87167559525, -29600.348126929777, -187500.02235174447, -51098.94884812222, -35195.88383387135, -0.022, 1.008, 0.09, 192.0, 0.0, 0.0, 0.0, 0.0, 0.0, 0.0, 0.0, 0.0, 0.0, 1.695337277048974E9, 0.0, 2023-09-21 18:01:17.048
106.0, 32875.03515184345, 19940.61707742418, -62694.340967457414, -44754.67440541678, -27049.321180501127, -33504.907310594004, -187500.02235174447, -51976.00894880402, -31251.09151018757, -29303.204036140924, -60703.29227486757, -71995.32651845533, -29599.52111238493, -187500.02235174447, -51124.60865075692, -35200.44358974023, -0.022, 1.008, 0.09, 192.0, 0.0, 0.0, 0.0, 0.0, 0.0, 0.0, 0.0, 0.0, 0.0, 1.695337277048991E9, 0.0, 2023-09-21 18:01:17.048
108.0, 32934.17786767219, 19946.227365282462, -62690.6976331112, -44756.395489739836, -27013.513685883725, -33505.98019432786, -187500.02235174447, -51976.81361160441, -31252.38791136598, -29292.02816391327, -60705.34863535746, -71993.22545447653, -29613.33449045831, -187500.02235174447, -51116.76318845311, -35209.27252880007, -0.022, 1.008, 0.09, 192.0, 0.0, 0.0, 0.0, 0.0, 0.0, 0.0, 0.0, 0.0, 0.0, 1.695337277049009E9, 0.0, 2023-09-21 18:01:17.049
110.0, 32876.06333208839, 19945.221536781974, -62691.36818544486, -44750.449925714725, -27044.02381706522, -33494.02201104427, -187500.02235174447, -51960.116858496294, -31241.167335649414, -29289.971803423385, -60687.51194328212, -71980.61907060375, -29590.80393204736, -187500.02235174447, -51110.6164587279, -35197.001421094115, -0.022, 1.008, 0.09, 192.0, 0.0, 0.0, 0.0, 0.0, 0.0, 0.0, 0.0, 0.0, 0.0, 1.695337277049014E9, 0.0, 2023-09-21 18:01:17.049
112.0, 32931.80858275993, 19943.791025136834, -62704.10867978438, -44770.43238525777, -27021.672072609912, -33523.861589892105, -187500.02235174447, -51993.51036471252, -31258.065254457626, -29301.95233845143, -60706.93560921379, -71996.24293997801, -29624.130383030224, -187500.02235174447, -51109.118891849386, -35202.723467674674, -0.02, 1.01, 0.08600000000000001, 192.0, 127.5, 48.0, 15.5, 72.0, 1.0, 88.0, 0.0, 0.0, 0.0, 1.695337277049019E9, 0.0, 2023-09-21 18:01:17.049
114.0, 32881.40539901321, 19952.485853729948, -62691.614054633865, -44748.12534429137, -27049.34353224558, -33504.415572215985, -187500.02235174447, -51973.43849819166, -31257.215888168324, -29308.90373097703, -60701.034748677586, -71994.27598646593, -29583.80783603285, -187500.02235174447, -51103.32979003547, -35182.808063364995, -0.02, 1.01, 0.08600000000000001, 192.0, 0.0, 0.0, 0.0, 0.0, 0.0, 0.0, 0.0, 0.0, 0.0, 1.695337277049024E9, 0.0, 2023-09-21 18:01:17.049
116.0, 32919.828047731884, 19944.305115259303, -62701.046490794004, -44770.7676614246, -27018.855752808544, -33526.00735735981, -187500.02235174447, -51983.18385877417, -31242.575495550096, -29294.486855803356, -60690.3729665724, -71983.3459834273, -29637.42967098113, -187500.02235174447, -51118.39486579834, -35207.59614796593, -0.02, 1.01, 0.08600000000000001, 192.0, 0.0, 0.0, 0.0, 0.0, 0.0, 0.0, 0.0, 0.0, 0.0, 1.695337277049029E9, 0.0, 2023-09-21 18:01:17.049
118.0, 32889.67554446167, 19954.877490386665, -62694.98916804662, -44753.84739087193, -27056.11611081554, -33504.66144140499, -187500.02235174447, -51979.02643430549, -31263.85435627155, -29314.402260113035, -60710.24366739317, -72005.3400999713, -29574.46480685053, -187500.02235174447, -51099.10531033341, -35169.10644401389, -0.02, 1.01, 0.08600000000000001, 192.0, 0.0, 0.0, 0.0, 0.0, 0.0, 0.0, 0.0, 0.0, 0.0, 1.695337277049035E9, 0.0, 2023-09-21 18:01:17.049
120.0, 32896.73869570955, 19980.269072087893, -62658.39936237328, -44726.22063472517, -26993.777095529687, -33478.93458353694, -187500.02235174447, -51946.81757054539, -31222.347166818046, -29275.443169527432, -60664.44494300425, -71960.23427966051, -29644.693987929106, -187500.02235174447, -51130.82243571549, -35214.748706191625, -0.02, 1.01, 0.08600000000000001, 192.0, 0.0, 0.0, 0.0, 0.0, 0.0, 0.0, 0.0, 0.0, 0.0, 1.695337277109168E9, 0.0, 2023-09-21 18:01:17.109
122.0, 32890.189634584145, 19969.316717304795, -62677.19717946019, -44737.575320908465, -27025.047186022664, -33493.440865688426, -187500.02235174447, -51961.70383235262, -31230.259684355224, -29269.855233413607, -60673.81032393102, -71965.4869396075, -29568.74276026997, -187500.02235174447, -51078.4075949678, -35183.29980174301, -0.022, 1.012, 0.08600000000000001, 192.0, 127.5, 40.0, 15.5, 80.0, 1.0, 88.0, 0.0, 0.0, 0.0, 1.695337277109182E9, 0.0, 2023-09-21 18:01:17.109
124.0, 32896.64928873173, 19962.119455590186, -62680.05820275047, -44748.23710301365, -27004.461229379325, -33504.549682682715, -187500.02235174447, -51971.38213770177, -31233.679501256884, -29279.98057365186, -60674.72674545369, -71966.31395415234, -29645.163374562668, -187500.02235174447, -51107.12958659287, -35216.73801144815, -0.022, 1.012, 0.08600000000000001, 192.0, 0.0, 0.0, 0.0, 0.0, 0.0, 0.0, 0.0, 0.0, 0.0, 1.695337277109188E9, 0.0, 2023-09-21 18:01:17.109
126.0, 32908.56276852641, 19968.735571948957, -62683.25450220758, -44741.10689653241, -27031.529191914702, -33490.24456623132, -187500.02235174447, -51962.843771319844, -31254.04194045567, -29289.390658067547, -60695.73738524168, -71985.67056485065, -29567.42400734711, -187500.02235174447, -51071.76912686457, -35170.4028451923, -0.022, 1.012, 0.08600000000000001, 192.0, 0.0, 0.0, 0.0, 0.0, 0.0, 0.0, 0.0, 0.0, 0.0, 1.695337277109193E9, 0.0, 2023-09-21 18:01:17.109
128.0, 32896.85045443183, 19956.777388665367, -62689.78121158853, -44756.84252462894, -27013.804258561642, -33510.428191474464, -187500.02235174447, -51984.27909425248, -31246.084719429582, -29288.764809222797, -60682.281635079584, -71972.30422166637, -29647.353845519287, -187500.02235174447, -51112.1140256064, -35204.24338629763, -0.022, 1.012, 0.08600000000000001, 192.0, 0.0, 0.0, 0.0, 0.0, 0.0, 0.0, 0.0, 0.0, 0.0, 1.695337277109198E9, 0.0, 2023-09-21 18:01:17.109
130.0, 32917.74933549754, 19972.691830717544, -62676.14664747079, -44740.74926862112, -27015.659453351433, -33488.2552609748, -187500.02235174447, -51956.09354449434, -31243.000178694747, -29288.384829567058, -60687.601350259945, -71982.58602411581, -29573.03429520539, -187500.02235174447, -51076.328882733455, -35169.53112715854, -0.022, 1.012, 0.08600000000000001, 192.0, 0.0, 0.0, 0.0, 0.0, 0.0, 0.0, 0.0, 0.0, 0.0, 1.695337277109203E9, 0.0, 2023-09-21 18:01:17.109
132.0, 32892.89419566324, 19932.034007553342, -62714.770461889566, -44791.688894234765, -27025.315406956128, -33546.25803783632, -187500.02235174447, -52012.10701609934, -31242.307274616633, -29295.85031221513, -60687.109611881926, -71982.72013458255, -29646.48212748553, -187500.02235174447, -51110.45999651671, -35206.25504329861, -0.024, 1.008, 0.092, 192.0, 127.5, 32.0, 15.5, 64.0, 1.0, 112.0, 0.0, 0.0, 0.0, 1.695337277109209E9, 0.0, 2023-09-21 18:01:17.109
134.0, 32918.6210535313, 19964.958127136008, -62688.86479006586, -44745.063155300995, -27029.897514569464, -33493.73143836635, -187500.02235174447, -51960.47448640758, -31276.706609333352, -29318.671443303996, -60720.190193675786, -72015.8007163764, -29576.118835940226, -187500.02235174447, -51089.49406021763, -35168.92763005825, -0.024, 1.008, 0.092, 192.0, 0.0, 0.0, 0.0, 0.0, 0.0, 0.0, 0.0, 0.0, 0.0, 1.69533727716867E9, 0.0, 2023-09-21 18:01:17.168
136.0, 32872.732922164556, 19953.93871711954, -62695.950293058195, -44761.44698398674, -27017.335834185582, -33510.919929852476, -187500.02235174447, -51971.180972001675, -31233.23246636778, -29284.585033009655, -60671.4186872743, -71966.7833407859, -29657.233316568534, -187500.02235174447, -51127.715543236205, -35220.64956672783, -0.024, 1.008, 0.092, 192.0, 0.0, 0.0, 0.0, 0.0, 0.0, 0.0, 0.0, 0.0, 0.0, 1.695337277168687E9, 0.0, 2023-09-21 18:01:17.168
138.0, 32936.547152584455, 19946.741455404932, -62718.972589847166, -44780.33420805147, -27035.127822772007, -33526.521447482286, -187500.02235174447, -51994.42678623519, -31270.515176119232, -29302.42172508499, -60713.48467033919, -72006.5470941719, -29590.066324480336, -187500.02235174447, -51081.96152233619, -35179.32119122997, -0.024, 1.008, 0.092, 192.0, 0.0, 0.0, 0.0, 0.0, 0.0, 0.0, 0.0, 0.0, 0.0, 1.695337277168693E9, 0.0, 2023-09-21 18:01:17.168
140.0, 32871.88355587525, 19949.781292650856, -62699.05718553749, -44764.53152472157, -27041.34160773058, -33514.58561594315, -187500.02235174447, -51984.83788786386, -31260.769815536718, -29317.866780503606, -60695.75973698613, -71996.08647776682, -29654.774624678448, -187500.02235174447, -51135.605709028925, -35209.25017705562, -0.024, 1.008, 0.092, 192.0, 0.0, 0.0, 0.0, 0.0, 0.0, 0.0, 0.0, 0.0, 0.0, 1.695337277168699E9, 0.0, 2023-09-21 18:01:17.168
142.0, 32934.66960605021, 19960.04074335584, -62697.60432214789, -44761.916370620296, -27023.48256391079, -33512.88688336455, -187500.02235174447, -51975.74072787056, -31255.338341634077, -29295.202111625924, -60696.139716641876, -71993.2925097099, -29604.796124076383, -187500.02235174447, -51101.63105745686, -35195.459150726696, -0.03, 1.006, 0.08600000000000001, 192.0, 127.5, 8.0, 15.5, 56.0, 1.0, 88.0, 0.0, 0.0, 0.0, 1.695337277168706E9, 0.0, 2023-09-21 18:01:17.168
144.0, 32863.03226507095, 19957.202071810018, -62695.27974072454, -44755.121440305884, -27032.803241348654, -33512.14927579752, -187500.02235174447, -51979.495820939046, -31249.191611908867, -29294.57626278118, -60680.06881237851, -71979.56853861435, -29642.52586871694, -187500.02235174447, -51124.16161586781, -35217.49797075963, -0.03, 1.006, 0.08600000000000001, 192.0, 0.0, 0.0, 0.0, 0.0, 0.0, 0.0, 0.0, 0.0, 0.0, 1.695337277168712E9, 0.0, 2023-09-21 18:01:17.168
146.0, 32942.962103243124, 19949.60247869521, -62720.2019357922, -44778.79193768406, -27023.773136588712, -33536.02093887579, -187500.02235174447, -51995.924353113696, -31265.798958039162, -29291.402315068524, -60704.99100744617, -71998.79103884591, -29593.62025184873, -187500.02235174447, -51090.99162709613, -35191.07820881346, -0.03, 1.006, 0.08600000000000001, 192.0, 0.0, 0.0, 0.0, 0.0, 0.0, 0.0, 0.0, 0.0, 0.0, 1.695337277168717E9, 0.0, 2023-09-21 18:01:17.168
148.0, 32870.050712829914, 19947.076731571764, -62706.54501993001, -44764.2633037881, -27041.54277343068, -33522.40872650251, -187500.02235174447, -51987.27422800949, -31270.626934841508, -29313.128210679082, -60702.26409462263, -71997.80756208987, -29619.615330650253, -187500.02235174447, -51120.80885419952, -35199.75068566212, -0.03, 1.006, 0.08600000000000001, 192.0, 0.0, 0.0, 0.0, 0.0, 0.0, 0.0, 0.0, 0.0, 0.0, 1.695337277168723E9, 0.0, 2023-09-21 18:01:17.168
150.0, 32944.90670501074, 19946.495586215926, -62716.96093284619, -44776.936742894264, -27025.78479358969, -33530.58946497315, -187500.02235174447, -52000.01472234902, -31271.163376708435, -29314.71518453541, -60717.798557019065, -72013.14085878621, -29609.959377045558, -187500.02235174447, -51096.28899053204, -35189.89356635733, -0.03, 1.006, 0.08600000000000001, 192.0, 0.0, 0.0, 0.0, 0.0, 0.0, 0.0, 0.0, 0.0, 0.0, 1.69533727722844E9, 0.0, 2023-09-21 18:01:17.228
152.0, 32862.56287843739, 19972.110685361706, -62678.6947463387, -44735.02722204056, -27025.58362788959, -33491.78683659874, -187500.02235174447, -51963.49197190905, -31234.193591379357, -29295.55973953721, -60672.849198919444, -71976.61810834624, -29631.01472032246, -187500.02235174447, -51123.58047051197, -35208.378459021864, -0.028, 1.002, 0.09, 192.0, 127.5, 16.0, 15.5, 40.0, 1.0, 104.0, 0.0, 0.0, 0.0, 1.695337277228454E9, 0.0, 2023-09-21 18:01:17.228
154.0, 32938.00001597405, 19966.612156225703, -62702.56640941697, -44762.18459155376, -27009.892703281967, -33519.234778789854, -187500.02235174447, -51988.48122221008, -31239.55801004863, -29281.925175419474, -60686.93079792629, -71984.06123924986, -29631.126479044735, -187500.02235174447, -51090.231667784654, -35208.57962472196, -0.028, 1.002, 0.09, 192.0, 0.0, 0.0, 0.0, 0.0, 0.0, 0.0, 0.0, 0.0, 0.0, 1.69533727722846E9, 0.0, 2023-09-21 18:01:17.228
156.0, 32882.63474495825, 19953.71519967499, -62709.83072636494, -44762.49751597614, -27053.635067181, -33521.626415446575, -187500.02235174447, -51986.58132393138, -31253.594905566562, -29305.640376286552, -60697.50317305365, -71995.23711147752, -29614.966167803548, -187500.02235174447, -51095.707845176206, -35194.09569431492, -0.028, 1.002, 0.09, 192.0, 0.0, 0.0, 0.0, 0.0, 0.0, 0.0, 0.0, 0.0, 0.0, 1.695337277228466E9, 0.0, 2023-09-21 18:01:17.228
158.0, 32940.34694914186, 19959.370191022183, -62714.479889211645, -44770.5664957245, -27027.528229657204, -33530.142430084044, -187500.02235174447, -51993.21979203461, -31262.557955093143, -29312.636472301063, -60710.91421972683, -72007.6423296502, -29637.67554017014, -187500.02235174447, -51101.74281617914, -35198.11900831688, -0.028, 1.002, 0.09, 192.0, 0.0, 0.0, 0.0, 0.0, 0.0, 0.0, 0.0, 0.0, 0.0, 1.695337277228471E9, 0.0, 2023-09-21 18:01:17.228
160.0, 32883.908794392206, 19963.14763583513, -62709.11547054237, -44754.7638123946, -27055.803186393165, -33518.87715087857, -187500.02235174447, -51992.45983272312, -31252.00793171024, -29301.728821006876, -60697.10084165345, -71994.70066961058, -29614.921464314637, -187500.02235174447, -51104.82735691397, -35186.74197038913, -0.028, 1.002, 0.09, 192.0, 0.0, 0.0, 0.0, 0.0, 0.0, 0.0, 0.0, 0.0, 0.0, 1.695337277228476E9, 0.0, 2023-09-21 18:01:17.228
162.0, 32935.22839966159, 19957.67145844358, -62711.618865921366, -44773.47222250369, -27024.44368892237, -33538.01024413231, -187500.02235174447, -51994.22562053509, -31238.149850147947, -29285.166178365493, -60686.46141129272, -71984.17299797214, -29664.743502705518, -187500.02235174447, -51115.95852565271, -35210.613633467394, -0.02, 1.008, 0.09, 192.0, 127.5, 48.0, 15.5, 64.0, 1.0, 104.0, 0.0, 0.0, 0.0, 1.695337277228482E9, 0.0, 2023-09-21 18:01:17.228
164.0, 32895.79992244243, 19960.420723011583, -62705.2039152627, -44754.205018783214, -27062.821634152133, -33519.32418576768, -187500.02235174447, -51989.08471931038, -31263.206155682346, -29316.07864094718, -60710.333074370996, -72009.18460001763, -29602.91857754214, -187500.02235174447, -51093.606781197406, -35175.99078130612, -0.02, 1.008, 0.09, 192.0, 0.0, 0.0, 0.0, 0.0, 0.0, 0.0, 0.0, 0.0, 0.0, 1.695337277288746E9, 0.0, 2023-09-21 18:01:17.288
166.0, 32920.878579721284, 19959.124321833173, -62703.438127450725, -44765.38089101087, -27017.87227605251, -33531.483534751365, -187500.02235174447, -51985.977826831084, -31237.859277470026, -29290.6647075015, -60686.21554210372, -71982.51896888245, -29661.63661022623, -187500.02235174447, -51113.1645575958, -35218.50379926012, -0.02, 1.008, 0.09, 192.0, 0.0, 0.0, 0.0, 0.0, 0.0, 0.0, 0.0, 0.0, 0.0, 1.695337277288767E9, 0.0, 2023-09-21 18:01:17.288
168.0, 32900.337326566856, 19964.578147480268, -62703.16990651726, -44751.209885026205, -27051.06461656864, -33513.848008376124, -187500.02235174447, -51980.90398083973, -31263.4296731269, -29307.339108865155, -60708.433176092294, -72004.96012031558, -29583.42785637711, -187500.02235174447, -51088.44352822823, -35183.94800233221, -0.02, 1.008, 0.09, 192.0, 0.0, 0.0, 0.0, 0.0, 0.0, 0.0, 0.0, 0.0, 0.0, 1.695337277288774E9, 0.0, 2023-09-21 18:01:17.288
170.0, 32911.9155301947, 19976.178702852572, -62688.70832785468, -44742.537408177544, -27017.91697954142, -33501.48749369234, -187500.02235174447, -51960.94387304114, -31236.786393736173, -29288.98832666735, -60679.688832722764, -71976.05931473486, -29655.44517701211, -187500.02235174447, -51115.28797331906, -35220.314290561, -0.02, 1.008, 0.09, 192.0, 0.0, 0.0, 0.0, 0.0, 0.0, 0.0, 0.0, 0.0, 0.0, 1.69533727728878E9, 0.0, 2023-09-21 18:01:17.288
172.0, 32913.52485579549, 19970.411952783103, -62706.83559260793, -44755.79199263954, -27050.81874737963, -33516.373755499575, -187500.02235174447, -51984.61437041931, -31249.795109009163, -29285.210881854404, -60690.93176018379, -71986.63168986222, -29583.89724301067, -187500.02235174447, -51082.11798454738, -35186.719618644674, -0.028, 1.012, 0.09, 192.0, 127.5, 16.0, 15.5, 80.0, 1.0, 104.0, 0.0, 0.0, 0.0, 1.695337277288786E9, 0.0, 2023-09-21 18:01:17.288
174.0, 32908.60747201532, 19958.006734610408, -62708.73549088663, -44773.80749867052, -27033.674959382413, -33526.25322654882, -187500.02235174447, -51990.314065255414, -31239.08862341507, -29291.737591235353, -60685.567341514514, -71987.97279452953, -29663.022418382458, -187500.02235174447, -51122.954621667224, -35221.253063828124, -0.028, 1.012, 0.09, 192.0, 0.0, 0.0, 0.0, 0.0, 0.0, 0.0, 0.0, 0.0, 0.0, 1.695337277288793E9, 0.0, 2023-09-21 18:01:17.288
176.0, 32921.70559426613, 19967.14859809263, -62694.43037443524, -44750.315815247995, -27046.191936277384, -33504.72849663836, -187500.02235174447, -51972.23150399107, -31251.113861932026, -29300.03008842827, -60701.370024844415, -72004.55778891538, -29583.629022077206, -187500.02235174447, -51089.11408056189, -35179.18708076323, -0.028, 1.012, 0.09, 192.0, 0.0, 0.0, 0.0, 0.0, 0.0, 0.0, 0.0, 0.0, 0.0, 1.695337277288799E9, 0.0, 2023-09-21 18:01:17.288
178.0, 32894.79409394194, 19958.90080438862, -62679.231188205624, -44745.30902449, -27019.369842931017, -33497.978269812855, -187500.02235174447, -51962.37438468628, -31227.398661064944, -29281.813416697198, -60674.39146928686, -71977.33336416881, -29661.21192708158, -187500.02235174447, -51124.04985714553, -35219.643738227336, -0.028, 1.012, 0.09, 192.0, 0.0, 0.0, 0.0, 0.0, 0.0, 0.0, 0.0, 0.0, 0.0, 1.695337277288806E9, 0.0, 2023-09-21 18:01:17.288
180.0, 32935.69778629515, 19954.34104851974, -62686.40609817578, -44746.113687290395, -27035.552505916658, -33499.788761113734, -187500.02235174447, -51966.77767834398, -31246.554106063144, -29277.4101230395, -60698.17372538731, -71996.28764346692, -29579.739818541984, -187500.02235174447, -51076.15006877781, -35184.66325815478, -0.028, 1.012, 0.09, 192.0, 0.0, 0.0, 0.0, 0.0, 0.0, 0.0, 0.0, 0.0, 0.0, 1.69533727734902E9, 0.0, 2023-09-21 18:01:17.349
182.0, 32896.17990209817, 19941.935830347044, -62673.19621720269, -44746.9630535797, -27023.571970888614, -33507.47776120636, -187500.02235174447, -51972.52207666899, -31236.76404199172, -29286.574338266175, -60688.6742339938, -71987.995146274, -29650.05840659838, -187500.02235174447, -51118.37251405389, -35219.86725567189, -0.028, 1.008, 0.088, 192.0, 127.5, 16.0, 15.5, 64.0, 1.0, 96.0, 0.0, 0.0, 0.0, 1.695337277349035E9, 0.0, 2023-09-21 18:01:17.349
184.0, 32951.05343473595, 19943.165176292085, -62671.96687125765, -44739.698736631726, -27032.467965181826, -33499.185264013446, -187500.02235174447, -51971.158620257214, -31256.411225367934, -29289.99415516784, -60715.429272106805, -72014.12433554225, -29586.24417617848, -187500.02235174447, -51080.26278975759, -35186.27258375556, -0.028, 1.008, 0.088, 192.0, 0.0, 0.0, 0.0, 0.0, 0.0, 0.0, 0.0, 0.0, 0.0, 1.695337277349042E9, 0.0, 2023-09-21 18:01:17.349
186.0, 32896.85045443183, 19932.79396686482, -62650.4868448361, -44733.104972017405, -27013.737203328277, -33495.69839187842, -187500.02235174447, -51956.71939333909, -31225.118783130503, -29276.180777094458, -60681.096992623454, -71981.55784387086, -29656.29454330141, -187500.02235174447, -51121.54646176654, -35220.87308417238, -0.028, 1.008, 0.088, 192.0, 0.0, 0.0, 0.0, 0.0, 0.0, 0.0, 0.0, 0.0, 0.0, 1.695337277349048E9, 0.0, 2023-09-21 18:01:17.349
188.0, 32977.786121104495, 19905.748356073902, -62694.58683664642, -44773.38281552587, -27037.720625128823, -33545.1180988691, -187500.02235174447, -52003.322780528404, -31267.274173173213, -29294.822131970184, -60733.75770256016, -72028.27298978246, -29578.71163829704, -187500.02235174447, -51068.550475663, -35177.24247899562, -0.028, 1.008, 0.088, 192.0, 0.0, 0.0, 0.0, 0.0, 0.0, 0.0, 0.0, 0.0, 0.0, 1.695337277349053E9, 0.0, 2023-09-21 18:01:17.349
190.0, 32904.85237894683, 19921.439280681527, -62653.28081289301, -44728.12053300387, -27030.411604691937, -33504.77320012727, -187500.02235174447, -51964.40839343172, -31262.24503067077, -29308.009661198816, -60718.11148144144, -72015.8454198653, -29642.928200117138, -187500.02235174447, -51122.462883289205, -35201.58352870745, -0.028, 1.008, 0.088, 192.0, 0.0, 0.0, 0.0, 0.0, 0.0, 0.0, 0.0, 0.0, 0.0, 1.695337277349059E9, 0.0, 2023-09-21 18:01:17.349
192.0, 32982.59174616238, 19915.739585845422, -62665.30605140997, -44740.68221338776, -27006.785810802678, -33519.05596483421, -187500.02235174447, -51970.35395745683, -31244.855373484537, -29278.50535851781, -60715.563382573535, -72009.8998558402, -29608.215940978047, -187500.02235174447, -51084.35315899291, -35190.29589775752, -0.022, 1.006, 0.092, 192.0, 127.5, 40.0, 15.5, 56.0, 1.0, 112.0, 0.0, 0.0, 0.0, 1.695337277349065E9, 0.0, 2023-09-21 18:01:17.349
194.0, 32914.12835289578, 19922.08748127073, -62644.51892906654, -44713.86012004139, -27009.24450269276, -33485.9530312959, -187500.02235174447, -51941.54255885394, -31231.354919833535, -29276.381942794556, -60691.53525728408, -71990.23032071952, -29641.363578005265, -187500.02235174447, -51110.95173489473, -35207.86436889939, -0.022, 1.006, 0.092, 192.0, 0.0, 0.0, 0.0, 0.0, 0.0, 0.0, 0.0, 0.0, 0.0, 1.695337277409285E9, 0.0, 2023-09-21 18:01:17.409
196.0, 32993.3876387343, 19920.61226613668, -62657.97467922863, -44731.4062394388, -26998.090982209564, -33498.67117389097, -187500.02235174447, -51955.7135648386, -31238.32866410359, -29266.59187872313, -60703.49344056767, -71997.87461732324, -29606.874836310726, -187500.02235174447, -51077.178249022756, -35195.72737166016, -0.022, 1.006, 0.092, 192.0, 0.0, 0.0, 0.0, 0.0, 0.0, 0.0, 0.0, 0.0, 0.0, 1.695337277409304E9, 0.0, 2023-09-21 18:01:17.409
198.0, 32926.064184434916, 19911.738623587924, -62653.25846114856, -44727.00294578111, -27019.705119097845, -33506.382525728055, -187500.02235174447, -51959.423954418184, -31243.71543451732, -29283.713314975896, -60701.28061786659, -71998.96985280154, -29618.3412812163, -187500.02235174447, -51100.222897556174, -35204.332793275455, -0.022, 1.006, 0.092, 192.0, 0.0, 0.0, 0.0, 0.0, 0.0, 0.0, 0.0, 0.0, 0.0, 1.695337277409311E9, 0.0, 2023-09-21 18:01:17.409
200.0, 33008.81034240846, 19915.806641078787, -62661.75212404157, -44740.726916876665, -26995.229958919284, -33515.63614793255, -187500.02235174447, -51972.16444875771, -31249.10220493105, -29282.863948686594, -60711.00362670465, -72004.75895461548, -29609.2888247119, -187500.02235174447, -51079.77105137957, -35201.40471475181, -0.022, 1.006, 0.092, 192.0, 0.0, 0.0, 0.0, 0.0, 0.0, 0.0, 0.0, 0.0, 0.0, 1.695337277409318E9, 0.0, 2023-09-21 18:01:17.409
202.0, 32943.94557999916, 19914.89021955612, -62655.91831873874, -44725.52773064706, -27023.594322633067, -33500.995755314325, -187500.02235174447, -51959.066326506894, -31244.341283362068, -29287.22253885538, -60701.25826612214, -71995.19240798861, -29597.33064142831, -187500.02235174447, -51091.997455596626, -35196.509682716096, -0.016, 1.004, 0.08600000000000001, 192.0, 127.5, 64.0, 15.5, 48.0, 1.0, 88.0, 0.0, 0.0, 0.0, 1.695337277409328E9, 0.0, 2023-09-21 18:01:17.409
204.0, 33011.78312442102, 19910.643388109613, -62671.609243346364, -44747.14186753534, -27008.752764314744, -33531.55058998473, -187500.02235174447, -51986.44721346465, -31259.629876569496, -29288.94362317844, -60719.07260645302, -72007.7987918614, -29605.71254559905, -187500.02235174447, -51083.14616479232, -35195.2579850266, -0.016, 1.004, 0.08600000000000001, 192.0, 0.0, 0.0, 0.0, 0.0, 0.0, 0.0, 0.0, 0.0, 0.0, 1.695337277409334E9, 0.0, 2023-09-21 18:01:17.409
206.0, 32945.13022245529, 19920.209934736486, -62654.26428964905, -44715.000059008606, -27028.265837224226, -33494.983136055846, -187500.02235174447, -51954.14894272673, -31253.639609055474, -29293.391620325045, -60705.415690590824, -71996.44410567809, -29596.391868161187, -187500.02235174447, -51094.0091125976, -35190.29589775752, -0.016, 1.004, 0.08600000000000001, 192.0, 0.0, 0.0, 0.0, 0.0, 0.0, 0.0, 0.0, 0.0, 0.0, 1.695337277409341E9, 0.0, 2023-09-21 18:01:17.409
208.0, 33008.966804619646, 19905.70365258499, -62677.68891783821, -44746.9630535797, -27001.53315085568, -33525.62737770407, -187500.02235174447, -51979.78639361697, -31255.874783501007, -29279.13120736256, -60709.483708081694, -71995.10300101078, -29636.133269802725, -187500.02235174447, -51086.610685182895, -35205.092752586934, -0.016, 1.004, 0.08600000000000001, 192.0, 0.0, 0.0, 0.0, 0.0, 0.0, 0.0, 0.0, 0.0, 0.0, 1.695337277409347E9, 0.0, 2023-09-21 18:01:17.409
210.0, 32958.831841806394, 19918.444146924514, -62657.39353387279, -44716.58703286493, -27031.48448842579, -33498.11238027959, -187500.02235174447, -51954.81949506039, -31272.727998820308, -29309.17195191049, -60725.64401932288, -72016.76184138797, -29593.32967917081, -187500.02235174447, -51083.9061241038, -35175.92372607276, -0.016, 1.004, 0.08600000000000001, 192.0, 0.0, 0.0, 0.0, 0.0, 0.0, 0.0, 0.0, 0.0, 0.0, 1.695337277469512E9, 0.0, 2023-09-21 18:01:17.469
212.0, 33005.50228422908, 19904.630768851133, -62675.25257769258, -44752.32747224897, -27002.404868889436, -33532.22114231839, -187500.02235174447, -51983.45207970763, -31242.262571127725, -29279.041800384737, -60697.167896886815, -71985.0447160059, -29639.53073495993, -187500.02235174447, -51095.88665913185, -35212.49118000164, -0.022, 1.01, 0.094, 192.0, 127.5, 40.0, 15.5, 72.0, 1.0, 120.0, 0.0, 0.0, 0.0, 1.695337277469526E9, 0.0, 2023-09-21 18:01:17.469
214.0, 32977.98728680459, 19904.921341529054, -62684.617958619354, -44746.29250124604, -27046.616619422035, -33526.05206084872, -187500.02235174447, -51982.28978899596, -31286.250804215768, -29315.117515935603, -60736.819891550535, -72028.00476884899, -29576.74468478497, -187500.02235174447, -51078.76522287908, -35174.44851093871, -0.022, 1.01, 0.094, 192.0, 0.0, 0.0, 0.0, 0.0, 0.0, 0.0, 0.0, 0.0, 0.0, 1.695337277469532E9, 0.0, 2023-09-21 18:01:17.469
216.0, 32995.98044109112, 19914.13026024464, -62669.463475878656, -44744.72787913417, -27003.656566578935, -33527.773145171785, -187500.02235174447, -51983.36267272982, -31261.99916148176, -29299.784219239264, -60715.16105117334, -72007.57527441684, -29645.990389107516, -187500.02235174447, -51108.5153947491, -35209.40663926681, -0.022, 1.01, 0.094, 192.0, 0.0, 0.0, 0.0, 0.0, 0.0, 0.0, 0.0, 0.0, 0.0, 1.695337277469537E9, 0.0, 2023-09-21 18:01:17.469
218.0, 32971.86290882384, 19936.66081865559, -62641.993181943086, -44703.46655886967, -27016.084136496087, -33474.777159068246, -187500.02235174447, -51931.596032571324, -31252.298504388156, -29288.384829567058, -60705.37098710192, -71996.10882951127, -29575.56004232884, -187500.02235174447, -51079.68164440175, -35185.84790061091, -0.022, 1.01, 0.094, 192.0, 0.0, 0.0, 0.0, 0.0, 0.0, 0.0, 0.0, 0.0, 0.0, 1.695337277469542E9, 0.0, 2023-09-21 18:01:17.469
220.0, 32982.65880139575, 19923.47328942696, -62665.08253396542, -44739.09523953143, -26996.235787419773, -33515.79261014373, -187500.02235174447, -51973.52790516948, -31236.875800713995, -29270.995172380826, -60686.260245592624, -71974.3829339007, -29645.521002473954, -187500.02235174447, -51091.79628989653, -35221.3648225504, -0.022, 1.01, 0.094, 192.0, 0.0, 0.0, 0.0, 0.0, 0.0, 0.0, 0.0, 0.0, 0.0, 1.695337277469548E9, 0.0, 2023-09-21 18:01:17.469
222.0, 32981.27299323952, 19933.24100175393, -62662.71324905315, -44724.74541959112, -27020.666244109423, -33497.03949654573, -187500.02235174447, -51962.41908817519, -31262.42384462641, -29288.138960378048, -60711.785937760586, -71998.94750105709, -29572.05081844936, -187500.02235174447, -51065.75650760609, -35182.29397324252, -0.024, 1.012, 0.08600000000000001, 192.0, 127.5, 32.0, 15.5, 80.0, 1.0, 88.0, 0.0, 0.0, 0.0, 1.695337277469553E9, 0.0, 2023-09-21 18:01:17.469
224.0, 32980.96006881715, 19897.142934458607, -62699.21364774867, -44774.12042309289, -27024.28722671118, -33551.13071812758, -187500.02235174447, -52006.42967300769, -31267.14006270648, -29307.428515842978, -60721.66540880984, -72012.6491204082, -29643.77756640644, -187500.02235174447, -51098.837089399945, -35209.45134275572, -0.024, 1.012, 0.08600000000000001, 192.0, 0.0, 0.0, 0.0, 0.0, 0.0, 0.0, 0.0, 0.0, 0.0, 1.695337277528889E9, 0.0, 2023-09-21 18:01:17.528
226.0, 32995.95808934666, 19917.147745746108, -62687.300167953996, -44750.60638792591, -27043.286209498194, -33529.85185740612, -187500.02235174447, -51990.112899555315, -31285.557900137654, -29323.253550917336, -60738.988010762696, -72028.36239676028, -29568.631001547696, -187500.02235174447, -51075.12188853287, -35168.77116784706, -0.024, 1.012, 0.08600000000000001, 192.0, 0.0, 0.0, 0.0, 0.0, 0.0, 0.0, 0.0, 0.0, 0.0, 1.695337277528909E9, 0.0, 2023-09-21 18:01:17.528
228.0, 32946.113699211324, 19942.584030936247, -62648.74340876859, -44715.69296308672, -26999.76736304371, -33491.80918834319, -187500.02235174447, -51952.629024103764, -31244.94478046236, -29296.051477915225, -60691.11057413943, -71985.42469566163, -29665.034075383435, -187500.02235174447, -51123.13343562287, -35217.94500564873, -0.024, 1.012, 0.08600000000000001, 192.0, 0.0, 0.0, 0.0, 0.0, 0.0, 0.0, 0.0, 0.0, 0.0, 1.695337277528916E9, 0.0, 2023-09-21 18:01:17.528
230.0, 32998.685002170205, 19922.55686790429, -62694.139801757316, -44755.814344384, -27032.87029658202, -33533.78576443026, -187500.02235174447, -51996.34903625835, -31270.22460344131, -29292.162274380004, -60718.26794365263, -72008.31288198386, -29589.194606446577, -187500.02235174447, -51063.878961071845, -35181.98104882015, -0.024, 1.012, 0.08600000000000001, 192.0, 0.0, 0.0, 0.0, 0.0, 0.0, 0.0, 0.0, 0.0, 0.0, 1.695337277528922E9, 0.0, 2023-09-21 18:01:17.528
232.0, 32936.48009735109, 19938.873641356666, -62661.21568217465, -44722.84552131242, -27016.508819640738, -33507.03072631726, -187500.02235174447, -51969.19166674515, -31259.495766102766, -29299.627757028076, -60696.09501315296, -71991.81729457586, -29665.883441672737, -187500.02235174447, -51115.66795297479, -35214.905168402816, -0.022, 1.012, 0.09, 192.0, 127.5, 40.0, 15.5, 80.0, 1.0, 104.0, 0.0, 0.0, 0.0, 1.695337277528937E9, 0.0, 2023-09-21 18:01:17.528
234.0, 32988.38084797631, 19949.356609506205, -62665.97660374363, -44723.51607364608, -27012.06082249413, -33501.755714625804, -187500.02235174447, -51970.599826645834, -31262.356789393045, -29282.6627829865, -60702.577019045, -71992.37608818723, -29596.168350716634, -187500.02235174447, -51066.82939133995, -35183.836243609934, -0.022, 1.012, 0.09, 192.0, 0.0, 0.0, 0.0, 0.0, 0.0, 0.0, 0.0, 0.0, 0.0, 1.695337277528943E9, 0.0, 2023-09-21 18:01:17.528
236.0, 32927.13706816877, 19927.206030750996, -62678.203007960685, -44740.39164070984, -27019.97334003131, -33513.7586013983, -187500.02235174447, -51976.210114504116, -31248.61046655303, -29284.69679173193, -60684.42740254729, -71975.92520426813, -29655.48988050102, -187500.02235174447, -51102.547478979526, -35213.67582245777, -0.022, 1.012, 0.09, 192.0, 0.0, 0.0, 0.0, 0.0, 0.0, 0.0, 0.0, 0.0, 0.0, 1.695337277528949E9, 0.0, 2023-09-21 18:01:17.528
238.0, 32994.05819106796, 19926.513126672882, -62687.03194702053, -44743.14090527784, -27021.627369121, -33516.73138341086, -187500.02235174447, -51973.90788482522, -31286.92135654943, -29307.18264665397, -60726.9851239902, -72015.1525157872, -29604.997289776482, -187500.02235174447, -51066.18119075074, -35173.46503418267, -0.022, 1.012, 0.09, 192.0, 0.0, 0.0, 0.0, 0.0, 0.0, 0.0, 0.0, 0.0, 0.0, 1.695337277528955E9, 0.0, 2023-09-21 18:01:17.528
240.0, 32919.492771565056, 19926.289609228326, -62674.492618381104, -44735.02722204056, -27031.48448842579, -33516.373755499575, -187500.02235174447, -51979.406413961224, -31264.189632438378, -29307.27205363179, -60697.43611782028, -71989.33625094131, -29655.82515666785, -187500.02235174447, -51108.09071160445, -35196.82260713847, -0.022, 1.012, 0.09, 192.0, 0.0, 0.0, 0.0, 0.0, 0.0, 0.0, 0.0, 0.0, 0.0, 1.695337277589548E9, 0.0, 2023-09-21 18:01:17.589
242.0, 32980.42362695022, 19951.61413569619, -62652.677315792724, -44714.24009969713, -27002.360165400525, -33488.56818539717, -187500.02235174447, -51949.56683511339, -31258.89226900247, -29291.447018557432, -60702.46526032272, -71995.79590508889, -29622.699871385084, -187500.02235174447, -51083.324978747965, -35187.479577956154, -0.022, 1.008, 0.09, 192.0, 127.5, 40.0, 15.5, 64.0, 1.0, 104.0, 0.0, 0.0, 0.0, 1.695337277589569E9, 0.0, 2023-09-21 18:01:17.589
