%OpenBCI Raw EXG Data
%Number of channels = 16
%Sample Rate = 125 Hz
%Board = OpenBCI_GUI$BoardCytonSerialDaisy
Sample Index, EXG Channel 0, EXG Channel 1, EXG Channel 2, EXG Channel 3, EXG Channel 4, EXG Channel 5, EXG Channel 6, EXG Channel 7, EXG Channel 8, EXG Channel 9, EXG Channel 10, EXG Channel 11, EXG Channel 12, EXG Channel 13, EXG Channel 14, EXG Channel 15, Accel Channel 0, Accel Channel 1, Accel Channel 2, Other, Other, Other, Other, Other, Other, Other, Analog Channel 0, Analog Channel 1, Analog Channel 2, Timestamp, Other, Timestamp (Formatted)
208.0, 17971.98718452301, 17043.696885549653, -33267.04004610062, -61714.50754577012, -187500.02235174447, 1898.780691478335, -187500.02235174447, -187500.02235174447, -45773.1539932673, 13692.477487621009, -4552.089220534471, -66134.47560482926, -9515.227021602037, -47715.31942073339, -4030.712429369978, 18367.6354131264, 0.0, 0.0, 0.0, 192.0, 0.0, 0.0, 0.0, 0.0, 0.0, 0.0, 0.0, 0.0, 0.0, 1.695418939143373E9, 0.0, 2023-09-22 16:42:19.143
210.0, 17957.994992493987, 17026.486042319066, -33281.278107318656, -61728.58914477696, -187500.02235174447, 1866.5941794626929, -187500.02235174447, -187500.02235174447, -45771.81288859998, 13692.544542854375, -4530.94447027975, -66139.39298860944, -9520.613792015767, -47720.125045791276, -4051.7454209024218, 18340.20982267974, 0.0, 0.0, 0.0, 192.0, 0.0, 0.0, 0.0, 0.0, 0.0, 0.0, 0.0, 0.0, 0.0, 1.695418939143384E9, 0.0, 2023-09-22 16:42:19.143
212.0, 17958.419675638637, 17025.413158585212, -33286.9554504103, -61729.30440059953, -187500.02235174447, 1910.2694881283628, -187500.02235174447, -187500.02235174447, -45789.515470208586, 13668.650528031652, -4537.717048849708, -66162.39293365394, -9537.399952101703, -47734.050182586936, -4051.834827880243, 18369.87058757193, 0.0, 0.0, 0.0, 192.0, 0.0, 0.0, 0.0, 0.0, 0.0, 0.0, 0.0, 0.0, 0.0, 1.695418939143388E9, 0.0, 2023-09-22 16:42:19.143
214.0, 17974.669393857646, 17042.4228361157, -33274.77374968216, -61700.9623886302, -187500.02235174447, 1854.4348304790058, -187500.02235174447, -187500.02235174447, -45768.884810076335, 13687.783621285394, -4513.84538577144, -66138.05188394211, -9528.392199086215, -47723.969545837586, -4062.2507407964163, 18350.558680362545, 0.0, 0.0, 0.0, 192.0, 0.0, 0.0, 0.0, 0.0, 0.0, 0.0, 0.0, 0.0, 0.0, 1.695418939143392E9, 0.0, 2023-09-22 16:42:19.143
216.0, 17973.55180663488, 17037.997190713548, -33265.676589688854, -61703.68930145375, -187500.02235174447, 1881.391034292106, -187500.02235174447, -187500.02235174447, -45761.396975683805, 13691.315196909332, -4566.170819541314, -66133.53683156215, -9515.919925680153, -47716.25819400051, -4036.5238829283576, 18335.828880766498, -0.035, 0.486, 0.138, 192.0, 126.5, 104.0, 15.0, 48.0, 4.0, 80.0, 0.0, 0.0, 0.0, 1.695418939143395E9, 0.0, 2023-09-22 16:42:19.143
218.0, 17974.75880083547, 17040.344123881358, -33277.47831076125, -61703.08580435345, -187500.02235174447, 1849.0704118097321, -187500.02235174447, -187500.02235174447, -45759.00533902709, 13691.203438187056, -4524.887147532362, -66133.69329377334, -9517.193975114105, -47709.37385670828, -4046.760981888888, 18342.44499712527, -0.035, 0.486, 0.138, 192.0, 0.0, 0.0, 0.0, 0.0, 0.0, 0.0, 0.0, 0.0, 0.0, 1.695418939143399E9, 0.0, 2023-09-22 16:42:19.143
220.0, 17971.361335678263, 17034.912649978716, -33268.403502512396, -61704.5163159986, -187500.02235174447, 1873.7914411773017, -187500.02235174447, -187500.02235174447, -45766.42611818625, 13686.1295921957, -4565.992005585672, -66139.52709907616, -9522.290172849915, -47712.48074918756, -4040.2119207634832, 18336.96881973372, -0.035, 0.486, 0.138, 192.0, 0.0, 0.0, 0.0, 0.0, 0.0, 0.0, 0.0, 0.0, 0.0, 1.695418939143402E9, 0.0, 2023-09-22 16:42:19.143
222.0, 17967.69564958759, 17030.554059809932, -33280.02640962916, -61705.85742066592, -187500.02235174447, 1853.6972229119806, -187500.02235174447, -187500.02235174447, -45764.07918501845, 13684.766135783928, -4530.743304579652, -66138.52127057569, -9524.860623462275, -47709.82089159738, -4042.447095209014, 18348.591726850478, -0.035, 0.486, 0.138, 192.0, 0.0, 0.0, 0.0, 0.0, 0.0, 0.0, 0.0, 0.0, 0.0, 1.695418939143405E9, 0.0, 2023-09-22 16:42:19.143
224.0, 17973.30593744587, 17034.08563543387, -33268.04587460111, -61707.444394522245, -187500.02235174447, 1891.9634094194664, -187500.02235174447, -187500.02235174447, -45770.29296997702, 13680.049917703858, -4561.544008439066, -66141.5164043327, -9530.560318298378, -47712.860728843305, -4040.0554585522964, 18341.19329943577, -0.035, 0.486, 0.138, 192.0, 0.0, 0.0, 0.0, 0.0, 0.0, 0.0, 0.0, 0.0, 0.0, 1.695418939143409E9, 0.0, 2023-09-22 16:42:19.143
0.0, 8942.843549590534, 8471.422907283653, -16642.907755721542, -30853.699845516665, -93750.01117587223, 934.5711391652989, -93750.01117587223, -93750.01117587223, -22883.55951113218, 6840.460817868808, -2255.0674980959297, -33071.328171649955, -4764.60960681553, -23857.44736879437, -2017.1331783691858, 9196.379386947083, -0.066, 0.972, 0.274, 192.0, 126.5, 120.0, 15.0, 48.0, 4.0, 72.0, 0.0, 0.0, 0.0, 1.695418939316107E9, 0.0, 2023-09-22 16:42:19.316
2.0, 17887.20701780403, 16945.30450645739, -33291.22463360127, -61699.66598745179, -187500.02235174447, 1829.1550075000534, -187500.02235174447, -187500.02235174447, -45797.02565634557, 13709.464813407043, -4749.052792674636, -66138.76713976469, -9463.683898888099, -47796.56801182843, -3973.201390886473, 18524.544659202656, -0.066, 0.972, 0.274, 192.0, 0.0, 0.0, 0.0, 0.0, 0.0, 0.0, 0.0, 0.0, 0.0, 1.695418939316118E9, 0.0, 2023-09-22 16:42:19.316
4.0, 17873.036011819364, 16931.602887106288, -33294.063305147094, -61709.12077535639, -187500.02235174447, 1868.069394596743, -187500.02235174447, -187500.02235174447, -45810.57081348549, 13697.014891745435, -4787.453089648854, -66150.39004688145, -9472.78105888141, -47798.780834529505, -3974.07310892023, 18509.345472973047, -0.066, 0.972, 0.274, 192.0, 0.0, 0.0, 0.0, 0.0, 0.0, 0.0, 0.0, 0.0, 0.0, 1.695418939316122E9, 0.0, 2023-09-22 16:42:19.316
6.0, 17865.01173555991, 16920.941105001104, -33315.74449726874, -61718.776728961086, -187500.02235174447, 1845.203560018964, -187500.02235174447, -187500.02235174447, -45816.09169436595, 13698.132478968202, -4750.080972919581, -66152.35700039352, -9479.955968851564, -47797.0821019509, -3984.26550439185, 18538.6262582095, -0.066, 0.972, 0.274, 192.0, 0.0, 0.0, 0.0, 0.0, 0.0, 0.0, 0.0, 0.0, 0.0, 1.695418939316125E9, 0.0, 2023-09-22 16:42:19.316
8.0, 17856.093389522244, 16911.799241518886, -33311.00592744421, -61730.019656422104, -187500.02235174447, 1842.878978595612, -187500.02235174447, -187500.02235174447, -45825.03239214807, 13675.691327535073, -4801.981723544804, -66165.45512264433, -9489.075480589328, -47824.217119719644, -3998.1459376985954, 18495.75561234422, -0.066, 0.972, 0.274, 192.0, 126.5, 120.0, 15.0, 48.0, 4.0, 72.0, 0.0, 0.0, 0.0, 1.695418939316128E9, 0.0, 2023-09-22 16:42:19.316
10.0, 17870.800837373834, 16927.087834726313, -33314.895130979436, -61719.58139176147, -187500.02235174447, 1800.075387963699, -187500.02235174447, -187500.02235174447, -45823.065438636004, 13688.029490474402, -4790.224705961312, -66162.63880284295, -9486.169753810138, -47824.82061681993, -3998.481213865425, 18508.294940983647, -0.066, 0.972, 0.274, 192.0, 0.0, 0.0, 0.0, 0.0, 0.0, 0.0, 0.0, 0.0, 0.0, 1.695418939316132E9, 0.0, 2023-09-22 16:42:19.316
12.0, 17848.20322372952, 16905.49604958249, -33310.558892555106, -61736.27814486959, -187500.02235174447, 1811.8324055471905, -187500.02235174447, -187500.02235174447, -45822.372534557886, 13685.839019517784, -4855.983538148826, -66158.88370977447, -9479.061899073351, -47825.87114880933, -3992.379187629126, 18449.196928643814, -0.066, 0.972, 0.274, 192.0, 0.0, 0.0, 0.0, 0.0, 0.0, 0.0, 0.0, 0.0, 0.0, 1.695418939316135E9, 0.0, 2023-09-22 16:42:19.316
14.0, 17851.39952318663, 16907.39594786119, -33318.91844498139, -61730.46669131121, -187500.02235174447, 1813.821710803713, -187500.02235174447, -187500.02235174447, -45839.426915577285, 13669.231673387489, -4797.243153720278, -66175.96044253831, -9487.667320688644, -47835.974137303136, -3992.714463795956, 18511.938275329863, -0.066, 0.972, 0.274, 192.0, 0.0, 0.0, 0.0, 0.0, 0.0, 0.0, 0.0, 0.0, 0.0, 1.695418939316138E9, 0.0, 2023-09-22 16:42:19.316
16.0, 17845.208089972508, 16904.11024142626, -33314.44809609033, -61734.64646752435, -187500.02235174447, 1812.4135509030284, -187500.02235174447, -187500.02235174447, -45832.34141258495, 13674.03729844538, -4830.659011680962, -66167.84675930104, -9484.649835187178, -47824.775913331025, -3998.190641187506, 18459.881062493452, -0.066, 0.972, 0.274, 192.0, 0.0, 0.0, 0.0, 0.0, 0.0, 0.0, 0.0, 0.0, 0.0, 1.695418939375935E9, 0.0, 2023-09-22 16:42:19.375
18.0, 17855.042857532844, 16913.453270608577, -33316.95149146933, -61727.67272325429, -187500.02235174447, 1818.202652716953, -187500.02235174447, -187500.02235174447, -45837.63877602086, 13674.797257756862, -4791.6552176064515, -66171.0207070137, -9483.398137497681, -47821.7360760851, -3991.127489939629, 18513.212324763816, -0.07200000000000001, 0.966, 0.268, 192.0, 126.5, 96.0, 15.0, 24.0, 4.0, 48.0, 0.0, 0.0, 0.0, 1.695418939375946E9, 0.0, 2023-09-22 16:42:19.375
20.0, 17834.680418334057, 16893.3367005988, -33316.012718202204, -61743.4754065842, -187500.02235174447, 1831.0102022898438, -187500.02235174447, -187500.02235174447, -45839.069287666, 13667.979975697992, -4807.748473614272, -66173.30058494814, -9482.481715975013, -47822.7866080745, -3996.961295242464, 18471.50396961021, -0.07200000000000001, 0.966, 0.268, 192.0, 0.0, 0.0, 0.0, 0.0, 0.0, 0.0, 0.0, 0.0, 0.0, 1.695418939375949E9, 0.0, 2023-09-22 16:42:19.375
22.0, 17852.718276109492, 16911.799241518886, -33314.73866876825, -61726.77865347608, -187500.02235174447, 1848.042231564788, -187500.02235174447, -187500.02235174447, -45845.55129355804, 13667.398830342154, -4770.979853985293, -66179.33555595107, -9486.706195677067, -47827.07814300992, -3991.127489939629, 18535.29584828566, -0.07200000000000001, 0.966, 0.268, 192.0, 0.0, 0.0, 0.0, 0.0, 0.0, 0.0, 0.0, 0.0, 0.0, 1.695418939375952E9, 0.0, 2023-09-22 16:42:19.375
24.0, 17843.39759867163, 16904.15494491517, -33308.79310474314, -61727.426854065285, -187500.02235174447, 1842.655461151059, -187500.02235174447, -187500.02235174447, -45834.6212905194, 13677.881798491693, -4782.870982035516, -66167.60089011204, -9481.051204329873, -47820.573785373424, -3997.7212545539446, 18492.3134436981, -0.07200000000000001, 0.966, 0.268, 192.0, 0.0, 0.0, 0.0, 0.0, 0.0, 0.0, 0.0, 0.0, 0.0, 1.695418939375956E9, 0.0, 2023-09-22 16:42:19.375
26.0, 17846.415084173095, 16909.96639847355, -33314.67161353488, -61718.6649702388, -187500.02235174447, 1877.9935691348994, -187500.02235174447, -187500.02235174447, -45849.03816569307, 13664.336641351778, -4753.6796037768845, -66181.9730617968, -9488.87431488923, -47829.961518044656, -3983.93022822502, 18556.01591539573, -0.07200000000000001, 0.966, 0.268, 192.0, 0.0, 0.0, 0.0, 0.0, 0.0, 0.0, 0.0, 0.0, 0.0, 1.695418939375959E9, 0.0, 2023-09-22 16:42:19.375
28.0, 17842.57058412678, 16907.4406513501, -33309.843636732534, -61723.31413308551, -187500.02235174447, 1858.592254947693, -187500.02235174447, -187500.02235174447, -45833.88368295237, 13686.107240451247, -4764.766069026718, -66161.83414004257, -9482.235846786005, -47825.37941043132, -3995.486080108414, 18512.65353115243, -0.076, 0.968, 0.274, 192.0, 126.5, 80.0, 15.0, 32.0, 4.0, 72.0, 0.0, 0.0, 0.0, 1.695418939375962E9, 0.0, 2023-09-22 16:42:19.375
30.0, 17859.222633745987, 16917.87891601073, -33299.83005521656, -61712.965275402705, -187500.02235174447, 1876.652464467581, -187500.02235174447, -187500.02235174447, -45841.14799990034, 13675.959548468536, -4754.864246233016, -66171.98183202527, -9479.330120006814, -47833.35898320186, -3978.945789211487, 18560.35215382006, -0.076, 0.968, 0.274, 192.0, 0.0, 0.0, 0.0, 0.0, 0.0, 0.0, 0.0, 0.0, 0.0, 1.695418939436197E9, 0.0, 2023-09-22 16:42:19.436
32.0, 17844.336371938753, 16902.277398380924, -33311.475314077776, -61728.38797907686, -187500.02235174447, 1853.7866298898018, -187500.02235174447, -187500.02235174447, -45834.2189591192, 13682.977996227502, -4749.768048497206, -66164.47164588829, -9476.044413571884, -47821.13257898481, -3986.5900858152017, 18516.162755031917, -0.076, 0.968, 0.274, 192.0, 0.0, 0.0, 0.0, 0.0, 0.0, 0.0, 0.0, 0.0, 0.0, 1.695418939436216E9, 0.0, 2023-09-22 16:42:19.436
34.0, 17843.77757832737, 16899.930465213118, -33317.71145078081, -61730.82431922249, -187500.02235174447, 1898.2889531003182, -187500.02235174447, -187500.02235174447, -45850.73689827167, 13662.526150050897, -4741.8778827044825, -66187.96332931082, -9490.595399212289, -47832.531968657015, -3985.070167192241, 18557.84875844106, -0.076, 0.968, 0.274, 192.0, 0.0, 0.0, 0.0, 0.0, 0.0, 0.0, 0.0, 0.0, 0.0, 1.695418939436219E9, 0.0, 2023-09-22 16:42:19.436
36.0, 17848.78436908536, 16905.71956702704, -33312.05645943361, -61727.583316276476, -187500.02235174447, 1850.74679264388, -187500.02235174447, -187500.02235174447, -45836.23061612018, 13683.715603794528, -4720.531966749664, -66169.34432617955, -9480.604169440767, -47821.89253829629, -3995.709597552967, 18527.271572026202, -0.076, 0.968, 0.274, 192.0, 0.0, 0.0, 0.0, 0.0, 0.0, 0.0, 0.0, 0.0, 0.0, 1.695418939436222E9, 0.0, 2023-09-22 16:42:19.436
38.0, 17844.67164810558, 16904.31140712636, -33309.2624913767, -61729.93024944428, -187500.02235174447, 1877.814755179257, -187500.02235174447, -187500.02235174447, -45848.88170348188, 13671.75742051094, -4742.74960073824, -66183.96236705332, -9488.941370122597, -47836.93526231471, -3983.6843590360118, 18543.118958845014, -0.07200000000000001, 0.97, 0.272, 192.0, 126.5, 96.0, 15.0, 40.0, 4.0, 64.0, 0.0, 0.0, 0.0, 1.695418939436226E9, 0.0, 2023-09-22 16:42:19.436
40.0, 17847.264450462397, 16907.82063100584, -33307.8096279871, -61725.14697613085, -187500.02235174447, 1828.8867865665898, -187500.02235174447, -187500.02235174447, -45835.00127017513, 13689.102374208258, -4728.355077309022, -66167.60089011204, -9478.21253278405, -47819.746770828584, -3987.2829898933164, 18514.352263731034, -0.07200000000000001, 0.97, 0.272, 192.0, 0.0, 0.0, 0.0, 0.0, 0.0, 0.0, 0.0, 0.0, 0.0, 1.695418939436229E9, 0.0, 2023-09-22 16:42:19.436
42.0, 17833.29461017783, 16889.96158718605, -33311.22944488877, -61740.927307716294, -187500.02235174447, 1880.0499296247876, -187500.02235174447, -187500.02235174447, -45848.34526161495, 13666.3259466083, -4756.60768230053, -66188.63388164448, -9484.851000887276, -47825.24529996458, -3978.7893270002996, 18519.783737633676, -0.07200000000000001, 0.97, 0.272, 192.0, 0.0, 0.0, 0.0, 0.0, 0.0, 0.0, 0.0, 0.0, 0.0, 1.695418939436232E9, 0.0, 2023-09-22 16:42:19.436
44.0, 17836.87088929068, 16896.62240703373, -33314.29163387914, -61730.24317386666, -187500.02235174447, 1849.0480600652768, -187500.02235174447, -187500.02235174447, -45843.74080225716, 13670.796295499362, -4708.484376488254, -66183.64944263095, -9485.052166587373, -47821.89253829629, -3992.8038707737774, 18526.757481903733, -0.07200000000000001, 0.97, 0.272, 192.0, 0.0, 0.0, 0.0, 0.0, 0.0, 0.0, 0.0, 0.0, 0.0, 1.695418939436235E9, 0.0, 2023-09-22 16:42:19.436
46.0, 17846.750360339924, 16905.898380982682, -33300.142979638935, -61728.83501396597, -187500.02235174447, 1877.5688859902486, -187500.02235174447, -187500.02235174447, -45838.59990103244, 13680.340490381777, -4751.936167709371, -66179.00027978425, -9480.179486296116, -47813.64474459228, -3981.8291642462214, 18518.509688199723, -0.07200000000000001, 0.97, 0.272, 192.0, 0.0, 0.0, 0.0, 0.0, 0.0, 0.0, 0.0, 0.0, 0.0, 1.695418939497947E9, 0.0, 2023-09-22 16:42:19.497
48.0, 17838.6590288471, 16898.76817450144, -33322.27120664969, -61735.76405474712, -187500.02235174447, 1865.6107027066594, -187500.02235174447, -187500.02235174447, -45847.42884009229, 13678.619406058719, -4702.3152950185895, -66185.19171299836, -9490.126012578728, -47823.457160408165, -3994.8825830081205, 18538.268630298215, -0.07, 0.976, 0.27, 192.0, 126.5, 104.0, 15.0, 64.0, 4.0, 56.0, 0.0, 0.0, 0.0, 1.695418939497958E9, 0.0, 2023-09-22 16:42:19.497
50.0, 17839.86602304769, 16901.316273369346, -33311.7658867557, -61727.851537209935, -187500.02235174447, 1900.2112031234747, -187500.02235174447, -187500.02235174447, -45856.36953787441, 13674.439629845576, -4723.057713873114, -66189.70676537833, -9496.630370215222, -47829.290965711, -3994.5696585857463, 18540.123825088005, -0.07, 0.976, 0.27, 192.0, 0.0, 0.0, 0.0, 0.0, 0.0, 0.0, 0.0, 0.0, 0.0, 1.695418939497962E9, 0.0, 2023-09-22 16:42:19.497
52.0, 17853.522938909882, 16912.514497341454, -33310.60359604402, -61716.69801672674, -187500.02235174447, 1850.7914961327906, -187500.02235174447, -187500.02235174447, -45829.569796272495, 13695.271455677923, -4699.878954872961, -66165.7680470667, -9475.239750771494, -47812.70597132516, -3987.55121082678, 18541.643743710967, -0.07, 0.976, 0.27, 192.0, 0.0, 0.0, 0.0, 0.0, 0.0, 0.0, 0.0, 0.0, 0.0, 1.695418939497965E9, 0.0, 2023-09-22 16:42:19.497
54.0, 17849.611383630203, 16909.362901373257, -33307.8096279871, -61725.59401101995, -187500.02235174447, 1875.1548975890755, -187500.02235174447, -187500.02235174447, -45837.5717207875, 13686.643682318174, -4746.862321718017, -66173.68056460388, -9481.967625852541, -47822.94307028569, -3983.2149724024503, 18510.28424624017, -0.07, 0.976, 0.27, 192.0, 0.0, 0.0, 0.0, 0.0, 0.0, 0.0, 0.0, 0.0, 0.0, 1.695418939497968E9, 0.0, 2023-09-22 16:42:19.497
56.0, 17872.276052507885, 16934.73213133003, -33305.0603634191, -61711.154784101825, -187500.02235174447, 1837.5816151597041, -187500.02235174447, -187500.02235174447, -45818.81860718949, 13710.180069229613, -4722.230699328268, -66150.07712245907, -9471.507009447458, -47809.263802679045, -3986.2771613928276, 18531.80897615063, -0.07, 0.976, 0.27, 192.0, 0.0, 0.0, 0.0, 0.0, 0.0, 0.0, 0.0, 0.0, 0.0, 1.695418939497972E9, 0.0, 2023-09-22 16:42:19.497
58.0, 17847.28680220685, 16911.776889774428, -33320.63952930445, -61738.91565071532, -187500.02235174447, 1877.0324441233213, -187500.02235174447, -187500.02235174447, -45832.1178951404, 13698.490106879486, -4757.65821428993, -66161.40945689792, -9485.476849732024, -47816.528119627015, -3981.9856264574087, 18502.37172870299, -0.066, 0.972, 0.272, 192.0, 126.5, 120.0, 15.0, 48.0, 4.0, 64.0, 0.0, 0.0, 0.0, 1.695418939497975E9, 0.0, 2023-09-22 16:42:19.497
60.0, 17860.87666283568, 16925.59026784781, -33325.0651747066, -61726.733949987174, -187500.02235174447, 1855.2618450238522, -187500.02235174447, -187500.02235174447, -45826.59701425994, 13697.908961523648, -4706.338609020545, -66157.58730859606, -9486.6391404437, -47819.34443942839, -3995.329617897227, 18548.170453091916, -0.066, 0.972, 0.272, 192.0, 0.0, 0.0, 0.0, 0.0, 0.0, 0.0, 0.0, 0.0, 0.0, 1.695418939556793E9, 0.0, 2023-09-22 16:42:19.556
62.0, 17852.941793554044, 16919.10826195577, -33313.978709456766, -61729.1702901328, -187500.02235174447, 1865.074260839732, -187500.02235174447, -187500.02235174447, -45817.119874610886, 13699.250066190967, -4743.442504816354, -66147.05963695761, -9485.275684031927, -47815.835215548905, -3994.5026033523804, 18499.778926346175, -0.066, 0.972, 0.272, 192.0, 0.0, 0.0, 0.0, 0.0, 0.0, 0.0, 0.0, 0.0, 0.0, 1.695418939556808E9, 0.0, 2023-09-22 16:42:19.556
64.0, 17860.273165735383, 16929.92650627214, -33320.863046749, -61720.81073770652, -187500.02235174447, 1867.0859178407095, -187500.02235174447, -187500.02235174447, -45815.42114203228, 13711.632932619206, -4700.236582784246, -66142.365770622, -9483.621654942233, -47807.76623580053, -3985.3830916146153, 18549.310392059135, -0.066, 0.972, 0.272, 192.0, 0.0, 0.0, 0.0, 0.0, 0.0, 0.0, 0.0, 0.0, 0.0, 1.695418939556812E9, 0.0, 2023-09-22 16:42:19.556
66.0, 17853.47823542097, 16922.3939683907, -33313.03993618965, -61721.12366212889, -187500.02235174447, 1860.067470081743, -187500.02235174447, -187500.02235174447, -45808.44739776223, 13710.80591807436, -4725.181129596368, -66138.0071804532, -9481.230018285516, -47809.040285234485, -3989.0487777052854, 18502.863467081006, -0.066, 0.972, 0.272, 192.0, 0.0, 0.0, 0.0, 0.0, 0.0, 0.0, 0.0, 0.0, 0.0, 1.695418939556815E9, 0.0, 2023-09-22 16:42:19.556
68.0, 17866.352840227228, 16937.79432032041, -33310.111857666, -61707.10911835541, -187500.02235174447, 1856.5358944578047, -187500.02235174447, -187500.02235174447, -45803.418255259785, 13719.120767011735, -4704.818690397584, -66132.86627922849, -9471.842285614286, -47799.29492465198, -3971.6367687746015, 18545.7788164352, -0.064, 0.968, 0.278, 192.0, 127.0, 0.0, 15.0, 32.0, 4.0, 88.0, 0.0, 0.0, 0.0, 1.695418939556818E9, 0.0, 2023-09-22 16:42:19.556
70.0, 17855.087561021755, 16924.942067258606, -33306.17795064187, -61713.00997889161, -187500.02235174447, 1843.0130890623439, -187500.02235174447, -187500.02235174447, -45793.136452810344, 13720.886554823705, -4748.292833363156, -66123.6573605129, -9470.814105369343, -47799.11611069633, -3978.7893270002996, 18480.399963903423, -0.064, 0.968, 0.278, 192.0, 0.0, 0.0, 0.0, 0.0, 0.0, 0.0, 0.0, 0.0, 0.0, 1.695418939556821E9, 0.0, 2023-09-22 16:42:19.556
72.0, 17861.72602912498, 16929.390064405212, -33315.18570365736, -61709.03136837857, -187500.02235174447, 1872.0927085986984, -187500.02235174447, -187500.02235174447, -45806.97218262818, 13706.402624416665, -4714.228774813268, -66139.72826477626, -9480.894742118686, -47808.906174767755, -3972.0614519192522, 18545.600002479554, -0.064, 0.968, 0.278, 192.0, 0.0, 0.0, 0.0, 0.0, 0.0, 0.0, 0.0, 0.0, 0.0, 1.695418939556825E9, 0.0, 2023-09-22 16:42:19.556
74.0, 17852.360648198206, 16921.030511978926, -33312.794067000636, -61716.78742370456, -187500.02235174447, 1853.6748711675252, -187500.02235174447, -187500.02235174447, -45793.427025488265, 13717.645551877684, -4729.450312787332, -66127.0101221812, -9475.955006594064, -47799.473738607616, -3987.5959143156906, 18497.163772244905, -0.064, 0.968, 0.278, 192.0, 0.0, 0.0, 0.0, 0.0, 0.0, 0.0, 0.0, 0.0, 0.0, 1.695418939556828E9, 0.0, 2023-09-22 16:42:19.556
76.0, 17865.950508827034, 16932.340494673314, -33312.68230827836, -61707.444394522245, -187500.02235174447, 1879.0888046132095, -187500.02235174447, -187500.02235174447, -45804.22291806018, 13712.683464608606, -4711.546565478631, -66136.7107792748, -9484.06868983134, -47802.55827934245, -3976.8000217437775, 18557.357020063046, -0.064, 0.968, 0.278, 192.0, 0.0, 0.0, 0.0, 0.0, 0.0, 0.0, 0.0, 0.0, 0.0, 1.695418939616251E9, 0.0, 2023-09-22 16:42:19.616
78.0, 17848.851424318724, 16914.54850608689, -33310.760058255204, -61718.8661359389, -187500.02235174447, 1853.0266705783215, -187500.02235174447, -187500.02235174447, -45789.29195276403, 13719.344284456289, -4727.058676130614, -66124.37261633547, -9471.194085025083, -47794.444596105175, -3983.617303802646, 18502.841115336552, -0.07, 0.964, 0.28400000000000003, 192.0, 126.5, 104.0, 15.0, 16.0, 4.0, 112.0, 0.0, 0.0, 0.0, 1.695418939616263E9, 0.0, 2023-09-22 16:42:19.616
80.0, 17852.159482498108, 16916.40370087668, -33316.97384321378, -61719.44728129474, -187500.02235174447, 1893.6621419980697, -187500.02235174447, -187500.02235174447, -45812.381304786366, 13691.09167946478, -4712.284173045656, -66153.74280854974, -9479.866561873741, -47814.09177948139, -3975.101289165174, 18560.28509858669, -0.07, 0.964, 0.28400000000000003, 192.0, 0.0, 0.0, 0.0, 0.0, 0.0, 0.0, 0.0, 0.0, 0.0, 1.695418939616266E9, 0.0, 2023-09-22 16:42:19.616
82.0, 17857.00981104491, 16920.896401512196, -33309.083677421055, -61712.965275402705, -187500.02235174447, 1848.8915978540897, -187500.02235174447, -187500.02235174447, -45788.73315915265, 13706.983769772503, -4713.26764980169, -66132.77687225066, -9470.92586409162, -47799.89842175227, -3988.8252602607326, 18517.52621144369, -0.07, 0.964, 0.28400000000000003, 192.0, 0.0, 0.0, 0.0, 0.0, 0.0, 0.0, 0.0, 0.0, 0.0, 1.695418939616269E9, 0.0, 2023-09-22 16:42:19.616
84.0, 17855.19931974403, 16918.102433455282, -33311.54236931114, -61722.35300807393, -187500.02235174447, 1863.6884526835029, -187500.02235174447, -187500.02235174447, -45790.61070568689, 13700.747633069472, -4754.79719099965, -66137.5154420752, -9472.199913525572, -47804.435825876695, -3970.809754229755, 18522.845926624053, -0.07, 0.964, 0.28400000000000003, 192.0, 0.0, 0.0, 0.0, 0.0, 0.0, 0.0, 0.0, 0.0, 0.0, 1.695418939616273E9, 0.0, 2023-09-22 16:42:19.616
86.0, 17845.85629056171, 16909.094680439794, -33324.14875318393, -61730.13141514438, -187500.02235174447, 1838.4086297045505, -187500.02235174447, -187500.02235174447, -45798.4114645018, 13697.506630123453, -4739.218025114301, -66142.87986074446, -9483.219323542038, -47811.85660503586, -3995.5978388306903, 18498.884856567962, -0.07, 0.964, 0.28400000000000003, 192.0, 0.0, 0.0, 0.0, 0.0, 0.0, 0.0, 0.0, 0.0, 0.0, 1.695418939616276E9, 0.0, 2023-09-22 16:42:19.616
88.0, 17856.562776155803, 16921.72341605704, -33308.033145431655, -61718.754377216625, -187500.02235174447, 1870.5951417201927, -187500.02235174447, -187500.02235174447, -45805.07228434948, 13689.035318974891, -4756.630034044985, -66148.73601779176, -9482.504067719468, -47817.779817316514, -3983.237324146906, 18527.159813303926, -0.07, 0.962, 0.28200000000000003, 192.0, 126.5, 104.0, 15.0, 8.0, 4.0, 104.0, 0.0, 0.0, 0.0, 1.695418939616279E9, 0.0, 2023-09-22 16:42:19.616
90.0, 17855.221671488485, 16918.772985788943, -33313.419915845385, -61721.905973184825, -187500.02235174447, 1834.4300191915058, -187500.02235174447, -187500.02235174447, -45787.99555158563, 13702.647531348173, -4736.2452431017455, -66133.46977632878, -9471.104678047262, -47808.906174767755, -3988.2888183938053, 18507.95966481682, -0.07, 0.962, 0.28200000000000003, 192.0, 0.0, 0.0, 0.0, 0.0, 0.0, 0.0, 0.0, 0.0, 0.0, 1.695418939676003E9, 0.0, 2023-09-22 16:42:19.676
92.0, 17851.39952318663, 16915.330817142825, -33315.92331122438, -61727.33744708746, -187500.02235174447, 1873.8361446662122, -187500.02235174447, -187500.02235174447, -45802.39007501484, 13688.141249196678, -4751.824408987094, -66148.04311371365, -9483.420489242137, -47820.35026792887, -3984.7348910254113, 18525.930467358885, -0.07, 0.962, 0.28200000000000003, 192.0, 0.0, 0.0, 0.0, 0.0, 0.0, 0.0, 0.0, 0.0, 0.0, 1.695418939676018E9, 0.0, 2023-09-22 16:42:19.676
94.0, 17853.835863332257, 16916.82838402133, -33322.69588979434, -61721.25777259562, -187500.02235174447, 1831.8148650902351, -187500.02235174447, -187500.02235174447, -45791.70594116521, 13699.1830109576, -4722.096588861536, -66140.9576107213, -9480.604169440767, -47807.94504975618, -4001.2751819223386, 18517.66032191042, -0.07, 0.962, 0.28200000000000003, 192.0, 0.0, 0.0, 0.0, 0.0, 0.0, 0.0, 0.0, 0.0, 0.0, 1.695418939676022E9, 0.0, 2023-09-22 16:42:19.676
96.0, 17848.58320338526, 16909.87699149573, -33313.419915845385, -61720.69897898424, -187500.02235174447, 1867.9352841300113, -187500.02235174447, -187500.02235174447, -45797.71856042368, 13690.3317201533, -4759.088725935069, -66148.02076196918, -9480.470058974035, -47813.82355854793, -3992.5132980958583, 18508.585513661565, -0.07, 0.962, 0.28200000000000003, 192.0, 0.0, 0.0, 0.0, 0.0, 0.0, 0.0, 0.0, 0.0, 0.0, 1.695418939676025E9, 0.0, 2023-09-22 16:42:19.676
98.0, 17848.314982451797, 16907.06067169436, -33323.67936655037, -61720.1178336284, -187500.02235174447, 1840.0850105386987, -187500.02235174447, -187500.02235174447, -45801.83128140346, 13685.816667773328, -4709.847832900028, -66153.00520098272, -9482.235846786005, -47812.21423294714, -3998.3471033986934, 18530.914906372418, -0.074, 0.968, 0.278, 192.0, 126.5, 88.0, 15.0, 32.0, 4.0, 88.0, 0.0, 0.0, 0.0, 1.695418939676028E9, 0.0, 2023-09-22 16:42:19.676
100.0, 17851.935965053555, 16913.006235719473, -33314.67161353488, -61725.10227264193, -187500.02235174447, 1866.2141998069526, -187500.02235174447, -187500.02235174447, -45794.52226096657, 13687.358938140744, -4760.2510166467455, -66149.94301199233, -9477.87725661722, -47810.716666068634, -3989.2722951498386, 18505.210400248816, -0.074, 0.968, 0.278, 192.0, 0.0, 0.0, 0.0, 0.0, 0.0, 0.0, 0.0, 0.0, 0.0, 1.695418939676031E9, 0.0, 2023-09-22 16:42:19.676
102.0, 17846.884470806657, 16908.044148450394, -33333.067099221604, -61736.30049661404, -187500.02235174447, 1854.9489206014778, -187500.02235174447, -187500.02235174447, -45793.58348769945, 13690.778755042405, -4714.161719579902, -66153.25107017173, -9481.386480496703, -47809.330857912406, -3997.6989028094895, 18533.842984896062, -0.074, 0.968, 0.278, 192.0, 0.0, 0.0, 0.0, 0.0, 0.0, 0.0, 0.0, 0.0, 0.0, 1.695418939676035E9, 0.0, 2023-09-22 16:42:19.676
104.0, 17848.314982451797, 16909.228790906523, -33317.04089844714, -61730.086711655465, -187500.02235174447, 1871.6456737095923, -187500.02235174447, -187500.02235174447, -45801.29483953653, 13681.927464238104, -4748.784571741173, -66158.07904697408, -9483.956931109064, -47821.199634218174, -3996.26839116435, 18516.14040328746, -0.074, 0.968, 0.278, 192.0, 0.0, 0.0, 0.0, 0.0, 0.0, 0.0, 0.0, 0.0, 0.0, 1.695418939676038E9, 0.0, 2023-09-22 16:42:19.676
106.0, 17856.942755811546, 16915.800203776384, -33323.902883994924, -61727.31509534301, -187500.02235174447, 1847.2822722533076, -187500.02235174447, -187500.02235174447, -45789.06843531948, 13691.359900398244, -4723.370638295489, -66149.22775616977, -9469.852980357764, -47814.33764867039, -3992.043911462297, 18533.038322095672, -0.074, 0.968, 0.278, 192.0, 0.0, 0.0, 0.0, 0.0, 0.0, 0.0, 0.0, 0.0, 0.0, 1.695418939736196E9, 0.0, 2023-09-22 16:42:19.736
108.0, 17842.52588063787, 16900.4892588245, -33319.52194208169, -61739.943830960256, -187500.02235174447, 1879.558191246771, -187500.02235174447, -187500.02235174447, -45796.712731923195, 13678.105315936247, -4755.758316011228, -66157.47554987378, -9478.167829295138, -47818.29390743899, -3991.4627661064587, 18497.834324578565, -0.07200000000000001, 0.97, 0.272, 192.0, 126.5, 96.0, 15.0, 40.0, 4.0, 64.0, 0.0, 0.0, 0.0, 1.695418939736217E9, 0.0, 2023-09-22 16:42:19.736
110.0, 17857.166273256098, 16916.806032276872, -33326.54038984065, -61730.39963607784, -187500.02235174447, 1872.8079644212683, -187500.02235174447, -187500.02235174447, -45800.49017673614, 13675.42310660161, -4703.857565386005, -66159.50955861922, -9482.325253763825, -47822.07135225193, -3993.8096992742658, 18548.416322280922, -0.07200000000000001, 0.97, 0.272, 192.0, 0.0, 0.0, 0.0, 0.0, 0.0, 0.0, 0.0, 0.0, 0.0, 1.695418939736221E9, 0.0, 2023-09-22 16:42:19.736
112.0, 17847.73383709596, 16912.15686943017, -33318.516113581194, -61732.523051801094, -187500.02235174447, 1871.0868800982096, -187500.02235174447, -187500.02235174447, -45795.170461555776, 13683.939121239082, -4757.546455567653, -66153.02755272717, -9482.526419463924, -47815.52229112653, -4000.0905394662072, 18490.391193674946, -0.07200000000000001, 0.97, 0.272, 192.0, 0.0, 0.0, 0.0, 0.0, 0.0, 0.0, 0.0, 0.0, 0.0, 1.695418939736224E9, 0.0, 2023-09-22 16:42:19.736
114.0, 17841.877680048667, 16907.35124437228, -33328.48499160826, -61729.77378723309, -187500.02235174447, 1883.0674151262542, -187500.02235174447, -187500.02235174447, -45808.1121215954, 13683.872066005715, -4723.951783651327, -66165.38806741095, -9481.565294452344, -47815.11995972633, -3997.296571409294, 18542.783682678186, -0.07200000000000001, 0.97, 0.272, 192.0, 0.0, 0.0, 0.0, 0.0, 0.0, 0.0, 0.0, 0.0, 0.0, 1.695418939736227E9, 0.0, 2023-09-22 16:42:19.736
116.0, 17835.038046245343, 16901.20451464707, -33323.23233166127, -61732.321886100995, -187500.02235174447, 1879.0441011242988, -187500.02235174447, -187500.02235174447, -45813.47654026467, 13678.082964191792, -4741.766123982206, -66167.10915173401, -9488.11435557775, -47814.80703530396, -4006.8854697806205, 18508.3172927281, -0.07200000000000001, 0.97, 0.272, 192.0, 0.0, 0.0, 0.0, 0.0, 0.0, 0.0, 0.0, 0.0, 0.0, 1.695418939736231E9, 0.0, 2023-09-22 16:42:19.736
118.0, 17842.235307959952, 16902.970302459038, -33324.99811947324, -61731.53957504506, -187500.02235174447, 1878.5076592573714, -187500.02235174447, -187500.02235174447, -45807.68743845075, 13676.674804291106, -4732.4901500332535, -66166.28213718918, -9477.92196010613, -47816.885747538305, -3990.099309694685, 18547.63401122499, -0.07, 0.974, 0.27, 192.0, 126.5, 104.0, 15.0, 56.0, 4.0, 56.0, 0.0, 0.0, 0.0, 1.695418939736234E9, 0.0, 2023-09-22 16:42:19.736
120.0, 17836.781482312857, 16900.846886735784, -33329.35670964202, -61736.27814486959, -187500.02235174447, 1870.5280864868269, -187500.02235174447, -187500.02235174447, -45814.72823795417, 13670.03633618788, -4752.003222942737, -66172.13829423646, -9486.080346832317, -47827.726343599126, -4007.064283736263, 18504.361033959514, -0.07, 0.974, 0.27, 192.0, 0.0, 0.0, 0.0, 0.0, 0.0, 0.0, 0.0, 0.0, 0.0, 1.695418939796355E9, 0.0, 2023-09-22 16:42:19.796
122.0, 17841.900031793124, 16905.898380982682, -33343.907695282425, -61742.35781936143, -187500.02235174447, 1888.588296006715, -187500.02235174447, -187500.02235174447, -45817.41044728881, 13675.55721706834, -4746.772914740195, -66175.08872450456, -9482.615826441745, -47824.284174953005, -3997.833013276221, 18544.70593270134, -0.07, 0.974, 0.27, 192.0, 0.0, 0.0, 0.0, 0.0, 0.0, 0.0, 0.0, 0.0, 0.0, 1.695418939796368E9, 0.0, 2023-09-22 16:42:19.796
124.0, 17835.61919160118, 16903.149116414683, -33333.40237538843, -61732.9700866902, -187500.02235174447, 1868.6728916970364, -187500.02235174447, -187500.02235174447, -45816.695191466235, 13678.3288333808, -4756.250054389245, -66173.5241023927, -9488.82961140032, -47822.384276674304, -4012.9874960169195, 18502.282321725168, -0.07, 0.974, 0.27, 192.0, 0.0, 0.0, 0.0, 0.0, 0.0, 0.0, 0.0, 0.0, 0.0, 1.695418939796372E9, 0.0, 2023-09-22 16:42:19.796
126.0, 17841.34123818174, 16910.324026384835, -33331.50247710973, -61730.24317386666, -187500.02235174447, 1895.7632059768684, -187500.02235174447, -187500.02235174447, -45820.49498802364, 13676.831266502293, -4761.167438169413, -66171.40068666944, -9487.488506733001, -47820.238509206596, -3990.12166143914, 18549.28804031468, -0.07, 0.974, 0.27, 192.0, 0.0, 0.0, 0.0, 0.0, 0.0, 0.0, 0.0, 0.0, 0.0, 1.695418939796375E9, 0.0, 2023-09-22 16:42:19.796
128.0, 17839.173118969575, 16911.06163395186, -33325.13222993997, -61732.79127273456, -187500.02235174447, 1860.2686357818409, -187500.02235174447, -187500.02235174447, -45808.380342528864, 13690.152906197656, -4769.6387493179745, -66157.72141906279, -9481.654701430167, -47816.528119627015, -4000.9846092444195, 18503.712833370308, -0.066, 0.974, 0.268, 192.0, 126.5, 120.0, 15.0, 56.0, 4.0, 48.0, 0.0, 0.0, 0.0, 1.695418939796378E9, 0.0, 2023-09-22 16:42:19.796
130.0, 17843.039970760343, 16911.19574441859, -33323.23233166127, -61732.88067971238, -187500.02235174447, 1888.1412611176088, -187500.02235174447, -187500.02235174447, -45816.40461878832, 13683.581493327796, -4787.855421049049, -66165.85745404453, -9475.753840893965, -47821.490206896095, -3984.3996148585816, 18528.344455760056, -0.066, 0.974, 0.268, 192.0, 0.0, 0.0, 0.0, 0.0, 0.0, 0.0, 0.0, 0.0, 0.0, 1.695418939796381E9, 0.0, 2023-09-22 16:42:19.796
132.0, 17844.112854494197, 16911.26279965196, -33331.033090476165, -61738.51331931512, -187500.02235174447, 1851.5738071887265, -187500.02235174447, -187500.02235174447, -45808.805025673515, 13690.845810275772, -4779.607627345041, -66160.15775920842, -9480.850038629775, -47819.79147431749, -4007.332504669727, 18497.94608330084, -0.066, 0.974, 0.268, 192.0, 0.0, 0.0, 0.0, 0.0, 0.0, 0.0, 0.0, 0.0, 0.0, 1.695418939796384E9, 0.0, 2023-09-22 16:42:19.796
134.0, 17844.9622207835, 16911.68748279661, -33329.20024743083, -61737.46278732572, -187500.02235174447, 1892.7233687309467, -187500.02235174447, -187500.02235174447, -45810.280240807566, 13686.017833473425, -4801.244115977778, -66165.38806741095, -9484.001634597973, -47818.45036965017, -3999.867022021654, 18521.14719404545, -0.066, 0.974, 0.268, 192.0, 0.0, 0.0, 0.0, 0.0, 0.0, 0.0, 0.0, 0.0, 0.0, 1.695418939796388E9, 0.0, 2023-09-22 16:42:19.796
136.0, 17848.15852024061, 16916.694273554596, -33324.57343632858, -61725.86223195341, -187500.02235174447, 1863.9566736169666, -187500.02235174447, -187500.02235174447, -45806.97218262818, 13692.030452731902, -4762.508542836731, -66161.11888421999, -9488.673149189133, -47819.45619815066, -4017.9272315415424, 18517.973246332796, -0.066, 0.974, 0.268, 192.0, 0.0, 0.0, 0.0, 0.0, 0.0, 0.0, 0.0, 0.0, 0.0, 1.695418939856743E9, 0.0, 2023-09-22 16:42:19.856
138.0, 17846.750360339924, 16911.374558374235, -33314.15752341241, -61728.052702910034, -187500.02235174447, 1904.4133310810723, -187500.02235174447, -187500.02235174447, -45803.79823491553, 13684.56497008383, -4793.979799029804, -66159.88953827495, -9475.373861238226, -47819.32208768393, -3991.060434706263, 18531.741920917266, -0.066, 0.972, 0.266, 192.0, 126.5, 120.0, 15.0, 48.0, 4.0, 40.0, 0.0, 0.0, 0.0, 1.695418939856754E9, 0.0, 2023-09-22 16:42:19.856
140.0, 17840.49187189244, 16904.91490422665, -33331.30131140963, -61735.16055764682, -187500.02235174447, 1885.9060866720781, -187500.02235174447, -187500.02235174447, -45806.97218262818, 13681.011042715436, -4755.534798566675, -66162.50469237623, -9486.281512532416, -47820.90906154026, -4003.6891703235115, 18532.345418017558, -0.066, 0.972, 0.266, 192.0, 0.0, 0.0, 0.0, 0.0, 0.0, 0.0, 0.0, 0.0, 0.0, 1.695418939856758E9, 0.0, 2023-09-22 16:42:19.856
142.0, 17851.690095864546, 16917.320122399346, -33313.62108154548, -61721.32482782899, -187500.02235174447, 1901.8652322131672, -187500.02235174447, -187500.02235174447, -45801.02661860307, 13686.196647429068, -4799.321865954622, -66155.91092776191, -9478.391346739692, -47814.024724248025, -3988.422928860537, 18530.51257497222, -0.066, 0.972, 0.266, 192.0, 0.0, 0.0, 0.0, 0.0, 0.0, 0.0, 0.0, 0.0, 0.0, 1.695418939856761E9, 0.0, 2023-09-22 16:42:19.856
144.0, 17855.15461625512, 16921.656360823676, -33316.30329088012, -61710.931266657266, -187500.02235174447, 1874.104365599676, -187500.02235174447, -187500.02235174447, -45804.53584248255, 13686.733089295994, -4764.296682393156, -66159.91189001942, -9478.011367083951, -47809.21909919013, -3990.07695795023, 18539.654438454443, -0.066, 0.972, 0.266, 192.0, 0.0, 0.0, 0.0, 0.0, 0.0, 0.0, 0.0, 0.0, 0.0, 1.695418939856764E9, 0.0, 2023-09-22 16:42:19.856
146.0, 17849.29845920783, 16914.861430509263, -33303.18281688486, -61719.40257780583, -187500.02235174447, 1900.5464792903042, -187500.02235174447, -187500.02235174447, -45788.57669694146, 13694.019757988424, -4833.587090204607, -66143.30454388911, -9457.894797074176, -47795.51747983903, -3967.591103028191, 18507.356167716523, -0.066, 0.972, 0.266, 192.0, 0.0, 0.0, 0.0, 0.0, 0.0, 0.0, 0.0, 0.0, 0.0, 1.695418939856768E9, 0.0, 2023-09-22 16:42:19.856
148.0, 17854.48406392146, 16921.58930559031, -33322.60648281652, -61714.708711470215, -187500.02235174447, 1880.295798813796, -187500.02235174447, -187500.02235174447, -45802.56888897048, 13682.866237505226, -4781.999264001759, -66154.52511960568, -9475.6867856606, -47817.06456149394, -3986.388920115104, 18533.775929662697, -0.066, 0.964, 0.272, 192.0, 126.5, 120.0, 15.0, 16.0, 4.0, 64.0, 0.0, 0.0, 0.0, 1.695418939856771E9, 0.0, 2023-09-22 16:42:19.856
150.0, 17845.453959161518, 16915.554334587378, -33319.365479870496, -61724.58818251946, -187500.02235174447, 1897.1266623886422, -187500.02235174447, -187500.02235174447, -45801.58541221445, 13687.716566052028, -4844.762962432261, -66145.62912531247, -9476.06676531634, -47815.58934635989, -3985.539553825802, 18495.956778044318, -0.066, 0.964, 0.272, 192.0, 0.0, 0.0, 0.0, 0.0, 0.0, 0.0, 0.0, 0.0, 0.0, 1.695418939917356E9, 0.0, 2023-09-22 16:42:19.917
152.0, 17845.43160741706, 16914.615561320254, -33329.73668929776, -61724.319961586, -187500.02235174447, 1890.488194285416, -187500.02235174447, -187500.02235174447, -45807.77684542857, 13684.967301484026, -4797.6454851204735, -66158.45902662982, -9479.307768262359, -47824.015954019545, -4000.425815633037, 18532.5242319732, -0.066, 0.964, 0.272, 192.0, 0.0, 0.0, 0.0, 0.0, 0.0, 0.0, 0.0, 0.0, 0.0, 1.69541893991737E9, 0.0, 2023-09-22 16:42:19.917
154.0, 17840.938906781543, 16910.145212429194, -33312.57054955608, -61725.1693278753, -187500.02235174447, 1906.0897119152203, -187500.02235174447, -187500.02235174447, -45805.40756051631, 13685.526095095409, -4838.683287940417, -66156.29090741764, -9476.78202113891, -47820.238509206596, -3995.0166934748527, 18502.483487425267, -0.066, 0.964, 0.272, 192.0, 0.0, 0.0, 0.0, 0.0, 0.0, 0.0, 0.0, 0.0, 0.0, 1.695418939917373E9, 0.0, 2023-09-22 16:42:19.917
156.0, 17840.782444570355, 16908.245314150492, -33323.67936655037, -61728.276220354586, -187500.02235174447, 1895.1820606210306, -187500.02235174447, -187500.02235174447, -45805.29580179403, 13686.084888706791, -4798.830127576605, -66156.42501788438, -9473.473962959524, -47820.48437839561, -3989.3169986387493, 18539.18505182088, -0.066, 0.964, 0.272, 192.0, 0.0, 0.0, 0.0, 0.0, 0.0, 0.0, 0.0, 0.0, 0.0, 1.695418939917376E9, 0.0, 2023-09-22 16:42:19.917
158.0, 17838.591973613737, 16908.11120368376, -33320.25954964871, -61729.036179666065, -187500.02235174447, 1903.5639647917708, -187500.02235174447, -187500.02235174447, -45814.52707225407, 13674.350222867755, -4822.902956354971, -66164.9186807774, -9482.571122952833, -47832.01787853454, -4002.9962662453972, 18510.217191006803, -0.066, 0.968, 0.27, 192.0, 126.5, 120.0, 15.0, 32.0, 4.0, 56.0, 0.0, 0.0, 0.0, 1.69541893991738E9, 0.0, 2023-09-22 16:42:19.917
160.0, 17854.48406392146, 16924.718549814053, -33318.13613392546, -61710.97597014618, -187500.02235174447, 1877.010092378866, -187500.02235174447, -187500.02235174447, -45801.63011570336, 13694.198571944067, -4799.724197354817, -66150.83708177056, -9468.266006501437, -47816.63987834929, -3991.0827864507187, 18537.35220877555, -0.066, 0.968, 0.27, 192.0, 0.0, 0.0, 0.0, 0.0, 0.0, 0.0, 0.0, 0.0, 0.0, 1.695418939917383E9, 0.0, 2023-09-22 16:42:19.917
162.0, 17849.72314235248, 16921.075215467838, -33308.0107936872, -61708.472574767184, -187500.02235174447, 1884.1179471156536, -187500.02235174447, -187500.02235174447, -45807.01688611709, 13694.198571944067, -4827.95445060187, -66150.50180560372, -9470.054146057862, -47809.42026489023, -3991.351007384182, 18491.84405706454, -0.066, 0.968, 0.27, 192.0, 0.0, 0.0, 0.0, 0.0, 0.0, 0.0, 0.0, 0.0, 0.0, 1.695418939917386E9, 0.0, 2023-09-22 16:42:19.917
164.0, 17850.460749919504, 16918.236543922012, -33321.73476478276, -61718.0167696496, -187500.02235174447, 1881.3686825476507, -187500.02235174447, -187500.02235174447, -45800.624287202874, 13699.85356329126, -4806.4520724358645, -66146.45613985731, -9457.000727295963, -47809.688485823695, -3979.8845624786095, 18527.80801389313, -0.066, 0.968, 0.27, 192.0, 0.0, 0.0, 0.0, 0.0, 0.0, 0.0, 0.0, 0.0, 0.0, 1.695418939917389E9, 0.0, 2023-09-22 16:42:19.917
166.0, 17848.15852024061, 16921.20932593457, -33310.22361638828, -61710.90891491281, -187500.02235174447, 1889.7282349739355, -187500.02235174447, -187500.02235174447, -45814.57177574298, 13692.075156220813, -4800.640618877485, -66152.06642771559, -9470.367070480237, -47819.523253384024, -3987.484155593414, 18505.724490371285, -0.066, 0.968, 0.27, 192.0, 0.0, 0.0, 0.0, 0.0, 0.0, 0.0, 0.0, 0.0, 0.0, 1.695418939975781E9, 0.0, 2023-09-22 16:42:19.975
168.0, 17855.7134098665, 16928.406587649177, -33316.705622280315, -61710.35012130143, -187500.02235174447, 1904.3462758477065, -187500.02235174447, -187500.02235174447, -45811.62134547489, 13704.882705793705, -4786.08963323708, -66144.24331715624, -9464.645023899679, -47803.094721209374, -3967.8593239616544, 18552.439636282877, -0.07, 0.964, 0.272, 192.0, 126.5, 104.0, 15.0, 16.0, 4.0, 64.0, 0.0, 0.0, 0.0, 1.695418939975795E9, 0.0, 2023-09-22 16:42:19.975
170.0, 17839.15076722512, 16914.01206421996, -33323.54525608364, -61723.15767087432, -187500.02235174447, 1889.7505867183909, -187500.02235174447, -187500.02235174447, -45813.007153631115, 13707.43080466161, -4798.4054444319545, -66144.4668346008, -9471.059974558351, -47799.406683374254, -3984.287856136305, 18510.552467173635, -0.07, 0.964, 0.272, 192.0, 0.0, 0.0, 0.0, 0.0, 0.0, 0.0, 0.0, 0.0, 0.0, 1.695418939975799E9, 0.0, 2023-09-22 16:42:19.975
172.0, 17834.81452880079, 16907.95474147257, -33337.69391032385, -61737.641601281364, -187500.02235174447, 1926.80977902529, -187500.02235174447, -187500.02235174447, -45834.84480796395, 13690.801106786861, -4782.8486302910605, -66167.95851802331, -9485.812125898854, -47814.89644228178, -3987.17123117104, 18566.52123528972, -0.07, 0.964, 0.272, 192.0, 0.0, 0.0, 0.0, 0.0, 0.0, 0.0, 0.0, 0.0, 0.0, 1.695418939975802E9, 0.0, 2023-09-22 16:42:19.975
174.0, 17844.649296361124, 16918.88474451122, -33328.12736369698, -61727.40450232083, -187500.02235174447, 1900.1888513790193, -187500.02235174447, -187500.02235174447, -45830.97795617318, 13689.907037008648, -4770.689281307374, -66165.07514298859, -9488.963721867052, -47816.34930567137, -4010.6629145935676, 18543.118958845014, -0.07, 0.964, 0.272, 192.0, 0.0, 0.0, 0.0, 0.0, 0.0, 0.0, 0.0, 0.0, 0.0, 1.695418939975805E9, 0.0, 2023-09-22 16:42:19.975
176.0, 17867.559834427815, 16942.26466921147, -33308.189607642846, -61702.25878980861, -187500.02235174447, 1913.778712007846, -187500.02235174447, -187500.02235174447, -45817.45515077772, 13707.85548780626, -4786.648426848463, -66146.25497415721, -9467.126067534216, -47807.430959633704, -3981.896219479587, 18569.181092879902, -0.07, 0.964, 0.272, 192.0, 0.0, 0.0, 0.0, 0.0, 0.0, 0.0, 0.0, 0.0, 0.0, 1.695418939975809E9, 0.0, 2023-09-22 16:42:19.975
178.0, 17856.16044475561, 16934.73213133003, -33307.58611054255, -61711.33359805746, -187500.02235174447, 1876.3842435341173, -187500.02235174447, -187500.02235174447, -45808.69326695124, 13720.57363040133, -4791.409348417443, -66132.82157573958, -9457.291299973882, -47794.73516878309, -3981.1139084236515, 18524.075272569095, -0.076, 0.964, 0.268, 192.0, 126.5, 80.0, 15.0, 16.0, 4.0, 48.0, 0.0, 0.0, 0.0, 1.695418939975812E9, 0.0, 2023-09-22 16:42:19.975
180.0, 17860.474331435482, 16937.012009264472, -33299.584186027554, -61708.80785093401, -187500.02235174447, 1887.7836332063239, -187500.02235174447, -187500.02235174447, -45811.37547628587, 13710.515345396441, -4809.2683922372335, -66143.6174683115, -9456.240767984482, -47800.54662234147, -3970.1839053850063, 18547.20932808034, -0.076, 0.964, 0.268, 192.0, 0.0, 0.0, 0.0, 0.0, 0.0, 0.0, 0.0, 0.0, 0.0, 1.695418940037696E9, 0.0, 2023-09-22 16:42:20.037
182.0, 17854.640526132647, 16927.803090548885, -33309.88834022145, -61711.579467246476, -187500.02235174447, 1850.9256065995226, -187500.02235174447, -187500.02235174447, -45809.96731638519, 13710.895325052183, -4802.6299241340075, -66147.68548580236, -9460.286433730893, -47803.36294214284, -3988.355873627171, 18512.631179407977, -0.076, 0.964, 0.268, 192.0, 0.0, 0.0, 0.0, 0.0, 0.0, 0.0, 0.0, 0.0, 0.0, 1.69541894003771E9, 0.0, 2023-09-22 16:42:20.037
184.0, 17853.612345887705, 16927.423110893145, -33305.35093609702, -61705.52214449908, -187500.02235174447, 1882.5309732593266, -187500.02235174447, -187500.02235174447, -45819.37740080088, 13705.910886038648, -4834.011773349259, -66152.98284923827, -9459.481770930503, -47811.633087591305, -3969.0439664177857, 18531.116072072517, -0.076, 0.964, 0.268, 192.0, 0.0, 0.0, 0.0, 0.0, 0.0, 0.0, 0.0, 0.0, 0.0, 1.695418940037714E9, 0.0, 2023-09-22 16:42:20.037
186.0, 17849.38786618565, 16929.21125044957, -33314.09046817905, -61698.19077231774, -187500.02235174447, 1856.2900252687962, -187500.02235174447, -187500.02235174447, -45820.897319423835, 13718.740787355995, -4807.457900936353, -66147.10434044652, -9467.126067534216, -47805.9333927552, -3983.8184695027435, 18520.744862645253, -0.076, 0.964, 0.268, 192.0, 0.0, 0.0, 0.0, 0.0, 0.0, 0.0, 0.0, 0.0, 0.0, 1.695418940037717E9, 0.0, 2023-09-22 16:42:20.037
188.0, 17837.519089879883, 16917.43188112162, -33310.58124429956, -61707.35498754442, -187500.02235174447, 1909.6659910280696, -187500.02235174447, -187500.02235174447, -45830.97795617318, 13709.464813407043, -4837.744514673294, -66154.03338122767, -9465.762611122444, -47806.380427644304, -3967.4346408170036, 18533.686522684875, -0.076, 0.974, 0.264, 192.0, 126.5, 80.0, 15.0, 56.0, 4.0, 32.0, 0.0, 0.0, 0.0, 1.69541894003772E9, 0.0, 2023-09-22 16:42:20.037
190.0, 17838.167290469086, 16919.4435381226, -33321.198322915836, -61708.338464300454, -187500.02235174447, 1878.2394383239077, -187500.02235174447, -187500.02235174447, -45832.87785445188, 13704.033339504402, -4791.744624584273, -66159.2636894302, -9469.54005593539, -47814.31529692594, -3982.3432543686936, 18544.504767001246, -0.076, 0.974, 0.264, 192.0, 0.0, 0.0, 0.0, 0.0, 0.0, 0.0, 0.0, 0.0, 0.0, 1.695418940037723E9, 0.0, 2023-09-22 16:42:20.037
192.0, 17830.344179909727, 16910.279322895924, -33319.79016301515, -61724.431720308276, -187500.02235174447, 1919.5678138217706, -187500.02235174447, -187500.02235174447, -45838.443438821254, 13696.478449878508, -4839.487950740809, -66168.24909070124, -9467.10371578976, -47818.18214871671, -3971.7261757524225, 18536.011104108227, -0.076, 0.974, 0.264, 192.0, 0.0, 0.0, 0.0, 0.0, 0.0, 0.0, 0.0, 0.0, 0.0, 1.695418940037727E9, 0.0, 2023-09-22 16:42:20.037
194.0, 17836.513261379394, 16914.01206421996, -33328.90967475291, -61722.621229007396, -187500.02235174447, 1894.5115082873713, -187500.02235174447, -187500.02235174447, -45842.95849120122, 13690.37642364221, -4787.408386159943, -66177.1674367389, -9478.525457206424, -47821.065523751444, -3993.005036473875, 18558.29579333017, -0.076, 0.974, 0.264, 192.0, 0.0, 0.0, 0.0, 0.0, 0.0, 0.0, 0.0, 0.0, 0.0, 1.69541894003773E9, 0.0, 2023-09-22 16:42:20.037
196.0, 17840.648334103626, 16922.662189324165, -33316.2138839023, -61721.011903406616, -187500.02235174447, 1911.9682207069661, -187500.02235174447, -187500.02235174447, -45836.54354054255, 13697.260760934445, -4834.905843127471, -66165.87980578898, -9470.702346647065, -47812.70597132516, -3986.0089404593637, 18536.70400818634, -0.076, 0.974, 0.264, 192.0, 0.0, 0.0, 0.0, 0.0, 0.0, 0.0, 0.0, 0.0, 0.0, 1.695418940096399E9, 0.0, 2023-09-22 16:42:20.096
198.0, 17828.421929886572, 16909.40760486217, -33335.92812251188, -61738.267450126106, -187500.02235174447, 1904.1451101476086, -187500.02235174447, -187500.02235174447, -45841.77384874509, 13701.418185403132, -4798.673665365418, -66164.9633842663, -9470.612939669245, -47818.53977662799, -3987.5959143156906, 18551.970249649316, -0.07, 0.98, 0.264, 192.0, 126.5, 104.0, 15.0, 80.0, 4.0, 32.0, 0.0, 0.0, 0.0, 1.695418940096411E9, 0.0, 2023-09-22 16:42:20.096
200.0, 17841.117720737187, 16921.745767801498, -33321.73476478276, -61726.77865347608, -187500.02235174447, 1925.2898604023292, -187500.02235174447, -187500.02235174447, -45849.26168313762, 13686.174295684612, -4812.732912627806, -66174.79815182665, -9480.78298339641, -47829.78270408901, -3995.977818486431, 18553.53487176119, -0.07, 0.98, 0.264, 192.0, 0.0, 0.0, 0.0, 0.0, 0.0, 0.0, 0.0, 0.0, 0.0, 1.695418940096415E9, 0.0, 2023-09-22 16:42:20.096
202.0, 17854.014677287898, 16932.809881306875, -33321.48889559375, -61719.42492955029, -187500.02235174447, 1901.1276246461423, -187500.02235174447, -187500.02235174447, -45831.89437769585, 13708.123708739724, -4781.798098301661, -66158.03434348517, -9466.567273922834, -47811.208404446654, -3988.154707927073, 18575.90896796095, -0.07, 0.98, 0.264, 192.0, 0.0, 0.0, 0.0, 0.0, 0.0, 0.0, 0.0, 0.0, 0.0, 1.695418940096418E9, 0.0, 2023-09-22 16:42:20.096
204.0, 17860.340220968752, 16941.415302922167, -33296.67845924836, -61710.19365909024, -187500.02235174447, 1908.9954386944103, -187500.02235174447, -187500.02235174447, -45824.29478458104, 13714.672769865128, -4830.793122147694, -66150.07712245907, -9461.292262231382, -47811.767198058034, -3987.908838738065, 18538.71566518732, -0.07, 0.98, 0.264, 192.0, 0.0, 0.0, 0.0, 0.0, 0.0, 0.0, 0.0, 0.0, 0.0, 1.695418940096421E9, 0.0, 2023-09-22 16:42:20.096
206.0, 17862.508340180917, 16940.364770932767, -33303.02635467367, -61704.002225876124, -187500.02235174447, 1890.8905256856117, -187500.02235174447, -187500.02235174447, -45822.97603165818, 13719.254877478466, -4800.66297062194, -66148.15487243592, -9453.267985971926, -47813.287116681, -3980.286893878805, 18570.34338359158, -0.07, 0.98, 0.264, 192.0, 0.0, 0.0, 0.0, 0.0, 0.0, 0.0, 0.0, 0.0, 0.0, 1.695418940096424E9, 0.0, 2023-09-22 16:42:20.096
208.0, 17854.461712177006, 16933.01104700697, -33300.03122091666, -61704.69512995424, -187500.02235174447, 1893.7291972314356, -187500.02235174447, -187500.02235174447, -45820.98672640166, 13715.09745300978, -4844.070058354147, -66142.23166015526, -9456.665451129133, -47814.51646262604, -3984.0643386917523, 18520.968380089806, -0.066, 0.98, 0.27, 192.0, 126.5, 120.0, 15.0, 80.0, 4.0, 56.0, 0.0, 0.0, 0.0, 1.695418940096428E9, 0.0, 2023-09-22 16:42:20.096
210.0, 17862.754209369923, 16944.186919234624, -33306.982613442255, -61694.68154843826, -187500.02235174447, 1904.8827177146338, -187500.02235174447, -187500.02235174447, -45830.77679047308, 13718.114938511246, -4806.899107324971, -66144.1092066895, -9459.906454075153, -47798.93729674069, -3969.133373395607, 18567.862339957042, -0.066, 0.98, 0.27, 192.0, 0.0, 0.0, 0.0, 0.0, 0.0, 0.0, 0.0, 0.0, 0.0, 1.69541894015811E9, 0.0, 2023-09-22 16:42:20.158
212.0, 17874.958261842523, 16960.011954308982, -33282.44039803033, -61674.229702261655, -187500.02235174447, 1895.5396885323155, -187500.02235174447, -187500.02235174447, -45820.65145023483, 13733.202366018579, -4838.973860618336, -66128.21711638178, -9455.413753439636, -47779.759499998036, -3969.848629218177, 18525.036397580672, -0.066, 0.98, 0.27, 192.0, 0.0, 0.0, 0.0, 0.0, 0.0, 0.0, 0.0, 0.0, 0.0, 1.695418940158123E9, 0.0, 2023-09-22 16:42:20.158
214.0, 17880.322680511796, 16964.862282855785, -33289.950584167316, -61673.805019117004, -187500.02235174447, 1921.0430289558208, -187500.02235174447, -187500.02235174447, -45816.78459844406, 13747.395723747699, -4818.209090019356, -66120.79633722262, -9445.53428239039, -47763.1745056122, -3952.7495447098668, 18572.24328187028, -0.066, 0.98, 0.27, 192.0, 0.0, 0.0, 0.0, 0.0, 0.0, 0.0, 0.0, 0.0, 0.0, 1.695418940158127E9, 0.0, 2023-09-22 16:42:20.158
216.0, 17870.10793329572, 16957.866186841275, -33287.715409721786, -61681.985757587645, -187500.02235174447, 1931.0119069828877, -187500.02235174447, -187500.02235174447, -45821.70198222423, 13747.686296425618, -4812.531746927709, -66123.43384306834, -9455.100829017261, -47768.51657253702, -3967.7699169838334, 18549.019819381218, -0.066, 0.98, 0.27, 192.0, 0.0, 0.0, 0.0, 0.0, 0.0, 0.0, 0.0, 0.0, 0.0, 1.69541894015813E9, 0.0, 2023-09-22 16:42:20.158
218.0, 17867.67159315009, 16951.16066350468, -33300.411200572395, -61695.620321705384, -187500.02235174447, 1938.1421134641307, -187500.02235174447, -187500.02235174447, -45824.183025858765, 13752.447217994597, -4785.150859969957, -66124.59613378003, -9452.910358060642, -47764.090927134865, -3959.186847112995, 18599.981796739317, -0.066, 0.976, 0.27, 192.0, 126.5, 120.0, 15.0, 64.0, 4.0, 56.0, 0.0, 0.0, 0.0, 1.695418940158134E9, 0.0, 2023-09-22 16:42:20.158
220.0, 17851.53363365336, 16935.4473871526, -33309.88834022145, -61712.51824051359, -187500.02235174447, 1889.7058832294804, -187500.02235174447, -187500.02235174447, -45833.68251725227, 13726.407435704165, -4817.00209581877, -66143.43865435585, -9464.756782621955, -47799.38433162979, -3990.725158539434, 18536.14521457496, -0.066, 0.976, 0.27, 192.0, 0.0, 0.0, 0.0, 0.0, 0.0, 0.0, 0.0, 0.0, 0.0, 1.695418940158137E9, 0.0, 2023-09-22 16:42:20.158
222.0, 17846.504491150918, 16931.044093494904, -33317.71145078081, -61717.88265918287, -187500.02235174447, 1911.5435375623154, -187500.02235174447, -187500.02235174447, -45848.9711104597, 13711.230601219011, -4828.490892468798, -66156.38031439547, -9465.941425078086, -47808.772064301025, -3975.973007198931, 18563.81667421063, -0.066, 0.976, 0.27, 192.0, 0.0, 0.0, 0.0, 0.0, 0.0, 0.0, 0.0, 0.0, 0.0, 1.695418940158141E9, 0.0, 2023-09-22 16:42:20.158
224.0, 17864.00590705942, 16949.68544837063, -33302.71343025129, -61700.18007757427, -187500.02235174447, 1863.263769538852, -187500.02235174447, -187500.02235174447, -45831.961432929216, 13725.423958948131, -4833.5647384601525, -66138.58832580905, -9463.974471566018, -47800.12193919682, -3993.899106252087, 18515.201630020336, -0.066, 0.976, 0.27, 192.0, 0.0, 0.0, 0.0, 0.0, 0.0, 0.0, 0.0, 0.0, 0.0, 1.695418940158144E9, 0.0, 2023-09-22 16:42:20.158
226.0, 17852.830034831768, 16937.436692409123, -33305.35093609702, -61713.792289947545, -187500.02235174447, 1889.7729384628462, -187500.02235174447, -187500.02235174447, -45832.34141258495, 13724.529889169919, -4855.760020704272, -66142.2093084108, -9456.01725053993, -47791.02477920351, -3962.9642919259422, 18537.486319242278, -0.066, 0.976, 0.27, 192.0, 0.0, 0.0, 0.0, 0.0, 0.0, 0.0, 0.0, 0.0, 0.0, 1.695418940216957E9, 0.0, 2023-09-22 16:42:20.216
228.0, 17843.95639228301, 16927.87014578225, -33307.11672390899, -61711.37830154638, -187500.02235174447, 1884.1179471156536, -187500.02235174447, -187500.02235174447, -45844.99249994666, 13712.57170588633, -4816.7785783742165, -66154.23454692776, -9469.92003559113, -47796.45625310615, -3989.1828881720176, 18528.05388308214, -0.07200000000000001, 0.968, 0.274, 192.0, 126.5, 96.0, 15.0, 32.0, 4.0, 72.0, 0.0, 0.0, 0.0, 1.695418940216978E9, 0.0, 2023-09-22 16:42:20.216
230.0, 17851.19835748653, 16935.022704007948, -33302.78048548466, -61704.717481698695, -187500.02235174447, 1928.8884912596336, -187500.02235174447, -187500.02235174447, -45845.998328447145, 13706.782604072405, -4819.885470853505, -66153.09460796053, -9462.029869798407, -47800.12193919682, -3975.5706757987355, 18566.230662611804, -0.07200000000000001, 0.968, 0.274, 192.0, 0.0, 0.0, 0.0, 0.0, 0.0, 0.0, 0.0, 0.0, 0.0, 1.695418940216982E9, 0.0, 2023-09-22 16:42:20.216
232.0, 17858.57443315678, 16948.903137314694, -33305.99913668622, -61691.9099321258, -187500.02235174447, 1902.133453146631, -187500.02235174447, -187500.02235174447, -45843.69609876825, 13723.278191480422, -4773.215028430824, -66143.4163026114, -9463.885064588198, -47796.59036357288, -3991.2839521508163, 18560.48626428679, -0.07200000000000001, 0.968, 0.274, 192.0, 0.0, 0.0, 0.0, 0.0, 0.0, 0.0, 0.0, 0.0, 0.0, 1.695418940216985E9, 0.0, 2023-09-22 16:42:20.216
234.0, 17861.815436102803, 16954.625183895252, -33295.96320342579, -61691.6640629368, -187500.02235174447, 1918.5619853212818, -187500.02235174447, -187500.02235174447, -45831.939081184755, 13741.450159722586, -4807.703770125362, -66128.15006114842, -9449.15526499215, -47780.13947965378, -3962.8301814592105, 18563.906081188452, -0.07200000000000001, 0.968, 0.274, 192.0, 0.0, 0.0, 0.0, 0.0, 0.0, 0.0, 0.0, 0.0, 0.0, 1.695418940216988E9, 0.0, 2023-09-22 16:42:20.216
236.0, 17860.07200003529, 16952.322954216357, -33306.155598897414, -61695.03917634954, -187500.02235174447, 1876.0936708561983, -187500.02235174447, -187500.02235174447, -45831.9167294403, 13741.181938789123, -4782.334540168588, -66131.12284316098, -9453.826779583309, -47776.25027611855, -3984.421966603037, 18540.034418110183, -0.07200000000000001, 0.968, 0.274, 192.0, 0.0, 0.0, 0.0, 0.0, 0.0, 0.0, 0.0, 0.0, 0.0, 1.695418940216991E9, 0.0, 2023-09-22 16:42:20.216
238.0, 17848.78436908536, 16940.275363954945, -33304.43451457435, -61706.0138828771, -187500.02235174447, 1920.8642150001783, -187500.02235174447, -187500.02235174447, -45845.03720343557, 13719.165470500646, -4804.775691601717, -66150.90413700392, -9459.235901741493, -47790.08600593639, -3973.35785309766, 18552.305525816148, -0.07200000000000001, 0.972, 0.27, 192.0, 126.5, 96.0, 15.0, 48.0, 4.0, 56.0, 0.0, 0.0, 0.0, 1.695418940216994E9, 0.0, 2023-09-22 16:42:20.216
240.0, 17859.177930257076, 16951.898271071706, -33308.25666287621, -61696.78261241706, -187500.02235174447, 1883.357987804173, -187500.02235174447, -187500.02235174447, -45838.97988068818, 13725.222793248035, -4762.374432369999, -66146.03145671266, -9460.040564541885, -47791.27064839252, -3981.918571224043, 18559.212214852836, -0.07200000000000001, 0.972, 0.27, 192.0, 0.0, 0.0, 0.0, 0.0, 0.0, 0.0, 0.0, 0.0, 0.0, 1.695418940275892E9, 0.0, 2023-09-22 16:42:20.275
242.0, 17851.95831679801, 16943.650477367697, -33308.4131250874, -61711.288894568555, -187500.02235174447, 1908.6601625275807, -187500.02235174447, -187500.02235174447, -45839.73983999966, 13723.166432758146, -4809.782482359706, -66144.33272413406, -9458.632404641201, -47795.56218332794, -3971.6367687746015, 18545.041208868173, -0.07200000000000001, 0.972, 0.27, 192.0, 0.0, 0.0, 0.0, 0.0, 0.0, 0.0, 0.0, 0.0, 0.0, 1.695418940275903E9, 0.0, 2023-09-22 16:42:20.275
244.0, 17847.28680220685, 16940.364770932767, -33321.13126768247, -61715.78159520407, -187500.02235174447, 1884.162650604564, -187500.02235174447, -187500.02235174447, -45848.90405522633, 13726.04980779288, -4762.150914925446, -66150.32299164808, -9472.579893181311, -47802.24535492007, -3990.166364928051, 18565.49305504478, -0.07200000000000001, 0.972, 0.27, 192.0, 0.0, 0.0, 0.0, 0.0, 0.0, 0.0, 0.0, 0.0, 0.0, 1.695418940275906E9, 0.0, 2023-09-22 16:42:20.275
246.0, 17852.651220876127, 16944.857471568284, -33306.088543664046, -61713.97110390319, -187500.02235174447, 1915.8350724977342, -187500.02235174447, -187500.02235174447, -45860.21403792072, 13717.936124555603, -4782.3792436574995, -66157.58730859606, -9475.373861238226, -47813.15300621426, -3982.902047980076, 18560.463912542335, -0.07200000000000001, 0.972, 0.27, 192.0, 0.0, 0.0, 0.0, 0.0, 0.0, 0.0, 0.0, 0.0, 0.0, 1.695418940275909E9, 0.0, 2023-09-22 16:42:20.275
248.0, 17864.072962292787, 16952.76998910546, -33300.67942150586, -61700.91768514129, -187500.02235174447, 1884.4755750269385, -187500.02235174447, -187500.02235174447, -45843.42787783479, 13727.703836882572, -4747.063487418114, -66144.1092066895, -9460.331137219804, -47801.10541595286, -3975.816544987744, 18578.948805206874, -0.07, 0.974, 0.272, 192.0, 126.5, 104.0, 15.0, 56.0, 4.0, 64.0, 0.0, 0.0, 0.0, 1.695418940275913E9, 0.0, 2023-09-22 16:42:20.275
250.0, 17866.129322782675, 16956.614489151776, -33282.798025941614, -61693.519257726584, -187500.02235174447, 1898.0877874002203, -187500.02235174447, -187500.02235174447, -45834.598938774936, 13725.155738014668, -4796.930229297904, -66136.33079961906, -9453.24563422747, -47792.74586352657, -3962.807829714755, 18542.560165233634, -0.07, 0.974, 0.272, 192.0, 0.0, 0.0, 0.0, 0.0, 0.0, 0.0, 0.0, 0.0, 0.0, 1.695418940275916E9, 0.0, 2023-09-22 16:42:20.275
252.0, 17877.238139776964, 16968.907948602195, -33287.3577818105, -61683.14804829932, -187500.02235174447, 1872.2044673209748, -187500.02235174447, -187500.02235174447, -45829.74861022814, 13739.013819576958, -4764.4754963487985, -66128.46298557079, -9449.468189414525, -47787.60496230185, -3961.9361116809982, 18566.76710447873, -0.07, 0.974, 0.272, 192.0, 0.0, 0.0, 0.0, 0.0, 0.0, 0.0, 0.0, 0.0, 0.0, 1.695418940275919E9, 0.0, 2023-09-22 16:42:20.275
254.0, 17866.933985583066, 16958.648497897208, -33286.48606377674, -61697.788440917546, -187500.02235174447, 1899.4512438119941, -187500.02235174447, -187500.02235174447, -45833.45899980772, 13737.806825376372, -4801.802909589161, -66129.08883441554, -9456.01725053993, -47784.31925586692, -3968.932207695509, 18528.769138904707, -0.07, 0.974, 0.272, 192.0, 0.0, 0.0, 0.0, 0.0, 0.0, 0.0, 0.0, 0.0, 0.0, 1.695418940275922E9, 0.0, 2023-09-22 16:42:20.275
0.0, 17877.34989849924, 16967.768009634972, -33296.63375575945, -61686.76903090108, -187500.02235174447, 1888.7000547289915, -187500.02235174447, -187500.02235174447, -45837.258796365124, 13737.493900953998, -4751.690298520362, -66133.58153505105, -9461.560483164845, -47781.25706687654, -3971.9943966858864, 18581.16162790795, -0.07, 0.974, 0.272, 192.0, 0.0, 0.0, 0.0, 0.0, 0.0, 0.0, 0.0, 0.0, 0.0, 1.695418940336244E9, 0.0, 2023-09-22 16:42:20.336
2.0, 17865.905805338123, 16955.6533641402, -33290.33056382305, -61689.764164658096, -187500.02235174447, 1890.8681739411563, -187500.02235174447, -187500.02235174447, -45830.620328261895, 13738.76795038795, -4796.863174064538, -66128.79826173763, -9455.771381350922, -47777.81489823043, -3971.189733885495, 18529.976133105294, -0.07200000000000001, 0.976, 0.274, 192.0, 126.5, 96.0, 15.0, 64.0, 4.0, 72.0, 0.0, 0.0, 0.0, 1.695418940336254E9, 0.0, 2023-09-22 16:42:20.336
4.0, 17874.57828218678, 16963.87880609975, -33299.383020327456, -61685.40557448931, -187500.02235174447, 1896.3219995882512, -187500.02235174447, -187500.02235174447, -45834.8671597084, 13733.269421251944, -4766.75537428324, -66134.09562517353, -9457.604224396257, -47785.30273262295, -3964.2830448488053, 18577.02655518372, -0.07200000000000001, 0.976, 0.274, 192.0, 0.0, 0.0, 0.0, 0.0, 0.0, 0.0, 0.0, 0.0, 0.0, 1.695418940336258E9, 0.0, 2023-09-22 16:42:20.336
6.0, 17868.409200717117, 16960.235471753535, -33289.30238357811, -61688.69128092424, -187500.02235174447, 1892.6563134975809, -187500.02235174447, -187500.02235174447, -45834.040145163555, 13732.710627640561, -4788.145993726968, -66131.36871234998, -9461.426372698113, -47794.3328373829, -3976.777669999322, 18533.82063315161, -0.07200000000000001, 0.976, 0.274, 192.0, 0.0, 0.0, 0.0, 0.0, 0.0, 0.0, 0.0, 0.0, 0.0, 1.695418940336261E9, 0.0, 2023-09-22 16:42:20.336
8.0, 17880.546197956348, 16973.98179459355, -33294.555043525106, -61685.763202400594, -187500.02235174447, 1899.4735955564495, -187500.02235174447, -187500.02235174447, -45833.39194457435, 13739.326743999332, -4766.5318568386865, -66129.20059313782, -9453.692669116577, -47796.0315699615, -3964.059527404252, 18580.267558129737, -0.07200000000000001, 0.976, 0.274, 192.0, 0.0, 0.0, 0.0, 0.0, 0.0, 0.0, 0.0, 0.0, 0.0, 1.695418940336264E9, 0.0, 2023-09-22 16:42:20.336
10.0, 17868.811532117314, 16964.63876541123, -33292.0069446572, -61696.179115316765, -187500.02235174447, 1888.4318337955278, -187500.02235174447, -187500.02235174447, -45826.73112472667, 13748.736828415016, -4788.525973382709, -66121.71275874529, -9454.139704005684, -47789.057825691445, -3974.9448269539866, 18529.171470304904, -0.07200000000000001, 0.976, 0.274, 192.0, 0.0, 0.0, 0.0, 0.0, 0.0, 0.0, 0.0, 0.0, 0.0, 1.695418940336268E9, 0.0, 2023-09-22 16:42:20.336
12.0, 17868.029221061377, 16959.564919419878, -33301.97582268427, -61704.04692936503, -187500.02235174447, 1906.3802845931393, -187500.02235174447, -187500.02235174447, -45834.598938774936, 13738.186805032112, -4775.3384441540775, -66134.34149436254, -9456.307823217849, -47799.94312524118, -3965.624149516124, 18576.087781916594, -0.068, 0.972, 0.278, 192.0, 126.5, 112.0, 15.0, 48.0, 4.0, 88.0, 0.0, 0.0, 0.0, 1.695418940336271E9, 0.0, 2023-09-22 16:42:20.336
14.0, 17877.10402931023, 16970.89725385872, -33292.051648146116, -61695.419156005286, -187500.02235174447, 1876.7642231898576, -187500.02235174447, -187500.02235174447, -45822.73016246917, 13738.186805032112, -4779.406461644943, -66126.89836345892, -9456.978375551507, -47799.63020081881, -3981.516239823847, 18533.95474361834, -0.068, 0.972, 0.278, 192.0, 0.0, 0.0, 0.0, 0.0, 0.0, 0.0, 0.0, 0.0, 0.0, 1.695418940398085E9, 0.0, 2023-09-22 16:42:20.398
16.0, 17887.654052693135, 16977.491018473032, -33283.423874786364, -61688.3113012685, -187500.02235174447, 1888.878868684634, -187500.02235174447, -187500.02235174447, -45803.73117968216, 13752.693087183607, -4806.697941624873, -66110.98392140675, -9439.164035220629, -47791.67297979272, -3954.850608688666, 18549.91388915943, -0.068, 0.972, 0.278, 192.0, 0.0, 0.0, 0.0, 0.0, 0.0, 0.0, 0.0, 0.0, 0.0, 1.695418940398099E9, 0.0, 2023-09-22 16:42:20.398
18.0, 17874.734744397967, 16966.806884623395, -33283.155653852904, -61686.321996011975, -187500.02235174447, 1883.0450633817989, -187500.02235174447, -187500.02235174447, -45803.21708955969, 13750.256747037978, -4795.991456030781, -66112.92852317436, -9448.7305818475, -47791.89649723727, -3968.619283273135, 18524.924638858396, -0.068, 0.972, 0.278, 192.0, 0.0, 0.0, 0.0, 0.0, 0.0, 0.0, 0.0, 0.0, 0.0, 1.695418940398103E9, 0.0, 2023-09-22 16:42:20.398
20.0, 17871.82901761878, 16966.650422412207, -33286.17313935437, -61688.914798368794, -187500.02235174447, 1926.8544825142008, -187500.02235174447, -187500.02235174447, -45803.01592385959, 13754.682392440129, -4800.797081088672, -66110.29101732862, -9444.304936445349, -47781.435880832185, -3953.0624691322414, 18565.87303470052, -0.068, 0.972, 0.278, 192.0, 0.0, 0.0, 0.0, 0.0, 0.0, 0.0, 0.0, 0.0, 0.0, 1.695418940398106E9, 0.0, 2023-09-22 16:42:20.398
22.0, 17874.48887520896, 16971.768971892474, -33294.44328480283, -61688.62422569087, -187500.02235174447, 1898.1548426335864, -187500.02235174447, -187500.02235174447, -45800.78074941406, 13759.309203542376, -4783.452127391354, -66104.72543295925, -9452.597433638268, -47785.12391866731, -3977.2470566328834, 18538.402740764945, -0.068, 0.966, 0.278, 192.0, 126.5, 112.0, 15.0, 24.0, 4.0, 88.0, 0.0, 0.0, 0.0, 1.695418940398109E9, 0.0, 2023-09-22 16:42:20.398
24.0, 17889.30808178283, 16984.107134831804, -33285.2567178317, -61682.09751630992, -187500.02235174447, 1920.2830696443405, -187500.02235174447, -187500.02235174447, -45796.712731923195, 13762.214930321566, -4807.815528847638, -66101.7973544356, -9446.495407401968, -47784.74393901157, -3962.8525332036656, 18555.6806392289, -0.068, 0.966, 0.278, 192.0, 0.0, 0.0, 0.0, 0.0, 0.0, 0.0, 0.0, 0.0, 0.0, 1.695418940398112E9, 0.0, 2023-09-22 16:42:20.398
26.0, 17875.025317075888, 16963.767047377474, -33297.30430809311, -61696.179115316765, -187500.02235174447, 1894.5785635207371, -187500.02235174447, -187500.02235174447, -45781.602952671405, 13767.780514690938, -4793.868040307527, -66096.65645321089, -9439.834587554287, -47772.94221793917, -3975.4365653320037, 18523.605885935533, -0.068, 0.966, 0.278, 192.0, 0.0, 0.0, 0.0, 0.0, 0.0, 0.0, 0.0, 0.0, 0.0, 1.695418940398116E9, 0.0, 2023-09-22 16:42:20.398
28.0, 17885.30711952533, 16971.947785848115, -33291.49285453473, -61687.4619349792, -187500.02235174447, 1932.0624389722873, -187500.02235174447, -187500.02235174447, -45789.47076671967, 13754.123598828746, -4803.881621823504, -66111.22979059575, -9443.321459689316, -47781.52528781001, -3964.97594892692, 18550.830310682097, -0.068, 0.966, 0.278, 192.0, 0.0, 0.0, 0.0, 0.0, 0.0, 0.0, 0.0, 0.0, 0.0, 1.695418940398119E9, 0.0, 2023-09-22 16:42:20.398
30.0, 17884.837732891767, 16973.3559457488, -33307.85433147602, -61690.30060652502, -187500.02235174447, 1887.560115761771, -187500.02235174447, -187500.02235174447, -45779.47953694815, 13766.72998270154, -4777.573618599608, -66101.32796780205, -9441.53332013289, -47766.348453324856, -3977.783498499811, 18536.458138997335, -0.068, 0.966, 0.278, 192.0, 0.0, 0.0, 0.0, 0.0, 0.0, 0.0, 0.0, 0.0, 0.0, 1.695418940457038E9, 0.0, 2023-09-22 16:42:20.457
32.0, 17869.92911934008, 16958.11205603028, -33318.82903800357, -61712.942923658244, -187500.02235174447, 1919.2325376549409, -187500.02235174447, -187500.02235174447, -45794.321095266474, 13747.753351658983, -4820.511319698253, -66120.59517152252, -9449.669355114622, -47782.24054363258, -3972.9331699530094, 18525.103452814037, -0.068, 0.97, 0.272, 192.0, 126.5, 112.0, 15.0, 40.0, 4.0, 64.0, 0.0, 0.0, 0.0, 1.695418940457063E9, 0.0, 2023-09-22 16:42:20.457
34.0, 17872.276052507885, 16959.810788608884, -33334.45290737783, -61714.17226960329, -187500.02235174447, 1885.32494131624, -187500.02235174447, -187500.02235174447, -45793.47172897717, 13744.62410743524, -4779.160592455935, -66122.6068285235, -9451.6810121156, -47783.02285468851, -3993.1391469406067, 18528.791490649164, -0.068, 0.97, 0.272, 192.0, 0.0, 0.0, 0.0, 0.0, 0.0, 0.0, 0.0, 0.0, 0.0, 1.695418940457066E9, 0.0, 2023-09-22 16:42:20.457
36.0, 17875.67351766509, 16962.090666543325, -33317.71145078081, -61710.26071432361, -187500.02235174447, 1905.039179925821, -187500.02235174447, -187500.02235174447, -45793.851708632916, 13741.271345766943, -4823.372342988532, -66125.93723844734, -9446.808331824343, -47785.481546578594, -3985.226629403428, 18510.66422589591, -0.068, 0.97, 0.272, 192.0, 0.0, 0.0, 0.0, 0.0, 0.0, 0.0, 0.0, 0.0, 0.0, 1.69541894045707E9, 0.0, 2023-09-22 16:42:20.457
38.0, 17881.999061345945, 16967.96917533507, -33319.70075603733, -61701.87881015287, -187500.02235174447, 1864.5154672283493, -187500.02235174447, -187500.02235174447, -45781.84882186042, 13750.077933082335, -4798.09252000958, -66117.57768602106, -9444.237881211982, -47784.54277331147, -3981.583295057213, 18512.541772430155, -0.068, 0.97, 0.272, 192.0, 0.0, 0.0, 0.0, 0.0, 0.0, 0.0, 0.0, 0.0, 0.0, 1.695418940457073E9, 0.0, 2023-09-22 16:42:20.457
40.0, 17874.332412997774, 16961.576576420855, -33317.17500891388, -61705.142164843346, -187500.02235174447, 1900.300610101296, -187500.02235174447, -187500.02235174447, -45792.7564731546, 13746.43459873612, -4834.86113963856, -66122.29390410113, -9452.82095108282, -47789.39310185827, -3976.107117665663, 18492.179333231372, -0.068, 0.97, 0.272, 192.0, 0.0, 0.0, 0.0, 0.0, 0.0, 0.0, 0.0, 0.0, 0.0, 1.695418940457076E9, 0.0, 2023-09-22 16:42:20.457
42.0, 17885.10595382523, 16973.3559457488, -33323.433497361366, -61690.8594001364, -187500.02235174447, 1881.7933656923017, -187500.02235174447, -187500.02235174447, -45790.85657487591, 13755.576462218341, -4783.608589602541, -66114.20257260831, -9455.6819743731, -47780.69827326516, -3981.315074123749, 18525.036397580672, -0.07, 0.966, 0.268, 192.0, 126.5, 104.0, 15.0, 24.0, 4.0, 48.0, 0.0, 0.0, 0.0, 1.695418940457079E9, 0.0, 2023-09-22 16:42:20.457
44.0, 17869.48208445097, 16956.905061829693, -33313.710488523306, -61703.77870843157, -187500.02235174447, 1911.0517991842985, -187500.02235174447, -187500.02235174447, -45790.61070568689, 13755.576462218341, -4831.553081459175, -66113.9567034193, -9452.038640026885, -47775.71383425163, -3975.0565856762632, 18492.3134436981, -0.07, 0.966, 0.268, 192.0, 0.0, 0.0, 0.0, 0.0, 0.0, 0.0, 0.0, 0.0, 0.0, 1.695418940517056E9, 0.0, 2023-09-22 16:42:20.517
46.0, 17872.38781123016, 16960.235471753535, -33323.20997991681, -61702.03527236405, -187500.02235174447, 1901.7311217464355, -187500.02235174447, -187500.02235174447, -45789.24724927512, 13751.016706349457, -4784.502659380753, -66117.44357555432, -9449.244671969971, -47781.68175002119, -3980.64452179009, 18534.692351185364, -0.07, 0.966, 0.268, 192.0, 0.0, 0.0, 0.0, 0.0, 0.0, 0.0, 0.0, 0.0, 0.0, 1.695418940517073E9, 0.0, 2023-09-22 16:42:20.517
48.0, 17865.481122193472, 16956.905061829693, -33319.76781127069, -61703.21991482019, -187500.02235174447, 1923.3229068902622, -187500.02235174447, -187500.02235174447, -45803.10533083741, 13743.730037657027, -4813.71638938384, -66125.28903785814, -9465.807314611355, -47792.12001468182, -3988.199411415984, 18507.222057249794, -0.07, 0.966, 0.268, 192.0, 0.0, 0.0, 0.0, 0.0, 0.0, 0.0, 0.0, 0.0, 0.0, 1.69541894051708E9, 0.0, 2023-09-22 16:42:20.517
50.0, 17872.38781123016, 16965.532835189442, -33322.9641107278, -61696.29087403904, -187500.02235174447, 1918.80785451029, -187500.02235174447, -187500.02235174447, -45789.381359741856, 13759.175093075644, -4791.252886206256, -66109.66516848387, -9451.457494671047, -47776.00440692955, -3976.777669999322, 18542.157833833437, -0.07, 0.966, 0.268, 192.0, 0.0, 0.0, 0.0, 0.0, 0.0, 0.0, 0.0, 0.0, 0.0, 1.695418940517091E9, 0.0, 2023-09-22 16:42:20.517
52.0, 17863.849444848234, 16958.872015341763, -33315.677442035376, -61700.649464207825, -187500.02235174447, 1920.2160144109744, -187500.02235174447, -187500.02235174447, -45797.58444995695, 13744.869976624248, -4813.828148106116, -66120.32695058906, -9460.711116875544, -47786.35326461235, -3982.879696235621, 18505.568028160098, -0.074, 0.97, 0.274, 192.0, 126.5, 88.0, 15.0, 40.0, 4.0, 72.0, 0.0, 0.0, 0.0, 1.695418940517097E9, 0.0, 2023-09-22 16:42:20.517
54.0, 17852.941793554044, 16944.455140168087, -33336.93395101237, -61716.60860974892, -187500.02235174447, 1927.5026831034045, -187500.02235174447, -187500.02235174447, -45804.26762154909, 13734.297601496888, -4789.911781538937, -66136.24139264124, -9451.859826071242, -47801.03836071949, -3972.463783319448, 18545.242374568268, -0.074, 0.97, 0.274, 192.0, 0.0, 0.0, 0.0, 0.0, 0.0, 0.0, 0.0, 0.0, 0.0, 1.695418940517103E9, 0.0, 2023-09-22 16:42:20.517
56.0, 17840.424816659073, 16935.335628430323, -33335.81636378961, -61729.05853141053, -187500.02235174447, 1909.0177904388656, -187500.02235174447, -187500.02235174447, -45801.339543025446, 13728.173223516134, -4822.835901121605, -66140.53292757666, -9449.714058603533, -47802.781796787, -3986.545382326291, 18490.391193674946, -0.074, 0.97, 0.274, 192.0, 0.0, 0.0, 0.0, 0.0, 0.0, 0.0, 0.0, 0.0, 0.0, 1.695418940517109E9, 0.0, 2023-09-22 16:42:20.517
58.0, 17849.00788652991, 16941.594116877808, -33347.10399473953, -61728.81266222151, -187500.02235174447, 1916.7738457648572, -187500.02235174447, -187500.02235174447, -45816.33756355495, 13715.589191387797, -4802.071130522625, -66160.47068363079, -9458.788866852388, -47816.30460218246, -3985.137222425607, 18537.307505286637, -0.074, 0.97, 0.274, 192.0, 0.0, 0.0, 0.0, 0.0, 0.0, 0.0, 0.0, 0.0, 0.0, 1.695418940517115E9, 0.0, 2023-09-22 16:42:20.517
60.0, 17838.211993957997, 16929.032436493926, -33350.72497734129, -61741.50845307213, -187500.02235174447, 1908.0119619383768, -187500.02235174447, -187500.02235174447, -45806.18987157224, 13720.640685634695, -4818.901994097471, -66151.8652620155, -9455.190235995084, -47811.70014282467, -4005.678475580034, 18485.920844783886, -0.074, 0.97, 0.274, 192.0, 0.0, 0.0, 0.0, 0.0, 0.0, 0.0, 0.0, 0.0, 0.0, 1.695418940575935E9, 0.0, 2023-09-22 16:42:20.575
62.0, 17860.139055268653, 16948.07612276985, -33344.824116805095, -61723.2694295966, -187500.02235174447, 1916.7514940204019, -187500.02235174447, -187500.02235174447, -45809.07324660698, 13713.331665197811, -4792.057549006647, -66154.50276786122, -9458.878273830209, -47818.65153535027, -4003.9126877680646, 18541.554336733145, -0.076, 0.972, 0.28200000000000003, 192.0, 126.5, 80.0, 15.0, 48.0, 4.0, 104.0, 0.0, 0.0, 0.0, 1.69541894057595E9, 0.0, 2023-09-22 16:42:20.575
64.0, 17857.680363378568, 16949.238413481526, -33337.02335799019, -61721.19071736225, -187500.02235174447, 1895.874964699145, -187500.02235174447, -187500.02235174447, -45793.47172897717, 13726.876822337726, -4806.139148013491, -66135.9061164744, -9452.865654571731, -47800.32310489692, -4007.2207459474503, 18485.674975594877, -0.076, 0.972, 0.28200000000000003, 192.0, 0.0, 0.0, 0.0, 0.0, 0.0, 0.0, 0.0, 0.0, 0.0, 1.695418940575954E9, 0.0, 2023-09-22 16:42:20.575
66.0, 17868.610366417215, 16961.68833514313, -33333.424727132886, -61712.49588876914, -187500.02235174447, 1919.9254417330555, -187500.02235174447, -187500.02235174447, -45800.44547324723, 13727.837947349304, -4796.483194408798, -66140.19765140982, -9451.189273737584, -47798.154985684756, -3987.9311904825204, 18531.361941261523, -0.076, 0.972, 0.28200000000000003, 192.0, 0.0, 0.0, 0.0, 0.0, 0.0, 0.0, 0.0, 0.0, 0.0, 1.695418940575957E9, 0.0, 2023-09-22 16:42:20.575
68.0, 17853.791159843346, 16947.606736136288, -33339.638512091464, -61721.66010399582, -187500.02235174447, 1902.4016740800946, -187500.02235174447, -187500.02235174447, -45799.238479046646, 13734.275249752433, -4790.627037361507, -66133.3580176065, -9453.983241794496, -47797.61854381783, -4000.202298188484, 18494.056879765616, -0.076, 0.972, 0.28200000000000003, 192.0, 0.0, 0.0, 0.0, 0.0, 0.0, 0.0, 0.0, 0.0, 0.0, 1.695418940575961E9, 0.0, 2023-09-22 16:42:20.575
70.0, 17870.71143039601, 16963.141198532725, -33323.634663061464, -61703.39872877583, -187500.02235174447, 1929.7602092933905, -187500.02235174447, -187500.02235174447, -45804.178214571264, 13732.129482284723, -4785.329673925599, -66134.92263971838, -9454.296166216871, -47801.37363688632, -3989.0487777052854, 18537.08398784208, -0.076, 0.972, 0.28200000000000003, 192.0, 0.0, 0.0, 0.0, 0.0, 0.0, 0.0, 0.0, 0.0, 0.0, 1.695418940575965E9, 0.0, 2023-09-22 16:42:20.575
72.0, 17864.38588671516, 16959.296698486414, -33327.59092183005, -61708.36081604491, -187500.02235174447, 1908.4142933385724, -187500.02235174447, -187500.02235174447, -45792.73412141015, 13750.010877848968, -4768.901141750949, -66116.28128484265, -9449.647003370166, -47784.587476800385, -3994.971989985942, 18502.461135680813, -0.076, 0.978, 0.278, 192.0, 126.5, 80.0, 15.0, 72.0, 4.0, 88.0, 0.0, 0.0, 0.0, 1.695418940575968E9, 0.0, 2023-09-22 16:42:20.575
74.0, 17875.53940719836, 16972.32776550386, -33313.19639840083, -61693.027519348565, -187500.02235174447, 1934.8340552847453, -187500.02235174447, -187500.02235174447, -45807.754493684115, 13741.897194611693, -4773.080917964091, -66127.88184021495, -9458.319480218826, -47791.22594490361, -3984.511373580858, 18541.934316388884, -0.076, 0.978, 0.278, 192.0, 0.0, 0.0, 0.0, 0.0, 0.0, 0.0, 0.0, 0.0, 0.0, 1.695418940637676E9, 0.0, 2023-09-22 16:42:20.637
76.0, 17865.503473937926, 16964.07997179985, -33316.48210483576, -61696.64850195033, -187500.02235174447, 1890.4211390520502, -187500.02235174447, -187500.02235174447, -45795.4610342337, 13757.856340152783, -4776.523086610208, -66113.28615108563, -9444.10377074525, -47775.8255929739, -3983.6843590360118, 18503.62342639249, -0.076, 0.978, 0.278, 192.0, 0.0, 0.0, 0.0, 0.0, 0.0, 0.0, 0.0, 0.0, 0.0, 1.695418940637693E9, 0.0, 2023-09-22 16:42:20.637
78.0, 17850.63956387515, 16946.422093680154, -33324.90871249542, -61714.61930449239, -187500.02235174447, 1934.8340552847453, -187500.02235174447, -187500.02235174447, -45814.57177574298, 13734.029380563425, -4801.266467722234, -66138.90125023141, -9449.848169070265, -47794.17637517171, -3971.323844352227, 18519.04613006665, -0.076, 0.978, 0.278, 192.0, 0.0, 0.0, 0.0, 0.0, 0.0, 0.0, 0.0, 0.0, 0.0, 1.695418940637699E9, 0.0, 2023-09-22 16:42:20.637
80.0, 17855.86987207769, 16949.43957918162, -33330.340186398054, -61708.07024336699, -187500.02235174447, 1891.2481535968966, -187500.02235174447, -187500.02235174447, -45812.582470486464, 13731.123653784234, -4758.105249179036, -66141.78462526615, -9453.44679992757, -47802.044189219974, -3986.0089404593637, 18522.778871390685, -0.076, 0.978, 0.278, 192.0, 0.0, 0.0, 0.0, 0.0, 0.0, 0.0, 0.0, 0.0, 0.0, 1.695418940637704E9, 0.0, 2023-09-22 16:42:20.637
82.0, 17855.087561021755, 16946.131521002237, -33322.74059328325, -61714.842821936945, -187500.02235174447, 1913.7563602633907, -187500.02235174447, -187500.02235174447, -45812.984801886654, 13731.704799140072, -4810.207165504356, -66136.62137229698, -9445.288413201382, -47800.390160130286, -3966.272350105328, 18503.60107464803, -0.07200000000000001, 0.978, 0.28200000000000003, 192.0, 126.5, 96.0, 15.0, 72.0, 4.0, 104.0, 0.0, 0.0, 0.0, 1.69541894063771E9, 0.0, 2023-09-22 16:42:20.637
84.0, 17861.390752958152, 16950.512462915478, -33330.74251779825, -61713.524069014085, -187500.02235174447, 1887.873040184145, -187500.02235174447, -187500.02235174447, -45805.56402272749, 13738.879709110226, -4766.509505094231, -66132.03926468364, -9447.076552757806, -47801.150119441765, -3982.902047980076, 18512.027682307682, -0.07200000000000001, 0.978, 0.28200000000000003, 192.0, 0.0, 0.0, 0.0, 0.0, 0.0, 0.0, 0.0, 0.0, 0.0, 1.695418940637716E9, 0.0, 2023-09-22 16:42:20.637
86.0, 17870.465561207006, 16959.564919419878, -33316.45975309131, -61705.768013688095, -187500.02235174447, 1918.7184475324689, -187500.02235174447, -187500.02235174447, -45805.34050528294, 13733.939973585604, -4793.041025762681, -66133.58153505105, -9447.233014968993, -47812.616564347336, -3986.7912515152993, 18506.775022360685, -0.07200000000000001, 0.978, 0.28200000000000003, 192.0, 0.0, 0.0, 0.0, 0.0, 0.0, 0.0, 0.0, 0.0, 0.0, 1.695418940637721E9, 0.0, 2023-09-22 16:42:20.637
88.0, 17881.417915990107, 16969.82437012486, -33321.35478512702, -61697.386109517356, -187500.02235174447, 1892.1198716306535, -187500.02235174447, -187500.02235174447, -45789.381359741856, 13750.904947627181, -4748.6281095299855, -66118.06942439907, -9436.146549719162, -47796.389197872784, -3988.758205027367, 18529.886726127475, -0.07200000000000001, 0.978, 0.28200000000000003, 192.0, 0.0, 0.0, 0.0, 0.0, 0.0, 0.0, 0.0, 0.0, 0.0, 1.695418940637727E9, 0.0, 2023-09-22 16:42:20.637
90.0, 17878.668651422104, 16966.11398054528, -33312.83877048955, -61701.38707177485, -187500.02235174447, 1915.9915347089213, -187500.02235174447, -187500.02235174447, -45793.18115629926, 13748.043924336902, -4780.188772700879, -66121.26572385618, -9444.863730056732, -47798.73613104059, -3987.0818241932184, 18510.619522407, -0.07200000000000001, 0.978, 0.28200000000000003, 192.0, 0.0, 0.0, 0.0, 0.0, 0.0, 0.0, 0.0, 0.0, 0.0, 1.695418940696641E9, 0.0, 2023-09-22 16:42:20.696
92.0, 17884.323642769294, 16970.65138466971, -33323.47820085027, -61698.61545546239, -187500.02235174447, 1892.1869268640194, -187500.02235174447, -187500.02235174447, -45788.531993452554, 13756.738752930016, -4738.502769291731, -66113.77788946366, -9440.415732910125, -47788.40962510224, -3988.489984093903, 18540.61556346602, -0.07200000000000001, 0.974, 0.278, 192.0, 126.5, 96.0, 15.0, 56.0, 4.0, 88.0, 0.0, 0.0, 0.0, 1.695418940696655E9, 0.0, 2023-09-22 16:42:20.696
94.0, 17887.698756182046, 16976.01580333898, -33306.155598897414, -61689.85357163592, -187500.02235174447, 1905.5085665593824, -187500.02235174447, -187500.02235174447, -45792.644714432325, 13755.509406984975, -4775.047871476158, -66112.16856386287, -9447.747105091466, -47793.0811396934, -3988.512335838358, 18511.893571840952, -0.07200000000000001, 0.974, 0.278, 192.0, 0.0, 0.0, 0.0, 0.0, 0.0, 0.0, 0.0, 0.0, 0.0, 1.69541894069666E9, 0.0, 2023-09-22 16:42:20.696
96.0, 17897.77939293139, 16982.900140631216, -33302.19934012882, -61682.29868201002, -187500.02235174447, 1877.8594586681675, -187500.02235174447, -187500.02235174447, -45773.53397292304, 13770.39566879221, -4751.042097931158, -66093.97424387625, -9434.447817140559, -47779.334816853385, -3966.8311437167104, 18529.774967405196, -0.07200000000000001, 0.974, 0.278, 192.0, 0.0, 0.0, 0.0, 0.0, 0.0, 0.0, 0.0, 0.0, 0.0, 1.695418940696665E9, 0.0, 2023-09-22 16:42:20.696
98.0, 17875.472351964992, 16959.676678142154, -33300.94764243932, -61698.280179295565, -187500.02235174447, 1906.2685258708627, -187500.02235174447, -187500.02235174447, -45784.57573468396, 13754.39181976221, -4773.550304597653, -66108.52522951666, -9444.282584700893, -47790.42128210322, -3971.6591205190566, 18495.04035652165, -0.07200000000000001, 0.974, 0.278, 192.0, 0.0, 0.0, 0.0, 0.0, 0.0, 0.0, 0.0, 0.0, 0.0, 1.69541894069667E9, 0.0, 2023-09-22 16:42:20.696
100.0, 17882.043764834852, 16969.712611402585, -33309.240139632246, -61692.24520829263, -187500.02235174447, 1908.257831127385, -187500.02235174447, -187500.02235174447, -45796.62332494537, 13748.178034803634, -4724.6223359849855, -66118.76232847718, -9447.545939391368, -47797.75265428456, -3968.0157861728417, 18556.172377606916, -0.07200000000000001, 0.974, 0.278, 192.0, 0.0, 0.0, 0.0, 0.0, 0.0, 0.0, 0.0, 0.0, 0.0, 1.695418940696675E9, 0.0, 2023-09-22 16:42:20.696
102.0, 17861.72602912498, 16952.255898982992, -33310.84946523303, -61705.410385776806, -187500.02235174447, 1912.2364416404298, -187500.02235174447, -187500.02235174447, -45801.54070872554, 13743.327706256832, -4753.523141565698, -66122.27155235667, -9448.909395803143, -47799.07140720742, -3974.45308857597, 18511.066557296104, -0.074, 0.968, 0.274, 192.0, 126.5, 88.0, 15.0, 32.0, 4.0, 72.0, 0.0, 0.0, 0.0, 1.695418940696679E9, 0.0, 2023-09-22 16:42:20.696
104.0, 17881.954357857034, 16973.06537307088, -33299.60653777201, -61681.51637095409, -187500.02235174447, 1919.9254417330555, -187500.02235174447, -187500.02235174447, -45798.90320287982, 13753.229529050534, -4724.801149940628, -66117.22005810977, -9443.34381143377, -47792.030607704, -3960.5056000358586, 18567.39295332348, -0.074, 0.968, 0.274, 192.0, 0.0, 0.0, 0.0, 0.0, 0.0, 0.0, 0.0, 0.0, 0.0, 1.695418940756918E9, 0.0, 2023-09-22 16:42:20.756
106.0, 17877.05932582132, 16968.438561968633, -33289.101217878015, -61681.11403955389, -187500.02235174447, 1908.0343136828321, -187500.02235174447, -187500.02235174447, -45790.65540917581, 13761.097343098802, -4752.137333409469, -66108.99461615022, -9439.856939298743, -47785.05686343394, -3957.8904459345877, 18519.560220189123, -0.074, 0.968, 0.274, 192.0, 0.0, 0.0, 0.0, 0.0, 0.0, 0.0, 0.0, 0.0, 0.0, 1.695418940756932E9, 0.0, 2023-09-22 16:42:20.756
108.0, 17865.458770449015, 16954.312259472877, -33310.424782088376, -61700.314188041, -187500.02235174447, 1926.0274679693543, -187500.02235174447, -187500.02235174447, -45794.14228131084, 13759.644479709206, -4750.617414786508, -66115.67778774236, -9434.403113651648, -47786.24150589007, -3938.936166636487, 18557.66994448542, -0.074, 0.968, 0.274, 192.0, 0.0, 0.0, 0.0, 0.0, 0.0, 0.0, 0.0, 0.0, 0.0, 1.695418940756937E9, 0.0, 2023-09-22 16:42:20.756
110.0, 17864.25177624843, 16956.748599618506, -33311.58707280005, -61701.09649909694, -187500.02235174447, 1914.0245811968543, -187500.02235174447, -187500.02235174447, -45808.58150822896, 13745.696991169096, -4736.088780890558, -66131.52517456117, -9452.262157471438, -47798.33379964039, -3968.239303617395, 18535.184089563383, -0.074, 0.968, 0.274, 192.0, 0.0, 0.0, 0.0, 0.0, 0.0, 0.0, 0.0, 0.0, 0.0, 1.695418940756942E9, 0.0, 2023-09-22 16:42:20.756
112.0, 17869.236215261964, 16960.63780315373, -33315.78920075765, -61705.65625496582, -187500.02235174447, 1938.4326861420498, -187500.02235174447, -187500.02235174447, -45801.00426685861, 13751.933127872126, -4741.520254793198, -66125.24433436923, -9440.326325932303, -47788.61079080234, -3953.3083383212497, 18564.06254339964, -0.07, 0.972, 0.276, 192.0, 126.5, 104.0, 15.0, 48.0, 4.0, 80.0, 0.0, 0.0, 0.0, 1.695418940756948E9, 0.0, 2023-09-22 16:42:20.756
114.0, 17877.05932582132, 16968.17034103517, -33311.944700711334, -61697.74373742864, -187500.02235174447, 1913.9575259634885, -187500.02235174447, -187500.02235174447, -45797.003304601116, 13757.699877941595, -4723.303583062123, -66121.37748257846, -9446.048372512863, -47792.65645654875, -3982.2761991353277, 18533.463005240323, -0.07, 0.972, 0.276, 192.0, 0.0, 0.0, 0.0, 0.0, 0.0, 0.0, 0.0, 0.0, 0.0, 1.695418940756952E9, 0.0, 2023-09-22 16:42:20.756
116.0, 17882.177875301586, 16971.25488177, -33311.184741399855, -61695.57561821648, -187500.02235174447, 1936.4657326299828, -187500.02235174447, -187500.02235174447, -45788.37553124136, 13761.991412877014, -4735.5970425125415, -66115.63308425345, -9432.81613979532, -47779.02189243101, -3973.3802048421153, 18558.139331118982, -0.07, 0.972, 0.276, 192.0, 0.0, 0.0, 0.0, 0.0, 0.0, 0.0, 0.0, 0.0, 0.0, 1.695418940756957E9, 0.0, 2023-09-22 16:42:20.756
118.0, 17872.901901352634, 16963.87880609975, -33315.677442035376, -61697.49786823963, -187500.02235174447, 1909.7330462614354, -187500.02235174447, -187500.02235174447, -45790.49894696462, 13758.996279120003, -4716.866280658994, -66120.10343314451, -9434.738389818476, -47781.50293606555, -3994.8602312636654, 18525.528135958688, -0.07, 0.972, 0.276, 192.0, 0.0, 0.0, 0.0, 0.0, 0.0, 0.0, 0.0, 0.0, 0.0, 1.695418940756963E9, 0.0, 2023-09-22 16:42:20.756
120.0, 17874.15359904213, 16964.05762005539, -33304.45686631881, -61693.5639612155, -187500.02235174447, 1933.7164680619799, -187500.02235174447, -187500.02235174447, -45793.40467374381, 13760.292680298411, -4740.380315825977, -66117.19770636532, -9421.841433267766, -47774.305674350944, -3968.0157861728417, 18545.041208868173, -0.07, 0.972, 0.276, 192.0, 0.0, 0.0, 0.0, 0.0, 0.0, 0.0, 0.0, 0.0, 0.0, 1.695418940818759E9, 0.0, 2023-09-22 16:42:20.818
122.0, 17882.714317168513, 16973.043021326426, -33300.23238661676, -61680.041155820036, -187500.02235174447, 1881.3686825476507, -187500.02235174447, -187500.02235174447, -45790.901278364814, 13763.511331499974, -4721.917774905894, -66112.59324700752, -9422.511985601424, -47779.93831395368, -3979.996321200886, 18522.465946968314, -0.076, 0.97, 0.272, 192.0, 126.5, 80.0, 15.0, 40.0, 4.0, 64.0, 0.0, 0.0, 0.0, 1.695418940818773E9, 0.0, 2023-09-22 16:42:20.818
124.0, 17868.655069906126, 16957.195634507614, -33297.907805193405, -61691.708766425705, -187500.02235174447, 1913.778712007846, -187500.02235174447, -187500.02235174447, -45791.34831325392, 13759.82329366485, -4776.880714521493, -66113.08498538555, -9418.667485555112, -47775.89264820727, -3953.934187165998, 18513.10056604154, -0.076, 0.97, 0.272, 192.0, 0.0, 0.0, 0.0, 0.0, 0.0, 0.0, 0.0, 0.0, 0.0, 1.695418940818779E9, 0.0, 2023-09-22 16:42:20.818
126.0, 17860.183758757565, 16950.69127687112, -33316.59386355804, -61696.51439148359, -187500.02235174447, 1896.880793199634, -187500.02235174447, -187500.02235174447, -45810.906089652315, 13745.42877023563, -4721.560146994609, -66131.18989839434, -9446.182482979595, -47786.10739542334, -3971.6367687746015, 18523.09179581306, -0.076, 0.97, 0.272, 192.0, 0.0, 0.0, 0.0, 0.0, 0.0, 0.0, 0.0, 0.0, 0.0, 1.695418940818783E9, 0.0, 2023-09-22 16:42:20.818
128.0, 17865.078790793275, 16953.59700365031, -33302.73578199575, -61687.238417534645, -187500.02235174447, 1906.715560759969, -187500.02235174447, -187500.02235174447, -45813.3647815424, 13738.030342820924, -4765.3025108936445, -66133.78270075115, -9438.761703820432, -47785.88387797879, -3956.5940447561798, 18522.08596731257, -0.076, 0.97, 0.272, 192.0, 0.0, 0.0, 0.0, 0.0, 0.0, 0.0, 0.0, 0.0, 0.0, 1.695418940818788E9, 0.0, 2023-09-22 16:42:20.818
130.0, 17862.083657036266, 16950.02072453746, -33309.97774719927, -61692.35696701491, -187500.02235174447, 1867.0859178407095, -187500.02235174447, -187500.02235174447, -45804.312325038, 13750.1449883157, -4763.290853892667, -66122.13744188994, -9428.502253115446, -47780.76532849853, -3956.9516726674647, 18492.827533820575, -0.076, 0.97, 0.272, 192.0, 0.0, 0.0, 0.0, 0.0, 0.0, 0.0, 0.0, 0.0, 0.0, 1.695418940818793E9, 0.0, 2023-09-22 16:42:20.818
132.0, 17838.927249780565, 16924.226811436034, -33324.10404969502, -61718.50850802762, -187500.02235174447, 1922.6300028121477, -187500.02235174447, -187500.02235174447, -45828.20633986072, 13727.212098504557, -4784.860287292038, -66144.93622123435, -9452.39626793817, -47801.17247118622, -3959.455068046459, 18502.841115336552, -0.076, 0.972, 0.268, 192.0, 126.5, 80.0, 15.0, 48.0, 4.0, 48.0, 0.0, 0.0, 0.0, 1.695418940818798E9, 0.0, 2023-09-22 16:42:20.818
134.0, 17848.963183041, 16936.900250542196, -33337.11276496801, -61715.11104287041, -187500.02235174447, 1911.9682207069661, -187500.02235174447, -187500.02235174447, -45835.69417425325, 13724.239316492, -4709.400798010922, -66152.66992481588, -9466.746087878477, -47810.716666068634, -3981.7844607573106, 18547.522252502713, -0.076, 0.972, 0.268, 192.0, 0.0, 0.0, 0.0, 0.0, 0.0, 0.0, 0.0, 0.0, 0.0, 1.695418940878223E9, 0.0, 2023-09-22 16:42:20.878
136.0, 17856.562776155803, 16946.466797169065, -33320.63952930445, -61712.58529574696, -187500.02235174447, 1924.5746045797594, -187500.02235174447, -187500.02235174447, -45825.099447381435, 13731.213060762057, -4757.144124167457, -66142.74575027774, -9457.06778252933, -47802.42416887572, -3974.2519228758724, 18527.85271738204, -0.076, 0.972, 0.268, 192.0, 0.0, 0.0, 0.0, 0.0, 0.0, 0.0, 0.0, 0.0, 0.0, 1.695418940878243E9, 0.0, 2023-09-22 16:42:20.878
138.0, 17869.951471084532, 16963.476474699553, -33322.53942758315, -61701.18590607475, -187500.02235174447, 1892.9021826865892, -187500.02235174447, -187500.02235174447, -45817.321040310984, 13745.406418491177, -4726.142254607947, -66131.12284316098, -9448.931747547596, -47793.259953649045, -3978.945789211487, 18545.734112946287, -0.076, 0.972, 0.268, 192.0, 0.0, 0.0, 0.0, 0.0, 0.0, 0.0, 0.0, 0.0, 0.0, 1.695418940878249E9, 0.0, 2023-09-22 16:42:20.878
140.0, 17876.791104887856, 16968.907948602195, -33306.7590959977, -61697.229647306165, -187500.02235174447, 1906.1567671485864, -187500.02235174447, -187500.02235174447, -45811.10725535241, 13755.86703489626, -4770.957502240837, -66119.45523255531, -9440.929823032597, -47782.50876456604, -3977.2023531439727, 18516.90036259894, -0.076, 0.972, 0.268, 192.0, 0.0, 0.0, 0.0, 0.0, 0.0, 0.0, 0.0, 0.0, 0.0, 1.695418940878254E9, 0.0, 2023-09-22 16:42:20.878
142.0, 17884.48010498048, 16972.88655911524, -33309.30719486561, -61695.32974902746, -187500.02235174447, 1888.7894617068127, -187500.02235174447, -187500.02235174447, -45803.39590351533, 13756.492883741008, -4729.942051165349, -66112.6603022409, -9434.850148540754, -47776.026758674, -3978.319940366738, 18547.030514124694, -0.076, 0.968, 0.264, 192.0, 126.5, 80.0, 15.0, 32.0, 4.0, 32.0, 0.0, 0.0, 0.0, 1.695418940878259E9, 0.0, 2023-09-22 16:42:20.878
144.0, 17888.369308515707, 16975.83698938334, -33286.3072498211, -61685.87496112287, -187500.02235174447, 1903.9662961919662, -187500.02235174447, -187500.02235174447, -45799.059665091, 13750.882595882726, -4752.450257831843, -66113.28615108563, -9435.364238663225, -47784.27455237801, -3982.007978201864, 18522.13067080148, -0.076, 0.968, 0.264, 192.0, 0.0, 0.0, 0.0, 0.0, 0.0, 0.0, 0.0, 0.0, 0.0, 1.695418940878264E9, 0.0, 2023-09-22 16:42:20.878
146.0, 17894.35957602973, 16978.78741965144, -33286.12843586546, -61675.839027862436, -187500.02235174447, 1896.3443513327065, -187500.02235174447, -187500.02235174447, -45781.78176662705, 13764.226587322544, -4728.064504631103, -66102.24438932471, -9422.780206534888, -47772.80810747243, -3959.812695957744, 18551.545566504665, -0.076, 0.968, 0.264, 192.0, 0.0, 0.0, 0.0, 0.0, 0.0, 0.0, 0.0, 0.0, 0.0, 1.695418940878269E9, 0.0, 2023-09-22 16:42:20.878
148.0, 17885.35182301424, 16968.282099757445, -33280.02640962916, -61678.32007149698, -187500.02235174447, 1904.1227584031533, -187500.02235174447, -187500.02235174447, -45785.55921144, 13751.10611332728, -4751.735002009274, -66112.54854351861, -9426.378837392193, -47783.35813085534, -3957.6669284900345, 18518.397929477447, -0.076, 0.968, 0.264, 192.0, 0.0, 0.0, 0.0, 0.0, 0.0, 0.0, 0.0, 0.0, 0.0, 1.695418940878274E9, 0.0, 2023-09-22 16:42:20.878
150.0, 17875.360593242716, 16956.323916473855, -33296.656107503906, -61685.51733321159, -187500.02235174447, 1912.5270143183488, -187500.02235174447, -187500.02235174447, -45790.16367079779, 13751.039058093913, -4727.662173230908, -66118.40470056591, -9424.501290857947, -47785.146270411766, -3943.1829980829953, 18561.223871853814, -0.076, 0.968, 0.264, 192.0, 0.0, 0.0, 0.0, 0.0, 0.0, 0.0, 0.0, 0.0, 0.0, 1.695418940937044E9, 0.0, 2023-09-22 16:42:20.937
152.0, 17863.268299492396, 16946.06446576887, -33302.668726762386, -61695.86619089439, -187500.02235174447, 1925.9827644804436, -187500.02235174447, -187500.02235174447, -45814.92940365427, 13728.687313638606, -4730.992583154748, -66142.03049445516, -9440.751009076954, -47798.40085487376, -3968.887504206599, 18542.71662744482, -0.074, 0.972, 0.272, 192.0, 126.5, 88.0, 15.0, 48.0, 4.0, 64.0, 0.0, 0.0, 0.0, 1.695418940937057E9, 0.0, 2023-09-22 16:42:20.937
154.0, 17875.382944987174, 16957.195634507614, -33307.474351820274, -61699.50952524061, -187500.02235174447, 1906.8943747156115, -187500.02235174447, -187500.02235174447, -45806.68160995026, 13736.085741053314, -4732.132522121969, -66134.56501180709, -9423.96484899102, -47796.41154961724, -3949.5755969972133, 18572.779723737207, -0.074, 0.972, 0.272, 192.0, 0.0, 0.0, 0.0, 0.0, 0.0, 0.0, 0.0, 0.0, 0.0, 1.695418940937062E9, 0.0, 2023-09-22 16:42:20.937
156.0, 17854.72993311047, 16940.92356454415, -33322.47237234979, -61722.4200633073, -187500.02235174447, 1892.4327960530277, -187500.02235174447, -187500.02235174447, -45819.75738045661, 13728.709665383061, -4767.694147550363, -66145.67382880137, -9442.96383177803, -47810.090817223885, -3967.6581582615568, 18514.195801519847, -0.074, 0.972, 0.272, 192.0, 0.0, 0.0, 0.0, 0.0, 0.0, 0.0, 0.0, 0.0, 0.0, 1.695418940937067E9, 0.0, 2023-09-22 16:42:20.937
158.0, 17851.82420633128, 16935.022704007948, -33322.74059328325, -61725.21403136421, -187500.02235174447, 1890.8234704522456, -187500.02235174447, -187500.02235174447, -45824.473598536686, 13722.495880424487, -4770.398708629455, -66152.35700039352, -9435.833625296787, -47819.70206733967, -3955.7893819557885, 18546.650534468954, -0.074, 0.972, 0.272, 192.0, 0.0, 0.0, 0.0, 0.0, 0.0, 0.0, 0.0, 0.0, 0.0, 1.695418940937072E9, 0.0, 2023-09-22 16:42:20.937
160.0, 17850.840729575244, 16932.608715606777, -33323.902883994924, -61725.683417997774, -187500.02235174447, 1868.1588015745642, -187500.02235174447, -187500.02235174447, -45828.60867126092, 13714.493955909486, -4786.4919646372755, -66161.8117882981, -9446.316593446327, -47830.47560816713, -3974.0507571757744, 18495.889722810953, -0.074, 0.972, 0.272, 192.0, 0.0, 0.0, 0.0, 0.0, 0.0, 0.0, 0.0, 0.0, 0.0, 1.695418940937078E9, 0.0, 2023-09-22 16:42:20.937
162.0, 17859.088523279253, 16940.83415756633, -33323.52290433919, -61718.17323186079, -187500.02235174447, 1900.5688310347596, -187500.02235174447, -187500.02235174447, -45825.05474389252, 13720.350112956778, -4796.170269986424, -66154.12278820548, -9439.05227649835, -47825.0888377534, -3953.5318557658024, 18529.417339493913, -0.07, 0.97, 0.274, 192.0, 126.5, 104.0, 15.0, 40.0, 4.0, 72.0, 0.0, 0.0, 0.0, 1.695418940937083E9, 0.0, 2023-09-22 16:42:20.937
164.0, 17858.462674434504, 16940.409474421678, -33321.958282227315, -61718.57556326099, -187500.02235174447, 1879.9828743914218, -187500.02235174447, -187500.02235174447, -45822.39488630234, 13724.976924059025, -4788.145993726968, -66141.65051479942, -9443.276756200405, -47817.98098301661, -3972.910818208554, 18496.314405955603, -0.07, 0.97, 0.274, 192.0, 0.0, 0.0, 0.0, 0.0, 0.0, 0.0, 0.0, 0.0, 0.0, 1.695418940997384E9, 0.0, 2023-09-22 16:42:20.997
166.0, 17866.82222686079, 16945.058637268383, -33314.179875156864, -61719.31317082801, -187500.02235174447, 1921.8253400117565, -187500.02235174447, -187500.02235174447, -45823.758342714114, 13715.388025687698, -4789.397691416466, -66146.34438113503, -9441.600375366257, -47820.64084060679, -3973.6707775200343, 18538.603906465043, -0.07, 0.97, 0.274, 192.0, 0.0, 0.0, 0.0, 0.0, 0.0, 0.0, 0.0, 0.0, 0.0, 1.6954189409974E9, 0.0, 2023-09-22 16:42:20.997
168.0, 17889.106916082732, 16968.505617201998, -33291.470502790275, -61688.22189429068, -187500.02235174447, 1880.4522610249833, -187500.02235174447, -187500.02235174447, -45806.145168083334, 13724.216964747546, -4763.067336448114, -66132.9109827174, -9435.520700874413, -47813.89061378129, -3983.7290625249225, 18522.018912079206, -0.07, 0.97, 0.274, 192.0, 0.0, 0.0, 0.0, 0.0, 0.0, 0.0, 0.0, 0.0, 0.0, 1.695418940997406E9, 0.0, 2023-09-22 16:42:20.997
170.0, 17887.20701780403, 16963.543529932922, -33288.38596205544, -61688.22189429068, -187500.02235174447, 1886.3531215611843, -187500.02235174447, -187500.02235174447, -45789.11313880839, 13742.165415545156, -4812.017656805237, -66116.95183717631, -9416.85699425423, -47795.31631413893, -3946.9380911514872, 18515.313388742612, -0.07, 0.97, 0.274, 192.0, 0.0, 0.0, 0.0, 0.0, 0.0, 0.0, 0.0, 0.0, 0.0, 1.695418940997411E9, 0.0, 2023-09-22 16:42:20.997
172.0, 17872.58897693026, 16948.5008059145, -33304.412162829896, -61696.13441182786, -187500.02235174447, 1862.8614381386565, -187500.02235174447, -187500.02235174447, -45796.66802843428, 13738.969116088048, -4787.386034415488, -66127.72537800377, -9428.859881026732, -47807.36390440034, -3968.6863385065008, 18493.162809987403, -0.07200000000000001, 0.972, 0.278, 192.0, 126.5, 96.0, 15.0, 48.0, 4.0, 88.0, 0.0, 0.0, 0.0, 1.695418940997416E9, 0.0, 2023-09-22 16:42:20.997
174.0, 17873.840674619758, 16945.72918960204, -33300.88058720596, -61697.386109517356, -187500.02235174447, 1922.9205754900665, -187500.02235174447, -187500.02235174447, -45814.70588620972, 13723.56876415834, -4787.363682671033, -66148.17722418037, -9440.616898610222, -47813.532985870006, -3954.0235941438195, 18533.731226173786, -0.07200000000000001, 0.972, 0.278, 192.0, 0.0, 0.0, 0.0, 0.0, 0.0, 0.0, 0.0, 0.0, 0.0, 1.695418940997422E9, 0.0, 2023-09-22 16:42:20.997
176.0, 17887.855218393233, 16957.240337996525, -33297.19254937083, -61688.288949524045, -187500.02235174447, 1884.8332029382234, -187500.02235174447, -187500.02235174447, -45790.16367079779, 13740.489034711009, -4756.160647411424, -66128.35122684852, -9421.662619312123, -47788.38727335779, -3959.87975119111, 18532.501880228745, -0.07200000000000001, 0.972, 0.278, 192.0, 0.0, 0.0, 0.0, 0.0, 0.0, 0.0, 0.0, 0.0, 0.0, 1.695418940997427E9, 0.0, 2023-09-22 16:42:20.997
178.0, 17886.11178232572, 16956.994468807516, -33295.82909295906, -61692.49107748164, -187500.02235174447, 1913.644601541114, -187500.02235174447, -187500.02235174447, -45797.58444995695, 13731.660095651163, -4788.078938493602, -66133.78270075115, -9424.545994346858, -47792.902325737756, -3943.3171085497274, 18540.61556346602, -0.07200000000000001, 0.972, 0.278, 192.0, 0.0, 0.0, 0.0, 0.0, 0.0, 0.0, 0.0, 0.0, 0.0, 1.695418940997433E9, 0.0, 2023-09-22 16:42:20.997
180.0, 17882.20022704604, 16955.340439717824, -33312.03410768916, -61697.92255138428, -187500.02235174447, 1872.137412087609, -187500.02235174447, -187500.02235174447, -45798.14324356833, 13739.237337021512, -4763.112039937025, -66131.36871234998, -9420.030941966885, -47791.49416583707, -3958.0916116346853, 18534.357075018535, -0.07200000000000001, 0.972, 0.278, 192.0, 0.0, 0.0, 0.0, 0.0, 0.0, 0.0, 0.0, 0.0, 0.0, 1.695418941057325E9, 0.0, 2023-09-22 16:42:21.057
182.0, 17848.1138167517, 16919.4435381226, -33336.79984054564, -61738.960354204224, -187500.02235174447, 1892.0304646528323, -187500.02235174447, -187500.02235174447, -45820.003249645626, 13717.734958855506, -4813.269354494733, -66153.87691901647, -9433.218471195516, -47816.90809928276, -3971.5697135412356, 18512.5194206857, -0.07, 0.966, 0.28, 192.0, 126.5, 104.0, 15.0, 24.0, 4.0, 96.0, 0.0, 0.0, 0.0, 1.695418941057339E9, 0.0, 2023-09-22 16:42:21.057
184.0, 17850.416046430593, 16923.511555613466, -33354.41301517642, -61737.55219430354, -187500.02235174447, 1847.1928652754864, -187500.02235174447, -187500.02235174447, -45834.665994008305, 13700.077080735813, -4769.951673740348, -66170.70778259131, -9452.552730149357, -47843.797247862494, -4009.1876994595173, 18527.539792959666, -0.07, 0.966, 0.28, 192.0, 0.0, 0.0, 0.0, 0.0, 0.0, 0.0, 0.0, 0.0, 0.0, 1.695418941057345E9, 0.0, 2023-09-22 16:42:21.057
186.0, 17854.327601710273, 16930.507651627977, -33334.117631211004, -61729.90789769983, -187500.02235174447, 1851.8643798666455, -187500.02235174447, -187500.02235174447, -45827.334621826965, 13698.959493513048, -4831.2178052923455, -66164.5163493772, -9446.204834724049, -47841.629128650326, -4002.258658678372, 18487.887798295953, -0.07, 0.966, 0.28, 192.0, 0.0, 0.0, 0.0, 0.0, 0.0, 0.0, 0.0, 0.0, 0.0, 1.69541894105735E9, 0.0, 2023-09-22 16:42:21.057
188.0, 17861.86013959171, 16939.4483494101, -33332.374195143486, -61723.62705750788, -187500.02235174447, 1816.4368649049838, -187500.02235174447, -187500.02235174447, -45818.796255445035, 13714.024569275925, -4802.719331111829, -66154.56982309459, -9438.940517776075, -47834.74479135809, -3993.005036473875, 18498.303711212124, -0.07, 0.966, 0.28, 192.0, 0.0, 0.0, 0.0, 0.0, 0.0, 0.0, 0.0, 0.0, 0.0, 1.695418941057355E9, 0.0, 2023-09-22 16:42:21.057
190.0, 17856.048686033333, 16931.848756295294, -33321.198322915836, -61731.09254015596, -187500.02235174447, 1844.778876874313, -187500.02235174447, -187500.02235174447, -45819.53386301206, 13710.940028541092, -4846.215825821856, -66152.15583469342, -9442.785017822387, -47834.54362565799, -3990.814565517255, 18460.84218750503, -0.07, 0.966, 0.28, 192.0, 0.0, 0.0, 0.0, 0.0, 0.0, 0.0, 0.0, 0.0, 0.0, 1.695418941057359E9, 0.0, 2023-09-22 16:42:21.057
192.0, 17861.390752958152, 16934.530965629932, -33333.78235504417, -61728.03035116558, -187500.02235174447, 1849.942129843489, -187500.02235174447, -187500.02235174447, -45824.78652295906, 13709.800089573871, -4784.99439775877, -66156.67088707339, -9449.267023714427, -47838.9916228046, -3995.955466741975, 18514.799298620143, -0.068, 0.97, 0.27, 192.0, 126.5, 112.0, 15.0, 40.0, 4.0, 56.0, 0.0, 0.0, 0.0, 1.695418941057364E9, 0.0, 2023-09-22 16:42:21.057
194.0, 17865.34701172674, 16940.811805821875, -33319.38783161496, -61719.49198478365, -187500.02235174447, 1862.839086394201, -187500.02235174447, -187500.02235174447, -45826.97699391568, 13708.056653506357, -4800.66297062194, -66156.87205277348, -9456.82191334032, -47839.79628560499, -3996.7154260534558, 18496.448516422333, -0.068, 0.97, 0.27, 192.0, 0.0, 0.0, 0.0, 0.0, 0.0, 0.0, 0.0, 0.0, 0.0, 1.695418941117953E9, 0.0, 2023-09-22 16:42:21.117
196.0, 17875.382944987174, 16951.942974560618, -33320.05838394861, -61707.55615324452, -187500.02235174447, 1855.84299037969, -187500.02235174447, -187500.02235174447, -45815.59995598793, 13720.595982145785, -4769.303473151144, -66143.99744796722, -9440.907471288141, -47823.099532496875, -3974.095460664685, 18543.565993734122, -0.068, 0.97, 0.27, 192.0, 0.0, 0.0, 0.0, 0.0, 0.0, 0.0, 0.0, 0.0, 0.0, 1.695418941117973E9, 0.0, 2023-09-22 16:42:21.117
198.0, 17867.9174623391, 16945.79624483541, -33313.285805378655, -61710.55128700153, -187500.02235174447, 1853.7419264008913, -187500.02235174447, -187500.02235174447, -45816.87400542188, 13722.00414204647, -4807.860232336549, -66144.55624157861, -9445.981317279497, -47821.57961387392, -3979.3704723561377, 18498.4154699344, -0.068, 0.97, 0.27, 192.0, 0.0, 0.0, 0.0, 0.0, 0.0, 0.0, 0.0, 0.0, 0.0, 1.695418941117981E9, 0.0, 2023-09-22 16:42:21.117
200.0, 17864.25177624843, 16939.470701154554, -33333.04474747714, -61718.17323186079, -187500.02235174447, 1873.880848155123, -187500.02235174447, -187500.02235174447, -45829.279223594574, 13716.19268848809, -4777.126583710502, -66157.85552952952, -9448.350602191758, -47818.27155569453, -3971.9943966858864, 18546.292906557668, -0.068, 0.97, 0.27, 192.0, 0.0, 0.0, 0.0, 0.0, 0.0, 0.0, 0.0, 0.0, 0.0, 1.695418941117987E9, 0.0, 2023-09-22 16:42:21.117
202.0, 17861.234290746965, 16937.526099386945, -33320.03603220416, -61715.15574635932, -187500.02235174447, 1868.851705652679, -187500.02235174447, -187500.02235174447, -45833.66016550782, 13712.594057630786, -4790.80585131715, -66156.22385218428, -9452.128047004706, -47822.85366330787, -3991.842745762199, 18512.631179407977, -0.068, 0.972, 0.274, 192.0, 126.5, 112.0, 15.0, 48.0, 4.0, 72.0, 0.0, 0.0, 0.0, 1.695418941117992E9, 0.0, 2023-09-22 16:42:21.117
204.0, 17864.229424503974, 16935.022704007948, -33323.83582876156, -61718.352045816435, -187500.02235174447, 1871.6009702206816, -187500.02235174447, -187500.02235174447, -45825.390020059356, 13716.974999544025, -4788.302455938156, -66151.06059921511, -9434.53722411838, -47819.50090163957, -3969.1780768845174, 18542.694275700364, -0.068, 0.972, 0.274, 192.0, 0.0, 0.0, 0.0, 0.0, 0.0, 0.0, 0.0, 0.0, 0.0, 1.695418941117997E9, 0.0, 2023-09-22 16:42:21.117
206.0, 17850.2148807305, 16920.11409045626, -33328.864971264, -61730.55609828903, -187500.02235174447, 1863.621397450137, -187500.02235174447, -187500.02235174447, -45835.98474693117, 13702.021682503426, -4791.56581062863, -66166.28213718918, -9446.093076001773, -47842.21027400617, -3988.489984093903, 18502.99757754774, -0.068, 0.972, 0.274, 192.0, 0.0, 0.0, 0.0, 0.0, 0.0, 0.0, 0.0, 0.0, 0.0, 1.695418941118001E9, 0.0, 2023-09-22 16:42:21.118
208.0, 17856.33925871125, 16927.199593448593, -33324.059346206115, -61726.64454300935, -187500.02235174447, 1895.6737989990472, -187500.02235174447, -187500.02235174447, -45837.884645209866, 13703.943932526581, -4781.507525623742, -66168.42790465688, -9442.673259100111, -47840.444486194196, -3976.2635798768497, 18551.009124637738, -0.068, 0.972, 0.274, 192.0, 0.0, 0.0, 0.0, 0.0, 0.0, 0.0, 0.0, 0.0, 0.0, 1.695418941118006E9, 0.0, 2023-09-22 16:42:21.118
210.0, 17865.704639638025, 16939.604811621288, -33308.055497176116, -61710.305417812524, -187500.02235174447, 1867.8682288966454, -187500.02235174447, -187500.02235174447, -45825.34531657044, 13718.226697233522, -4779.831144789594, -66150.34534339253, -9437.755875319943, -47833.291927968494, -3993.2732574073384, 18514.24050500876, -0.068, 0.972, 0.274, 192.0, 0.0, 0.0, 0.0, 0.0, 0.0, 0.0, 0.0, 0.0, 0.0, 1.695418941176884E9, 0.0, 2023-09-22 16:42:21.176
212.0, 17870.331450740272, 16941.30354419989, -33312.05645943361, -61710.84185967945, -187500.02235174447, 1900.7699967348574, -187500.02235174447, -187500.02235174447, -45826.64171774885, 13716.080929765812, -4783.988569258281, -66147.57372708007, -9430.58096534979, -47826.65345986527, -3976.330635110216, 18548.86335717003, -0.076, 0.972, 0.278, 192.0, 126.5, 80.0, 15.0, 48.0, 4.0, 88.0, 0.0, 0.0, 0.0, 1.695418941176897E9, 0.0, 2023-09-22 16:42:21.176
214.0, 17879.33920375576, 16953.038210038925, -33300.411200572395, -61698.414289762295, -187500.02235174447, 1865.9683306179443, -187500.02235174447, -187500.02235174447, -45816.1140461104, 13722.182956002112, -4770.823391774105, -66136.77783450816, -9433.307878173337, -47829.536834900005, -3991.5298213398246, 18515.00046432024, -0.076, 0.972, 0.278, 192.0, 0.0, 0.0, 0.0, 0.0, 0.0, 0.0, 0.0, 0.0, 0.0, 1.695418941176903E9, 0.0, 2023-09-22 16:42:21.176
216.0, 17882.6696136796, 16958.201463008103, -33301.64054651744, -61698.74956592912, -187500.02235174447, 1890.4211390520502, -187500.02235174447, -187500.02235174447, -45812.29189780854, 13731.57068867334, -4793.957447285348, -66128.15006114842, -9420.969715234009, -47825.625279620326, -3967.032309416808, 18531.160775561428, -0.076, 0.972, 0.278, 192.0, 0.0, 0.0, 0.0, 0.0, 0.0, 0.0, 0.0, 0.0, 0.0, 1.695418941176908E9, 0.0, 2023-09-22 16:42:21.176
218.0, 17880.83677063427, 16959.028477552947, -33302.02052617318, -61694.30156878252, -187500.02235174447, 1848.0869350536987, -187500.02235174447, -187500.02235174447, -45808.939136140245, 13736.53277594242, -4778.601798844552, -66122.62918026796, -9423.495462357458, -47824.82061681993, -3980.5327630678134, 18503.645778136943, -0.076, 0.972, 0.278, 192.0, 0.0, 0.0, 0.0, 0.0, 0.0, 0.0, 0.0, 0.0, 0.0, 1.695418941176912E9, 0.0, 2023-09-22 16:42:21.176
220.0, 17873.281881008374, 16951.339477460322, -33305.86502621949, -61701.38707177485, -187500.02235174447, 1893.4162728090612, -187500.02235174447, -187500.02235174447, -45820.53969151255, 13728.57555491633, -4805.8038718466605, -66131.34636060553, -9425.730636802988, -47823.54656738598, -3964.97594892692, 18521.370711490003, -0.076, 0.972, 0.278, 192.0, 0.0, 0.0, 0.0, 0.0, 0.0, 0.0, 0.0, 0.0, 0.0, 1.695418941176917E9, 0.0, 2023-09-22 16:42:21.176
222.0, 17869.660898406615, 16947.182052991637, -33318.62787230347, -61707.287932311054, -187500.02235174447, 1870.9080661425671, -187500.02235174447, -187500.02235174447, -45822.864272935905, 13731.883613095715, -4771.6951098078625, -66133.5591833066, -9441.15334047715, -47826.720515098634, -3987.417100360048, 18516.18510677637, -0.07200000000000001, 0.97, 0.276, 192.0, 126.5, 96.0, 15.0, 40.0, 4.0, 80.0, 0.0, 0.0, 0.0, 1.695418941176933E9, 0.0, 2023-09-22 16:42:21.176
224.0, 17871.672555407593, 16946.891480313716, -33306.20030238632, -61706.77384218858, -187500.02235174447, 1900.904107201589, -187500.02235174447, -187500.02235174447, -45825.74764797064, 13721.020665290436, -4802.227592733811, -66142.32106713307, -9439.476959643001, -47835.77297160304, -3973.8272397312217, 18530.57963020559, -0.07200000000000001, 0.97, 0.276, 192.0, 0.0, 0.0, 0.0, 0.0, 0.0, 0.0, 0.0, 0.0, 0.0, 1.69541894123705E9, 0.0, 2023-09-22 16:42:21.237
226.0, 17859.312040723806, 16937.056712753383, -33325.62396831798, -61722.48711854067, -187500.02235174447, 1872.2268190654302, -187500.02235174447, -187500.02235174447, -45819.287993823054, 13726.698008382084, -4774.578484842597, -66142.63399155546, -9435.610107852233, -47835.77297160304, -3984.712539280956, 18525.81870863661, -0.07200000000000001, 0.97, 0.276, 192.0, 0.0, 0.0, 0.0, 0.0, 0.0, 0.0, 0.0, 0.0, 0.0, 1.695418941237066E9, 0.0, 2023-09-22 16:42:21.237
228.0, 17859.9155378241, 16940.141253488215, -33318.516113581194, -61723.9176301858, -187500.02235174447, 1901.2840868573294, -187500.02235174447, -187500.02235174447, -45828.20633986072, 13708.973075029025, -4801.825261333616, -66156.98381149577, -9442.33798293328, -47843.97606181813, -3983.192620657995, 18531.071368583605, -0.07200000000000001, 0.97, 0.276, 192.0, 0.0, 0.0, 0.0, 0.0, 0.0, 0.0, 0.0, 0.0, 0.0, 1.695418941237072E9, 0.0, 2023-09-22 16:42:21.237
230.0, 17858.663840134603, 16941.63882036672, -33330.40724163142, -61723.6717609968, -187500.02235174447, 1875.1325458446202, -187500.02235174447, -187500.02235174447, -45824.42889504777, 13717.802014088871, -4766.509505094231, -66152.49111086024, -9443.030887011397, -47836.01884079204, -3994.547306841291, 18533.530060473688, -0.07200000000000001, 0.97, 0.276, 192.0, 0.0, 0.0, 0.0, 0.0, 0.0, 0.0, 0.0, 0.0, 0.0, 1.695418941237078E9, 0.0, 2023-09-22 16:42:21.237
232.0, 17868.49860769494, 16954.245204239513, -33300.36649708349, -61705.65625496582, -187500.02235174447, 1894.6679704985584, -187500.02235174447, -187500.02235174447, -45816.87400542188, 13724.216964747546, -4808.955467814859, -66142.49988108872, -9436.258308441438, -47829.045096521986, -3982.320902624238, 18516.721548643298, -0.076, 0.972, 0.268, 192.0, 126.5, 80.0, 15.0, 48.0, 4.0, 48.0, 0.0, 0.0, 0.0, 1.695418941237084E9, 0.0, 2023-09-22 16:42:21.237
234.0, 17869.77265712889, 16956.905061829693, -33312.74936351173, -61705.768013688095, -187500.02235174447, 1880.1169848581535, -187500.02235174447, -187500.02235174447, -45804.893470393836, 13740.869014366748, -4775.293740665167, -66126.8089564811, -9426.736465303477, -47816.21519520464, -3971.972044941431, 18532.278362784193, -0.076, 0.972, 0.268, 192.0, 0.0, 0.0, 0.0, 0.0, 0.0, 0.0, 0.0, 0.0, 0.0, 1.69541894123709E9, 0.0, 2023-09-22 16:42:21.237
236.0, 17870.91259609611, 16958.4026287082, -33303.38398258495, -61707.39969103333, -187500.02235174447, 1907.5649270492706, -187500.02235174447, -187500.02235174447, -45801.49600523663, 13734.3423049858, -4796.66200836444, -66123.63500876844, -9427.027037981396, -47819.85852955086, -3967.591103028191, 18524.56701094711, -0.076, 0.972, 0.268, 192.0, 0.0, 0.0, 0.0, 0.0, 0.0, 0.0, 0.0, 0.0, 0.0, 1.695418941237096E9, 0.0, 2023-09-22 16:42:21.237
238.0, 17880.188570045062, 16967.142160790227, -33310.558892555106, -61700.26948455209, -187500.02235174447, 1871.109231842665, -187500.02235174447, -187500.02235174447, -45788.35317949691, 13741.874842867237, -4756.674737533896, -66115.74484297572, -9428.189328693072, -47820.64084060679, -3974.3413298536934, 18546.56112749113, -0.076, 0.972, 0.268, 192.0, 0.0, 0.0, 0.0, 0.0, 0.0, 0.0, 0.0, 0.0, 0.0, 1.695418941237102E9, 0.0, 2023-09-22 16:42:21.237
240.0, 17878.33337525527, 16963.49882644401, -33300.701773250315, -61701.1635543303, -187500.02235174447, 1883.1791738485306, -187500.02235174447, -187500.02235174447, -45779.47953694815, 13743.372409745743, -4798.226630476312, -66106.93825566034, -9424.791863535866, -47810.04611373498, -3972.195562385984, 18505.85860083802, -0.076, 0.972, 0.268, 192.0, 0.0, 0.0, 0.0, 0.0, 0.0, 0.0, 0.0, 0.0, 0.0, 1.69541894129875E9, 0.0, 2023-09-22 16:42:21.298
242.0, 17875.651165920637, 16963.007088065995, -33316.996194958236, -61705.052757865524, -187500.02235174447, 1879.6475982245922, -187500.02235174447, -187500.02235174447, -45780.1053857929, 13744.981735346526, -4752.070278176103, -66109.5087062727, -9424.814215280321, -47806.49218636658, -3969.2451321178837, 18549.53390950369, -0.076, 0.976, 0.272, 192.0, 126.5, 80.0, 15.0, 64.0, 4.0, 64.0, 0.0, 0.0, 0.0, 1.695418941298765E9, 0.0, 2023-09-22 16:42:21.298
244.0, 17859.334392468263, 16948.21023323658, -33317.622043802985, -61711.93709515776, -187500.02235174447, 1898.2889531003182, -187500.02235174447, -187500.02235174447, -45785.44745271772, 13740.734903900016, -4773.70676680884, -66117.89061044343, -9434.470168885013, -47817.06456149394, -3975.9506554544755, 18521.594228934555, -0.076, 0.976, 0.272, 192.0, 0.0, 0.0, 0.0, 0.0, 0.0, 0.0, 0.0, 0.0, 0.0, 1.69541894129877E9, 0.0, 2023-09-22 16:42:21.298
246.0, 17875.405296731627, 16962.940032832626, -33316.839732747045, -61695.08387983846, -187500.02235174447, 1887.068377383754, -187500.02235174447, -187500.02235174447, -45783.23463001665, 13744.467645224053, -4741.229682115279, -66119.00819766619, -9431.855014783743, -47811.901308524764, -3971.7261757524225, 18573.360869093045, -0.076, 0.976, 0.272, 192.0, 0.0, 0.0, 0.0, 0.0, 0.0, 0.0, 0.0, 0.0, 0.0, 1.695418941298775E9, 0.0, 2023-09-22 16:42:21.298
