%OpenBCI Raw EXG Data
%Number of channels = 16
%Sample Rate = 125 Hz
%Board = OpenBCI_GUI$BoardCytonSerialDaisy
Sample Index, EXG Channel 0, EXG Channel 1, EXG Channel 2, EXG Channel 3, EXG Channel 4, EXG Channel 5, EXG Channel 6, EXG Channel 7, EXG Channel 8, EXG Channel 9, EXG Channel 10, EXG Channel 11, EXG Channel 12, EXG Channel 13, EXG Channel 14, EXG Channel 15, Accel Channel 0, Accel Channel 1, Accel Channel 2, Other, Other, Other, Other, Other, Other, Other, Analog Channel 0, Analog Channel 1, Analog Channel 2, Timestamp, Other, Timestamp (Formatted)
238.0, 41397.91177486322, 30509.57238788276, -32672.461291845, -26552.285439048464, -4584.901581394861, -6736.94988929628, -187500.02235174447, -72228.16464044627, -200.53985125301497, -50262.90419851592, -11487.991987227439, -37808.936871163474, 17125.303104555976, -13959.781999562027, -43289.964591260505, -46525.938394777586, 0.0, 0.0, 0.0, 192.0, 0.0, 0.0, 0.0, 0.0, 0.0, 0.0, 0.0, 0.0, 0.0, 1.695683408821694E9, 0.0, 2023-09-25 18:10:08.821
240.0, 41391.295658504445, 30491.333364407226, -32672.438940100546, -26558.812148429413, -4588.09788085197, -6742.71663936575, -187500.02235174447, -72250.89636455731, -203.98201989913224, -50260.624320581475, -11493.5128681079, -37825.11953414912, 17109.1874968037, -13971.539017145518, -43300.96164953252, -46530.006412268456, 0.0, 0.0, 0.0, 192.0, 0.0, 0.0, 0.0, 0.0, 0.0, 0.0, 0.0, 0.0, 0.0, 1.695683408821703E9, 0.0, 2023-09-25 18:10:08.821
242.0, 41398.11294056332, 30495.423733642547, -32673.154195923114, -26563.08133162038, -4592.05413962056, -6730.780807826616, -187500.02235174447, -72187.77503821552, -216.27547934955115, -50276.04702425564, -11502.721786823486, -37821.29738584726, 17120.89981089828, -13978.780982349037, -43297.92181228659, -46527.52536863391, 0.0, 0.0, 0.0, 192.0, 0.0, 0.0, 0.0, 0.0, 0.0, 0.0, 0.0, 0.0, 0.0, 1.695683408821707E9, 0.0, 2023-09-25 18:10:08.821
244.0, 41399.00701034153, 30491.66864057406, -32662.26889637338, -26557.806319928924, -4582.465241249232, -6722.689476333795, -187500.02235174447, -72221.32500664295, -197.27649656254013, -50251.03542221015, -11481.308815635302, -37824.35957483764, 17110.930932871215, -13958.597357105895, -43287.394140648146, -46503.20667066654, 0.022, 0.912, 0.42, 192.0, 0.0, 88.0, 14.0, 64.0, 6.5, 16.0, 0.0, 0.0, 0.0, 1.695683408821711E9, 0.0, 2023-09-25 18:10:08.821
246.0, 41409.847606402356, 30503.13508547963, -32660.726626005966, -26554.565316982906, -4572.272845777613, -6711.826528528515, -187500.02235174447, -72171.92765139672, -198.81876692995633, -50251.862436755, -11477.911350478096, -37806.500531017846, 17125.86189816736, -13955.244595437598, -43278.74401554394, -46495.47296708501, 0.022, 0.912, 0.42, 192.0, 0.0, 0.0, 0.0, 0.0, 0.0, 0.0, 0.0, 0.0, 0.0, 1.695683408821715E9, 0.0, 2023-09-25 18:10:08.821
248.0, 41408.797074412956, 30499.6482133446, -32657.306809104302, -26558.20865132912, -4562.2592642616355, -6715.38045589691, -187500.02235174447, -72202.88481746732, -196.58359248442562, -50247.59325356403, -11476.547894066322, -37809.518016519316, 17121.659770209764, -13949.23197617912, -43278.632256821664, -46495.11533917372, 0.022, 0.912, 0.42, 192.0, 0.0, 0.0, 0.0, 0.0, 0.0, 0.0, 0.0, 0.0, 0.0, 1.695683408821718E9, 0.0, 2023-09-25 18:10:08.821
250.0, 41412.61922271481, 30503.35860292418, -32669.60026855472, -26557.627505973283, -4579.76068017014, -6728.232708958711, -187500.02235174447, -72163.03165710351, -188.2687435470514, -50243.435829095346, -11468.456562573501, -37797.71629544691, 17119.2904852975, -13962.441857152207, -43273.670169552584, -46495.76353976292, 0.022, 0.912, 0.42, 192.0, 0.0, 0.0, 0.0, 0.0, 0.0, 0.0, 0.0, 0.0, 0.0, 1.695683408821722E9, 0.0, 2023-09-25 18:10:08.821
252.0, 41410.16053082473, 30494.775533053344, -32655.85394571471, -26548.73151168007, -4565.008528829638, -6710.1054442054565, -187500.02235174447, -72183.81877944694, -185.63123770132515, -50239.099590671016, -11465.796704983319, -37802.7230862049, 17124.744310944596, -13950.371915146341, -43277.0676347098, -46493.52836531739, 0.022, 0.912, 0.42, 192.0, 0.0, 0.0, 0.0, 0.0, 0.0, 0.0, 0.0, 0.0, 0.0, 1.695683408821725E9, 0.0, 2023-09-25 18:10:08.821
254.0, 41405.04198134446, 30491.713344062966, -32672.50599533391, -26561.002619386032, -4585.393319772878, -6724.254098445666, -187500.02235174447, -72133.25913348903, -192.00148487108765, -50255.885750756956, -11478.26897838938, -37800.823187926195, 17124.789014433507, -13968.342717688409, -43284.98015224697, -46504.905403245146, 0.028, 0.912, 0.42, 192.0, 0.0, 112.0, 14.0, 64.0, 6.5, 16.0, 0.0, 0.0, 0.0, 1.695683408821729E9, 0.0, 2023-09-25 18:10:08.821
0.0, 20607.4143180149, 15206.428194812323, -16540.916745771974, -13730.140177028201, -2266.9139226572424, -3281.83958313937, -93750.01117587223, -31006.116390957402, -99.46526282611643, -25125.707700932944, -5740.799694156611, -18899.11519278469, 8567.960091586125, -6977.521714868751, -21642.210679317795, -23251.69274231109, 0.038, 0.922, 0.41600000000000004, 192.0, 0.5, 24.0, 14.0, 104.0, 6.5, 0.0, 0.0, 0.0, 0.0, 1.695683408961364E9, 0.0, 2023-09-25 18:10:08.961
2.0, 41242.231874732, 30442.69596847248, -33052.73152026314, -27441.214316036025, -4507.117510690393, -6536.566500254453, -187500.02235174447, -61999.35817710855, -345.177989623307, -50025.57337588947, -11461.281652603348, -37536.44675450883, 16143.882709012356, -14743.992953776475, -42997.49201506282, -46341.447096043485, 0.038, 0.922, 0.41600000000000004, 192.0, 0.0, 0.0, 0.0, 0.0, 0.0, 0.0, 0.0, 0.0, 0.0, 1.695683408961374E9, 0.0, 2023-09-25 18:10:08.961
4.0, 41230.00547051495, 30420.411279250537, -33062.29806689001, -27450.020903351415, -4514.94062124975, -6540.679221234229, -187500.02235174447, -62033.60104961408, -327.0283731255976, -50009.56952685947, -11450.195187353514, -37527.550760215614, 16142.541604345037, -14738.717942085023, -42984.63976200101, -46330.49474126038, 0.038, 0.922, 0.41600000000000004, 192.0, 0.0, 0.0, 0.0, 0.0, 0.0, 0.0, 0.0, 0.0, 0.0, 1.695683408961379E9, 0.0, 2023-09-25 18:10:08.961
6.0, 41209.754790038445, 30412.8787413691, -33093.36699168289, -27471.836205939795, -4544.400220441845, -6570.071765192958, -187500.02235174447, -61964.40004878045, -350.0059664256533, -50030.46840792518, -11464.902635205108, -37525.76262065919, 16146.43080788026, -14746.004610777452, -42995.167433639464, -46347.54912227978, 0.038, 0.922, 0.41600000000000004, 192.0, 0.0, 0.0, 0.0, 0.0, 0.0, 0.0, 0.0, 0.0, 0.0, 1.695683408961382E9, 0.0, 2023-09-25 18:10:08.961
8.0, 41212.23583367298, 30407.20139827745, -33085.78975031254, -27473.780807707408, -4546.903615820839, -6567.836590747427, -187500.02235174447, -61981.70029898886, -360.6453967863795, -50044.8629313544, -11480.101821434715, -37553.29996982813, 16107.13644112783, -14772.334965745804, -43018.81557927318, -46369.27501789034, 0.038, 0.926, 0.40800000000000003, 192.0, 0.5, 24.0, 14.0, 120.0, 6.0, 96.0, 0.0, 0.0, 0.0, 1.695683408961386E9, 0.0, 2023-09-25 18:10:08.961
10.0, 41228.26203444744, 30420.053651339254, -33087.98022126916, -27472.350296062268, -4549.652880388842, -6569.937654726226, -187500.02235174447, -61929.0172373077, -348.4413443137818, -50036.32456497247, -11474.804457998807, -37543.66636796789, 16144.799130535022, -14769.742163388988, -43017.29566065022, -46376.42757611604, 0.038, 0.926, 0.40800000000000003, 192.0, 0.0, 0.0, 0.0, 0.0, 0.0, 0.0, 0.0, 0.0, 0.0, 1.695683408961389E9, 0.0, 2023-09-25 18:10:08.961
12.0, 41231.6818513491, 30421.908846129045, -33072.57986933945, -27462.15790059065, -4530.497435390644, -6550.558692283475, -187500.02235174447, -61961.695487701356, -346.38498382389355, -50030.222538736176, -11468.769486995876, -37544.7616034462, 16120.413377334284, -14771.463247712047, -43012.82531175915, -46373.119517936655, 0.038, 0.926, 0.40800000000000003, 192.0, 0.0, 0.0, 0.0, 0.0, 0.0, 0.0, 0.0, 0.0, 0.0, 1.695683408961393E9, 0.0, 2023-09-25 18:10:08.961
14.0, 41218.65078433166, 30410.576511690204, -33100.98893654215, -27479.97224092153, -4556.403107214344, -6575.9726257291595, -187500.02235174447, -61903.44684165083, -346.07205940151925, -50037.37509696187, -11471.541103308333, -37536.29029229764, 16137.355999631405, -14777.565273948345, -43011.104227436095, -46376.87461100514, 0.038, 0.926, 0.40800000000000003, 192.0, 0.0, 0.0, 0.0, 0.0, 0.0, 0.0, 0.0, 0.0, 0.0, 1.695683408961397E9, 0.0, 2023-09-25 18:10:08.961
16.0, 41204.27861264689, 30400.45117145195, -33098.172616740776, -27481.87213920023, -4563.421554973311, -6567.948349469704, -187500.02235174447, -61897.2107049478, -365.29455963308334, -50049.17681803427, -11487.544952338332, -37558.23970535275, 16102.487278281127, -14784.918997874141, -43026.549282854714, -46387.2011169435, 0.038, 0.926, 0.40800000000000003, 192.0, 0.0, 0.0, 0.0, 0.0, 0.0, 0.0, 0.0, 0.0, 0.0, 1.695683409021674E9, 0.0, 2023-09-25 18:10:09.021
18.0, 41217.19792094206, 30408.810723878232, -33097.88204406286, -27482.00624966696, -4560.314662494024, -6570.943483226715, -187500.02235174447, -61839.565555997564, -374.7269957932229, -50051.54610294654, -11493.848144274729, -37560.58663852056, 16094.306539810485, -14796.765422435454, -43031.04198349023, -46391.626762345644, 0.04, 0.928, 0.404, 192.0, 0.5, 32.0, 14.5, 0.0, 6.0, 80.0, 0.0, 0.0, 0.0, 1.695683409021708E9, 0.0, 2023-09-25 18:10:09.021
20.0, 41210.023010971905, 30407.8272471222, -33084.87332878987, -27478.76524672094, -4542.768543096608, -6552.883273706827, -187500.02235174447, -61835.9445733958, -367.1274026784185, -50042.80657086451, -11487.053213960316, -37555.66925474039, 16104.007196904087, -14776.537093703402, -43019.88846300703, -46379.2438959174, 0.04, 0.928, 0.404, 192.0, 0.0, 0.0, 0.0, 0.0, 0.0, 0.0, 0.0, 0.0, 0.0, 1.695683409021715E9, 0.0, 2023-09-25 18:10:09.021
22.0, 41213.68869706258, 30416.83500013769, -33100.72071560869, -27483.146188634182, -4562.371022983912, -6563.813276745472, -187500.02235174447, -61808.20605852677, -355.59390253948004, -50026.936832301246, -11468.925949207061, -37540.7606411887, 16113.506688297593, -14769.608052922256, -43003.906965721486, -46363.530619565325, 0.04, 0.928, 0.404, 192.0, 0.0, 0.0, 0.0, 0.0, 0.0, 0.0, 0.0, 0.0, 0.0, 1.695683409021719E9, 0.0, 2023-09-25 18:10:09.021
24.0, 41220.304813421346, 30416.231503037394, -33080.693552576726, -27475.09956063027, -4535.32541219299, -6556.3701458418545, -187500.02235174447, -61819.44898598779, -361.1371351643962, -50035.18462600525, -11471.965786452984, -37546.57209474708, 16094.217132832664, -14776.35827974776, -43018.94968973991, -46372.11368943616, 0.04, 0.928, 0.404, 192.0, 0.0, 0.0, 0.0, 0.0, 0.0, 0.0, 0.0, 0.0, 0.0, 1.695683409021722E9, 0.0, 2023-09-25 18:10:09.021
26.0, 41217.220272686514, 30412.699927413458, -33098.239671974145, -27486.5883572803, -4555.576092669498, -6577.961930985682, -187500.02235174447, -61799.35476772246, -355.1915711392845, -50033.62000389338, -11463.494475304422, -37537.09495509803, 16114.66897900927, -14780.247483282983, -43010.27721289125, -46369.967921968455, 0.04, 0.928, 0.404, 192.0, 0.0, 0.0, 0.0, 0.0, 0.0, 0.0, 0.0, 0.0, 0.0, 1.695683409021725E9, 0.0, 2023-09-25 18:10:09.021
28.0, 41208.95012723805, 30400.294709240763, -33095.870387061885, -27495.171427151137, -4552.04451704556, -6580.5547333424975, -187500.02235174447, -61785.00494778216, -351.369422837427, -50034.15644576031, -11461.259300858892, -37530.858818395, 16119.049920922509, -14772.580834934812, -43011.238337902825, -46375.22058191545, 0.048, 0.926, 0.4, 192.0, 0.5, 64.0, 14.0, 120.0, 6.0, 64.0, 0.0, 0.0, 0.0, 1.695683409021728E9, 0.0, 2023-09-25 18:10:09.021
30.0, 41208.59249932677, 30398.260700495328, -33099.64783187483, -27501.184046409613, -4561.655767161342, -6588.109622968391, -187500.02235174447, -61761.53561610408, -362.7017572762677, -50051.56845469099, -11473.575112053766, -37550.50600177122, 16101.839077691922, -14802.554524249379, -43023.621204331066, -46389.77156755586, 0.048, 0.926, 0.4, 192.0, 0.0, 0.0, 0.0, 0.0, 0.0, 0.0, 0.0, 0.0, 0.0, 1.695683409082049E9, 0.0, 2023-09-25 18:10:09.082
32.0, 41212.906386006645, 30403.69217439797, -33088.941346280735, -27499.68647953111, -4554.078525790993, -6579.25833216409, -187500.02235174447, -61731.78544423407, -371.6871585473011, -50051.16612329079, -11478.60425455621, -37547.08618486955, 16103.336644570429, -14804.275608572438, -43030.61730034558, -46396.253573447895, 0.048, 0.926, 0.4, 192.0, 0.0, 0.0, 0.0, 0.0, 0.0, 0.0, 0.0, 0.0, 0.0, 1.69568340908206E9, 0.0, 2023-09-25 18:10:09.082
34.0, 41215.96857499702, 30411.73880240188, -33086.2591369461, -27490.589319537798, -4554.190284513269, -6578.900704252805, -187500.02235174447, -61742.84955773945, -348.06136465804155, -50027.51797765708, -11460.588748525233, -37539.68775745485, 16109.483374295638, -14791.803335166376, -43016.334535638634, -46377.165183683064, 0.048, 0.926, 0.4, 192.0, 0.0, 0.0, 0.0, 0.0, 0.0, 0.0, 0.0, 0.0, 0.0, 1.695683409082063E9, 0.0, 2023-09-25 18:10:09.082
36.0, 41196.880185232185, 30398.14894177305, -33104.185235999255, -27508.470715102045, -4569.680043420797, -6597.922038784271, -187500.02235174447, -61685.763202400594, -384.852336031477, -50068.55578047702, -11502.252400189926, -37549.70133897082, 16078.213283802663, -14809.17064060815, -43043.58131212966, -46411.58687014424, 0.048, 0.926, 0.4, 192.0, 0.0, 0.0, 0.0, 0.0, 0.0, 0.0, 0.0, 0.0, 0.0, 1.695683409082067E9, 0.0, 2023-09-25 18:10:09.082
38.0, 41200.76938876741, 30409.190703533975, -33098.77611384107, -27495.506703317966, -4566.930778852794, -6589.562486357986, -187500.02235174447, -61692.66989143728, -361.60652179795767, -50036.8610068394, -11481.08529819075, -37544.98512089076, 16092.272531065051, -14785.678957185622, -43020.961346740885, -46392.72199782396, 0.046, 0.926, 0.404, 192.0, 0.5, 56.0, 14.0, 120.0, 6.0, 80.0, 0.0, 0.0, 0.0, 1.69568340908207E9, 0.0, 2023-09-25 18:10:09.082
40.0, 41205.99969696995, 30427.407375265047, -33092.47292190468, -27489.359973592756, -4567.266055019624, -6566.406079102288, -187500.02235174447, -61636.477605876644, -384.8299842870217, -50047.746306389134, -11499.525487366378, -37536.938492886846, 16079.33087102543, -14797.100698602284, -43033.120695724574, -46397.5499746263, 0.046, 0.926, 0.404, 192.0, 0.0, 0.0, 0.0, 0.0, 0.0, 0.0, 0.0, 0.0, 0.0, 1.695683409082074E9, 0.0, 2023-09-25 18:10:09.082
42.0, 41205.86558650322, 30422.82526765171, -33083.46516888919, -27474.67487748562, -4558.839447359973, -6558.985299943126, -187500.02235174447, -61653.21906247367, -357.2032281402622, -50020.8571578094, -11473.195132398027, -37524.80149564761, 16101.682615480737, -14766.121180787228, -43006.25389888929, -46364.0447096878, 0.046, 0.926, 0.404, 192.0, 0.0, 0.0, 0.0, 0.0, 0.0, 0.0, 0.0, 0.0, 0.0, 1.695683409082077E9, 0.0, 2023-09-25 18:10:09.082
44.0, 41201.73051377899, 30420.768907161822, -33094.484578905656, -27484.755514234963, -4563.063927062026, -6568.305977380989, -187500.02235174447, -61590.254198343064, -375.3751963824268, -50030.53546315855, -11484.773336025875, -37519.52648395616, 16084.315310038963, -14777.542922203891, -43013.674678048454, -46376.4946313494, 0.046, 0.926, 0.404, 192.0, 0.0, 0.0, 0.0, 0.0, 0.0, 0.0, 0.0, 0.0, 0.0, 1.695683409082081E9, 0.0, 2023-09-25 18:10:09.082
46.0, 41204.18920566907, 30417.0808693267, -33085.27566019007, -27480.039296154893, -4561.991043328171, -6564.327366867944, -187500.02235174447, -61612.33772186491, -376.0233969716307, -50028.0097160351, -11476.257321388402, -37529.47301023877, 16082.37070827135, -14778.861675126753, -43013.205291414895, -46364.55879981027, 0.046, 0.926, 0.404, 192.0, 0.0, 0.0, 0.0, 0.0, 0.0, 0.0, 0.0, 0.0, 0.0, 1.695683409141285E9, 0.0, 2023-09-25 18:10:09.141
48.0, 41225.04338324587, 30436.325721302717, -33073.04925597301, -27469.824548938817, -4552.938586823772, -6547.049468403991, -187500.02235174447, -61563.18623580769, -369.8766672464213, -50031.38482944785, -11468.478914317957, -37512.262167008186, 16088.338624040918, -14777.5876256928, -43010.970116969365, -46357.47329681794, 0.046, 0.926, 0.402, 192.0, 0.5, 56.0, 14.0, 120.0, 6.0, 72.0, 0.0, 0.0, 0.0, 1.695683409141306E9, 0.0, 2023-09-25 18:10:09.141
50.0, 41215.700354063556, 30433.06236661224, -33067.17074718127, -27467.924650660116, -4546.61304314292, -6542.556767768475, -187500.02235174447, -61594.52338153403, -347.01083266864214, -50000.89705001081, -11446.730666962942, -37506.47306519426, 16101.213228847175, -14754.185349248095, -42991.05471265969, -46332.61815698363, 0.046, 0.926, 0.402, 192.0, 0.0, 0.0, 0.0, 0.0, 0.0, 0.0, 0.0, 0.0, 0.0, 1.695683409141309E9, 0.0, 2023-09-25 18:10:09.141
52.0, 41219.85777853224, 30442.830078939212, -33078.36897115338, -27481.87213920023, -4566.416688730323, -6560.527570310542, -187500.02235174447, -61533.21254649312, -364.2663793881392, -50018.48787289714, -11465.21555962748, -37500.19222500232, 16093.770097943558, -14781.40977399466, -43009.58430881314, -46354.03112817182, 0.046, 0.926, 0.402, 192.0, 0.0, 0.0, 0.0, 0.0, 0.0, 0.0, 0.0, 0.0, 0.0, 1.695683409141312E9, 0.0, 2023-09-25 18:10:09.141
54.0, 41207.98900222647, 30432.347110789673, -33073.719808306676, -27485.24725261298, -4560.001738071649, -6559.342927854411, -187500.02235174447, -61556.32425025991, -356.44326882878175, -50011.98351526064, -11458.5547397798, -37506.76363787218, 16085.723469939647, -14765.7859046204, -43007.08091343414, -46350.812476970255, 0.046, 0.926, 0.402, 192.0, 0.0, 0.0, 0.0, 0.0, 0.0, 0.0, 0.0, 0.0, 0.0, 1.695683409141315E9, 0.0, 2023-09-25 18:10:09.141
56.0, 41213.241662173474, 30437.197439336473, -33075.61970658538, -27486.096618902284, -4561.231084016691, -6554.336137096422, -187500.02235174447, -61503.48472636756, -360.1536584083627, -50024.6569543668, -11467.093106161727, -37501.44392269182, 16105.348301571406, -14784.248445540483, -43006.008029700286, -46359.976692196935, 0.046, 0.926, 0.402, 192.0, 0.0, 0.0, 0.0, 0.0, 0.0, 0.0, 0.0, 0.0, 0.0, 1.695683409141318E9, 0.0, 2023-09-25 18:10:09.141
58.0, 41211.4758743615, 30430.469564255425, -33064.756758780095, -27482.028601411417, -4546.188359998269, -6551.542169039509, -187500.02235174447, -61529.9715435471, -360.3771758529158, -50022.42177992127, -11465.148504394116, -37508.70823963979, 16079.263815792063, -14779.889855371697, -43000.5989075421, -46354.50051480538, 0.054, 0.926, 0.41000000000000003, 192.0, 0.5, 88.0, 14.0, 120.0, 6.0, 104.0, 0.0, 0.0, 0.0, 1.695683409141322E9, 0.0, 2023-09-25 18:10:09.141
60.0, 41220.59538609927, 30443.254762083863, -33061.046369200514, -27474.898394930173, -4544.690793119764, -6550.961023683671, -187500.02235174447, -61485.40216510322, -359.2819403746057, -50021.23713746514, -11454.59848101121, -37497.75588485669, 16101.52615326955, -14775.441858225091, -42988.50661379178, -46349.337261836205, 0.054, 0.926, 0.41000000000000003, 192.0, 0.0, 0.0, 0.0, 0.0, 0.0, 0.0, 0.0, 0.0, 0.0, 1.695683409201168E9, 0.0, 2023-09-25 18:10:09.201
62.0, 41201.708162034534, 30418.041994338277, -33080.33592466544, -27497.987746952505, -4562.460429961733, -6566.540189569019, -187500.02235174447, -61485.37981335876, -356.42091708432645, -50019.24783220862, -11453.726762977454, -37503.83555934853, 16095.602940988892, -14782.616768195245, -42989.26657310326, -46348.8902269471, 0.054, 0.926, 0.41000000000000003, 192.0, 0.0, 0.0, 0.0, 0.0, 0.0, 0.0, 0.0, 0.0, 0.0, 1.695683409201179E9, 0.0, 2023-09-25 18:10:09.201
64.0, 41213.733400551486, 30430.111936344143, -33074.14449145133, -27497.943043463594, -4552.04451704556, -6568.261273892078, -187500.02235174447, -61429.07576907585, -367.8426585009883, -50037.24098649514, -11465.03674567184, -37515.458466465294, 16086.930464140234, -14805.482602773023, -43001.58238429813, -46360.98252069742, 0.054, 0.926, 0.41000000000000003, 192.0, 0.0, 0.0, 0.0, 0.0, 0.0, 0.0, 0.0, 0.0, 0.0, 1.695683409201182E9, 0.0, 2023-09-25 18:10:09.201
66.0, 41210.89472900567, 30434.157602090552, -33063.23684015714, -27492.265700371947, -4549.1164385219145, -6559.588797043419, -187500.02235174447, -61450.935775153135, -354.1857426387957, -50016.69973334071, -11446.574204751756, -37502.94148957032, 16094.954740399688, -14788.942311876097, -42989.53479403672, -46350.49955254788, 0.054, 0.926, 0.41000000000000003, 192.0, 0.0, 0.0, 0.0, 0.0, 0.0, 0.0, 0.0, 0.0, 0.0, 1.695683409201186E9, 0.0, 2023-09-25 18:10:09.201
68.0, 41210.939432494575, 30431.944779389476, -33075.5079478631, -27502.25693014347, -4556.6266246588975, -6571.457573349187, -187500.02235174447, -61411.52964967843, -350.0506699145639, -50017.79496881902, -11446.238928584926, -37499.320506968565, 16101.056766635988, -14787.936483375608, -42989.35598008108, -46351.70654674847, 0.052000000000000005, 0.922, 0.41400000000000003, 192.0, 0.5, 80.0, 14.0, 104.0, 6.0, 120.0, 0.0, 0.0, 0.0, 1.69568340920119E9, 0.0, 2023-09-25 18:10:09.201
70.0, 41198.89184223316, 30421.707680428946, -33077.206680441705, -27509.096563946794, -4558.168895026314, -6574.542114084019, -187500.02235174447, -61403.90770481917, -364.37813811041576, -50028.2108817352, -11457.45950430149, -37507.47889369475, 16081.23076930413, -14796.49720150199, -43000.55420405319, -46361.40720384207, 0.052000000000000005, 0.922, 0.41400000000000003, 192.0, 0.0, 0.0, 0.0, 0.0, 0.0, 0.0, 0.0, 0.0, 0.0, 1.695683409201193E9, 0.0, 2023-09-25 18:10:09.201
72.0, 41210.98413598348, 30431.274227055816, -33078.99481999812, -27507.666052301654, -4554.99494731366, -6575.391480373321, -187500.02235174447, -61373.64344282669, -361.047728186575, -50029.41787593578, -11453.279728088348, -37507.344783228014, 16084.337661783418, -14794.843172412298, -42991.7476167378, -46352.13122989312, 0.052000000000000005, 0.922, 0.41400000000000003, 192.0, 0.0, 0.0, 0.0, 0.0, 0.0, 0.0, 0.0, 0.0, 0.0, 1.695683409201199E9, 0.0, 2023-09-25 18:10:09.201
74.0, 41219.902482021156, 30440.8854771716, -33063.840337257425, -27494.992613195493, -4545.13782800887, -6557.241863875612, -187500.02235174447, -61383.23234119801, -352.15173389336275, -50022.019448521074, -11449.614041997676, -37503.94731807081, 16094.150077599297, -14799.157059092173, -42994.65334351699, -46355.39458458359, 0.052000000000000005, 0.922, 0.41400000000000003, 192.0, 0.0, 0.0, 0.0, 0.0, 0.0, 0.0, 0.0, 0.0, 0.0, 1.695683409201204E9, 0.0, 2023-09-25 18:10:09.201
76.0, 41215.566243596826, 30437.286846314295, -33074.055084473504, -27496.668994029642, -4546.858912331929, -6562.762744756073, -187500.02235174447, -61370.44714336958, -344.77565822311146, -50007.93784951423, -11437.141768591615, -37492.48087316524, 16081.387231515317, -14782.907340873164, -42978.537735764716, -46337.06615413024, 0.052000000000000005, 0.922, 0.41400000000000003, 192.0, 0.0, 0.0, 0.0, 0.0, 0.0, 0.0, 0.0, 0.0, 0.0, 1.695683409261444E9, 0.0, 2023-09-25 18:10:09.261
78.0, 41199.04830444435, 30427.094450842676, -33083.353410166914, -27514.885665760718, -4551.195150756258, -6569.691785537218, -187500.02235174447, -61348.60948903674, -368.2002864122732, -50028.41204743529, -11452.899748432606, -37502.15917851438, 16073.854693633879, -14803.605056238779, -42991.389988826515, -46355.148715394585, 0.052000000000000005, 0.928, 0.418, 192.0, 0.5, 80.0, 14.5, 0.0, 6.5, 8.0, 0.0, 0.0, 0.0, 1.695683409261468E9, 0.0, 2023-09-25 18:10:09.261
80.0, 41190.50993806242, 30422.9817298629, -33102.97824179867, -27529.72722407904, -4576.452621990755, -6583.326349654955, -187500.02235174447, -61325.721302714504, -373.94468473728716, -50033.01650679309, -11461.773390981363, -37516.46429496578, 16064.668126662747, -14808.50008827449, -42996.08385516213, -46359.10497416317, 0.052000000000000005, 0.928, 0.418, 192.0, 0.0, 0.0, 0.0, 0.0, 0.0, 0.0, 0.0, 0.0, 0.0, 1.695683409261472E9, 0.0, 2023-09-25 18:10:09.261
82.0, 41200.85879574523, 30426.580360720203, -33089.32132593648, -27520.92063676365, -4550.256377489135, -6571.167000671268, -187500.02235174447, -61305.00123560444, -377.2750946611279, -50032.658878881804, -11469.261225373892, -37520.085277567545, 16059.683687649214, -14814.98209416653, -43009.74077102432, -46371.085509191216, 0.052000000000000005, 0.928, 0.418, 192.0, 0.0, 0.0, 0.0, 0.0, 0.0, 0.0, 0.0, 0.0, 0.0, 1.695683409261476E9, 0.0, 2023-09-25 18:10:09.261
84.0, 41190.19701364005, 30416.8797036266, -33107.69445987874, -27532.38708166922, -4577.100822579959, -6583.415756632777, -187500.02235174447, -61284.772906872386, -370.1895916687956, -50030.78133234756, -11464.343841593723, -37518.63241417795, 16066.36685924135, -14801.92867540463, -43003.88461397703, -46364.871724232646, 0.052000000000000005, 0.928, 0.418, 192.0, 0.0, 0.0, 0.0, 0.0, 0.0, 0.0, 0.0, 0.0, 0.0, 1.695683409261481E9, 0.0, 2023-09-25 18:10:09.261
86.0, 41199.16006316663, 30423.920503130023, -33093.94813703873, -27525.45804088808, -4564.963825340727, -6577.067861207469, -187500.02235174447, -61246.797293042815, -376.9398184942983, -50034.826998093966, -11466.355498594701, -37513.37975423095, 16057.448513203683, -14817.776062223444, -43009.159625668486, -46373.43244235903, 0.052000000000000005, 0.928, 0.418, 192.0, 0.0, 0.0, 0.0, 0.0, 0.0, 0.0, 0.0, 0.0, 0.0, 1.695683409261485E9, 0.0, 2023-09-25 18:10:09.261
88.0, 41197.39427535466, 30423.16054381854, -33094.97631728367, -27520.6971193191, -4570.708223665742, -6571.725794282651, -187500.02235174447, -61256.587357114244, -357.5608560515471, -50025.863948567385, -11453.950280422006, -37510.295213496116, 16070.9936703436, -14814.26683834396, -42998.63195403003, -46361.49661081989, 0.042, 0.928, 0.41200000000000003, 192.0, 0.5, 40.0, 14.5, 0.0, 6.0, 112.0, 0.0, 0.0, 0.0, 1.695683409261489E9, 0.0, 2023-09-25 18:10:09.261
90.0, 41205.977345225496, 30432.01183462284, -33095.78098008406, -27522.261741430968, -4571.624645188409, -6571.725794282651, -187500.02235174447, -61214.87900196064, -372.93885623679836, -50035.6093091499, -11464.634414271643, -37505.08725703803, 16039.701228106169, -14812.992788910007, -43003.23641338783, -46366.21282889996, 0.042, 0.928, 0.41200000000000003, 192.0, 0.0, 0.0, 0.0, 0.0, 0.0, 0.0, 0.0, 0.0, 0.0, 1.695683409321735E9, 0.0, 2023-09-25 18:10:09.321
92.0, 41187.00071418294, 30418.82430539421, -33099.312555708, -27521.702947819587, -4578.151354569359, -6563.276834878545, -187500.02235174447, -61227.440682344524, -369.2284666572174, -50028.14382650183, -11462.868626459674, -37516.9560333438, 16054.676896891226, -14817.820765712353, -43004.44340758841, -46362.72595676494, 0.042, 0.928, 0.41200000000000003, 192.0, 0.0, 0.0, 0.0, 0.0, 0.0, 0.0, 0.0, 0.0, 0.0, 1.695683409321749E9, 0.0, 2023-09-25 18:10:09.321
94.0, 41189.45940607302, 30420.12070657262, -33107.06861103399, -27532.141212480215, -4586.376796528912, -6581.225285676156, -187500.02235174447, -61174.310585774256, -377.2750946611279, -50029.373172446874, -11459.717030491476, -37506.85304485, 16057.180292270219, -14832.684675775132, -43000.28598311973, -46361.586017797716, 0.042, 0.928, 0.41200000000000003, 192.0, 0.0, 0.0, 0.0, 0.0, 0.0, 0.0, 0.0, 0.0, 0.0, 1.695683409321753E9, 0.0, 2023-09-25 18:10:09.321
96.0, 41183.98322868148, 30405.949700587953, -33104.7663813551, -27533.21409621407, -4574.2397992896795, -6580.197105431213, -187500.02235174447, -61174.042364840796, -384.89703952038764, -50044.684117398756, -11466.310795105792, -37528.534236971645, 16034.9850100261, -14828.527251306446, -43011.03717220273, -46371.68900629151, 0.042, 0.928, 0.41200000000000003, 192.0, 0.0, 0.0, 0.0, 0.0, 0.0, 0.0, 0.0, 0.0, 0.0, 1.695683409321757E9, 0.0, 2023-09-25 18:10:09.321
98.0, 41207.40785687064, 30433.01766312333, -33087.622593357875, -27522.149982708692, -4564.114459051426, -6558.270044120556, -187500.02235174447, -61120.420529892515, -382.14777495238485, -50042.87362609788, -11463.36036483769, -37516.03961182113, 16054.363972468851, -14838.451425844602, -43002.52115756526, -46370.48201209093, 0.054, 0.93, 0.41200000000000003, 192.0, 0.5, 88.0, 14.5, 8.0, 6.0, 112.0, 0.0, 0.0, 0.0, 1.69568340932176E9, 0.0, 2023-09-25 18:10:09.321
100.0, 41194.73441776448, 30417.282035026794, -33087.913166035796, -27518.5960553403, -4561.409897972333, -6554.827875474439, -187500.02235174447, -61171.56132120625, -354.1633908943404, -50008.6531053368, -11429.944506877007, -37501.91330932538, 16061.114199294354, -14808.544791763401, -42982.583401511125, -46341.447096043485, 0.054, 0.93, 0.41200000000000003, 192.0, 0.0, 0.0, 0.0, 0.0, 0.0, 0.0, 0.0, 0.0, 0.0, 1.695683409321764E9, 0.0, 2023-09-25 18:10:09.321
102.0, 41196.29903987635, 30419.047822838766, -33100.92188130878, -27530.5989421128, -4572.317549266523, -6568.305977380989, -187500.02235174447, -61125.784948561784, -362.6123502984465, -50032.52476841507, -11445.344858806713, -37509.155274528894, 16053.827530601924, -14833.623449042256, -42988.88659344752, -46356.57922703972, 0.054, 0.93, 0.41200000000000003, 192.0, 0.0, 0.0, 0.0, 0.0, 0.0, 0.0, 0.0, 0.0, 0.0, 1.695683409321768E9, 0.0, 2023-09-25 18:10:09.321
104.0, 41178.79762396785, 30399.15477027354, -33116.92573033878, -27548.368578954767, -4588.589619229987, -6583.72868105515, -187500.02235174447, -61131.41758816452, -368.5579143235582, -50038.91736732929, -11456.990117667929, -37525.33793751454, 16050.340658466896, -14846.31923989287, -42998.6990092634, -46367.91156147856, 0.054, 0.93, 0.41200000000000003, 192.0, 0.0, 0.0, 0.0, 0.0, 0.0, 0.0, 0.0, 0.0, 0.0, 1.695683409321773E9, 0.0, 2023-09-25 18:10:09.321
106.0, 41197.1260544212, 30408.520151200315, -33114.93642508226, -27546.58043939834, -4590.355407041956, -6587.886105523838, -187500.02235174447, -61084.545980041745, -385.99227499869767, -50065.515943231105, -11477.620777800177, -37545.09687961303, 16035.32028619293, -14869.90033029322, -43020.87193976306, -46398.779320571346, 0.054, 0.93, 0.41200000000000003, 192.0, 0.0, 0.0, 0.0, 0.0, 0.0, 0.0, 0.0, 0.0, 0.0, 1.695683409381711E9, 0.0, 2023-09-25 18:10:09.381
108.0, 41182.351551336236, 30399.15477027354, -33117.953910583725, -27546.31221846488, -4592.881154165406, -6581.269989165067, -187500.02235174447, -61103.74612852885, -375.19638242678434, -50055.32354775948, -11462.041611914829, -37545.40980403541, 16048.954850310667, -14861.65253658921, -43011.99829721431, -46385.68119832053, 0.054, 0.93, 0.406, 192.0, 0.5, 88.0, 14.5, 8.0, 6.0, 88.0, 0.0, 0.0, 0.0, 1.695683409381722E9, 0.0, 2023-09-25 18:10:09.381
110.0, 41206.02204871441, 30419.964244361432, -33113.058878548014, -27534.845773559307, -4584.588656972487, -6567.143686669313, -187500.02235174447, -61056.67335470598, -364.2663793881392, -50050.272053512585, -11460.36523108068, -37536.67027195338, 16052.061742789954, -14860.5573011109, -43002.27528837625, -46374.77354702634, 0.054, 0.93, 0.406, 192.0, 0.0, 0.0, 0.0, 0.0, 0.0, 0.0, 0.0, 0.0, 0.0, 1.695683409381726E9, 0.0, 2023-09-25 18:10:09.381
112.0, 41192.05220842984, 30408.766020389325, -33113.59532041494, -27541.908924807183, -4579.917142381328, -6570.071765192958, -187500.02235174447, -61061.14370359704, -371.37423412492683, -50044.72882088766, -11452.318603076768, -37533.496324240725, 16050.027734044521, -14863.150103467717, -43002.11882616506, -46369.38677661261, 0.054, 0.93, 0.406, 192.0, 0.0, 0.0, 0.0, 0.0, 0.0, 0.0, 0.0, 0.0, 0.0, 1.695683409381729E9, 0.0, 2023-09-25 18:10:09.381
114.0, 41201.574051567804, 30415.06921232572, -33120.27849200708, -27547.608619643288, -4596.457433278255, -6584.220419433167, -187500.02235174447, -61019.14477576552, -366.0768706890191, -50036.57043416148, -11445.031934384338, -37525.02501309216, 16044.640963630793, -14845.201652670105, -42997.0002766848, -46362.36832885365, 0.054, 0.93, 0.406, 192.0, 0.0, 0.0, 0.0, 0.0, 0.0, 0.0, 0.0, 0.0, 0.0, 1.695683409381732E9, 0.0, 2023-09-25 18:10:09.381
116.0, 41198.04247594386, 30413.616348936124, -33106.6662796338, -27550.91667782267, -4576.765546413129, -6583.751032799606, -187500.02235174447, -61028.331342736645, -371.37423412492683, -50038.604442906915, -11450.329297820246, -37532.803420162614, 16024.546745365471, -14855.394048141725, -43009.56195706868, -46368.09037543421, 0.054, 0.93, 0.406, 192.0, 0.0, 0.0, 0.0, 0.0, 0.0, 0.0, 0.0, 0.0, 0.0, 1.695683409381735E9, 0.0, 2023-09-25 18:10:09.381
118.0, 41213.06284821783, 30432.190648578486, -33103.04529703203, -27547.899192321205, -4571.71405216623, -6586.813221789983, -187500.02235174447, -60995.898961531995, -363.6628822878459, -50026.24392822313, -11445.903652418096, -37521.49343746823, 16038.002495527566, -14840.08310318984, -42996.53089005124, -46354.25464561638, 0.04, 0.928, 0.406, 192.0, 0.5, 32.0, 14.5, 0.0, 6.0, 88.0, 0.0, 0.0, 0.0, 1.695683409381738E9, 0.0, 2023-09-25 18:10:09.381
120.0, 41194.10856891973, 30418.86900888312, -33110.53313142456, -27559.99148607153, -4579.2242383032135, -6593.742262571128, -187500.02235174447, -60989.618121340056, -361.49476307568113, -50026.89212881233, -11455.336088578235, -37520.085277567545, 16025.97725701061, -14837.400893855203, -43001.02359068675, -46354.47816306093, 0.04, 0.928, 0.406, 192.0, 0.0, 0.0, 0.0, 0.0, 0.0, 0.0, 0.0, 0.0, 0.0, 1.695683409442266E9, 0.0, 2023-09-25 18:10:09.442
122.0, 41194.15327240864, 30416.790296648778, -33117.395116972344, -27559.142119782227, -4579.850087147962, -6604.113471998391, -187500.02235174447, -60957.11868490204, -372.3577108809604, -50033.508245171106, -11461.236949114436, -37522.454562479805, 16010.934532992189, -14838.876108989252, -43002.23058488734, -46355.014604927856, 0.04, 0.928, 0.406, 192.0, 0.0, 0.0, 0.0, 0.0, 0.0, 0.0, 0.0, 0.0, 0.0, 1.695683409442279E9, 0.0, 2023-09-25 18:10:09.442
124.0, 41192.18631889657, 30415.762116403836, -33112.27656749208, -27568.395741986722, -4574.5303719675985, -6603.107643497902, -187500.02235174447, -60954.928213945415, -377.7891847836, -50040.0126028076, -11470.691737019031, -37526.18730380384, 16005.793631767468, -14838.429074100146, -43010.94776522491, -46362.904770720575, 0.04, 0.928, 0.406, 192.0, 0.0, 0.0, 0.0, 0.0, 0.0, 0.0, 0.0, 0.0, 0.0, 1.695683409442283E9, 0.0, 2023-09-25 18:10:09.442
126.0, 41200.50116783395, 30426.87093339812, -33117.261006505614, -27568.015762330982, -4581.593523215476, -6610.327256956966, -187500.02235174447, -60942.61240275054, -365.36161486644926, -50037.46450393969, -11467.741306750931, -37537.22906556476, 16016.321303405919, -14863.08304823435, -43009.070218690664, -46369.967921968455, 0.04, 0.928, 0.406, 192.0, 0.0, 0.0, 0.0, 0.0, 0.0, 0.0, 0.0, 0.0, 0.0, 1.695683409442286E9, 0.0, 2023-09-25 18:10:09.442
128.0, 41202.53517657938, 30428.457907254447, -33089.366029425386, -27543.29473296341, -4552.357441467934, -6580.040643220025, -187500.02235174447, -60931.43653052289, -364.40048985487107, -50021.17008223177, -11455.604309511698, -37513.647975164415, 16022.557440108949, -14819.541850035412, -42993.69221850541, -46348.644357758094, 0.032, 0.928, 0.404, 192.0, 0.5, 0.0, 14.5, 0.0, 6.0, 80.0, 0.0, 0.0, 0.0, 1.69568340944229E9, 0.0, 2023-09-25 18:10:09.442
130.0, 41179.8705077017, 30409.123648300607, -33125.307634509525, -27573.022553088973, -4582.711110438241, -6609.366131945388, -187500.02235174447, -60912.19167854687, -382.14777495238485, -50036.61513765039, -11465.617891027678, -37527.39429800443, 16032.526318136015, -14851.549548095412, -43001.51532906477, -46358.501477062884, 0.032, 0.928, 0.404, 192.0, 0.0, 0.0, 0.0, 0.0, 0.0, 0.0, 0.0, 0.0, 0.0, 1.695683409442293E9, 0.0, 2023-09-25 18:10:09.442
132.0, 41201.12701667869, 30433.352939290162, -33088.27079394708, -27544.34526495281, -4543.819075086007, -6567.613073302874, -187500.02235174447, -60903.00511157574, -376.8504115164771, -50027.272108468074, -11460.968728180973, -37519.302966511605, 16025.97725701061, -14841.55831832389, -42999.23545113033, -46351.8406572152, 0.032, 0.928, 0.404, 192.0, 0.0, 0.0, 0.0, 0.0, 0.0, 0.0, 0.0, 0.0, 0.0, 1.695683409442296E9, 0.0, 2023-09-25 18:10:09.442
134.0, 41186.57603103829, 30422.02060485132, -33111.96364306971, -27554.515308679976, -4579.447755747767, -6581.381747887343, -187500.02235174447, -60914.38214950349, -352.15173389336275, -50002.171099444764, -11434.660724957077, -37505.668402393865, 16039.567117639437, -14818.334855834826, -42970.87108741654, -46315.80964515325, 0.032, 0.928, 0.404, 192.0, 0.0, 0.0, 0.0, 0.0, 0.0, 0.0, 0.0, 0.0, 0.0, 1.6956834094423E9, 0.0, 2023-09-25 18:10:09.442
136.0, 41172.405025053624, 30411.358822746137, -33133.91305612482, -27579.593965958833, -4600.748968213674, -6605.052245265513, -187500.02235174447, -60845.51642483669, -399.8056530720774, -50047.52278894458, -11476.637301044144, -37528.57894046056, 15999.468088086616, -14863.597138356823, -43017.42977111695, -46360.75900325287, 0.032, 0.928, 0.404, 192.0, 0.0, 0.0, 0.0, 0.0, 0.0, 0.0, 0.0, 0.0, 0.0, 1.695683409501174E9, 0.0, 2023-09-25 18:10:09.501
138.0, 41179.33406583477, 30410.084773312185, -33120.32319549599, -27565.73588439654, -4587.852011662962, -6589.897762524815, -187500.02235174447, -60852.33370689556, -388.13804246640717, -50038.98442256265, -11457.615966512676, -37541.118269099985, 15991.913198460723, -14852.197748684615, -43008.84670124611, -46353.42763107153, 0.04, 0.924, 0.41000000000000003, 192.0, 0.5, 32.0, 14.0, 112.0, 6.0, 104.0, 0.0, 0.0, 0.0, 1.695683409501184E9, 0.0, 2023-09-25 18:10:09.501
140.0, 41184.98905718196, 30418.600787949657, -33128.101602566436, -27574.92245136767, -4594.199907088269, -6588.802527046505, -187500.02235174447, -60794.5991509675, -394.754158825178, -50038.40327720682, -11455.045515900316, -37526.232007292754, 16016.611876083838, -14882.774935099476, -43004.30929712168, -46355.46163981696, 0.04, 0.924, 0.41000000000000003, 192.0, 0.0, 0.0, 0.0, 0.0, 0.0, 0.0, 0.0, 0.0, 0.0, 1.695683409501188E9, 0.0, 2023-09-25 18:10:09.501
142.0, 41180.5187082909, 30414.30925301424, -33123.765364142106, -27568.79807338692, -4591.137718097892, -6589.361320657888, -187500.02235174447, -60822.18120362535, -378.8397167729994, -50030.42370443627, -11444.227271583948, -37533.786896918646, 16021.752777308559, -14871.666118105188, -43001.82825348715, -46352.55591303777, 0.04, 0.924, 0.41000000000000003, 192.0, 0.0, 0.0, 0.0, 0.0, 0.0, 0.0, 0.0, 0.0, 0.0, 1.695683409501191E9, 0.0, 2023-09-25 18:10:09.501
144.0, 41191.649877029646, 30425.64158745308, -33116.92573033878, -27560.93025933865, -4581.817040660029, -6573.513933839075, -187500.02235174447, -60770.19104602231, -382.3936441413932, -50038.33622197345, -11449.636393742132, -37525.91908287038, 16017.505945862049, -14864.871187790775, -42998.0508086742, -46354.47816306093, 0.04, 0.924, 0.41000000000000003, 192.0, 0.0, 0.0, 0.0, 0.0, 0.0, 0.0, 0.0, 0.0, 0.0, 1.695683409501194E9, 0.0, 2023-09-25 18:10:09.501
146.0, 41181.94921993604, 30410.934139601486, -33125.91113160981, -27566.56289894139, -4589.416633774833, -6577.671358307763, -187500.02235174447, -60791.26874104366, -377.2750946611279, -50028.63556487985, -11442.796759938808, -37529.98710036124, 16016.276599917008, -14861.116094722283, -42996.977924940344, -46349.42666881403, 0.04, 0.924, 0.41000000000000003, 192.0, 0.0, 0.0, 0.0, 0.0, 0.0, 0.0, 0.0, 0.0, 0.0, 1.695683409501198E9, 0.0, 2023-09-25 18:10:09.501
148.0, 41206.893766748166, 30440.863125427142, -33112.365974469896, -27553.531831923945, -4576.922008624317, -6564.953215712692, -187500.02235174447, -60752.30965045806, -371.5753998250246, -50019.53840488654, -11441.433303527034, -37515.3020042541, 16030.447605901672, -14851.750713795509, -42991.16647138196, -46347.16914262404, 0.04, 0.926, 0.41200000000000003, 192.0, 0.5, 32.0, 14.0, 120.0, 6.0, 112.0, 0.0, 0.0, 0.0, 1.695683409501201E9, 0.0, 2023-09-25 18:10:09.501
150.0, 41183.15621413663, 30417.63966293808, -33139.925675383296, -27577.22468104657, -4605.532241527109, -6599.8666405518825, -187500.02235174447, -60767.41942970985, -369.11670793494085, -50018.17494847476, -11442.394428538613, -37521.62754793496, 16017.349483650862, -14850.946050995119, -42998.27432611875, -46355.12636365013, 0.04, 0.926, 0.41200000000000003, 192.0, 0.0, 0.0, 0.0, 0.0, 0.0, 0.0, 0.0, 0.0, 0.0, 1.695683409561277E9, 0.0, 2023-09-25 18:10:09.561
152.0, 41197.3272201213, 30429.7319566884, -33128.03454733307, -27567.16639604168, -4599.4749187797215, -6582.879314765849, -187500.02235174447, -60705.05806267954, -402.2196414732506, -50043.11949528688, -11468.233045128947, -37530.94822537282, 15991.332053104885, -14888.027595046473, -43023.59885258661, -46384.161279697575, 0.04, 0.926, 0.41200000000000003, 192.0, 0.0, 0.0, 0.0, 0.0, 0.0, 0.0, 0.0, 0.0, 0.0, 1.695683409561289E9, 0.0, 2023-09-25 18:10:09.561
154.0, 41197.70719977703, 30438.806764937257, -33105.571044155484, -27544.658189375186, -4578.956017369749, -6557.264215620067, -187500.02235174447, -60747.03463876661, -366.4121468558487, -49998.34895114291, -11427.664628942566, -37509.021164062164, 16013.572038837916, -14848.017972471473, -42989.46773880336, -46336.14973260758, 0.04, 0.926, 0.41200000000000003, 192.0, 0.0, 0.0, 0.0, 0.0, 0.0, 0.0, 0.0, 0.0, 0.0, 1.695683409561293E9, 0.0, 2023-09-25 18:10:09.561
156.0, 41195.11439742022, 30432.145945089575, -33128.32512001099, -27561.042018060925, -4599.609029246453, -6573.268064650067, -187500.02235174447, -60686.10378338144, -376.6045423274687, -50019.20312871971, -11439.533405248334, -37508.44001870633, 16028.704169834158, -14862.144274967228, -42992.82050047165, -46348.19732286898, 0.04, 0.926, 0.41200000000000003, 192.0, 0.0, 0.0, 0.0, 0.0, 0.0, 0.0, 0.0, 0.0, 0.0, 1.695683409561296E9, 0.0, 2023-09-25 18:10:09.561
158.0, 41186.91130720512, 30419.964244361432, -33124.34650949795, -27563.053675061903, -4584.5663052280315, -6571.144648926813, -187500.02235174447, -60703.471088823215, -379.30910340656084, -50022.26531771008, -11438.326411047747, -37522.745135157726, 16005.234838156086, -14865.161760468694, -43000.28598311973, -46349.31491009175, 0.048, 0.926, 0.41200000000000003, 192.0, 0.5, 64.0, 14.0, 120.0, 6.0, 112.0, 0.0, 0.0, 0.0, 1.6956834095613E9, 0.0, 2023-09-25 18:10:09.561
160.0, 41188.565336294814, 30426.289788042282, -33133.13074506888, -27570.966192599084, -4598.312628068045, -6581.672320565262, -187500.02235174447, -60647.79289338504, -385.724054065234, -50034.60348064941, -11443.690829717021, -37520.80053339011, 16009.772242280513, -14883.356080455314, -42993.759273738775, -46352.64532001559, 0.048, 0.926, 0.41200000000000003, 192.0, 0.0, 0.0, 0.0, 0.0, 0.0, 0.0, 0.0, 0.0, 0.0, 1.695683409561303E9, 0.0, 2023-09-25 18:10:09.561
162.0, 41190.6216967847, 30424.63575895259, -33123.832419375474, -27567.613430930785, -4580.3418255259785, -6568.305977380989, -187500.02235174447, -60663.79674241504, -380.4043388848709, -50023.02527702157, -11435.241870312915, -37522.63337643545, 15995.154201406742, -14863.194806956626, -42995.77093073975, -46345.917444934545, 0.048, 0.926, 0.41200000000000003, 192.0, 0.0, 0.0, 0.0, 0.0, 0.0, 0.0, 0.0, 0.0, 0.0, 1.695683409561306E9, 0.0, 2023-09-25 18:10:09.561
164.0, 41194.48854857547, 30433.151773590063, -33130.11325956741, -27568.440445475633, -4590.981255886705, -6578.319558896967, -187500.02235174447, -60630.64910538783, -369.3402253794939, -50016.90089904081, -11429.676285943544, -37514.2514722647, 16016.79069003948, -14866.27934769146, -42985.17620386794, -46337.98257565291, 0.048, 0.926, 0.41200000000000003, 192.0, 0.0, 0.0, 0.0, 0.0, 0.0, 0.0, 0.0, 0.0, 0.0, 1.69568340956131E9, 0.0, 2023-09-25 18:10:09.561
166.0, 41181.211612369014, 30418.69019492748, -33131.90139912384, -27580.152759570214, -4597.373854800922, -6586.097965967413, -187500.02235174447, -60627.698675119726, -388.562725611058, -50030.28959396954, -11439.108722103683, -37529.517713727684, 15989.58861703737, -14883.020804288484, -43001.96236395388, -46355.618102028144, 0.048, 0.926, 0.41200000000000003, 192.0, 0.0, 0.0, 0.0, 0.0, 0.0, 0.0, 0.0, 0.0, 0.0, 1.695683409622301E9, 0.0, 2023-09-25 18:10:09.622
168.0, 41181.59159202476, 30424.8816281416, -33142.58553297348, -27587.618242218286, -4607.253325850168, -6600.380730674355, -187500.02235174447, -60581.63172979734, -393.88244079142106, -50037.10687602841, -11445.523672762356, -37532.311681784595, 15994.014262439521, -14891.782688114965, -43010.85835824709, -46367.71039577847, 0.05, 0.926, 0.40800000000000003, 192.0, 0.5, 72.0, 14.0, 120.0, 6.0, 96.0, 0.0, 0.0, 0.0, 1.695683409622311E9, 0.0, 2023-09-25 18:10:09.622
170.0, 41189.124129906195, 30425.976863619908, -33119.58558792897, -27567.613430930785, -4587.181459329303, -6578.140744941324, -187500.02235174447, -60582.81637225347, -385.433481387315, -50026.66861136778, -11441.366248293669, -37523.03570783564, 15997.54583806346, -14875.197693729127, -43003.839910488125, -46359.50730556337, 0.05, 0.926, 0.40800000000000003, 192.0, 0.0, 0.0, 0.0, 0.0, 0.0, 0.0, 0.0, 0.0, 0.0, 1.695683409622315E9, 0.0, 2023-09-25 18:10:09.622
172.0, 41193.192147397065, 30435.029320124308, -33121.64194841885, -27562.65134366171, -4587.583790729498, -6576.754936785095, -187500.02235174447, -60574.18859889372, -376.96217023875363, -50011.06709373798, -11434.50426274589, -37517.559530444094, 16021.395149397273, -14878.528103652967, -42994.385122583524, -46353.65114851608, 0.05, 0.926, 0.40800000000000003, 192.0, 0.0, 0.0, 0.0, 0.0, 0.0, 0.0, 0.0, 0.0, 0.0, 1.695683409622318E9, 0.0, 2023-09-25 18:10:09.622
174.0, 41189.10177816174, 30429.79901192177, -33121.84311411895, -27566.160567541192, -4590.422462275322, -6576.7996402740055, -187500.02235174447, -60568.80182847999, -368.2002864122732, -50010.46359663768, -11435.912422646574, -37507.635355905935, 16001.83737299888, -14860.42319064417, -42996.73205575133, -46354.81343922776, 0.05, 0.926, 0.40800000000000003, 192.0, 0.0, 0.0, 0.0, 0.0, 0.0, 0.0, 0.0, 0.0, 0.0, 1.695683409622321E9, 0.0, 2023-09-25 18:10:09.622
176.0, 41188.18535663907, 30430.178991577508, -33119.47382920669, -27560.617334916275, -4575.893828379372, -6576.39730887381, -187500.02235174447, -60552.35094456088, -377.43155687231507, -50016.45386415171, -11444.629602984143, -37516.7548676437, 15997.523486319005, -14877.835199574853, -42993.781625483236, -46356.534523550814, 0.05, 0.926, 0.40800000000000003, 192.0, 0.0, 0.0, 0.0, 0.0, 0.0, 0.0, 0.0, 0.0, 0.0, 1.695683409622325E9, 0.0, 2023-09-25 18:10:09.622
178.0, 41201.73051377899, 30441.399567294073, -33109.23673024616, -27557.242221503526, -4568.741270153674, -6558.694727265207, -187500.02235174447, -60535.207156563665, -370.43546085780395, -50000.025331977056, -11430.033913854828, -37500.37103895796, 16008.811117268935, -14867.709859336599, -42978.60479099808, -46338.40725879756, 0.048, 0.928, 0.406, 192.0, 0.5, 64.0, 14.5, 0.0, 6.0, 88.0, 0.0, 0.0, 0.0, 1.695683409622328E9, 0.0, 2023-09-25 18:10:09.622
180.0, 41178.507051289926, 30425.842753153178, -33131.18614330127, -27577.582308957855, -4599.810194946551, -6584.44393687772, -187500.02235174447, -60519.89621161178, -385.6793505763234, -50015.09040773993, -11438.795797681309, -37514.60910017599, 16002.30675963244, -14873.633071617256, -42985.712645734864, -46344.2857675893, 0.048, 0.928, 0.406, 192.0, 0.0, 0.0, 0.0, 0.0, 0.0, 0.0, 0.0, 0.0, 0.0, 1.695683409682018E9, 0.0, 2023-09-25 18:10:09.682
182.0, 41202.132845179185, 30445.64639874058, -33114.668204148795, -27565.534718696443, -4577.90548538035, -6571.904608238293, -187500.02235174447, -60487.173257729206, -387.53454536611383, -50020.90186129831, -11442.416780283069, -37514.698507153815, 15985.0735646574, -14879.645690875734, -42998.78841624122, -46356.44511657299, 0.048, 0.928, 0.406, 192.0, 0.0, 0.0, 0.0, 0.0, 0.0, 0.0, 0.0, 0.0, 0.0, 1.695683409682029E9, 0.0, 2023-09-25 18:10:09.682
184.0, 41196.38844685417, 30444.34999756217, -33122.04427981905, -27568.37339024227, -4593.305837310057, -6582.924018254759, -187500.02235174447, -60505.702853882656, -360.93596946429847, -49992.15751792878, -11410.319675245248, -37502.22623374775, 16007.201791668153, -14853.672963818666, -42977.30838981967, -46330.09240986018, 0.048, 0.928, 0.406, 192.0, 0.0, 0.0, 0.0, 0.0, 0.0, 0.0, 0.0, 0.0, 0.0, 1.695683409682033E9, 0.0, 2023-09-25 18:10:09.682
186.0, 41174.95312392153, 30422.11001182914, -33150.16277434382, -27596.044849877937, -4613.355352086467, -6611.198974990723, -187500.02235174447, -60456.126684680785, -388.9427052667982, -50026.40039043431, -11440.941565149018, -37513.62562341996, 15987.219332125109, -14884.294853722437, -43007.125616923055, -46362.65890153157, 0.048, 0.928, 0.406, 192.0, 0.0, 0.0, 0.0, 0.0, 0.0, 0.0, 0.0, 0.0, 0.0, 1.695683409682036E9, 0.0, 2023-09-25 18:10:09.682
188.0, 41163.553734249326, 30412.58816869118, -33152.1744313448, -27597.765934200997, -4611.120177640936, -6603.957009787204, -187500.02235174447, -60462.7204492951, -407.3381909535159, -50035.36343996089, -11460.342879336224, -37544.31456855709, 15958.743209689048, -14910.28993252396, -43022.771838041765, -46375.82407901574, 0.054, 0.924, 0.41000000000000003, 192.0, 0.5, 88.0, 14.0, 112.0, 6.0, 104.0, 0.0, 0.0, 0.0, 1.69568340968204E9, 0.0, 2023-09-25 18:10:09.682
190.0, 41201.86462424572, 30451.21198310995, -33110.98016631367, -27560.59498317182, -4566.573150941509, -6557.7783057425395, -187500.02235174447, -60453.73504802407, -377.09628070548547, -50013.011695505586, -11429.743341176909, -37511.61396641898, 15994.438945584172, -14886.373565956781, -42993.80397722769, -46345.135133878604, 0.054, 0.924, 0.41000000000000003, 192.0, 0.0, 0.0, 0.0, 0.0, 0.0, 0.0, 0.0, 0.0, 0.0, 1.695683409682043E9, 0.0, 2023-09-25 18:10:09.682
192.0, 41187.872432216696, 30431.922427645022, -33132.99663460215, -27576.59883220182, -4582.6887586937855, -6576.39730887381, -187500.02235174447, -60470.00711798753, -365.29455963308334, -49995.48792785263, -11414.365340991657, -37503.96966981526, 15995.712995018124, -14870.056792504407, -42971.92161940594, -46327.16433133654, 0.054, 0.924, 0.41000000000000003, 192.0, 0.0, 0.0, 0.0, 0.0, 0.0, 0.0, 0.0, 0.0, 0.0, 1.695683409682046E9, 0.0, 2023-09-25 18:10:09.682
194.0, 41194.77912125339, 30447.859221441657, -33122.781887386074, -27571.994372844027, -4581.057081348548, -6569.647082048307, -187500.02235174447, -60430.73510297956, -384.24883893118374, -50015.00100076211, -11430.570355721755, -37510.56343442958, 15985.49824780205, -14883.400783944224, -42988.19368936941, -46345.38100306762, 0.054, 0.924, 0.41000000000000003, 192.0, 0.0, 0.0, 0.0, 0.0, 0.0, 0.0, 0.0, 0.0, 0.0, 1.69568340968205E9, 0.0, 2023-09-25 18:10:09.682
196.0, 41172.65089424264, 30423.249950796362, -33140.97620737269, -27586.70182069562, -4597.91029666785, -6593.608152104396, -187500.02235174447, -60446.627193287284, -376.4480801162816, -50010.86592803788, -11422.099044573193, -37509.55760592909, 15995.02009094001, -14879.668042620187, -42983.633933500525, -46339.30132857577, 0.054, 0.924, 0.41000000000000003, 192.0, 0.0, 0.0, 0.0, 0.0, 0.0, 0.0, 0.0, 0.0, 0.0, 1.695683409740945E9, 0.0, 2023-09-25 18:10:09.740
198.0, 41191.6722287741, 30445.84756444068, -33129.88974212286, -27572.754332155506, -4596.166860600336, -6575.659701306785, -187500.02235174447, -60389.63024492625, -388.0709872330412, -50023.76288458859, -11435.778312179842, -37513.33505074204, 15982.25724485603, -14898.801135873931, -42995.12273015055, -46353.047651415785, 0.054, 0.928, 0.41000000000000003, 192.0, 0.5, 88.0, 14.5, 0.0, 6.0, 104.0, 0.0, 0.0, 0.0, 1.695683409740956E9, 0.0, 2023-09-25 18:10:09.740
200.0, 41182.060978658315, 30433.01766312333, -33133.98011135818, -27574.386009500744, -4602.447700792277, -6572.910436738782, -187500.02235174447, -60407.24341955703, -377.00687372766424, -50002.77459654505, -11423.238983540414, -37509.91523384038, 15976.78106746448, -14866.972251769574, -42989.62420101454, -46341.98353791041, 0.054, 0.928, 0.41000000000000003, 192.0, 0.0, 0.0, 0.0, 0.0, 0.0, 0.0, 0.0, 0.0, 0.0, 1.695683409740959E9, 0.0, 2023-09-25 18:10:09.740
202.0, 41184.519670548405, 30433.598808479168, -33147.83819292047, -27585.539529983944, -4615.255250365169, -6591.305922425499, -187500.02235174447, -60340.25524142447, -388.2945046775943, -50019.38194267535, -11442.081504116239, -37513.13388504194, 15985.16297163522, -14895.04604280544, -43000.062465675175, -46357.450945073484, 0.054, 0.928, 0.41000000000000003, 192.0, 0.0, 0.0, 0.0, 0.0, 0.0, 0.0, 0.0, 0.0, 0.0, 1.695683409740962E9, 0.0, 2023-09-25 18:10:09.740
204.0, 41177.7694437229, 30428.055575854254, -33138.159887571324, -27587.93116664066, -4600.1231193689255, -6594.658684093796, -187500.02235174447, -60356.52731138794, -385.58994359850215, -50017.37028567437, -11436.73943719142, -37518.31948975557, 15962.63241322427, -14905.707824910622, -43002.65526803199, -46358.38971834061, 0.054, 0.928, 0.41000000000000003, 192.0, 0.0, 0.0, 0.0, 0.0, 0.0, 0.0, 0.0, 0.0, 0.0, 1.695683409740966E9, 0.0, 2023-09-25 18:10:09.740
206.0, 41186.71014150502, 30436.146907347073, -33147.30175105354, -27598.347079556836, -4622.743084757696, -6601.0959864969245, -187500.02235174447, -60296.15524961415, -396.5422983816026, -50035.89988182782, -11440.807454682286, -37519.81705663408, 15964.73347720307, -14915.497888982045, -43008.39966635701, -46373.745366781404, 0.054, 0.928, 0.41000000000000003, 192.0, 0.0, 0.0, 0.0, 0.0, 0.0, 0.0, 0.0, 0.0, 0.0, 1.695683409740969E9, 0.0, 2023-09-25 18:10:09.740
208.0, 41194.66736253111, 30439.298503315273, -33130.336777011966, -27585.137198583747, -4596.457433278255, -6586.299131667511, -187500.02235174447, -60318.328180113815, -375.755176038167, -50012.63171584985, -11423.015466095861, -37509.736419884735, 15965.582843492371, -14890.978025314573, -42999.12369240805, -46349.761944980855, 0.056, 0.926, 0.41400000000000003, 192.0, 0.5, 96.0, 14.0, 120.0, 6.0, 120.0, 0.0, 0.0, 0.0, 1.695683409740973E9, 0.0, 2023-09-25 18:10:09.740
210.0, 41195.986115453976, 30446.942799918987, -33126.96166359921, -27575.727114168065, -4589.506040752654, -6572.418698360765, -187500.02235174447, -60289.963816400035, -371.73186203621174, -50002.28285816704, -11421.629657939633, -37500.5498529136, 15983.911273945723, -14882.216141488094, -42982.73986372231, -46343.056421644265, 0.056, 0.926, 0.41400000000000003, 192.0, 0.0, 0.0, 0.0, 0.0, 0.0, 0.0, 0.0, 0.0, 0.0, 1.695683409801304E9, 0.0, 2023-09-25 18:10:09.801
212.0, 41177.41181581162, 30434.135250346095, -33128.63804443336, -27584.287832294445, -4588.567267485531, -6572.038718705025, -187500.02235174447, -60304.984188674, -372.6706353033347, -50004.696846568215, -11419.372131749646, -37499.387562201926, 15980.089125643866, -14879.869208320286, -42977.4425002864, -46333.623985484126, 0.056, 0.926, 0.41400000000000003, 192.0, 0.0, 0.0, 0.0, 0.0, 0.0, 0.0, 0.0, 0.0, 0.0, 1.695683409801316E9, 0.0, 2023-09-25 18:10:09.801
214.0, 41174.506089032424, 30435.342244546682, -33146.58649523097, -27603.823256948384, -4610.784901474107, -6597.45265215071, -187500.02235174447, -60248.61308915771, -395.9611530257646, -50029.7084486137, -11438.21465232547, -37514.6538036649, 15970.075544127887, -14911.318112768902, -42999.078988919144, -46358.32266310724, 0.056, 0.926, 0.41400000000000003, 192.0, 0.0, 0.0, 0.0, 0.0, 0.0, 0.0, 0.0, 0.0, 0.0, 1.695683409801319E9, 0.0, 2023-09-25 18:10:09.801
216.0, 41181.926868191586, 30444.64057024009, -33118.736221639665, -27582.49969273802, -4584.298084294568, -6570.652910548796, -187500.02235174447, -60259.610147429725, -379.04088247309716, -50003.06516922297, -11421.182623050527, -37505.98132681624, 15978.055116898433, -14892.028557303973, -42984.23743060081, -46335.36742155164, 0.056, 0.926, 0.41400000000000003, 192.0, 0.0, 0.0, 0.0, 0.0, 0.0, 0.0, 0.0, 0.0, 0.0, 1.695683409801323E9, 0.0, 2023-09-25 18:10:09.801
218.0, 41195.33791486477, 30452.374273821628, -33121.46313446321, -27584.46664625009, -4592.031787876104, -6577.447840863209, -187500.02235174447, -60239.53828090886, -365.8086497555554, -49995.62203831936, -11411.34785549019, -37489.888070808425, 15981.050250655444, -14877.27640596347, -42972.54746825069, -46322.44811325647, 0.054, 0.928, 0.40800000000000003, 192.0, 0.5, 88.0, 14.5, 0.0, 6.0, 96.0, 0.0, 0.0, 0.0, 1.695683409801326E9, 0.0, 2023-09-25 18:10:09.801
220.0, 41187.33599034977, 30451.234334854405, -33118.62446291739, -27584.77957067246, -4579.470107492221, -6576.9784542296475, -187500.02235174447, -60233.59271688375, -375.1293271934184, -50003.713369812176, -11417.695750915498, -37489.530442897136, 15978.837427954368, -14886.95471131262, -42976.92841016393, -46333.9369099065, 0.054, 0.928, 0.40800000000000003, 192.0, 0.0, 0.0, 0.0, 0.0, 0.0, 0.0, 0.0, 0.0, 0.0, 1.695683409801329E9, 0.0, 2023-09-25 18:10:09.801
222.0, 41187.85008047224, 30447.233372596907, -33137.042300348556, -27595.620166733286, -4598.893773423883, -6584.9580270001925, -187500.02235174447, -60207.44117587104, -379.5773243400245, -50006.730855313646, -11429.497471987901, -37491.09506500901, 15990.661500771226, -14868.782743070453, -42980.5940962546, -46338.18374135301, 0.054, 0.928, 0.40800000000000003, 192.0, 0.0, 0.0, 0.0, 0.0, 0.0, 0.0, 0.0, 0.0, 0.0, 1.695683409801333E9, 0.0, 2023-09-25 18:10:09.801
224.0, 41191.60517354074, 30453.670675000034, -33129.84503863395, -27594.70374521062, -4591.361235542445, -6573.513933839075, -187500.02235174447, -60191.593789052225, -383.86885927544347, -50011.91646002728, -11437.477044758445, -37488.12228299645, 15971.707221473125, -14880.316243209392, -42989.31127659217, -46348.33143333572, 0.054, 0.928, 0.40800000000000003, 192.0, 0.0, 0.0, 0.0, 0.0, 0.0, 0.0, 0.0, 0.0, 0.0, 1.695683409801336E9, 0.0, 2023-09-25 18:10:09.801
226.0, 41187.60421128324, 30449.02151215333, -33123.54184669755, -27586.50065499552, -4589.483689008199, -6571.122297182357, -187500.02235174447, -60192.53256231935, -366.0768706890191, -49990.637599305825, -11423.26133528487, -37484.903631794885, 15979.932663432679, -14876.5611501409, -42966.847773414585, -46329.5336162488, 0.054, 0.928, 0.40800000000000003, 192.0, 0.0, 0.0, 0.0, 0.0, 0.0, 0.0, 0.0, 0.0, 0.0, 1.695683409862863E9, 0.0, 2023-09-25 18:10:09.862
228.0, 41196.187281154074, 30456.330532590215, -33111.20368375822, -27583.103189838315, -4579.157183069848, -6555.319613852455, -187500.02235174447, -60176.7522307339, -379.5549725955692, -49998.48306160964, -11432.939640634018, -37478.01929450265, 15963.727648702581, -14867.687507592143, -42967.272456559236, -46326.02439236932, 0.058, 0.924, 0.41000000000000003, 192.0, 0.5, 104.0, 14.0, 112.0, 6.0, 104.0, 0.0, 0.0, 0.0, 1.695683409862873E9, 0.0, 2023-09-25 18:10:09.862
230.0, 41179.98226642398, 30435.208134079952, -33140.395062016854, -27603.532684270467, -4610.360218329456, -6571.323462882455, -187500.02235174447, -60170.985480664436, -370.3460538799827, -49981.09340442341, -11421.652009684089, -37476.96876251326, 15969.315584816408, -14859.41736214368, -42956.923598876434, -46311.29459277327, 0.058, 0.924, 0.41000000000000003, 192.0, 0.0, 0.0, 0.0, 0.0, 0.0, 0.0, 0.0, 0.0, 0.0, 1.695683409862877E9, 0.0, 2023-09-25 18:10:09.862
232.0, 41191.20284214054, 30442.56185800575, -33122.69248040825, -27606.818390705397, -4576.363215012934, -6560.035831932525, -187500.02235174447, -60124.04681730829, -399.8280048165327, -50015.93977402923, -11451.223367598459, -37489.57514638605, 15934.938601844146, -14888.340519468848, -42980.01295089877, -46332.4840465169, 0.058, 0.924, 0.41000000000000003, 192.0, 0.0, 0.0, 0.0, 0.0, 0.0, 0.0, 0.0, 0.0, 0.0, 1.69568340986288E9, 0.0, 2023-09-25 18:10:09.862
234.0, 41189.95114445104, 30444.41705279554, -33123.832419375474, -27607.779515716975, -4585.281561050601, -6568.529494825541, -187500.02235174447, -60146.152692574586, -376.0233969716307, -49993.96800922966, -11427.105835331182, -37483.8978032944, 15963.079448113376, -14868.246301203526, -42959.62815995552, -46308.858252627644, 0.058, 0.924, 0.41000000000000003, 192.0, 0.0, 0.0, 0.0, 0.0, 0.0, 0.0, 0.0, 0.0, 0.0, 1.695683409862883E9, 0.0, 2023-09-25 18:10:09.862
236.0, 41190.308772362325, 30442.11482311664, -33128.66039617782, -27619.80475423393, -4582.062909849037, -6573.223361161156, -187500.02235174447, -60100.82335481922, -380.87372551843237, -49988.55888707148, -11426.323524275247, -37472.14078571091, 15982.123134389298, -14855.17053069717, -42954.97899710882, -46302.48800545788, 0.058, 0.924, 0.41000000000000003, 192.0, 0.0, 0.0, 0.0, 0.0, 0.0, 0.0, 0.0, 0.0, 0.0, 1.695683409862886E9, 0.0, 2023-09-25 18:10:09.862
238.0, 41171.309789575316, 30418.623139694115, -33143.546657985054, -27640.413062621723, -4594.468128021733, -6592.982303259648, -187500.02235174447, -60114.904953826066, -399.7385978387115, -50005.389750646325, -11440.606288982188, -37499.96870755777, 15943.544023459439, -14873.677775106165, -42969.306465304675, -46314.7814649083, 0.046, 0.912, 0.41000000000000003, 192.0, 0.5, 56.0, 14.0, 64.0, 6.0, 104.0, 0.0, 0.0, 0.0, 1.69568340986289E9, 0.0, 2023-09-25 18:10:09.862
240.0, 41188.230060127986, 30436.236314324895, -33130.69440492325, -27627.35964385982, -4583.538124983087, -6577.246675163112, -187500.02235174447, -60065.23937764638, -402.5325658956249, -50015.96212577369, -11447.580033252243, -37483.92015503885, 15943.25345078152, -14883.75841185551, -42981.801090455185, -46323.40923826805, 0.046, 0.912, 0.41000000000000003, 192.0, 0.0, 0.0, 0.0, 0.0, 0.0, 0.0, 0.0, 0.0, 0.0, 1.69568340992167E9, 0.0, 2023-09-25 18:10:09.921
242.0, 41189.50410956194, 30428.480258998905, -33123.18421878627, -27622.84459147985, -4587.159107584847, -6579.370090886366, -187500.02235174447, -60099.05756700726, -376.40337662737096, -49982.16628815726, -11427.888146387118, -37476.387617157416, 15953.781122419969, -14844.285231147436, -42952.83322964111, -46295.13428153209, 0.046, 0.912, 0.41000000000000003, 192.0, 0.0, 0.0, 0.0, 0.0, 0.0, 0.0, 0.0, 0.0, 0.0, 1.695683409921681E9, 0.0, 2023-09-25 18:10:09.921
244.0, 41173.29909483184, 30431.989482878387, -33139.18806781627, -27632.835821251374, -4607.3874363169, -6594.770442816072, -187500.02235174447, -60036.49503427685, -395.80469081457744, -49999.48889011012, -11453.950280422006, -37476.36526541296, 15946.315639771896, -14873.454257661613, -42969.19470658239, -46315.854348642155, 0.046, 0.912, 0.41000000000000003, 192.0, 0.0, 0.0, 0.0, 0.0, 0.0, 0.0, 0.0, 0.0, 0.0, 1.695683409921685E9, 0.0, 2023-09-25 18:10:09.921
246.0, 41173.38850180966, 30425.7309944309, -33137.06465209302, -27631.740585773063, -4609.3990933178775, -6591.775309059061, -187500.02235174447, -60059.8749589771, -408.29931596509414, -50005.814433790976, -11477.196094655526, -37503.41087620388, 15922.309866226897, -14871.196731471628, -42986.58436376863, -46334.69686921798, 0.046, 0.912, 0.41000000000000003, 192.0, 0.0, 0.0, 0.0, 0.0, 0.0, 0.0, 0.0, 0.0, 0.0, 1.695683409921688E9, 0.0, 2023-09-25 18:10:09.921
248.0, 41194.8238247423, 30452.374273821628, -33122.53601819706, -27618.12837339978, -4590.0871861084925, -6581.426451376254, -187500.02235174447, -60006.09666181763, -395.9388012813093, -49993.94565748521, -11481.13000167966, -37486.82588181805, 15942.337029258852, -14868.648632603721, -42983.81274745616, -46341.13417162111, 0.04, 0.92, 0.41000000000000003, 192.0, 0.5, 32.0, 14.0, 96.0, 6.0, 104.0, 0.0, 0.0, 0.0, 1.695683409921692E9, 0.0, 2023-09-25 18:10:09.921
250.0, 41187.91713570561, 30439.320855059726, -33118.6691664063, -27614.552094286933, -4596.613895489442, -6586.410890389788, -187500.02235174447, -60032.203499341435, -393.45775764677023, -49988.044796949005, -11478.17957141156, -37493.28553596563, 15951.523596229983, -14864.04417324593, -42975.36378805206, -46349.18079962502, 0.04, 0.92, 0.41000000000000003, 192.0, 0.0, 0.0, 0.0, 0.0, 0.0, 0.0, 0.0, 0.0, 0.0, 1.695683409921695E9, 0.0, 2023-09-25 18:10:09.921
252.0, 41179.28936234586, 30430.760136933346, -33136.79643115955, -27626.063242681415, -4613.131834641914, -6609.813166834494, -187500.02235174447, -59983.45434468441, -399.55978388306903, -50003.04281747852, -11490.94241749554, -37493.933736554834, 15931.921116342679, -14870.07914424886, -42991.255878359785, -46372.58307606973, 0.04, 0.92, 0.41000000000000003, 192.0, 0.0, 0.0, 0.0, 0.0, 0.0, 0.0, 0.0, 0.0, 0.0, 1.695683409921698E9, 0.0, 2023-09-25 18:10:09.921
254.0, 41175.95895242202, 30421.506514728848, -33135.991768359156, -27629.058376438425, -4597.53031701211, -6591.104756725402, -187500.02235174447, -59990.27162674328, -406.86880431995445, -50014.71042808419, -11501.470089133989, -37513.446809464316, 15926.377883717763, -14887.401746201724, -43001.91766046496, -46382.88723026362, 0.04, 0.92, 0.41000000000000003, 192.0, 0.0, 0.0, 0.0, 0.0, 0.0, 0.0, 0.0, 0.0, 0.0, 1.695683409921701E9, 0.0, 2023-09-25 18:10:09.921
0.0, 41188.31946710581, 30436.97392189192, -33125.37468974289, -27618.776573988984, -4598.223221090224, -6584.175715944257, -187500.02235174447, -59956.43108563794, -390.9096587788652, -50016.74443682962, -11498.60906584371, -37512.172760030364, 15944.907479871212, -14894.219028260593, -42992.03818941572, -46372.046634202794, 0.04, 0.92, 0.41000000000000003, 192.0, 0.0, 0.0, 0.0, 0.0, 0.0, 0.0, 0.0, 0.0, 0.0, 1.695683409984096E9, 0.0, 2023-09-25 18:10:09.984
2.0, 41175.40015881064, 30422.132363573597, -33129.95679735622, -27629.41600434971, -4602.782976959107, -6595.105718982902, -187500.02235174447, -59963.49423688582, -396.8552228039769, -50008.72016057017, -11484.549818581321, -37509.736419884735, 15933.306924498907, -14888.318167724392, -42995.25684061728, -46371.711358035966, 0.042, 0.924, 0.406, 192.0, 0.5, 40.0, 14.0, 112.0, 6.0, 88.0, 0.0, 0.0, 0.0, 1.695683409984106E9, 0.0, 2023-09-25 18:10:09.984
4.0, 41191.91809796311, 30438.717357959435, -33128.19100954426, -27621.682300768174, -4595.317494311034, -6579.25833216409, -187500.02235174447, -59936.18040516143, -396.58700187051323, -50012.6540675943, -11475.050327187817, -37502.807379103586, 15947.96966886159, -14891.670929392689, -42982.06931138865, -46362.904770720575, 0.042, 0.924, 0.406, 192.0, 0.0, 0.0, 0.0, 0.0, 0.0, 0.0, 0.0, 0.0, 0.0, 1.69568340998411E9, 0.0, 2023-09-25 18:10:09.984
6.0, 41173.880240187675, 30422.44528799597, -33141.60205621744, -27639.09430969886, -4611.500157296677, -6583.482811866143, -187500.02235174447, -59931.24066963681, -397.7492925821892, -50009.65893383729, -11476.503190577412, -37502.0027163032, 15928.546002929927, -14883.13256301076, -42983.16454686696, -46357.49564856239, 0.042, 0.924, 0.406, 192.0, 0.0, 0.0, 0.0, 0.0, 0.0, 0.0, 0.0, 0.0, 0.0, 1.695683409984113E9, 0.0, 2023-09-25 18:10:09.984
8.0, 41183.6703042591, 30423.898151385565, -33138.69632943825, -27633.238152651567, -4600.659561235852, -6582.454631621198, -187500.02235174447, -59887.40889875995, -415.5412811686136, -50025.886300311846, -11489.020167472383, -37514.72085889827, 15925.372055217274, -14914.71557792611, -42996.352076095594, -46369.61029405717, 0.042, 0.924, 0.406, 192.0, 0.0, 0.0, 0.0, 0.0, 0.0, 0.0, 0.0, 0.0, 0.0, 1.695683409984116E9, 0.0, 2023-09-25 18:10:09.984
10.0, 41196.16492940962, 30438.315026559238, -33117.48452395017, -27617.681338510676, -4583.71693893873, -6552.033907417525, -187500.02235174447, -59900.976407644324, -386.6851790768122, -49998.72893079864, -11463.293309604325, -37493.19612898781, 15953.289384041953, -14879.600987386822, -42975.5426020077, -46342.45292454397, 0.042, 0.924, 0.406, 192.0, 0.0, 0.0, 0.0, 0.0, 0.0, 0.0, 0.0, 0.0, 0.0, 1.69568340998412E9, 0.0, 2023-09-25 18:10:09.984
12.0, 41185.36903683771, 30430.804840422257, -33142.96551262921, -27631.986454962072, -4610.829604963017, -6589.137803213335, -187500.02235174447, -59880.81513414564, -381.20900168526197, -49998.66187556528, -11465.41672532758, -37494.24666097721, 15948.48375898406, -14881.6126443878, -42967.02658737023, -46338.921348920034, 0.05, 0.924, 0.40800000000000003, 192.0, 0.5, 72.0, 14.0, 112.0, 6.0, 96.0, 0.0, 0.0, 0.0, 1.695683409984123E9, 0.0, 2023-09-25 18:10:09.984
14.0, 41180.608115268726, 30420.72420367291, -33139.076309093994, -27634.221629407602, -4603.00649440366, -6572.083422193936, -187500.02235174447, -59854.23890998828, -403.6501531183902, -50012.162329216284, -11479.543027823333, -37501.823902347554, 15923.002770305011, -14898.108231795817, -42987.56784052466, -46359.10497416317, 0.05, 0.924, 0.40800000000000003, 192.0, 0.0, 0.0, 0.0, 0.0, 0.0, 0.0, 0.0, 0.0, 0.0, 1.695683410042092E9, 0.0, 2023-09-25 18:10:10.042
16.0, 41176.49539428895, 30414.30925301424, -33154.32019881251, -27643.251734167545, -4618.093921910992, -6587.036739234536, -187500.02235174447, -59821.71712180581, -416.4353509468259, -50028.52380615757, -11488.908408750107, -37511.681021652344, 15914.643217878727, -14914.983798859574, -42987.41137831347, -46360.33432010822, 0.05, 0.924, 0.40800000000000003, 192.0, 0.0, 0.0, 0.0, 0.0, 0.0, 0.0, 0.0, 0.0, 0.0, 1.695683410042106E9, 0.0, 2023-09-25 18:10:10.042
18.0, 41196.254336387436, 30428.614369465635, -33137.958721871226, -27631.69588228415, -4606.918049683339, -6573.223361161156, -187500.02235174447, -59815.65979905842, -401.72790309523384, -50012.721122827665, -11480.571208068277, -37501.22040524726, 15921.192279004132, -14903.785574887464, -42983.276305589236, -46357.40624158457, 0.05, 0.924, 0.40800000000000003, 192.0, 0.0, 0.0, 0.0, 0.0, 0.0, 0.0, 0.0, 0.0, 0.0, 1.695683410042109E9, 0.0, 2023-09-25 18:10:10.042
20.0, 41164.22428658298, 30404.809761620734, -33166.256030351644, -27654.71817907312, -4631.504968584177, -6600.559544629997, -187500.02235174447, -59797.17490639388, -401.593792628502, -50018.465521152684, -11483.521638336379, -37508.61883266197, 15931.317619242385, -14906.512487711012, -42983.9468579229, -46360.02139568584, 0.05, 0.924, 0.40800000000000003, 192.0, 0.0, 0.0, 0.0, 0.0, 0.0, 0.0, 0.0, 0.0, 0.0, 1.695683410042112E9, 0.0, 2023-09-25 18:10:10.042
22.0, 41167.465289529006, 30408.16252328903, -33154.6778267238, -27651.43247263819, -4615.612878276454, -6583.438108377231, -187500.02235174447, -59760.16041757589, -432.9532900992978, -50045.801704621525, -11507.683874092565, -37525.114420069985, 15905.255485207497, -14942.118816628315, -43011.88653849203, -46388.40811114408, 0.058, 0.928, 0.41400000000000003, 192.0, 0.5, 104.0, 14.5, 0.0, 6.0, 120.0, 0.0, 0.0, 0.0, 1.695683410042115E9, 0.0, 2023-09-25 18:10:10.042
24.0, 41176.5177460334, 30409.950662845455, -33147.36880628691, -27635.629789308285, -4604.928744426817, -6565.735526768628, -187500.02235174447, -59771.53745550364, -396.63170535942385, -50009.860099537385, -11473.820981242774, -37509.49055069573, 15917.034854535445, -14902.623284175788, -42973.95562815137, -46345.69392748999, 0.058, 0.928, 0.41400000000000003, 192.0, 0.0, 0.0, 0.0, 0.0, 0.0, 0.0, 0.0, 0.0, 0.0, 1.695683410042119E9, 0.0, 2023-09-25 18:10:10.042
26.0, 41184.094987403754, 30417.147924560064, -33147.525268498095, -27639.2731236545, -4597.977351901216, -6568.753012270095, -187500.02235174447, -59732.33249572903, -404.58892638551316, -50013.52578562806, -11479.163048167593, -37501.3992192029, 15930.356494230808, -14928.350142043846, -42975.5426020077, -46346.43153505702, 0.058, 0.928, 0.41400000000000003, 192.0, 0.0, 0.0, 0.0, 0.0, 0.0, 0.0, 0.0, 0.0, 0.0, 1.695683410042122E9, 0.0, 2023-09-25 18:10:10.042
28.0, 41174.52844077688, 30410.107125056642, -33150.7215679552, -27640.50246959954, -4597.016226889637, -6568.127163425346, -187500.02235174447, -59748.06812382557, -400.05152226108584, -50009.9048030263, -11478.470144089479, -37509.33408848454, 15906.909514297191, -14901.751566142031, -42975.43084328542, -46342.16235186605, 0.058, 0.928, 0.41400000000000003, 192.0, 0.0, 0.0, 0.0, 0.0, 0.0, 0.0, 0.0, 0.0, 0.0, 1.695683410042125E9, 0.0, 2023-09-25 18:10:10.042
30.0, 41171.68976923106, 30406.68730815498, -33159.30463782605, -27658.875603541805, -4606.336904327501, -6579.414794375276, -187500.02235174447, -59693.283998165614, -415.6977433798007, -50016.364457173884, -11484.885094748151, -37502.69562038131, 15906.9542177861, -14914.737929670566, -42982.873974189046, -46350.320738592236, 0.058, 0.928, 0.41400000000000003, 192.0, 0.0, 0.0, 0.0, 0.0, 0.0, 0.0, 0.0, 0.0, 0.0, 1.695683410102644E9, 0.0, 2023-09-25 18:10:10.102
32.0, 41160.33508304776, 30388.381229446084, -33169.18410887529, -27674.05243802696, -4621.647849279386, -6597.743224828628, -187500.02235174447, -59704.191649459804, -425.21958651776157, -50027.3615154459, -11490.093051206239, -37519.101800811506, 15891.777383300947, -14921.063473351416, -42992.06054116017, -46357.20507588447, 0.058, 0.924, 0.41200000000000003, 192.0, 0.5, 104.0, 14.0, 112.0, 6.0, 112.0, 0.0, 0.0, 0.0, 1.695683410102653E9, 0.0, 2023-09-25 18:10:10.102
34.0, 41171.89093493115, 30410.129476801096, -33159.03641689258, -27668.41979842422, -4611.164881129847, -6592.043529992525, -187500.02235174447, -59647.39586679886, -428.1700167858621, -50028.05441952401, -11492.060004718305, -37513.96089958679, 15898.281740937442, -14916.302551782437, -42998.78841624122, -46363.240046887404, 0.058, 0.924, 0.41200000000000003, 192.0, 0.0, 0.0, 0.0, 0.0, 0.0, 0.0, 0.0, 0.0, 0.0, 1.695683410102657E9, 0.0, 2023-09-25 18:10:10.102
36.0, 41179.825804212785, 30415.382136748092, -33133.51072472462, -27648.929077259196, -4585.929761639805, -6570.20587565969, -187500.02235174447, -59690.71354755325, -403.851318818488, -49999.600648832406, -11463.36036483769, -37502.248585492205, 15900.248694449509, -14913.173307558693, -42971.22871532783, -46331.96995639443, 0.058, 0.924, 0.41200000000000003, 192.0, 0.0, 0.0, 0.0, 0.0, 0.0, 0.0, 0.0, 0.0, 0.0, 1.69568341010266E9, 0.0, 2023-09-25 18:10:10.102
38.0, 41182.44095831406, 30420.567741461724, -33147.99465513166, -27660.28376344249, -4589.036654119093, -6581.717024054173, -187500.02235174447, -59650.838035444984, -398.35278968248247, -50000.293552910516, -11456.297213589814, -37480.65680034838, 15912.877430066757, -14909.775842401486, -42965.998407125284, -46329.69007845999, 0.058, 0.924, 0.41200000000000003, 192.0, 0.0, 0.0, 0.0, 0.0, 0.0, 0.0, 0.0, 0.0, 0.0, 1.695683410102663E9, 0.0, 2023-09-25 18:10:10.102
40.0, 41165.990074394955, 30399.19947376245, -33169.45232980875, -27681.830845097407, -4614.3388288425, -6600.403082418809, -187500.02235174447, -59660.53869253859, -410.06510377706337, -50009.41306464828, -11470.781143996852, -37497.62177438996, 15894.169019957664, -14922.181060574183, -42971.049901372186, -46333.2887093173, 0.058, 0.924, 0.41200000000000003, 192.0, 0.0, 0.0, 0.0, 0.0, 0.0, 0.0, 0.0, 0.0, 0.0, 1.695683410102666E9, 0.0, 2023-09-25 18:10:10.102
42.0, 41190.57699329579, 30416.991462348877, -33150.60980923293, -27663.301248943957, -4586.801479673562, -6578.8560007638935, -187500.02235174447, -59617.06454957301, -408.67929562083435, -50012.54230887203, -11474.64799578762, -37496.25831797819, 15883.686051808127, -14926.472595509602, -42972.74863395079, -46337.31202331925, 0.048, 0.914, 0.40800000000000003, 192.0, 0.5, 64.0, 14.0, 72.0, 6.0, 96.0, 0.0, 0.0, 0.0, 1.695683410102669E9, 0.0, 2023-09-25 18:10:10.102
44.0, 41178.90938269012, 30405.882645354588, -33157.27062908061, -27670.230289725103, -4594.579886744009, -6579.973587986659, -187500.02235174447, -59645.49596852017, -395.6705803478456, -49999.734759299135, -11455.537254278333, -37489.17281498585, 15897.521781625961, -14902.355063242325, -42958.4882209883, -46318.648316699066, 0.048, 0.914, 0.40800000000000003, 192.0, 0.0, 0.0, 0.0, 0.0, 0.0, 0.0, 0.0, 0.0, 0.0, 1.695683410161492E9, 0.0, 2023-09-25 18:10:10.161
46.0, 41182.53036529188, 30406.128514543598, -33167.440672807774, -27676.689943872687, -4609.175575873324, -6590.97064625867, -187500.02235174447, -59589.16957249279, -418.3576009699823, -50021.23713746514, -11480.392394112634, -37504.349649471005, 15887.61995883226, -14929.087749610871, -42980.50468927678, -46341.9388344215, 0.048, 0.914, 0.40800000000000003, 192.0, 0.0, 0.0, 0.0, 0.0, 0.0, 0.0, 0.0, 0.0, 0.0, 1.695683410161503E9, 0.0, 2023-09-25 18:10:10.161
48.0, 41183.69265600356, 30412.275244268807, -33147.257047564635, -27660.216708209125, -4596.748005956174, -6568.73066052564, -187500.02235174447, -59623.56890720951, -402.06317926206344, -49996.784329031034, -11459.001774668906, -37493.64316387691, 15877.47226684955, -14904.545534198945, -42968.56885773765, -46323.968031879434, 0.048, 0.914, 0.40800000000000003, 192.0, 0.0, 0.0, 0.0, 0.0, 0.0, 0.0, 0.0, 0.0, 0.0, 1.695683410161507E9, 0.0, 2023-09-25 18:10:10.161
50.0, 41186.37486533819, 30415.65035768156, -33161.38335006039, -27666.721065845617, -4605.711055482752, -6577.246675163112, -187500.02235174447, -59579.29010144355, -401.39262692840424, -49987.79892776, -11458.957071179995, -37485.820053317555, 15890.52568561145, -14912.972141858596, -42973.12861360653, -46324.63858421309, 0.048, 0.914, 0.40800000000000003, 192.0, 0.0, 0.0, 0.0, 0.0, 0.0, 0.0, 0.0, 0.0, 0.0, 1.69568341016151E9, 0.0, 2023-09-25 18:10:10.161
52.0, 41178.90938269012, 30404.608595920636, -33151.63798947787, -27669.984420536093, -4595.116328610937, -6574.430355361743, -187500.02235174447, -59595.204543495725, -405.7512170971891, -50004.070997723466, -11464.455600316001, -37492.257355720685, 15879.215702917065, -14926.830223420886, -42971.09460486109, -46325.443247013485, 0.05, 0.922, 0.41400000000000003, 192.0, 0.5, 72.0, 14.0, 104.0, 6.0, 120.0, 0.0, 0.0, 0.0, 1.695683410161513E9, 0.0, 2023-09-25 18:10:10.161
54.0, 41175.75778672192, 30401.859331352633, -33166.72541698521, -27676.91346131724, -4618.898584711384, -6590.1212799693685, -187500.02235174447, -59558.48062735565, -408.2546124761835, -50010.73181757115, -11469.104763162704, -37495.43130343334, 15901.9027235392, -14949.6290027653, -42973.44153802891, -46328.75130519287, 0.05, 0.922, 0.41400000000000003, 192.0, 0.0, 0.0, 0.0, 0.0, 0.0, 0.0, 0.0, 0.0, 0.0, 1.695683410161517E9, 0.0, 2023-09-25 18:10:10.161
56.0, 41179.91521119061, 30409.21305527843, -33150.4756987662, -27660.373170420313, -4599.206697846258, -6564.148552912302, -187500.02235174447, -59568.38245014936, -409.39455144340417, -50009.927154770754, -11468.657728273598, -37496.21361448927, 15870.252653390486, -14924.840918164364, -42984.57270676765, -46331.92525290552, 0.05, 0.922, 0.41400000000000003, 192.0, 0.0, 0.0, 0.0, 0.0, 0.0, 0.0, 0.0, 0.0, 0.0, 1.69568341016152E9, 0.0, 2023-09-25 18:10:10.161
58.0, 41193.750941008446, 30420.433630994994, -33149.73809119917, -27652.61711509432, -4598.62555249042, -6566.8754657358495, -187500.02235174447, -59549.87520574036, -388.69683607778984, -49981.898067223796, -11443.73553320593, -37477.61696310246, 15900.539267127428, -14901.95273184213, -42952.96734010784, -46301.05749381274, 0.05, 0.922, 0.41400000000000003, 192.0, 0.0, 0.0, 0.0, 0.0, 0.0, 0.0, 0.0, 0.0, 0.0, 1.695683410161523E9, 0.0, 2023-09-25 18:10:10.161
60.0, 41162.19027783755, 30399.19947376245, -33174.459120566746, -27687.664650400242, -4615.3223055985345, -6592.132936970346, -187500.02235174447, -59522.91900192726, -420.65983064887894, -50012.18468096074, -11472.301062619814, -37492.458521420784, 15875.080630192833, -14939.011924149028, -42978.26951483125, -46325.89028190259, 0.05, 0.922, 0.41400000000000003, 192.0, 0.0, 0.0, 0.0, 0.0, 0.0, 0.0, 0.0, 0.0, 0.0, 1.695683410221538E9, 0.0, 2023-09-25 18:10:10.221
62.0, 41166.057129628316, 30399.11006678463, -33178.95182120226, -27688.3352027339, -4618.25038412218, -6591.328274169955, -187500.02235174447, -59506.624580219344, -417.3517724694935, -50016.87854729636, -11465.394373583124, -37508.21650126178, 15866.586967299816, -14950.43366556569, -42980.191764854404, -46325.5326539913, 0.062, 0.922, 0.42, 192.0, 0.5, 120.0, 14.0, 104.0, 6.5, 16.0, 0.0, 0.0, 0.0, 1.695683410221548E9, 0.0, 2023-09-25 18:10:10.221
64.0, 41171.04156864185, 30402.26166275283, -33170.100530397955, -27685.116551532337, -4613.601221275476, -6578.744242041617, -187500.02235174447, -59487.335024754415, -423.2302812612392, -50016.83384380744, -11465.46142881649, -37499.47696917975, 15871.459647591073, -14952.266508611025, -42988.19368936941, -46320.36940102213, 0.062, 0.922, 0.42, 192.0, 0.0, 0.0, 0.0, 0.0, 0.0, 0.0, 0.0, 0.0, 0.0, 1.695683410221551E9, 0.0, 2023-09-25 18:10:10.221
66.0, 41172.695597731545, 30396.025526049798, -33177.521309557116, -27689.832769612407, -4619.077398667026, -6590.3000939250105, -187500.02235174447, -59482.90937935226, -406.53352815312485, -49999.66770406577, -11448.138826863627, -37491.273878964654, 15881.47322910705, -14942.81172070643, -42972.81568918416, -46302.91268860253, 0.062, 0.922, 0.42, 192.0, 0.0, 0.0, 0.0, 0.0, 0.0, 0.0, 0.0, 0.0, 0.0, 1.695683410221555E9, 0.0, 2023-09-25 18:10:10.221
68.0, 41165.923019161586, 30398.126590028598, -33167.865355952425, -27688.893996345283, -4618.742122500196, -6586.477945623154, -187500.02235174447, -59455.50614065005, -422.64913590540124, -50013.436378650236, -11460.36523108068, -37490.67038186436, 15866.18463589962, -14960.71546801513, -42981.26464858826, -46314.35678176365, 0.062, 0.922, 0.42, 192.0, 0.0, 0.0, 0.0, 0.0, 0.0, 0.0, 0.0, 0.0, 0.0, 1.695683410221558E9, 0.0, 2023-09-25 18:10:10.221
70.0, 41166.37005405069, 30395.153808016043, -33166.70306524075, -27679.57331890742, -4609.91318344035, -6589.741300313628, -187500.02235174447, -59461.36229769734, -414.2001765012952, -50006.88731752483, -11455.336088578235, -37495.408951688885, 15870.207949901576, -14951.350087088358, -42972.50276476178, -46308.12064506062, 0.062, 0.922, 0.42, 192.0, 0.0, 0.0, 0.0, 0.0, 0.0, 0.0, 0.0, 0.0, 0.0, 1.695683410221561E9, 0.0, 2023-09-25 18:10:10.221
72.0, 41168.89580117414, 30406.35203198815, -33158.857602936936, -27675.214728738636, -4603.073549637026, -6575.6820530512405, -187500.02235174447, -59430.78511128249, -413.6860863788231, -50008.809567547985, -11461.572225281267, -37483.875451549946, 15876.95817672708, -14927.94781064365, -42973.03920662871, -46308.232403782895, 0.06, 0.92, 0.418, 192.0, 0.5, 112.0, 14.0, 96.0, 6.5, 8.0, 0.0, 0.0, 0.0, 1.695683410221564E9, 0.0, 2023-09-25 18:10:10.221
74.0, 41154.70244344502, 30388.470636423903, -33175.19672813377, -27690.078638801413, -4617.780997488618, -6593.988131760137, -187500.02235174447, -59426.67239030271, -417.30706898058287, -50000.360608143885, -11459.962899680484, -37489.44103591931, 15865.961118455067, -14929.132453099783, -42970.37934903853, -46306.06428457073, 0.06, 0.92, 0.418, 192.0, 0.0, 0.0, 0.0, 0.0, 0.0, 0.0, 0.0, 0.0, 0.0, 1.69568341028133E9, 0.0, 2023-09-25 18:10:10.281
76.0, 41182.15038563614, 30416.186799548486, -33149.4251667768, -27669.202109480157, -4591.987084387193, -6567.322500624955, -187500.02235174447, -59406.48876505956, -413.75314161218904, -49997.499584853605, -11454.93375717804, -37479.0474747476, 15873.739525525514, -14927.277258309992, -42968.43474727091, -46299.04583681176, 0.06, 0.92, 0.418, 192.0, 0.0, 0.0, 0.0, 0.0, 0.0, 0.0, 0.0, 0.0, 0.0, 1.695683410281342E9, 0.0, 2023-09-25 18:10:10.281
78.0, 41161.67618771508, 30392.091619025665, -33170.83813796498, -27687.105856788858, -4613.712979997752, -6588.310788668488, -187500.02235174447, -59413.149584907245, -417.19531025830634, -49996.449052864205, -11465.997870683417, -37485.9988672732, 15858.652098018183, -14925.802043175941, -42976.771947952744, -46304.946697347965, 0.06, 0.92, 0.418, 192.0, 0.0, 0.0, 0.0, 0.0, 0.0, 0.0, 0.0, 0.0, 0.0, 1.695683410281345E9, 0.0, 2023-09-25 18:10:10.281
80.0, 41165.788908694856, 30407.134343044087, -33162.769158216615, -27681.517920675033, -4600.458395535755, -6579.638311819829, -187500.02235174447, -59359.86302612579, -428.4382377193258, -49997.43252962024, -11468.635376529142, -37475.694713079305, 15864.731772510026, -14939.5260142715, -42974.4920700183, -46301.34806649066, 0.06, 0.92, 0.418, 192.0, 0.0, 0.0, 0.0, 0.0, 0.0, 0.0, 0.0, 0.0, 0.0, 1.695683410281348E9, 0.0, 2023-09-25 18:10:10.281
82.0, 41159.8656964142, 30395.354973716137, -33169.25116410865, -27686.85998759985, -4605.129910126914, -6597.698521339717, -187500.02235174447, -59383.33235780387, -425.7113248957783, -50000.204145932694, -11468.009527684395, -37487.11645449596, 15857.378048584229, -14923.924496641695, -42970.424052527436, -46301.57158393521, 0.046, 0.922, 0.41200000000000003, 192.0, 0.5, 56.0, 14.0, 104.0, 6.0, 112.0, 0.0, 0.0, 0.0, 1.695683410281352E9, 0.0, 2023-09-25 18:10:10.281
84.0, 41144.64415844013, 30390.616403891614, -33185.2326613942, -27707.825923898927, -4614.428235820322, -6614.730550614661, -187500.02235174447, -59319.339313428325, -437.87067387946536, -50015.85036705141, -11487.902580249618, -37487.4517306628, 15859.792036985404, -14948.422008564712, -42985.98086666833, -46322.09048534519, 0.046, 0.922, 0.41200000000000003, 192.0, 0.0, 0.0, 0.0, 0.0, 0.0, 0.0, 0.0, 0.0, 0.0, 1.695683410281355E9, 0.0, 2023-09-25 18:10:10.281
86.0, 41146.901684630124, 30391.175197502995, -33175.17437638931, -27693.409048725254, -4611.343695085489, -6601.587724874941, -187500.02235174447, -59349.42476146517, -429.8016941310995, -50003.04281747852, -11476.32437662177, -37497.10768426749, 15837.887327419201, -14939.369552060314, -42978.40362529798, -46309.79702589477, 0.046, 0.922, 0.41200000000000003, 192.0, 0.0, 0.0, 0.0, 0.0, 0.0, 0.0, 0.0, 0.0, 0.0, 1.695683410281358E9, 0.0, 2023-09-25 18:10:10.281
88.0, 41160.893876659145, 30400.45117145195, -33180.94112645878, -27705.52369422003, -4621.178462645825, -6615.624620392874, -187500.02235174447, -59289.142106669206, -447.6607379508898, -50020.74539908712, -11487.366138382691, -37494.31371621057, 15839.496653019984, -14947.304421341947, -42996.73205575133, -46332.282880816805, 0.046, 0.922, 0.41200000000000003, 192.0, 0.0, 0.0, 0.0, 0.0, 0.0, 0.0, 0.0, 0.0, 0.0, 1.695683410281361E9, 0.0, 2023-09-25 18:10:10.281
90.0, 41169.36518780771, 30412.185837290985, -33182.88572822639, -27708.1388483213, -4623.257174880168, -6616.518690171086, -187500.02235174447, -59328.52588039946, -421.73271438273366, -49988.670645793754, -11469.954129452006, -37492.14559699841, 15834.042827372888, -14941.403560805746, -42991.76996848226, -46329.04187787079, 0.046, 0.922, 0.41200000000000003, 192.0, 0.0, 0.0, 0.0, 0.0, 0.0, 0.0, 0.0, 0.0, 0.0, 1.695683410343084E9, 0.0, 2023-09-25 18:10:10.343
92.0, 41168.18054535157, 30407.134343044087, -33167.08304489649, -27691.844426613385, -4607.454491550266, -6596.02214050557, -187500.02235174447, -59287.62218804624, -417.9999730586974, -49993.07393945145, -11472.122248664171, -37486.28943995112, 15841.79888269888, -14947.706752742142, -42987.79135796921, -46329.064229615244, 0.044, 0.92, 0.41200000000000003, 192.0, 0.5, 48.0, 14.0, 96.0, 6.0, 112.0, 0.0, 0.0, 0.0, 1.695683410343094E9, 0.0, 2023-09-25 18:10:10.343
94.0, 41151.10381258772, 30389.67763062449, -33172.626277521405, -27699.15344705027, -4614.495291053688, -6602.302980697511, -187500.02235174447, -59311.4491476356, -422.35856322748225, -50016.923250785265, -11476.950225466517, -37498.60525114599, 15840.211908842553, -14955.999249935061, -42981.71168347737, -46321.75520917836, 0.044, 0.92, 0.41200000000000003, 192.0, 0.0, 0.0, 0.0, 0.0, 0.0, 0.0, 0.0, 0.0, 0.0, 1.695683410343098E9, 0.0, 2023-09-25 18:10:10.343
96.0, 41160.044510369844, 30391.801046347744, -33177.4319025793, -27703.95907210816, -4621.6031457904755, -6613.814129091994, -187500.02235174447, -59258.14023710969, -426.11365629597384, -50024.43343692225, -11485.712109292997, -37501.73449536973, 15846.76096996796, -14964.001174450063, -42992.77579698274, -46335.88151167411, 0.044, 0.92, 0.41200000000000003, 192.0, 0.0, 0.0, 0.0, 0.0, 0.0, 0.0, 0.0, 0.0, 0.0, 1.695683410343101E9, 0.0, 2023-09-25 18:10:10.343
98.0, 41161.7655946929, 30386.43662767847, -33161.33864657148, -27698.371135994334, -4609.756721229162, -6604.336989442943, -187500.02235174447, -59281.25194087648, -407.4275979313371, -50021.192433976226, -11465.03674567184, -37500.23692849123, 15847.297411834887, -14962.972994205118, -42982.11401487756, -46326.67259295852, 0.044, 0.92, 0.41200000000000003, 192.0, 0.0, 0.0, 0.0, 0.0, 0.0, 0.0, 0.0, 0.0, 0.0, 1.695683410343104E9, 0.0, 2023-09-25 18:10:10.343
100.0, 41172.33796982026, 30396.606671405636, -33160.46692853772, -27697.23119702711, -4597.977351901216, -6594.681035838251, -187500.02235174447, -59252.217024829035, -400.40915017237074, -50020.87950955385, -11458.532388035344, -37495.92304181135, 15867.257519633475, -14961.408372093247, -42979.3423985651, -46323.81156966824, 0.044, 0.92, 0.41200000000000003, 192.0, 0.0, 0.0, 0.0, 0.0, 0.0, 0.0, 0.0, 0.0, 0.0, 1.695683410343108E9, 0.0, 2023-09-25 18:10:10.343
102.0, 41168.18054535157, 30398.39481096206, -33158.857602936936, -27702.95324360767, -4603.967619415238, -6595.105718982902, -187500.02235174447, -59259.66015573266, -395.89409779239867, -50023.94169854423, -11451.871568187664, -37500.59455640252, 15859.635574774216, -14959.597880792366, -42971.78750893921, -46319.25181379936, 0.048, 0.916, 0.40800000000000003, 192.0, 0.5, 64.0, 14.0, 80.0, 6.0, 96.0, 0.0, 0.0, 0.0, 1.695683410343111E9, 0.0, 2023-09-25 18:10:10.343
104.0, 41166.124184861685, 30392.516302170316, -33176.78370199009, -27710.82105765594, -4620.731427756718, -6608.360303444899, -187500.02235174447, -59226.065483816325, -407.9416880538092, -50027.965012546185, -11451.424533298557, -37501.10864652498, 15850.449007803085, -14973.791238521486, -42977.04016888621, -46321.26347080034, 0.048, 0.916, 0.40800000000000003, 192.0, 0.0, 0.0, 0.0, 0.0, 0.0, 0.0, 0.0, 0.0, 0.0, 1.69568341040197E9, 0.0, 2023-09-25 18:10:10.401
106.0, 41170.01338839691, 30398.7747906178, -33158.857602936936, -27700.20397903967, -4605.644000249386, -6596.513878883587, -187500.02235174447, -59235.520271720925, -416.1671300133622, -50039.18558826275, -11463.919158449073, -37510.33991698503, 15833.662847717149, -14995.315968431947, -42992.7981487272, -46338.45196228647, 0.048, 0.916, 0.40800000000000003, 192.0, 0.0, 0.0, 0.0, 0.0, 0.0, 0.0, 0.0, 0.0, 0.0, 1.695683410401981E9, 0.0, 2023-09-25 18:10:10.401
108.0, 41175.19899311054, 30401.993441819366, -33172.73803624368, -27699.71224066165, -4621.267869623646, -6616.026951793069, -187500.02235174447, -59219.33760873528, -388.71918782224515, -50013.68224783924, -11435.465387757467, -37490.24569871971, 15863.927109709635, -14975.62408156682, -42968.85943041556, -46316.86017714265, 0.048, 0.916, 0.40800000000000003, 192.0, 0.0, 0.0, 0.0, 0.0, 0.0, 0.0, 0.0, 0.0, 0.0, 1.695683410401985E9, 0.0, 2023-09-25 18:10:10.401
110.0, 41167.867620929195, 30398.126590028598, -33176.44842582326, -27709.323490777435, -4633.181349418324, -6611.221326735178, -187500.02235174447, -59198.751652091945, -409.30514446558294, -50035.85517833891, -11466.087277661238, -37505.31077448258, 15844.078760633322, -14992.499648630579, -43001.403570342496, -46349.65018625858, 0.048, 0.916, 0.40800000000000003, 192.0, 0.0, 0.0, 0.0, 0.0, 0.0, 0.0, 0.0, 0.0, 0.0, 1.695683410401988E9, 0.0, 2023-09-25 18:10:10.401
112.0, 41178.8199757123, 30407.02258432181, -33170.03347516459, -27698.14761854978, -4622.899546968883, -6602.2582772086, -187500.02235174447, -59187.77694556439, -403.4936909072031, -50023.1593874883, -11459.26999560237, -37507.36713497247, 15840.167205353644, -14982.977805492617, -42989.73595973682, -46333.64633722858, 0.052000000000000005, 0.93, 0.406, 192.0, 0.5, 80.0, 14.5, 8.0, 6.0, 88.0, 0.0, 0.0, 0.0, 1.695683410401991E9, 0.0, 2023-09-25 18:10:10.401
114.0, 41165.47598427248, 30395.578491160693, -33182.93043171531, -27716.408993769764, -4635.327116886034, -6621.413722206798, -187500.02235174447, -59157.199759149524, -417.64234514741247, -50034.17879750476, -11465.75200149441, -37503.27676573715, 15844.70460947807, -14991.694985830187, -42995.70387550639, -46345.0904303897, 0.052000000000000005, 0.93, 0.406, 192.0, 0.0, 0.0, 0.0, 0.0, 0.0, 0.0, 0.0, 0.0, 0.0, 1.695683410401995E9, 0.0, 2023-09-25 18:10:10.401
116.0, 41172.986170409466, 30398.238348750874, -33174.861451966935, -27707.825923898927, -4623.972430702738, -6612.696541869229, -187500.02235174447, -59153.69053527004, -413.529624167636, -50032.301250970515, -11462.153370637105, -37515.100838554004, 15818.865992887735, -15001.663863857255, -42997.648477274, -46343.615215255646, 0.052000000000000005, 0.93, 0.406, 192.0, 0.0, 0.0, 0.0, 0.0, 0.0, 0.0, 0.0, 0.0, 0.0, 1.695683410401998E9, 0.0, 2023-09-25 18:10:10.401
118.0, 41170.43807154156, 30397.47838943939, -33188.74188527368, -27725.416746785253, -4635.528282586131, -6613.0765215249685, -187500.02235174447, -59114.306761539796, -423.4985021947029, -50037.129227772864, -11466.17668463906, -37503.14265527042, 15823.716321434536, -14997.34997717738, -43000.91183196448, -46342.45292454397, 0.052000000000000005, 0.93, 0.406, 192.0, 0.0, 0.0, 0.0, 0.0, 0.0, 0.0, 0.0, 0.0, 0.0, 1.695683410402001E9, 0.0, 2023-09-25 18:10:10.402
120.0, 41180.250487357436, 30406.217921521416, -33165.71958848472, -27705.90367387577, -4607.05216015007, -6596.268009694578, -187500.02235174447, -59139.92186068557, -405.0583130190746, -50023.069980510474, -11440.516882004367, -37504.550815171104, 15842.916469921645, -14980.116782202338, -42986.67377074644, -46320.14588357758, 0.052000000000000005, 0.93, 0.406, 192.0, 0.0, 0.0, 0.0, 0.0, 0.0, 0.0, 0.0, 0.0, 0.0, 1.695683410462186E9, 0.0, 2023-09-25 18:10:10.462
122.0, 41171.26508608641, 30394.997345804855, -33185.25501313865, -27731.474069532644, -4629.023924949637, -6621.793701862539, -187500.02235174447, -59089.27280774985, -422.8950050944096, -50038.42562895127, -11448.675268730554, -37493.598460388006, 15831.807652927359, -14996.522962632533, -42989.98182892583, -46327.09727610317, 0.05, 0.928, 0.41000000000000003, 192.0, 0.5, 72.0, 14.5, 0.0, 6.0, 104.0, 0.0, 0.0, 0.0, 1.695683410462197E9, 0.0, 2023-09-25 18:10:10.462
124.0, 41156.065899856796, 30383.173272987995, -33194.799208021075, -27740.81709871496, -4638.791637276607, -6638.512806715108, -187500.02235174447, -59101.23099103344, -423.67731615034535, -50040.77256211908, -11446.641259985121, -37510.71989664077, 15822.911658634146, -15001.865029557352, -42992.708741749375, -46327.879587159114, 0.05, 0.928, 0.41000000000000003, 192.0, 0.0, 0.0, 0.0, 0.0, 0.0, 0.0, 0.0, 0.0, 0.0, 1.695683410462201E9, 0.0, 2023-09-25 18:10:10.462
126.0, 41165.38657729466, 30393.276261481795, -33194.97802197671, -27743.834584216427, -4639.417486121355, -6635.785893891561, -187500.02235174447, -59051.654821831566, -432.68506916583414, -50055.63647218185, -11458.532388035344, -37515.3020042541, 15821.011760355444, -15017.06421578696, -43005.717457022365, -46341.96118616596, 0.05, 0.928, 0.41000000000000003, 192.0, 0.0, 0.0, 0.0, 0.0, 0.0, 0.0, 0.0, 0.0, 0.0, 1.695683410462204E9, 0.0, 2023-09-25 18:10:10.462
128.0, 41168.47111802949, 30396.517264427814, -33182.50574857066, -27730.021206143047, -4623.033657435615, -6622.620716407385, -187500.02235174447, -59077.26992097735, -424.4149237173705, -50031.876567825864, -11447.445922785511, -37516.62075717697, 15812.65220792916, -14991.404413152268, -42995.48035806184, -46326.069095858235, 0.05, 0.928, 0.41000000000000003, 192.0, 0.0, 0.0, 0.0, 0.0, 0.0, 0.0, 0.0, 0.0, 0.0, 1.695683410462208E9, 0.0, 2023-09-25 18:10:10.462
130.0, 41162.88318191566, 30398.193645261963, -33192.49697834218, -27733.753947467085, -4634.142474429903, -6633.93069910177, -187500.02235174447, -59018.70835050444, -429.93580459783135, -50040.481989441156, -11454.576129266756, -37500.70631512479, 15822.665789445138, -15003.899038302785, -42992.48522430482, -46330.89707266058, 0.05, 0.928, 0.41000000000000003, 192.0, 0.0, 0.0, 0.0, 0.0, 0.0, 0.0, 0.0, 0.0, 0.0, 1.695683410462211E9, 0.0, 2023-09-25 18:10:10.462
132.0, 41158.636350469154, 30390.72816261389, -33189.99358296318, -27734.82683120094, -4633.5166255851545, -6633.103684556924, -187500.02235174447, -59042.20003392697, -426.6724499073565, -50033.24002423764, -11454.665536244576, -37509.110571039986, 15806.483126459496, -15016.438366942211, -42993.26753536076, -46331.54527324978, 0.046, 0.924, 0.41200000000000003, 192.0, 0.5, 56.0, 14.0, 112.0, 6.0, 112.0, 0.0, 0.0, 0.0, 1.695683410462214E9, 0.0, 2023-09-25 18:10:10.462
134.0, 41166.548868006335, 30398.126590028598, -33191.7370190307, -27736.838488201916, -4639.842169266006, -6631.069675811491, -187500.02235174447, -58986.94652163345, -437.58010120154637, -50043.90180634282, -11468.545969551322, -37509.602309418005, 15807.220734026521, -15024.373236223846, -43003.72815176584, -46345.559817023255, 0.046, 0.924, 0.41200000000000003, 192.0, 0.0, 0.0, 0.0, 0.0, 0.0, 0.0, 0.0, 0.0, 0.0, 1.695683410521467E9, 0.0, 2023-09-25 18:10:10.521
136.0, 41160.78211793687, 30397.59014816167, -33182.95278345976, -27728.3448253089, -4622.452512079777, -6622.553661174019, -187500.02235174447, -59014.86385045813, -423.38674347242636, -50033.37413470437, -11453.771466466364, -37511.412800718885, 15815.535582963896, -14999.49574464509, -42995.92739295094, -46331.992308138884, 0.046, 0.924, 0.41200000000000003, 192.0, 0.0, 0.0, 0.0, 0.0, 0.0, 0.0, 0.0, 0.0, 0.0, 1.695683410521481E9, 0.0, 2023-09-25 18:10:10.521
138.0, 41170.66158898611, 30407.60372967765, -33188.205443406754, -27730.445889287697, -4634.455398852277, -6613.411797691799, -187500.02235174447, -58957.218701507896, -422.38091497193756, -50031.78716084804, -11446.753018707397, -37493.732570854736, 15837.350885552274, -15000.613331867855, -42989.154814380985, -46323.72216269042, 0.046, 0.924, 0.41200000000000003, 192.0, 0.0, 0.0, 0.0, 0.0, 0.0, 0.0, 0.0, 0.0, 0.0, 1.695683410521485E9, 0.0, 2023-09-25 18:10:10.521
140.0, 41163.91136216061, 30399.33358422918, -33185.344420116475, -27732.81517419996, -4631.482616839721, -6612.383617446854, -187500.02235174447, -58986.00774836633, -423.431446961337, -50026.53450090105, -11442.237966327426, -37500.3486872135, 15826.264420302443, -14995.5394858765, -42988.30544809168, -46311.13813056209, 0.046, 0.924, 0.41200000000000003, 192.0, 0.0, 0.0, 0.0, 0.0, 0.0, 0.0, 0.0, 0.0, 0.0, 1.695683410521488E9, 0.0, 2023-09-25 18:10:10.521
142.0, 41176.540097777855, 30412.8787413691, -33184.159777660345, -27734.156278867278, -4623.167767902347, -6618.038608794047, -187500.02235174447, -58941.99716353383, -431.54513019861344, -50032.658878881804, -11440.02514362635, -37495.63246913344, 15816.004969597456, -15007.654131371277, -42987.00904691328, -46314.60265095266, 0.052000000000000005, 0.92, 0.41400000000000003, 192.0, 0.5, 80.0, 14.0, 96.0, 6.0, 120.0, 0.0, 0.0, 0.0, 1.695683410521492E9, 0.0, 2023-09-25 18:10:10.521
144.0, 41169.23107734097, 30404.07215405371, -33184.56210906054, -27736.078528890437, -4626.989916204205, -6609.2543732231115, -187500.02235174447, -58969.24394002485, -422.1126940384739, -50027.22740497916, -11429.720989432453, -37495.744227855714, 15811.132289306199, -15000.903904545774, -42979.3423985651, -46302.9797438359, 0.052000000000000005, 0.92, 0.41400000000000003, 192.0, 0.0, 0.0, 0.0, 0.0, 0.0, 0.0, 0.0, 0.0, 0.0, 1.695683410521495E9, 0.0, 2023-09-25 18:10:10.521
146.0, 41174.75195822143, 30411.001194834855, -33196.00620222166, -27740.973560926148, -4636.668221553352, -6621.838405351449, -187500.02235174447, -58921.29944816822, -426.6500981629012, -50027.00388753461, -11427.731684175931, -37491.81032083158, 15813.233353284999, -15011.073948272939, -42983.477471289334, -46302.80092988026, 0.052000000000000005, 0.92, 0.41400000000000003, 192.0, 0.0, 0.0, 0.0, 0.0, 0.0, 0.0, 0.0, 0.0, 0.0, 1.695683410521498E9, 0.0, 2023-09-25 18:10:10.521
148.0, 41164.648969727634, 30398.30540398424, -33200.163626690344, -27747.433215073732, -4640.982108233226, -6621.950164073725, -187500.02235174447, -58927.46852963788, -433.73560115523355, -50028.09912301292, -11433.856062156685, -37498.71700986827, 15800.224638012009, -15020.752253622086, -42992.507576049284, -46307.539499704784, 0.052000000000000005, 0.92, 0.41400000000000003, 192.0, 0.0, 0.0, 0.0, 0.0, 0.0, 0.0, 0.0, 0.0, 0.0, 1.695683410521502E9, 0.0, 2023-09-25 18:10:10.521
150.0, 41171.39919655314, 30414.443363480972, -33196.49794059968, -27735.67619749024, -4640.423314621844, -6610.439015679242, -187500.02235174447, -58891.39281408701, -431.0086883316861, -50024.76871308908, -11431.062094099772, -37496.57124240056, 15805.41024272564, -15010.336340705913, -42987.03139865773, -46301.01279032383, 0.052000000000000005, 0.92, 0.41400000000000003, 192.0, 0.0, 0.0, 0.0, 0.0, 0.0, 0.0, 0.0, 0.0, 0.0, 1.6956834105829E9, 0.0, 2023-09-25 18:10:10.582
152.0, 41155.6635684566, 30394.505607426836, -33203.56109184755, -27752.708226765186, -4646.659451324875, -6624.07357979698, -187500.02235174447, -58881.82626746014, -440.26231053618324, -50037.41980045078, -11445.478969273445, -37503.32146922606, 15795.061385042834, -15018.002989054083, -42999.1013406636, -46308.8806043721, 0.052000000000000005, 0.926, 0.41400000000000003, 192.0, 0.5, 80.0, 14.0, 120.0, 6.0, 120.0, 0.0, 0.0, 0.0, 1.69568341058292E9, 0.0, 2023-09-25 18:10:10.582
154.0, 41165.02894938338, 30403.468656953417, -33197.74963828917, -27740.951209181694, -4643.485503612221, -6617.993905305137, -187500.02235174447, -58846.30934552066, -442.96687161527535, -50036.145751016826, -11446.037762884827, -37504.349649471005, 15811.959303851047, -15019.031169299027, -42996.82146272915, -46311.02637183981, 0.052000000000000005, 0.926, 0.41400000000000003, 192.0, 0.0, 0.0, 0.0, 0.0, 0.0, 0.0, 0.0, 0.0, 0.0, 1.695683410582923E9, 0.0, 2023-09-25 18:10:10.582
156.0, 41177.14359487815, 30413.10225881365, -33177.18603339029, -27729.73063346513, -4613.57886953102, -6589.920114269271, -187500.02235174447, -58860.100371849585, -430.89692960940954, -50020.56658513148, -11431.419722011056, -37490.312753953076, 15809.008873582945, -15002.915561546752, -42980.72820672133, -46287.80290935074, 0.052000000000000005, 0.926, 0.41400000000000003, 192.0, 0.0, 0.0, 0.0, 0.0, 0.0, 0.0, 0.0, 0.0, 0.0, 1.695683410582926E9, 0.0, 2023-09-25 18:10:10.582
158.0, 41162.972588893484, 30401.501703441347, -33200.78947553509, -27745.645075517306, -4642.569082089553, -6620.1173210283905, -187500.02235174447, -58835.133473293004, -422.00093531619734, -50015.380980417845, -11427.5975737092, -37485.88710855092, 15816.876687631213, -15000.747442334587, -42971.16166009446, -46282.55024940375, 0.052000000000000005, 0.926, 0.41400000000000003, 192.0, 0.0, 0.0, 0.0, 0.0, 0.0, 0.0, 0.0, 0.0, 0.0, 1.69568341058293E9, 0.0, 2023-09-25 18:10:10.582
160.0, 41170.6168854972, 30412.07407856871, -33184.62916429391, -27736.77143296855, -4629.605070305475, -6601.654780108307, -187500.02235174447, -58817.810871340145, -439.99408960271955, -50035.18462600525, -11437.007658124883, -37491.51974815366, 15785.07015527131, -15031.861070616374, -42987.14315738001, -46296.631848410594, 0.052000000000000005, 0.926, 0.41400000000000003, 192.0, 0.0, 0.0, 0.0, 0.0, 0.0, 0.0, 0.0, 0.0, 0.0, 1.695683410582933E9, 0.0, 2023-09-25 18:10:10.582
162.0, 41168.18054535157, 30411.627043679604, -33193.54751033158, -27739.073662647446, -4640.222148921746, -6611.35543720191, -187500.02235174447, -58813.966371293835, -427.65592666339, -50014.17398621726, -11420.757939905876, -37477.34874216899, 15797.520076932917, -15004.72605284763, -42972.25689557277, -46274.52597314429, 0.046, 0.92, 0.41600000000000004, 192.0, 0.5, 56.0, 14.0, 96.0, 6.5, 0.0, 0.0, 0.0, 0.0, 1.695683410582936E9, 0.0, 2023-09-25 18:10:10.582
164.0, 41165.27481857238, 30411.895264613067, -33192.63108880891, -27746.270924362056, -4633.337811629512, -6608.047379022525, -187500.02235174447, -58786.80900178063, -437.13306631244023, -50023.85229156641, -11426.92702137554, -37476.722893324244, 15797.944760077567, -15013.06325352946, -42979.05182588719, -46281.477365669896, 0.046, 0.92, 0.41600000000000004, 192.0, 0.0, 0.0, 0.0, 0.0, 0.0, 0.0, 0.0, 0.0, 0.0, 1.695683410641689E9, 0.0, 2023-09-25 18:10:10.641
166.0, 41161.07269061478, 30405.9273488435, -33202.979946491716, -27755.748064011106, -4639.350430887989, -6619.513823928097, -187500.02235174447, -58781.15401043344, -438.0718395795631, -50020.90186129831, -11430.145672577104, -37487.429378918336, 15787.797068094858, -15021.802785611486, -42985.444424801404, -46287.15470876154, 0.046, 0.92, 0.41600000000000004, 192.0, 0.0, 0.0, 0.0, 0.0, 0.0, 0.0, 0.0, 0.0, 0.0, 1.695683410641701E9, 0.0, 2023-09-25 18:10:10.641
168.0, 41181.05515015783, 30423.384061263096, -33180.29292586958, -27734.938589923215, -4618.67506726683, -6592.378806159354, -187500.02235174447, -58767.36298410452, -432.72977265474475, -50017.12441648536, -11416.30994275927, -37472.27489617764, 15807.980693338, -15020.68519838872, -42976.97311365284, -46276.44822316745, 0.046, 0.92, 0.41600000000000004, 192.0, 0.0, 0.0, 0.0, 0.0, 0.0, 0.0, 0.0, 0.0, 0.0, 1.695683410641705E9, 0.0, 2023-09-25 18:10:10.641
170.0, 41165.87831567268, 30406.68730815498, -33200.05186796807, -27752.551764554, -4642.122047200447, -6613.54590815853, -187500.02235174447, -58774.806115008134, -423.5879091725241, -50006.864965780376, -11406.363416476657, -37468.631561831426, 15793.541466419872, -14991.203247452171, -42965.8419449141, -46261.181981704474, 0.046, 0.92, 0.41600000000000004, 192.0, 0.0, 0.0, 0.0, 0.0, 0.0, 0.0, 0.0, 0.0, 0.0, 1.695683410641708E9, 0.0, 2023-09-25 18:10:10.641
172.0, 41177.41181581162, 30418.31021527174, -33189.4347893518, -27752.127081409348, -4623.3689336024445, -6610.126091256869, -187500.02235174447, -58736.919908156386, -436.3060517675939, -50026.69096311223, -11426.681152186531, -37476.14174796841, 15789.27228322891, -15037.337248007923, -42987.63489575803, -46289.568697162715, 0.044, 0.918, 0.42, 192.0, 0.5, 48.0, 14.0, 88.0, 6.5, 16.0, 0.0, 0.0, 0.0, 1.695683410641711E9, 0.0, 2023-09-25 18:10:10.641
174.0, 41151.662606199105, 30396.04787779425, -33199.31426040104, -27762.230069903144, -4634.075419196537, -6624.967649575192, -187500.02235174447, -58753.996640920246, -430.4275429758481, -50024.16521598878, -11417.248716026392, -37482.33318118253, 15791.865085585725, -15030.072931059949, -42974.06738687365, -46281.20914473643, 0.044, 0.918, 0.42, 192.0, 0.0, 0.0, 0.0, 0.0, 0.0, 0.0, 0.0, 0.0, 0.0, 1.695683410641714E9, 0.0, 2023-09-25 18:10:10.641
176.0, 41154.12129808919, 30401.658165652534, -33204.790437792595, -27768.756779284096, -4638.210491920769, -6624.230042008167, -187500.02235174447, -58701.49239319473, -447.2807582951496, -50041.17489351927, -11430.21272781047, -37481.43911140432, 15788.311158217331, -15038.4995387196, -42987.59019226911, -46296.140110032575, 0.044, 0.918, 0.42, 192.0, 0.0, 0.0, 0.0, 0.0, 0.0, 0.0, 0.0, 0.0, 0.0, 1.695683410641718E9, 0.0, 2023-09-25 18:10:10.641
178.0, 41150.09798408723, 30391.10814226963, -33204.633975581404, -27765.761645527084, -4639.350430887989, -6621.257259995611, -187500.02235174447, -58722.927716127364, -438.85415063549885, -50029.28376546905, -11423.93188761853, -37489.55279464159, 15785.159562249133, -15035.370294495857, -42979.18593635392, -46288.07113028421, 0.044, 0.918, 0.42, 192.0, 0.0, 0.0, 0.0, 0.0, 0.0, 0.0, 0.0, 0.0, 0.0, 1.695683410641721E9, 0.0, 2023-09-25 18:10:10.641
180.0, 41157.38465277966, 30397.523092928303, -33211.428905895824, -27766.655715305296, -4642.926710000838, -6619.424416950276, -187500.02235174447, -58666.6460235889, -447.5713309730686, -50039.923195829775, -11438.102893603194, -37485.395370172904, 15781.69504185856, -15039.147739308804, -42991.36763708206, -46299.96225833443, 0.044, 0.918, 0.42, 192.0, 0.0, 0.0, 0.0, 0.0, 0.0, 0.0, 0.0, 0.0, 0.0, 1.695683410702156E9, 0.0, 2023-09-25 18:10:10.702
182.0, 41165.52068776139, 30402.485180197382, -33191.87112949743, -27756.150395411303, -4621.7819597461175, -6600.559544629997, -187500.02235174447, -58701.537096683634, -439.47999948024744, -50023.94169854423, -11425.407102752579, -37488.14463474091, 15784.041975026366, -15031.950477594195, -42975.16262235196, -46278.169307490505, 0.05, 0.924, 0.418, 192.0, 0.5, 72.0, 14.0, 112.0, 6.5, 8.0, 0.0, 0.0, 0.0, 1.695683410702165E9, 0.0, 2023-09-25 18:10:10.702
184.0, 41169.74516746344, 30418.556084460746, -33189.412437607345, -27751.076549419948, -4620.1949858897915, -6602.682960353251, -187500.02235174447, -58662.06391597557, -444.2856245381385, -50018.01848626357, -11426.189413808515, -37479.874489292444, 15800.135231034188, -15037.516061963566, -42972.860392673065, -46277.63286562358, 0.05, 0.924, 0.418, 192.0, 0.0, 0.0, 0.0, 0.0, 0.0, 0.0, 0.0, 0.0, 0.0, 1.695683410702169E9, 0.0, 2023-09-25 18:10:10.702
186.0, 41172.47208028699, 30414.890398370077, -33181.298754370066, -27740.995912670605, -4613.4447590642885, -6590.545963114019, -187500.02235174447, -58707.214439775285, -411.67442937784546, -49999.153613943294, -11395.768689604842, -37468.899782764885, 15802.504515946452, -15007.140041248804, -42951.00038659578, -46247.86034200911, 0.05, 0.924, 0.418, 192.0, 0.0, 0.0, 0.0, 0.0, 0.0, 0.0, 0.0, 0.0, 0.0, 1.695683410702172E9, 0.0, 2023-09-25 18:10:10.702
188.0, 41150.45561199851, 30403.6251191646, -33220.25784495567, -27773.472997364166, -4646.033602480126, -6625.705257142217, -187500.02235174447, -58632.38079933892, -446.9901856172306, -50032.457713181706, -11425.474157985946, -37474.42066364535, 15780.756268591436, -15039.192442797716, -42977.30838981967, -46275.6212086226, 0.05, 0.924, 0.418, 192.0, 0.0, 0.0, 0.0, 0.0, 0.0, 0.0, 0.0, 0.0, 0.0, 1.695683410702175E9, 0.0, 2023-09-25 18:10:10.702
190.0, 41158.010501624405, 30404.74270638737, -33198.643708067386, -27754.92104946626, -4626.073494681536, -6602.63825686434, -187500.02235174447, -58659.00172698519, -444.03975534913013, -50018.64433510832, -11420.221498038949, -37483.875451549946, 15763.098390471745, -15031.816367127463, -42977.66601773095, -46269.34036843066, 0.05, 0.924, 0.418, 192.0, 0.0, 0.0, 0.0, 0.0, 0.0, 0.0, 0.0, 0.0, 0.0, 1.695683410702178E9, 0.0, 2023-09-25 18:10:10.702
192.0, 41164.0678243718, 30413.21401753593, -33205.684507570804, -27754.339904110424, -4642.457323367277, -6604.180527231757, -187500.02235174447, -58602.42946176881, -444.3303280270491, -50018.264355452586, -11415.371169492146, -37468.56450659806, 15784.243140726465, -15036.890213118819, -42973.55329675118, -46265.24999919534, 0.054, 0.918, 0.422, 192.0, 0.5, 88.0, 14.0, 88.0, 6.5, 24.0, 0.0, 0.0, 0.0, 1.695683410702182E9, 0.0, 2023-09-25 18:10:10.702
194.0, 41164.447804027535, 30409.905959356543, -33199.91775750134, -27755.144566910814, -4636.109427941969, -6602.772367331072, -187500.02235174447, -58619.41678755484, -437.6471564349123, -50010.217727448675, -11414.499451458389, -37471.09025372151, 15774.944815033057, -15025.35671297988, -42970.04407287169, -46259.215028192404, 0.054, 0.918, 0.422, 192.0, 0.0, 0.0, 0.0, 0.0, 0.0, 0.0, 0.0, 0.0, 0.0, 1.695683410763035E9, 0.0, 2023-09-25 18:10:10.763
196.0, 41170.37101630819, 30417.282035026794, -33203.38227789191, -27759.68197103524, -4636.154131430881, -6611.444844179731, -187500.02235174447, -58589.53250521809, -439.6364616914346, -50011.44707339371, -11420.109739316671, -37473.83951828951, 15791.529809418895, -15033.02336132805, -42967.42891877043, -46263.707728827925, 0.054, 0.918, 0.422, 192.0, 0.0, 0.0, 0.0, 0.0, 0.0, 0.0, 0.0, 0.0, 0.0, 1.695683410763047E9, 0.0, 2023-09-25 18:10:10.763
198.0, 41165.498336016935, 30409.749497145356, -33197.88374875591, -27761.4030553583, -4632.421390106844, -6604.426396420765, -187500.02235174447, -58614.61116249695, -425.48780745122525, -50008.07195998096, -11412.957181090973, -37475.44884389029, 15782.455001170041, -15037.78428289703, -42965.01493036925, -46265.36175791761, 0.054, 0.918, 0.422, 192.0, 0.0, 0.0, 0.0, 0.0, 0.0, 0.0, 0.0, 0.0, 0.0, 1.695683410763051E9, 0.0, 2023-09-25 18:10:10.763
200.0, 41158.32342604678, 30404.31802324272, -33218.983795521715, -27777.2057386882, -4651.241558938213, -6629.192129277245, -187500.02235174447, -58582.24583652566, -437.82597039055474, -50030.33429745845, -11421.07086432825, -37484.23307946123, 15768.887492285668, -15056.157416839293, -42975.31908456315, -46278.43752842397, 0.054, 0.918, 0.422, 192.0, 0.0, 0.0, 0.0, 0.0, 0.0, 0.0, 0.0, 0.0, 0.0, 1.695683410763054E9, 0.0, 2023-09-25 18:10:10.763
202.0, 41157.54111499085, 30399.06536329572, -33204.656327325865, -27765.31461063798, -4633.874253496439, -6614.0152947920915, -187500.02235174447, -58585.88917087188, -444.2409210492279, -50023.85229156641, -11422.702541673487, -37485.90946029538, 15767.009945751422, -15045.02624810055, -42975.67671247444, -46281.09738601415, 0.052000000000000005, 0.922, 0.41600000000000004, 192.0, 0.5, 80.0, 14.0, 104.0, 6.5, 0.0, 0.0, 0.0, 0.0, 1.695683410763057E9, 0.0, 2023-09-25 18:10:10.763
204.0, 41149.00274860892, 30390.191720746963, -33220.302548444575, -27774.948212498217, -4643.686669312318, -6614.2611639811, -187500.02235174447, -58542.571490117494, -446.9901856172306, -50035.162274260794, -11421.87552712864, -37484.18837597232, 15764.014811994412, -15056.447989517212, -42971.09460486109, -46278.526935401795, 0.052000000000000005, 0.922, 0.41600000000000004, 192.0, 0.0, 0.0, 0.0, 0.0, 0.0, 0.0, 0.0, 0.0, 0.0, 1.69568341076306E9, 0.0, 2023-09-25 18:10:10.763
206.0, 41146.85698114121, 30389.11883701311, -33215.139295475405, -27778.099808466413, -4643.306689656579, -6613.2106319917, -187500.02235174447, -58531.10504521192, -457.3390433000378, -50044.684117398756, -11431.486777244423, -37491.966783042764, 15750.02261996539, -15065.165169854781, -42977.97894215333, -46278.92926680199, 0.052000000000000005, 0.922, 0.41600000000000004, 192.0, 0.0, 0.0, 0.0, 0.0, 0.0, 0.0, 0.0, 0.0, 0.0, 1.695683410763064E9, 0.0, 2023-09-25 18:10:10.763
208.0, 41169.38753955216, 30404.139209287074, -33207.47264712723, -27765.716942038172, -4629.96269821676, -6606.1474807438235, -187500.02235174447, -58535.62009759189, -441.24578729221673, -50028.47910266866, -11415.773500892343, -37483.67428584985, 15765.333564917275, -15058.571405240466, -42971.966322894856, -46270.68147309798, 0.052000000000000005, 0.922, 0.41600000000000004, 192.0, 0.0, 0.0, 0.0, 0.0, 0.0, 0.0, 0.0, 0.0, 0.0, 1.695683410763067E9, 0.0, 2023-09-25 18:10:10.763
210.0, 41180.54106003536, 30425.529828730803, -33201.12475170192, -27767.326267638957, -4622.072532424037, -6595.038663749536, -187500.02235174447, -58538.235251693164, -423.8337783615325, -50000.762939544074, -11396.26042798286, -37457.45568960377, 15794.703757131549, -15041.606431198888, -42947.84879062758, -46248.44148736495, 0.052000000000000005, 0.922, 0.41600000000000004, 192.0, 0.0, 0.0, 0.0, 0.0, 0.0, 0.0, 0.0, 0.0, 0.0, 1.695683410822722E9, 0.0, 2023-09-25 18:10:10.822
212.0, 41161.497373759434, 30413.7281076584, -33196.877920255414, -27757.156223911792, -4628.398076104889, -6595.083367238447, -187500.02235174447, -58536.290649925555, -425.6442696624124, -50003.95923900119, -11393.77938434832, -37464.58589608502, 15764.193625950054, -15052.178806326248, -42955.47073548684, -46254.25294092333, 0.056, 0.916, 0.41600000000000004, 192.0, 0.5, 96.0, 14.0, 80.0, 6.5, 0.0, 0.0, 0.0, 0.0, 1.695683410822733E9, 0.0, 2023-09-25 18:10:10.822
214.0, 41162.994940637946, 30418.533732716292, -33199.78364703461, -27759.234936146135, -4630.253270894679, -6587.930809012749, -187500.02235174447, -58506.29460886653, -445.5373222276357, -50009.14484371482, -11395.031082037816, -37451.46542208975, 15770.206245208532, -15041.874652132352, -42947.37940399402, -46243.59115881815, 0.056, 0.916, 0.41600000000000004, 192.0, 0.0, 0.0, 0.0, 0.0, 0.0, 0.0, 0.0, 0.0, 0.0, 1.695683410822736E9, 0.0, 2023-09-25 18:10:10.822
216.0, 41165.7665569504, 30421.148886817562, -33194.70980104325, -27750.026017430548, -4618.29508761109, -6587.997864246115, -187500.02235174447, -58517.06814969399, -439.0329645911413, -49989.31884638296, -11390.91836105804, -37455.198163413785, 15770.78739056437, -15047.820216157463, -42944.272511514726, -46235.186902902955, 0.056, 0.916, 0.41600000000000004, 192.0, 0.0, 0.0, 0.0, 0.0, 0.0, 0.0, 0.0, 0.0, 0.0, 1.695683410822739E9, 0.0, 2023-09-25 18:10:10.822
218.0, 41158.05520511332, 30416.902055371054, -33205.57274884853, -27759.72667452415, -4628.800407505084, -6593.921076526771, -187500.02235174447, -58476.20916082968, -455.5509037436132, -50003.154576200795, -11404.68703564251, -37448.67145403283, 15768.820437052304, -15049.40719001379, -42946.95472084937, -46242.3618128731, 0.056, 0.916, 0.41600000000000004, 192.0, 0.0, 0.0, 0.0, 0.0, 0.0, 0.0, 0.0, 0.0, 0.0, 1.695683410822743E9, 0.0, 2023-09-25 18:10:10.822
220.0, 41148.73452767546, 30408.20722677794, -33215.340461175496, -27762.54299432552, -4638.5681198320535, -6590.411852647288, -187500.02235174447, -58479.33840505343, -454.99211013223055, -49996.158480186285, -11405.290532742803, -37463.736529795715, 15753.93417524507, -15046.54616672351, -42953.41437499695, -46238.897292482536, 0.056, 0.916, 0.41600000000000004, 192.0, 0.0, 0.0, 0.0, 0.0, 0.0, 0.0, 0.0, 0.0, 0.0, 1.695683410822746E9, 0.0, 2023-09-25 18:10:10.822
222.0, 41157.183487079565, 30425.842753153178, -33203.1364087029, -27751.434177331234, -4629.448608094288, -6588.3554921574, -187500.02235174447, -58441.340439479405, -466.65972073790084, -49999.444186621215, -11408.598590922189, -37457.45568960377, 15760.103256714734, -15047.820216157463, -42958.175296565925, -46245.75927803031, 0.062, 0.914, 0.41200000000000003, 192.0, 0.5, 120.0, 14.0, 72.0, 6.0, 112.0, 0.0, 0.0, 0.0, 1.695683410822749E9, 0.0, 2023-09-25 18:10:10.822
224.0, 41158.993978380444, 30426.043918853276, -33201.19180693529, -27749.757796497084, -4622.228994635224, -6580.241808920123, -187500.02235174447, -58457.16547455377, -447.3031100396049, -49974.209067131174, -11389.666663368544, -37450.75016626718, 15756.281108412875, -15030.274096760048, -42945.61361618205, -46222.49111205234, 0.062, 0.914, 0.41200000000000003, 192.0, 0.0, 0.0, 0.0, 0.0, 0.0, 0.0, 0.0, 0.0, 0.0, 1.695683410881465E9, 0.0, 2023-09-25 18:10:10.881
226.0, 41159.843344669745, 30427.094450842676, -33204.34340290349, -27764.197023415214, -4631.482616839721, -6594.0551869935025, -187500.02235174447, -58401.59903783787, -456.2214560772725, -49990.36937837236, -11396.483945427412, -37446.34687260949, 15763.143093960654, -15052.290565048525, -42949.21224703935, -46231.94589995693, 0.062, 0.914, 0.41200000000000003, 192.0, 0.0, 0.0, 0.0, 0.0, 0.0, 0.0, 0.0, 0.0, 0.0, 1.695683410881476E9, 0.0, 2023-09-25 18:10:10.881
228.0, 41156.825859168275, 30417.952587360454, -33200.163626690344, -27762.654753047795, -4624.1288929139255, -6596.1115474833905, -187500.02235174447, -58425.068369515946, -452.28754905313843, -49988.111852182374, -11391.074823269228, -37457.165116925855, 15753.665954311606, -15036.554936951989, -42953.146154063485, -46226.42501907647, 0.062, 0.914, 0.41200000000000003, 192.0, 0.0, 0.0, 0.0, 0.0, 0.0, 0.0, 0.0, 0.0, 0.0, 1.69568341088148E9, 0.0, 2023-09-25 18:10:10.881
230.0, 41163.44197552705, 30430.335453788695, -33205.57274884853, -27771.841320018928, -4628.2416138937015, -6599.151384729313, -187500.02235174447, -58369.45722931114, -459.75303170121094, -49993.65508480729, -11399.054396039772, -37449.520820322134, 15748.323887386787, -15039.706532920187, -42959.91873263344, -46234.53870231375, 0.062, 0.914, 0.41200000000000003, 192.0, 0.0, 0.0, 0.0, 0.0, 0.0, 0.0, 0.0, 0.0, 0.0, 1.695683410881483E9, 0.0, 2023-09-25 18:10:10.881
232.0, 41166.86179242871, 30430.491915999883, -33196.92262374433, -27765.73929378263, -4616.6187067769415, -6590.2553904361, -187500.02235174447, -58402.29194191599, -443.883293137943, -49973.80673573098, -11386.939750544996, -37449.342006366496, 15751.989573477456, -15043.685143433231, -42946.32887200462, -46221.10530389611, 0.05, 0.916, 0.41000000000000003, 192.0, 0.5, 72.0, 14.0, 80.0, 6.0, 104.0, 0.0, 0.0, 0.0, 1.695683410881486E9, 0.0, 2023-09-25 18:10:10.881
234.0, 41174.4166820546, 30439.007930637352, -33208.54553086108, -27772.623631074865, -4620.731427756718, -6591.931771270249, -187500.02235174447, -58347.530168000485, -453.02515662016356, -49990.48113709463, -11394.584047148712, -37437.07089866053, 15761.176140448588, -15042.92518412175, -42946.61944468253, -46224.972155686875, 0.05, 0.916, 0.41000000000000003, 192.0, 0.0, 0.0, 0.0, 0.0, 0.0, 0.0, 0.0, 0.0, 0.0, 1.695683410881489E9, 0.0, 2023-09-25 18:10:10.881
236.0, 41163.97841739398, 30425.86510489763, -33212.47943788522, -27778.59154684443, -4620.239689378702, -6597.229134706156, -187500.02235174447, -58372.206493879145, -449.4265257628591, -49982.61332304637, -11397.132146016616, -37439.70840450626, 15747.429817608574, -15035.59381194041, -42943.9372353479, -46222.82638821917, 0.05, 0.916, 0.41000000000000003, 192.0, 0.0, 0.0, 0.0, 0.0, 0.0, 0.0, 0.0, 0.0, 0.0, 1.695683410881493E9, 0.0, 2023-09-25 18:10:10.881
238.0, 41170.63923724166, 30439.902000415565, -33213.664080341354, -27777.920994510772, -4623.570099302542, -6592.222343948168, -187500.02235174447, -58320.015170576, -452.2428455642278, -49982.18863990172, -11406.274009498837, -37436.24388411568, 15755.744666545948, -15042.075817832449, -42943.713717903345, -46231.85649297911, 0.05, 0.916, 0.41000000000000003, 192.0, 0.0, 0.0, 0.0, 0.0, 0.0, 0.0, 0.0, 0.0, 0.0, 1.695683410881496E9, 0.0, 2023-09-25 18:10:10.881
