%OpenBCI Raw EXG Data
%Number of channels = 16
%Sample Rate = 125 Hz
%Board = OpenBCI_GUI$BoardCytonSerialDaisy
Sample Index, EXG Channel 0, EXG Channel 1, EXG Channel 2, EXG Channel 3, EXG Channel 4, EXG Channel 5, EXG Channel 6, EXG Channel 7, EXG Channel 8, EXG Channel 9, EXG Channel 10, EXG Channel 11, EXG Channel 12, EXG Channel 13, EXG Channel 14, EXG Channel 15, Accel Channel 0, Accel Channel 1, Accel Channel 2, Other, Other, Other, Other, Other, Other, Other, Analog Channel 0, Analog Channel 1, Analog Channel 2, Timestamp, Other, Timestamp (Formatted)
0.0, 21321.194925450676, 53681.648216444046, -77064.94803010799, -60591.198276424206, -47210.7958448882, -22130.95392357754, 187500.0, -49726.395276355186, 0.0, 0.0, 0.0, 0.0, 0.0, 0.0, 0.0, 0.0, 0.057, 0.503, 0.006, 192.0, 1.5, 72.0, 15.5, 56.0, 0.0, 48.0, 0.0, 0.0, 0.0, 1.69534117312476E9, 0.0, 2023-09-21 19:06:13.124
28.0, 21250.183433316164, 53603.41711085047, -77059.71772190544, -60585.20800891019, -47207.01840007525, -22134.440795712566, 187500.0, -49720.51676756344, -8588.613103462829, -35702.26260450633, -76008.67164238353, -34339.32028285507, -19516.828002551556, -64463.056857950316, -55923.37172310016, -108114.62797100878, 0.057, 0.503, 0.006, 192.0, 0.0, 0.0, 0.0, 0.0, 0.0, 0.0, 0.0, 0.0, 0.0, 1.695341173124772E9, 0.0, 2023-09-21 19:06:13.124
30.0, 21326.872268542324, 53674.20508554043, -77062.936373107, -60584.068069942965, -47203.39741747349, -22125.544801419353, 187500.0, -49715.39821808317, -8582.801649904448, -35701.50264519485, -76005.02830803732, -34336.7051287538, -19496.01852846367, -64462.29689863884, -55915.235688118424, -108102.73684295856, 0.057, 0.503, 0.006, 192.0, 0.0, 0.0, 0.0, 0.0, 0.0, 0.0, 0.0, 0.0, 0.0, 1.695341173124777E9, 0.0, 2023-09-21 19:06:13.124
32.0, 21260.331125298875, 53606.054616696194, -77067.07144583124, -60588.80663976749, -47212.159301299966, -22134.75372013494, 187500.0, -49724.80830249886, -8586.26617029502, -35699.26747074932, -76006.45881968246, -34338.35915784349, -19514.23520019474, -64460.531110826865, -55926.568022557265, -108115.85731695383, 0.057, 0.503, 0.006, 192.0, 0.0, 0.0, 0.0, 0.0, 0.0, 0.0, 0.0, 0.0, 0.0, 1.695341173124781E9, 0.0, 2023-09-21 19:06:13.124
34.0, 21341.266791971542, 53686.94557987995, -77080.61660297116, -60598.61905558337, -47212.82985363363, -22135.960714335528, 187500.0, -49736.855892760264, -8605.84629843787, -35721.239235548885, -76028.45293622649, -34353.31247488409, -19515.28573218414, -64483.86633203821, -55924.77988300084, -108087.82822940686, 0.057, 0.503, 0.006, 192.0, 0.0, 0.0, 0.0, 0.0, 0.0, 0.0, 0.0, 0.0, 0.0, 1.695341173124784E9, 0.0, 2023-09-21 19:06:13.124
36.0, 21253.089160095355, 53613.98948597783, -77075.02866685732, -60591.42179386876, -47229.705420697384, -22148.52239471941, 187500.0, -49731.84910200228, -8620.531394545007, -35720.21105530394, -76036.18663980802, -34357.98398947525, -19532.898906814924, -64480.62532909219, -55939.24146166343, -108079.69219442514, 0.08650000000000001, 0.7555000000000001, 0.009000000000000001, 192.0, 1.5, 80.0, 15.5, 64.0, 0.0, 48.0, 0.0, 0.0, 0.0, 1.695341173124787E9, 0.0, 2023-09-21 19:06:13.124
38.0, 21324.391224907784, 53686.76676592431, -77085.01989662884, -60600.72011956217, -47220.04946709269, -22140.855746371242, 187500.0, -49740.365116639754, -8622.811272479448, -35723.474409994415, -76039.33823577622, -34358.58748657555, -19525.299313700118, -64474.925634256084, -55928.08794118022, -108075.49006646754, 0.08650000000000001, 0.7555000000000001, 0.009000000000000001, 192.0, 0.0, 0.0, 0.0, 0.0, 0.0, 0.0, 0.0, 0.0, 0.0, 1.69534117312479E9, 0.0, 2023-09-21 19:06:13.124
40.0, 21236.95120059862, 53605.98756146283, -77056.56612593724, -60573.294529115505, -47219.8930048815, -22137.502984702944, 187500.0, -49707.41864531263, -8608.03676939449, -35705.34714524116, -76029.1458403046, -34348.573905059566, -19527.534488145648, -64467.68366905257, -55930.92661272605, -108065.76705762948, 0.08650000000000001, 0.7555000000000001, 0.009000000000000001, 192.0, 0.0, 0.0, 0.0, 0.0, 0.0, 0.0, 0.0, 0.0, 0.0, 1.695341173124794E9, 0.0, 2023-09-21 19:06:13.124
42.0, 21316.411652137238, 53674.920341362995, -77076.88386164712, -60597.32265440496, -47205.789054130204, -22129.635170654677, 187500.0, -49732.810227013855, -8601.17478384671, -35704.34131674067, -76026.17305829204, -34343.94709395732, -19511.776508304658, -64471.371706887694, -55907.79255721481, -108084.006081105, 0.08650000000000001, 0.7555000000000001, 0.009000000000000001, 192.0, 0.0, 0.0, 0.0, 0.0, 0.0, 0.0, 0.0, 0.0, 0.0, 1.695341173124798E9, 0.0, 2023-09-21 19:06:13.124
0.0, 10490.388928698174, 26768.02447653109, -38546.87971435544, -30346.29289463674, -23638.064996965528, -11156.426209977415, 93749.98882412778, -24828.07187176608, -4311.942078106651, -17858.663840134603, -38020.6749463886, -17181.16011394979, -9770.059260136994, -32242.61489422499, -27974.236366061734, -54029.62017412426, 0.11800000000000001, 1.006, 0.006, 192.0, 1.5, 88.0, 15.5, 56.0, 0.0, 24.0, 0.0, 0.0, 0.0, 1.69534117327844E9, 0.0, 2023-09-21 19:06:13.278
2.0, 21055.387980388165, 53613.542451088724, -77089.73611470893, -60687.48959153767, -47280.64504631103, -22316.965140934604, 187500.0, -49659.94354008955, -8618.765606733037, -35771.59771580669, -76034.57731420724, -34493.23439517432, -19539.24680224023, -64496.71858510001, -56005.44732874005, -106861.87974952218, 0.11800000000000001, 1.006, 0.006, 192.0, 0.0, 0.0, 0.0, 0.0, 0.0, 0.0, 0.0, 0.0, 0.0, 1.695341173278454E9, 0.0, 2023-09-21 19:06:13.278
4.0, 20976.933357350037, 53529.76811287023, -77071.16181506656, -60667.90946339482, -47275.77236601977, -22311.265446098503, 187500.0, -49639.15641774612, -8602.582943747395, -35743.90390442657, -76013.20904650797, -34474.25776413176, -19535.782281849657, -64469.628270820176, -56000.12761355968, -106879.76114508644, 0.11800000000000001, 1.006, 0.006, 192.0, 0.0, 0.0, 0.0, 0.0, 0.0, 0.0, 0.0, 0.0, 0.0, 1.695341173278457E9, 0.0, 2023-09-21 19:06:13.278
6.0, 21070.475407895497, 53618.7057040579, -77113.13839115362, -60711.00362670465, -47288.93754350395, -22319.334425846868, 187500.0, -49684.10577584575, -8610.495461284574, -35766.546221559795, -76026.2401135254, -34490.46277886185, -19534.351770204517, -64490.750669330446, -55993.690311156555, -106881.79515383186, 0.11800000000000001, 1.006, 0.006, 192.0, 0.0, 0.0, 0.0, 0.0, 0.0, 0.0, 0.0, 0.0, 0.0, 1.695341173278461E9, 0.0, 2023-09-21 19:06:13.278
8.0, 20983.1024388197, 53544.341450255095, -77079.27549830383, -60673.63150997538, -47289.78690979325, -22318.976797935582, 187500.0, -49640.318708457795, -8619.32440034442, -35761.76294824635, -76031.26925602785, -34499.0458487327, -19560.1680350504, -64489.18604721857, -56020.46770101401, -106855.4200953746, 0.12, 1.006, 0.01, 192.0, 1.5, 96.0, 15.5, 56.0, 0.0, 40.0, 0.0, 0.0, 0.0, 1.695341173278464E9, 0.0, 2023-09-21 19:06:13.278
10.0, 21063.45696013653, 53607.50748008579, -77098.92268168005, -60695.692681752764, -47275.19122066393, -22309.119678630792, 187500.0, -49662.98337733548, -8604.102862370357, -35748.441308550995, -76019.78045937783, -34477.65522928897, -19527.690950356835, -64478.74778255794, -55990.94104658855, -106884.2314939775, 0.12, 1.006, 0.01, 192.0, 0.0, 0.0, 0.0, 0.0, 0.0, 0.0, 0.0, 0.0, 0.0, 1.695341173278467E9, 0.0, 2023-09-21 19:06:13.278
12.0, 20993.183075569043, 53548.43181949041, -77087.47858851893, -60685.16501011432, -47301.02983725427, -22331.985513208572, 187500.0, -49652.276891741385, -8623.37006609083, -35758.67840751152, -76043.96504687847, -34496.90008126498, -19556.904680359923, -64496.20449497754, -56021.004142880935, -106856.20240643054, 0.12, 1.006, 0.01, 192.0, 0.0, 0.0, 0.0, 0.0, 0.0, 0.0, 0.0, 0.0, 0.0, 1.695341173278471E9, 0.0, 2023-09-21 19:06:13.278
14.0, 21045.35204712773, 53583.72522398535, -77083.20940532797, -60682.639262990866, -47263.30009261371, -22300.5142570155, 187500.0, -49649.05824053982, -8604.348731559365, -35751.369387074636, -76023.73671814642, -34479.35396186757, -19533.480052170762, -64480.91590177011, -55993.01975882289, -106902.85049710877, 0.12, 1.006, 0.01, 192.0, 0.0, 0.0, 0.0, 0.0, 0.0, 0.0, 0.0, 0.0, 0.0, 1.695341173278474E9, 0.0, 2023-09-21 19:06:13.278
16.0, 21000.02270937237, 53546.10723806706, -77082.38239078312, -60683.93566416928, -47290.882145271564, -22318.4180043242, 187500.0, -49651.20400800753, -8610.22724035111, -35766.255648881874, -76029.50346821589, -34489.300488150184, -19538.084511528556, -64490.25893095243, -56001.84869788274, -106876.90012179615, 0.12, 1.006, 0.01, 192.0, 0.0, 0.0, 0.0, 0.0, 0.0, 0.0, 0.0, 0.0, 0.0, 1.695341173338002E9, 0.0, 2023-09-21 19:06:13.338
18.0, 21033.50562256642, 53568.43663077791, -77082.06946636074, -60685.47793453669, -47263.14363040253, -22304.649329739732, 187500.0, -49661.239941267966, -8604.348731559365, -35760.041863923296, -76024.67549141354, -34485.031304959215, -19532.876555070467, -64490.08011699678, -56001.17814554908, -106919.25667753896, 0.114, 1.008, 0.014, 192.0, 1.5, 72.0, 15.5, 64.0, 0.0, 56.0, 0.0, 0.0, 0.0, 1.695341173338013E9, 0.0, 2023-09-21 19:06:13.338
20.0, 21010.371567055176, 53560.43470626292, -77094.02764964434, -60699.51483005463, -47301.81214831021, -22335.89706848825, 187500.0, -49666.29143551486, -8610.674275240217, -35770.48012858393, -76036.7454334194, -34498.97879349933, -19541.526680174673, -64503.044128780864, -56010.43176775358, -106877.41421191863, 0.114, 1.008, 0.014, 192.0, 0.0, 0.0, 0.0, 0.0, 0.0, 0.0, 0.0, 0.0, 0.0, 1.695341173338016E9, 0.0, 2023-09-21 19:06:13.338
22.0, 21035.74079701195, 53581.26653209526, -77122.3026063803, -60730.516699614134, -47297.47590988588, -22341.887336002274, 187500.0, -49693.873488172714, -8630.299106871977, -35788.205061936984, -76056.16909935107, -34520.45881992088, -19562.78318915167, -64523.98771333548, -56022.94874464855, -106896.61436040573, 0.114, 1.008, 0.014, 192.0, 0.0, 0.0, 0.0, 0.0, 0.0, 0.0, 0.0, 0.0, 0.0, 1.69534117333802E9, 0.0, 2023-09-21 19:06:13.338
24.0, 21006.48236351995, 53569.39775578949, -77092.91006242158, -60704.76749000162, -47307.55654663522, -22335.60649581033, 187500.0, -49667.90076111565, -8632.46722608414, -35787.288640414314, -76057.89018367413, -34519.430639675935, -19565.040715341656, -64520.00910282244, -56033.319954075814, -106847.30641213733, 0.114, 1.008, 0.014, 192.0, 0.0, 0.0, 0.0, 0.0, 0.0, 0.0, 0.0, 0.0, 0.0, 1.695341173338023E9, 0.0, 2023-09-21 19:06:13.338
26.0, 20999.642729716626, 53552.11985732554, -77089.4902455199, -60704.6780830238, -47271.0561479397, -22313.902951944227, 187500.0, -49659.608263922724, -8607.2321065941, -35765.51804131485, -76034.06322408476, -34495.26840391975, -19546.555822677117, -64493.455230409534, -56009.44829099754, -106915.16630830364, 0.114, 1.008, 0.014, 192.0, 0.0, 0.0, 0.0, 0.0, 0.0, 0.0, 0.0, 0.0, 0.0, 1.695341173338026E9, 0.0, 2023-09-21 19:06:13.338
28.0, 21005.834162930747, 53572.05761337967, -77094.72055372245, -60707.40499584735, -47300.02400875378, -22332.09727193085, 187500.0, -49661.46345871252, -8616.441025309685, -35777.90090774309, -76047.38486378013, -34504.5443778687, -19539.872651084977, -64509.86141083973, -56013.09162534376, -106873.34619442777, 0.116, 1.01, 0.008, 192.0, 1.5, 80.0, 15.5, 72.0, 0.0, 32.0, 0.0, 0.0, 0.0, 1.695341173338029E9, 0.0, 2023-09-21 19:06:13.338
30.0, 20977.939185850526, 53529.54459542568, -77083.29881230579, -60695.33505384148, -47272.576066562666, -22311.578370520874, 187500.0, -49652.67922314158, -8603.745234459071, -35762.07587266873, -76035.71725317446, -34494.35198239708, -19537.078683028067, -64497.41148917812, -56012.21990731, -106931.72895094502, 0.116, 1.01, 0.008, 192.0, 0.0, 0.0, 0.0, 0.0, 0.0, 0.0, 0.0, 0.0, 0.0, 1.69534117339821E9, 0.0, 2023-09-21 19:06:13.398
32.0, 21015.82539270227, 53578.00317740479, -77096.48634153442, -60703.67225452331, -47300.62750585408, -22323.156574148725, 187500.0, -49656.85899935472, -8617.648019510272, -35778.81732926575, -76050.67057021506, -34510.57934887163, -19542.19723250833, -64506.7768701049, -56015.46091025602, -106889.95354055805, 0.116, 1.01, 0.008, 192.0, 0.0, 0.0, 0.0, 0.0, 0.0, 0.0, 0.0, 0.0, 0.0, 1.695341173398224E9, 0.0, 2023-09-21 19:06:13.398
34.0, 20974.988755582424, 53524.96248781234, -77092.6418414881, -60698.978388187694, -47282.008502722805, -22306.03513789596, 187500.0, -49651.092249285255, -8614.049388652968, -35756.01854992134, -76040.45582299898, -34497.43652313191, -19554.423636725383, -64491.71179434202, -56014.38802652217, -106930.1419770887, 0.116, 1.01, 0.008, 192.0, 0.0, 0.0, 0.0, 0.0, 0.0, 0.0, 0.0, 0.0, 0.0, 1.695341173398227E9, 0.0, 2023-09-21 19:06:13.398
36.0, 21028.275314363877, 53587.72618624284, -77111.32789985275, -60716.77037677412, -47306.46131115691, -22321.435489825668, 187500.0, -49668.9736448495, -8629.159167904756, -35782.10303570068, -76064.7521692219, -34523.16338099997, -19556.368238492996, -64515.02466380891, -56021.89821265915, -106883.4268311771, 0.116, 1.01, 0.008, 192.0, 0.0, 0.0, 0.0, 0.0, 0.0, 0.0, 0.0, 0.0, 0.0, 1.695341173398231E9, 0.0, 2023-09-21 19:06:13.398
38.0, 20958.80609259678, 53520.20156624336, -77099.68264099154, -60703.6275510344, -47294.391369151046, -22316.853382212328, 187500.0, -49663.2739500134, -8626.678124270216, -35774.302276885785, -76059.23128834144, -34520.52587515424, -19566.091247331053, -64503.75938460343, -56026.97205865051, -106912.8864303692, 0.112, 1.008, 0.006, 192.0, 1.5, 64.0, 15.5, 64.0, 0.0, 24.0, 0.0, 0.0, 0.0, 1.695341173398234E9, 0.0, 2023-09-21 19:06:13.398
40.0, 21025.369587584686, 53593.42588107895, -77108.51158005137, -60719.407882619846, -47308.160043735516, -22331.22555389709, 187500.0, -49686.58681948028, -8628.734484760105, -35785.7463700469, -76064.01456165488, -34527.11963976856, -19550.69089540135, -64518.355073732746, -56021.652343470145, -106883.60564513275, 0.112, 1.008, 0.006, 192.0, 0.0, 0.0, 0.0, 0.0, 0.0, 0.0, 0.0, 0.0, 0.0, 1.695341173398237E9, 0.0, 2023-09-21 19:06:13.398
42.0, 20954.112226261168, 53517.899336564464, -77107.05871666178, -60722.51477509914, -47306.79658732374, -22346.581202337886, 187500.0, -49688.553772992345, -8625.60524053636, -35784.96405899096, -76060.41593079758, -34527.7007851244, -19566.359468264516, -64521.61842842322, -56034.34813432075, -106904.34806398727, 0.112, 1.008, 0.006, 192.0, 0.0, 0.0, 0.0, 0.0, 0.0, 0.0, 0.0, 0.0, 0.0, 1.69534117339824E9, 0.0, 2023-09-21 19:06:13.398
44.0, 21021.994474171934, 53590.27428511075, -77102.700126493, -60719.09495819747, -47305.276668700775, -22340.814452268416, 187500.0, -49679.09898508775, -8629.025057438022, -35792.78716955032, -76065.08744538874, -34531.21000900388, -19555.273003014685, -64528.212193037536, -56026.99441039496, -106880.40934567564, 0.112, 1.008, 0.006, 192.0, 0.0, 0.0, 0.0, 0.0, 0.0, 0.0, 0.0, 0.0, 0.0, 1.695341173398243E9, 0.0, 2023-09-21 19:06:13.398
46.0, 20938.71187433146, 53514.21129872934, -77100.95669042549, -60713.99876046166, -47309.054113513725, -22341.015617968515, 187500.0, -49676.34972051975, -8625.918164958735, -35787.020419480854, -76060.72885521995, -34530.87473283705, -19562.604375196028, -64524.077120313304, -56034.54930002085, -106894.35683421575, 0.112, 1.008, 0.006, 192.0, 0.0, 0.0, 0.0, 0.0, 0.0, 0.0, 0.0, 0.0, 0.0, 1.695341173458498E9, 0.0, 2023-09-21 19:06:13.458
48.0, 21022.620323016683, 53594.811689235175, -77119.32982436774, -60730.15907170285, -47307.35538093512, -22331.51612657501, 187500.0, -49689.73841544848, -8623.146548646278, -35791.781341049835, -76066.27208784486, -34536.32855848414, -19559.408075738917, -64530.514422716435, -56027.28498307288, -106883.71740385501, 0.11800000000000001, 1.004, 0.006, 192.0, 1.5, 88.0, 15.5, 48.0, 0.0, 24.0, 0.0, 0.0, 0.0, 1.695341173458528E9, 0.0, 2023-09-21 19:06:13.458
50.0, 20941.95287727748, 53520.64860113247, -77115.44062083252, -60723.14062394389, -47319.24650898534, -22338.869850500807, 187500.0, -49678.920171132115, -8639.508025587562, -35792.22837593894, -76075.97274493847, -34544.531648699245, -19581.983337638776, -64530.98380934999, -56038.95259367855, -106874.7767060729, 0.11800000000000001, 1.004, 0.006, 192.0, 0.0, 0.0, 0.0, 0.0, 0.0, 0.0, 0.0, 0.0, 0.0, 1.695341173458533E9, 0.0, 2023-09-21 19:06:13.458
52.0, 21013.366700812185, 53586.85446820909, -77114.05481267629, -60724.101748955465, -47301.87920354357, -22326.688149772664, 187500.0, -49670.33710126128, -8639.239804654098, -35800.587928365225, -76084.19818689802, -34553.02531159226, -19569.287546788164, -64534.47068148502, -56035.39866631015, -106868.56292111432, 0.11800000000000001, 1.004, 0.006, 192.0, 0.0, 0.0, 0.0, 0.0, 0.0, 0.0, 0.0, 0.0, 0.0, 1.695341173458539E9, 0.0, 2023-09-21 19:06:13.458
54.0, 20931.313446916753, 53504.66710384692, -77101.4484288035, -60712.65765579435, -47303.17560472198, -22327.962199206617, 187500.0, -49660.23411276747, -8618.117406143834, -35781.32072464475, -76065.10979713319, -34534.540418927725, -19550.53443319016, -64514.354111475244, -56020.311238802824, -106880.6775666091, 0.11800000000000001, 1.004, 0.006, 192.0, 0.0, 0.0, 0.0, 0.0, 0.0, 0.0, 0.0, 0.0, 0.0, 1.695341173458542E9, 0.0, 2023-09-21 19:06:13.458
56.0, 21010.237456588442, 53569.59892148959, -77106.61168177267, -60721.79951927657, -47281.226191666865, -22313.522972288487, 187500.0, -49664.525647702896, -8621.112539900845, -35790.574346849244, -76074.94456469352, -34539.48015445234, -19550.310915745606, -64527.29577151487, -56016.60084922324, -106892.54634291487, 0.11800000000000001, 1.004, 0.006, 192.0, 0.0, 0.0, 0.0, 0.0, 0.0, 0.0, 0.0, 0.0, 0.0, 1.695341173458545E9, 0.0, 2023-09-21 19:06:13.458
58.0, 20949.306601203276, 53514.881851063, -77097.8945014351, -60710.28837088208, -47303.98026752237, -22329.28095212948, 187500.0, -49661.66462441262, -8631.774322006026, -35790.19436719351, -76081.60538454121, -34547.1020993116, -19569.98045086628, -64529.01685583793, -56030.34717206326, -106864.49490362346, 0.126, 1.004, 0.014, 192.0, 1.5, 120.0, 15.5, 48.0, 0.0, 56.0, 0.0, 0.0, 0.0, 1.695341173458549E9, 0.0, 2023-09-21 19:06:13.458
60.0, 21014.484288034953, 53563.60865397557, -77102.83423695972, -60711.160088915836, -47287.12705220307, -22311.93599843216, 187500.0, -49671.27587452839, -8617.111577643345, -35775.419864108546, -76067.27791634535, -34528.93013106944, -19546.980505821768, -64516.85750685424, -56013.22573581049, -106892.30047372586, 0.126, 1.004, 0.014, 192.0, 0.0, 0.0, 0.0, 0.0, 0.0, 0.0, 0.0, 0.0, 0.0, 1.695341173518736E9, 0.0, 2023-09-21 19:06:13.518
62.0, 20958.940203063514, 53514.144243495975, -77090.78664669833, -60699.44777482126, -47307.48949140185, -22325.65996952772, 187500.0, -49662.40223197964, -8619.346752088875, -35775.19634666399, -76068.9542971795, -34532.03702354873, -19557.8658053715, -64517.81863186582, -56026.41326503912, -106871.37924091569, 0.126, 1.004, 0.014, 192.0, 0.0, 0.0, 0.0, 0.0, 0.0, 0.0, 0.0, 0.0, 0.0, 1.695341173518749E9, 0.0, 2023-09-21 19:06:13.518
64.0, 21018.93228518156, 53549.25883403526, -77100.68846949202, -60713.10469068345, -47286.59061033614, -22316.5181060455, 187500.0, -49680.529496732895, -8613.602353763861, -35772.96117221846, -76063.72398897696, -34524.61624438957, -19547.53929943315, -64516.76809987642, -56013.382198021674, -106912.84172688029, 0.126, 1.004, 0.014, 192.0, 0.0, 0.0, 0.0, 0.0, 0.0, 0.0, 0.0, 0.0, 0.0, 1.695341173518753E9, 0.0, 2023-09-21 19:06:13.518
66.0, 20990.813790656783, 53535.84778736208, -77105.15881838308, -60717.28446689659, -47316.16196825051, -22343.071978458403, 187500.0, -49689.64900847066, -8627.75100800407, -35783.958230490476, -76075.34689609372, -34535.54624742821, -19558.424598982885, -64524.658265669146, -56021.8758609147, -106861.05273497735, 0.126, 1.004, 0.014, 192.0, 0.0, 0.0, 0.0, 0.0, 0.0, 0.0, 0.0, 0.0, 0.0, 1.695341173518757E9, 0.0, 2023-09-21 19:06:13.518
68.0, 21015.19954385752, 53552.00809860326, -77105.18117012754, -60723.6323623219, -47295.8665842851, -22336.47821384409, 187500.0, -49693.29234281687, -8629.405037093764, -35792.831873039235, -76079.48196881796, -34539.636616663534, -19566.29241303115, -64530.53677446089, -56027.19557609506, -106882.30924395434, 0.124, 1.008, 0.014, 192.0, 1.5, 112.0, 15.5, 64.0, 0.0, 56.0, 0.0, 0.0, 0.0, 1.69534117351876E9, 0.0, 2023-09-21 19:06:13.518
70.0, 20986.63401444364, 53544.43085723292, -77107.63986201762, -60725.35344664496, -47320.65466888603, -22345.03893197047, 187500.0, -49684.66456945713, -8626.812234736948, -35789.07677997074, -76078.16321589508, -34539.5025061968, -19561.509139717717, -64531.497899472466, -56026.70383771704, -106843.37250511319, 0.124, 1.008, 0.014, 192.0, 0.0, 0.0, 0.0, 0.0, 0.0, 0.0, 0.0, 0.0, 0.0, 1.695341173518763E9, 0.0, 2023-09-21 19:06:13.518
72.0, 20989.271520289367, 53546.91190086745, -77111.28319636383, -60734.18238570481, -47300.15811922051, -22338.64633305625, 187500.0, -49687.27972355839, -8637.652830797771, -35798.08453298623, -76089.83082650075, -34552.779442403255, -19571.075686344586, -64540.57270772132, -56034.19167210957, -106865.29956642386, 0.124, 1.008, 0.014, 192.0, 0.0, 0.0, 0.0, 0.0, 0.0, 0.0, 0.0, 0.0, 0.0, 1.695341173518767E9, 0.0, 2023-09-21 19:06:13.518
74.0, 20982.320127763764, 53558.02071786174, -77102.63307125962, -60725.129929200404, -47313.59151763815, -22341.864984257816, 187500.0, -49680.238924054975, -8638.859824998359, -35799.06800974227, -76087.21567239948, -34554.83580289314, -19564.30310777463, -64534.62714369621, -56023.06050337083, -106812.0577111313, 0.124, 1.008, 0.014, 192.0, 0.0, 0.0, 0.0, 0.0, 0.0, 0.0, 0.0, 0.0, 0.0, 1.69534117351877E9, 0.0, 2023-09-21 19:06:13.518
76.0, 20968.797322368304, 53535.82543561762, -77104.22004511596, -60731.03078973661, -47296.67124708548, -22331.672588786198, 187500.0, -49689.26902881492, -8634.769455763037, -35794.66471608457, -76086.50041657692, -34553.56175345919, -19571.16509332241, -64522.73601564598, -56026.16739585011, -106848.64751680465, 0.124, 1.008, 0.014, 192.0, 0.0, 0.0, 0.0, 0.0, 0.0, 0.0, 0.0, 0.0, 0.0, 1.695341173578145E9, 0.0, 2023-09-21 19:06:13.578
78.0, 20983.3036045198, 53570.11301161206, -77101.6495945036, -60729.22029843573, -47317.74894210684, -22343.519013347508, 187500.0, -49684.73162469049, -8640.670316299238, -35801.97373652145, -76090.0096404564, -34559.68613143994, -19565.174825808386, -64535.99060010799, -56027.732017961986, -106796.94793187952, 0.116, 1.008, 0.012, 192.0, 1.5, 80.0, 15.5, 64.0, 0.0, 48.0, 0.0, 0.0, 0.0, 1.695341173578156E9, 0.0, 2023-09-21 19:06:13.578
80.0, 20947.607868624673, 53530.148092525975, -77102.16368462607, -60727.45451062376, -47296.15715696301, -22331.963161464115, 187500.0, -49675.99209260847, -8634.903566229768, -35789.680277071035, -76079.77254149587, -34547.54913420071, -19564.124293818986, -64524.077120313304, -56024.870994671706, -106832.93424045257, 0.116, 1.008, 0.012, 192.0, 0.0, 0.0, 0.0, 0.0, 0.0, 0.0, 0.0, 0.0, 0.0, 1.69534117357816E9, 0.0, 2023-09-21 19:06:13.578
82.0, 20979.704973662494, 53577.17616285994, -77096.12871362314, -60715.496327340166, -47310.08229375867, -22337.953428978137, 187500.0, -49665.576179692296, -8640.402095365775, -35793.54712886181, -76084.24289038693, -34549.761956901784, -19562.559671707117, -64523.92065810212, -56029.38604705168, -106785.03445208484, 0.116, 1.008, 0.012, 192.0, 0.0, 0.0, 0.0, 0.0, 0.0, 0.0, 0.0, 0.0, 0.0, 1.695341173578163E9, 0.0, 2023-09-21 19:06:13.578
84.0, 20924.31735090224, 53515.48534816329, -77089.98198389793, -60707.382644102894, -47285.04833996872, -22325.637617783264, 187500.0, -49654.55676967583, -8624.353542846864, -35768.40141634958, -76059.87948893064, -34521.97873854384, -19554.96007859231, -64493.119954242706, -56021.11590160321, -106835.23647013147, 0.116, 1.008, 0.012, 192.0, 0.0, 0.0, 0.0, 0.0, 0.0, 0.0, 0.0, 0.0, 0.0, 1.695341173578166E9, 0.0, 2023-09-21 19:06:13.578
86.0, 20981.336651007732, 53580.551276272694, -77099.52617878035, -60718.69262679728, -47294.68194182896, -22335.762958021518, 187500.0, -49660.189409278566, -8637.026981953024, -35785.56755609126, -76068.88724194614, -34537.06616605117, -19549.148625033933, -64506.86627708272, -56015.975000378494, -106794.62335045617, 0.116, 1.008, 0.012, 192.0, 0.0, 0.0, 0.0, 0.0, 0.0, 0.0, 0.0, 0.0, 0.0, 1.69534117357817E9, 0.0, 2023-09-21 19:06:13.578
88.0, 20907.531190816306, 53499.459147388836, -77083.09764660569, -60702.37585334491, -47283.327255645665, -22324.855306727328, 187500.0, -49638.239996223456, -8625.761702747548, -35773.45291059648, -76052.14578534912, -34525.577369401144, -19555.675334414882, -64495.57864613279, -56020.4229975251, -106832.42015033009, 0.122, 1.01, 0.012, 192.0, 1.5, 104.0, 15.5, 72.0, 0.0, 48.0, 0.0, 0.0, 0.0, 1.695341173578173E9, 0.0, 2023-09-21 19:06:13.578
90.0, 20989.584444711738, 53577.623197749046, -77085.73515245142, -60702.17468764481, -47268.46334558289, -22312.718309488097, 187500.0, -49632.92028104309, -8608.975542661612, -35764.82513723673, -76032.27508452834, -34509.26059594877, -19522.617104365483, -64482.03348899287, -55993.37738673418, -106818.1597373676, 0.122, 1.01, 0.012, 192.0, 0.0, 0.0, 0.0, 0.0, 0.0, 0.0, 0.0, 0.0, 0.0, 1.695341173637922E9, 0.0, 2023-09-21 19:06:13.637
92.0, 20915.130783931112, 53504.95767652484, -77086.51746350735, -60699.44777482126, -47269.93856071694, -22321.971931692595, 187500.0, -49628.516987385396, -8629.494444071584, -35776.02336120884, -76037.3489305197, -34516.45785766338, -19551.026171568177, -64490.5718553748, -56003.882706628174, -106825.49110954895, 0.122, 1.01, 0.012, 192.0, 0.0, 0.0, 0.0, 0.0, 0.0, 0.0, 0.0, 0.0, 0.0, 1.695341173637936E9, 0.0, 2023-09-21 19:06:13.637
94.0, 20998.48043900495, 53587.59207577611, -77103.7506584824, -60706.06389118003, -47274.72183403037, -22312.070108898894, 187500.0, -49637.189464234056, -8618.586792777394, -35771.48595708441, -76022.10504080118, -34502.644479589995, -19534.217659737787, -64486.23561695047, -55994.874953612685, -106812.54944950933, 0.122, 1.01, 0.012, 192.0, 0.0, 0.0, 0.0, 0.0, 0.0, 0.0, 0.0, 0.0, 0.0, 1.695341173637939E9, 0.0, 2023-09-21 19:06:13.637
96.0, 20919.958760733458, 53503.7283305798, -77086.36100129617, -60686.550818270545, -47278.34281663213, -22317.27806535698, 187500.0, -49617.251708179916, -8622.94538294618, -35770.74834951739, -76020.38395647812, -34505.237281946815, -19554.267174514196, -64482.03348899287, -56013.31514278831, -106810.51544076389, 0.122, 1.01, 0.012, 192.0, 0.0, 0.0, 0.0, 0.0, 0.0, 0.0, 0.0, 0.0, 0.0, 1.695341173637942E9, 0.0, 2023-09-21 19:06:13.637
98.0, 21011.3103403223, 53581.51240128427, -77095.12288512265, -60689.61300726092, -47263.52361005826, -22306.07984138487, 187500.0, -49626.4606268955, -8603.253496081054, -35760.824174979236, -76004.60362489267, -34487.11001719356, -19521.90184854291, -64474.70211681153, -55987.543581431346, -106814.53875476585, 0.11800000000000001, 1.01, 0.004, 192.0, 1.5, 88.0, 15.5, 72.0, 0.0, 16.0, 0.0, 0.0, 0.0, 1.695341173637946E9, 0.0, 2023-09-21 19:06:13.637
100.0, 20938.063673742257, 53512.64667661747, -77091.92658566554, -60682.43809729077, -47290.45746212691, -22327.738681762065, 187500.0, -49627.82408330728, -8622.721865501628, -35769.02726519433, -76015.95831107597, -34493.52496785223, -19549.506252945215, -64481.20647444802, -56015.32679978929, -106797.88670514664, 0.11800000000000001, 1.01, 0.004, 192.0, 0.0, 0.0, 0.0, 0.0, 0.0, 0.0, 0.0, 0.0, 0.0, 1.695341173637949E9, 0.0, 2023-09-21 19:06:13.637
102.0, 21028.699997508527, 53594.878744468544, -77109.04802191831, -60705.30393186855, -47281.87439225607, -22329.817393996407, 187500.0, -49654.19914176454, -8625.269964369532, -35780.15843393307, -76018.75227913288, -34494.68725856391, -19541.2137557523, -64489.7224890855, -56004.933238617574, -106792.0081963549, 0.11800000000000001, 1.01, 0.004, 192.0, 0.0, 0.0, 0.0, 0.0, 0.0, 0.0, 0.0, 0.0, 0.0, 1.695341173637952E9, 0.0, 2023-09-21 19:06:13.637
104.0, 20951.564127393263, 53529.11991228103, -77095.03347814483, -60692.51873404012, -47297.63237209706, -22343.876641258794, 187500.0, -49640.13989450216, -8632.131949917311, -35782.66182931207, -76024.40727048008, -34501.482188878326, -19559.67629667238, -64487.26379719542, -56026.65913422813, -106760.42518143955, 0.11800000000000001, 1.01, 0.004, 192.0, 0.0, 0.0, 0.0, 0.0, 0.0, 0.0, 0.0, 0.0, 0.0, 1.695341173637955E9, 0.0, 2023-09-21 19:06:13.637
106.0, 21009.96923565498, 53584.887514697024, -77096.91102467907, -60698.06196666503, -47273.24661889632, -22325.727024761087, 187500.0, -49640.13989450216, -8622.163071890243, -35784.0476374683, -76018.50640994388, -34497.5929853431, -19541.370217963486, -64487.6214251067, -56012.488128243465, -106777.14428629212, 0.11800000000000001, 1.01, 0.004, 192.0, 0.0, 0.0, 0.0, 0.0, 0.0, 0.0, 0.0, 0.0, 0.0, 1.695341173698146E9, 0.0, 2023-09-21 19:06:13.698
108.0, 20944.031589511826, 53536.31717399564, -77096.30752757879, -60694.329225340996, -47299.062883742205, -22343.04962671395, 187500.0, -49633.41201942111, -8628.913298715746, -35789.41205613757, -76025.07782281374, -34504.343212168606, -19550.02034306769, -64493.76815483191, -56018.83602366877, -106749.87515805665, 0.122, 1.012, 0.004, 192.0, 1.5, 104.0, 15.5, 80.0, 0.0, 16.0, 0.0, 0.0, 0.0, 1.695341173698158E9, 0.0, 2023-09-21 19:06:13.698
110.0, 20986.410496999088, 53576.438555292916, -77100.91198693657, -60693.7257282407, -47274.8559444971, -22320.094385158347, 187500.0, -49633.65788861011, -8620.665505011739, -35782.52771884533, -76022.30620650128, -34497.45887487637, -19540.38674120745, -64488.62725360719, -56006.721378174, -106771.35518447819, 0.122, 1.012, 0.004, 192.0, 0.0, 0.0, 0.0, 0.0, 0.0, 0.0, 0.0, 0.0, 0.0, 1.695341173698161E9, 0.0, 2023-09-21 19:06:13.698
112.0, 20935.47087138544, 53539.46876996384, -77095.9946031564, -60687.64605374886, -47297.54296511924, -22332.61136205332, 187500.0, -49624.873653039176, -8625.471130069629, -35784.06998921275, -76027.80473563728, -34495.53662485321, -19546.622877910482, -64488.00140476244, -56017.316105045815, -106740.2415561964, 0.122, 1.012, 0.004, 192.0, 0.0, 0.0, 0.0, 0.0, 0.0, 0.0, 0.0, 0.0, 0.0, 1.695341173698164E9, 0.0, 2023-09-21 19:06:13.698
114.0, 20983.81769464227, 53567.58726448861, -77100.12967588064, -60697.167896886815, -47266.98813044884, -22324.69884451614, 187500.0, -49635.848359566735, -8622.498348057074, -35781.566593833755, -76023.20027627949, -34489.83693001711, -19539.649133640425, -64486.50383788393, -56007.63779969666, -106771.55635017829, 0.122, 1.012, 0.004, 192.0, 0.0, 0.0, 0.0, 0.0, 0.0, 0.0, 0.0, 0.0, 0.0, 1.695341173698167E9, 0.0, 2023-09-21 19:06:13.698
116.0, 20962.38237170963, 53558.825380662136, -77118.34634761172, -60716.65861805184, -47313.7703315938, -22357.868833287816, 187500.0, -49658.51302844442, -8634.165958662745, -35797.90571903059, -76038.1535933201, -34501.90687202298, -19555.429465225872, -64508.45325093905, -56023.23931732647, -106723.3436373882, 0.122, 1.012, 0.004, 192.0, 0.0, 0.0, 0.0, 0.0, 0.0, 0.0, 0.0, 0.0, 0.0, 1.695341173698171E9, 0.0, 2023-09-21 19:06:13.698
118.0, 20975.167569538065, 53561.97697663033, -77101.29196659231, -60702.06292892253, -47285.33891264664, -22339.22747841209, 187500.0, -49642.576234647786, -8638.211624409154, -35802.8007510663, -76043.60741896718, -34506.82425580314, -19568.885215387967, -64515.00231206445, -56033.90109943165, -106743.66137309806, 0.122, 1.012, 0.01, 192.0, 1.5, 104.0, 15.5, 80.0, 0.0, 40.0, 0.0, 0.0, 0.0, 1.695341173698174E9, 0.0, 2023-09-21 19:06:13.698
120.0, 20967.232700256434, 53560.88174115202, -77096.41928630105, -60696.38558583088, -47302.147424477036, -22339.294533645458, 187500.0, -49639.49169391295, -8612.507118285552, -35780.538413588816, -76021.65800591208, -34483.712552036355, -19547.271078499685, -64490.1248204857, -56020.49005275847, -106715.63228555111, 0.122, 1.012, 0.01, 192.0, 0.0, 0.0, 0.0, 0.0, 0.0, 0.0, 0.0, 0.0, 0.0, 1.695341173758511E9, 0.0, 2023-09-21 19:06:13.758
122.0, 20964.86341534417, 53546.59897644508, -77093.80413219979, -60696.18442013078, -47282.433185867456, -22332.90193473124, 187500.0, -49638.95525204602, -8626.834586481404, -35790.28377417133, -76030.48694497191, -34494.48609286381, -19557.172901293387, -64497.41148917812, -56021.920564403605, -106741.87323354164, 0.122, 1.012, 0.01, 192.0, 0.0, 0.0, 0.0, 0.0, 0.0, 0.0, 0.0, 0.0, 0.0, 1.695341173758525E9, 0.0, 2023-09-21 19:06:13.758
124.0, 20971.34542123621, 53562.871046408545, -77079.07433260373, -60680.24762633415, -47292.40206389452, -22332.298437630947, 187500.0, -49634.61901362169, -8611.65775199625, -35769.0943204277, -76016.20418026498, -34475.800034499174, -19536.206964994308, -64484.022794249395, -56010.27530554239, -106706.9821604469, 0.122, 1.012, 0.01, 192.0, 0.0, 0.0, 0.0, 0.0, 0.0, 0.0, 0.0, 0.0, 0.0, 1.695341173758529E9, 0.0, 2023-09-21 19:06:13.758
126.0, 20955.743903606406, 53536.27247050673, -77092.95476591049, -60696.49734455316, -47283.953104490414, -22331.13614691927, 187500.0, -49653.12625803069, -8607.992065905579, -35762.3887970911, -76012.56084591876, -34470.63678153, -19544.25359299822, -64482.32406167079, -56015.5726689783, -106751.12685574614, 0.122, 1.012, 0.01, 192.0, 0.0, 0.0, 0.0, 0.0, 0.0, 0.0, 0.0, 0.0, 0.0, 1.695341173758532E9, 0.0, 2023-09-21 19:06:13.758
128.0, 20994.546531980817, 53584.239314107814, -77103.9965276714, -60711.227144149205, -47307.02010476829, -22351.945621007162, 187500.0, -49660.05529881183, -8629.226223138121, -35789.88144277113, -76039.91938113206, -34495.11194170856, -19555.742389648247, -64513.08006204129, -56032.828215697795, -106691.91708468403, 0.122, 1.008, 0.01, 192.0, 1.5, 104.0, 15.5, 64.0, 0.0, 40.0, 0.0, 0.0, 0.0, 1.695341173758535E9, 0.0, 2023-09-21 19:06:13.758
130.0, 20943.651609856082, 53520.983877299295, -77092.77595195484, -60701.32532135551, -47278.566334076684, -22332.164327164213, 187500.0, -49641.48099916947, -8616.284563098498, -35773.58702106321, -76030.71046241646, -34484.85249100358, -19555.049485570133, -64497.25502696694, -56025.02745688289, -106727.41165487906, 0.122, 1.008, 0.01, 192.0, 0.0, 0.0, 0.0, 0.0, 0.0, 0.0, 0.0, 0.0, 0.0, 1.695341173758538E9, 0.0, 2023-09-21 19:06:13.758
132.0, 20995.86528490368, 53580.7971454617, -77097.98390841293, -60702.26409462263, -47294.45842438441, -22336.85819349983, 187500.0, -49642.39742069214, -8620.844318967382, -35780.6948758, -76039.47234624295, -34488.29465964969, -19548.701590144825, -64504.83226833728, -56024.69218071606, -106691.26888409482, 0.122, 1.008, 0.01, 192.0, 0.0, 0.0, 0.0, 0.0, 0.0, 0.0, 0.0, 0.0, 0.0, 1.695341173758542E9, 0.0, 2023-09-21 19:06:13.758
134.0, 20935.090891729702, 53516.9829150418, -77083.79055068381, -60690.68589099478, -47268.88802872754, -22321.86017297032, 187500.0, -49628.58404261876, -8623.459473068651, -35766.255648881874, -76027.46945947045, -34476.96232521085, -19555.00478208122, -64487.35320417324, -56010.47647124249, -106715.43111985101, 0.122, 1.008, 0.01, 192.0, 0.0, 0.0, 0.0, 0.0, 0.0, 0.0, 0.0, 0.0, 0.0, 1.695341173758545E9, 0.0, 2023-09-21 19:06:13.758
136.0, 20995.44060175903, 53588.75436648779, -77097.42511480155, -60707.449699336255, -47284.89187775754, -22330.733815519074, 187500.0, -49645.05727828232, -8633.763627262548, -35783.71236130147, -76044.92617189005, -34490.32866839512, -19551.026171568177, -64502.75355610294, -56007.168413063104, -106674.61683447563, 0.122, 1.008, 0.01, 192.0, 0.0, 0.0, 0.0, 0.0, 0.0, 0.0, 0.0, 0.0, 0.0, 1.695341173818739E9, 0.0, 2023-09-21 19:06:13.818
138.0, 20921.61278982315, 53515.64181037448, -77088.86439667517, -60699.17955388779, -47282.54494458973, -22325.99524569455, 187500.0, -49639.424638679586, -8633.562461562451, -35768.446119838496, -76038.01948285336, -34485.07600844813, -19561.620898439993, -64493.119954242706, -56016.958477134525, -106696.67800625302, 0.122, 1.006, 0.012, 192.0, 1.5, 104.0, 15.5, 56.0, 0.0, 48.0, 0.0, 0.0, 0.0, 1.69534117381875E9, 0.0, 2023-09-21 19:06:13.818
140.0, 20993.38424126914, 53592.50945955628, -77103.79536197131, -60709.95309471525, -47293.65376158402, -22332.09727193085, 187500.0, -49647.82889459478, -8632.735447017605, -35778.45970135447, -76045.66377945707, -34492.67560156293, -19554.066008814098, -64503.33470145878, -56018.27723005739, -106662.03280234728, 0.122, 1.006, 0.012, 192.0, 0.0, 0.0, 0.0, 0.0, 0.0, 0.0, 0.0, 0.0, 0.0, 1.695341173818753E9, 0.0, 2023-09-21 19:06:13.818
142.0, 20920.85283051167, 53520.17921449891, -77104.5553212828, -60708.83550749249, -47301.566279121194, -22341.306190646435, 187500.0, -49651.96396731901, -8632.243708639588, -35765.24982038138, -76041.64046545512, -34485.34422938159, -19564.481921730272, -64495.28807345487, -56027.08381737278, -106674.90740715354, 0.122, 1.006, 0.012, 192.0, 0.0, 0.0, 0.0, 0.0, 0.0, 0.0, 0.0, 0.0, 0.0, 1.695341173818756E9, 0.0, 2023-09-21 19:06:13.818
144.0, 21005.320072808277, 53606.903982985496, -77115.91000746608, -60722.291257654586, -47304.159081478014, -22334.779481265483, 187500.0, -49659.0718220558, -8648.359316391863, -35782.617125823155, -76057.89018367413, -34499.76110455526, -19565.532453719672, -64511.94012307408, -56029.94484066306, -106642.38561897106, 0.122, 1.006, 0.012, 192.0, 0.0, 0.0, 0.0, 0.0, 0.0, 0.0, 0.0, 0.0, 0.0, 1.69534117381876E9, 0.0, 2023-09-21 19:06:13.818
146.0, 20926.28430441431, 53532.226804760314, -77104.06358290477, -60712.92587672781, -47312.138654248556, -22349.777501794997, 187500.0, -49653.57329291979, -8651.354450148876, -35782.01362872287, -76057.3984452961, -34503.695011579395, -19580.30695680463, -64511.47073644051, -56038.058523900334, -106628.92986880898, 0.122, 1.006, 0.012, 192.0, 0.0, 0.0, 0.0, 0.0, 0.0, 0.0, 0.0, 0.0, 0.0, 1.695341173818763E9, 0.0, 2023-09-21 19:06:13.818
148.0, 21003.509581507395, 53605.160546917985, -77103.90712069359, -60719.87726925341, -47294.45842438441, -22339.540402834464, 187500.0, -49660.72585114549, -8640.42444711023, -35782.37125663415, -76048.90478240309, -34500.09638072209, -19561.039753084155, -64511.47073644051, -56031.487111030474, -106625.21947922939, 0.122, 1.01, 0.012, 192.0, 1.5, 104.0, 15.5, 72.0, 0.0, 48.0, 0.0, 0.0, 0.0, 1.695341173818766E9, 0.0, 2023-09-21 19:06:13.818
150.0, 20909.52049607283, 53521.92265056642, -77080.95187913798, -60698.933684698786, -47295.576011607176, -22340.456824357134, 187500.0, -49629.18753971905, -8632.42252259523, -35777.83385250972, -76039.91938113206, -34497.83885453211, -19559.47513097228, -64504.72050961501, -56029.207233096036, -106622.7160838504, 0.122, 1.01, 0.012, 192.0, 0.0, 0.0, 0.0, 0.0, 0.0, 0.0, 0.0, 0.0, 0.0, 1.695341173878017E9, 0.0, 2023-09-21 19:06:13.878
152.0, 20982.655403930596, 53585.82628796414, -77098.31918457976, -60716.85978375194, -47276.129993931056, -22328.297475373445, 187500.0, -49637.792961334344, -8623.191252135188, -35775.73278853092, -76039.58410496522, -34496.40834288697, -19539.515023173695, -64498.43966942307, -56009.31418053081, -106640.75394162584, 0.122, 1.01, 0.012, 192.0, 0.0, 0.0, 0.0, 0.0, 0.0, 0.0, 0.0, 0.0, 0.0, 1.69534117387803E9, 0.0, 2023-09-21 19:06:13.878
154.0, 20923.0880049572, 53529.4328367034, -77092.61948974365, -60704.6780830238, -47293.117319717094, -22338.445167356156, 187500.0, -49625.67831583957, -8626.633420781305, -35767.28382912682, -76035.47138398545, -34486.014781715254, -19543.71715113129, -64495.53394264388, -56013.65041895514, -106619.47508090438, 0.122, 1.01, 0.012, 192.0, 0.0, 0.0, 0.0, 0.0, 0.0, 0.0, 0.0, 0.0, 0.0, 1.695341173878034E9, 0.0, 2023-09-21 19:06:13.878
156.0, 21002.123773351166, 53599.05852068168, -77116.55820805528, -60725.30874315605, -47294.68194182896, -22342.647295313753, 187500.0, -49655.47319119849, -8642.883139000314, -35780.98544847792, -76051.00584638189, -34496.296584164695, -19555.273003014685, -64513.325931230305, -56020.735921947475, -106613.10483373461, 0.122, 1.01, 0.012, 192.0, 0.0, 0.0, 0.0, 0.0, 0.0, 0.0, 0.0, 0.0, 0.0, 1.695341173878037E9, 0.0, 2023-09-21 19:06:13.878
158.0, 20943.986886022914, 53545.79431364469, -77082.20357682748, -60690.82000146151, -47302.99679076634, -22349.017542483514, 187500.0, -49634.97664153298, -8626.94634520368, -35762.5899627912, -76036.65602644159, -34481.56678456865, -19563.81136939661, -64499.78077409039, -56027.575555750795, -106578.19140889544, 0.124, 1.006, 0.006, 192.0, 1.5, 112.0, 15.5, 56.0, 0.0, 24.0, 0.0, 0.0, 0.0, 1.69534117387804E9, 0.0, 2023-09-21 19:06:13.878
160.0, 21010.528029266363, 53596.33160785814, -77105.2482253609, -60715.92101048482, -47292.64793308353, -22341.61911506881, 187500.0, -49657.44014471056, -8622.923031201724, -35766.23329713742, -76032.85622988419, -34479.42101710093, -19550.936764590355, -64500.63014037969, -56017.18199457908, -106603.42652838548, 0.124, 1.006, 0.006, 192.0, 0.0, 0.0, 0.0, 0.0, 0.0, 0.0, 0.0, 0.0, 0.0, 1.695341173878044E9, 0.0, 2023-09-21 19:06:13.878
162.0, 20968.1491217791, 53563.80981967567, -77086.02572512934, -60695.24564686366, -47310.50697690332, -22350.112777961825, 187500.0, -49634.507254899414, -8630.187348149699, -35775.82219550874, -76037.7512619199, -34489.90398525047, -19562.78318915167, -64507.35801546073, -56029.52015751841, -106543.97088813435, 0.124, 1.006, 0.006, 192.0, 0.0, 0.0, 0.0, 0.0, 0.0, 0.0, 0.0, 0.0, 0.0, 1.695341173878047E9, 0.0, 2023-09-21 19:06:13.878
164.0, 20988.802133655805, 53566.44732552139, -77078.91787039256, -60686.975501415196, -47270.340892117136, -22316.406347323224, 187500.0, -49627.62291760718, -8607.477975783107, -35747.99427366189, -76014.66190989756, -34466.21113612785, -19536.944572561333, -64478.52426511339, -56002.87687812768, -106596.36337713759, 0.124, 1.006, 0.006, 192.0, 0.0, 0.0, 0.0, 0.0, 0.0, 0.0, 0.0, 0.0, 0.0, 1.69534117387805E9, 0.0, 2023-09-21 19:06:13.878
166.0, 20976.77689513885, 53563.87687490903, -77093.11122812168, -60695.849143963955, -47306.617773368096, -22333.483080087077, 187500.0, -49637.01065027841, -8615.412845064742, -35756.28677085481, -76026.26246526986, -34474.2354123873, -19542.82308135308, -64490.3706896747, -56009.492994486456, -106558.09719063011, 0.124, 1.006, 0.006, 192.0, 0.0, 0.0, 0.0, 0.0, 0.0, 0.0, 0.0, 0.0, 0.0, 1.695341173937942E9, 0.0, 2023-09-21 19:06:13.937
168.0, 20989.87501738966, 53563.765116186754, -77096.1510653676, -60705.46039407974, -47285.495374857834, -22329.124489918293, 187500.0, -49641.21277823601, -8622.386589334797, -35762.29939011329, -76038.01948285336, -34482.70672353586, -19554.222471025285, -64497.97028278951, -56020.400645780646, -106586.37214736607, 0.126, 1.01, 0.006, 192.0, 1.5, 120.0, 15.5, 72.0, 0.0, 24.0, 0.0, 0.0, 0.0, 1.695341173937972E9, 0.0, 2023-09-21 19:06:13.937
170.0, 20986.43284874354, 53573.30931106917, -77094.27351883335, -60704.83454523499, -47305.12020648959, -22340.635638312775, 187500.0, -49637.12240900069, -8617.916240443736, -35762.07587266873, -76035.38197700764, -34480.78447351271, -19540.96788656329, -64496.249198466445, -56015.72913118949, -106539.36642877656, 0.126, 1.01, 0.006, 192.0, 0.0, 0.0, 0.0, 0.0, 0.0, 0.0, 0.0, 0.0, 0.0, 1.695341173937976E9, 0.0, 2023-09-21 19:06:13.937
172.0, 20972.10538054769, 53545.86136887805, -77091.81482694326, -60707.673216780815, -47279.01336896579, -22328.43158584018, 187500.0, -49641.34688870274, -8619.145586388777, -35759.25955286736, -76035.22551479645, -34479.376313612025, -19546.86874709949, -64491.13064898618, -56018.54545099085, -106579.46545832939, 0.126, 1.01, 0.006, 192.0, 0.0, 0.0, 0.0, 0.0, 0.0, 0.0, 0.0, 0.0, 0.0, 1.695341173937979E9, 0.0, 2023-09-21 19:06:13.937
174.0, 20998.77101168287, 53586.51919204226, -77102.38720207062, -60720.90544949835, -47304.82963381167, -22351.923269262705, 187500.0, -49650.28758648486, -8631.059066183456, -35777.43152110952, -76049.97766613694, -34493.413209129954, -19548.366313977996, -64511.984826562984, -56021.786453936875, -106523.49669021329, 0.126, 1.01, 0.006, 192.0, 0.0, 0.0, 0.0, 0.0, 0.0, 0.0, 0.0, 0.0, 0.0, 1.695341173937982E9, 0.0, 2023-09-21 19:06:13.937
176.0, 20962.829406598736, 53549.32588926863, -77101.0460974033, -60717.70915004124, -47287.43997662544, -22344.03310346998, 187500.0, -49652.07572604129, -8632.243708639588, -35776.85037575369, -76051.11760510417, -34495.33545915311, -19557.977564093777, -64509.99552130646, -56026.30150631684, -106551.61518473807, 0.126, 1.01, 0.006, 192.0, 0.0, 0.0, 0.0, 0.0, 0.0, 0.0, 0.0, 0.0, 0.0, 1.695341173937986E9, 0.0, 2023-09-21 19:06:13.937
178.0, 21000.067412861277, 53602.791262005725, -77104.53296953833, -60717.530336085605, -47305.3660756786, -22345.933001748683, 187500.0, -49653.036851052864, -8635.417656352241, -35772.35767511817, -76055.45384352849, -34496.65421207598, -19555.228299525774, -64513.14711727466, -56027.150872606144, -106501.390814947, 0.12, 1.012, 0.006, 192.0, 1.5, 96.0, 15.5, 80.0, 0.0, 24.0, 0.0, 0.0, 0.0, 1.695341173937996E9, 0.0, 2023-09-21 19:06:13.937
180.0, 20941.505842388375, 53541.39101998699, -77091.83717868773, -60706.93560921379, -47284.69071205744, -22337.03700745547, 187500.0, -49644.5655399043, -8636.356429619364, -35767.529698315826, -76050.67057021506, -34493.16733994095, -19563.096113574044, -64503.178239247594, -56029.43075054059, -106528.7940536492, 0.12, 1.012, 0.006, 192.0, 0.0, 0.0, 0.0, 0.0, 0.0, 0.0, 0.0, 0.0, 0.0, 1.695341173999482E9, 0.0, 2023-09-21 19:06:13.999
182.0, 21005.901218164116, 53614.101244700105, -77108.86920796266, -60725.44285362278, -47299.59932560913, -22349.665743072717, 187500.0, -49657.57425517729, -8631.461397583651, -35773.13998617411, -76052.63752372713, -34493.7931887857, -19552.52373844668, -64507.91680907212, -56016.80201492334, -106486.43749790639, 0.12, 1.012, 0.006, 192.0, 0.0, 0.0, 0.0, 0.0, 0.0, 0.0, 0.0, 0.0, 0.0, 1.695341173999496E9, 0.0, 2023-09-21 19:06:13.999
184.0, 20936.387292908108, 53541.323964753625, -77088.01503038585, -60708.14260341437, -47292.916154016995, -22347.408216882734, 187500.0, -49649.50527542893, -8639.418618609741, -35773.944648974495, -76054.71623596147, -34498.73292431032, -19571.03098285568, -64511.47073644051, -56032.67175348661, -106500.11676551304, 0.12, 1.012, 0.006, 192.0, 0.0, 0.0, 0.0, 0.0, 0.0, 0.0, 0.0, 0.0, 0.0, 1.6953411739995E9, 0.0, 2023-09-21 19:06:13.999
186.0, 21003.68839546304, 53612.424863865956, -77097.71568747946, -60717.038597707586, -47305.96957277889, -22342.580240080388, 187500.0, -49655.67435689859, -8628.71213301565, -35773.967000718956, -76051.16230859308, -34496.229528931326, -19551.830834368568, -64509.86141083973, -56018.65720971313, -106472.64647157746, 0.12, 1.012, 0.006, 192.0, 0.0, 0.0, 0.0, 0.0, 0.0, 0.0, 0.0, 0.0, 0.0, 1.695341173999503E9, 0.0, 2023-09-21 19:06:13.999
188.0, 20933.638028340105, 53540.85457812007, -77099.88380669164, -60725.68872281179, -47305.209613467414, -22350.448054128654, 187500.0, -49656.16609527661, -8635.730580774616, -35770.949515217486, -76056.05734062879, -34503.18092145693, -19569.868692144002, -64505.14519275966, -56032.068256386316, -106485.02933800571, 0.11800000000000001, 1.012, 0.008, 192.0, 1.5, 88.0, 15.5, 80.0, 0.0, 32.0, 0.0, 0.0, 0.0, 1.695341173999507E9, 0.0, 2023-09-21 19:06:13.999
190.0, 21002.63786347364, 53610.055578953696, -77102.2530916039, -60733.35537115996, -47301.18629946546, -22352.45971112963, 187500.0, -49658.714194144515, -8642.480807600119, -35784.919355502054, -76070.09423614672, -34517.66485186396, -19563.63255544097, -64522.49014645698, -56031.487111030474, -106453.46867483482, 0.11800000000000001, 1.012, 0.008, 192.0, 0.0, 0.0, 0.0, 0.0, 0.0, 0.0, 0.0, 0.0, 0.0, 1.69534117399951E9, 0.0, 2023-09-21 19:06:13.999
192.0, 20925.345531147188, 53525.811854101645, -77083.72349545044, -60720.63722856489, -47294.793700551236, -22345.46361511512, 187500.0, -49642.33036545877, -8623.347714346375, -35762.142927902096, -76053.35277954969, -34502.13038946753, -19560.704476917326, -64507.20155324955, -56030.28011682989, -106474.74753555626, 0.11800000000000001, 1.012, 0.008, 192.0, 0.0, 0.0, 0.0, 0.0, 0.0, 0.0, 0.0, 0.0, 0.0, 1.695341173999513E9, 0.0, 2023-09-21 19:06:13.999
194.0, 20999.866247161182, 53599.66201778198, -77088.88674841962, -60723.610010577446, -47289.38457839305, -22338.489870845067, 187500.0, -49641.793923591846, -8635.529415074518, -35791.11078871618, -76064.23807909944, -34520.43646817642, -19553.10488380252, -64529.5309459604, -56019.88655565817, -106452.64166028997, 0.11800000000000001, 1.012, 0.008, 192.0, 0.0, 0.0, 0.0, 0.0, 0.0, 0.0, 0.0, 0.0, 0.0, 1.695341173999516E9, 0.0, 2023-09-21 19:06:13.999
196.0, 20922.730377045915, 53520.64860113247, -77086.2939460628, -60716.21158316274, -47295.88893602955, -22343.362551136324, 187500.0, -49633.14379848764, -8622.85597596836, -35768.93785821651, -76051.02819812634, -34506.980718014325, -19555.295354759142, -64507.782698605384, -56025.51919526091, -106464.13045694, 0.11800000000000001, 1.012, 0.008, 192.0, 0.0, 0.0, 0.0, 0.0, 0.0, 0.0, 0.0, 0.0, 0.0, 1.695341174058286E9, 0.0, 2023-09-21 19:06:14.058
198.0, 21005.364776297185, 53595.437538079925, -77101.62724275915, -60731.1872519478, -47283.260200412304, -22340.635638312775, 187500.0, -49651.53928417436, -8621.783092234504, -35782.214794422965, -76058.18075635204, -34514.02151751775, -19550.176805278876, -64517.438652210076, -56015.66207595612, -106457.55904407013, 0.114, 1.012, 0.006, 192.0, 1.5, 72.0, 15.5, 80.0, 0.0, 24.0, 0.0, 0.0, 0.0, 1.695341174058297E9, 0.0, 2023-09-21 19:06:14.058
200.0, 20931.246391683388, 53520.96152555484, -77095.36875431165, -60723.6323623219, -47306.93069779047, -22354.113740219324, 187500.0, -49648.5217986729, -8625.716999258639, -35787.445102625505, -76061.06413138678, -34522.090497266116, -19565.599508953037, -64522.825422623806, -56032.64940174215, -106432.90506993594, 0.114, 1.012, 0.006, 192.0, 0.0, 0.0, 0.0, 0.0, 0.0, 0.0, 0.0, 0.0, 0.0, 1.695341174058301E9, 0.0, 2023-09-21 19:06:14.058
202.0, 21000.87207566167, 53583.32289258515, -77113.63012953164, -60739.21152820725, -47301.61098261011, -22350.04572272846, 187500.0, -49672.57227570681, -8628.130987659812, -35792.02721023884, -76067.97082042346, -34525.97970080134, -19558.0669710716, -64524.6806174136, -56034.54930002085, -106434.69320949235, 0.114, 1.012, 0.006, 192.0, 0.0, 0.0, 0.0, 0.0, 0.0, 0.0, 0.0, 0.0, 0.0, 1.695341174058304E9, 0.0, 2023-09-21 19:06:14.058
204.0, 20924.652627069074, 53524.49310117878, -77108.6009870292, -60733.28831592659, -47330.04240155726, -22368.351801437355, 187500.0, -49664.436240725074, -8635.887042985803, -35793.50242537289, -76076.28566936085, -34533.51223868278, -19572.30503228963, -64528.838041882285, -56051.04488742887, -106398.59514219704, 0.114, 1.012, 0.006, 192.0, 0.0, 0.0, 0.0, 0.0, 0.0, 0.0, 0.0, 0.0, 0.0, 1.695341174058307E9, 0.0, 2023-09-21 19:06:14.058
206.0, 20980.19671204051, 53570.78356394572, -77109.33859459622, -60733.82475779352, -47299.17464246448, -22343.22844066959, 187500.0, -49664.503295958435, -8633.42835109572, -35792.675410828044, -76073.82697747076, -34527.477267679846, -19561.48678797326, -64530.69323667208, -56038.01382041143, -106417.72823545078, 0.114, 1.012, 0.006, 192.0, 0.0, 0.0, 0.0, 0.0, 0.0, 0.0, 0.0, 0.0, 0.0, 1.69534117405831E9, 0.0, 2023-09-21 19:06:14.058
208.0, 20929.793528293794, 53532.89735709398, -77105.29292884981, -60729.622629835925, -47325.974384066394, -22362.31683043442, 187500.0, -49652.63451965267, -8634.389476107297, -35797.81631205277, -76076.55389029431, -34533.4004799605, -19562.492616473748, -64533.733073917996, -56041.38893382418, -106370.23077848325, 0.12, 1.014, 0.004, 192.0, 1.5, 96.0, 15.5, 88.0, 0.0, 16.0, 0.0, 0.0, 0.0, 1.695341174058314E9, 0.0, 2023-09-21 19:06:14.058
210.0, 20971.457179958485, 53563.7427644423, -77123.26373139188, -60748.37574343393, -47304.62846811157, -22348.861080272327, 187500.0, -49663.22924652448, -8624.331191102408, -35793.949460261996, -76066.47325354496, -34526.694956623905, -19552.791959380145, -64524.859431369245, -56029.207233096036, -106403.15489806591, 0.12, 1.014, 0.004, 192.0, 0.0, 0.0, 0.0, 0.0, 0.0, 0.0, 0.0, 0.0, 0.0, 1.695341174118708E9, 0.0, 2023-09-21 19:06:14.118
212.0, 20927.491298614896, 53536.60774667356, -77108.53393179583, -60733.91416477134, -47328.38837246757, -22364.976688024606, 187500.0, -49646.465438183004, -8646.772342535538, -35811.51793140387, -76089.8084747563, -34552.488869725334, -19573.087343345564, -64547.12176884673, -56055.42582934211, -106334.62444956595, 0.12, 1.014, 0.004, 192.0, 0.0, 0.0, 0.0, 0.0, 0.0, 0.0, 0.0, 0.0, 0.0, 1.695341174118721E9, 0.0, 2023-09-21 19:06:14.118
214.0, 20943.04811275579, 53540.295784508686, -77113.02663243136, -60742.966621275744, -47298.05705524171, -22353.95727800814, 187500.0, -49657.84247611076, -8627.303973114966, -35799.537396375825, -76074.38577108215, -34539.94954108591, -19549.126273289476, -64530.82734713881, -56033.454064542544, -106384.08886004554, 0.12, 1.014, 0.004, 192.0, 0.0, 0.0, 0.0, 0.0, 0.0, 0.0, 0.0, 0.0, 0.0, 1.695341174118725E9, 0.0, 2023-09-21 19:06:14.118
216.0, 20935.80614755227, 53545.90607236697, -77107.99748992891, -60738.429217151315, -47326.80139861124, -22370.274051460514, 187500.0, -49659.29533950035, -8636.602298808373, -35813.37312619366, -76088.1097421777, -34553.87467788156, -19560.011572839212, -64549.64751597018, -56045.88163445969, -106319.53702205862, 0.12, 1.014, 0.004, 192.0, 0.0, 0.0, 0.0, 0.0, 0.0, 0.0, 0.0, 0.0, 0.0, 1.695341174118728E9, 0.0, 2023-09-21 19:06:14.118
218.0, 20940.075330743235, 53533.45615070536, -77099.81675145826, -60729.2873536691, -47295.95599126291, -22350.17983319519, 187500.0, -49658.53538018887, -8616.396321820775, -35787.91448925906, -76065.37801806665, -34528.48309618033, -19551.160282034907, -64524.8817831137, -56029.36369530722, -106356.66326959888, 0.122, 1.012, 0.014, 192.0, 1.5, 104.0, 15.5, 80.0, 0.0, 56.0, 0.0, 0.0, 0.0, 1.695341174118731E9, 0.0, 2023-09-21 19:06:14.118
220.0, 20954.76042685037, 53555.02558410473, -77092.55243451029, -60718.17853667481, -47323.02395379829, -22365.535481635987, 187500.0, -49653.953272575534, -8622.967734690636, -35800.14089347612, -76076.3080211053, -34538.60843641859, -19549.39449422294, -64533.5319082179, -56033.00702965344, -106289.83155367752, 0.122, 1.012, 0.014, 192.0, 0.0, 0.0, 0.0, 0.0, 0.0, 0.0, 0.0, 0.0, 0.0, 1.695341174118734E9, 0.0, 2023-09-21 19:06:14.118
222.0, 20942.57872612223, 53523.66608663394, -77100.5990625142, -60726.44868212327, -47297.520613374785, -22357.265336187524, 187500.0, -49666.604359937235, -8605.779243204504, -35780.873689755645, -76055.20797433949, -34523.006918788786, -19541.57138366358, -64513.63885565268, -56019.260706813424, -106333.61862106546, 0.122, 1.012, 0.014, 192.0, 0.0, 0.0, 0.0, 0.0, 0.0, 0.0, 0.0, 0.0, 0.0, 1.695341174118737E9, 0.0, 2023-09-21 19:06:14.118
224.0, 20980.330822507243, 53577.60084600459, -77112.26667311987, -60736.90929852836, -47329.84123585716, -22373.42564742871, 187500.0, -49672.68403442908, -8637.675182542227, -35811.89791105961, -76085.22636714297, -34550.90189586901, -19564.370163007996, -64547.501748502465, -56040.51721579042, -106256.03571606109, 0.122, 1.012, 0.014, 192.0, 0.0, 0.0, 0.0, 0.0, 0.0, 0.0, 0.0, 0.0, 0.0, 1.695341174118741E9, 0.0, 2023-09-21 19:06:14.118
226.0, 20928.273609670832, 53522.57085115562, -77092.55243451029, -60720.57017333152, -47298.34762791963, -22357.75707456554, 187500.0, -49650.533455673874, -8627.549842303973, -35791.60252709419, -76072.01648616987, -34533.53459042723, -19566.225357797786, -64531.54260296138, -56039.19846286756, -106281.78492567361, 0.122, 1.012, 0.014, 192.0, 0.0, 0.0, 0.0, 0.0, 0.0, 0.0, 0.0, 0.0, 0.0, 1.695341174179049E9, 0.0, 2023-09-21 19:06:14.179
228.0, 20981.29194751882, 53578.114936127065, -77095.03347814483, -60724.0346937221, -47311.17752923698, -22356.81830129842, 187500.0, -49656.121391787696, -8616.016342165034, -35786.03694272482, -76063.41106455459, -34524.70565136739, -19544.47711044277, -64524.926486602606, -56026.14504410566, -106247.20677700124, 0.122, 1.004, 0.014, 192.0, 1.5, 104.0, 15.5, 48.0, 0.0, 56.0, 0.0, 0.0, 0.0, 1.695341174179061E9, 0.0, 2023-09-21 19:06:14.179
230.0, 20933.302752173277, 53514.09954000706, -77082.42709427203, -60712.8811732389, -47295.285438929255, -22346.223574426604, 187500.0, -49645.97369980499, -8607.053292638457, -35772.93882047401, -76052.03402662683, -34513.418020417455, -19551.987296579755, -64508.90028582815, -56026.61443073922, -106271.838399391, 0.122, 1.004, 0.014, 192.0, 0.0, 0.0, 0.0, 0.0, 0.0, 0.0, 0.0, 0.0, 0.0, 1.695341174179065E9, 0.0, 2023-09-21 19:06:14.179
232.0, 20999.419212272074, 53585.82628796414, -77099.5038270359, -60727.20864143475, -47314.79851183874, -22354.56077510843, 187500.0, -49655.20497026503, -8619.726731744615, -35794.82117829576, -76068.08257914575, -34531.61234040408, -19551.49555820174, -64521.01493132293, -56024.66982897161, -106221.81519530002, 0.122, 1.004, 0.014, 192.0, 0.0, 0.0, 0.0, 0.0, 0.0, 0.0, 0.0, 0.0, 0.0, 1.695341174179068E9, 0.0, 2023-09-21 19:06:14.179
234.0, 20925.94902824748, 53515.194775485375, -77099.03444040233, -60729.130891457906, -47319.85000608564, -22363.14384497927, 187500.0, -49655.294377242855, -8634.210662151654, -35795.692896329514, -76079.12434090667, -34542.899971354, -19566.828854898078, -64528.480413971, -56042.260651857934, -106229.571250626, 0.122, 1.004, 0.014, 192.0, 0.0, 0.0, 0.0, 0.0, 0.0, 0.0, 0.0, 0.0, 0.0, 1.695341174179071E9, 0.0, 2023-09-21 19:06:14.179
236.0, 20992.087840090735, 53588.866125210065, -77101.49313229241, -60733.26596418214, -47315.066732772204, -22360.573394366907, 187500.0, -49660.59174067876, -8633.473054584629, -35805.617070867665, -76083.66174503109, -34548.242038278826, -19552.657848913415, -64529.93327736059, -56030.883613930186, -106194.54606706454, 0.122, 1.004, 0.014, 192.0, 0.0, 0.0, 0.0, 0.0, 0.0, 0.0, 0.0, 0.0, 0.0, 1.695341174179075E9, 0.0, 2023-09-21 19:06:14.179
238.0, 20909.922827473027, 53503.7283305798, -77072.88289938962, -60710.936571471284, -47297.31944767469, -22346.156519193235, 187500.0, -49636.67537411158, -8616.508080543052, -35790.06025672678, -76063.96985816596, -34533.84751484961, -19551.24968901273, -64504.74286135947, -56030.41422729662, -106213.14271845136, 0.122, 1.002, 0.022, 192.0, 1.5, 104.0, 15.5, 40.0, 0.0, 88.0, 0.0, 0.0, 0.0, 1.695341174179078E9, 0.0, 2023-09-21 19:06:14.179
240.0, 21000.045061116823, 53589.424918821445, -77091.83717868773, -60726.00164723417, -47300.873375043084, -22345.70948430413, 187500.0, -49653.97562431999, -8616.262211354044, -35791.13314046063, -76064.86392794418, -34534.89804683901, -19534.44117718234, -64515.829326609295, -56012.51047998792, -106193.27201763059, 0.122, 1.002, 0.022, 192.0, 0.0, 0.0, 0.0, 0.0, 0.0, 0.0, 0.0, 0.0, 0.0, 1.695341174237784E9, 0.0, 2023-09-21 19:06:14.237
242.0, 20923.04330146829, 53515.23947897428, -77078.73905643691, -60711.04833019356, -47305.209613467414, -22351.81151054043, 187500.0, -49638.88819681266, -8615.837528209393, -35780.71722754445, -76057.46550052948, -34527.946654313404, -19550.19915702333, -64503.15588750314, -56034.39283780967, -106185.85123847143, 0.122, 1.002, 0.022, 192.0, 0.0, 0.0, 0.0, 0.0, 0.0, 0.0, 0.0, 0.0, 0.0, 1.695341174237798E9, 0.0, 2023-09-21 19:06:14.237
244.0, 20998.614549471684, 53587.32385484265, -77082.24828031639, -60711.92004822732, -47291.083310971655, -22337.08171094438, 187500.0, -49634.70842059951, -8609.80255720646, -35782.907698501076, -76051.13995684862, -34520.324709454144, -19533.14477600393, -64497.21032347803, -56024.33455280478, -106180.21859886868, 0.122, 1.002, 0.022, 192.0, 0.0, 0.0, 0.0, 0.0, 0.0, 0.0, 0.0, 0.0, 0.0, 1.695341174237801E9, 0.0, 2023-09-21 19:06:14.237
246.0, 20921.970417734436, 53513.49604290677, -77082.00241112738, -60708.90256272585, -47312.09395075965, -22355.09721697536, 187500.0, -49633.14379848764, -8612.685932241195, -35778.05736995427, -76046.96018063548, -34517.7989623307, -19547.069912799587, -64493.23171296498, -56033.0740848868, -106168.43922954075, 0.122, 1.002, 0.022, 192.0, 0.0, 0.0, 0.0, 0.0, 0.0, 0.0, 0.0, 0.0, 0.0, 1.695341174237805E9, 0.0, 2023-09-21 19:06:14.237
248.0, 21005.185962341544, 53586.45213680889, -77092.10539962118, -60717.91031574134, -47295.37484590708, -22346.648257571254, 187500.0, -49635.46837991099, -8609.199060106166, -35783.198271179, -76045.46261375697, -34513.93211053993, -19533.480052170762, -64490.92948328608, -56021.495881258954, -106168.77450570757, 0.122, 1.008, 0.016, 192.0, 1.5, 104.0, 15.5, 64.0, 0.0, 64.0, 0.0, 0.0, 0.0, 1.695341174237808E9, 0.0, 2023-09-21 19:06:14.237
250.0, 20931.46990912794, 53526.75062736877, -77079.61077447067, -60706.51092606914, -47315.82669208368, -22359.18758621068, 187500.0, -49630.23807170845, -8609.623743250817, -35775.062236197264, -76037.7512619199, -34506.2431104473, -19538.308028973108, -64482.50287562644, -56031.46475928602, -106139.58312744893, 0.122, 1.008, 0.016, 192.0, 0.0, 0.0, 0.0, 0.0, 0.0, 0.0, 0.0, 0.0, 0.0, 1.695341174237811E9, 0.0, 2023-09-21 19:06:14.237
252.0, 21006.080032119757, 53588.88847695452, -77098.7438677244, -60723.78882453309, -47299.24169769784, -22347.94465874966, 187500.0, -49643.69382187055, -8605.220449593122, -35776.202175164486, -76030.71046241646, -34502.48801737881, -19529.121462001975, -64481.31823317031, -56023.61929698221, -106150.22255780967, 0.122, 1.008, 0.016, 192.0, 0.0, 0.0, 0.0, 0.0, 0.0, 0.0, 0.0, 0.0, 0.0, 1.695341174237814E9, 0.0, 2023-09-21 19:06:14.237
254.0, 20944.411569167565, 53538.64175541899, -77085.10930360667, -60706.42151909132, -47322.0181252978, -22365.781350824996, 187500.0, -49624.49367338344, -8632.288412128499, -35791.40136139409, -76045.90964864608, -34517.10605825258, -19554.44598846984, -64491.91296004212, -56048.496788560966, -106096.73483332811, 0.122, 1.008, 0.016, 192.0, 0.0, 0.0, 0.0, 0.0, 0.0, 0.0, 0.0, 0.0, 0.0, 1.695341174237817E9, 0.0, 2023-09-21 19:06:14.237
0.0, 21004.470706518976, 53577.60084600459, -77095.16758861156, -60719.92197274232, -47293.40789239501, -22346.603554082343, 187500.0, -49635.40132467763, -8604.572249003917, -35772.80471000728, -76015.53362793132, -34486.88649974901, -19528.00387477921, -64468.55538708632, -56021.56293649232, -106128.78723487703, 0.122, 1.008, 0.016, 192.0, 0.0, 0.0, 0.0, 0.0, 0.0, 0.0, 0.0, 0.0, 0.0, 1.695341174298132E9, 0.0, 2023-09-21 19:06:14.298
2.0, 20967.43386595653, 53549.392944502, -77090.02668738684, -60715.20575466225, -47317.45836942892, -22372.397467183768, 187500.0, -49632.987336276456, -8614.161147375244, -35790.68610557152, -76029.12348856014, -34502.35390691208, -19537.72688361727, -64493.611692620725, -56042.23830011348, -106072.68435629421, 0.116, 1.01, 0.014, 192.0, 1.5, 80.0, 15.5, 72.0, 0.0, 56.0, 0.0, 0.0, 0.0, 1.695341174298144E9, 0.0, 2023-09-21 19:06:14.298
4.0, 20998.279273304855, 53569.53186625623, -77091.52425426534, -60713.7305395282, -47289.965723748894, -22358.941717021673, 187500.0, -49633.97081303249, -8612.954153174658, -35795.55878586278, -76019.66870065554, -34490.21690967285, -19533.457700426305, -64490.90713154163, -56025.832119683284, -106098.90295254027, 0.116, 1.01, 0.014, 192.0, 0.0, 0.0, 0.0, 0.0, 0.0, 0.0, 0.0, 0.0, 0.0, 1.695341174298147E9, 0.0, 2023-09-21 19:06:14.298
6.0, 20975.815770127272, 53556.03141260522, -77076.19095756901, -60695.02212941911, -47305.74605533434, -22368.172987481714, 187500.0, -49622.05733323781, -8608.930839172703, -35791.75898930538, -76016.29358724279, -34482.70672353586, -19536.318723716584, -64482.547579115344, -56027.240279583966, -106053.95359444065, 0.116, 1.01, 0.014, 192.0, 0.0, 0.0, 0.0, 0.0, 0.0, 0.0, 0.0, 0.0, 0.0, 1.69534117429815E9, 0.0, 2023-09-21 19:06:14.298
8.0, 20994.501828491906, 53547.895377623485, -77063.56222195175, -60681.789896701564, -47259.634406523044, -22335.651199299242, 187500.0, -49607.86397550869, -8588.858972651837, -35762.56761104675, -75991.14787473058, -34457.87393544602, -19521.275999698162, -64459.704096282025, -55998.18301179207, -106105.27319971005, 0.116, 1.01, 0.014, 192.0, 0.0, 0.0, 0.0, 0.0, 0.0, 0.0, 0.0, 0.0, 0.0, 1.695341174298153E9, 0.0, 2023-09-21 19:06:14.298
10.0, 21006.325901308766, 53564.614482476056, -77078.85081515918, -60691.33409158398, -47304.91904078949, -22355.790121053473, 187500.0, -49614.8600715232, -8606.785071704993, -35777.7444455319, -76010.57154066223, -34474.32481936512, -19525.18755497784, -64470.3658783872, -56016.6232009677, -106050.04203916098, 0.116, 1.01, 0.014, 192.0, 0.0, 0.0, 0.0, 0.0, 0.0, 0.0, 0.0, 0.0, 0.0, 1.695341174298157E9, 0.0, 2023-09-21 19:06:14.298
12.0, 20994.278311047354, 53540.18402578641, -77073.26287904536, -60692.362271828926, -47275.97353171987, -22343.720179047607, 187500.0, -49618.39164714714, -8594.759833188038, -35762.92523895803, -76003.35192720317, -34464.44534831588, -19529.0097032797, -64461.60399456072, -56016.824366667795, -106088.33057741293, 0.12, 1.006, 0.018000000000000002, 192.0, 1.5, 96.0, 15.5, 56.0, 0.0, 72.0, 0.0, 0.0, 0.0, 1.69534117429816E9, 0.0, 2023-09-21 19:06:14.298
14.0, 21023.045006161334, 53583.45700305188, -77097.201597357, -60715.80925176254, -47314.88791881656, -22374.118551506825, 187500.0, -49640.36341194671, -8612.484766541096, -35795.08939922922, -76020.87569485613, -34484.29369739219, -19530.551973647114, -64497.54559964486, -56022.79228243736, -106023.06348360343, 0.12, 1.006, 0.018000000000000002, 192.0, 0.0, 0.0, 0.0, 0.0, 0.0, 0.0, 0.0, 0.0, 0.0, 1.69534117435835E9, 0.0, 2023-09-21 19:06:14.358
16.0, 20998.34632853822, 53547.18012180092, -77090.7419432094, -60713.39526336137, -47294.63723834005, -22367.636545614787, 187500.0, -49640.56457764681, -8612.328304329909, -35793.32361141725, -76020.65217741158, -34483.980772969815, -19543.270116242187, -64498.75259384544, -56031.86709068622, -106040.07316113391, 0.12, 1.006, 0.018000000000000002, 192.0, 0.0, 0.0, 0.0, 0.0, 0.0, 0.0, 0.0, 0.0, 0.0, 1.695341174358363E9, 0.0, 2023-09-21 19:06:14.358
18.0, 21037.104253423724, 53597.35978810308, -77082.60590822768, -60707.673216780815, -47306.684828601465, -22375.14673175177, 187500.0, -49638.53056890137, -8610.875440940314, -35796.92224227455, -76021.27802625633, -34482.90788923596, -19540.029113296165, -64501.367747946715, -56031.24124184147, -105979.67874761568, 0.12, 1.006, 0.018000000000000002, 192.0, 0.0, 0.0, 0.0, 0.0, 0.0, 0.0, 0.0, 0.0, 0.0, 1.695341174358367E9, 0.0, 2023-09-21 19:06:14.358
20.0, 20995.887636648135, 53547.001307845276, -77080.50484424888, -60711.49536508267, -47286.054168469214, -22373.336240450888, 187500.0, -49637.815313078805, -8608.550859516961, -35787.243936925406, -76012.00205230738, -34473.31899086464, -19546.19819476583, -64489.9236547856, -56031.30829707484, -106002.09754730435, 0.12, 1.006, 0.018000000000000002, 192.0, 0.0, 0.0, 0.0, 0.0, 0.0, 0.0, 0.0, 0.0, 0.0, 1.69534117435837E9, 0.0, 2023-09-21 19:06:14.358
22.0, 21050.336486141263, 53608.33449463064, -77087.92562340804, -60721.26307740964, -47303.91321228901, -22386.747287124075, 187500.0, -49640.92220555809, -8614.451720053163, -35799.42563765355, -76022.95440709048, -34482.103226435574, -19537.458662683806, -64510.733128873486, -56032.18001510859, -105949.41448562319, 0.12, 1.008, 0.018000000000000002, 192.0, 1.5, 96.0, 15.5, 64.0, 0.0, 72.0, 0.0, 0.0, 0.0, 1.695341174358373E9, 0.0, 2023-09-21 19:06:14.358
24.0, 20982.878921375148, 53533.81377861664, -77078.64964945908, -60710.55659181555, -47291.15036620502, -22375.437304429688, 187500.0, -49629.92514728608, -8608.349693816865, -35784.22645142394, -76014.75131687538, -34473.45310133137, -19545.080607543066, -64491.60003561975, -56039.824311712306, -105982.02568078348, 0.12, 1.008, 0.018000000000000002, 192.0, 0.0, 0.0, 0.0, 0.0, 0.0, 0.0, 0.0, 0.0, 0.0, 1.695341174358376E9, 0.0, 2023-09-21 19:06:14.358
26.0, 21058.9195560121, 53616.403474379, -77089.11026586418, -60719.273772153116, -47305.74605533434, -22378.18656899769, 187500.0, -49639.9163770576, -8619.212641622144, -35798.50921613088, -76029.16819204905, -34489.233432916815, -19537.257496983708, -64504.11701251472, -56034.75046572095, -105934.41646509367, 0.12, 1.008, 0.018000000000000002, 192.0, 0.0, 0.0, 0.0, 0.0, 0.0, 0.0, 0.0, 0.0, 0.0, 1.69534117435838E9, 0.0, 2023-09-21 19:06:14.358
28.0, 20987.19280805502, 53540.765171142244, -77072.48056798942, -60703.51579231212, -47294.27961042877, -22369.33527819339, 187500.0, -49627.68997284055, -8606.1815746047, -35776.64921005359, -76014.43839245301, -34475.42005484344, -19539.895002829435, -64486.79441056185, -56031.66592498612, -105949.43683736764, 0.12, 1.008, 0.018000000000000002, 192.0, 0.0, 0.0, 0.0, 0.0, 0.0, 0.0, 0.0, 0.0, 0.0, 1.695341174358383E9, 0.0, 2023-09-21 19:06:14.358
30.0, 21068.910785783624, 53625.791207050235, -77094.18411185553, -60721.79951927657, -47305.85781405662, -22376.420781185723, 187500.0, -49651.74044987446, -8614.51877528653, -35788.786207292826, -76025.92718910304, -34482.32674388013, -19532.76479634819, -64496.875047311194, -56028.02259063991, -105912.8470316943, 0.12, 1.008, 0.018000000000000002, 192.0, 0.0, 0.0, 0.0, 0.0, 0.0, 0.0, 0.0, 0.0, 0.0, 1.69534117441885E9, 0.0, 2023-09-21 19:06:14.418
32.0, 20982.85656963069, 53543.9391188549, -77076.83915815821, -60706.66738828032, -47303.17560472198, -22376.689002119187, 187500.0, -49640.13989450216, -8613.669408997228, -35781.32072464475, -76022.75324139038, -34478.90692697846, -19555.898851859434, -64489.47661989649, -56041.90302394665, -105915.5962962623, 0.116, 1.008, 0.018000000000000002, 192.0, 1.5, 80.0, 15.5, 64.0, 0.0, 72.0, 0.0, 0.0, 0.0, 1.695341174418874E9, 0.0, 2023-09-21 19:06:14.418
34.0, 21062.540538613863, 53622.483148870844, -77092.06069613228, -60724.526432100116, -47297.47590988588, -22370.229347971603, 187500.0, -49655.65200515414, -8607.32151357192, -35782.3936083786, -76020.62982566713, -34477.92345022243, -19538.39743595093, -64497.18797173357, -56030.391875552166, -105905.87328742424, 0.116, 1.008, 0.018000000000000002, 192.0, 0.0, 0.0, 0.0, 0.0, 0.0, 0.0, 0.0, 0.0, 0.0, 1.695341174418878E9, 0.0, 2023-09-21 19:06:14.418
36.0, 20971.792456125317, 53537.50181645177, -77075.22983255742, -60706.80149874705, -47303.01914251079, -22374.386772440288, 187500.0, -49633.07674325428, -8608.148528116766, -35783.33238164573, -76023.64731116859, -34483.846662503085, -19551.71907564629, -64499.80312583484, -56051.491922317975, -105901.42529027764, 0.116, 1.008, 0.018000000000000002, 192.0, 0.0, 0.0, 0.0, 0.0, 0.0, 0.0, 0.0, 0.0, 0.0, 1.695341174418881E9, 0.0, 2023-09-21 19:06:14.418
38.0, 21050.180023930076, 53608.26743939727, -77086.78568444082, -60719.899620997865, -47292.26795342779, -22362.33918217888, 187500.0, -49641.88333056967, -8607.589734505384, -35782.28184965633, -76025.74837514739, -34484.91954623694, -19537.123386516978, -64502.59709389175, -56034.504596531944, -105903.81692693436, 0.116, 1.008, 0.018000000000000002, 192.0, 0.0, 0.0, 0.0, 0.0, 0.0, 0.0, 0.0, 0.0, 0.0, 1.695341174418884E9, 0.0, 2023-09-21 19:06:14.418
40.0, 20974.92170034906, 53539.78169438621, -77081.33185879372, -60716.904487240856, -47308.3165059467, -22378.499493420066, 187500.0, -49633.85905431021, -8621.201946878666, -35790.77551254934, -76036.14193631911, -34497.63768883201, -19557.754046649225, -64503.446460181054, -56043.869977458715, -105878.55945569987, 0.116, 1.008, 0.018000000000000002, 192.0, 0.0, 0.0, 0.0, 0.0, 0.0, 0.0, 0.0, 0.0, 0.0, 1.695341174418887E9, 0.0, 2023-09-21 19:06:14.418
42.0, 21032.969180699492, 53587.10033739809, -77075.56510872426, -60713.77524301711, -47271.61494155109, -22352.258545429533, 187500.0, -49629.8133885638, -8599.341940801376, -35773.27409664084, -76017.34411923219, -34481.142101424, -19528.227392223765, -64484.022794249395, -56014.41037826662, -105900.06183386587, 0.11800000000000001, 1.004, 0.02, 192.0, 1.5, 88.0, 15.5, 48.0, 0.0, 80.0, 0.0, 0.0, 0.0, 1.695341174418891E9, 0.0, 2023-09-21 19:06:14.418
44.0, 20967.52327293435, 53538.08296180761, -77085.71280070697, -60722.291257654586, -47307.42243616849, -22378.32067946442, 187500.0, -49632.45089440953, -8628.510967315551, -35794.910585273574, -76046.22257306846, -34508.522988381745, -19557.23995652675, -64509.48143118399, -56034.70576223204, -105861.59448165828, 0.11800000000000001, 1.004, 0.02, 192.0, 0.0, 0.0, 0.0, 0.0, 0.0, 0.0, 0.0, 0.0, 0.0, 1.695341174479139E9, 0.0, 2023-09-21 19:06:14.479
46.0, 21026.0624916628, 53584.954569930385, -77085.77985594033, -60722.20185067676, -47278.432223609954, -22357.75707456554, 187500.0, -49639.268176468395, -8614.496423542074, -35783.51119560137, -76034.06322408476, -34500.92339526694, -19542.353694719517, -64496.51741939991, -56020.46770101401, -105882.89569412419, 0.11800000000000001, 1.004, 0.02, 192.0, 0.0, 0.0, 0.0, 0.0, 0.0, 0.0, 0.0, 0.0, 0.0, 1.695341174479152E9, 0.0, 2023-09-21 19:06:14.479
48.0, 20977.96153759498, 53544.69907816638, -77083.56703323926, -60712.903524983354, -47314.150311249534, -22364.730818835596, 187500.0, -49637.61414737871, -8615.278734598009, -35774.95047747499, -76033.05739558428, -34496.296584164695, -19548.522776189184, -64491.98001527548, -56033.05173314235, -105850.731533853, 0.11800000000000001, 1.004, 0.02, 192.0, 0.0, 0.0, 0.0, 0.0, 0.0, 0.0, 0.0, 0.0, 0.0, 1.695341174479156E9, 0.0, 2023-09-21 19:06:14.479
50.0, 21022.64267476114, 53570.694156967904, -77085.35517279568, -60715.45162385126, -47287.50703185881, -22343.85428951434, 187500.0, -49633.76964733239, -8609.757853717549, -35770.90481172858, -76026.3965757366, -34489.34519163909, -19543.806558109114, -64481.497047125944, -56031.73298021949, -105884.25915053596, 0.11800000000000001, 1.004, 0.02, 192.0, 0.0, 0.0, 0.0, 0.0, 0.0, 0.0, 0.0, 0.0, 0.0, 1.695341174479159E9, 0.0, 2023-09-21 19:06:14.479
52.0, 20996.20056107051, 53552.27631953673, -77087.92562340804, -60715.988065718186, -47325.92968057748, -22369.33527819339, 187500.0, -49638.41881017909, -8618.407978821753, -35782.25949791187, -76038.82414565375, -34501.661002833964, -19548.522776189184, -64500.54073340187, -56039.3772768232, -105835.3311819233, 0.11800000000000001, 1.006, 0.02, 192.0, 1.5, 88.0, 15.5, 56.0, 0.0, 80.0, 0.0, 0.0, 0.0, 1.695341174479162E9, 0.0, 2023-09-21 19:06:14.479
54.0, 21021.79330847184, 53563.631005720024, -77090.98781239842, -60717.82090876352, -47295.33014241817, -22355.879528031295, 187500.0, -49640.43046718007, -8615.882231698302, -35778.5938118212, -76033.10209907319, -34491.669773062444, -19547.494595944238, -64491.018890263906, -56033.454064542544, -105866.22129276053, 0.11800000000000001, 1.006, 0.02, 192.0, 0.0, 0.0, 0.0, 0.0, 0.0, 0.0, 0.0, 0.0, 0.0, 1.695341174479166E9, 0.0, 2023-09-21 19:06:14.479
56.0, 21005.476535019465, 53562.35695628607, -77085.42222802904, -60713.171745916814, -47314.284421716264, -22365.557833380444, 187500.0, -49633.72494384348, -8619.592621277883, -35786.30516365828, -76039.15942182057, -34499.67169757744, -19554.133064047466, -64497.61265487822, -56037.097398888756, -105810.61015255573, 0.11800000000000001, 1.006, 0.02, 192.0, 0.0, 0.0, 0.0, 0.0, 0.0, 0.0, 0.0, 0.0, 0.0, 1.695341174479169E9, 0.0, 2023-09-21 19:06:14.479
58.0, 21012.49498277843, 53560.09943009609, -77105.94112943902, -60737.89277528439, -47301.432168654464, -22371.503397405555, 187500.0, -49655.49554294295, -8622.475996312618, -35787.62391658115, -76043.33919803372, -34505.527854624735, -19559.25161352773, -64503.4241084366, -56037.723247733506, -105838.14750172467, 0.11800000000000001, 1.006, 0.02, 192.0, 0.0, 0.0, 0.0, 0.0, 0.0, 0.0, 0.0, 0.0, 0.0, 1.695341174479172E9, 0.0, 2023-09-21 19:06:14.479
60.0, 21011.466802533487, 53578.18199136043, -77103.88476894912, -60736.954002017264, -47325.23677649937, -22387.306080735456, 187500.0, -49650.06406904031, -8627.773359748526, -35797.27987018584, -76054.51507026138, -34516.413154174465, -19561.643250184447, -64513.79531786386, -56048.45208507205, -105784.10098363174, 0.11800000000000001, 1.006, 0.02, 192.0, 0.0, 0.0, 0.0, 0.0, 0.0, 0.0, 0.0, 0.0, 0.0, 1.695341174538377E9, 0.0, 2023-09-21 19:06:14.538
62.0, 20988.422154000065, 53549.75057241328, -77094.34057406671, -60724.369969888925, -47291.21742143839, -22364.395542668768, 187500.0, -49637.07770551178, -8631.99783945058, -35791.55782360528, -76047.51897424686, -34508.187712214916, -19567.09707583154, -64506.5757044048, -56040.27134660141, -105816.66747530311, 0.11800000000000001, 1.01, 0.018000000000000002, 192.0, 1.5, 88.0, 15.5, 72.0, 0.0, 72.0, 0.0, 0.0, 0.0, 1.695341174538387E9, 0.0, 2023-09-21 19:06:14.538
64.0, 21006.504715264407, 53582.80880246268, -77087.70210596349, -60712.59060056098, -47304.9637442784, -22369.156464237745, 187500.0, -49629.768685074894, -8638.077513942422, -35788.11565495916, -76048.97183763646, -34505.48315113582, -19561.933822862367, -64503.64762588115, -56031.97884940849, -105765.07964910027, 0.11800000000000001, 1.01, 0.018000000000000002, 192.0, 0.0, 0.0, 0.0, 0.0, 0.0, 0.0, 0.0, 0.0, 0.0, 1.695341174538391E9, 0.0, 2023-09-21 19:06:14.538
66.0, 20967.970307823456, 53533.858482105556, -77083.94701289499, -60707.025016191605, -47282.67905505646, -22352.504414618543, 187500.0, -49618.88338552516, -8622.408941079253, -35761.96411394645, -76030.17402054954, -34483.421979358434, -19553.73073264727, -64481.586454103766, -56023.75340744894, -105813.00178921245, 0.11800000000000001, 1.01, 0.018000000000000002, 192.0, 0.0, 0.0, 0.0, 0.0, 0.0, 0.0, 0.0, 0.0, 0.0, 1.695341174538394E9, 0.0, 2023-09-21 19:06:14.538
68.0, 21008.91870366558, 53583.72522398535, -77074.2910592903, -60697.033786420085, -47288.848136526125, -22352.392655896267, 187500.0, -49607.7075132975, -8628.578022548918, -35770.07779718373, -76040.41111951007, -34491.55801434017, -19552.657848913415, -64489.20839896303, -56016.28792480087, -105761.12339033168, 0.11800000000000001, 1.01, 0.018000000000000002, 192.0, 0.0, 0.0, 0.0, 0.0, 0.0, 0.0, 0.0, 0.0, 0.0, 1.695341174538397E9, 0.0, 2023-09-21 19:06:14.538
70.0, 20955.14040650611, 53526.236537246295, -77073.03936160081, -60695.6256265194, -47275.72766253086, -22345.79889128195, 187500.0, -49607.28283015285, -8621.291353856486, -35753.71632024245, -76028.25177052639, -34479.242203145295, -19554.133064047466, -64472.556349343824, -56010.096491586744, -105801.20006814004, 0.11800000000000001, 1.01, 0.018000000000000002, 192.0, 0.0, 0.0, 0.0, 0.0, 0.0, 0.0, 0.0, 0.0, 0.0, 1.695341174538401E9, 0.0, 2023-09-21 19:06:14.538
72.0, 21023.089709650245, 53601.78543350523, -77082.87412916114, -60704.365158601424, -47285.60713358011, -22347.050588971448, 187500.0, -49621.096208226234, -8626.85693822586, -35761.65118952408, -76034.75612816289, -34483.66784854744, -19547.40518896642, -64478.18898894656, -56008.286000285865, -105761.99510836543, 0.11800000000000001, 1.006, 0.018000000000000002, 192.0, 1.5, 88.0, 15.5, 56.0, 0.0, 72.0, 0.0, 0.0, 0.0, 1.695341174538404E9, 0.0, 2023-09-21 19:06:14.538
74.0, 20962.33766822072, 53540.74281939779, -77082.82942567223, -60702.75583300064, -47292.87145052808, -22351.52093786251, 187500.0, -49628.7628565744, -8634.970621463135, -35759.058387167264, -76037.95242762, -34488.76404628325, -19566.650040942437, -64480.26770118091, -56018.9701341355, -105773.28273931537, 0.11800000000000001, 1.006, 0.018000000000000002, 192.0, 0.0, 0.0, 0.0, 0.0, 0.0, 0.0, 0.0, 0.0, 0.0, 1.695341174598068E9, 0.0, 2023-09-21 19:06:14.598
76.0, 21030.376378342677, 53614.101244700105, -77070.13363482161, -60691.89288519537, -47288.40110163702, -22343.742530792064, 187500.0, -49607.93103074205, -8642.525511089028, -35769.474300083435, -76048.52480274736, -34496.698915564884, -19556.859976871012, -64485.47565763899, -56022.79228243736, -105727.9086980711, 0.11800000000000001, 1.006, 0.018000000000000002, 192.0, 0.0, 0.0, 0.0, 0.0, 0.0, 0.0, 0.0, 0.0, 0.0, 1.695341174598085E9, 0.0, 2023-09-21 19:06:14.598
78.0, 20953.173452994044, 53530.773941370724, -77060.07534981673, -60686.39435605936, -47273.29132238523, -22336.701731288642, 187500.0, -49603.03599870634, -8614.339961330887, -35738.31596831274, -76016.78532562082, -34466.32289485013, -19549.349790734028, -64454.85376773522, -56004.173279306095, -105764.34204153325, 0.11800000000000001, 1.006, 0.018000000000000002, 192.0, 0.0, 0.0, 0.0, 0.0, 0.0, 0.0, 0.0, 0.0, 0.0, 1.695341174598088E9, 0.0, 2023-09-21 19:06:14.598
80.0, 21032.343331854743, 53607.529831830245, -77071.0947598332, -60698.218428876215, -47269.22330489437, -22335.42768185469, 187500.0, -49613.1613389446, -8617.916240443736, -35753.202230119976, -76026.10600305868, -34477.5881740556, -19542.82308135308, -64468.82360801979, -56000.6193519377, -105747.9135093586, 0.11800000000000001, 1.006, 0.018000000000000002, 192.0, 0.0, 0.0, 0.0, 0.0, 0.0, 0.0, 0.0, 0.0, 0.0, 1.695341174598092E9, 0.0, 2023-09-21 19:06:14.598
82.0, 20953.039342527314, 53535.28899375069, -77075.94508838, -60702.711129511736, -47294.6148865956, -22352.683228574184, 187500.0, -49621.163263459595, -8631.193176650188, -35757.516116799845, -76035.18081130754, -34486.10418869307, -19568.68404968787, -64480.468866881005, -56023.64164872666, -105741.09622729973, 0.116, 1.008, 0.018000000000000002, 192.0, 1.5, 80.0, 15.5, 64.0, 0.0, 72.0, 0.0, 0.0, 0.0, 1.695341174598095E9, 0.0, 2023-09-21 19:06:14.598
84.0, 21023.58144802826, 53611.575497576654, -77081.01893437134, -60708.366120858926, -47282.72375854538, -22340.65799005723, 187500.0, -49625.231280950466, -8634.322420873932, -35763.21581163595, -76038.8464973982, -34486.55122358218, -19560.950346106332, -64489.47661989649, -56016.533793989875, -105728.17691900456, 0.116, 1.008, 0.018000000000000002, 192.0, 0.0, 0.0, 0.0, 0.0, 0.0, 0.0, 0.0, 0.0, 0.0, 1.695341174598098E9, 0.0, 2023-09-21 19:06:14.598
86.0, 20953.15110124959, 53553.03627884821, -77102.54366428181, -60731.14254845888, -47319.29121247426, -22369.447036915666, 187500.0, -49645.97369980499, -8646.593528579895, -35767.730864015924, -76048.03306436933, -34496.229528931326, -19579.859921915522, -64490.728317585985, -56033.9234511761, -105711.68133159654, 0.116, 1.008, 0.018000000000000002, 192.0, 0.0, 0.0, 0.0, 0.0, 0.0, 0.0, 0.0, 0.0, 0.0, 1.695341174598102E9, 0.0, 2023-09-21 19:06:14.598
88.0, 21020.943942182534, 53617.72222730186, -77091.12192286515, -60721.95598148775, -47306.416607668, -22364.306135690946, 187500.0, -49635.58013863327, -8665.27958694453, -35795.357620162686, -76074.69869550451, -34524.146857756, -19595.841419201068, -64519.36090223324, -56052.81067524084, -105682.86993299365, 0.116, 1.008, 0.018000000000000002, 192.0, 0.0, 0.0, 0.0, 0.0, 0.0, 0.0, 0.0, 0.0, 0.0, 1.695341174598105E9, 0.0, 2023-09-21 19:06:14.598
90.0, 20946.66909535755, 53546.017831089244, -77073.35228602318, -60705.147469657364, -47300.47104364289, -22363.277955446, 187500.0, -49619.73275181446, -8621.716037001139, -35748.73188122891, -76030.97868334994, -34484.38310437001, -19567.387648509462, -64478.010174990915, -56033.2752505869, -105683.56283707176, 0.116, 1.008, 0.018000000000000002, 192.0, 0.0, 0.0, 0.0, 0.0, 0.0, 0.0, 0.0, 0.0, 0.0, 1.695341174658458E9, 0.0, 2023-09-21 19:06:14.658
92.0, 21013.880790934658, 53595.32577935765, -77079.47666400393, -60713.77524301711, -47282.05320621171, -22360.46163564463, 187500.0, -49630.953327531024, -8631.640211539294, -35762.50055581338, -76042.1992590665, -34496.20717718687, -19567.186482809364, -64489.118991985204, -56032.4258842976, -105693.17408718755, 0.11800000000000001, 1.014, 0.01, 192.0, 1.5, 88.0, 15.5, 88.0, 0.0, 40.0, 0.0, 0.0, 0.0, 1.695341174658482E9, 0.0, 2023-09-21 19:06:14.658
94.0, 20952.413493682565, 53543.67089792144, -77071.9441261225, -60706.01918769112, -47302.16977622149, -22376.532539908, 187500.0, -49628.24876645193, -8628.71213301565, -35751.88347719711, -76037.86302064217, -34491.26744166225, -19563.856072885523, -64480.670032581096, -56034.437541298576, -105676.5890928017, 0.11800000000000001, 1.014, 0.01, 192.0, 0.0, 0.0, 0.0, 0.0, 0.0, 0.0, 0.0, 0.0, 0.0, 1.695341174658485E9, 0.0, 2023-09-21 19:06:14.658
96.0, 21009.321035065776, 53590.050767666195, -77081.22010007144, -60717.99972271916, -47275.48179334185, -22360.819263555917, 187500.0, -49644.945519560046, -8636.915223230746, -35761.69589301299, -76048.18952658052, -34499.425828388434, -19563.610203696517, -64488.38138441818, -56029.251936584944, -105695.72218605546, 0.11800000000000001, 1.014, 0.01, 192.0, 0.0, 0.0, 0.0, 0.0, 0.0, 0.0, 0.0, 0.0, 0.0, 1.695341174658488E9, 0.0, 2023-09-21 19:06:14.658
98.0, 20967.0985897897, 53563.18397083092, -77082.71766694995, -60718.558516330544, -47302.79562506624, -22379.52767366501, 187500.0, -49631.378010675675, -8635.685877285705, -35762.41114883556, -76048.97183763646, -34503.762066812764, -19566.560633964615, -64493.5222856429, -56032.2247185975, -105652.24804308987, 0.11800000000000001, 1.014, 0.01, 192.0, 0.0, 0.0, 0.0, 0.0, 0.0, 0.0, 0.0, 0.0, 0.0, 1.695341174658491E9, 0.0, 2023-09-21 19:06:14.658
100.0, 20998.72630819396, 53583.009968162776, -77080.75071343788, -60715.36221687344, -47280.35447363311, -22356.885356531784, 187500.0, -49631.62387986468, -8633.674220284727, -35765.40628259257, -76048.70361670299, -34506.53368312522, -19565.554805464126, -64491.4212216641, -56030.90596567464, -105680.18772365901, 0.11800000000000001, 1.014, 0.01, 192.0, 0.0, 0.0, 0.0, 0.0, 0.0, 0.0, 0.0, 0.0, 0.0, 1.695341174658495E9, 0.0, 2023-09-21 19:06:14.658
102.0, 20971.21131076948, 53571.20824709037, -77090.38431529813, -60722.44771986577, -47313.90444206053, -22371.436342172186, 187500.0, -49637.10005725623, -8641.85495875537, -35778.705570543476, -76060.93002092004, -34520.45881992088, -19569.645174699446, -64500.63014037969, -56036.13627387718, -105630.58920271268, 0.124, 1.018, 0.014, 192.0, 1.5, 112.0, 15.5, 104.0, 0.0, 56.0, 0.0, 0.0, 0.0, 1.695341174658498E9, 0.0, 2023-09-21 19:06:14.658
104.0, 20985.069392331767, 53573.063441880164, -77100.66611774756, -60732.550708359566, -47293.20672669491, -22364.730818835596, 187500.0, -49651.96396731901, -8647.599357080384, -35780.60546882218, -76068.57431752376, -34525.8008868457, -19583.838532428566, -64505.59222764877, -56041.43363731309, -105662.28397635031, 0.124, 1.018, 0.014, 192.0, 0.0, 0.0, 0.0, 0.0, 0.0, 0.0, 0.0, 0.0, 0.0, 1.695341174718751E9, 0.0, 2023-09-21 19:06:14.718
106.0, 20979.324994006754, 53579.97013091685, -77092.57478625474, -60722.64888556587, -47315.58082289468, -22380.600557398862, 187500.0, -49639.64815612414, -8659.66929908625, -35790.03790498232, -76078.16321589508, -34534.249846249804, -19586.96777665231, -64511.15781201814, -56050.28492811739, -105600.68256863148, 0.124, 1.018, 0.014, 192.0, 0.0, 0.0, 0.0, 0.0, 0.0, 0.0, 0.0, 0.0, 0.0, 1.695341174718771E9, 0.0, 2023-09-21 19:06:14.718
108.0, 20967.947956079002, 53556.925482383434, -77078.91787039256, -60709.68487378179, -47280.57799107766, -22352.41500764072, 187500.0, -49624.29250768334, -8635.864691241348, -35765.51804131485, -76052.88339291613, -34510.02055526025, -19576.64127071396, -64493.99167227646, -56032.761160464426, -105646.90597616506, 0.124, 1.018, 0.014, 192.0, 0.0, 0.0, 0.0, 0.0, 0.0, 0.0, 0.0, 0.0, 0.0, 1.695341174718777E9, 0.0, 2023-09-21 19:06:14.718
110.0, 20988.310395277786, 53584.30636934118, -77093.8488356887, -60724.81700477803, -47316.20667173943, -22376.91251956374, 187500.0, -49638.44116192355, -8643.307822144965, -35783.108864201175, -76062.42758779855, -34523.409250188975, -19569.868692144002, -64505.16754450412, -56038.28204134489, -105598.82737384169, 0.124, 1.018, 0.014, 192.0, 0.0, 0.0, 0.0, 0.0, 0.0, 0.0, 0.0, 0.0, 0.0, 1.695341174718784E9, 0.0, 2023-09-21 19:06:14.718
112.0, 20957.86731932966, 53540.295784508686, -77074.80514941277, -60709.617818548424, -47281.3603021336, -22356.103045475847, 187500.0, -49625.05246699482, -8630.768493505537, -35767.01560819335, -76051.56463999327, -34514.8485320626, -19569.488712488263, -64495.422183921604, -56039.24316635647, -105645.60957498665, 0.126, 1.012, 0.014, 192.0, 1.5, 120.0, 15.5, 80.0, 0.0, 56.0, 0.0, 0.0, 0.0, 1.695341174718802E9, 0.0, 2023-09-21 19:06:14.718
114.0, 21000.805020428303, 53594.72228225735, -77090.85370193169, -60724.74994954467, -47304.80728206722, -22372.866853817326, 187500.0, -49643.64911838164, -8640.111522687856, -35779.823157766245, -76060.9970761534, -34524.23626473382, -19565.91243337541, -64502.977073547496, -56029.408398796135, -105597.19569649646, 0.126, 1.012, 0.014, 192.0, 0.0, 0.0, 0.0, 0.0, 0.0, 0.0, 0.0, 0.0, 0.0, 1.695341174718807E9, 0.0, 2023-09-21 19:06:14.718
116.0, 20947.674923858038, 53532.42797046041, -77069.41837899905, -60703.761661501136, -47283.57312483468, -22354.203147197146, 187500.0, -49623.48784488295, -8638.032810453513, -35763.886363969614, -76052.23519232693, -34516.25669196328, -19577.557692236627, -64496.33860544427, -56039.15375937865, -105626.05179858826, 0.126, 1.012, 0.014, 192.0, 0.0, 0.0, 0.0, 0.0, 0.0, 0.0, 0.0, 0.0, 0.0, 1.695341174718812E9, 0.0, 2023-09-21 19:06:14.718
118.0, 21003.06254661829, 53592.710625256375, -77075.11807383515, -60707.33794061398, -47291.21742143839, -22355.678362331197, 187500.0, -49626.93001352907, -8631.237880139099, -35762.008817435366, -76046.200221324, -34509.707630837875, -19560.05627632812, -64494.72927984349, -56022.88168941518, -105592.90416156103, 0.126, 1.012, 0.014, 192.0, 0.0, 0.0, 0.0, 0.0, 0.0, 0.0, 0.0, 0.0, 0.0, 1.695341174718818E9, 0.0, 2023-09-21 19:06:14.718
120.0, 20940.701179587984, 53522.6826098779, -77061.61762018414, -60695.44681256376, -47284.69071205744, -22351.029199484492, 187500.0, -49617.3634669022, -8627.99687719308, -35755.10212839868, -76042.57923872223, -34505.12552322454, -19569.891043888456, -64491.30946294183, -56033.65523024264, -105628.3316765227, 0.126, 1.012, 0.014, 192.0, 0.0, 0.0, 0.0, 0.0, 0.0, 0.0, 0.0, 0.0, 0.0, 1.695341174779001E9, 0.0, 2023-09-21 19:06:14.779
122.0, 21013.903142679115, 53592.934142700935, -77054.91209684755, -60693.546914285056, -47279.2592381548, -22346.402388382245, 187500.0, -49609.987391231945, -8615.189327620188, -35755.146831887585, -76035.62784619664, -34500.766933055755, -19544.231241253765, -64488.58255011828, -56009.71651193101, -105604.43766169998, 0.124, 1.01, 0.012, 192.0, 1.5, 112.0, 15.5, 72.0, 0.0, 48.0, 0.0, 0.0, 0.0, 1.695341174779016E9, 0.0, 2023-09-21 19:06:14.779
124.0, 20953.039342527314, 53517.18408074189, -77051.42522471253, -60694.88801895238, -47278.11929918758, -22349.017542483514, 187500.0, -49609.272135409374, -8612.440063052185, -35747.256666094865, -76027.8941426151, -34499.44818013289, -19550.48972970125, -64477.943119757554, -56009.98473286447, -105637.74176093838, 0.124, 1.01, 0.012, 192.0, 0.0, 0.0, 0.0, 0.0, 0.0, 0.0, 0.0, 0.0, 0.0, 1.695341174779022E9, 0.0, 2023-09-21 19:06:14.779
126.0, 21044.77090177189, 53606.18872716293, -77081.35421053818, -60723.27473441062, -47297.095930230134, -22364.261432202034, 187500.0, -49641.59275789175, -8629.248574882577, -35767.46264308246, -76049.75414869239, -34519.54239839821, -19555.138892547955, -64505.74868985995, -56014.83506141127, -105604.25884774434, 0.124, 1.01, 0.012, 192.0, 0.0, 0.0, 0.0, 0.0, 0.0, 0.0, 0.0, 0.0, 0.0, 1.695341174779028E9, 0.0, 2023-09-21 19:06:14.779
128.0, 20953.73224660543, 53521.006229043756, -77058.84600387169, -60701.794707989066, -47293.45259588392, -22358.695847832663, 187500.0, -49619.39747564763, -8631.260231883554, -35755.92914294352, -76048.32363704726, -34517.68720360842, -19573.802599168135, -64491.19770421955, -56032.00120115295, -105604.23649599988, 0.124, 1.01, 0.012, 192.0, 0.0, 0.0, 0.0, 0.0, 0.0, 0.0, 0.0, 0.0, 0.0, 1.695341174779034E9, 0.0, 2023-09-21 19:06:14.779
130.0, 21032.276276621375, 53598.11974741456, -77073.93343137902, -60721.844222765474, -47284.78011903526, -22351.029199484492, 187500.0, -49634.26138571041, -8617.826833465915, -35752.419919064036, -76041.39459626611, -34512.12161923905, -19549.103921545022, -64455.25609913542, -56014.030398610885, -105605.84582160065, 0.124, 1.01, 0.012, 192.0, 0.0, 0.0, 0.0, 0.0, 0.0, 0.0, 0.0, 0.0, 0.0, 1.695341174779039E9, 0.0, 2023-09-21 19:06:14.779
132.0, 20944.880955801127, 53520.40273194346, -77053.66039915805, -60709.84133599298, -47291.88797377205, -22366.586013625387, 187500.0, -49616.64821107963, -8627.549842303973, -35765.22746863693, -76047.42956726904, -34523.141029255516, -19572.908529389922, -64476.28909066786, -56037.924413433604, -105604.34825472215, 0.11800000000000001, 1.008, 0.012, 192.0, 1.5, 88.0, 15.5, 64.0, 0.0, 48.0, 0.0, 0.0, 0.0, 1.695341174779045E9, 0.0, 2023-09-21 19:06:14.779
134.0, 21018.775822970372, 53586.25097110879, -77044.40677695356, -60725.5322606006, -47252.146572130514, -22344.03310346998, 187500.0, -49619.218661691986, -8593.329321542898, -35754.76685223184, -76013.56667441926, -34506.62309010304, -19528.808537579604, -64416.0511393608, -56007.12370957419, -105631.61738295763, 0.11800000000000001, 1.008, 0.012, 192.0, 0.0, 0.0, 0.0, 0.0, 0.0, 0.0, 0.0, 0.0, 0.0, 1.695341174838494E9, 0.0, 2023-09-21 19:06:14.838
136.0, 20958.135540263123, 53527.622345402524, -77054.15213753608, -60751.95202254678, -47281.40500562251, -22378.47714167561, 187500.0, -49631.087437997754, -8618.832661966404, -35789.680277071035, -76030.53164846083, -34545.716291155375, -19552.568441935593, -64405.27759853335, -56024.73688420498, -105616.50760370585, 0.11800000000000001, 1.008, 0.012, 192.0, 0.0, 0.0, 0.0, 0.0, 0.0, 0.0, 0.0, 0.0, 0.0, 1.695341174838513E9, 0.0, 2023-09-21 19:06:14.838
138.0, 21041.30638138132, 53601.18193640494, -77066.91498362005, -60772.336813490016, -47267.79279324923, -22365.289612446977, 187500.0, -49648.47709518398, -8625.001743436069, -35809.14864649161, -76034.10792757368, -34564.29059079773, -19543.44893019783, -64394.83933387272, -56023.887517915675, -105621.44733923046, 0.11800000000000001, 1.008, 0.012, 192.0, 0.0, 0.0, 0.0, 0.0, 0.0, 0.0, 0.0, 0.0, 0.0, 1.695341174838519E9, 0.0, 2023-09-21 19:06:14.838
140.0, 20968.439694457018, 53542.55331069867, -77042.66334088604, -60751.30382195757, -47282.58964807864, -22375.66082187424, 187500.0, -49627.712324585, -8631.975487706124, -35811.47322791496, -76030.88927637211, -34575.13118685856, -19555.87650011498, -64386.94916808, -56042.14889313566, -105585.63984461306, 0.11800000000000001, 1.008, 0.012, 192.0, 0.0, 0.0, 0.0, 0.0, 0.0, 0.0, 0.0, 0.0, 0.0, 1.695341174838525E9, 0.0, 2023-09-21 19:06:14.838
142.0, 21035.092596422746, 53602.7018550279, -77066.6914661755, -60777.41065948137, -47265.06588042568, -22366.80953106994, 187500.0, -49649.50527542893, -8619.458510811151, -35808.03105926884, -76019.98162507793, -34572.65014322402, -19534.44117718234, -64379.997775554395, -56020.13242484718, -105618.45220547346, 0.11800000000000001, 1.008, 0.014, 192.0, 1.5, 88.0, 15.5, 64.0, 0.0, 56.0, 0.0, 0.0, 0.0, 1.69534117483853E9, 0.0, 2023-09-21 19:06:14.838
144.0, 20976.73219164994, 53561.529941741224, -77053.74980613588, -60761.69738312929, -47294.48077612886, -22381.315813221434, 187500.0, -49633.322612443284, -8638.23397615361, -35824.23607399894, -76033.77265140685, -34592.23027136687, -19556.547052448637, -64392.6488629161, -56052.29658511837, -105574.95571076343, 0.11800000000000001, 1.008, 0.014, 192.0, 0.0, 0.0, 0.0, 0.0, 0.0, 0.0, 0.0, 0.0, 0.0, 1.695341174838535E9, 0.0, 2023-09-21 19:06:14.838
146.0, 21017.747642725426, 53596.17514564695, -77063.85279462967, -60765.51953143115, -47263.38949959153, -22361.53451937849, 187500.0, -49642.19625499204, -8621.51487130104, -35804.56653887827, -76016.83002910973, -34574.103006613615, -19538.688008628847, -64372.71110686196, -56031.97884940849, -105617.89341186207, 0.11800000000000001, 1.008, 0.014, 192.0, 0.0, 0.0, 0.0, 0.0, 0.0, 0.0, 0.0, 0.0, 0.0, 1.69534117483854E9, 0.0, 2023-09-21 19:06:14.838
148.0, 20979.079124817745, 53583.278189096236, -77075.5427569798, -60762.03265929612, -47302.16977622149, -22387.306080735456, 187500.0, -49645.95134806053, -8645.163016934755, -35822.62674839816, -76036.00782585237, -34593.79489347874, -19558.53635770516, -64401.63426418713, -56054.28589037489, -105568.45135312693, 0.11800000000000001, 1.008, 0.014, 192.0, 0.0, 0.0, 0.0, 0.0, 0.0, 0.0, 0.0, 0.0, 0.0, 1.695341174838545E9, 0.0, 2023-09-21 19:06:14.838
150.0, 20995.462953503484, 53593.53763980122, -77063.56222195175, -60742.69840034228, -47268.75391826081, -22363.724990335108, 187500.0, -49629.18753971905, -8640.066819198944, -35801.906681288085, -76023.4908489574, -34577.50047177082, -19555.34005824805, -64406.73046192295, -56043.02061116941, -105600.5261064203, 0.11800000000000001, 1.008, 0.014, 192.0, 0.0, 0.0, 0.0, 0.0, 0.0, 0.0, 0.0, 0.0, 0.0, 1.695341174898248E9, 0.0, 2023-09-21 19:06:14.898
152.0, 20973.312374748275, 53589.44727056591, -77069.86541388815, -60736.529318872614, -47297.14063371905, -22382.4334004442, 187500.0, -49621.945574515536, -8637.406961608764, -35799.91737603157, -76021.25567451188, -34569.09621585563, -19552.702552402327, -64428.94809591152, -56040.91954719061, -105563.53396934677, 0.12, 1.01, 0.01, 192.0, 1.5, 96.0, 15.5, 72.0, 0.0, 40.0, 0.0, 0.0, 0.0, 1.695341174898262E9, 0.0, 2023-09-21 19:06:14.898
154.0, 20977.894482361615, 53580.88655243952, -77070.20069005497, -60723.72176929972, -47267.41281359349, -22362.070961245416, 187500.0, -49617.452873880015, -8623.727694002115, -35775.88925074211, -76002.88254056961, -34538.49667769631, -19545.862918599, -64436.16770937058, -56026.882651672684, -105620.70973166345, 0.12, 1.01, 0.01, 192.0, 0.0, 0.0, 0.0, 0.0, 0.0, 0.0, 0.0, 0.0, 0.0, 1.695341174898267E9, 0.0, 2023-09-21 19:06:14.898
156.0, 20980.26376727388, 53603.350055617106, -77070.62537319963, -60708.857859236945, -47295.33014241817, -22376.28667071899, 187500.0, -49618.659868080606, -8637.317554630943, -35782.684181056524, -76013.52197093033, -34536.283854995236, -19552.501386702228, -64471.10348595423, -56036.248032599455, -105567.51257985982, 0.12, 1.01, 0.01, 192.0, 0.0, 0.0, 0.0, 0.0, 0.0, 0.0, 0.0, 0.0, 0.0, 1.69534117489827E9, 0.0, 2023-09-21 19:06:14.898
158.0, 20952.122921004644, 53569.55421800068, -77066.19972779749, -60701.63824577788, -47272.79958400722, -22355.90187977575, 187500.0, -49615.32945815676, -8623.906507957758, -35762.36644534665, -75994.4335811655, -34510.065258749164, -19553.283697758165, -64465.00145971793, -56029.65426798514, -105630.34333352368, 0.12, 1.01, 0.01, 192.0, 0.0, 0.0, 0.0, 0.0, 0.0, 0.0, 0.0, 0.0, 0.0, 1.695341174898299E9, 0.0, 2023-09-21 19:06:14.898
160.0, 20977.872130617157, 53614.03418946674, -77074.73809417941, -60703.13581265639, -47298.012351752805, -22371.503397405555, 187500.0, -49619.419827392085, -8628.734484760105, -35775.12929143063, -76004.7377353594, -34513.350965184094, -19556.05531407062, -64489.409564663125, -56026.45796852803, -105583.13644923407, 0.12, 1.01, 0.01, 192.0, 0.0, 0.0, 0.0, 0.0, 0.0, 0.0, 0.0, 0.0, 0.0, 1.695341174898304E9, 0.0, 2023-09-21 19:06:14.898
162.0, 20938.95774352047, 53568.32487205564, -77067.67494293154, -60692.74225148467, -47278.45457535441, -22359.03112399949, 187500.0, -49608.73569354245, -8625.046446924978, -35757.76198598886, -75994.61239512115, -34495.71543880885, -19562.894947873945, -64483.66516633811, -56028.38021855119, -105621.44733923046, 0.116, 1.006, 0.016, 192.0, 1.5, 80.0, 15.5, 56.0, 0.0, 64.0, 0.0, 0.0, 0.0, 1.695341174898308E9, 0.0, 2023-09-21 19:06:14.898
164.0, 20983.97415685346, 53629.2557274408, -77082.85177741668, -60708.45552783675, -47301.94625877694, -22376.823112585917, 187500.0, -49623.398437905125, -8633.808330751459, -35771.642419295604, -76004.2907004703, -34499.0458487327, -19561.375029250983, -64495.51159089943, -56025.56389874982, -105577.23558869786, 0.116, 1.006, 0.016, 192.0, 0.0, 0.0, 0.0, 0.0, 0.0, 0.0, 0.0, 0.0, 0.0, 1.695341174958517E9, 0.0, 2023-09-21 19:06:14.958
166.0, 20926.28430441431, 53569.35305230058, -77068.45725398746, -60696.743213742164, -47283.036682967744, -22368.396504926266, 187500.0, -49616.51410061289, -8633.026019695524, -35764.735730258915, -76003.10605801416, -34496.78832254271, -19576.373049780494, -64491.66709085311, -56038.75142797845, -105610.07030130271, 0.116, 1.006, 0.016, 192.0, 0.0, 0.0, 0.0, 0.0, 0.0, 0.0, 0.0, 0.0, 0.0, 1.695341174958531E9, 0.0, 2023-09-21 19:06:14.958
168.0, 20996.580540726252, 53640.09632350163, -77079.81194017077, -60707.047367936066, -47296.29126742975, -22370.51992064952, 187500.0, -49624.1136937277, -8628.510967315551, -35766.970904704445, -76003.441334181, -34491.893290506996, -19556.63645942646, -64500.29486421286, -56025.966230150014, -105576.09564973065, 0.116, 1.006, 0.016, 192.0, 0.0, 0.0, 0.0, 0.0, 0.0, 0.0, 0.0, 0.0, 0.0, 1.695341174958534E9, 0.0, 2023-09-21 19:06:14.958
170.0, 20921.210458422956, 53557.70779343937, -77053.30277124677, -60683.421574046806, -47280.86856375558, -22362.89797579026, 187500.0, -49599.839699249234, -8625.09115041389, -35757.382006333115, -75999.93211030151, -34484.94189798139, -19567.74527642075, -64493.49993389845, -56033.02938139789, -105599.83320234218, 0.116, 1.006, 0.016, 192.0, 0.0, 0.0, 0.0, 0.0, 0.0, 0.0, 0.0, 0.0, 0.0, 1.695341174958537E9, 0.0, 2023-09-21 19:06:14.958
172.0, 20987.01399409938, 53627.3558291621, -77071.98882961141, -60701.794707989066, -47290.90449701602, -22364.529653135498, 187500.0, -49615.709437812504, -8616.910411943247, -35762.008817435366, -75999.01568877885, -34481.36561886855, -19544.43240695386, -64493.63404436518, -56014.857413155725, -105593.59706563916, 0.11800000000000001, 1.002, 0.014, 192.0, 1.5, 88.0, 15.5, 40.0, 0.0, 56.0, 0.0, 0.0, 0.0, 1.695341174958541E9, 0.0, 2023-09-21 19:06:14.958
174.0, 20911.509801329354, 53548.387116001504, -77068.07727433172, -60697.77139398711, -47288.7587295483, -22362.026257756504, 187500.0, -49611.55201334382, -8621.827795723415, -35761.13709940161, -76002.72607835842, -34482.59496481359, -19565.10777057502, -64492.829381564785, -56027.3743900507, -105616.9322868505, 0.11800000000000001, 1.002, 0.014, 192.0, 0.0, 0.0, 0.0, 0.0, 0.0, 0.0, 0.0, 0.0, 0.0, 1.695341174958544E9, 0.0, 2023-09-21 19:06:14.958
176.0, 20994.725345936462, 53628.94280301843, -77078.76140818137, -60704.655731279345, -47295.151328462525, -22368.798836326463, 187500.0, -49614.211870934, -8640.469150599141, -35782.17009093405, -76022.08268905673, -34495.6930870644, -19566.359468264516, -64516.20930626504, -56035.51042503243, -105582.33178643367, 0.11800000000000001, 1.002, 0.014, 192.0, 0.0, 0.0, 0.0, 0.0, 0.0, 0.0, 0.0, 0.0, 0.0, 1.695341174958547E9, 0.0, 2023-09-21 19:06:14.958
178.0, 20922.0374729678, 53552.231616047815, -77079.72253319294, -60708.52258307012, -47307.9141745465, -22388.20015051367, 187500.0, -49624.381914661164, -8631.506101072562, -35770.01074195036, -76012.65025289658, -34485.791264270694, -19578.02707887019, -64509.39202420617, -56041.70185824655, -105592.21125748292, 0.11800000000000001, 1.002, 0.014, 192.0, 0.0, 0.0, 0.0, 0.0, 0.0, 0.0, 0.0, 0.0, 0.0, 1.69534117495855E9, 0.0, 2023-09-21 19:06:14.958
180.0, 20996.62524421516, 53627.534643117746, -77074.91690813506, -60705.505097568646, -47292.78204355026, -22375.325545707412, 187500.0, -49616.827025035265, -8625.001743436069, -35771.731826273426, -76010.86211334016, -34482.75142702478, -19568.505235732227, -64514.97996031999, -56036.09157038827, -105583.0693940007, 0.11800000000000001, 1.002, 0.014, 192.0, 0.0, 0.0, 0.0, 0.0, 0.0, 0.0, 0.0, 0.0, 0.0, 1.695341175018796E9, 0.0, 2023-09-21 19:06:15.018
182.0, 20916.002501964867, 53558.8924358955, -77072.32410577823, -60704.521620812615, -47306.03662801226, -22385.3838307123, 187500.0, -49623.53254837186, -8624.37589459132, -35760.01951217884, -76008.06814528325, -34476.80586299967, -19580.68693646037, -64504.18406774808, -56041.16541637963, -105582.04121375576, 0.116, 1.012, 0.012, 192.0, 1.5, 80.0, 15.5, 80.0, 0.0, 48.0, 0.0, 0.0, 0.0, 1.695341175018809E9, 0.0, 2023-09-21 19:06:15.018
184.0, 20983.013031841878, 53623.690143071435, -77068.03257084281, -60703.69460626777, -47278.96866547688, -22356.684190831686, 187500.0, -49627.175882718075, -8619.346752088875, -35765.83096573722, -76006.23530223791, -34473.54250830919, -19562.313802518107, -64501.501858413445, -56023.01579988191, -105583.58348412317, 0.116, 1.012, 0.012, 192.0, 0.0, 0.0, 0.0, 0.0, 0.0, 0.0, 0.0, 0.0, 0.0, 1.695341175018812E9, 0.0, 2023-09-21 19:06:15.018
186.0, 20904.42429833702, 53552.43278174791, -77051.55933517925, -60687.53429502658, -47293.162023206, -22366.921289792215, 187500.0, -49609.47330110947, -8620.531394545007, -35756.80086097728, -76004.00012779237, -34469.42978732941, -19569.309898532618, -64497.50089615594, -56031.934145919586, -105567.19965543743, 0.116, 1.012, 0.012, 192.0, 0.0, 0.0, 0.0, 0.0, 0.0, 0.0, 0.0, 0.0, 0.0, 1.695341175018815E9, 0.0, 2023-09-21 19:06:15.018
188.0, 20977.469799216964, 53615.19648017842, -77071.60884995566, -60708.0308446921, -47281.89674400053, -22361.95920252314, 187500.0, -49628.58404261876, -8619.65967651125, -35767.95438146048, -76005.83297083771, -34468.62512452902, -19559.273965272187, -64499.60196013474, -56025.11686386071, -105589.52904814828, 0.116, 1.012, 0.012, 192.0, 0.0, 0.0, 0.0, 0.0, 0.0, 0.0, 0.0, 0.0, 0.0, 1.695341175018819E9, 0.0, 2023-09-21 19:06:15.018
190.0, 20913.789679263795, 53563.72041269785, -77071.5417947223, -60707.874382480906, -47301.52157563229, -22376.599595141364, 187500.0, -49627.2652896959, -8619.74908348907, -35769.407244850074, -76009.69982262848, -34474.79420599869, -19573.623785212494, -64498.774945589896, -56036.15862562163, -105565.25505366983, 0.116, 1.012, 0.012, 192.0, 0.0, 0.0, 0.0, 0.0, 0.0, 0.0, 0.0, 0.0, 0.0, 1.695341175018822E9, 0.0, 2023-09-21 19:06:15.018
192.0, 20969.646688657605, 53614.01183772228, -77086.47276001844, -60723.98999023319, -47290.74803480483, -22373.649164873263, 187500.0, -49644.3196707153, -8626.454606825662, -35781.11955894465, -76022.90970360157, -34485.88067124852, -19575.948366635843, -64521.283152256394, -56044.31701234782, -105579.9177980325, 0.116, 1.016, 0.008, 192.0, 1.5, 80.0, 15.5, 96.0, 0.0, 32.0, 0.0, 0.0, 0.0, 1.695341175018825E9, 0.0, 2023-09-21 19:06:15.018
194.0, 20914.95196997547, 53571.320005812646, -77065.8420998862, -60702.15233590035, -47308.137691991054, -22389.85417960336, 187500.0, -49623.398437905125, -8633.584813306907, -35784.002933979384, -76031.0904420722, -34489.56870908364, -19584.129105106487, -64527.47458547051, -56054.82233224182, -105539.52819580176, 0.116, 1.016, 0.008, 192.0, 0.0, 0.0, 0.0, 0.0, 0.0, 0.0, 0.0, 0.0, 0.0, 1.695341175079018E9, 0.0, 2023-09-21 19:06:15.079
196.0, 20959.878976330638, 53601.6513230385, -77080.05780935977, -60718.82673726401, -47283.64018006804, -22376.28667071899, 187500.0, -49638.999955534935, -8611.70245548516, -35769.2954861278, -76011.66677614056, -34473.229583886816, -19562.045581584644, -64514.55527717534, -56027.240279583966, -105588.00912952532, 0.116, 1.016, 0.008, 192.0, 0.0, 0.0, 0.0, 0.0, 0.0, 0.0, 0.0, 0.0, 0.0, 1.695341175079032E9, 0.0, 2023-09-21 19:06:15.079
198.0, 20931.67107482804, 53595.012854935274, -77092.77595195484, -60729.466167624734, -47332.545796936254, -22410.596598457887, 187500.0, -49650.26523474041, -8635.730580774616, -35793.92710851754, -76039.42764275405, -34500.18578769991, -19580.39636378245, -64537.778739664405, -56056.118733420226, -105518.76342520278, 0.116, 1.016, 0.008, 192.0, 0.0, 0.0, 0.0, 0.0, 0.0, 0.0, 0.0, 0.0, 0.0, 1.695341175079035E9, 0.0, 2023-09-21 19:06:15.079
200.0, 20941.908173788568, 53589.87195371056, -77088.66323097507, -60727.8344902795, -47300.85102329863, -22390.345917981376, 187500.0, -49640.69868811354, -8633.026019695524, -35788.71915205946, -76038.37711076465, -34500.20813944437, -19589.627634242494, -64538.985733864996, -56061.52785557841, -105555.75556227632, 0.116, 1.016, 0.008, 192.0, 0.0, 0.0, 0.0, 0.0, 0.0, 0.0, 0.0, 0.0, 0.0, 1.695341175079039E9, 0.0, 2023-09-21 19:06:15.079
202.0, 20940.09768248769, 53595.05755842419, -77091.94893741, -60728.773263546624, -47319.2688607298, -22405.254531533068, 187500.0, -49642.710345114516, -8627.37102834833, -35785.88048051363, -76036.38780550811, -34496.31893590915, -19578.183541081376, -64528.078082570806, -56060.18675091109, -105514.98598038984, 0.12, 1.014, 0.01, 192.0, 1.5, 96.0, 15.5, 88.0, 0.0, 40.0, 0.0, 0.0, 0.0, 1.695341175079042E9, 0.0, 2023-09-21 19:06:15.079
204.0, 20929.391196893597, 53568.54838950019, -77079.34255353721, -60712.63530404989, -47282.67905505646, -22378.745362609072, 187500.0, -49623.64430709414, -8626.342848103386, -35777.81150076527, -76030.53164846083, -34487.46764510484, -19577.937671892367, -64529.173318049114, -56049.2790996169, -105555.33087913167, 0.12, 1.014, 0.01, 192.0, 0.0, 0.0, 0.0, 0.0, 0.0, 0.0, 0.0, 0.0, 0.0, 1.695341175079045E9, 0.0, 2023-09-21 19:06:15.079
206.0, 20945.015066267857, 53588.664959509966, -77074.17930056802, -60702.86759172292, -47302.058017499214, -22374.923214307215, 187500.0, -49621.29737392633, -8614.831699708904, -35775.44221585301, -76024.83195362473, -34484.58427007011, -19564.280756030174, -64518.3774254772, -56040.04782915686, -105525.17837586146, 0.12, 1.014, 0.01, 192.0, 0.0, 0.0, 0.0, 0.0, 0.0, 0.0, 0.0, 0.0, 0.0, 1.695341175079048E9, 0.0, 2023-09-21 19:06:15.079
208.0, 20927.960685248458, 53553.25979629276, -77076.07919884672, -60706.600333046954, -47279.95214223291, -22370.028182271504, 187500.0, -49626.10299898422, -8605.511022271041, -35768.62493379413, -76017.67939539903, -34478.14696766698, -19560.190386794853, -64509.05674803934, -56035.44336979907, -105571.93822526195, 0.12, 1.014, 0.01, 192.0, 0.0, 0.0, 0.0, 0.0, 0.0, 0.0, 0.0, 0.0, 0.0, 1.695341175079051E9, 0.0, 2023-09-21 19:06:15.079
210.0, 20970.496054946907, 53599.88553522653, -77082.53885299432, -60711.11538542693, -47303.2650116998, -22383.774505111516, 187500.0, -49621.230318692964, -8617.84918521037, -35785.478149113434, -76030.50929671638, -34493.994354485796, -19560.860939128514, -64532.05669308385, -56041.09836114626, -105517.60113449111, 0.12, 1.014, 0.01, 192.0, 0.0, 0.0, 0.0, 0.0, 0.0, 0.0, 0.0, 0.0, 0.0, 1.695341175139487E9, 0.0, 2023-09-21 19:06:15.139
212.0, 20935.984961507915, 53552.34337477009, -77089.15496935308, -60720.190193675786, -47297.99000000835, -22387.61900515783, 187500.0, -49632.137969987154, -8618.162109632744, -35772.98352396292, -76023.73671814642, -34491.2897934067, -19569.82398865509, -64517.46100395454, -56041.16541637963, -105549.72059127339, 0.126, 1.014, 0.01, 192.0, 1.5, 120.0, 15.5, 88.0, 0.0, 40.0, 0.0, 0.0, 0.0, 1.695341175139505E9, 0.0, 2023-09-21 19:06:15.139
214.0, 20985.76229640988, 53612.022532465766, -77096.46398978996, -60726.51573735663, -47317.19014849546, -22399.24191227459, 187500.0, -49641.68216486957, -8634.098903429378, -35795.759951562875, -76041.86398289967, -34509.707630837875, -19575.09900034654, -64546.13829209069, -56054.42000084162, -105493.59536094611, 0.126, 1.014, 0.01, 192.0, 0.0, 0.0, 0.0, 0.0, 0.0, 0.0, 0.0, 0.0, 0.0, 1.695341175139509E9, 0.0, 2023-09-21 19:06:15.139
216.0, 20923.691502057496, 53544.92259561093, -77092.86535893266, -60722.134795443395, -47305.209613467414, -22392.96107208265, 187500.0, -49638.39645843464, -8625.113502158345, -35776.38098912012, -76025.43545072502, -34493.65907831897, -19579.189369581865, -64526.7816813924, -56053.79415199687, -105527.99469566283, 0.126, 1.014, 0.01, 192.0, 0.0, 0.0, 0.0, 0.0, 0.0, 0.0, 0.0, 0.0, 0.0, 1.695341175139512E9, 0.0, 2023-09-21 19:06:15.139
218.0, 20989.29387203382, 53622.23727968184, -77098.2968328353, -60724.70524605575, -47314.68675311646, -22392.268168004535, 187500.0, -49642.68799337006, -8635.015324952046, -35796.050524240796, -76036.45486074149, -34503.65030809049, -19575.791904424656, -64535.78943440789, -56056.90104447616, -105484.87818060855, 0.126, 1.014, 0.01, 192.0, 0.0, 0.0, 0.0, 0.0, 0.0, 0.0, 0.0, 0.0, 0.0, 1.695341175139515E9, 0.0, 2023-09-21 19:06:15.139
220.0, 20912.47092634093, 53544.16263629945, -77090.31726006475, -60716.56921107403, -47312.004543781826, -22388.647185402773, 187500.0, -49634.2166822215, -8633.204833651165, -35783.35473339018, -76032.45389848399, -34500.409305144465, -19585.894892918455, -64530.380312249705, -56062.86896024573, -105501.7984511612, 0.126, 1.014, 0.01, 192.0, 0.0, 0.0, 0.0, 0.0, 0.0, 0.0, 0.0, 0.0, 0.0, 1.695341175139518E9, 0.0, 2023-09-21 19:06:15.139
222.0, 20988.422154000065, 53614.83885226713, -77096.57574851224, -60719.18436517529, -47305.99192452335, -22379.505321920555, 187500.0, -49638.30705145682, -8626.991048692591, -35782.9971054789, -76030.17402054954, -34498.174130698935, -19570.896872388945, -64524.01006507994, -56045.72517224851, -105481.9948055738, 0.126, 1.006, 0.014, 192.0, 1.5, 120.0, 15.5, 56.0, 0.0, 56.0, 0.0, 0.0, 0.0, 1.695341175139522E9, 0.0, 2023-09-21 19:06:15.139
224.0, 20910.12399317312, 53531.466845448835, -77083.5446814948, -60704.812193490536, -47313.50211066033, -22385.674403390218, 187500.0, -49622.48201638246, -8635.194138907687, -35779.55493683278, -76034.24203804041, -34500.431656888926, -19590.11937262051, -64522.5795534348, -56062.60073931226, -105488.23094227683, 0.126, 1.006, 0.014, 192.0, 0.0, 0.0, 0.0, 0.0, 0.0, 0.0, 0.0, 0.0, 0.0, 1.695341175139525E9, 0.0, 2023-09-21 19:06:15.139
226.0, 20997.385203526643, 53613.27423015526, -77099.5485305248, -60724.4817286112, -47305.3660756786, -22383.03689754449, 187500.0, -49642.576234647786, -8623.213603879643, -35777.27505889834, -76025.90483735858, -34492.47443586283, -19564.280756030174, -64514.42116670861, -56042.059486157836, -105478.50793343877, 0.126, 1.006, 0.014, 192.0, 0.0, 0.0, 0.0, 0.0, 0.0, 0.0, 0.0, 0.0, 0.0, 1.695341175199932E9, 0.0, 2023-09-21 19:06:15.199
228.0, 20918.70706304396, 53537.16654028494, -77089.98198389793, -60717.798557019065, -47315.424360683486, -22389.764772625538, 187500.0, -49632.853225809726, -8632.80250225097, -35776.403340864585, -76032.5433054618, -34501.16926445595, -19589.135895864474, -64522.66896041262, -56057.83981774328, -105461.61001463057, 0.126, 1.006, 0.014, 192.0, 0.0, 0.0, 0.0, 0.0, 0.0, 0.0, 0.0, 0.0, 0.0, 1.695341175199942E9, 0.0, 2023-09-21 19:06:15.199
230.0, 20994.367718025176, 53603.99825620631, -77092.10539962118, -60722.06774021003, -47297.18533720796, -22375.90669106325, 187500.0, -49635.51308339991, -8633.271888884532, -35782.483015356425, -76036.16428806356, -34501.23631968931, -19572.193273567354, -64521.19374527857, -56043.445294314064, -105458.77134308474, 0.126, 1.006, 0.014, 192.0, 0.0, 0.0, 0.0, 0.0, 0.0, 0.0, 0.0, 0.0, 0.0, 1.695341175199946E9, 0.0, 2023-09-21 19:06:15.199
232.0, 20914.549638575274, 53528.82933960311, -77071.63120170012, -60707.56145805854, -47299.37580816458, -22385.540292923488, 187500.0, -49623.51019662741, -8633.070723184434, -35774.235221652416, -76033.1468025621, -34493.12263645204, -19576.35069803604, -64514.17529751961, -56050.731963006496, -105447.26019469026, 0.126, 1.006, 0.006, 192.0, 1.5, 120.0, 15.5, 56.0, 0.0, 24.0, 0.0, 0.0, 0.0, 1.695341175199949E9, 0.0, 2023-09-21 19:06:15.199
234.0, 21004.44835477452, 53598.857354981585, -77099.45912354699, -60737.49044388419, -47295.88893602955, -22385.920272579227, 187500.0, -49658.423621466594, -8628.823891737926, -35779.30906764377, -76033.70559617349, -34491.64742131799, -19565.890081630958, -64522.981884835, -56033.454064542544, -105450.83647380311, 0.126, 1.006, 0.006, 192.0, 0.0, 0.0, 0.0, 0.0, 0.0, 0.0, 0.0, 0.0, 0.0, 1.695341175199952E9, 0.0, 2023-09-21 19:06:15.199
236.0, 20931.782833550315, 53539.89345310849, -77097.11219037916, -60735.72465607222, -47331.65172715804, -22410.686005435706, 187500.0, -49653.461534197515, -8652.181464693722, -35798.419809153056, -76057.37609355165, -34517.70955535288, -19603.329253593594, -64545.31127754585, -56069.06039345985, -105405.03774941419, 0.126, 1.006, 0.006, 192.0, 0.0, 0.0, 0.0, 0.0, 0.0, 0.0, 0.0, 0.0, 0.0, 1.695341175199956E9, 0.0, 2023-09-21 19:06:15.199
238.0, 20986.96929061047, 53587.815593220665, -77099.83910320271, -60742.43017940882, -47299.688732586954, -22394.793915127982, 187500.0, -49654.19914176454, -8629.94147896069, -35787.020419480854, -76039.6958636875, -34502.77859005673, -19579.92697714889, -64531.81082389484, -56048.58619553879, -105429.28939214819, 0.126, 1.006, 0.006, 192.0, 0.0, 0.0, 0.0, 0.0, 0.0, 0.0, 0.0, 0.0, 0.0, 1.695341175199959E9, 0.0, 2023-09-21 19:06:15.199
240.0, 20930.95581900547, 53546.10723806706, -77108.95861494048, -60753.248423725185, -47333.50692194783, -22414.91048513776, 187500.0, -49660.59174067876, -8643.352525633874, -35796.07287598525, -76053.1516138496, -34517.50838965278, -19593.315672077617, -64543.12080658923, -56066.26642540294, -105387.84925792806, 0.126, 1.006, 0.006, 192.0, 0.0, 0.0, 0.0, 0.0, 0.0, 0.0, 0.0, 0.0, 0.0, 1.695341175259373E9, 0.0, 2023-09-21 19:06:15.259
242.0, 20963.231737998933, 53572.61640699106, -77089.445542031, -60732.6848188263, -47291.84327028314, -22380.712316121142, 187500.0, -49643.02326953689, -8636.669354041738, -35785.478149113434, -76047.89895390261, -34508.72415408184, -19585.96194815182, -64533.666018684635, -56061.30433813386, -105410.29040936119, 0.12, 1.01, 0.008, 192.0, 1.5, 96.0, 15.5, 72.0, 0.0, 32.0, 0.0, 0.0, 0.0, 1.695341175259387E9, 0.0, 2023-09-21 19:06:15.259
244.0, 20924.94319974699, 53547.42599098993, -77087.38918154112, -60729.66733332483, -47324.70033463244, -22392.178761026713, 187500.0, -49634.48490315496, -8641.05029595498, -35782.72888454543, -76050.13412834813, -34508.143008726, -19585.15728535143, -64530.60382969426, -56055.269367130924, -105371.35367052004, 0.12, 1.01, 0.008, 192.0, 0.0, 0.0, 0.0, 0.0, 0.0, 0.0, 0.0, 0.0, 0.0, 1.69534117525939E9, 0.0, 2023-09-21 19:06:15.259
246.0, 20957.80026409629, 53563.47454350883, -77095.88284443413, -60741.82668230852, -47296.335970918655, -22384.243891745078, 187500.0, -49651.718098130004, -8636.959926719657, -35788.11565495916, -76046.46844225746, -34511.98750877232, -19583.54795975065, -64529.93327736059, -56044.45112281456, -105402.73551973529, 0.12, 1.01, 0.008, 192.0, 0.0, 0.0, 0.0, 0.0, 0.0, 0.0, 0.0, 0.0, 0.0, 1.695341175259394E9, 0.0, 2023-09-21 19:06:15.259
248.0, 20934.979133007426, 53554.042107348694, -77081.46596926046, -60725.82283327852, -47315.424360683486, -22395.687984906195, 187500.0, -49638.75408634592, -8640.245633154587, -35792.831873039235, -76053.97862839444, -34520.23530247633, -19588.35358480854, -64536.54939371937, -56055.00114619746, -105348.4207807089, 0.12, 1.01, 0.008, 192.0, 0.0, 0.0, 0.0, 0.0, 0.0, 0.0, 0.0, 0.0, 0.0, 1.695341175259397E9, 0.0, 2023-09-21 19:06:15.259
250.0, 20941.349380177187, 53544.9896508443, -77085.37752454013, -60733.86946128243, -47280.98032247786, -22378.18656899769, 187500.0, -49645.79488584935, -8620.307877100453, -35775.73278853092, -76034.75612816289, -34502.577424356634, -19567.857035143024, -64522.5795534348, -56037.56678552232, -105399.38275806699, 0.12, 1.01, 0.008, 192.0, 0.0, 0.0, 0.0, 0.0, 0.0, 0.0, 0.0, 0.0, 0.0, 1.6953411752594E9, 0.0, 2023-09-21 19:06:15.259
252.0, 20934.4426911405, 53557.68544169491, -77080.95187913798, -60731.47782462571, -47314.53029090528, -22398.52665645202, 187500.0, -49643.336193959265, -8640.960888977157, -35795.201157951495, -76056.21380283998, -34525.085631023125, -19586.721907463303, -64547.25587931346, -56060.52202707792, -105338.20603349281, 0.116, 1.01, 0.01, 192.0, 1.5, 80.0, 15.5, 72.0, 0.0, 40.0, 0.0, 0.0, 0.0, 1.695341175259403E9, 0.0, 2023-09-21 19:06:15.259
254.0, 20916.89657174308, 53527.287069235696, -77068.3901987541, -60720.525469842614, -47280.5109358443, -22373.827978828907, 187500.0, -49641.32453695829, -8615.993990420578, -35768.714340771956, -76027.91649435955, -34497.95061325438, -19570.941575877856, -64514.13059403069, -56046.61924202672, -105397.68402548839, 0.116, 1.01, 0.01, 192.0, 0.0, 0.0, 0.0, 0.0, 0.0, 0.0, 0.0, 0.0, 0.0, 1.695341175259406E9, 0.0, 2023-09-21 19:06:15.259
0.0, 20941.461138899464, 53564.815648176154, -77073.73226567892, -60726.42633037882, -47304.80728206722, -22385.80851385695, 187500.0, -49641.25748172492, -8621.693685256683, -35781.5442420893, -76036.36545376366, -34509.95350002688, -19563.34198276305, -64528.972152349015, -56045.45695131504, -105345.64916439643, 0.116, 1.01, 0.01, 192.0, 0.0, 0.0, 0.0, 0.0, 0.0, 0.0, 0.0, 0.0, 0.0, 1.695341175318948E9, 0.0, 2023-09-21 19:06:15.318
2.0, 20909.162868161544, 53520.82741508811, -77073.57580346773, -60725.17463268932, -47284.26602891279, -22381.114647521335, 187500.0, -49640.49752241344, -8614.250554353066, -35772.55884081827, -76030.196372294, -34509.52881688223, -19565.666564186402, -64525.127652302705, -56045.211082126036, -105380.74140319126, 0.116, 1.01, 0.01, 192.0, 0.0, 0.0, 0.0, 0.0, 0.0, 0.0, 0.0, 0.0, 0.0, 1.695341175318959E9, 0.0, 2023-09-21 19:06:15.318
