%OpenBCI Raw EXG Data
%Number of channels = 16
%Sample Rate = 125 Hz
%Board = OpenBCI_GUI$BoardCytonSerialDaisy
Sample Index, EXG Channel 0, EXG Channel 1, EXG Channel 2, EXG Channel 3, EXG Channel 4, EXG Channel 5, EXG Channel 6, EXG Channel 7, EXG Channel 8, EXG Channel 9, EXG Channel 10, EXG Channel 11, EXG Channel 12, EXG Channel 13, EXG Channel 14, EXG Channel 15, Accel Channel 0, Accel Channel 1, Accel Channel 2, Other, Other, Other, Other, Other, Other, Other, Analog Channel 0, Analog Channel 1, Analog Channel 2, Timestamp, Other, Timestamp (Formatted)
238.0, -187500.02235174447, 20583.430896214355, -47293.13967146155, -40588.86803255892, -27984.96520340028, -11417.651047426587, -187500.02235174447, -17931.59758229227, 10865.67471810278, 16474.040326361697, -187500.02235174447, -16002.686739288181, 28156.2466211613, -5900.8828879455195, -39809.64151735801, -22089.200864935025, 0.0, 0.0, 0.0, 192.0, 0.0, 0.0, 0.0, 0.0, 0.0, 0.0, 0.0, 0.0, 0.0, 1.695680549237587E9, 0.0, 2023-09-25 17:22:29.237
240.0, -187500.02235174447, 20594.22678878627, -47330.802360868736, -40574.16058470733, -27976.44918876281, -11404.083538542216, -187500.02235174447, -17928.669503768626, 10873.631939128869, 16471.20165481587, -187500.02235174447, -16000.675082287204, 28161.454577619385, -5905.017960669752, -39810.96027028087, -22099.683833084564, 0.0, 0.0, 0.0, 192.0, 0.0, 0.0, 0.0, 0.0, 0.0, 0.0, 0.0, 0.0, 0.0, 1.695680549237612E9, 0.0, 2023-09-25 17:22:29.237
242.0, -187500.02235174447, 20592.34924225202, -47286.322389402674, -40578.72034057621, -27973.878738150448, -11404.73173913142, -187500.02235174447, -17928.893021213178, 10871.508523405615, 16487.27255907924, -187500.02235174447, -16034.336809436896, 28127.368167325043, -5892.769204708244, -39828.81931410066, -22109.22802796698, 0.0, 0.0, 0.0, 192.0, 0.0, 0.0, 0.0, 0.0, 0.0, 0.0, 0.0, 0.0, 0.0, 1.695680549237616E9, 0.0, 2023-09-25 17:22:29.237
244.0, -187500.02235174447, 20589.197646283825, -47327.96368932292, -40572.30538991754, -27970.525976482153, -11397.668587883543, -187500.02235174447, -17927.21664037903, 10860.712630833701, 16478.510675252757, -187500.02235174447, -16000.250399142553, 28167.802473044692, -5894.803213453676, -39810.20031096939, -22096.12990571617, 0.0, 0.0, 0.0, 192.0, 0.0, 0.0, 15.5, 80.0, 126.5, 112.0, 0.0, 0.0, 0.0, 1.695680549237619E9, 0.0, 2023-09-25 17:22:29.237
246.0, -187500.02235174447, 20586.873064860472, -47289.87631677107, -40583.10128248946, -27983.266470821676, -11407.905686844075, -187500.02235174447, -17935.866765483235, 10849.961441750698, 16477.057811863164, -187500.02235174447, -16028.391245411784, 28132.553772038675, -5896.770166965744, -39818.2469389733, -22095.07937372677, 0.0, 0.0, 0.0, 192.0, 0.0, 0.0, 0.0, 0.0, 0.0, 0.0, 0.0, 0.0, 0.0, 1.695680549237623E9, 0.0, 2023-09-25 17:22:29.237
248.0, -187500.02235174447, 20597.22192254328, -47326.19790151095, -40554.08871818647, -27970.123645081956, -11383.877561554618, -187500.02235174447, -17924.40032057766, 10843.032400969554, 16480.388221787005, -187500.02235174447, -15981.273768099996, 28195.988022802834, -5892.322169819137, -39778.32672337612, -22077.980289218463, 0.0, 0.0, 0.0, 192.0, 0.0, 0.0, 0.0, 0.0, 0.0, 0.0, 0.0, 0.0, 0.0, 1.695680549237626E9, 0.0, 2023-09-25 17:22:29.237
250.0, -187500.02235174447, 20598.674785932875, -47281.092081200135, -40552.43468909677, -27968.603726458994, -11380.703613841964, -187500.02235174447, -17919.862916453232, 10853.202444696719, 16491.49703878129, -187500.02235174447, -16041.399960684772, 28111.252559572764, -5881.615684225045, -39826.047697788206, -22102.790725563853, 0.0, 0.0, 0.0, 192.0, 0.0, 0.0, 0.0, 0.0, 0.0, 0.0, 0.0, 0.0, 0.0, 1.695680549237629E9, 0.0, 2023-09-25 17:22:29.237
252.0, -187500.02235174447, 20603.391004012945, -47320.20763399692, -40544.7233372597, -27965.96622061327, -11372.969910260428, -187500.02235174447, -17906.36246280223, 10851.391953395838, 16506.651521521988, -187500.02235174447, -15989.432154826183, 28178.799531316705, -5869.6575009414555, -39795.4928631178, -22087.412725378603, 0.0, 0.0, 0.0, 192.0, 0.0, 0.0, 0.0, 0.0, 0.0, 0.0, 0.0, 0.0, 0.0, 1.695680549237633E9, 0.0, 2023-09-25 17:22:29.237
254.0, -187500.02235174447, 20588.437686972346, -47285.718892302386, -40566.60569508144, -27983.244119077222, -11391.879486069618, -187500.02235174447, -17916.085471640286, 10845.781665537557, 16490.64767249199, -187500.02235174447, -16028.860632045345, 28113.778306696215, -5876.206562066861, -39817.21875872836, -22082.85296950972, 0.006, 1.012, -0.07, 192.0, 0.0, 24.0, 15.5, 80.0, 126.5, 104.0, 0.0, 0.0, 0.0, 1.695680549237636E9, 0.0, 2023-09-25 17:22:29.237
0.0, -93750.01117587223, 10272.079440603191, -23626.39738635986, -20285.92917751422, -13980.81499109447, -5704.589868139014, -93750.01117587223, -8970.090326081554, 5417.7946350329685, 8244.172721406547, -93750.01117587223, -7971.615549518532, 14119.820489862024, -2936.6839452605186, -19865.671678265535, -11016.32547573155, 0.008, 1.012, -0.054, 192.0, 0.0, 32.0, 15.5, 80.0, 127.0, 40.0, 0.0, 0.0, 0.0, 1.695680549379006E9, 0.0, 2023-09-25 17:22:29.379
2.0, -187500.02235174447, 20563.06845701557, -47289.5633923487, -40567.41035788183, -27953.82922337404, -11394.315826215246, -187500.02235174447, -17929.652980524657, 10724.277582678507, 16392.501162588735, -187500.02235174447, -16377.86076997051, 28766.02456164653, -5871.982082364808, -39071.13988055466, -21959.44898837197, 0.008, 1.012, -0.054, 192.0, 0.0, 0.0, 0.0, 0.0, 0.0, 0.0, 0.0, 0.0, 0.0, 1.695680549379017E9, 0.0, 2023-09-25 17:22:29.379
4.0, -187500.02235174447, 20583.07326830307, -47257.600397777605, -40576.239296941676, -27957.29374376461, -11402.83184085272, -187500.02235174447, -17929.205945635553, 10730.156091470253, 16411.20957269783, -187500.02235174447, -16402.000653982243, 28734.64271243128, -5878.240570812294, -39082.74043592697, -21966.19921519747, 0.008, 1.012, -0.054, 192.0, 0.0, 0.0, 0.0, 0.0, 0.0, 0.0, 0.0, 0.0, 0.0, 1.695680549379021E9, 0.0, 2023-09-25 17:22:29.379
6.0, -187500.02235174447, 20613.471640762287, -47298.36997966409, -40548.478430328185, -27939.837031345014, -11381.217703964438, -187500.02235174447, -17917.091300140775, 10738.515643896539, 16422.11722399202, -187500.02235174447, -16371.825798967577, 28777.98274493012, -5866.4835532288025, -39065.6189996742, -21966.176863453016, 0.008, 1.012, -0.054, 192.0, 0.0, 0.0, 0.0, 0.0, 0.0, 0.0, 0.0, 0.0, 0.0, 1.695680549379025E9, 0.0, 2023-09-25 17:22:29.379
8.0, -187500.02235174447, 20613.5163442512, -47248.54794127321, -40564.52698284709, -27955.57265944155, -11393.4888116704, -187500.02235174447, -17917.11365188523, 10758.296937739486, 16437.182299754895, -187500.02235174447, -16433.427206686403, 28702.120924248808, -5853.228968766805, -39119.374945089214, -21995.68116613402, 0.004, 1.01, -0.044, 192.0, 0.0, 16.0, 15.5, 72.0, 127.0, 80.0, 0.0, 0.0, 0.0, 1.695680549379029E9, 0.0, 2023-09-25 17:22:29.379
10.0, -187500.02235174447, 20630.704835737328, -47289.49633711533, -40554.82632575349, -27949.20241227179, -11388.817297079242, -187500.02235174447, -17932.916335215134, 10745.020001533032, 16430.07444501811, -187500.02235174447, -16364.539130275147, 28790.32090786945, -5853.653651911456, -39064.233191517975, -21960.745389550375, 0.004, 1.01, -0.044, 192.0, 0.0, 0.0, 0.0, 0.0, 0.0, 0.0, 0.0, 0.0, 0.0, 1.695680549379032E9, 0.0, 2023-09-25 17:22:29.379
12.0, -187500.02235174447, 20635.37635032849, -47249.82199070716, -40563.722320046705, -27954.857403618982, -11396.215724493948, -187500.02235174447, -17927.104881656753, 10761.627347663325, 16439.35041896706, -187500.02235174447, -16419.39031116847, 28716.090764533375, -5853.430134466903, -39104.39927630416, -21978.805599070263, 0.004, 1.01, -0.044, 192.0, 0.0, 0.0, 0.0, 0.0, 0.0, 0.0, 0.0, 0.0, 0.0, 1.695680549379036E9, 0.0, 2023-09-25 17:22:29.379
14.0, -187500.02235174447, 20648.02743769019, -47274.386557863545, -40554.915732731315, -27947.19075527081, -11388.459669167956, -187500.02235174447, -17918.00772166344, 10764.644833164792, 16447.464102204336, -187500.02235174447, -16354.167920847884, 28803.776658031544, -5846.7022593858555, -39059.18169727107, -21951.961153979442, 0.004, 1.01, -0.044, 192.0, 0.0, 0.0, 0.0, 0.0, 0.0, 0.0, 0.0, 0.0, 0.0, 1.695680549379039E9, 0.0, 2023-09-25 17:22:29.379
16.0, -187500.02235174447, 20647.4239405899, -47252.66066225299, -40565.48810785868, -27947.280162248633, -11394.382881448613, -187500.02235174447, -17921.87457345421, 10764.756591887068, 16435.483567176292, -187500.02235174447, -16399.34079639206, 28734.150974053264, -5858.012242080241, -39089.22244181901, -21963.092322718185, 0.004, 1.01, -0.044, 192.0, 0.0, 0.0, 0.0, 0.0, 0.0, 0.0, 0.0, 0.0, 0.0, 1.695680549438785E9, 0.0, 2023-09-25 17:22:29.438
18.0, -187500.02235174447, 20664.455969864845, -47266.96577870438, -40550.24421814016, -27932.460955674764, -11381.485924897901, -187500.02235174447, -17907.770622702912, 10778.435859493717, 16456.069523819628, -187500.02235174447, -16352.29037431364, 28809.431649378737, -5845.808189607643, -39059.15934552662, -21960.92420350602, 0.006, 1.014, -0.026000000000000002, 192.0, 0.0, 24.0, 15.5, 88.0, 127.5, 24.0, 0.0, 0.0, 0.0, 1.695680549438795E9, 0.0, 2023-09-25 17:22:29.438
20.0, -187500.02235174447, 20655.694086038362, -47234.466342266365, -40562.91765724631, -27929.398766684386, -11395.366358204647, -187500.02235174447, -17910.58694250428, 10780.782792661525, 16442.546718424168, -187500.02235174447, -16418.54094487917, 28710.77104935301, -5856.11234380154, -39113.07175315282, -21986.472247418435, 0.006, 1.014, -0.026000000000000002, 192.0, 0.0, 0.0, 0.0, 0.0, 0.0, 0.0, 0.0, 0.0, 0.0, 1.695680549438799E9, 0.0, 2023-09-25 17:22:29.438
22.0, -187500.02235174447, 20649.94968771335, -47252.19127561942, -40565.532811347584, -27932.23743823021, -11389.689015113, -187500.02235174447, -17911.03397739339, 10773.18319954672, 16442.926698079908, -187500.02235174447, -16364.919109930886, 28798.099314939896, -5845.87524484101, -39069.3740927427, -21967.026229742318, 0.006, 1.014, -0.026000000000000002, 192.0, 0.0, 0.0, 0.0, 0.0, 0.0, 0.0, 0.0, 0.0, 0.0, 1.695680549438802E9, 0.0, 2023-09-25 17:22:29.438
24.0, -187500.02235174447, 20644.093530666058, -47243.92113017096, -40576.68633183078, -27939.255885989176, -11396.148669260583, -187500.02235174447, -17911.9280471716, 10770.836266378912, 16431.236735729784, -187500.02235174447, -16417.825689056597, 28714.593197654867, -5859.666271169934, -39114.16698863113, -21986.673413118533, 0.006, 1.014, -0.026000000000000002, 192.0, 0.0, 0.0, 0.0, 0.0, 0.0, 0.0, 0.0, 0.0, 0.0, 1.695680549438806E9, 0.0, 2023-09-25 17:22:29.438
26.0, -187500.02235174447, 20655.4258651049, -47263.657720525, -40566.40452938134, -27945.134394780922, -11390.761898846853, -187500.02235174447, -17921.561649031835, 10767.550559943982, 16444.40191321396, -187500.02235174447, -16346.724789944266, 28825.614312364378, -5851.820808866121, -39046.84353433175, -21948.608392311144, 0.006, 1.014, -0.026000000000000002, 192.0, 0.0, 0.0, 0.0, 0.0, 0.0, 0.0, 0.0, 0.0, 0.0, 1.69568054943881E9, 0.0, 2023-09-25 17:22:29.438
28.0, -187500.02235174447, 20668.36752514452, -47255.27581635425, -40555.340415875966, -27935.05375803158, -11383.274064454326, -187500.02235174447, -17910.8775151822, 10780.17929556123, 16444.759541125244, -187500.02235174447, -16409.53319186368, 28731.669930418724, -5855.195922278872, -39105.06982863782, -21979.00676477036, 0.006, 1.014, -0.026000000000000002, 192.0, 0.0, 24.0, 15.5, 88.0, 127.5, 24.0, 0.0, 0.0, 0.0, 1.695680549438813E9, 0.0, 2023-09-25 17:22:29.438
30.0, -187500.02235174447, 20682.493827640275, -47245.3516418161, -40544.99155819316, -27939.613513900462, -11382.603512120666, -187500.02235174447, -17900.9756923885, 10787.622426464848, 16468.810018159154, -187500.02235174447, -16360.694630228834, 28806.66003306628, -5826.563337631624, -39073.68797942257, -21966.355677408657, 0.006, 1.014, -0.026000000000000002, 192.0, 0.0, 0.0, 0.0, 0.0, 0.0, 0.0, 0.0, 0.0, 0.0, 1.695680549498144E9, 0.0, 2023-09-25 17:22:29.498
32.0, -187500.02235174447, 20671.47441762381, -47249.88904594053, -40553.373462363896, -27943.972104069246, -11392.460631425456, -187500.02235174447, -17912.464489038528, 10780.671033939247, 16463.02091634523, -187500.02235174447, -16386.91322647491, 28751.764148684044, -5838.141541259473, -39102.27586058091, -21970.021363499327, 0.006, 1.014, -0.026000000000000002, 192.0, 0.0, 0.0, 0.0, 0.0, 0.0, 0.0, 0.0, 0.0, 0.0, 1.695680549498156E9, 0.0, 2023-09-25 17:22:29.498
34.0, -187500.02235174447, 20667.719324555317, -47238.78022894624, -40556.27918914309, -27943.748586624693, -11397.31095997226, -187500.02235174447, -17918.83473620829, 10781.855676395378, 16465.993698357786, -187500.02235174447, -16344.087284098541, 28828.117707743375, -5835.34757320256, -39061.14865078314, -21948.518985333325, 0.006, 1.014, -0.026000000000000002, 192.0, 0.0, 0.0, 0.0, 0.0, 0.0, 0.0, 0.0, 0.0, 0.0, 1.695680549498161E9, 0.0, 2023-09-25 17:22:29.498
36.0, -187500.02235174447, 20648.362713857023, -47257.48863905533, -40559.85546825593, -27949.828261116538, -11399.121451273139, -187500.02235174447, -17916.59956176276, 10769.741030900603, 16439.68569513389, -187500.02235174447, -16362.594528507536, 28789.76211425807, -5859.420401980925, -39073.77738640039, -21947.937839977487, 0.006, 1.014, -0.026000000000000002, 192.0, 0.0, 0.0, 0.0, 0.0, 0.0, 0.0, 0.0, 0.0, 0.0, 1.695680549498164E9, 0.0, 2023-09-25 17:22:29.498
38.0, -187500.02235174447, 20668.926318755905, -47239.47313302435, -40543.40458433683, -27935.567848154053, -11386.11273600015, -187500.02235174447, -17906.25070407995, 10771.216246034652, 16446.50297719276, -187500.02235174447, -16347.417694022382, 28838.980655548654, -5857.051117068662, -39039.9144935506, -21934.906772960043, 0.006, 1.016, -0.026000000000000002, 192.0, 0.0, 24.0, 15.5, 96.0, 127.5, 24.0, 0.0, 0.0, 0.0, 1.695680549498168E9, 0.0, 2023-09-25 17:22:29.498
40.0, -187500.02235174447, 20661.259670407733, -47251.319557585666, -40554.40164260884, -27936.886601076916, -11385.464535410945, -187500.02235174447, -17911.905695427144, 10783.241484551607, 16453.789645885186, -187500.02235174447, -16379.872426971488, 28787.616346790357, -5855.598253679068, -39077.68894168007, -21958.711380804943, 0.006, 1.016, -0.026000000000000002, 192.0, 0.0, 0.0, 0.0, 0.0, 0.0, 0.0, 0.0, 0.0, 0.0, 1.695680549498171E9, 0.0, 2023-09-25 17:22:29.498
42.0, -187500.02235174447, 20675.14010371448, -47228.87840615254, -40550.06540418451, -27933.735005108716, -11396.193372749492, -187500.02235174447, -17915.638436751182, 10777.89941762679, 16457.053000575663, -187500.02235174447, -16354.994935392731, 28829.458812410692, -5859.755678147755, -39041.367356940194, -21938.974790450906, 0.006, 1.016, -0.026000000000000002, 192.0, 0.0, 0.0, 0.0, 0.0, 0.0, 0.0, 0.0, 0.0, 0.0, 1.695680549498175E9, 0.0, 2023-09-25 17:22:29.498
44.0, -187500.02235174447, 20682.113847984536, -47251.27485409676, -40539.940063946255, -27923.56496138155, -11382.692919098488, -187500.02235174447, -17909.35759655924, 10792.495106756105, 16466.6866024359, -187500.02235174447, -16371.244653611739, 28798.881625995833, -5855.352384490059, -39071.430453232584, -21963.092322718185, 0.006, 1.016, -0.026000000000000002, 192.0, 0.0, 0.0, 0.0, 0.0, 0.0, 0.0, 0.0, 0.0, 0.0, 1.695680549498179E9, 0.0, 2023-09-25 17:22:29.498
46.0, -187500.02235174447, 20684.2819671967, -47216.83081589113, -40545.818572738004, -27935.321978965043, -11391.54420990279, -187500.02235174447, -17914.856125695245, 10793.456231767683, 16473.414477516948, -187500.02235174447, -16365.299089586628, 28812.918521513766, -5849.384468720493, -39055.985397813965, -21951.514119090334, 0.006, 1.016, -0.026000000000000002, 192.0, 0.0, 0.0, 0.0, 0.0, 0.0, 0.0, 0.0, 0.0, 0.0, 1.695680549558035E9, 0.0, 2023-09-25 17:22:29.558
48.0, -187500.02235174447, 20687.411211420444, -47243.272929581755, -40526.26079633961, -27920.52512413563, -11374.713346327942, -187500.02235174447, -17899.16520108762, 10801.346397560406, 16478.667137463945, -187500.02235174447, -16356.04546738213, 28817.65709133829, -5842.902462828453, -39061.32746473879, -21959.046656971772, 0.006, 1.01, -0.024, 192.0, 0.0, 24.0, 15.5, 72.0, 127.5, 32.0, 0.0, 0.0, 0.0, 1.695680549558045E9, 0.0, 2023-09-25 17:22:29.558
50.0, -187500.02235174447, 20686.226568964314, -47213.36629550056, -40533.83803770996, -27928.28117946162, -11377.6861283405, -187500.02235174447, -17903.859067423233, 10804.006255150587, 16482.824561932634, -187500.02235174447, -16373.636290268458, 28789.426838091236, -5832.017163278719, -39075.073787578796, -21962.35471515116, 0.006, 1.01, -0.024, 192.0, 0.0, 0.0, 0.0, 0.0, 0.0, 0.0, 0.0, 0.0, 0.0, 1.695680549558053E9, 0.0, 2023-09-25 17:22:29.558
52.0, -187500.02235174447, 20668.501635611254, -47244.189351104425, -40528.272453340585, -27924.61549337095, -11374.311014927747, -187500.02235174447, -17898.986387131976, 10803.447461539205, 16487.630186990522, -187500.02235174447, -16345.562499232592, 28806.97295748865, -5836.889843569976, -39074.13501431167, -21964.656944830054, 0.006, 1.01, -0.024, 192.0, 0.0, 0.0, 0.0, 0.0, 0.0, 0.0, 0.0, 0.0, 0.0, 1.695680549558058E9, 0.0, 2023-09-25 17:22:29.558
54.0, -187500.02235174447, 20651.290792380667, -47204.112673296055, -40544.87979947088, -27937.847726088494, -11388.6384831236, -187500.02235174447, -17905.423689535106, 10793.23271432313, 16474.375602528526, -187500.02235174447, -16364.963813419798, 28774.004134417075, -5843.640070395479, -39078.560659713825, -21957.303220904258, 0.006, 1.01, -0.024, 192.0, 0.0, 0.0, 0.0, 0.0, 0.0, 0.0, 0.0, 0.0, 0.0, 1.695680549558061E9, 0.0, 2023-09-25 17:22:29.558
56.0, -187500.02235174447, 20666.646440821463, -47249.75493547379, -40518.8623689249, -27918.33465317901, -11362.509293855346, -187500.02235174447, -17906.45186978005, 10788.583551476426, 16470.21817805984, -187500.02235174447, -16316.32641748505, 28840.031187538054, -5854.011279822741, -39041.59087438475, -21940.315895118227, 0.006, 1.01, -0.024, 192.0, 0.0, 0.0, 0.0, 0.0, 0.0, 0.0, 0.0, 0.0, 0.0, 1.695680549558065E9, 0.0, 2023-09-25 17:22:29.558
58.0, -187500.02235174447, 20648.65328653494, -47197.87653659303, -40540.00711917962, -27934.62907488693, -11384.34694818818, -187500.02235174447, -17902.78618368938, 10809.728301731146, 16485.283253822716, -187500.02235174447, -16375.893816458443, 28755.519241752536, -5849.652689653956, -39096.35264830025, -21973.307069934257, 0.002, 1.014, -0.026000000000000002, 192.0, 0.0, 8.0, 15.5, 88.0, 127.5, 24.0, 0.0, 0.0, 0.0, 1.695680549558068E9, 0.0, 2023-09-25 17:22:29.558
60.0, -187500.02235174447, 20644.80878648863, -47247.87738893955, -40534.62034876589, -27928.72821435073, -11379.854247552663, -187500.02235174447, -17911.68217798259, 10786.817763664456, 16469.189997814894, -187500.02235174447, -16310.582019160036, 28847.13904227484, -5847.998660564263, -39037.79107782734, -21941.545241063268, 0.002, 1.014, -0.026000000000000002, 192.0, 0.0, 0.0, 0.0, 0.0, 0.0, 0.0, 0.0, 0.0, 0.0, 1.695680549618446E9, 0.0, 2023-09-25 17:22:29.618
62.0, -187500.02235174447, 20635.13048113948, -47209.20887103187, -40546.91380821631, -27933.846763830992, -11382.49175339839, -187500.02235174447, -17924.64618976667, 10796.697234713702, 16461.076314577618, -187500.02235174447, -16378.844246726543, 28752.948791140177, -5856.715840901833, -39092.9775348875, -21974.40230541257, 0.002, 1.014, -0.026000000000000002, 192.0, 0.0, 0.0, 0.0, 0.0, 0.0, 0.0, 0.0, 0.0, 0.0, 1.695680549618464E9, 0.0, 2023-09-25 17:22:29.618
64.0, -187500.02235174447, 20632.738844482763, -47243.02706039275, -40543.56104654802, -27933.62324638644, -11370.377107903614, -187500.02235174447, -17900.618064477214, 10781.18512406172, 16455.17545404142, -187500.02235174447, -16312.32545522755, 28844.903867829307, -5849.16095127594, -39033.29837719183, -21938.795976495265, 0.002, 1.014, -0.026000000000000002, 192.0, 0.0, 0.0, 0.0, 0.0, 0.0, 0.0, 0.0, 0.0, 0.0, 1.695680549618468E9, 0.0, 2023-09-25 17:22:29.618
66.0, -187500.02235174447, 20628.492013036255, -47218.306031025175, -40550.89241872936, -27935.92547606534, -11377.462610895946, -187500.02235174447, -17901.378023788693, 10789.030586365532, 16449.92279409442, -187500.02235174447, -16380.364165349505, 28752.635866717803, -5860.470933970325, -39078.53830796937, -21958.420808127023, 0.002, 1.014, -0.026000000000000002, 192.0, 0.0, 0.0, 0.0, 0.0, 0.0, 0.0, 0.0, 0.0, 0.0, 1.695680549618474E9, 0.0, 2023-09-25 17:22:29.618
68.0, -187500.02235174447, 20636.22571661779, -47243.831723193136, -40539.87300871289, -27929.734042851218, -11371.762916059843, -187500.02235174447, -17902.003872633442, 10786.281321797529, 16455.466026719336, -187500.02235174447, -16325.714150156278, 28842.400472450314, -5853.653651911456, -39029.05154574532, -21937.834851483687, 0.004, 1.012, -0.034, 192.0, 0.0, 16.0, 15.5, 80.0, 127.0, 120.0, 0.0, 0.0, 0.0, 1.695680549618478E9, 0.0, 2023-09-25 17:22:29.618
70.0, -187500.02235174447, 20638.125614896493, -47222.642269449505, -40541.95172094723, -27934.651426631382, -11369.259520680847, -187500.02235174447, -17895.097183596754, 10791.556333488981, 16446.212404514838, -187500.02235174447, -16388.38844160896, 28746.5338404815, -5858.995718836274, -39078.001866102444, -21960.030133727807, 0.004, 1.012, -0.034, 192.0, 0.0, 0.0, 0.0, 0.0, 0.0, 0.0, 0.0, 0.0, 0.0, 1.695680549618483E9, 0.0, 2023-09-25 17:22:29.618
72.0, -187500.02235174447, 20639.84669921955, -47236.075667867146, -40537.436668567265, -27930.58340914052, -11365.370317145625, -187500.02235174447, -17889.956282372033, 10796.18314459123, 16466.21721580234, -187500.02235174447, -16336.599449706013, 28828.81061182149, -5844.556491918146, -39035.421792915084, -21938.617162539624, 0.004, 1.012, -0.034, 192.0, 0.0, 0.0, 0.0, 0.0, 0.0, 0.0, 0.0, 0.0, 0.0, 1.695680549618487E9, 0.0, 2023-09-25 17:22:29.618
74.0, -187500.02235174447, 20638.729111996785, -47231.247691064804, -40535.827342966484, -27926.604798627475, -11368.745430558376, -187500.02235174447, -17888.7716399159, 10791.064595110965, 16450.883919106, -187500.02235174447, -16398.267912658204, 28733.59218044188, -5854.145390289473, -39082.15929057113, -21959.29252616078, 0.004, 1.012, -0.034, 192.0, 0.0, 0.0, 0.0, 0.0, 0.0, 0.0, 0.0, 0.0, 0.0, 1.695680549618491E9, 0.0, 2023-09-25 17:22:29.618
76.0, -187500.02235174447, 20648.005085945737, -47234.82397017765, -40529.14417137434, -27930.33753995151, -11365.124447956616, -187500.02235174447, -17891.655014950637, 10795.266723068562, 16467.24539604728, -187500.02235174447, -16355.844301682033, 28796.73585852812, -5838.029782537196, -39050.62097914469, -21951.24589815687, 0.004, 1.012, -0.034, 192.0, 0.0, 0.0, 0.0, 0.0, 0.0, 0.0, 0.0, 0.0, 0.0, 1.695680549678633E9, 0.0, 2023-09-25 17:22:29.678
78.0, -187500.02235174447, 20641.634838775975, -47233.95225214389, -40540.54356104655, -27943.10038603549, -11393.801736092775, -187500.02235174447, -17910.78810820438, 10793.880914912334, 16456.918890108933, -187500.02235174447, -16394.065784700608, 28718.504752934547, -5849.6973931428665, -39088.06015110733, -21964.366372152137, 0.004, 1.012, -0.034, 192.0, 0.0, 0.0, 15.5, 96.0, 127.5, 8.0, 0.0, 0.0, 0.0, 1.695680549678641E9, 0.0, 2023-09-25 17:22:29.678
80.0, -187500.02235174447, 20648.161548156924, -47227.69376369641, -40539.09069765695, -27941.021673801148, -11390.605436635666, -187500.02235174447, -17912.129212871696, 10795.356130046384, 16466.08310533561, -187500.02235174447, -16340.913336385887, 28796.33352712793, -5843.930643073398, -39036.137048737655, -21943.758063764344, 0.004, 1.012, -0.034, 192.0, 0.0, 0.0, 0.0, 0.0, 0.0, 0.0, 0.0, 0.0, 0.0, 1.695680549678645E9, 0.0, 2023-09-25 17:22:29.678
82.0, -187500.02235174447, 20632.64943750494, -47238.75787720179, -40552.7699652636, -27947.302513993087, -11399.747300117886, -187500.02235174447, -17911.771584960414, 10788.628254965337, 16446.63708765949, -187500.02235174447, -16369.411810566404, 28738.956599111152, -5856.425268223914, -39061.796851372346, -21952.72111329092, 0.004, 1.012, -0.034, 192.0, 0.0, 0.0, 0.0, 0.0, 0.0, 0.0, 0.0, 0.0, 0.0, 1.695680549678648E9, 0.0, 2023-09-25 17:22:29.678
84.0, -187500.02235174447, 20646.775740000696, -47234.68985971092, -40536.20732262222, -27933.511487664164, -11385.375128433125, -187500.02235174447, -17909.134079114687, 10785.320196785951, 16448.045247560174, -187500.02235174447, -16331.61501069248, 28805.833018521433, -5853.899521100464, -39015.0593537163, -21930.324665346703, 0.004, 1.012, -0.034, 192.0, 0.0, 0.0, 0.0, 0.0, 0.0, 0.0, 0.0, 0.0, 0.0, 1.695680549678652E9, 0.0, 2023-09-25 17:22:29.678
86.0, -187500.02235174447, 20645.36758010001, -47242.62472899255, -40532.184008620265, -27927.498868405684, -11376.322671928725, -187500.02235174447, -17890.49272423896, 10800.206458593186, 16454.16962554093, -187500.02235174447, -16380.72179326079, 28726.01493907153, -5842.746000617266, -39075.9231538681, -21967.853244287166, 0.004, 1.012, -0.034, 192.0, 0.0, 0.0, 0.0, 0.0, 0.0, 0.0, 0.0, 0.0, 0.0, 1.695680549678655E9, 0.0, 2023-09-25 17:22:29.678
88.0, -187500.02235174447, 20642.32774285409, -47225.59269971761, -40542.24229362515, -27940.217011000757, -11385.241017966393, -187500.02235174447, -17907.480050024995, 10791.913961400267, 16454.527253452212, -187500.02235174447, -16349.451702767814, 28778.094503652395, -5839.4826459267915, -39041.63557787366, -21945.188575409484, 0.002, 1.014, -0.026000000000000002, 192.0, 0.0, 8.0, 15.5, 88.0, 127.5, 24.0, 0.0, 0.0, 0.0, 1.695680549678659E9, 0.0, 2023-09-25 17:22:29.678
90.0, -187500.02235174447, 20645.836966733572, -47249.911397684984, -40532.340470831456, -27924.280217204123, -11370.555921859255, -187500.02235174447, -17883.29546252435, 10796.764289947068, 16452.426189473415, -187500.02235174447, -16365.902586686921, 28749.126642838317, -5847.104590786051, -39064.88139210718, -21957.459683115445, 0.002, 1.014, -0.026000000000000002, 192.0, 0.0, 0.0, 0.0, 0.0, 0.0, 0.0, 0.0, 0.0, 0.0, 1.695680549740294E9, 0.0, 2023-09-25 17:22:29.740
92.0, -187500.02235174447, 20640.964286442315, -47221.12235082655, -40545.25977912662, -27934.785537098116, -11379.787192319298, -187500.02235174447, -17896.59475047526, 10790.438746266216, 16462.864454134044, -187500.02235174447, -16353.050333625119, 28774.406465817272, -5844.332974473593, -39043.02138602989, -21940.405302096045, 0.002, 1.014, -0.026000000000000002, 192.0, 0.0, 0.0, 0.0, 0.0, 0.0, 0.0, 0.0, 0.0, 0.0, 1.695680549740304E9, 0.0, 2023-09-25 17:22:29.740
94.0, -187500.02235174447, 20647.401588845445, -47249.59847326261, -40533.726278987684, -27925.688377104805, -11373.908683527552, -187500.02235174447, -17894.91836964111, 10798.127746358841, 16462.998564600774, -187500.02235174447, -16361.365182562493, 28755.899221408275, -5847.685736141889, -39064.59081942926, -21954.933935991998, 0.002, 1.014, -0.026000000000000002, 192.0, 0.0, 0.0, 0.0, 0.0, 0.0, 0.0, 0.0, 0.0, 0.0, 1.695680549740307E9, 0.0, 2023-09-25 17:22:29.740
96.0, -187500.02235174447, 20642.99829518775, -47214.886214123515, -40547.94198846126, -27940.753452867684, -11381.038890008795, -187500.02235174447, -17905.088413368274, 10790.70696719968, 16460.562224455145, -187500.02235174447, -16359.152359861419, 28754.64752371878, -5845.048230296163, -39054.934865824565, -21944.45096784246, 0.002, 1.014, -0.026000000000000002, 192.0, 0.0, 0.0, 0.0, 0.0, 0.0, 0.0, 0.0, 0.0, 0.0, 1.695680549740311E9, 0.0, 2023-09-25 17:22:29.740
98.0, -187500.02235174447, 20642.88653646547, -47248.078554639644, -40535.045031910544, -27937.847726088494, -11383.162305732048, -187500.02235174447, -17891.945587628554, 10793.366824789862, 16458.46116047635, -187500.02235174447, -16341.85210965301, 28767.723294225132, -5848.870378598021, -39054.71134838001, -21947.66961904402, -0.002, 1.014, -0.022, 192.0, 127.5, 120.0, 15.5, 88.0, 127.5, 40.0, 0.0, 0.0, 0.0, 1.695680549740315E9, 0.0, 2023-09-25 17:22:29.740
100.0, -187500.02235174447, 20640.56195504212, -47210.68408616592, -40536.944930189245, -27945.71554013676, -11393.019425036839, -187500.02235174447, -17900.752174943947, 10788.091813098408, 16458.572919198625, -187500.02235174447, -16354.972583648276, 28755.787462686, -5851.373773977015, -39051.69386287855, -21940.248839884858, -0.002, 1.014, -0.022, 192.0, 0.0, 0.0, 0.0, 0.0, 0.0, 0.0, 0.0, 0.0, 0.0, 1.695680549740318E9, 0.0, 2023-09-25 17:22:29.740
102.0, -187500.02235174447, 20643.75825449923, -47247.85503719509, -40525.70200272823, -27934.606723142475, -11379.943654530485, -187500.02235174447, -17898.628759220694, 10785.230789808129, 16455.10839880805, -187500.02235174447, -16326.876440867954, 28800.98268997463, -5853.608948422546, -39032.53841788035, -21936.00200843835, -0.002, 1.014, -0.022, 192.0, 0.0, 0.0, 0.0, 0.0, 0.0, 0.0, 0.0, 0.0, 0.0, 1.695680549740322E9, 0.0, 2023-09-25 17:22:29.740
104.0, -187500.02235174447, 20636.113957895515, -47207.80071113118, -40539.62713952388, -27940.641694145408, -11393.734680859408, -187500.02235174447, -17908.821154692312, 10795.8478684244, 16454.080218563107, -187500.02235174447, -16375.893816458443, 28738.867192133333, -5863.846047383076, -39067.98828458646, -21956.677372059512, -0.002, 1.014, -0.022, 192.0, 0.0, 0.0, 0.0, 0.0, 0.0, 0.0, 0.0, 0.0, 0.0, 1.695680549740325E9, 0.0, 2023-09-25 17:22:29.740
106.0, -187500.02235174447, 20644.294696366156, -47242.66943248146, -40521.835150937455, -27927.23064747222, -11381.44122140899, -187500.02235174447, -17899.723994699, 10798.261856825573, 16454.840177874587, -187500.02235174447, -16339.996914863219, 28791.9972887036, -5866.170628806428, -39049.50339192193, -21949.77068302282, -0.002, 1.014, -0.022, 192.0, 0.0, 0.0, 0.0, 0.0, 0.0, 0.0, 0.0, 0.0, 0.0, 1.695680549799194E9, 0.0, 2023-09-25 17:22:29.799
108.0, -187500.02235174447, 20623.909905422915, -47198.99412381579, -40540.61061627992, -27945.067339547557, -11387.498544156379, -187500.02235174447, -17908.128250614198, 10793.031548623032, 16453.029686573707, -187500.02235174447, -16382.398174094937, 28724.11504079283, -5865.790649150687, -39083.813319660825, -21957.102055204163, 0.002, 1.018, -0.016, 192.0, 0.0, 8.0, 15.5, 104.0, 127.5, 64.0, 0.0, 0.0, 0.0, 1.695680549799203E9, 0.0, 2023-09-25 17:22:29.799
110.0, -187500.02235174447, 20628.69317873635, -47241.90947316998, -40527.378383562376, -27937.132470265922, -11391.007768035863, -187500.02235174447, -17920.175840875607, 10776.84888563739, 16445.027762058708, -187500.02235174447, -16318.315722741572, 28818.12647797185, -5868.718727674333, -39023.50831312041, -21926.56957227821, 0.002, 1.018, -0.016, 192.0, 0.0, 0.0, 0.0, 0.0, 0.0, 0.0, 0.0, 0.0, 0.0, 1.695680549799207E9, 0.0, 2023-09-25 17:22:29.799
112.0, -187500.02235174447, 20626.70387347983, -47203.93385934042, -40537.32490984499, -27936.95365631028, -11390.426622680025, -187500.02235174447, -17911.235143093487, 10793.120955600853, 16445.608907414546, -187500.02235174447, -16384.43218284037, 28726.529029194004, -5866.103573573062, -39073.956200356035, -21954.28573540279, 0.002, 1.018, -0.016, 192.0, 0.0, 0.0, 0.0, 0.0, 0.0, 0.0, 0.0, 0.0, 0.0, 1.69568054979921E9, 0.0, 2023-09-25 17:22:29.799
114.0, -187500.02235174447, 20642.88653646547, -47232.81231317667, -40514.839054922944, -27929.421118428843, -11374.534532372301, -187500.02235174447, -17909.11172737023, 10784.873161896845, 16444.40191321396, -187500.02235174447, -16315.65586515139, 28825.301387942003, -5870.238646297294, -39012.04186821483, -21923.10505188764, 0.002, 1.018, -0.016, 192.0, 0.0, 0.0, 0.0, 0.0, 0.0, 0.0, 0.0, 0.0, 0.0, 1.695680549799213E9, 0.0, 2023-09-25 17:22:29.799
116.0, -187500.02235174447, 20637.36565558501, -47197.87653659303, -40520.3152323145, -27932.975045797237, -11382.670567354033, -187500.02235174447, -17901.378023788693, 10803.738034217124, 16456.40479998646, -187500.02235174447, -16392.277645144182, 28713.140334265274, -5861.923797359919, -39078.15832831363, -21960.432465128, 0.002, 1.018, -0.016, 192.0, 0.0, 0.0, 0.0, 0.0, 0.0, 0.0, 0.0, 0.0, 0.0, 1.695680549799216E9, 0.0, 2023-09-25 17:22:29.799
118.0, -187500.02235174447, 20640.51725155321, -47221.83760664912, -40512.894453155335, -27927.85649631697, -11375.182732961504, -187500.02235174447, -17895.03012836339, 10787.689481698213, 16452.87322436252, -187500.02235174447, -16321.623780920958, 28812.627948835845, -5855.710012401344, -39014.54526359383, -21922.702720487443, 0.004, 1.024, -0.016, 192.0, 0.0, 16.0, 16.0, 0.0, 127.5, 64.0, 0.0, 0.0, 0.0, 1.69568054979922E9, 0.0, 2023-09-25 17:22:29.799
120.0, -187500.02235174447, 20634.236411361268, -47204.827929118626, -40524.1150288719, -27937.57950515503, -11385.933922044507, -187500.02235174447, -17905.91542791312, 10790.081118354932, 16453.096741807072, -187500.02235174447, -16377.614900781502, 28721.410479713737, -5864.762468905744, -39062.73562463947, -21944.942706220474, 0.004, 1.024, -0.016, 192.0, 0.0, 0.0, 0.0, 0.0, 0.0, 0.0, 0.0, 0.0, 0.0, 1.695680549858006E9, 0.0, 2023-09-25 17:22:29.858
122.0, -187500.02235174447, 20648.22860339029, -47224.117484583556, -40505.3619152739, -27924.123754992936, -11371.24882593737, -187500.02235174447, -17895.521866741405, 10783.08502234042, 16455.846006375075, -187500.02235174447, -16313.487745939226, 28820.94279777322, -5854.435962967392, -39003.39174311063, -21915.013720394818, 0.004, 1.024, -0.016, 192.0, 0.0, 0.0, 0.0, 0.0, 0.0, 0.0, 0.0, 0.0, 0.0, 1.695680549858016E9, 0.0, 2023-09-25 17:22:29.858
124.0, -187500.02235174447, 20629.94487642585, -47212.42752223343, -40523.73504921616, -27937.57950515503, -11379.138991730093, -187500.02235174447, -17898.964035387522, 10796.116089357864, 16453.007334829254, -187500.02235174447, -16383.29224387315, 28710.30166271945, -5861.096782815073, -39071.27399102139, -21952.92227899102, 0.004, 1.024, -0.016, 192.0, 0.0, 0.0, 0.0, 0.0, 0.0, 0.0, 0.0, 0.0, 0.0, 1.69568054985802E9, 0.0, 2023-09-25 17:22:29.858
126.0, -187500.02235174447, 20636.113957895515, -47218.01545834726, -40513.319136299986, -27927.67768236133, -11380.077764997217, -187500.02235174447, -17901.78035518889, 10785.543714230504, 16449.565166183136, -187500.02235174447, -16330.408016491892, 28800.22273066315, -5868.674024185422, -39016.80278978381, -21926.77073797831, 0.004, 1.024, -0.016, 192.0, 0.0, 0.0, 0.0, 0.0, 0.0, 0.0, 0.0, 0.0, 0.0, 1.695680549858023E9, 0.0, 2023-09-25 17:22:29.858
128.0, -187500.02235174447, 20611.348225039033, -47218.44014149191, -40532.69809874274, -27943.212144757767, -11392.952369803474, -187500.02235174447, -17908.73174771449, 10781.118068828353, 16440.19978525636, -187500.02235174447, -16380.654738027424, 28720.941093080175, -5874.329015532615, -39062.37799672818, -21948.429578355503, 0.006, 1.02, -0.016, 192.0, 0.0, 24.0, 15.5, 112.0, 127.5, 64.0, 0.0, 0.0, 0.0, 1.695680549858027E9, 0.0, 2023-09-25 17:22:29.858
130.0, -187500.02235174447, 20624.17812635638, -47217.50136822479, -40518.2141683357, -27930.739871351707, -11376.836762051196, -187500.02235174447, -17903.45673602304, 10773.294958268996, 16435.550622409657, -187500.02235174447, -16334.252516538207, 28804.246044665106, -5872.853800398565, -39003.30233613281, -21918.366482063113, 0.006, 1.02, -0.016, 192.0, 0.0, 0.0, 0.0, 0.0, 0.0, 0.0, 0.0, 0.0, 0.0, 1.69568054985803E9, 0.0, 2023-09-25 17:22:29.858
132.0, -187500.02235174447, 20627.620295002496, -47220.02711534824, -40510.56987173198, -27924.593141626498, -11372.232302693405, -187500.02235174447, -17897.175895831097, 10789.410566021272, 16435.729436365298, -187500.02235174447, -16394.468116100805, 28715.755488366543, -5871.490343986791, -39067.451842719536, -21954.91158424754, 0.006, 1.02, -0.016, 192.0, 0.0, 0.0, 0.0, 0.0, 0.0, 0.0, 0.0, 0.0, 0.0, 1.695680549858033E9, 0.0, 2023-09-25 17:22:29.858
134.0, -187500.02235174447, 20620.355978054522, -47197.65301914848, -40521.835150937455, -27943.323903480043, -11383.877561554618, -187500.02235174447, -17908.061195380833, 10786.348377030896, 16445.139520780984, -187500.02235174447, -16359.241766839239, 28770.15963437076, -5860.292120014682, -39031.39847891313, -21933.38685433708, 0.006, 1.02, -0.016, 192.0, 0.0, 0.0, 0.0, 0.0, 0.0, 0.0, 0.0, 0.0, 0.0, 1.695680549858036E9, 0.0, 2023-09-25 17:22:29.858
136.0, -187500.02235174447, 20613.203419828824, -47232.63349922103, -40518.32592705797, -27934.182039997824, -11375.428602150512, -187500.02235174447, -17914.36438731723, 10766.477676210126, 16421.20080246935, -187500.02235174447, -16364.226205852772, 28748.321980037927, -5877.279445800716, -39030.57146436828, -21925.96607517792, 0.006, 1.02, -0.016, 192.0, 0.0, 0.0, 0.0, 0.0, 0.0, 0.0, 0.0, 0.0, 0.0, 1.695680549918317E9, 0.0, 2023-09-25 17:22:29.918
138.0, -187500.02235174447, 20624.356940312024, -47207.95717334237, -40512.3133077995, -27928.86232481746, -11365.213854934438, -187500.02235174447, -17895.365404530217, 10776.714775170658, 16433.561317153137, -187500.02235174447, -16369.657679755412, 28762.470634278136, -5866.72942241781, -39023.15068520912, -21928.80474672374, 0.004, 1.018, -0.018000000000000002, 192.0, 0.0, 16.0, 15.5, 104.0, 127.5, 56.0, 0.0, 0.0, 0.0, 1.695680549918326E9, 0.0, 2023-09-25 17:22:29.918
140.0, -187500.02235174447, 20614.1645448404, -47230.06304860867, -40516.671897968285, -27933.2432667307, -11363.49277061138, -187500.02235174447, -17898.986387131976, 10774.077269324931, 16441.45148294586, -187500.02235174447, -16378.307804859616, 28744.142203824784, -5864.449544483369, -39040.808563328814, -21936.87372647211, 0.004, 1.018, -0.018000000000000002, 192.0, 0.0, 0.0, 0.0, 0.0, 0.0, 0.0, 0.0, 0.0, 0.0, 1.69568054991833E9, 0.0, 2023-09-25 17:22:29.918
142.0, -187500.02235174447, 20616.64558847494, -47208.180690786925, -40518.63885148035, -27936.417214443354, -11374.735698072398, -187500.02235174447, -17904.88724766818, 10764.577777931427, 16436.39998869896, -187500.02235174447, -16371.602281523024, 28768.997343659088, -5866.327091017615, -39015.439333372036, -21919.7746419638, 0.004, 1.018, -0.018000000000000002, 192.0, 0.0, 0.0, 0.0, 0.0, 0.0, 0.0, 0.0, 0.0, 0.0, 1.695680549918333E9, 0.0, 2023-09-25 17:22:29.918
144.0, -187500.02235174447, 20628.402606058433, -47239.003746390794, -40499.77397916007, -27917.462935145253, -11356.72019204142, -187500.02235174447, -17890.895055639157, 10778.480562982628, 16443.64195390248, -187500.02235174447, -16376.139685647451, 28760.50368076607, -5865.20950379485, -39031.84551380223, -21935.934953204986, 0.004, 1.018, -0.018000000000000002, 192.0, 0.0, 0.0, 0.0, 0.0, 0.0, 0.0, 0.0, 0.0, 0.0, 1.695680549918337E9, 0.0, 2023-09-25 17:22:29.918
146.0, -187500.02235174447, 20608.710719193306, -47197.36244647056, -40531.15582837532, -27943.748586624693, -11392.661797125555, -187500.02235174447, -17916.9795414185, 10777.430030993228, 16439.998619556263, -187500.02235174447, -16397.172677179897, 28736.54261070998, -5864.82952413911, -39046.8658860762, -21941.56759280772, 0.004, 1.018, -0.018000000000000002, 192.0, 0.0, 0.0, 0.0, 0.0, 0.0, 0.0, 0.0, 0.0, 0.0, 1.69568054991834E9, 0.0, 2023-09-25 17:22:29.918
148.0, -187500.02235174447, 20618.210210586814, -47239.27196732425, -40508.66997345328, -27923.47555440373, -11374.243959694382, -187500.02235174447, -17899.74634644346, 10776.178333303731, 16428.39806418396, -187500.02235174447, -16374.530360046669, 28765.06343663495, -5874.865457399543, -39035.17592372608, -21943.556898064246, 0.008, 1.016, -0.014, 192.0, 0.0, 32.0, 15.5, 96.0, 127.5, 72.0, 0.0, 0.0, 0.0, 1.695680549918343E9, 0.0, 2023-09-25 17:22:29.918
150.0, -187500.02235174447, 20606.1626203254, -47199.88819359401, -40529.680613241275, -27940.48523193422, -11391.477154669423, -187500.02235174447, -17907.435346536084, 10779.307577527474, 16431.639067129978, -187500.02235174447, -16412.01423549822, 28713.363851709826, -5880.967483635841, -39063.54028743986, -21954.48690110289, 0.008, 1.016, -0.014, 192.0, 0.0, 0.0, 0.0, 0.0, 0.0, 0.0, 0.0, 0.0, 0.0, 1.695680549978599E9, 0.0, 2023-09-25 17:22:29.978
152.0, -187500.02235174447, 20621.384158299465, -47241.90947316998, -40505.96541237419, -27927.498868405684, -11369.706555569954, -187500.02235174447, -17900.908637155135, 10771.998557090588, 16429.090968262073, -187500.02235174447, -16366.841359954044, 28776.284012351516, -5889.841126184599, -39027.2634061889, -21934.459738070935, 0.008, 1.016, -0.014, 192.0, 0.0, 0.0, 0.0, 0.0, 0.0, 0.0, 0.0, 0.0, 0.0, 1.695680549978611E9, 0.0, 2023-09-25 17:22:29.978
154.0, -187500.02235174447, 20621.65237923293, -47198.79295811569, -40512.71563919969, -27927.43181317232, -11370.354756159159, -187500.02235174447, -17899.411070276627, 10782.593283962404, 16436.154119509953, -187500.02235174447, -16426.520517649715, 28699.461066658627, -5882.330940047615, -39076.481947479486, -21957.280869159804, 0.008, 1.016, -0.014, 192.0, 0.0, 0.0, 0.0, 0.0, 0.0, 0.0, 0.0, 0.0, 0.0, 1.695680549978615E9, 0.0, 2023-09-25 17:22:29.978
156.0, -187500.02235174447, 20625.251010090233, -47226.37501077355, -40504.1102175844, -27926.962426538757, -11369.304224169759, -187500.02235174447, -17897.578227231294, 10785.364900274863, 16441.652648645955, -187500.02235174447, -16376.921996703388, 28757.50854700906, -5875.111326588551, -39048.02817678788, -21940.450005584957, 0.008, 1.016, -0.014, 192.0, 0.0, 0.0, 0.0, 0.0, 0.0, 0.0, 0.0, 0.0, 0.0, 1.695680549978618E9, 0.0, 2023-09-25 17:22:29.978
158.0, -187500.02235174447, 20610.543562238643, -47199.39645521599, -40523.042145138046, -27949.805909372084, -11388.6384831236, -187500.02235174447, -17907.994140147464, 10781.721565928647, 16426.58757288308, -187500.02235174447, -16415.836383800077, 28688.553415364437, -5881.459222013858, -39075.99020910147, -21945.43444459849, 0.008, 1.012, -0.008, 192.0, 0.0, 32.0, 15.5, 80.0, 127.5, 96.0, 0.0, 0.0, 0.0, 1.695680549978622E9, 0.0, 2023-09-25 17:22:29.978
160.0, -187500.02235174447, 20619.283094320668, -47240.21074059138, -40502.79146466154, -27933.332673708523, -11369.77361080332, -187500.02235174447, -17909.938741915077, 10772.155019301776, 16423.7265495928, -187500.02235174447, -16344.891946898932, 28782.11781765435, -5883.806155181665, -39016.3110514058, -21914.790202950266, 0.008, 1.012, -0.008, 192.0, 0.0, 0.0, 0.0, 0.0, 0.0, 0.0, 0.0, 0.0, 0.0, 1.695680549978625E9, 0.0, 2023-09-25 17:22:29.978
162.0, -187500.02235174447, 20605.290902291646, -47210.125292554534, -40526.461962039706, -27943.05568254658, -11388.4373174235, -187500.02235174447, -17913.045634394366, 10780.492219983606, 16422.653665858947, -187500.02235174447, -16408.259142429728, 28683.121941461795, -5886.600123238579, -39071.27399102139, -21938.997142195363, 0.008, 1.012, -0.008, 192.0, 0.0, 0.0, 0.0, 0.0, 0.0, 0.0, 0.0, 0.0, 0.0, 1.695680549978629E9, 0.0, 2023-09-25 17:22:29.978
164.0, -187500.02235174447, 20603.27924529067, -47243.71996447086, -40516.53778750155, -27930.404595184875, -11377.529666129312, -187500.02235174447, -17916.577210018302, 10765.583606431916, 16416.216363455816, -187500.02235174447, -16340.198080563317, 28784.46475082216, -5893.3727018085365, -39002.363562865685, -21904.016662122805, 0.008, 1.012, -0.008, 192.0, 0.0, 0.0, 0.0, 0.0, 0.0, 0.0, 0.0, 0.0, 0.0, 1.695680549978633E9, 0.0, 2023-09-25 17:22:29.978
166.0, -187500.02235174447, 20596.864294631996, -47215.55676645718, -40525.612595750405, -27935.254923731678, -11383.989320276896, -187500.02235174447, -17922.656884510146, 10772.534998957515, 16400.05605221463, -187500.02235174447, -16410.20374419734, 28677.824578025888, -5907.029617670729, -39055.270141991394, -21932.224563625405, 0.008, 1.012, -0.008, 192.0, 0.0, 0.0, 0.0, 0.0, 0.0, 0.0, 0.0, 0.0, 0.0, 1.695680550038913E9, 0.0, 2023-09-25 17:22:30.038
168.0, -187500.02235174447, 20610.767079683195, -47229.995993375305, -40508.82643566447, -27925.710728849263, -11368.656023580555, -187500.02235174447, -17894.82896266329, 10778.391156004805, 16410.76253780872, -187500.02235174447, -16356.179577848861, 28761.12952961082, -5899.273562344738, -39009.31495539129, -21916.46658378441, 0.01, 1.014, -0.012, 192.0, 0.0, 40.0, 15.5, 88.0, 127.5, 80.0, 0.0, 0.0, 0.0, 1.695680550038922E9, 0.0, 2023-09-25 17:22:30.038
170.0, -187500.02235174447, 20593.757402152707, -47217.21079554687, -40525.277319583576, -27935.72431036524, -11375.875637039619, -187500.02235174447, -17906.094241868763, 10782.593283962404, 16403.654683071934, -187500.02235174447, -16425.246468215762, 28654.154080647717, -5901.329922834626, -39069.687017165066, -21948.362523122138, 0.01, 1.014, -0.012, 192.0, 0.0, 0.0, 0.0, 0.0, 0.0, 0.0, 0.0, 0.0, 0.0, 1.695680550038926E9, 0.0, 2023-09-25 17:22:30.038
172.0, -187500.02235174447, 20600.59703595603, -47232.96877538786, -40514.436723522755, -27932.57271439704, -11381.530628386812, -187500.02235174447, -17914.900829184156, 10770.255121023074, 16401.263046415217, -187500.02235174447, -16366.6625459984, 28751.272410306028, -5901.084053645618, -39007.48211234595, -21917.852391940643, 0.01, 1.014, -0.012, 192.0, 0.0, 0.0, 0.0, 0.0, 0.0, 0.0, 0.0, 0.0, 0.0, 1.695680550038929E9, 0.0, 2023-09-25 17:22:30.038
174.0, -187500.02235174447, 20602.586341212555, -47220.340039770614, -40506.323040285475, -27924.257865459665, -11376.568541117733, -187500.02235174447, -17901.98152088899, 10791.936313144723, 16406.49335461776, -187500.02235174447, -16435.572974154114, 28645.05692065441, -5898.379492566525, -39079.81235740332, -21958.82313952722, 0.01, 1.014, -0.012, 192.0, 0.0, 0.0, 0.0, 0.0, 0.0, 0.0, 0.0, 0.0, 0.0, 1.695680550038932E9, 0.0, 2023-09-25 17:22:30.038
176.0, -187500.02235174447, 20607.570780226088, -47211.10876931057, -40506.2112815632, -27924.906066048872, -11373.43929689399, -187500.02235174447, -17897.39941327565, 10789.23175206563, 16424.30769494864, -187500.02235174447, -16385.19214215185, 28723.511543692537, -5884.700224959877, -39035.31003419281, -21929.38589207958, 0.01, 1.014, -0.012, 192.0, 0.0, 0.0, 0.0, 0.0, 0.0, 0.0, 0.0, 0.0, 0.0, 1.695680550038936E9, 0.0, 2023-09-25 17:22:30.038
178.0, -187500.02235174447, 20601.60286445652, -47219.714190925864, -40513.028563622065, -27925.911894549357, -11378.334328929703, -187500.02235174447, -17908.240009336474, 10783.08502234042, 16410.807241297633, -187500.02235174447, -16413.735319821277, 28666.24637439804, -5894.557344264668, -39061.1710025276, -21936.136118905084, 0.01, 1.014, -0.008, 192.0, 0.0, 40.0, 15.5, 88.0, 127.5, 96.0, 0.0, 0.0, 0.0, 1.695680550038939E9, 0.0, 2023-09-25 17:22:30.038
180.0, -187500.02235174447, 20633.565859027607, -47206.1913855304, -40489.44747322172, -27913.014937998647, -11359.648270565065, -187500.02235174447, -17894.180762074087, 10787.488315998116, 16422.273686203203, -187500.02235174447, -16379.894778715943, 28724.33855823738, -5881.21335282485, -39024.938824765544, -21922.076871642694, 0.01, 1.014, -0.008, 192.0, 0.0, 0.0, 0.0, 0.0, 0.0, 0.0, 0.0, 0.0, 0.0, 1.695680550099665E9, 0.0, 2023-09-25 17:22:30.099
182.0, -187500.02235174447, 20632.671789249398, -47211.756969899776, -40500.73510417165, -27925.66602536035, -11363.448067122468, -187500.02235174447, -17885.262416036418, 10800.340569059917, 16435.483567176292, -187500.02235174447, -16414.182354710385, 28655.29401961494, -5866.505904973257, -39075.74433991246, -21946.932011476998, 0.01, 1.014, -0.008, 192.0, 0.0, 0.0, 0.0, 0.0, 0.0, 0.0, 0.0, 0.0, 0.0, 1.695680550099681E9, 0.0, 2023-09-25 17:22:30.099
184.0, -187500.02235174447, 20658.063370950626, -47202.235126761814, -40501.51741522759, -27921.374490424932, -11356.519026341322, -187500.02235174447, -17893.91254114062, 10792.942141645211, 16435.081235776095, -187500.02235174447, -16372.697517001334, 28716.001357555553, -5862.326128760115, -39025.6093770992, -21917.248894840348, 0.01, 1.014, -0.008, 192.0, 0.0, 0.0, 0.0, 0.0, 0.0, 0.0, 0.0, 0.0, 0.0, 1.695680550099684E9, 0.0, 2023-09-25 17:22:30.099
186.0, -187500.02235174447, 20666.378219888, -47225.59269971761, -40503.93140362876, -27915.04894674408, -11354.842645507175, -187500.02235174447, -17881.954357857034, 10810.421205809262, 16434.075407275606, -187500.02235174447, -16399.87723825899, 28662.893612729742, -5862.192018293384, -39065.19431652955, -21945.523851576312, 0.01, 1.014, -0.008, 192.0, 0.0, 0.0, 0.0, 0.0, 0.0, 0.0, 0.0, 0.0, 0.0, 1.695680550099688E9, 0.0, 2023-09-25 17:22:30.099
188.0, -187500.02235174447, 20667.831083277593, -47195.88723133651, -40526.73018297317, -27928.05766201707, -11364.789171789787, -187500.02235174447, -17890.045689349852, 10798.194801592208, 16429.895631062464, -187500.02235174447, -16376.184389136362, 28694.878959045287, -5858.392221735981, -39034.28185394786, -21922.702720487443, 0.01, 1.014, -0.008, 192.0, 0.0, 40.0, 15.5, 88.0, 127.5, 96.0, 0.0, 0.0, 0.0, 1.695680550099691E9, 0.0, 2023-09-25 17:22:30.099
190.0, -187500.02235174447, 20689.109943999047, -47239.02609813525, -40510.100485098425, -27907.650519329374, -11360.117657198627, -187500.02235174447, -17883.988366602465, 10791.869257911356, 16414.696444832854, -187500.02235174447, -16368.517740788191, 28697.06943000191, -5874.731346932811, -39031.934920780055, -21923.887362943577, 0.01, 1.014, -0.008, 192.0, 0.0, 0.0, 0.0, 0.0, 0.0, 0.0, 0.0, 0.0, 0.0, 1.695680550099694E9, 0.0, 2023-09-25 17:22:30.099
192.0, -187500.02235174447, 20693.021499278726, -47197.541260426195, -40524.69617422774, -27915.94301652229, -11373.841628294185, -187500.02235174447, -17893.197285318052, 10808.677769741747, 16431.97434329681, -187500.02235174447, -16398.469078358303, 28670.381447122272, -5859.621567681023, -39056.745357125445, -21945.81442425423, 0.01, 1.014, -0.008, 192.0, 0.0, 0.0, 0.0, 0.0, 0.0, 0.0, 0.0, 0.0, 0.0, 1.695680550099698E9, 0.0, 2023-09-25 17:22:30.099
194.0, -187500.02235174447, 20703.549170917177, -47234.399287033, -40508.02177286408, -27904.342461149987, -11363.425715378013, -187500.02235174447, -17889.48689573847, 10802.486336527627, 16427.59340138357, -187500.02235174447, -16370.819970467088, 28704.64667137226, -5862.236721782294, -39036.829952815766, -21934.660903771033, 0.01, 1.014, -0.008, 192.0, 0.0, 0.0, 0.0, 0.0, 0.0, 0.0, 0.0, 0.0, 0.0, 1.695680550099701E9, 0.0, 2023-09-25 17:22:30.099
196.0, -187500.02235174447, 20702.31982497213, -47192.176841756926, -40520.87402592588, -27922.00033926968, -11375.026270750317, -187500.02235174447, -17891.856180650735, 10812.455214554693, 16437.562279410635, -187500.02235174447, -16402.872372015998, 28672.504862845526, -5852.826637366609, -39059.561676926816, -21943.91452597553, 0.01, 1.014, -0.008, 192.0, 0.0, 0.0, 0.0, 0.0, 0.0, 0.0, 0.0, 0.0, 0.0, 1.695680550158088E9, 0.0, 2023-09-25 17:22:30.158
198.0, -187500.02235174447, 20715.73087164532, -47236.768571945264, -40500.55629021601, -27907.96344375175, -11358.15070368656, -187500.02235174447, -17892.034994606376, 10800.98876964912, 16433.6283723865, -187500.02235174447, -16363.622708752479, 28727.668968161222, -5854.078335056107, -39025.00587999891, -21920.400490808548, 0.004, 1.008, -0.008, 192.0, 0.0, 16.0, 15.5, 64.0, 127.5, 96.0, 0.0, 0.0, 0.0, 1.695680550158096E9, 0.0, 2023-09-25 17:22:30.158
200.0, -187500.02235174447, 20711.99813032128, -47190.32164696713, -40513.028563622065, -27914.400746154875, -11364.811523534241, -187500.02235174447, -17887.072907337297, 10819.0042756801, 16444.24545100277, -187500.02235174447, -16420.731415835788, 28660.23375513956, -5846.925776830409, -39073.10683406673, -21948.92131673352, 0.004, 1.008, -0.008, 192.0, 0.0, 0.0, 0.0, 0.0, 0.0, 0.0, 0.0, 0.0, 0.0, 1.695680550158099E9, 0.0, 2023-09-25 17:22:30.158
202.0, -187500.02235174447, 20711.461688454354, -47231.65002246499, -40507.77590367507, -27908.119905962936, -11353.702706539954, -187500.02235174447, -17890.20215156104, 10809.61654300887, 16441.071503290117, -187500.02235174447, -16370.261176855705, 28730.97702634061, -5854.413611222936, -39040.29447320634, -21930.10114790215, 0.004, 1.008, -0.008, 192.0, 0.0, 0.0, 0.0, 0.0, 0.0, 0.0, 0.0, 0.0, 0.0, 1.695680550158103E9, 0.0, 2023-09-25 17:22:30.158
204.0, -187500.02235174447, 20704.912627328948, -47197.45185344838, -40523.2656625826, -27919.206371212767, -11367.24786367987, -187500.02235174447, -17890.045689349852, 10810.510612787082, 16438.05401778865, -187500.02235174447, -16420.709064091334, 28663.854737741323, -5856.268806012727, -39080.371151014704, -21948.34017137768, 0.004, 1.008, -0.008, 192.0, 0.0, 0.0, 0.0, 0.0, 0.0, 0.0, 0.0, 0.0, 0.0, 1.695680550158106E9, 0.0, 2023-09-25 17:22:30.158
206.0, -187500.02235174447, 20711.729909387817, -47241.1495138585, -40511.32983104346, -27914.646615343885, -11347.377162859102, -187500.02235174447, -17890.157448072132, 10800.228810337641, 16437.316410221625, -187500.02235174447, -16360.247595339728, 28748.523145738025, -5853.296024000171, -39035.17592372608, -21925.38492982208, 0.004, 1.008, -0.008, 192.0, 0.0, 0.0, 0.0, 0.0, 0.0, 0.0, 0.0, 0.0, 0.0, 1.69568055015811E9, 0.0, 2023-09-25 17:22:30.158
208.0, -187500.02235174447, 20696.463667924843, -47203.75504538477, -40532.83220920947, -27933.645598130894, -11374.892160283585, -187500.02235174447, -17893.689023696068, 10810.354150575895, 16434.231869486794, -187500.02235174447, -16424.799433326654, 28659.831423739368, -5856.224102523816, -39084.88620339468, -21952.96698247993, -0.002, 1.01, -0.002, 192.0, 127.5, 120.0, 15.5, 72.0, 127.5, 120.0, 0.0, 0.0, 0.0, 1.695680550158113E9, 0.0, 2023-09-25 17:22:30.158
210.0, -187500.02235174447, 20706.030214551713, -47242.04358363672, -40517.87889216887, -27915.00424325517, -11356.563729830234, -187500.02235174447, -17898.896980154157, 10793.925618401245, 16432.041398530175, -187500.02235174447, -16360.71698197329, 28767.097445380386, -5857.609910680046, -39018.25565317341, -21919.931104174986, -0.002, 1.01, -0.002, 192.0, 0.0, 0.0, 0.0, 0.0, 0.0, 0.0, 0.0, 0.0, 0.0, 1.6956805502183E9, 0.0, 2023-09-25 17:22:30.218
212.0, -187500.02235174447, 20697.089516769593, -47210.10294081008, -40536.944930189245, -27921.933284036313, -11369.460686380946, -187500.02235174447, -17896.103012097243, 10807.582534263436, 16439.708046878346, -187500.02235174447, -16446.05594230365, 28654.10937715881, -5856.514675201735, -39096.64322097817, -21964.053447729762, -0.002, 1.01, -0.002, 192.0, 0.0, 0.0, 0.0, 0.0, 0.0, 0.0, 0.0, 0.0, 0.0, 1.695680550218311E9, 0.0, 2023-09-25 17:22:30.218
214.0, -187500.02235174447, 20694.72023185733, -47235.53922600022, -40535.31325284401, -27924.168458481847, -11371.49469512638, -187500.02235174447, -17891.0738695948, 10787.354205531385, 16436.39998869896, -187500.02235174447, -16369.14358963294, 28765.622230246336, -5862.192018293384, -39027.84455154474, -21925.809612966732, -0.002, 1.01, -0.002, 192.0, 0.0, 0.0, 0.0, 0.0, 0.0, 0.0, 0.0, 0.0, 0.0, 1.695680550218315E9, 0.0, 2023-09-25 17:22:30.218
216.0, -187500.02235174447, 20687.500618398266, -47217.613126947064, -40544.1198401594, -27922.402670669875, -11377.77553531832, -187500.02235174447, -17895.25364580794, 10793.769156190057, 16437.003485799254, -187500.02235174447, -16431.415549685426, 28664.368827863793, -5872.674986442922, -39083.50039523845, -21958.934898249496, -0.002, 1.01, -0.002, 192.0, 0.0, 0.0, 0.0, 0.0, 0.0, 0.0, 0.0, 0.0, 0.0, 1.695680550218318E9, 0.0, 2023-09-25 17:22:30.218
218.0, -187500.02235174447, 20687.590025376085, -47232.27587130974, -40543.18106689228, -27926.828316072028, -11379.027233007817, -187500.02235174447, -17904.417861034617, 10787.443612509205, 16438.143424766473, -187500.02235174447, -16367.064877398596, 28765.64458199079, -5869.97042536383, -39029.58798761225, -21935.48791831588, -0.002, 1.01, -0.002, 192.0, 0.0, 0.0, 15.5, 72.0, 127.5, 112.0, 0.0, 0.0, 0.0, 1.695680550218321E9, 0.0, 2023-09-25 17:22:30.218
220.0, -187500.02235174447, 20673.19550194687, -47224.63157470603, -40555.49687808715, -27933.757356853173, -11386.49271565589, -187500.02235174447, -17902.316797055817, 10792.673920711746, 16425.425282171404, -187500.02235174447, -16423.883011803988, 28681.780836794478, -5880.855724913565, -39082.0251801044, -21960.454816872458, -0.002, 1.01, -0.002, 192.0, 0.0, 0.0, 0.0, 0.0, 0.0, 0.0, 0.0, 0.0, 0.0, 1.695680550218324E9, 0.0, 2023-09-25 17:22:30.218
222.0, -187500.02235174447, 20677.3305746711, -47239.47313302435, -40554.35693911993, -27933.42208068634, -11386.559770889256, -187500.02235174447, -17917.091300140775, 10781.18512406172, 16422.586610625578, -187500.02235174447, -16365.053220397618, 28785.8952624673, -5881.481573758313, -39015.4616851165, -21925.38492982208, -0.002, 1.01, -0.002, 192.0, 0.0, 0.0, 0.0, 0.0, 0.0, 0.0, 0.0, 0.0, 0.0, 1.695680550218328E9, 0.0, 2023-09-25 17:22:30.218
224.0, -187500.02235174447, 20688.729964343307, -47226.46441775136, -40539.82830522398, -27920.68158634682, -11370.310052670247, -187500.02235174447, -17893.510209740427, 10799.13357485933, 16424.35239843755, -187500.02235174447, -16427.83927057258, 28689.022801998, -5890.981065151819, -39074.224421289495, -21961.93003200651, -0.002, 1.01, -0.002, 192.0, 0.0, 0.0, 0.0, 0.0, 0.0, 0.0, 0.0, 0.0, 0.0, 1.695680550218331E9, 0.0, 2023-09-25 17:22:30.218
226.0, -187500.02235174447, 20695.703708613364, -47209.38768498751, -40531.0664213975, -27920.61453111345, -11365.303261912259, -187500.02235174447, -17895.119535341208, 10806.889630185322, 16450.146311538974, -187500.02235174447, -16388.299034631138, 28748.8360701604, -5869.344576519082, -39041.30030170683, -21947.043770199274, -0.002, 1.01, -0.002, 192.0, 0.0, 0.0, 0.0, 0.0, 0.0, 0.0, 0.0, 0.0, 0.0, 1.695680550278655E9, 0.0, 2023-09-25 17:22:30.278
228.0, -187500.02235174447, 20691.412173677945, -47217.3449060136, -40527.73601147366, -27920.458068902266, -11368.097229969171, -187500.02235174447, -17888.63752944917, 10803.536868517027, 16441.272668990216, -187500.02235174447, -16419.926753035397, 28687.9722700086, -5869.948073619375, -39080.86288939272, -21962.801750040264, 0.004, 1.014, -0.006, 192.0, 0.0, 16.0, 15.5, 88.0, 127.5, 104.0, 0.0, 0.0, 0.0, 1.695680550278663E9, 0.0, 2023-09-25 17:22:30.278
230.0, -187500.02235174447, 20684.304318941155, -47199.57526917163, -40541.50468605813, -27936.216048743256, -11378.803715563265, -187500.02235174447, -17895.052480107843, 10796.406662035783, 16452.157968539952, -187500.02235174447, -16374.843284469043, 28749.148994582774, -5863.957806105353, -39038.081650505264, -21935.107938660138, 0.004, 1.014, -0.006, 192.0, 0.0, 0.0, 0.0, 0.0, 0.0, 0.0, 0.0, 0.0, 0.0, 1.695680550278667E9, 0.0, 2023-09-25 17:22:30.278
232.0, -187500.02235174447, 20698.654138881462, -47232.94642364341, -40517.789485191046, -27916.032423500114, -11355.289680396281, -187500.02235174447, -17887.475238737494, 10797.367787047362, 16436.847023588067, -187500.02235174447, -16385.840342741056, 28720.963444824632, -5879.894599901986, -39050.82214484479, -21939.28771487328, 0.004, 1.014, -0.006, 192.0, 0.0, 0.0, 0.0, 0.0, 0.0, 0.0, 0.0, 0.0, 0.0, 1.695680550278671E9, 0.0, 2023-09-25 17:22:30.278
234.0, -187500.02235174447, 20699.4364499374, -47196.24485924779, -40524.092677127446, -27923.363795681453, -11366.845532279674, -187500.02235174447, -17884.9718433585, 10817.841984968423, 16459.89167212149, -187500.02235174447, -16393.641101555957, 28724.20444777065, -5853.988928078285, -39066.08838630776, -21951.044732456772, 0.004, 1.014, -0.006, 192.0, 0.0, 0.0, 0.0, 0.0, 0.0, 0.0, 0.0, 0.0, 0.0, 1.695680550278674E9, 0.0, 2023-09-25 17:22:30.278
236.0, -187500.02235174447, 20685.75718233075, -47224.117484583556, -40525.25496783912, -27925.15193523788, -11365.10209621216, -187500.02235174447, -17887.497590481948, 10803.626275494848, 16447.68761964889, -187500.02235174447, -16388.187275908862, 28710.659290630734, -5871.222123053328, -39072.68215092208, -21947.624915555112, 0.004, 1.014, -0.006, 192.0, 0.0, 0.0, 0.0, 0.0, 0.0, 0.0, 0.0, 0.0, 0.0, 1.695680550278677E9, 0.0, 2023-09-25 17:22:30.278
238.0, -187500.02235174447, 20684.393725918977, -47200.20111801638, -40527.89247368485, -27927.23064747222, -11373.886331783096, -187500.02235174447, -17890.49272423896, 10793.746804445602, 16447.17352952642, -187500.02235174447, -16370.104714644518, 28739.917724122733, -5874.887809143997, -39038.46163016101, -21923.44032805447, -0.002, 1.014, -0.004, 192.0, 127.5, 120.0, 15.5, 88.0, 127.5, 112.0, 0.0, 0.0, 0.0, 1.695680550278681E9, 0.0, 2023-09-25 17:22:30.278
240.0, -187500.02235174447, 20690.540455644186, -47231.98529863183, -40509.87696765387, -27912.05381298707, -11362.911625255541, -187500.02235174447, -17881.529674712383, 10805.123842373354, 16452.806169129155, -187500.02235174447, -16371.311708845105, 28730.06060481794, -5872.607931209556, -39052.275008234385, -21939.131252662093, -0.002, 1.014, -0.004, 192.0, 0.0, 0.0, 0.0, 0.0, 0.0, 0.0, 0.0, 0.0, 0.0, 1.695680550338989E9, 0.0, 2023-09-25 17:22:30.338
242.0, -187500.02235174447, 20677.28587118219, -47192.62387664603, -40531.93813943126, -27926.20246722728, -11382.91643654304, -187500.02235174447, -17890.783296916878, 10814.578630277949, 16462.97621285632, -187500.02235174447, -16401.978302237785, 28691.86147354382, -5862.6837566714, -39079.342970769765, -21958.666677316032, -0.002, 1.014, -0.004, 192.0, 0.0, 0.0, 0.0, 0.0, 0.0, 0.0, 0.0, 0.0, 0.0, 1.695680550339001E9, 0.0, 2023-09-25 17:22:30.339
244.0, -187500.02235174447, 20673.173150202412, -47238.42260103495, -40528.563026018506, -27924.3919759264, -11381.597683620177, -187500.02235174447, -17902.003872633442, 10797.300731813995, 16447.10647429305, -187500.02235174447, -16363.823874452577, 28732.072261818917, -5871.490343986791, -39053.57140941279, -21944.272153886814, -0.002, 1.014, -0.004, 192.0, 0.0, 0.0, 0.0, 0.0, 0.0, 0.0, 0.0, 0.0, 0.0, 1.695680550339005E9, 0.0, 2023-09-25 17:22:30.339
246.0, -187500.02235174447, 20665.260632665235, -47201.36340872806, -40535.53677028856, -27935.29962722059, -11387.610302878655, -187500.02235174447, -17904.127288356696, 10795.244371324108, 16445.027762058708, -187500.02235174447, -16394.445764356347, 28695.19188346766, -5873.010262609752, -39069.86583112071, -21954.933935991998, -0.002, 1.014, -0.004, 192.0, 0.0, 0.0, 0.0, 0.0, 0.0, 0.0, 0.0, 0.0, 0.0, 1.695680550339008E9, 0.0, 2023-09-25 17:22:30.339
248.0, -187500.02235174447, 20667.36169664403, -47236.992089389816, -40520.89637767034, -27928.23647597271, -11372.880503282608, -187500.02235174447, -17897.77939293139, 10789.321159043451, 16445.027762058708, -187500.02235174447, -16359.465284283791, 28753.395826029282, -5876.094803344585, -39042.6637581186, -21940.852336985154, -0.002, 1.014, -0.008, 192.0, 127.5, 120.0, 15.5, 88.0, 127.5, 96.0, 0.0, 0.0, 0.0, 1.69568055033902E9, 0.0, 2023-09-25 17:22:30.339
250.0, -187500.02235174447, 20660.56676632962, -47196.73659762581, -40535.71558424421, -27939.9934935562, -11384.101078999172, -187500.02235174447, -17902.294445311363, 10797.680711469737, 16443.083160291095, -187500.02235174447, -16400.972473737296, 28700.06456375892, -5869.456335241358, -39070.06699682081, -21950.664752801033, -0.002, 1.014, -0.008, 192.0, 0.0, 0.0, 0.0, 0.0, 0.0, 0.0, 0.0, 0.0, 0.0, 1.695680550339024E9, 0.0, 2023-09-25 17:22:30.339
252.0, -187500.02235174447, 20667.56286234413, -47239.2496155798, -40522.59511024894, -27932.662121374862, -11369.483038125401, -187500.02235174447, -17902.339148800274, 10785.543714230504, 16440.669171889924, -187500.02235174447, -16344.959002132298, 28781.827244976434, -5869.344576519082, -39019.99908924092, -21922.970941420906, -0.002, 1.014, -0.008, 192.0, 0.0, 0.0, 0.0, 0.0, 0.0, 0.0, 0.0, 0.0, 0.0, 1.695680550339027E9, 0.0, 2023-09-25 17:22:30.339
254.0, -187500.02235174447, 20655.492920338264, -47207.554841942176, -40542.37640409188, -27947.593086671008, -11392.371224447636, -187500.02235174447, -17910.229314592998, 10786.080156097432, 16439.708046878346, -187500.02235174447, -16400.368976637004, 28711.799229597957, -5872.585579465102, -39049.63750238866, -21939.600639295655, -0.002, 1.014, -0.008, 192.0, 0.0, 0.0, 0.0, 0.0, 0.0, 0.0, 0.0, 0.0, 0.0, 1.695680550339031E9, 0.0, 2023-09-25 17:22:30.339
0.0, -187500.02235174447, 20660.745580285264, -47248.68205173994, -40527.378383562376, -27939.38999645591, -11375.808581806254, -187500.02235174447, -17900.439250521573, 10772.311481512963, 16431.12497700751, -187500.02235174447, -16337.828795651056, 28809.9010360123, -5879.291102801693, -38983.18576612303, -21910.47631627039, -0.002, 1.014, -0.008, 192.0, 0.0, 0.0, 0.0, 0.0, 0.0, 0.0, 0.0, 0.0, 0.0, 1.695680550399165E9, 0.0, 2023-09-25 17:22:30.399
2.0, -187500.02235174447, 20663.874824509006, -47212.82985363363, -40529.613558007906, -27936.126641765433, -11383.095250498684, -187500.02235174447, -17897.31000629783, 10788.494144498605, 16431.97434329681, -187500.02235174447, -16412.170697709407, 28714.63790114378, -5882.040367369696, -39037.83578131626, -21946.552031821255, 0.004, 1.016, -0.006, 192.0, 0.0, 16.0, 15.5, 96.0, 127.5, 104.0, 0.0, 0.0, 0.0, 1.695680550399172E9, 0.0, 2023-09-25 17:22:30.399
4.0, -187500.02235174447, 20664.14304544247, -47236.88033066754, -40527.44543879574, -27937.467746432754, -11383.564637132244, -187500.02235174447, -17905.893076168668, 10794.260894568073, 16449.274593505215, -187500.02235174447, -16360.269947084184, 28799.865102751864, -5871.691509686889, -38995.18865289553, -21932.71630200342, 0.004, 1.016, -0.006, 192.0, 0.0, 0.0, 0.0, 0.0, 0.0, 0.0, 0.0, 0.0, 0.0, 1.695680550399176E9, 0.0, 2023-09-25 17:22:30.399
6.0, -187500.02235174447, 20663.830121020095, -47223.02224910525, -40528.85359869643, -27935.72431036524, -11382.424698165023, -187500.02235174447, -17902.987349389477, 10785.18608631922, 16437.808148599644, -187500.02235174447, -16420.038511757673, 28718.504752934547, -5891.092823874095, -39032.091382991246, -21948.094302188674, 0.004, 1.016, -0.006, 192.0, 0.0, 0.0, 0.0, 0.0, 0.0, 0.0, 0.0, 0.0, 0.0, 1.695680550399179E9, 0.0, 2023-09-25 17:22:30.399
8.0, -187500.02235174447, 20664.031286720194, -47226.50912124028, -40527.44543879574, -27935.27727547613, -11371.382936404103, -187500.02235174447, -17895.477163252493, 10797.658359725281, 16456.717724408834, -187500.02235174447, -16379.023060682186, 28794.143056171306, -5871.043309097685, -38998.921394219564, -21937.700741016954, 0.004, 1.016, -0.006, 192.0, 0.0, 0.0, 0.0, 0.0, 0.0, 0.0, 0.0, 0.0, 0.0, 1.695680550399182E9, 0.0, 2023-09-25 17:22:30.399
10.0, -187500.02235174447, 20665.95353674335, -47218.462493236366, -40524.20443584972, -27933.0421010306, -11383.385823176603, -187500.02235174447, -17894.35957602973, 10792.47275501165, 16434.96947705382, -187500.02235174447, -16431.7284741078, 28712.358023209337, -5889.215277339849, -39033.119563236185, -21949.904793489553, 0.004, 1.016, -0.006, 192.0, 0.0, 0.0, 0.0, 0.0, 0.0, 0.0, 0.0, 0.0, 0.0, 1.695680550399186E9, 0.0, 2023-09-25 17:22:30.399
12.0, -187500.02235174447, 20674.961289758838, -47221.144702571, -40513.76617118909, -27926.582446883018, -11371.360584659647, -187500.02235174447, -17889.844523649757, 10801.748728960602, 16452.761465640244, -187500.02235174447, -16394.132839933973, 28776.708695496167, -5867.042346840185, -39006.208062911996, -21943.221621897417, 0.008, 1.01, -0.002, 192.0, 0.0, 32.0, 15.5, 72.0, 127.5, 120.0, 0.0, 0.0, 0.0, 1.695680550399189E9, 0.0, 2023-09-25 17:22:30.399
14.0, -187500.02235174447, 20669.730981556295, -47211.175824543934, -40518.8623689249, -27926.895371305392, -11372.277006182314, -187500.02235174447, -17886.134134070177, 10804.877973184344, 16442.881994591, -187500.02235174447, -16450.503939450256, 28686.407647896725, -5877.793535923188, -39061.28276124987, -21963.82993028521, 0.008, 1.01, -0.002, 192.0, 0.0, 0.0, 0.0, 0.0, 0.0, 0.0, 0.0, 0.0, 0.0, 1.695680550458614E9, 0.0, 2023-09-25 17:22:30.458
16.0, -187500.02235174447, 20664.2771559092, -47212.96396410036, -40527.55719751802, -27938.20535399978, -11383.676395854522, -187500.02235174447, -17910.96692216002, 10792.718624200657, 16446.10064579256, -187500.02235174447, -16388.94723522034, 28781.402561831783, -5870.082184086106, -39003.414094855085, -21927.754214734345, 0.008, 1.01, -0.002, 192.0, 0.0, 0.0, 0.0, 0.0, 0.0, 0.0, 0.0, 0.0, 0.0, 1.695680550458625E9, 0.0, 2023-09-25 17:22:30.458
18.0, -187500.02235174447, 20663.919527997914, -47221.390571760014, -40523.086848626954, -27926.895371305392, -11373.931035272008, -187500.02235174447, -17899.701642954547, 10799.55825800398, 16440.691523634378, -187500.02235174447, -16435.617677643022, 28707.68650861818, -5885.303722060171, -39046.59766514274, -21950.06125570074, 0.008, 1.01, -0.002, 192.0, 0.0, 0.0, 0.0, 0.0, 0.0, 0.0, 0.0, 0.0, 0.0, 1.695680550458629E9, 0.0, 2023-09-25 17:22:30.458
20.0, -187500.02235174447, 20664.433618120387, -47210.34880999909, -40531.491104542154, -27936.77484235464, -11376.389727162092, -187500.02235174447, -17909.178782603598, 10785.65547295278, 16441.78675911269, -187500.02235174447, -16391.316520132605, 28778.22861411913, -5880.274579557727, -38999.32372561976, -21921.6745402425, 0.008, 1.01, -0.002, 192.0, 0.0, 0.0, 0.0, 0.0, 0.0, 0.0, 0.0, 0.0, 0.0, 1.695680550458633E9, 0.0, 2023-09-25 17:22:30.458
22.0, -187500.02235174447, 20676.302394426155, -47222.664621193966, -40514.34731654493, -27919.25107470168, -11366.912587513041, -187500.02235174447, -17894.44898300755, 10796.361958546873, 16446.212404514838, -187500.02235174447, -16432.10845376354, 28710.7263458641, -5888.276504072726, -39044.89893256413, -21949.21188941144, 0.01, 1.014, -0.01, 192.0, 0.0, 40.0, 15.5, 88.0, 127.5, 88.0, 0.0, 0.0, 0.0, 1.695680550458636E9, 0.0, 2023-09-25 17:22:30.458
24.0, -187500.02235174447, 20673.463722880333, -47191.461585934354, -40517.11893285739, -27925.174286982336, -11375.518009128335, -187500.02235174447, -17898.137020842674, 10796.317255057962, 16458.46116047635, -187500.02235174447, -16407.38742439597, 28749.43956726069, -5867.087050329095, -39023.37420265367, -21932.6268950256, 0.01, 1.014, -0.01, 192.0, 0.0, 0.0, 0.0, 0.0, 0.0, 0.0, 0.0, 0.0, 0.0, 1.69568055045864E9, 0.0, 2023-09-25 17:22:30.458
26.0, -187500.02235174447, 20657.57163257261, -47218.55190021419, -40522.8633311824, -27936.48426967672, -11372.656985838055, -187500.02235174447, -17909.558762259338, 10792.048071866999, 16437.11524452153, -187500.02235174447, -16411.857773287033, 28724.696186148667, -5878.061756856651, -39034.81829581479, -21931.91163920303, 0.01, 1.014, -0.01, 192.0, 0.0, 0.0, 0.0, 0.0, 0.0, 0.0, 0.0, 0.0, 0.0, 1.695680550458649E9, 0.0, 2023-09-25 17:22:30.458
28.0, -187500.02235174447, 20663.159568686435, -47199.19528951589, -40526.372555061884, -27936.886601076916, -11379.138991730093, -187500.02235174447, -17914.856125695245, 10787.242446809107, 16437.808148599644, -187500.02235174447, -16396.34566263505, 28757.8885266648, -5889.349387806581, -39008.867920502176, -21915.751327961843, 0.01, 1.014, -0.01, 192.0, 0.0, 0.0, 0.0, 0.0, 0.0, 0.0, 0.0, 0.0, 0.0, 1.695680550458652E9, 0.0, 2023-09-25 17:22:30.458
30.0, -187500.02235174447, 20666.400571632454, -47234.48869401082, -40514.235557822656, -27925.308397449066, -11367.381974146601, -187500.02235174447, -17896.706509197535, 10786.348377030896, 16437.316410221625, -187500.02235174447, -16402.313578404617, 28741.8846776348, -5891.763376207755, -39024.20121719852, -21926.547220533757, 0.01, 1.014, -0.01, 192.0, 0.0, 0.0, 0.0, 0.0, 0.0, 0.0, 0.0, 0.0, 0.0, 1.695680550518369E9, 0.0, 2023-09-25 17:22:30.518
32.0, -187500.02235174447, 20668.79220828917, -47195.06021679166, -40519.30940381401, -27932.729176608227, -11367.516084613335, -187500.02235174447, -17895.96890163051, 10792.115127100364, 16446.570032426123, -187500.02235174447, -16417.78098556769, 28729.50181120656, -5885.303722060171, -39029.85620854571, -21929.028264168297, 0.012, 1.016, -0.01, 192.0, 0.0, 48.0, 15.5, 96.0, 127.5, 88.0, 0.0, 0.0, 0.0, 1.695680550518379E9, 0.0, 2023-09-25 17:22:30.518
34.0, -187500.02235174447, 20670.535644356685, -47223.73750492782, -40508.424104264275, -27916.635920600405, -11366.309090412748, -187500.02235174447, -17897.68998595357, 10789.745842188102, 16446.72649463731, -187500.02235174447, -16396.077441701585, 28741.705863679155, -5880.945131891386, -39021.76487705289, -21924.71437748842, 0.012, 1.016, -0.01, 192.0, 0.0, 0.0, 0.0, 0.0, 0.0, 0.0, 0.0, 0.0, 0.0, 1.695680550518382E9, 0.0, 2023-09-25 17:22:30.518
36.0, -187500.02235174447, 20659.292716895667, -47183.32555095262, -40524.271491083084, -27925.330749193523, -11375.249788194871, -187500.02235174447, -17898.472297009506, 10796.831345180433, 16450.950974339365, -187500.02235174447, -16425.49233740477, 28709.608758641334, -5878.6876057014, -39039.22158947249, -21932.313970603227, 0.012, 1.016, -0.01, 192.0, 0.0, 0.0, 0.0, 0.0, 0.0, 0.0, 0.0, 0.0, 0.0, 1.695680550518386E9, 0.0, 2023-09-25 17:22:30.518
38.0, -187500.02235174447, 20657.549280828152, -47222.26228979377, -40520.13641835885, -27920.413365413355, -11372.746392815876, -187500.02235174447, -17905.177820346096, 10789.857600910378, 16437.11524452153, -187500.02235174447, -16395.38453762347, 28747.092634092885, -5889.617608740045, -39019.44029562954, -21920.221676852903, 0.012, 1.016, -0.01, 192.0, 0.0, 0.0, 0.0, 0.0, 0.0, 0.0, 0.0, 0.0, 0.0, 1.69568055051839E9, 0.0, 2023-09-25 17:22:30.518
40.0, -187500.02235174447, 20649.03326619068, -47181.470356162834, -40531.625215008884, -27930.71751960725, -11389.353738946169, -187500.02235174447, -17910.139907615176, 10791.37751953334, 16436.7799683547, -187500.02235174447, -16426.78873858318, 28703.037345771474, -5896.770166965744, -39036.44997316003, -21925.899019944554, 0.012, 1.016, -0.01, 192.0, 0.0, 0.0, 0.0, 0.0, 0.0, 0.0, 0.0, 0.0, 0.0, 1.695680550518394E9, 0.0, 2023-09-25 17:22:30.518
42.0, -187500.02235174447, 20658.868033751016, -47231.65002246499, -40510.793389176535, -27913.596083354485, -11363.20219793346, -187500.02235174447, -17905.64720697966, 10781.788621162012, 16430.208555484838, -187500.02235174447, -16380.207703138318, 28765.376361057326, -5898.714768733355, -38997.17795815205, -21907.794106935755, 0.012, 1.018, -0.01, 192.0, 0.0, 48.0, 15.5, 104.0, 127.5, 88.0, 0.0, 0.0, 0.0, 1.695680550518401E9, 0.0, 2023-09-25 17:22:30.518
44.0, -187500.02235174447, 20645.65815277793, -47194.63553364701, -40530.105296385926, -27931.63394112992, -11383.341119687691, -187500.02235174447, -17905.423689535106, 10791.533981744526, 16437.629334644, -187500.02235174447, -16441.675000390413, 28684.977136251586, -5898.781823966721, -39045.45772617552, -21933.52096480381, 0.012, 1.018, -0.01, 192.0, 0.0, 0.0, 0.0, 0.0, 0.0, 0.0, 0.0, 0.0, 0.0, 1.695680550578763E9, 0.0, 2023-09-25 17:22:30.578
46.0, -187500.02235174447, 20650.664943535918, -47230.06304860867, -40512.82739792197, -27921.933284036313, -11373.819276549732, -187500.02235174447, -17899.232256320985, 10778.637025193813, 16433.226040986305, -187500.02235174447, -16388.94723522034, 28765.01873314604, -5894.266771586749, -38996.52975756285, -21910.923351159498, 0.012, 1.018, -0.01, 192.0, 0.0, 0.0, 0.0, 0.0, 0.0, 0.0, 0.0, 0.0, 0.0, 1.695680550578784E9, 0.0, 2023-09-25 17:22:30.578
48.0, -187500.02235174447, 20643.780606243683, -47190.142833011494, -40525.143209116846, -27933.86911557545, -11386.380956933614, -187500.02235174447, -17909.245837836963, 10786.795411920002, 16432.711950863835, -187500.02235174447, -16448.425227215914, 28680.685601316167, -5901.441681556903, -39038.03694701636, -21930.794051980265, 0.012, 1.018, -0.01, 192.0, 0.0, 0.0, 0.0, 0.0, 0.0, 0.0, 0.0, 0.0, 0.0, 1.695680550578788E9, 0.0, 2023-09-25 17:22:30.578
50.0, -187500.02235174447, 20657.90690873944, -47225.525644484245, -40508.558214731005, -27921.754470080672, -11368.544264858278, -187500.02235174447, -17916.59956176276, 10783.397946762794, 16429.69446536237, -187500.02235174447, -16393.596398067046, 28765.957506413164, -5897.999512910786, -38988.25961211439, -21910.90099941504, 0.012, 1.018, -0.01, 192.0, 0.0, 0.0, 0.0, 0.0, 0.0, 0.0, 0.0, 0.0, 0.0, 1.695680550578791E9, 0.0, 2023-09-25 17:22:30.578
52.0, -187500.02235174447, 20644.98760044427, -47198.05535054867, -40528.3171568295, -27934.562019653564, -11383.788154576798, -187500.02235174447, -17930.8823264697, 10789.097641598897, 16427.883974061486, -187500.02235174447, -16456.091875564085, 28671.409627367215, -5905.532050792223, -39041.724984851484, -21942.10403467465, 0.008, 1.016, -0.002, 192.0, 0.0, 32.0, 15.5, 96.0, 127.5, 120.0, 0.0, 0.0, 0.0, 1.695680550578795E9, 0.0, 2023-09-25 17:22:30.578
54.0, -187500.02235174447, 20651.111978425026, -47218.90952812547, -40515.24138632314, -27927.23064747222, -11370.622977092622, -187500.02235174447, -17915.59373326227, 10786.773060175547, 16434.947125309365, -187500.02235174447, -16395.13866843446, 28764.325829067926, -5897.4183675549475, -38990.45008307101, -21924.692025743967, 0.008, 1.016, -0.002, 192.0, 0.0, 0.0, 0.0, 0.0, 0.0, 0.0, 0.0, 0.0, 0.0, 1.695680550578798E9, 0.0, 2023-09-25 17:22:30.578
56.0, -187500.02235174447, 20650.687295280375, -47198.032998804214, -40517.70007821322, -27925.688377104805, -11370.690032325987, -187500.02235174447, -17902.54031450037, 10792.964493389665, 16427.39223568347, -187500.02235174447, -16465.01022160175, 28659.33968536135, -5908.191908382405, -39050.799793100334, -21957.929069749007, 0.008, 1.016, -0.002, 192.0, 0.0, 0.0, 0.0, 0.0, 0.0, 0.0, 0.0, 0.0, 0.0, 1.695680550578801E9, 0.0, 2023-09-25 17:22:30.578
58.0, -187500.02235174447, 20653.727132526295, -47213.92508911194, -40513.1626740888, -27931.09749926299, -11372.187599204493, -187500.02235174447, -17915.034939650886, 10786.61659796436, 16440.33389572309, -187500.02235174447, -16404.168773194408, 28747.718482937635, -5889.2599808287605, -38999.48018783095, -21930.883458958087, 0.008, 1.016, -0.002, 192.0, 0.0, 0.0, 0.0, 0.0, 0.0, 0.0, 0.0, 0.0, 0.0, 1.695680550578805E9, 0.0, 2023-09-25 17:22:30.578
60.0, -187500.02235174447, 20650.061446435626, -47202.168071528446, -40520.89637767034, -27935.545496409595, -11380.30128244177, -187500.02235174447, -17923.12627114371, 10791.779850933535, 16428.64393337297, -187500.02235174447, -16461.67981167791, 28651.851850968822, -5907.051969415184, -39049.92807506658, -21957.124406948617, 0.008, 1.016, -0.002, 192.0, 0.0, 0.0, 0.0, 0.0, 0.0, 0.0, 0.0, 0.0, 0.0, 1.69568055063884E9, 0.0, 2023-09-25 17:22:30.638
62.0, -187500.02235174447, 20644.652324277442, -47204.87263260754, -40515.93429040126, -27938.71944412225, -11380.614206864144, -187500.02235174447, -17933.720998015524, 10777.139458315309, 16433.315447964127, -187500.02235174447, -16392.165886421906, 28752.904087651266, -5898.424196055436, -38981.01764691086, -21921.473374542402, 0.014, 1.014, 0.002, 192.0, 0.0, 56.0, 15.5, 88.0, 0.0, 8.0, 0.0, 0.0, 0.0, 1.695680550638849E9, 0.0, 2023-09-25 17:22:30.638
64.0, -187500.02235174447, 20651.648420291953, -47201.38576047251, -40503.68553443975, -27921.57565612503, -11366.465552623935, -187500.02235174447, -17918.0300734079, 10781.073365339442, 16433.11428226403, -187500.02235174447, -16448.089951049085, 28669.219156410596, -5905.97908568133, -39029.78915331235, -21948.518985333325, 0.014, 1.014, 0.002, 192.0, 0.0, 0.0, 0.0, 0.0, 0.0, 0.0, 0.0, 0.0, 0.0, 1.695680550638853E9, 0.0, 2023-09-25 17:22:30.638
66.0, -187500.02235174447, 20650.374370858, -47191.34982721208, -40513.520302000084, -27931.276313218634, -11371.159418959549, -187500.02235174447, -17922.58982927678, 10780.581626961426, 16445.430093458905, -187500.02235174447, -16406.850982529042, 28742.354064268362, -5887.583599994612, -38989.39955108161, -21921.115746631116, 0.014, 1.014, 0.002, 192.0, 0.0, 0.0, 0.0, 0.0, 0.0, 0.0, 0.0, 0.0, 0.0, 1.695680550638856E9, 0.0, 2023-09-25 17:22:30.638
68.0, -187500.02235174447, 20664.880653009495, -47202.57040292864, -40493.29197326803, -27910.556246108565, -11354.328555384704, -187500.02235174447, -17902.987349389477, 10785.320196785951, 16436.958782310343, -187500.02235174447, -16449.699276649866, 28672.14723493424, -5903.654504257978, -39027.0622404888, -21942.39460735257, 0.014, 1.014, 0.002, 192.0, 0.0, 0.0, 0.0, 0.0, 0.0, 0.0, 0.0, 0.0, 0.0, 1.69568055063886E9, 0.0, 2023-09-25 17:22:30.638
70.0, -187500.02235174447, 20663.539548342174, -47182.744405596786, -40502.97027861718, -27919.25107470168, -11354.015630962329, -187500.02235174447, -17898.338186542773, 10790.371691032851, 16462.484474478304, -187500.02235174447, -16432.667247374924, 28703.21615972712, -5875.021919610729, -39014.8581880162, -21941.791110252278, 0.014, 1.014, 0.002, 192.0, 0.0, 0.0, 0.0, 0.0, 0.0, 0.0, 0.0, 0.0, 0.0, 1.695680550638868E9, 0.0, 2023-09-25 17:22:30.638
72.0, -187500.02235174447, 20651.246088891756, -47210.30410651018, -40515.420200278786, -27930.248132973687, -11360.698802554465, -187500.02235174447, -17897.68998595357, 10775.954815859177, 16450.81686387263, -187500.02235174447, -16442.479663190803, 28668.6156593103, -5894.512640775757, -39030.79498181283, -21939.71239801793, 0.006, 1.01, -0.004, 192.0, 0.0, 24.0, 15.5, 72.0, 127.5, 112.0, 0.0, 0.0, 0.0, 1.695680550638871E9, 0.0, 2023-09-25 17:22:30.638
74.0, -187500.02235174447, 20645.79226324466, -47196.20015575888, -40518.348278802434, -27931.276313218634, -11367.91841601353, -187500.02235174447, -17907.815326191823, 10771.126839056831, 16446.324163237114, -187500.02235174447, -16427.705160105845, 28710.279310974995, -5895.78669020971, -39001.06716168728, -21921.965112920418, 0.006, 1.01, -0.004, 192.0, 0.0, 0.0, 0.0, 0.0, 0.0, 0.0, 0.0, 0.0, 0.0, 1.695680550699179E9, 0.0, 2023-09-25 17:22:30.699
76.0, -187500.02235174447, 20645.680504522385, -47222.217586304854, -40504.26667979559, -27921.441545658297, -11357.793075775275, -187500.02235174447, -17900.059270865833, 10767.975243088633, 16440.5797649121, -187500.02235174447, -16450.548642939168, 28676.68463905867, -5902.380454824025, -39025.922301521576, -21938.170127650515, 0.006, 1.01, -0.004, 192.0, 0.0, 0.0, 0.0, 0.0, 0.0, 0.0, 0.0, 0.0, 0.0, 1.695680550699191E9, 0.0, 2023-09-25 17:22:30.699
78.0, -187500.02235174447, 20639.869050964004, -47180.844507318085, -40514.88375841186, -27930.225781229234, -11364.38684038959, -187500.02235174447, -17915.660788495636, 10768.51168495556, 16444.06663704713, -187500.02235174447, -16449.475759205314, 28687.7711043085, -5895.898448931986, -39015.014650227386, -21931.53165954729, 0.006, 1.01, -0.004, 192.0, 0.0, 0.0, 0.0, 0.0, 0.0, 0.0, 0.0, 0.0, 0.0, 1.695680550699194E9, 0.0, 2023-09-25 17:22:30.699
80.0, -187500.02235174447, 20639.2208503748, -47210.92995535493, -40504.378438517866, -27925.62132187144, -11364.67741306751, -187500.02235174447, -17903.16616334512, 10766.008289576566, 16432.689599119378, -187500.02235174447, -16429.314485706625, 28701.852703315344, -5903.386283324514, -38999.636650042135, -21920.400490808548, 0.006, 1.01, -0.004, 192.0, 0.0, 0.0, 0.0, 0.0, 0.0, 0.0, 0.0, 0.0, 0.0, 1.695680550699197E9, 0.0, 2023-09-25 17:22:30.699
82.0, -187500.02235174447, 20639.17614688589, -47181.693873607386, -40512.78269443306, -27931.611589385462, -11371.539398615289, -187500.02235174447, -17914.811422206334, 10761.895568596789, 16430.141500251473, -187500.02235174447, -16430.387369440483, 28706.97125279561, -5902.067530401651, -38982.76108297838, -21902.76496443331, 0.01, 1.012, -0.004, 192.0, 0.0, 40.0, 15.5, 80.0, 127.5, 112.0, 0.0, 0.0, 0.0, 1.695680550699201E9, 0.0, 2023-09-25 17:22:30.699
84.0, -187500.02235174447, 20641.791300987163, -47213.81333038966, -40504.512548984596, -27924.257865459665, -11353.188616417483, -187500.02235174447, -17908.9776169035, 10775.619539692349, 16434.83536658709, -187500.02235174447, -16428.912154306432, 28713.00622379854, -5899.675893744933, -38993.64638252812, -21918.3217785742, 0.01, 1.012, -0.004, 192.0, 0.0, 0.0, 0.0, 0.0, 0.0, 0.0, 0.0, 0.0, 0.0, 1.695680550699204E9, 0.0, 2023-09-25 17:22:30.699
86.0, -187500.02235174447, 20637.94680094085, -47184.9348765534, -40521.11989511489, -27939.255885989176, -11367.314918913236, -187500.02235174447, -17909.40230004815, 10765.695365154192, 16435.036532287184, -187500.02235174447, -16438.456349188848, 28697.20354046864, -5899.810004211665, -38987.544356291815, -21908.28584531377, 0.01, 1.012, -0.004, 192.0, 0.0, 0.0, 0.0, 0.0, 0.0, 0.0, 0.0, 0.0, 0.0, 1.695680550699207E9, 0.0, 2023-09-25 17:22:30.699
88.0, -187500.02235174447, 20657.862205250527, -47221.3458682711, -40493.33667675694, -27914.244283943688, -11340.179901144493, -187500.02235174447, -17900.014567376922, 10775.8430571369, 16441.54088992368, -187500.02235174447, -16415.277590188693, 28730.26177051804, -5905.688513003411, -38975.42971079704, -21912.778545949288, 0.01, 1.012, -0.004, 192.0, 0.0, 0.0, 0.0, 0.0, 0.0, 0.0, 0.0, 0.0, 0.0, 1.69568055069921E9, 0.0, 2023-09-25 17:22:30.699
90.0, -187500.02235174447, 20646.820443489607, -47177.000007271774, -40507.39592401933, -27917.99937701218, -11361.794038032776, -187500.02235174447, -17900.752174943947, 10777.742955415602, 16446.97236382632, -187500.02235174447, -16465.01022160175, 28663.608868552314, -5898.3571408220705, -39012.086571703745, -21930.883458958087, 0.01, 1.012, -0.004, 192.0, 0.0, 0.0, 0.0, 0.0, 0.0, 0.0, 0.0, 0.0, 0.0, 1.695680550758744E9, 0.0, 2023-09-25 17:22:30.758
92.0, -187500.02235174447, 20653.19069065937, -47217.07668508014, -40499.63986869334, -27905.05771697256, -11348.517101826323, -187500.02235174447, -17896.30417779734, 10779.240522294107, 16449.855738861053, -187500.02235174447, -16430.63323862949, 28712.738002865077, -5895.026730898229, -38995.12159766217, -21929.922333946506, 0.004, 1.01, -0.006, 192.0, 0.0, 16.0, 15.5, 72.0, 127.5, 104.0, 0.0, 0.0, 0.0, 1.695680550758754E9, 0.0, 2023-09-25 17:22:30.758
94.0, -187500.02235174447, 20638.505594552233, -47180.509231151256, -40527.80306670703, -27925.911894549357, -11384.525762143823, -187500.02235174447, -17912.64330299417, 10773.876103624834, 16446.54768068167, -187500.02235174447, -16471.492227493793, 28643.872278198276, -5905.241478114304, -39022.368374153186, -21937.566630550224, 0.004, 1.01, -0.006, 192.0, 0.0, 0.0, 0.0, 0.0, 0.0, 0.0, 0.0, 0.0, 0.0, 1.695680550758757E9, 0.0, 2023-09-25 17:22:30.758
96.0, -187500.02235174447, 20652.162510414426, -47224.899795639496, -40509.22876706467, -27919.653406101872, -11366.420849135024, -187500.02235174447, -17910.25166633745, 10765.248330265085, 16438.6798666334, -187500.02235174447, -16396.81504926861, 28741.437642745692, -5903.654504257978, -38957.74948093289, -21904.37429003409, 0.004, 1.01, -0.006, 192.0, 0.0, 0.0, 0.0, 0.0, 0.0, 0.0, 0.0, 0.0, 0.0, 1.695680550758761E9, 0.0, 2023-09-25 17:22:30.758
98.0, -187500.02235174447, 20657.14694942796, -47194.21085050236, -40510.45811300971, -27917.19471421179, -11359.849436265164, -187500.02235174447, -17894.471334752005, 10779.173467060742, 16444.379561469505, -187500.02235174447, -16462.998564600774, 28643.469946798083, -5903.006303668774, -39012.5559583373, -21934.05740667074, 0.004, 1.01, -0.006, 192.0, 0.0, 0.0, 0.0, 0.0, 0.0, 0.0, 0.0, 0.0, 0.0, 1.695680550758764E9, 0.0, 2023-09-25 17:22:30.758
100.0, -187500.02235174447, 20665.305336154146, -47218.08251358062, -40500.48923498264, -27912.65731008736, -11344.829063991197, -187500.02235174447, -17886.715279426015, 10780.291054283507, 16458.192939542885, -187500.02235174447, -16410.650779086445, 28719.108250034842, -5879.559323735157, -38971.38404505063, -21914.29846457225, 0.004, 1.01, -0.006, 192.0, 0.0, 0.0, 0.0, 0.0, 0.0, 0.0, 0.0, 0.0, 0.0, 1.695680550758768E9, 0.0, 2023-09-25 17:22:30.758
102.0, -187500.02235174447, 20657.214004661324, -47190.634571389506, -40511.64275546584, -27925.777784082627, -11345.343154113669, -187500.02235174447, -17891.856180650735, 10783.152077573786, 16451.956802839853, -187500.02235174447, -16477.862474663554, 28619.19595231962, -5883.292065059193, -39023.17303695357, -21934.34797934866, 0.006, 1.01, -0.01, 192.0, 0.0, 24.0, 15.5, 72.0, 127.5, 88.0, 0.0, 0.0, 0.0, 1.695680550758771E9, 0.0, 2023-09-25 17:22:30.758
104.0, -187500.02235174447, 20674.603661847552, -47214.34977225659, -40498.36581925939, -27916.926493278326, -11347.220700647915, -187500.02235174447, -17893.59961671825, 10774.211379791663, 16457.321221509126, -187500.02235174447, -16411.746014564756, 28722.662177403236, -5883.3367685481035, -38956.45307975449, -21895.299481785238, 0.006, 1.01, -0.01, 192.0, 0.0, 0.0, 0.0, 0.0, 0.0, 0.0, 0.0, 0.0, 0.0, 1.695680550819094E9, 0.0, 2023-09-25 17:22:30.819
106.0, -187500.02235174447, 20692.686223111898, -47193.76381561325, -40497.91878437028, -27915.38422291091, -11338.414113332525, -187500.02235174447, -17873.14777054164, 10795.356130046384, 16460.897500621977, -187500.02235174447, -16489.574788758135, 28607.79656264741, -5869.635149197001, -39027.19635095553, -21933.52096480381, 0.006, 1.01, -0.01, 192.0, 0.0, 0.0, 0.0, 0.0, 0.0, 0.0, 0.0, 0.0, 0.0, 1.695680550819116E9, 0.0, 2023-09-25 17:22:30.819
108.0, -187500.02235174447, 20707.974816319325, -47205.85610936357, -40506.12187458538, -27924.637845115405, -11348.762971015332, -187500.02235174447, -17895.63362546368, 10789.410566021272, 16468.69825943688, -187500.02235174447, -16417.378654167493, 28711.26278773103, -5857.766372891232, -38965.19261183651, -21894.874798640587, 0.006, 1.01, -0.01, 192.0, 0.0, 0.0, 0.0, 0.0, 0.0, 0.0, 0.0, 0.0, 0.0, 1.69568055081912E9, 0.0, 2023-09-25 17:22:30.819
110.0, -187500.02235174447, 20725.878563628026, -47205.789054130204, -40508.558214731005, -27916.032423500114, -11354.328555384704, -187500.02235174447, -17890.31391028332, 10795.534944002027, 16459.131712810005, -187500.02235174447, -16466.552491969167, 28624.985054133544, -5875.334844033104, -39010.36548738069, -21917.874743685097, 0.006, 1.01, -0.01, 192.0, 0.0, 0.0, 0.0, 0.0, 0.0, 0.0, 0.0, 0.0, 0.0, 1.695680550819124E9, 0.0, 2023-09-25 17:22:30.819
112.0, -187500.02235174447, 20743.022351625248, -47200.826966861125, -40509.20641532021, -27914.601911854974, -11352.048677450262, -187500.02235174447, -17885.55298871434, 10796.18314459123, 16477.706012452367, -187500.02235174447, -16418.272723945705, 28699.34930793635, -5851.843160610576, -38967.94187640451, -21900.596845221145, 0.004, 1.018, -0.006, 192.0, 0.0, 16.0, 15.5, 104.0, 127.5, 104.0, 0.0, 0.0, 0.0, 1.695680550819127E9, 0.0, 2023-09-25 17:22:30.819
114.0, -187500.02235174447, 20745.10106385959, -47211.13112105503, -40517.722429957685, -27918.111135734456, -11344.113808168628, -187500.02235174447, -17880.613253189713, 10800.251162082097, 16474.26384380625, -187500.02235174447, -16470.73226818231, 28612.669242938668, -5861.365003748537, -39024.69295557654, -21931.129328147093, 0.004, 1.018, -0.006, 192.0, 0.0, 0.0, 0.0, 0.0, 0.0, 0.0, 0.0, 0.0, 0.0, 1.69568055081913E9, 0.0, 2023-09-25 17:22:30.819
116.0, -187500.02235174447, 20744.67638071494, -47205.47612970783, -40532.29576734254, -27941.558115668075, -11372.411116649046, -187500.02235174447, -17899.54518074336, 10780.603978705882, 16472.051021105173, -187500.02235174447, -16416.797508811655, 28697.29294744646, -5865.187152050395, -38966.89134441511, -21897.62406320859, 0.004, 1.018, -0.006, 192.0, 0.0, 0.0, 0.0, 0.0, 0.0, 0.0, 0.0, 0.0, 0.0, 1.695680550819134E9, 0.0, 2023-09-25 17:22:30.819
118.0, -187500.02235174447, 20760.993154167314, -47219.75889441477, -40518.68355496926, -27921.173324724834, -11355.267328651826, -187500.02235174447, -17888.235198048973, 10799.938237659722, 16480.5893874871, -187500.02235174447, -16454.326087752117, 28632.539943759435, -5861.879093871009, -39006.968022223475, -21930.347017091157, 0.004, 1.018, -0.006, 192.0, 0.0, 0.0, 0.0, 0.0, 0.0, 0.0, 0.0, 0.0, 0.0, 1.695680550819137E9, 0.0, 2023-09-25 17:22:30.819
120.0, -187500.02235174447, 20760.92609893395, -47194.45671969136, -40523.98091840517, -27924.302568948577, -11356.67548855251, -187500.02235174447, -17888.19049456006, 10802.396929549806, 16486.60200674558, -187500.02235174447, -16439.283363733695, 28667.587479065358, -5845.91994832992, -38993.489920316926, -21926.94955193395, 0.004, 1.018, -0.006, 192.0, 0.0, 0.0, 0.0, 0.0, 0.0, 0.0, 0.0, 0.0, 0.0, 1.695680550879366E9, 0.0, 2023-09-25 17:22:30.879
122.0, -187500.02235174447, 20767.47516005935, -47219.33421127012, -40507.97706937517, -27904.565978594543, -11344.203215146448, -187500.02235174447, -17881.954357857034, 10806.196726107208, 16476.186093829405, -187500.02235174447, -16467.31245128065, 28622.19108607663, -5855.844122868076, -39028.515103878395, -21943.48984283088, 0.004, 1.016, -0.006, 192.0, 0.0, 16.0, 15.5, 96.0, 127.5, 104.0, 0.0, 0.0, 0.0, 1.695680550879373E9, 0.0, 2023-09-25 17:22:30.879
124.0, -187500.02235174447, 20757.61804075456, -47183.90669630846, -40522.34924105993, -27921.32978693602, -11350.841683249675, -187500.02235174447, -17891.342090528262, 10811.672903498758, 16488.434849790912, -187500.02235174447, -16471.805151916167, 28631.400004792216, -5843.036573295185, -39029.275063189874, -21947.96019172194, 0.004, 1.016, -0.006, 192.0, 0.0, 0.0, 0.0, 0.0, 0.0, 0.0, 0.0, 0.0, 0.0, 1.695680550879377E9, 0.0, 2023-09-25 17:22:30.879
126.0, -187500.02235174447, 20753.192395352413, -47216.33907751311, -40520.47169452569, -27927.52122015014, -11362.799866533263, -187500.02235174447, -17889.30808178283, 10791.601036977892, 16476.096686851586, -187500.02235174447, -16450.615698172536, 28642.57587701987, -5857.140524046484, -39017.875673517665, -21931.48695605838, 0.004, 1.016, -0.006, 192.0, 0.0, 0.0, 0.0, 0.0, 0.0, 0.0, 0.0, 0.0, 0.0, 1.69568055087938E9, 0.0, 2023-09-25 17:22:30.879
128.0, -187500.02235174447, 20748.83380518363, -47186.43244343191, -40534.75445923262, -27944.821470358547, -11376.233264950904, -187500.02235174447, -17910.20696284854, 10792.13747884482, 16483.271596821738, -187500.02235174447, -16445.184224269895, 28659.18322315016, -5856.604082179557, -38996.01566744038, -21918.500592529846, 0.004, 1.016, -0.006, 192.0, 0.0, 0.0, 0.0, 0.0, 0.0, 0.0, 0.0, 0.0, 0.0, 1.695680550879384E9, 0.0, 2023-09-25 17:22:30.879
130.0, -187500.02235174447, 20758.91444193297, -47231.09122885361, -40517.11893285739, -27928.70586260627, -11353.859168751142, -187500.02235174447, -17892.951416129043, 10783.50970548507, 16472.185131571907, -187500.02235174447, -16416.194011711363, 28690.7215345766, -5862.460239226847, -38970.57938225024, -21906.497705757345, 0.004, 1.016, -0.006, 192.0, 0.0, 0.0, 0.0, 0.0, 0.0, 0.0, 0.0, 0.0, 0.0, 1.695680550879387E9, 0.0, 2023-09-25 17:22:30.879
132.0, -187500.02235174447, 20755.941659920416, -47185.71718760934, -40526.394906806345, -27937.78067085513, -11359.603567076156, -187500.02235174447, -17882.222578790497, 10800.497031271105, 16487.049041634684, -187500.02235174447, -16449.92279409442, 28653.10354865832, -5850.055021054151, -38991.43355982704, -21920.735766975376, 0.004, 1.016, -0.006, 192.0, 0.0, 16.0, 15.5, 96.0, 127.5, 104.0, 0.0, 0.0, 0.0, 1.69568055087939E9, 0.0, 2023-09-25 17:22:30.879
134.0, -187500.02235174447, 20754.309982575178, -47226.17384507345, -40521.47752302617, -27932.99739754169, -11358.351869386659, -187500.02235174447, -17896.88532315318, 10789.567028232459, 16475.5378932402, -187500.02235174447, -16411.56720060911, 28700.936281792678, -5854.34655598957, -38959.0458821113, -21902.452040010936, 0.004, 1.016, -0.006, 192.0, 0.0, 0.0, 0.0, 0.0, 0.0, 0.0, 0.0, 0.0, 0.0, 1.695680550938181E9, 0.0, 2023-09-25 17:22:30.938
136.0, -187500.02235174447, 20756.098122131603, -47182.76675734124, -40524.78558120556, -27931.857458574472, -11376.546189373279, -187500.02235174447, -17892.68319519558, 10803.715682472668, 16477.97423338583, -187500.02235174447, -16453.20850052935, 28646.889763699743, -5855.01710832323, -38987.678466758545, -21916.71245297342, 0.004, 1.016, -0.006, 192.0, 0.0, 0.0, 0.0, 0.0, 0.0, 0.0, 0.0, 0.0, 0.0, 1.695680550938192E9, 0.0, 2023-09-25 17:22:30.938
138.0, -187500.02235174447, 20755.76284596477, -47213.00866758927, -40516.29191831254, -27933.4444324308, -11372.209950948949, -187500.02235174447, -17891.11857308371, 10794.730281201635, 16477.72836419682, -187500.02235174447, -16401.799488282144, 28711.799229597957, -5849.339765231582, -38948.62996919513, -21896.14884807454, 0.004, 1.016, -0.006, 192.0, 0.0, 0.0, 0.0, 0.0, 0.0, 0.0, 0.0, 0.0, 0.0, 1.695680550938195E9, 0.0, 2023-09-25 17:22:30.938
140.0, -187500.02235174447, 20755.226404097844, -47174.45190840387, -40518.482389269164, -27939.904086578383, -11371.941730015486, -187500.02235174447, -17893.53256148488, 10794.126784101341, 16481.125829354027, -187500.02235174447, -16443.038456802184, 28654.511708559003, -5859.487457214291, -38969.28298107183, -21905.6706912125, 0.004, 1.016, -0.006, 192.0, 0.0, 0.0, 0.0, 0.0, 0.0, 0.0, 0.0, 0.0, 0.0, 1.695680550938199E9, 0.0, 2023-09-25 17:22:30.938
142.0, -187500.02235174447, 20765.038819913723, -47214.14860655649, -40502.120912327875, -27922.894409047894, -11348.897081482064, -187500.02235174447, -17885.821209647802, 10793.858563167878, 16487.36196605706, -187500.02235174447, -16400.86071501502, 28724.33855823738, -5854.480666456302, -38937.67761441202, -21893.24312129535, 0.006, 1.016, -0.006, 192.0, 0.0, 24.0, 15.5, 96.0, 127.5, 104.0, 0.0, 0.0, 0.0, 1.695680550938202E9, 0.0, 2023-09-25 17:22:30.938
144.0, -187500.02235174447, 20753.751188963794, -47182.96792304134, -40520.024659636576, -27928.884676561916, -11357.837779264186, -187500.02235174447, -17881.19439854555, 10805.61558075137, 16492.12288762604, -187500.02235174447, -16471.313413538148, 28631.221190836575, -5854.771239134221, -38997.64734478561, -21927.44129031197, 0.006, 1.016, -0.006, 192.0, 0.0, 0.0, 0.0, 0.0, 0.0, 0.0, 0.0, 0.0, 0.0, 1.695680550938205E9, 0.0, 2023-09-25 17:22:30.938
146.0, -187500.02235174447, 20754.511148275276, -47220.0941705816, -40512.67093571078, -27926.2918742051, -11348.159473915039, -187500.02235174447, -17885.59769220325, 10792.673920711746, 16487.093745123595, -187500.02235174447, -16407.09685171805, 28730.373529240314, -5843.841236095576, -38940.60569293567, -21898.406374264523, 0.006, 1.016, -0.006, 192.0, 0.0, 0.0, 0.0, 0.0, 0.0, 0.0, 0.0, 0.0, 0.0, 1.695680550938208E9, 0.0, 2023-09-25 17:22:30.938
148.0, -187500.02235174447, 20736.227421310836, -47196.37896971452, -40534.24036911016, -27946.654313403884, -11376.456782395457, -187500.02235174447, -17897.31000629783, 10797.32308355845, 16476.007279873764, -187500.02235174447, -16467.670079191932, 28645.213382865597, -5859.286291514193, -38986.71734174697, -21919.75229021934, 0.006, 1.016, -0.006, 192.0, 0.0, 0.0, 0.0, 0.0, 0.0, 0.0, 0.0, 0.0, 0.0, 1.695680550938211E9, 0.0, 2023-09-25 17:22:30.938
150.0, -187500.02235174447, 20747.023313882746, -47227.51494974076, -40514.101447355926, -27931.298664963088, -11363.15749444455, -187500.02235174447, -17906.340111057772, 10785.499010741594, 16480.321166553636, -187500.02235174447, -16400.212514425817, 28748.79136667149, -5847.05988729714, -38923.52896017182, -21892.304348028225, 0.006, 1.016, -0.006, 192.0, 0.0, 0.0, 0.0, 0.0, 0.0, 0.0, 0.0, 0.0, 0.0, 1.69568055099862E9, 0.0, 2023-09-25 17:22:30.998
152.0, -187500.02235174447, 20744.743435948305, -47194.5908301581, -40517.364802046395, -27932.77388009714, -11366.465552623935, -187500.02235174447, -17889.084564338275, 10806.532002274038, 16485.260902078262, -187500.02235174447, -16489.418326546947, 28622.034623865442, -5847.998660564263, -39010.36548738069, -21948.809558011242, 0.008, 1.012, -0.014, 192.0, 0.0, 32.0, 15.5, 80.0, 127.5, 72.0, 0.0, 0.0, 0.0, 1.69568055099863E9, 0.0, 2023-09-25 17:22:30.998
154.0, -187500.02235174447, 20734.260467798766, -47206.86193786406, -40516.29191831254, -27938.58533365552, -11366.666718324032, -187500.02235174447, -17889.285730038373, 10796.09373761341, 16485.59617824509, -187500.02235174447, -16423.324218192603, 28715.509619177537, -5842.4777796838025, -38961.03518736782, -21922.25568559834, 0.008, 1.012, -0.014, 192.0, 0.0, 0.0, 0.0, 0.0, 0.0, 0.0, 0.0, 0.0, 0.0, 1.695680550998633E9, 0.0, 2023-09-25 17:22:30.998
156.0, -187500.02235174447, 20697.3353859586, -47194.389664458, -40534.776810977084, -27945.71554013676, -11380.6365586086, -187500.02235174447, -17886.514113725916, 10792.428051522738, 16464.11615182354, -187500.02235174447, -16479.270634564236, 28625.677958211658, -5863.331957260604, -39012.69006880403, -21943.780415508798, 0.008, 1.012, -0.014, 192.0, 0.0, 0.0, 0.0, 0.0, 0.0, 0.0, 0.0, 0.0, 0.0, 1.695680550998637E9, 0.0, 2023-09-25 17:22:30.998
158.0, -187500.02235174447, 20673.70959206934, -47217.43431299142, -40544.25395062613, -27953.851575118493, -11389.4878494129, -187500.02235174447, -17911.726881471503, 10765.471847709638, 16450.369828983527, -187500.02235174447, -16409.73435756378, 28736.430851987705, -5869.948073619375, -38936.11299230016, -21900.596845221145, 0.008, 1.012, -0.014, 192.0, 0.0, 0.0, 0.0, 0.0, 0.0, 0.0, 0.0, 0.0, 0.0, 1.695680550998641E9, 0.0, 2023-09-25 17:22:30.998
160.0, -187500.02235174447, 20651.268440636213, -47224.36335377257, -40543.49399131465, -27947.19075527081, -11386.87269531163, -187500.02235174447, -17893.376099273693, 10768.22111227764, 16430.8791078185, -187500.02235174447, -16474.107381595062, 28649.974304434578, -5885.661349971456, -38988.81840572577, -21933.655075270544, 0.008, 1.012, -0.014, 192.0, 0.0, 0.0, 0.0, 0.0, 0.0, 0.0, 0.0, 0.0, 0.0, 1.695680550998644E9, 0.0, 2023-09-25 17:22:30.998
162.0, -187500.02235174447, 20622.099414122036, -47232.924071898946, -40556.70387228774, -27965.832110146537, -11405.581105420722, -187500.02235174447, -17919.348826330763, 10746.472864922627, 16427.101663005553, -187500.02235174447, -16423.05599725914, 28740.923552623222, -5873.814925410143, -38927.41816370704, -21901.625025466088, 0.006, 1.01, -0.012, 192.0, 0.0, 24.0, 15.5, 72.0, 127.5, 80.0, 0.0, 0.0, 0.0, 1.695680550998648E9, 0.0, 2023-09-25 17:22:30.998
164.0, -187500.02235174447, 20621.026530388182, -47242.781191203736, -40529.390040563354, -27941.178136012335, -11377.909645785052, -187500.02235174447, -17892.34791902875, 10751.36789695834, 16407.47683137379, -187500.02235174447, -16490.55826551417, 28645.749824732524, -5902.35810307957, -38987.611411525184, -21947.11082543264, 0.006, 1.01, -0.012, 192.0, 0.0, 0.0, 0.0, 0.0, 0.0, 0.0, 0.0, 0.0, 0.0, 1.695680551060419E9, 0.0, 2023-09-25 17:22:31.060
166.0, -187500.02235174447, 20610.565913983097, -47212.651039677985, -40529.054764396526, -27941.535763923617, -11372.969910260428, -187500.02235174447, -17892.392622517662, 10747.433989934205, 16420.01616001322, -187500.02235174447, -16478.801247930678, 28678.852758270834, -5875.960692877852, -38976.636704997625, -21946.999066710363, 0.006, 1.01, -0.012, 192.0, 0.0, 0.0, 0.0, 0.0, 0.0, 0.0, 0.0, 0.0, 0.0, 1.695680551060431E9, 0.0, 2023-09-25 17:22:31.060
168.0, -187500.02235174447, 20595.12085856448, -47228.14079858551, -40525.63494749486, -27933.28797021961, -11359.380049631602, -187500.02235174447, -17883.49662822445, 10738.560347385448, 16406.96274125132, -187500.02235174447, -16510.8983529685, 28621.18525757614, -5882.2191813253385, -39011.68424030355, -21961.617107584134, 0.006, 1.01, -0.012, 192.0, 0.0, 0.0, 0.0, 0.0, 0.0, 0.0, 0.0, 0.0, 0.0, 1.695680551060435E9, 0.0, 2023-09-25 17:22:31.060
170.0, -187500.02235174447, 20582.290957247133, -47209.9464785989, -40533.77098247659, -27937.065415032557, -11372.366413160136, -187500.02235174447, -17888.503418982436, 10731.541899626482, 16402.6712063159, -187500.02235174447, -16495.83327720562, 28648.454385811616, -5881.615684225045, -38994.406341839596, -21948.429578355503, 0.006, 1.01, -0.012, 192.0, 0.0, 0.0, 0.0, 0.0, 0.0, 0.0, 0.0, 0.0, 0.0, 1.695680551060438E9, 0.0, 2023-09-25 17:22:31.060
172.0, -187500.02235174447, 20573.26085248719, -47230.24186256431, -40525.970223661694, -27935.634903387418, -11363.939805500486, -187500.02235174447, -17886.290596281364, 10733.911184538745, 16394.28930214516, -187500.02235174447, -16518.587353061124, 28607.57304520286, -5888.701187217377, -39030.99614751293, -21965.77453205282, 0.004, 1.016, -0.016, 192.0, 0.0, 16.0, 15.5, 96.0, 127.5, 64.0, 0.0, 0.0, 0.0, 1.695680551060442E9, 0.0, 2023-09-25 17:22:31.060
174.0, -187500.02235174447, 20552.74195107722, -47202.525699439735, -40554.89338098686, -27959.90889786588, -11358.5306833423, -187500.02235174447, -17901.199209833052, 10721.081283221398, 16387.7178892753, -187500.02235174447, -16506.338597099613, 28643.112318886797, -5889.707015717866, -39006.409228612094, -21942.707531774944, 0.004, 1.016, -0.016, 192.0, 0.0, 0.0, 0.0, 0.0, 0.0, 0.0, 0.0, 0.0, 0.0, 1.695680551060446E9, 0.0, 2023-09-25 17:22:31.060
176.0, -187500.02235174447, 20550.238555698223, -47243.51879877076, -40547.38319484988, -27952.510470451176, -11384.793983077287, -187500.02235174447, -17898.29348305386, 10712.207640672641, 16370.529397789169, -187500.02235174447, -16498.224913862337, 28659.026760938974, -5903.922725191442, -38992.86407147218, -21933.409206081535, 0.004, 1.016, -0.016, 192.0, 0.0, 0.0, 0.0, 0.0, 0.0, 0.0, 0.0, 0.0, 0.0, 1.695680551060449E9, 0.0, 2023-09-25 17:22:31.060
178.0, -187500.02235174447, 20558.754570335695, -47221.52468222674, -40548.92546521729, -27961.83114788904, -11374.713346327942, -187500.02235174447, -17903.322625556306, 10712.319399394919, 16370.395287322437, -187500.02235174447, -16507.16561164446, 28665.95580172012, -5905.107367647573, -38973.12748111814, -21924.08852864367, 0.004, 1.016, -0.016, 192.0, 0.0, 0.0, 0.0, 0.0, 0.0, 0.0, 0.0, 0.0, 0.0, 1.695680551060452E9, 0.0, 2023-09-25 17:22:31.060
180.0, -187500.02235174447, 20556.809968568083, -47262.96481644688, -40543.35988084792, -27938.58533365552, -11384.414003421547, -187500.02235174447, -17893.130230084687, 10722.578850099904, 16382.599339795035, -187500.02235174447, -16508.327902356137, 28664.167662163698, -5901.374626323536, -38988.23726036993, -21946.507328332347, 0.004, 1.016, -0.016, 192.0, 0.0, 0.0, 0.0, 0.0, 0.0, 0.0, 0.0, 0.0, 0.0, 1.695680551120832E9, 0.0, 2023-09-25 17:22:31.120
182.0, -187500.02235174447, 20535.978142735737, -47230.48773175332, -40571.88070677289, -27961.2500025332, -11406.005788565373, -187500.02235174447, -17917.58303851879, 10712.632323817292, 16371.401115822926, -187500.02235174447, -16532.288972412225, 28635.982112405552, -5899.07239664464, -38998.47435933046, -21951.804691768255, 0.002, 1.018, -0.012, 192.0, 0.0, 8.0, 15.5, 104.0, 127.5, 80.0, 0.0, 0.0, 0.0, 1.695680551120844E9, 0.0, 2023-09-25 17:22:31.120
184.0, -187500.02235174447, 20532.088939200516, -47278.432223609954, -40572.48420387319, -27956.153804797388, -11411.303152001281, -187500.02235174447, -17919.50528854195, 10698.953056210645, 16355.151397603919, -187500.02235174447, -16491.832314948122, 28693.470799144605, -5900.815832712154, -38964.14207984711, -21936.471395071912, 0.002, 1.018, -0.012, 192.0, 0.0, 0.0, 0.0, 0.0, 0.0, 0.0, 0.0, 0.0, 0.0, 1.695680551120847E9, 0.0, 2023-09-25 17:22:31.120
186.0, -187500.02235174447, 20521.360101861967, -47241.48479002533, -40595.84177682898, -27974.97397362876, -11417.11460555966, -187500.02235174447, -17918.83473620829, 10705.144489424765, 16350.166958590384, -187500.02235174447, -16546.974068519365, 28634.797469949423, -5915.411521841469, -38993.624030783656, -21958.353752893658, 0.002, 1.018, -0.012, 192.0, 0.0, 0.0, 0.0, 0.0, 0.0, 0.0, 0.0, 0.0, 0.0, 1.695680551120851E9, 0.0, 2023-09-25 17:22:31.120
188.0, -187500.02235174447, 20536.69339855831, -47277.89578174303, -40557.6202938104, -27947.61543841546, -11395.835744838208, -187500.02235174447, -17905.557800001836, 10705.569172569416, 16342.120330586475, -187500.02235174447, -16518.162669916474, 28694.521331134005, -5927.816740014165, -38963.42682402454, -21952.25172665736, 0.002, 1.018, -0.012, 192.0, 0.0, 0.0, 0.0, 0.0, 0.0, 0.0, 0.0, 0.0, 0.0, 1.695680551120854E9, 0.0, 2023-09-25 17:22:31.120
190.0, -187500.02235174447, 20523.885848985417, -47229.638365464016, -40572.50655561764, -27967.553194469598, -11403.614151908654, -187500.02235174447, -17895.052480107843, 10715.292181407474, 16342.254441053206, -187500.02235174447, -16588.481257972868, 28600.308728254884, -5908.236611871316, -39023.86594103169, -21982.717154349943, 0.002, 1.018, -0.012, 192.0, 0.0, 0.0, 0.0, 0.0, 0.0, 0.0, 0.0, 0.0, 0.0, 1.695680551120858E9, 0.0, 2023-09-25 17:22:31.120
192.0, -187500.02235174447, 20539.621477081953, -47277.62756080956, -40553.03818619707, -27950.72233089475, -11376.903817284563, -187500.02235174447, -17886.938796870567, 10701.054120189443, 16341.89681314192, -187500.02235174447, -16524.331751386137, 28689.179264209186, -5915.635039286022, -38968.41126303808, -21946.95436322145, 0.006, 1.02, -0.008, 192.0, 0.0, 24.0, 15.5, 112.0, 127.5, 96.0, 0.0, 0.0, 0.0, 1.695680551120861E9, 0.0, 2023-09-25 17:22:31.120
194.0, -187500.02235174447, 20525.53987807511, -47233.81814167716, -40567.298599159556, -27964.938040368324, -11390.024291279828, -187500.02235174447, -17880.38973574516, 10713.16876568422, 16345.160167832395, -187500.02235174447, -16599.590074967156, 28584.774265858447, -5914.651562529989, -39031.13025797967, -21973.128255978616, 0.006, 1.02, -0.008, 192.0, 0.0, 0.0, 0.0, 0.0, 0.0, 0.0, 0.0, 0.0, 0.0, 1.695680551179519E9, 0.0, 2023-09-25 17:22:31.179
196.0, -187500.02235174447, 20530.591372322007, -47256.549865788205, -40557.66499729932, -27959.663028676874, -11386.269198211337, -187500.02235174447, -17899.54518074336, 10696.136736409277, 16343.372028275971, -187500.02235174447, -16533.294800912714, 28683.770142051002, -5908.705998504877, -38971.272286328356, -21935.24204912687, 0.006, 1.02, -0.008, 192.0, 0.0, 0.0, 0.0, 0.0, 0.0, 0.0, 0.0, 0.0, 0.0, 1.69568055117953E9, 0.0, 2023-09-25 17:22:31.179
198.0, -187500.02235174447, 20525.741043775208, -47231.314746298165, -40562.6270845684, -27961.182947299832, -11391.365395947147, -187500.02235174447, -17883.384869502173, 10702.506983579038, 16341.09215034153, -187500.02235174447, -16597.310197032715, 28590.496312439005, -5914.137472407517, -39024.78236255436, -21961.706514561953, 0.006, 1.02, -0.008, 192.0, 0.0, 0.0, 0.0, 0.0, 0.0, 0.0, 0.0, 0.0, 0.0, 1.695680551179534E9, 0.0, 2023-09-25 17:22:31.179
200.0, -187500.02235174447, 20519.236686138713, -47256.1028308991, -40559.69900604475, -27965.608592701985, -11407.101024043683, -187500.02235174447, -17902.987349389477, 10688.000701427543, 16341.717999186278, -187500.02235174447, -16519.03438795023, 28703.372621938306, -5907.700170004388, -38951.15571631858, -21916.645397740056, 0.006, 1.02, -0.008, 192.0, 0.0, 0.0, 0.0, 0.0, 0.0, 0.0, 0.0, 0.0, 0.0, 1.695680551179537E9, 0.0, 2023-09-25 17:22:31.179
202.0, -187500.02235174447, 20533.944133990306, -47248.01149940628, -40550.53479081807, -27948.66597040486, -11385.35277668867, -187500.02235174447, -17889.151619571643, 10714.331056395897, 16343.528490487159, -187500.02235174447, -16596.863162143607, 28586.964736815065, -5922.474673089347, -39025.855246288214, -21964.701648318965, 0.006, 1.018, -0.01, 192.0, 0.0, 24.0, 15.5, 104.0, 127.5, 88.0, 0.0, 0.0, 0.0, 1.69568055117954E9, 0.0, 2023-09-25 17:22:31.179
204.0, -187500.02235174447, 20533.11711944546, -47259.075612911656, -40551.630026296385, -27956.10910130848, -11390.15840174656, -187500.02235174447, -17894.516038240916, 10714.107538951343, 16364.472075041782, -187500.02235174447, -16551.667934854977, 28654.578763792368, -5890.086995373606, -38999.0555046863, -21956.54326159278, 0.006, 1.018, -0.01, 192.0, 0.0, 0.0, 0.0, 0.0, 0.0, 0.0, 0.0, 0.0, 0.0, 1.695680551179543E9, 0.0, 2023-09-25 17:22:31.179
206.0, -187500.02235174447, 20528.4456048543, -47248.61499650658, -40559.9225234893, -27962.032313589134, -11404.150593775583, -187500.02235174447, -17900.439250521573, 10720.991876243577, 16349.652868467912, -187500.02235174447, -16600.86412440111, 28564.858861548768, -5905.308533347671, -39053.124374523686, -21982.20306422747, 0.006, 1.018, -0.01, 192.0, 0.0, 0.0, 0.0, 0.0, 0.0, 0.0, 0.0, 0.0, 0.0, 1.695680551179547E9, 0.0, 2023-09-25 17:22:31.179
208.0, -187500.02235174447, 20534.949962490795, -47236.410944033974, -40554.11106993092, -27966.815586902572, -11404.910553087062, -187500.02235174447, -17910.40812854864, 10723.852899533857, 16361.365182562493, -187500.02235174447, -16539.12860621555, 28653.930563203165, -5904.056835658173, -39000.93305122054, -21955.939764492487, 0.006, 1.018, -0.01, 192.0, 0.0, 0.0, 0.0, 0.0, 0.0, 0.0, 0.0, 0.0, 0.0, 1.69568055117955E9, 0.0, 2023-09-25 17:22:31.179
210.0, -187500.02235174447, 20525.83045075303, -47232.432333520934, -40557.03914845457, -27976.4044852739, -11415.97466659244, -187500.02235174447, -17912.44213729407, 10720.857765776846, 16349.764627190189, -187500.02235174447, -16569.48227518586, 28594.18435027413, -5922.228803900338, -39026.19052245504, -21963.33819190719, 0.006, 1.018, -0.01, 192.0, 0.0, 0.0, 0.0, 0.0, 0.0, 0.0, 0.0, 0.0, 0.0, 1.695680551238836E9, 0.0, 2023-09-25 17:22:31.238
212.0, -187500.02235174447, 20536.603991580487, -47229.28073755273, -40542.2199418807, -27968.693133436816, -11406.385768221113, -187500.02235174447, -17914.342035572772, 10714.59927732936, 16368.629499510469, -187500.02235174447, -16513.111175669572, 28677.824578025888, -5912.125815406539, -38964.65616996958, -21933.118633403617, 0.006, 1.01, -0.008, 192.0, 0.0, 24.0, 15.5, 72.0, 127.5, 96.0, 0.0, 0.0, 0.0, 1.695680551238848E9, 0.0, 2023-09-25 17:22:31.238
214.0, -187500.02235174447, 20520.01899719465, -47231.605318976086, -40544.902151215334, -27965.87681363545, -11407.928038588529, -187500.02235174447, -17901.802706933344, 10715.06866396292, 16355.956060404309, -187500.02235174447, -16547.04112375273, 28614.18916156163, -5917.512585820268, -39003.212929154986, -21951.91645049053, 0.006, 1.01, -0.008, 192.0, 0.0, 0.0, 0.0, 0.0, 0.0, 0.0, 0.0, 0.0, 0.0, 1.695680551238852E9, 0.0, 2023-09-25 17:22:31.238
216.0, -187500.02235174447, 20533.497099101198, -47212.62868793353, -40535.268549355096, -27954.902107107893, -11392.080651769716, -187500.02235174447, -17881.753192156935, 10717.25913491954, 16359.554691261614, -187500.02235174447, -16515.7486815153, 28667.60983080981, -5901.039350156707, -38966.26549557036, -21931.71047350293, 0.006, 1.01, -0.008, 192.0, 0.0, 0.0, 0.0, 0.0, 0.0, 0.0, 0.0, 0.0, 0.0, 1.695680551238855E9, 0.0, 2023-09-25 17:22:31.238
218.0, -187500.02235174447, 20522.790613507106, -47236.34388880061, -40540.655319768826, -27949.71650239426, -11394.49464017089, -187500.02235174447, -17896.751212686446, 10719.851937276357, 16347.931784144854, -187500.02235174447, -16539.03919923773, 28624.22509482206, -5911.187042139416, -38993.065237172275, -21942.551069563757, 0.006, 1.01, -0.008, 192.0, 0.0, 0.0, 0.0, 0.0, 0.0, 0.0, 0.0, 0.0, 0.0, 1.695680551238859E9, 0.0, 2023-09-25 17:22:31.238
220.0, -187500.02235174447, 20527.283314142624, -47214.752103656785, -40543.18106689228, -27940.23936274521, -11396.841573338697, -187500.02235174447, -17910.0281488929, 10727.898565280268, 16349.161130089895, -187500.02235174447, -16542.011981250285, 28636.697368228124, -5912.237574128816, -38984.48216730144, -21944.741540520376, 0.006, 1.01, -0.008, 192.0, 0.0, 0.0, 0.0, 0.0, 0.0, 0.0, 0.0, 0.0, 0.0, 1.695680551238862E9, 0.0, 2023-09-25 17:22:31.238
222.0, -187500.02235174447, 20520.2425146392, -47237.752048701295, -40550.06540418451, -27947.1460517819, -11407.5927624217, -187500.02235174447, -17896.572398730805, 10727.920917024723, 16351.396304535427, -187500.02235174447, -16558.57462389167, 28608.37770800325, -5916.283239875226, -39011.81835077028, -21964.14285470758, 0.014, 1.008, -0.008, 192.0, 0.0, 56.0, 15.5, 64.0, 127.5, 96.0, 0.0, 0.0, 0.0, 1.695680551238866E9, 0.0, 2023-09-25 17:22:31.238
224.0, -187500.02235174447, 20515.705110514773, -47210.01353383226, -40563.588209579975, -27964.468653734762, -11423.194280051504, -187500.02235174447, -17919.572343775315, 10711.894716250268, 16342.723827686767, -187500.02235174447, -16544.18010046245, 28641.81591770839, -5919.032504443229, -38978.4024928096, -21938.5277555618, 0.014, 1.008, -0.008, 192.0, 0.0, 0.0, 0.0, 0.0, 0.0, 0.0, 0.0, 0.0, 0.0, 1.695680551300126E9, 0.0, 2023-09-25 17:22:31.300
226.0, -187500.02235174447, 20532.20069792279, -47249.129086629044, -40546.26560762711, -27950.00707507218, -11402.407157708069, -187500.02235174447, -17913.02328264991, 10713.504041851049, 16343.416731764883, -187500.02235174447, -16536.289934669727, 28650.82367072388, -5924.866309746064, -38978.04486489831, -21941.478185829903, 0.014, 1.008, -0.008, 192.0, 0.0, 0.0, 0.0, 0.0, 0.0, 0.0, 0.0, 0.0, 0.0, 1.695680551300144E9, 0.0, 2023-09-25 17:22:31.300
228.0, -187500.02235174447, 20542.01311373867, -47209.90177510998, -40558.17908742179, -27967.48613923623, -11416.511108459366, -187500.02235174447, -17915.906657684645, 10725.59633560137, 16358.034772638652, -187500.02235174447, -16555.579490134656, 28626.370862289772, -5913.891603218509, -38987.834928969736, -21948.29546788877, 0.014, 1.008, -0.008, 192.0, 0.0, 0.0, 0.0, 0.0, 0.0, 0.0, 0.0, 0.0, 0.0, 1.695680551300148E9, 0.0, 2023-09-25 17:22:31.300
230.0, -187500.02235174447, 20556.139416234426, -47248.32442382866, -40540.07417441299, -27958.456034476287, -11399.613189651154, -187500.02235174447, -17920.86874495372, 10727.8315100469, 16368.80831346611, -187500.02235174447, -16518.944980972406, 28664.614697052803, -5914.36098985207, -38963.85150716919, -21941.20996489644, 0.014, 1.008, -0.008, 192.0, 0.0, 0.0, 0.0, 0.0, 0.0, 0.0, 0.0, 0.0, 0.0, 1.695680551300151E9, 0.0, 2023-09-25 17:22:31.300
232.0, -187500.02235174447, 20554.17246272236, -47197.764777870754, -40545.617407037906, -27970.86125264898, -11414.87943111413, -187500.02235174447, -17920.578172275804, 10747.210472489653, 16381.414697338903, -187500.02235174447, -16558.03818202474, 28606.030774835443, -5911.723484006344, -38997.759103507895, -21961.77356979532, 0.01, 1.01, -0.008, 192.0, 0.0, 40.0, 15.5, 72.0, 127.5, 96.0, 0.0, 0.0, 0.0, 1.695680551300155E9, 0.0, 2023-09-25 17:22:31.300
234.0, -187500.02235174447, 20573.68553563184, -47241.462438280876, -40524.092677127446, -27960.311229266077, -11399.277913484326, -187500.02235174447, -17926.344922345274, 10739.141492741286, 16387.04733694164, -187500.02235174447, -16495.945035927896, 28672.035476211964, -5899.988818167308, -38955.40254776509, -21934.370331093112, 0.01, 1.01, -0.008, 192.0, 0.0, 0.0, 0.0, 0.0, 0.0, 0.0, 0.0, 0.0, 0.0, 1.695680551300158E9, 0.0, 2023-09-25 17:22:31.300
236.0, -187500.02235174447, 20560.36389593648, -47198.23416450431, -40545.46094482672, -27971.509453238185, -11422.16609980656, -187500.02235174447, -17940.426521352118, 10746.003478289065, 16392.523514333192, -187500.02235174447, -16550.32683018766, 28593.938481085122, -5894.3114750756595, -38997.93791746353, -21955.872709259118, 0.01, 1.01, -0.008, 192.0, 0.0, 0.0, 0.0, 0.0, 0.0, 0.0, 0.0, 0.0, 0.0, 1.695680551300162E9, 0.0, 2023-09-25 17:22:31.300
238.0, -187500.02235174447, 20557.03348601264, -47235.60628123359, -40541.5717412915, -27965.2509647907, -11406.92221008804, -187500.02235174447, -17921.651056009658, 10733.061818249444, 16381.95113920583, -187500.02235174447, -16486.669061978944, 28678.316316403907, -5899.765300722755, -38944.45019298198, -21928.313008345725, 0.01, 1.01, -0.008, 192.0, 0.0, 0.0, 0.0, 0.0, 0.0, 0.0, 0.0, 0.0, 0.0, 1.695680551300165E9, 0.0, 2023-09-25 17:22:31.300
240.0, -187500.02235174447, 20559.291012202622, -47208.873594865036, -40551.74178501866, -27956.086749564023, -11404.150593775583, -187500.02235174447, -17917.538335029883, 10741.197853231175, 16373.815104224099, -187500.02235174447, -16534.546498602213, 28606.097830068808, -5920.574774810645, -38975.36265556367, -21944.562726564734, 0.01, 1.01, -0.008, 192.0, 0.0, 0.0, 0.0, 0.0, 0.0, 0.0, 0.0, 0.0, 0.0, 1.695680551359936E9, 0.0, 2023-09-25 17:22:31.359
242.0, -187500.02235174447, 20564.566023894076, -47239.02609813525, -40542.51051455862, -27947.05664480408, -11403.457689697469, -187500.02235174447, -17924.109747899744, 10750.518530669038, 16384.7674590072, -187500.02235174447, -16489.619492247046, 28676.05879021392, -5925.134530679528, -38942.304425514274, -21937.186650894484, 0.01, 1.01, -0.006, 192.0, 0.0, 40.0, 15.5, 72.0, 127.5, 104.0, 0.0, 0.0, 0.0, 1.695680551359952E9, 0.0, 2023-09-25 17:22:31.359
244.0, -187500.02235174447, 20566.06359077258, -47207.35367624208, -40540.90118895783, -27945.693188392306, -11399.5908379067, -187500.02235174447, -17908.73174771449, 10753.625423148325, 16379.604206038024, -187500.02235174447, -16549.209242964895, 28584.930728069634, -5914.875079974542, -38988.50548130339, -21962.377066895613, 0.01, 1.01, -0.006, 192.0, 0.0, 0.0, 0.0, 0.0, 0.0, 0.0, 0.0, 0.0, 0.0, 1.695680551359958E9, 0.0, 2023-09-25 17:22:31.359
