%OpenBCI Raw EXG Data
%Number of channels = 16
%Sample Rate = 125 Hz
%Board = OpenBCI_GUI$BoardCytonSerialDaisy
Sample Index, EXG Channel 0, EXG Channel 1, EXG Channel 2, EXG Channel 3, EXG Channel 4, EXG Channel 5, EXG Channel 6, EXG Channel 7, EXG Channel 8, EXG Channel 9, EXG Channel 10, EXG Channel 11, EXG Channel 12, EXG Channel 13, EXG Channel 14, EXG Channel 15, Accel Channel 0, Accel Channel 1, Accel Channel 2, Other, Other, Other, Other, Other, Other, Other, Analog Channel 0, Analog Channel 1, Analog Channel 2, Timestamp, Other, Timestamp (Formatted)
208.0, -161911.87940977566, 51581.61241789012, -51573.9234177975, -41964.19322063842, 2621.3455344850463, -9201.274418982795, -187500.02235174447, 4690.759443135195, 14098.184001229287, -28455.9164590736, 4781.418118645921, -16640.38200859809, -16873.644813733677, -7192.61255176217, -23070.42009477855, -30832.376281306304, 0.0, 0.0, 0.0, 192.0, 0.0, 0.0, 0.0, 0.0, 0.0, 0.0, 0.0, 0.0, 0.0, 1.695755206101565E9, 0.0, 2023-09-26 14:06:46.101
210.0, -161899.58595032524, 51582.79706034626, -51581.88063882359, -41970.54111606373, 2610.259069235214, -9208.181108019484, -187500.02235174447, 4681.1258412749585, 14078.581521341983, -28423.48407786895, 4776.65719707694, -16618.5220025208, -16894.81191573285, -7203.274333867352, -23096.28106311334, -30859.10896767485, 0.0, 0.0, 0.0, 192.0, 0.0, 0.0, 0.0, 0.0, 0.0, 0.0, 0.0, 0.0, 0.0, 1.695755206101589E9, 0.0, 2023-09-26 14:06:46.101
212.0, -161909.0183864854, 51589.614342405126, -51572.604664874634, -41966.27193287277, 2615.4670256933005, -9210.39393072056, -187500.02235174447, 4691.251181513212, 14098.720443096214, -28444.67353161258, 4774.980816242793, -16631.217793371416, -16881.44557254858, -7198.021673920354, -23082.311222828775, -30846.301418101957, 0.0, 0.0, 0.0, 192.0, 0.0, 0.0, 0.0, 0.0, 0.0, 0.0, 0.0, 0.0, 0.0, 1.695755206101604E9, 0.0, 2023-09-26 14:06:46.101
214.0, -161902.04464221533, 51594.66583665203, -51572.04587126325, -41967.009540439794, 2603.866470320996, -9217.702951157446, -187500.02235174447, 4674.219152238268, 14088.103364479945, -28418.007900477398, 4782.870982035516, -16611.99529313985, -16888.218151118537, -7203.117871656164, -23089.75435373239, -30858.237249641094, 0.0, 0.0, 0.0, 192.0, 0.0, 0.0, 0.0, 0.0, 0.0, 0.0, 0.0, 0.0, 0.0, 1.695755206101616E9, 0.0, 2023-09-26 14:06:46.101
216.0, -161908.83957252975, 51604.902935612554, -51561.76406881381, -41957.554752535194, 2608.4932814232448, -9211.10918654313, -187500.02235174447, 4684.970341321271, 14103.660178620838, -28434.123508229677, 4781.932208768393, -16621.830060700187, -16883.27841559391, -7205.978894946444, -23085.015783907867, -30850.235325126094, 0.112, 1.01, 0.098, 192.0, 1.5, 64.0, 15.5, 72.0, 1.5, 8.0, 0.0, 0.0, 0.0, 1.695755206101625E9, 0.0, 2023-09-26 14:06:46.101
218.0, -161896.94844447952, 51612.10019732716, -51554.9691384994, -41950.24573209831, 2616.785778616164, -9203.219020750406, -187500.02235174447, 4680.231771496746, 14112.109138024944, -28398.51717931237, 4799.590086888085, -16600.126516834083, -16881.28911033739, -7193.864249451667, -23081.439504795017, -30845.541458790478, 0.112, 1.01, 0.098, 192.0, 0.0, 0.0, 0.0, 0.0, 0.0, 0.0, 0.0, 0.0, 0.0, 1.695755206101635E9, 0.0, 2023-09-26 14:06:46.101
220.0, -161904.19040968304, 51609.41798799253, -51565.273292693295, -41959.92403744746, 2613.902403581429, -9212.986733077376, -187500.02235174447, 4687.764309378184, 14131.46574872324, -28415.079821953754, 4795.18679323039, -16616.6221042421, -16881.758496970953, -7196.9487901864995, -23071.940013401512, -30835.885505185786, 0.112, 1.01, 0.098, 192.0, 0.0, 0.0, 0.0, 0.0, 0.0, 0.0, 0.0, 0.0, 0.0, 1.695755206101645E9, 0.0, 2023-09-26 14:06:46.101
222.0, -161878.24003437045, 51620.862081153646, -51565.34034792666, -41960.438127569934, 2609.5438134126443, -9212.852622610644, -187500.02235174447, 4672.140440003925, 14106.588257144484, -28390.80582747529, 4795.5891246305855, -16592.392813252547, -16894.610750032753, -7203.542554800815, -23085.37341181915, -30852.850479227363, 0.112, 1.01, 0.098, 192.0, 0.0, 0.0, 0.0, 0.0, 0.0, 0.0, 0.0, 0.0, 0.0, 1.695755206101654E9, 0.0, 2023-09-26 14:06:46.101
224.0, -161905.93384575055, 51622.9854968769, -51544.82144651669, -41937.3487755476, 2632.9460898573507, -9178.833267549666, -187500.02235174447, 4681.170544763869, 14113.539649670083, -28422.63471157965, 4793.152784484957, -16617.359711809124, -16874.538883511887, -7202.827298978245, -23072.074123868242, -30833.49386852907, 0.112, 1.01, 0.098, 192.0, 0.0, 0.0, 0.0, 0.0, 0.0, 0.0, 0.0, 0.0, 0.0, 1.695755206101684E9, 0.0, 2023-09-26 14:06:46.101
0.0, -81013.18252243788, 25683.473132070678, -25776.72460993822, -20933.61567659565, 1195.7065696366512, -4541.203920984736, -93750.01117587223, 2033.0476204213644, 7062.078364143177, -14207.57343859356, 2407.5510987700345, -8300.007379055904, -8431.56974691984, -3593.37819735744, -11532.13668252667, -15410.901953089471, 0.116, 1.01, 0.094, 192.0, 1.5, 80.0, 15.5, 72.0, 1.0, 120.0, 0.0, 0.0, 0.0, 1.695755206243525E9, 0.0, 2023-09-26 14:06:46.243
2.0, -162050.97431552105, 51365.13577284048, -51551.48226636437, -41864.61619909003, 2395.4811567641686, -9083.570132681149, -187500.02235174447, 4083.127270117673, 13615.632190183664, -28555.873460277733, 4429.467550452656, -16748.74326571742, -17216.565277166996, -7210.762168259879, -23189.64429970316, -30800.592100690857, 0.116, 1.01, 0.094, 192.0, 0.0, 0.0, 0.0, 0.0, 0.0, 0.0, 0.0, 0.0, 0.0, 1.695755206243548E9, 0.0, 2023-09-26 14:06:46.243
4.0, -162023.5487250744, 51375.50698226774, -51575.39863293155, -41888.82313833513, 2368.6814151622552, -9106.033635858732, -187500.02235174447, 4087.776432964377, 13604.769242378385, -28524.31279710684, 4432.105056298382, -16721.652951437587, -17233.73141690867, -7218.294706141318, -23209.224427846006, -30820.28398755598, 0.116, 1.01, 0.094, 192.0, 0.0, 0.0, 0.0, 0.0, 0.0, 0.0, 0.0, 0.0, 0.0, 1.695755206243558E9, 0.0, 2023-09-26 14:06:46.243
6.0, -162036.22216418054, 51362.99000537277, -51585.278103980796, -41899.686086140406, 2358.310205734993, -9115.667237718968, -187500.02235174447, 4084.155450362617, 13592.386375950144, -28531.733576266, 4415.274192723536, -16740.562527246777, -17247.880071148884, -7239.260642440396, -23227.0834716658, -30835.080842385396, 0.116, 1.01, 0.094, 192.0, 0.0, 0.0, 0.0, 0.0, 0.0, 0.0, 0.0, 0.0, 0.0, 1.695755206243566E9, 0.0, 2023-09-26 14:06:46.243
8.0, -162026.61091406477, 51371.9754066438, -51564.49098163736, -41879.81538531964, 2375.9010286213197, -9100.378644511538, -187500.02235174447, 4079.0145491378967, 13601.505887687908, -28519.306006348852, 4422.806730604974, -16722.614076449165, -17241.532175723576, -7236.824302294768, -23223.529544297406, -30832.465688284123, 0.11800000000000001, 1.004, 0.094, 192.0, 1.5, 88.0, 15.5, 48.0, 1.0, 120.0, 0.0, 0.0, 0.0, 1.695755206243575E9, 0.0, 2023-09-26 14:06:46.243
10.0, -162047.17451896364, 51356.820923903106, -51569.02838576179, -41883.615181877045, 2368.748470395621, -9110.392226027516, -187500.02235174447, 4078.679272971067, 13607.02676856837, -28544.854050261267, 4424.572518416943, -16746.686905227532, -17236.27951577658, -7231.325773158762, -23212.21956160302, -30824.039080624472, 0.11800000000000001, 1.004, 0.094, 192.0, 0.0, 0.0, 0.0, 0.0, 0.0, 0.0, 0.0, 0.0, 0.0, 1.695755206243585E9, 0.0, 2023-09-26 14:06:46.243
12.0, -162031.28242865592, 51365.78397342968, -51558.23249318988, -41878.161356229946, 2377.823278644476, -9103.977275368843, -187500.02235174447, 4076.868781670187, 13595.806192851805, -28532.7841082554, 4434.831969121929, -16724.73749217242, -17241.152196067833, -7232.644526081625, -23217.494573294473, -30828.017691137517, 0.11800000000000001, 1.004, 0.094, 192.0, 0.0, 0.0, 0.0, 0.0, 0.0, 0.0, 0.0, 0.0, 0.0, 1.695755206243594E9, 0.0, 2023-09-26 14:06:46.243
14.0, -162052.56128937737, 51354.31752852411, -51572.09057475216, -41894.74635061579, 2365.9097988497974, -9120.316400565673, -187500.02235174447, 4071.0349763673516, 13602.869344099683, -28553.235954432006, 4429.78047487503, -16746.79866394981, -17229.819861628996, -7233.136264459642, -23206.6763289781, -30816.774763676498, 0.11800000000000001, 1.004, 0.094, 192.0, 0.0, 0.0, 0.0, 0.0, 0.0, 0.0, 0.0, 0.0, 0.0, 1.695755206243603E9, 0.0, 2023-09-26 14:06:46.243
16.0, -162038.9490770041, 51368.86851416451, -51555.3714698996, -41877.15552772946, 2383.2100490582047, -9098.165821810464, -187500.02235174447, 4072.2419705679386, 13581.746945589417, -28538.640265302693, 4432.261518509569, -16724.044588094304, -17244.572012969496, -7242.948680275522, -23224.35655884225, -30833.47151678461, 0.11800000000000001, 1.004, 0.094, 192.0, 0.0, 0.0, 0.0, 0.0, 0.0, 0.0, 0.0, 0.0, 0.0, 1.695755206303157E9, 0.0, 2023-09-26 14:06:46.303
18.0, -162065.34648720582, 51353.64697619045, -51563.28398743677, -41885.15745224446, 2375.9680838546856, -9106.324208536651, -187500.02235174447, 4067.481048998958, 13605.752719134418, -28557.974524256533, 4433.0661813099605, -16746.731608716444, -17225.908306349316, -7230.118778958175, -23204.977596399498, -30812.48322874108, 0.12, 1.01, 0.098, 192.0, 1.5, 96.0, 15.5, 72.0, 1.5, 8.0, 0.0, 0.0, 0.0, 1.695755206303179E9, 0.0, 2023-09-26 14:06:46.303
20.0, -162042.43594913912, 51363.48174375078, -51574.21399047542, -41896.19921400538, 2363.9651970821856, -9121.813967444179, -187500.02235174447, 4071.0349763673516, 13591.559361405298, -28550.71020730856, 4432.64149816531, -16726.12330032865, -17247.678905448785, -7240.24411919643, -23225.429442576104, -30837.092499386374, 0.12, 1.01, 0.098, 192.0, 0.0, 0.0, 0.0, 0.0, 0.0, 0.0, 0.0, 0.0, 0.0, 1.695755206303253E9, 0.0, 2023-09-26 14:06:46.303
22.0, -162076.67882164466, 51349.333089510576, -51553.58333034317, -41874.026283505715, 2383.053586847018, -9090.789746140212, -187500.02235174447, 4059.3673657616814, 13592.431079439055, -28554.487652121505, 4418.068160780449, -16741.344838302713, -17243.722646680195, -7250.302404201318, -23222.92604719711, -30826.989510892574, 0.12, 1.01, 0.098, 192.0, 0.0, 0.0, 0.0, 0.0, 0.0, 0.0, 0.0, 0.0, 0.0, 1.695755206303264E9, 0.0, 2023-09-26 14:06:46.303
24.0, -162056.29403070142, 51360.374851271496, -51570.74947008485, -41893.20408024837, 2366.692109905733, -9111.688627205924, -187500.02235174447, 4088.0446538978404, 13614.872230872183, -28560.12029172424, 4433.982602832628, -16739.288477812825, -17235.541908209554, -7236.6901918280355, -23210.721994724514, -30814.405478764234, 0.12, 1.01, 0.098, 192.0, 0.0, 0.0, 0.0, 0.0, 0.0, 0.0, 0.0, 0.0, 0.0, 1.695755206303274E9, 0.0, 2023-09-26 14:06:46.303
26.0, -162066.32996396185, 51347.097915065046, -51564.93801652647, -41889.136062757505, 2368.99433958463, -9106.927705636943, -187500.02235174447, 4071.8843426566536, 13575.68962284203, -28545.010512472454, 4424.125483527838, -16737.433283023034, -17257.826597431493, -7249.676555356569, -23235.44302409208, -30839.595894765367, 0.12, 1.01, 0.098, 192.0, 0.0, 0.0, 0.0, 0.0, 0.0, 0.0, 0.0, 0.0, 0.0, 1.695755206303296E9, 0.0, 2023-09-26 14:06:46.303
28.0, -162056.4504929126, 51356.664461691915, -51576.2256474764, -41894.88046108252, 2361.595912169923, -9111.845089417111, -187500.02235174447, 4092.313837088804, 13584.764431090884, -28560.656733591168, 4429.847530108396, -16741.613059236177, -17246.404856014833, -7236.645488339125, -23224.088337908786, -30825.6260544808, 0.11, 1.016, 0.096, 192.0, 1.5, 56.0, 15.5, 96.0, 1.5, 0.0, 0.0, 0.0, 0.0, 1.695755206303306E9, 0.0, 2023-09-26 14:06:46.303
30.0, -162059.95971679207, 51350.987118600264, -51580.15955450053, -41894.90281282697, 2355.2033132557053, -9113.052083617698, -187500.02235174447, 4078.5675142487903, 13576.78485832034, -28543.51294559395, 4418.671657880743, -16742.12714935865, -17262.431056789286, -7252.582282135759, -23238.50521308246, -30836.511354030536, 0.11, 1.016, 0.096, 192.0, 0.0, 0.0, 0.0, 0.0, 0.0, 0.0, 0.0, 0.0, 0.0, 1.695755206363367E9, 0.0, 2023-09-26 14:06:46.363
32.0, -162048.18034746413, 51362.43121176138, -51581.52301091231, -41895.32749597162, 2352.2752347320597, -9119.690551720923, -187500.02235174447, 4093.1184998891954, 13570.794590806318, -28558.980352757022, 4420.906832326274, -16745.256393582393, -17259.70414396574, -7251.151770490619, -23237.32057062633, -30835.036138896485, 0.11, 1.016, 0.096, 192.0, 0.0, 0.0, 0.0, 0.0, 0.0, 0.0, 0.0, 0.0, 0.0, 1.695755206363392E9, 0.0, 2023-09-26 14:06:46.363
34.0, -162036.73625430302, 51356.30683378063, -51592.743586628865, -41907.28567925521, 2339.020650270063, -9134.800330972712, -187500.02235174447, 4074.2983310578265, 13565.251358181402, -28543.22237291603, 4414.715399112153, -16735.868660911165, -17273.18224587229, -7261.545331662337, -23250.150471943674, -30848.134261147294, 0.11, 1.016, 0.096, 192.0, 0.0, 0.0, 0.0, 0.0, 0.0, 0.0, 0.0, 0.0, 0.0, 1.695755206363401E9, 0.0, 2023-09-26 14:06:46.363
36.0, -162022.3864343627, 51357.53617972567, -51603.584182689694, -41919.71324917236, 2328.98471700963, -9150.200682902418, -187500.02235174447, 4073.158392090606, 13568.715878571973, -28557.929820767622, 4403.003085017573, -16740.249602824402, -17283.352289599454, -7270.284863744362, -23261.728675571525, -30860.62888629781, 0.11, 1.016, 0.096, 192.0, 0.0, 0.0, 0.0, 0.0, 0.0, 0.0, 0.0, 0.0, 0.0, 1.69575520636341E9, 0.0, 2023-09-26 14:06:46.363
38.0, -162030.16484143317, 51349.2213307883, -51589.86021159413, -41906.95040308838, 2346.0838015179397, -9139.941232197432, -187500.02235174447, 4041.3071562417936, 13571.062811739781, -28550.55374509737, 4402.198422217181, -16738.014428378872, -17271.863492949426, -7279.627892926681, -23259.024114492433, -30856.71733101813, 0.106, 1.018, 0.096, 192.0, 1.5, 40.0, 15.5, 104.0, 1.5, 0.0, 0.0, 0.0, 0.0, 1.69575520636342E9, 0.0, 2023-09-26 14:06:46.363
40.0, -162027.81790826537, 51343.7675051412, -51597.280990753294, -41916.20402529288, 2336.6066618688897, -9147.965508456888, -187500.02235174447, 4046.4033539776033, 13555.036610965326, -28580.75095185649, 4393.0342069905055, -16753.861815197684, -17278.166684885822, -7282.421860983594, -23260.678143582125, -30860.96416246464, 0.106, 1.018, 0.096, 192.0, 0.0, 0.0, 0.0, 0.0, 0.0, 0.0, 0.0, 0.0, 0.0, 1.695755206363429E9, 0.0, 2023-09-26 14:06:46.363
42.0, -162013.62455053625, 51341.53233069567, -51592.58712441768, -41912.761856646764, 2340.5182171485685, -9134.353296083606, -187500.02235174447, 4040.3683829746706, 13562.077410468748, -28563.070721992342, 4394.621180846832, -16740.562527246777, -17282.83819947698, -7281.237218527463, -23260.61108834876, -30859.48894733059, 0.106, 1.018, 0.096, 192.0, 0.0, 0.0, 0.0, 0.0, 0.0, 0.0, 0.0, 0.0, 0.0, 1.69575520636347E9, 0.0, 2023-09-26 14:06:46.363
44.0, -162017.9384372161, 51338.64895566094, -51596.521031441815, -41916.78517064872, 2338.372449680859, -9135.247365861818, -187500.02235174447, 4055.7463831599216, 13561.809189535285, -28589.065800793865, 4389.01089298855, -16760.477931556456, -17275.70799299574, -7272.542389934349, -23251.536280099903, -30851.464671071135, 0.106, 1.018, 0.096, 192.0, 0.0, 0.0, 0.0, 0.0, 0.0, 0.0, 0.0, 0.0, 0.0, 1.695755206363479E9, 0.0, 2023-09-26 14:06:46.363
46.0, -162007.231951622, 51338.96188008331, -51582.66294987952, -41899.686086140406, 2347.8719410743643, -9122.752740711301, -187500.02235174447, 4039.027278307352, 13545.805340505283, -28562.064893491854, 4392.29659942348, -16736.69567545601, -17286.168609400822, -7277.817401625801, -23261.482806382515, -30861.098272931373, 0.106, 1.018, 0.096, 192.0, 0.0, 0.0, 0.0, 0.0, 0.0, 0.0, 0.0, 0.0, 0.0, 1.695755206423567E9, 0.0, 2023-09-26 14:06:46.423
48.0, -162039.3961118932, 51335.02797305918, -51572.15762998553, -41886.52090865623, 2357.2596737455933, -9117.880060420044, -187500.02235174447, 4035.7192201279668, 13581.54577988932, -28597.023021819954, 4402.10901523936, -16766.5576060483, -17257.290155564566, -7257.790238593846, -23236.784128759402, -30837.6289412533, 0.112, 1.016, 0.096, 192.0, 1.5, 64.0, 15.5, 96.0, 1.5, 0.0, 0.0, 0.0, 0.0, 1.695755206423588E9, 0.0, 2023-09-26 14:06:46.423
50.0, -162023.28050414092, 51338.31367949411, -51571.93411254098, -41887.21381273435, 2354.9350923222414, -9115.577830741147, -187500.02235174447, 4040.9942318194194, 13579.332957188244, -28570.782073829425, 4422.605564904877, -16747.089236627726, -17268.84600744796, -7250.9506047905215, -23242.059140450852, -30843.932133189697, 0.112, 1.016, 0.096, 192.0, 0.0, 0.0, 0.0, 0.0, 0.0, 0.0, 0.0, 0.0, 0.0, 1.695755206423598E9, 0.0, 2023-09-26 14:06:46.423
52.0, -162050.25905969847, 51323.69563862034, -51576.15859224303, -41893.29348722619, 2349.6377288863337, -9121.545746510714, -187500.02235174447, 4045.5986911772125, 13581.791649078328, -28593.67026015166, 4412.949611300184, -16776.481780586455, -17256.641954975363, -7251.643508868637, -23230.816212989834, -30831.415156294723, 0.112, 1.016, 0.096, 192.0, 0.0, 0.0, 0.0, 0.0, 0.0, 0.0, 0.0, 0.0, 0.0, 1.695755206423607E9, 0.0, 2023-09-26 14:06:46.423
54.0, -162042.6594665837, 51329.17181601189, -51567.6202258611, -41883.324609199124, 2359.1595720242944, -9109.453452760394, -187500.02235174447, 4040.9942318194194, 13561.093933712715, -28572.145530241196, 4415.20713749017, -16757.616908266176, -17263.258071334134, -7255.890340315144, -23238.438157849094, -30838.612418009332, 0.112, 1.016, 0.096, 192.0, 0.0, 0.0, 0.0, 0.0, 0.0, 0.0, 0.0, 0.0, 0.0, 1.695755206423616E9, 0.0, 2023-09-26 14:06:46.423
56.0, -162052.51658588846, 51318.53238565116, -51593.14591802906, -41909.69966765639, 2338.104228747395, -9134.129778639053, -187500.02235174447, 4045.643394666123, 13543.793683504306, -28585.37776295874, 4403.830099562419, -16777.308795131303, -17268.868359192416, -7260.4053926951165, -23243.400245118173, -30841.54049653298, 0.112, 1.016, 0.096, 192.0, 0.0, 0.0, 0.0, 0.0, 0.0, 0.0, 0.0, 0.0, 0.0, 1.695755206423625E9, 0.0, 2023-09-26 14:06:46.423
58.0, -162029.6954547996, 51322.15336825292, -51589.83785984968, -41908.47032171134, 2337.076048502451, -9134.7556274838, -187500.02235174447, 4042.737667886933, 13547.213500405967, -28563.04837024789, 4408.591021131399, -16757.862777455186, -17282.435868076787, -7284.478221473482, -23259.292335425896, -30860.83005199791, 0.116, 1.016, 0.094, 192.0, 1.5, 80.0, 15.5, 96.0, 1.0, 120.0, 0.0, 0.0, 0.0, 1.695755206423634E9, 0.0, 2023-09-26 14:06:46.423
60.0, -162048.8508997978, 51308.988190768745, -51590.866040094625, -41909.3420397451, 2337.724249091655, -9136.81198797369, -187500.02235174447, 4040.547196930313, 13538.295154368301, -28585.400114703196, 4395.291733180491, -16780.54979807732, -17278.65842326384, -7276.766869636402, -23258.241803436496, -30859.60070605287, 0.116, 1.016, 0.094, 192.0, 0.0, 0.0, 0.0, 0.0, 0.0, 0.0, 0.0, 0.0, 0.0, 1.695755206483979E9, 0.0, 2023-09-26 14:06:46.483
62.0, -162040.42429213814, 51321.639278130446, -51583.98170280239, -41907.509196699764, 2349.6824323752444, -9133.816854216679, -187500.02235174447, 4040.7036591415003, 13548.264032395367, -28583.455512935583, 4407.92046879774, -16767.384620593148, -17273.718687739216, -7268.6755381435805, -23255.246669679484, -30858.505470574557, 0.116, 1.016, 0.094, 192.0, 0.0, 0.0, 0.0, 0.0, 0.0, 0.0, 0.0, 0.0, 0.0, 1.695755206484004E9, 0.0, 2023-09-26 14:06:46.484
64.0, -162066.28526047294, 51307.91530703489, -51579.332539955685, -41902.1894815194, 2354.018670799574, -9123.400941300504, -187500.02235174447, 4036.4344759505366, 13564.82667503675, -28596.28541425293, 4398.06334949295, -16789.13286794816, -17263.03455388958, -7270.664843400103, -23245.54601258588, -30849.073034414418, 0.116, 1.016, 0.094, 192.0, 0.0, 0.0, 0.0, 0.0, 0.0, 0.0, 0.0, 0.0, 0.0, 1.695755206484045E9, 0.0, 2023-09-26 14:06:46.484
66.0, -162047.97918176404, 51323.00273454222, -51584.920476069514, -41904.20113852038, 2346.866112573876, -9119.578792998647, -187500.02235174447, 4051.0748685687627, 13546.319430627756, -28586.09301878131, 4407.585192630911, -16771.94437646203, -17262.386353300375, -7257.857293827212, -23253.279716167417, -30851.867002471332, 0.116, 1.016, 0.094, 192.0, 0.0, 0.0, 0.0, 0.0, 0.0, 0.0, 0.0, 0.0, 0.0, 1.695755206484055E9, 0.0, 2023-09-26 14:06:46.484
68.0, -162069.5039116745, 51313.36913268198, -51604.92528735701, -41920.56261546166, 2330.4822838881355, -9136.432008317948, -187500.02235174447, 4037.1273800286513, 13556.243605165912, -28595.346640985805, 4405.104148996371, -16789.84812377073, -17235.65366693183, -7246.413200666095, -23243.89198349619, -30836.220781352615, 0.11, 1.018, 0.092, 192.0, 1.5, 56.0, 15.5, 104.0, 1.0, 112.0, 0.0, 0.0, 0.0, 1.695755206484064E9, 0.0, 2023-09-26 14:06:46.484
70.0, -162044.5593648624, 51323.33801070905, -51606.512261213335, -41922.66367944046, 2328.1800542092387, -9134.777979228256, -187500.02235174447, 4040.815417863777, 13524.951162928483, -28579.678068122634, 4399.113881482349, -16767.8093037378, -17260.821731188506, -7273.235294012463, -23281.733486859022, -30876.96801149464, 0.11, 1.018, 0.092, 192.0, 0.0, 0.0, 0.0, 0.0, 0.0, 0.0, 0.0, 0.0, 0.0, 1.695755206484073E9, 0.0, 2023-09-26 14:06:46.484
72.0, -162048.13564397523, 51316.476025161275, -51616.25762179585, -41931.96200513387, 2320.111074460873, -9137.571947285169, -187500.02235174447, 4024.0516095222965, 13528.572145530243, -28576.74998959899, 4391.603695345366, -16778.582844565255, -17252.193957828757, -7263.15465726312, -23276.436123423115, -30876.5880318389, 0.11, 1.018, 0.092, 192.0, 0.0, 0.0, 0.0, 0.0, 0.0, 0.0, 0.0, 0.0, 0.0, 1.695755206484083E9, 0.0, 2023-09-26 14:06:46.484
74.0, -162052.002495766, 51322.15336825292, -51592.40831046204, -41909.72201940084, 2341.5911008824232, -9109.98989462732, -187500.02235174447, 4030.8912433256205, 13553.561395831275, -28581.399152445694, 4388.765023799542, -16774.492475329935, -17232.099739563437, -7244.826226809768, -23257.32538191383, -30861.45590084266, 0.11, 1.018, 0.092, 192.0, 0.0, 0.0, 0.0, 0.0, 0.0, 0.0, 0.0, 0.0, 0.0, 1.695755206484092E9, 0.0, 2023-09-26 14:06:46.484
76.0, -162079.27162400147, 51314.240850715745, -51585.85924933663, -41902.21183326386, 2351.8729033318646, -9104.983103869332, -187500.02235174447, 4026.3314874567377, 13554.053134209293, -28575.431236676126, 4388.049767976972, -16782.78497252285, -17203.69067236074, -7229.425874880061, -23226.859954221243, -30834.320883073913, 0.11, 1.018, 0.092, 192.0, 0.0, 0.0, 0.0, 0.0, 0.0, 0.0, 0.0, 0.0, 0.0, 1.695755206543443E9, 0.0, 2023-09-26 14:06:46.543
78.0, -162053.03067601094, 51321.68398161936, -51619.92330788652, -41933.504275501284, 2314.925469747242, -9145.104485166608, -187500.02235174447, 4047.5879964337346, 13548.040514950815, -28564.88121329322, 4379.712567295142, -16768.815132238287, -17222.063806303002, -7222.273316654363, -23234.370140358227, -30852.314037360436, 0.112, 1.018, 0.094, 192.0, 1.5, 64.0, 15.5, 104.0, 1.0, 120.0, 0.0, 0.0, 0.0, 1.695755206543466E9, 0.0, 2023-09-26 14:06:46.543
80.0, -162047.57685036384, 51315.53725189415, -51620.8844328981, -41929.90564464398, 2313.1373301908175, -9140.500025808815, -187500.02235174447, 4022.285821710327, 13519.43028204802, -28543.177669427118, 4354.700965249654, -16758.220405366472, -17231.764463396605, -7246.033221010354, -23239.55574507186, -30865.76978752253, 0.112, 1.018, 0.094, 192.0, 0.0, 0.0, 0.0, 0.0, 0.0, 0.0, 0.0, 0.0, 0.0, 1.695755206543477E9, 0.0, 2023-09-26 14:06:46.543
82.0, -162051.57781262134, 51321.10283626352, -51604.29943851226, -41904.69287689839, 2329.9681937656637, -9111.912144650478, -187500.02235174447, 4029.3489729582043, 13539.524500313342, -28556.27579167793, 4353.024584415506, -16766.98228919295, -17208.87627707437, -7224.776712033357, -23206.564570255825, -30841.71931048862, 0.112, 1.018, 0.094, 192.0, 0.0, 0.0, 0.0, 0.0, 0.0, 0.0, 0.0, 0.0, 0.0, 1.695755206543485E9, 0.0, 2023-09-26 14:06:46.543
84.0, -162042.7041700726, 51318.711199606805, -51616.45878749595, -41913.41005723597, 2315.305449402982, -9121.925726166455, -187500.02235174447, 4009.0535889927855, 13546.2970788833, -28528.604332042258, 4360.9818054415955, -16757.415742566078, -17206.730509606663, -7211.52212757136, -23198.62970097419, -30842.322807588913, 0.112, 1.018, 0.094, 192.0, 0.0, 0.0, 0.0, 0.0, 0.0, 0.0, 0.0, 0.0, 0.0, 1.695755206543494E9, 0.0, 2023-09-26 14:06:46.543
86.0, -162023.50402158548, 51323.40506594242, -51632.75320920387, -41923.71421142986, 2299.8603939843647, -9135.42617981746, -187500.02235174447, 4018.8883565531205, 13525.331142584222, -28534.66165478965, 4352.398735570757, -16757.68396349954, -17222.98022782567, -7223.122682943665, -23206.631625489194, -30858.81839499693, 0.112, 1.018, 0.094, 192.0, 0.0, 0.0, 0.0, 0.0, 0.0, 0.0, 0.0, 0.0, 0.0, 1.695755206543545E9, 0.0, 2023-09-26 14:06:46.543
88.0, -162030.47776585552, 51319.31469670709, -51607.69690366947, -41894.232260493314, 2325.2519756855936, -9107.553554481692, -187500.02235174447, 3990.099309694685, 13531.38846533161, -28513.136924879185, 4353.784543726986, -16744.719951715466, -17215.112413777402, -7215.6124968066815, -23195.54516023936, -30851.799947237963, 0.11, 1.012, 0.098, 192.0, 1.5, 56.0, 15.5, 80.0, 1.5, 8.0, 0.0, 0.0, 0.0, 1.695755206543554E9, 0.0, 2023-09-26 14:06:46.543
90.0, -162036.6468473252, 51324.76852235419, -51613.59776420567, -41897.85324309507, 2321.5862895949235, -9110.124005094052, -187500.02235174447, 4004.8961645240984, 13542.094950925703, -28530.481878576506, 4354.05276466045, -16761.304946101303, -17212.474907931675, -7202.559078044782, -23186.470351990505, -30847.68722625819, 0.11, 1.012, 0.098, 192.0, 0.0, 0.0, 0.0, 0.0, 0.0, 0.0, 0.0, 0.0, 0.0, 1.695755206603095E9, 0.0, 2023-09-26 14:06:46.603
92.0, -162035.1045769578, 51324.924984565376, -51612.01079034934, -41892.488824425796, 2320.200481438694, -9105.921877136454, -187500.02235174447, 3997.3412748982046, 13558.858759267183, -28508.10778237674, 4362.747593253564, -16746.59749824971, -17202.774250838072, -7193.3725110736505, -23179.16133155362, -30838.455955798145, 0.11, 1.012, 0.098, 192.0, 0.0, 0.0, 0.0, 0.0, 0.0, 0.0, 0.0, 0.0, 0.0, 1.69575520660312E9, 0.0, 2023-09-26 14:06:46.603
94.0, -162032.91410600118, 51326.80253109962, -51634.04961038227, -41915.622879937044, 2296.1947078936946, -9132.945136182921, -187500.02235174447, 4011.065245993763, 13541.96084045897, -28528.604332042258, 4347.1907791126705, -16756.544024532323, -17226.93648659426, -7204.771900745857, -23197.333299795784, -30855.935019962195, 0.11, 1.012, 0.098, 192.0, 0.0, 0.0, 0.0, 0.0, 0.0, 0.0, 0.0, 0.0, 0.0, 1.69575520660313E9, 0.0, 2023-09-26 14:06:46.603
96.0, -162015.36798660376, 51327.89776657793, -51612.614287449636, -41895.4392546939, 2315.5513185919904, -9112.493290006316, -187500.02235174447, 4008.293629681305, 13527.432206563022, -28501.1787415956, 4345.648508745255, -16735.51103299988, -17246.717780437208, -7218.674685797058, -23215.21469536003, -30873.615249826344, 0.11, 1.012, 0.098, 192.0, 0.0, 0.0, 0.0, 0.0, 0.0, 0.0, 0.0, 0.0, 0.0, 1.695755206603139E9, 0.0, 2023-09-26 14:06:46.603
98.0, -162036.95977174758, 51327.40602819992, -51619.4315695085, -41901.72009488584, 2313.1373301908175, -9117.053045875198, -187500.02235174447, 4026.9796880459417, 13557.696468555507, -28536.628608301715, 4355.036241416484, -16766.13292290365, -17208.585704396453, -7195.585333774726, -23178.40137224214, -30834.164420862726, 0.116, 1.004, 0.1, 192.0, 1.5, 80.0, 15.5, 48.0, 1.5, 16.0, 0.0, 0.0, 0.0, 1.695755206603148E9, 0.0, 2023-09-26 14:06:46.603
100.0, -162018.81015524987, 51335.340897481554, -51606.19933679096, -41888.19728949038, 2326.8836530308313, -9099.506926477781, -187500.02235174447, 4029.6618973805785, 13537.557546801276, -28505.73849746448, 4359.595997285366, -16733.588782976723, -17240.593402456452, -7213.489081083427, -23213.135983125685, -30864.003999710563, 0.116, 1.004, 0.1, 192.0, 0.0, 0.0, 0.0, 0.0, 0.0, 0.0, 0.0, 0.0, 0.0, 1.695755206603158E9, 0.0, 2023-09-26 14:06:46.603
102.0, -162039.53022235993, 51333.55275792513, -51614.916517128535, -41897.20504250587, 2324.112036718373, -9111.241592316817, -187500.02235174447, 4032.8581968376875, 13562.278576168845, -28536.56155306835, 4356.220883872615, -16759.963841433982, -17218.576934167973, -7191.7855372173235, -23188.794933413858, -30839.662949998732, 0.116, 1.004, 0.1, 192.0, 0.0, 0.0, 0.0, 0.0, 0.0, 0.0, 0.0, 0.0, 0.0, 1.695755206603167E9, 0.0, 2023-09-26 14:06:46.603
104.0, -162015.25622788147, 51340.21357777281, -51620.727970686916, -41906.458664710364, 2315.350152891893, -9114.773167940757, -187500.02235174447, 4030.6230223921566, 13552.041477208315, -28513.293387090373, 4365.474506077112, -16734.281687054838, -17232.770291897094, -7194.579505274237, -23204.709375466035, -30855.264467628538, 0.116, 1.004, 0.1, 192.0, 0.0, 0.0, 0.0, 0.0, 0.0, 0.0, 0.0, 0.0, 0.0, 1.695755206603175E9, 0.0, 2023-09-26 14:06:46.603
106.0, -162043.93351601763, 51326.69077237735, -51604.25473502335, -41893.82992909312, 2333.879749045342, -9102.211487556873, -187500.02235174447, 4020.005943775886, 13545.268898638356, -28527.64320703068, 4347.056668645939, -16755.739361731932, -17233.910230864316, -7208.348179858706, -23206.139887111174, -30856.382054851303, 0.116, 1.004, 0.1, 192.0, 0.0, 0.0, 0.0, 0.0, 0.0, 0.0, 0.0, 0.0, 0.0, 1.69575520666332E9, 0.0, 2023-09-26 14:06:46.663
108.0, -162026.1415274312, 51336.83846436006, -51603.6288861786, -41897.20504250587, 2333.3656589228704, -9106.525374236748, -187500.02235174447, 4023.381057188637, 13549.605137062686, -28513.919235935122, 4362.837000231386, -16745.79283544932, -17221.750881880627, -7189.460955793972, -23190.605424714737, -30845.608514023843, 0.11, 1.008, 0.096, 192.0, 1.5, 56.0, 15.5, 64.0, 1.5, 0.0, 0.0, 0.0, 0.0, 1.695755206663415E9, 0.0, 2023-09-26 14:06:46.663
110.0, -162054.05885625587, 51326.57901365507, -51588.65321739355, -41882.87757431002, 2340.048830515007, -9097.964656110365, -187500.02235174447, 4010.1711762155505, 13561.20569243499, -28527.710262264045, 4357.249064117559, -16766.647013026122, -17216.07353878898, -7194.333636085229, -23190.82894215929, -30841.652255255256, 0.11, 1.008, 0.096, 192.0, 0.0, 0.0, 0.0, 0.0, 0.0, 0.0, 0.0, 0.0, 0.0, 1.695755206663434E9, 0.0, 2023-09-26 14:06:46.663
112.0, -162031.1036147003, 51339.69948765034, -51596.34221748617, -41892.980562803816, 2332.9409757782196, -9106.637132959024, -187500.02235174447, 4024.811568833777, 13575.01907050837, -28519.708337749045, 4375.666901548731, -16745.010524393383, -17215.559448666507, -7194.266580851863, -23185.799799656845, -30838.38890056478, 0.11, 1.008, 0.096, 192.0, 0.0, 0.0, 0.0, 0.0, 0.0, 0.0, 0.0, 0.0, 0.0, 1.695755206663451E9, 0.0, 2023-09-26 14:06:46.663
114.0, -162037.9432485036, 51325.64024038795, -51604.05356932325, -41900.84837685208, 2324.2461471851047, -9112.739159195324, -187500.02235174447, 4020.028295520341, 13546.744113772407, -28524.53631455139, 4365.139229910282, -16748.4526930395, -17237.93354486627, -7220.61928756467, -23205.156410355143, -30858.281953130005, 0.11, 1.008, 0.096, 192.0, 0.0, 0.0, 0.0, 0.0, 0.0, 0.0, 0.0, 0.0, 0.0, 1.695755206663469E9, 0.0, 2023-09-26 14:06:46.663
116.0, -162049.32028643135, 51337.62077541599, -51575.130411998085, -41872.841641049585, 2357.9078743347973, -9083.9948158258, -187500.02235174447, 4020.1400542426177, 13557.227081921947, -28529.610160542747, 4378.863201005841, -16742.97651564795, -17214.285399232554, -7202.670836767058, -23178.423723986594, -30831.884542928285, 0.11, 1.008, 0.096, 192.0, 0.0, 0.0, 0.0, 0.0, 0.0, 0.0, 0.0, 0.0, 0.0, 1.695755206663486E9, 0.0, 2023-09-26 14:06:46.663
118.0, -162066.70994361758, 51330.244699745745, -51590.35194997215, -41884.442196421885, 2344.496827661613, -9099.283409033229, -187500.02235174447, 4015.22267046245, 13562.457390124488, -28527.062061674842, 4372.9623404696395, -16757.572204777265, -17220.275666746576, -7199.161612887575, -23179.071924575797, -30833.560923762434, 0.114, 1.006, 0.092, 192.0, 1.5, 72.0, 15.5, 56.0, 1.0, 112.0, 0.0, 0.0, 0.0, 1.695755206663504E9, 0.0, 2023-09-26 14:06:46.663
120.0, -162060.40675168118, 51341.59938592904, -51589.65904589403, -41883.592830132584, 2344.9662142951747, -9096.243571787307, -187500.02235174447, 4032.478217181947, 13562.859721524683, -28518.993081926477, 4379.086718450394, -16740.473120268958, -17224.097815048437, -7195.764147730369, -23180.793008898858, -30833.382109806793, 0.114, 1.006, 0.092, 192.0, 0.0, 0.0, 0.0, 0.0, 0.0, 0.0, 0.0, 0.0, 0.0, 1.69575520672354E9, 0.0, 2023-09-26 14:06:46.723
122.0, -162064.67593487215, 51331.16112126841, -51605.953467601954, -41901.518929185746, 2328.761199565077, -9112.42623477295, -187500.02235174447, 4022.1070077546847, 13543.100779426191, -28507.191360854074, 4374.303445136958, -16741.41189353608, -17237.866489632903, -7203.18492688953, -23196.550988739848, -30849.408310581246, 0.114, 1.006, 0.092, 192.0, 0.0, 0.0, 0.0, 0.0, 0.0, 0.0, 0.0, 0.0, 0.0, 1.695755206723579E9, 0.0, 2023-09-26 14:06:46.723
124.0, -162045.34167591832, 51335.25149050373, -51624.30424979976, -41920.83083639513, 2307.236469654616, -9132.654563505002, -187500.02235174447, 4030.9135950700756, 13544.955974215982, -28513.31573883483, 4370.861276490841, -16737.34387604521, -17249.623507216395, -7211.298610126807, -23206.408108044638, -30859.891278730785, 0.114, 1.006, 0.092, 192.0, 0.0, 0.0, 0.0, 0.0, 0.0, 0.0, 0.0, 0.0, 0.0, 1.695755206723597E9, 0.0, 2023-09-26 14:06:46.723
126.0, -162063.15601624918, 51321.77338859718, -51600.70080765496, -41900.602507663076, 2330.1023042323955, -9113.767339440268, -187500.02235174447, 3996.223687675439, 13534.093026410703, -28508.286596332386, 4353.67278500471, -16744.518786015367, -17254.786760185572, -7224.5978980777145, -23219.21565761753, -30871.983572481106, 0.114, 1.006, 0.092, 192.0, 0.0, 0.0, 0.0, 0.0, 0.0, 0.0, 0.0, 0.0, 0.0, 1.695755206723614E9, 0.0, 2023-09-26 14:06:46.723
128.0, -162056.2046237236, 51330.244699745745, -51604.142976301075, -41905.47518795433, 2328.5823856094344, -9117.723598208857, -187500.02235174447, 4008.897126781598, 13549.001639962393, -28531.733576266, 4364.423974087712, -16754.241794853424, -17242.381542012878, -7200.055682665788, -23201.468372520016, -30854.348046105868, 0.114, 1.008, 0.092, 192.0, 1.5, 72.0, 15.5, 64.0, 1.0, 112.0, 0.0, 0.0, 0.0, 1.695755206723632E9, 0.0, 2023-09-26 14:06:46.723
130.0, -162054.21531846706, 51322.9133275644, -51608.188642047484, -41909.118522300545, 2319.3958186383034, -9124.160900611985, -187500.02235174447, 3994.547306841291, 13548.152273673091, -28524.11163140674, 4364.222808387614, -16751.93956517453, -17248.237699060166, -7216.104235184698, -23204.038823132378, -30854.795080994976, 0.114, 1.008, 0.092, 192.0, 0.0, 0.0, 0.0, 0.0, 0.0, 0.0, 0.0, 0.0, 0.0, 1.695755206723684E9, 0.0, 2023-09-26 14:06:46.723
132.0, -162047.37568466374, 51329.23887124525, -51603.807700134246, -41904.62582166503, 2324.8049407964877, -9122.372761055562, -187500.02235174447, 4012.2722401943497, 13542.653744537085, -28543.22237291603, 4359.350128096357, -16748.87737618415, -17264.666231234816, -7219.367589875173, -23213.605369759247, -30864.49573808858, 0.114, 1.008, 0.092, 192.0, 0.0, 0.0, 0.0, 0.0, 0.0, 0.0, 0.0, 0.0, 0.0, 1.695755206723701E9, 0.0, 2023-09-26 14:06:46.723
134.0, -162043.8441090398, 51323.89680432044, -51606.109929813145, -41907.53154844422, 2319.664039571767, -9128.81006345869, -187500.02235174447, 3988.9370189830092, 13526.314619340255, -28523.396375584172, 4369.587227056888, -16739.735512701933, -17264.085085878978, -7217.154767174097, -23213.203038359054, -30862.215860154138, 0.114, 1.008, 0.092, 192.0, 0.0, 0.0, 0.0, 0.0, 0.0, 0.0, 0.0, 0.0, 0.0, 1.695755206723718E9, 0.0, 2023-09-26 14:06:46.723
136.0, -162042.9053357727, 51326.37784795497, -51607.49573796937, -41907.933879844415, 2316.9371267482197, -9123.713865722879, -187500.02235174447, 4005.2090889464725, 13535.545889800298, -28544.69758805008, 4367.4414595891785, -16752.207786107992, -17267.057867891537, -7218.652334052603, -23217.807497716847, -30861.67941828721, 0.114, 1.008, 0.092, 192.0, 0.0, 0.0, 0.0, 0.0, 0.0, 0.0, 0.0, 0.0, 0.0, 1.695755206783926E9, 0.0, 2023-09-26 14:06:46.783
138.0, -162031.81887052284, 51323.91915606489, -51613.17308106102, -41914.90762411447, 2310.2986586449933, -9123.199775600408, -187500.02235174447, 3992.7815190293218, 13524.660590250563, -28521.161201138642, 4369.117840423327, -16737.701503956498, -17270.589443515473, -7222.586241076737, -23222.36725358573, -30860.137147919795, 0.11, 1.008, 0.088, 192.0, 1.5, 56.0, 15.5, 64.0, 1.0, 96.0, 0.0, 0.0, 0.0, 1.695755206783972E9, 0.0, 2023-09-26 14:06:46.783
140.0, -162033.5399548459, 51320.54404265214, -51609.77561590381, -41912.22541477984, 2310.41041736727, -9116.360141797084, -187500.02235174447, 4004.382074401626, 13517.82095644724, -28538.953189725067, 4357.830209473397, -16748.83267269524, -17278.032574419092, -7232.666877826081, -23228.916314711132, -30864.11575843284, 0.11, 1.008, 0.088, 192.0, 0.0, 0.0, 0.0, 0.0, 0.0, 0.0, 0.0, 0.0, 0.0, 1.695755206783991E9, 0.0, 2023-09-26 14:06:46.783
142.0, -162020.6429982952, 51321.371057196986, -51611.139072315586, -41910.97371709034, 2305.850661498387, -9117.27656331975, -187500.02235174447, 3991.1498416840845, 13518.692674480997, -28518.50134354846, 4363.887532220785, -16736.472158011456, -17276.155027884844, -7228.487101612938, -23230.704454267558, -30862.037046198497, 0.11, 1.008, 0.088, 192.0, 0.0, 0.0, 0.0, 0.0, 0.0, 0.0, 0.0, 0.0, 0.0, 1.695755206784008E9, 0.0, 2023-09-26 14:06:46.784
144.0, -162032.82469902333, 51318.51003390671, -51614.491833983884, -41913.36535374705, 2309.493995844602, -9123.959734911889, -187500.02235174447, 4003.488004623414, 13537.87047122365, -28550.978428242022, 4356.5785117839, -16762.757809490897, -17265.627356246398, -7225.134339944642, -23219.908561695644, -30852.023464682516, 0.11, 1.008, 0.088, 192.0, 0.0, 0.0, 0.0, 0.0, 0.0, 0.0, 0.0, 0.0, 0.0, 1.695755206784026E9, 0.0, 2023-09-26 14:06:46.784
146.0, -162021.60412330678, 51324.857929332014, -51602.44424372247, -41903.93291758691, 2323.4861878736247, -9115.600182485603, -187500.02235174447, 3997.833013276221, 13530.315581597755, -28521.92116045012, 4368.156715411748, -16741.389541791625, -17276.914987196327, -7227.168348690075, -23228.134003655196, -30862.148804920773, 0.11, 1.008, 0.088, 192.0, 0.0, 0.0, 0.0, 0.0, 0.0, 0.0, 0.0, 0.0, 0.0, 1.695755206784044E9, 0.0, 2023-09-26 14:06:46.784
148.0, -162029.96367573307, 51322.421589186386, -51616.101159584665, -41920.00382185028, 2306.3647516208594, -9132.498101293815, -187500.02235174447, 4003.733873812422, 13521.129014626626, -28542.70828279356, 4367.732032267098, -16764.210672880494, -17275.41742031782, -7223.368552132672, -23226.8823059657, -30863.06522644344, 0.108, 1.01, 0.088, 192.0, 1.5, 48.0, 15.5, 72.0, 1.0, 96.0, 0.0, 0.0, 0.0, 1.695755206784062E9, 0.0, 2023-09-26 14:06:46.784
150.0, -162018.27371338295, 51322.131016508465, -51604.12062455662, -41908.2915077557, 2318.300583159993, -9116.740121452824, -187500.02235174447, 3994.8825830081205, 13521.978380915927, -28525.8327157298, 4379.690215550687, -16750.665515740577, -17273.629280761397, -7222.586241076737, -23229.095128666777, -30863.06522644344, 0.108, 1.01, 0.088, 192.0, 0.0, 0.0, 0.0, 0.0, 0.0, 0.0, 0.0, 0.0, 0.0, 1.695755206843376E9, 0.0, 2023-09-26 14:06:46.843
152.0, -162044.13468171773, 51309.09994949102, -51603.96416234543, -41906.65983041046, 2318.3229349044486, -9115.980162141343, -187500.02235174447, 3995.284914408316, 13538.87629972414, -28554.13002421022, 4370.369538112824, -16776.526484075366, -17260.687620721772, -7221.960392231988, -23218.232180861498, -30850.414139081735, 0.108, 1.01, 0.088, 192.0, 0.0, 0.0, 0.0, 0.0, 0.0, 0.0, 0.0, 0.0, 0.0, 1.695755206843453E9, 0.0, 2023-09-26 14:06:46.843
154.0, -162011.0317481794, 51321.79574034164, -51615.184738061995, -41918.26038578277, 2301.7379405186107, -9130.70996173739, -187500.02235174447, 3992.5132980958583, 13507.114470853146, -28531.77827975491, 4373.051747447461, -16751.000791907405, -17281.340632598476, -7218.629982308148, -23234.21367814704, -30869.234307913102, 0.108, 1.01, 0.088, 192.0, 0.0, 0.0, 0.0, 0.0, 0.0, 0.0, 0.0, 0.0, 0.0, 1.695755206843471E9, 0.0, 2023-09-26 14:06:46.843
156.0, -162042.23478343902, 51306.77536806767, -51605.953467601954, -41907.77741763323, 2310.8351005119207, -9116.337790052628, -187500.02235174447, 3987.9535422269755, 13522.447767549487, -28556.32049516684, 4359.528942052, -16774.648937541122, -17269.069524892515, -7222.921517243567, -23222.814288474834, -30854.348046105868, 0.108, 1.01, 0.088, 192.0, 0.0, 0.0, 0.0, 0.0, 0.0, 0.0, 0.0, 0.0, 0.0, 1.695755206843489E9, 0.0, 2023-09-26 14:06:46.843
158.0, -162023.8840012412, 51313.36913268198, -51599.15853728754, -41903.597641420085, 2316.691257559211, -9111.599220228103, -187500.02235174447, 3992.1780219290285, 13517.284514580311, -28539.735500781, 4365.407450843746, -16755.627603009656, -17278.859588963936, -7222.318020143273, -23231.55382055686, -30866.4850433451, 0.112, 1.012, 0.09, 192.0, 1.5, 64.0, 15.5, 80.0, 1.0, 104.0, 0.0, 0.0, 0.0, 1.695755206843506E9, 0.0, 2023-09-26 14:06:46.843
160.0, -162057.81394932437, 51302.08150173206, -51586.61920864812, -41892.08649302561, 2330.1023042323955, -9100.93743812292, -187500.02235174447, 3993.519126596347, 13538.58572704622, -28560.723788824536, 4363.395793842768, -16781.019184710884, -17255.658478219328, -7213.958467716989, -23201.96011089803, -30839.707653487643, 0.112, 1.012, 0.09, 192.0, 0.0, 0.0, 0.0, 0.0, 0.0, 0.0, 0.0, 0.0, 0.0, 1.695755206843525E9, 0.0, 2023-09-26 14:06:46.843
162.0, -162047.82271955285, 51315.78312108316, -51579.31018821123, -41883.95045804387, 2336.181978724239, -9088.956903094877, -187500.02235174447, 4000.9622574999644, 13540.150349158092, -28547.022169473432, 4379.936084739696, -16759.673268756065, -17256.59725148645, -7203.319037356262, -23199.099087607752, -30839.417080809722, 0.112, 1.012, 0.09, 192.0, 0.0, 0.0, 0.0, 0.0, 0.0, 0.0, 0.0, 0.0, 0.0, 1.695755206843543E9, 0.0, 2023-09-26 14:06:46.843
164.0, -162075.49417918854, 51301.38859765394, -51583.89229582457, -41888.219641234835, 2335.399667668303, -9093.360196752572, -187500.02235174447, 3994.7708242858444, 13543.525462570842, -28560.50027137998, 4373.38702361429, -16776.6605945421, -17245.60019321444, -7202.268505366863, -23191.25362530394, -30827.369490548313, 0.112, 1.012, 0.09, 192.0, 0.0, 0.0, 0.0, 0.0, 0.0, 0.0, 0.0, 0.0, 0.0, 1.69575520684356E9, 0.0, 2023-09-26 14:06:46.843
166.0, -162035.97629499153, 51312.78798732615, -51613.15072931656, -41917.098095071095, 2304.7554260200773, -9122.484519777838, -187500.02235174447, 4015.356780929182, 13514.892877923594, -28552.230125931517, 4372.1353259247935, -16754.666477998075, -17277.31731859652, -7214.003171205899, -23219.662692506638, -30855.420929839725, 0.112, 1.012, 0.09, 192.0, 0.0, 0.0, 0.0, 0.0, 0.0, 0.0, 0.0, 0.0, 0.0, 1.695755206903093E9, 0.0, 2023-09-26 14:06:46.903
168.0, -162050.9072602877, 51298.79579529713, -51601.617229177624, -41907.509196699764, 2315.372504636348, -9111.643923717014, -187500.02235174447, 4003.8232807902436, 13524.101796639181, -28552.92303000963, 4349.2471396025585, -16766.088219414738, -17281.295929109565, -7234.946755760522, -23223.462489064037, -30855.599743795367, 0.112, 1.012, 0.094, 192.0, 1.5, 64.0, 15.5, 80.0, 1.0, 120.0, 0.0, 0.0, 0.0, 1.695755206903115E9, 0.0, 2023-09-26 14:06:46.903
170.0, -162037.8985450147, 51308.563507624094, -51596.230458763894, -41901.96596407485, 2316.2218709256495, -9112.158013839486, -187500.02235174447, 4014.3733041731484, 13519.3408750702, -28557.482785878514, 4356.980843184095, -16758.98036467795, -17275.953862184746, -7222.385075376639, -23219.39447157317, -30852.53755480499, 0.112, 1.012, 0.094, 192.0, 0.0, 0.0, 0.0, 0.0, 0.0, 0.0, 0.0, 0.0, 0.0, 1.695755206903126E9, 0.0, 2023-09-26 14:06:46.903
172.0, -162071.6049756533, 51295.085405717546, -51575.08570850918, -41883.14579524348, 2341.5463973935125, -9094.701301419891, -187500.02235174447, 3995.4413766195034, 13533.10954965467, -28558.51096612346, 4358.009023429039, -16772.726687517963, -17262.98985040067, -7221.982743976444, -23205.178762099596, -30839.931170932196, 0.112, 1.012, 0.094, 192.0, 0.0, 0.0, 0.0, 0.0, 0.0, 0.0, 0.0, 0.0, 0.0, 1.695755206903135E9, 0.0, 2023-09-26 14:06:46.903
174.0, -162049.007362009, 51304.942525022336, -51605.752301901855, -41915.131141559024, 2309.136367933317, -9132.967487927377, -187500.02235174447, 4015.781464073833, 13514.132918612113, -28566.17761447163, 4365.742727010575, -16774.31366137429, -17270.12005688191, -7213.779653761346, -23204.508209765936, -30843.82037446742, 0.112, 1.012, 0.094, 192.0, 0.0, 0.0, 0.0, 0.0, 0.0, 0.0, 0.0, 0.0, 0.0, 1.695755206903173E9, 0.0, 2023-09-26 14:06:46.903
176.0, -162051.89073704372, 51296.38180689595, -51602.42189197802, -41915.756990403774, 2311.2597836565715, -9128.47478729186, -187500.02235174447, 3998.9953039878974, 13504.879296407616, -28547.22333517353, 4359.573645540911, -16769.776257249865, -17289.074336180012, -7239.3276976737625, -23228.581038544304, -30862.77465376552, 0.112, 1.012, 0.094, 192.0, 0.0, 0.0, 0.0, 0.0, 0.0, 0.0, 0.0, 0.0, 0.0, 1.695755206903182E9, 0.0, 2023-09-26 14:06:46.903
178.0, -162025.80625126438, 51295.93477200685, -51622.5831654767, -41937.90756915898, 2292.1266904028284, -9143.450456076915, -187500.02235174447, 4020.944717043009, 13496.832668403706, -28561.61785860275, 4353.806895471442, -16769.46333282749, -17304.60879857645, -7251.19647397953, -23241.299181139373, -30874.866947515842, 0.106, 1.018, 0.096, 192.0, 1.5, 40.0, 15.5, 104.0, 1.5, 0.0, 0.0, 0.0, 0.0, 1.695755206903191E9, 0.0, 2023-09-26 14:06:46.903
180.0, -162025.247457653, 51289.072786459066, -51614.82711015071, -41930.643252211004, 2296.0382456825073, -9135.225014117363, -187500.02235174447, 4002.0798447227294, 13494.172810813525, -28555.202907944073, 4347.973090168606, -16768.099876415716, -17304.1841154318, -7260.450096184028, -23241.723864284024, -30871.089502702893, 0.106, 1.018, 0.096, 192.0, 0.0, 0.0, 0.0, 0.0, 0.0, 0.0, 0.0, 0.0, 0.0, 1.695755206963302E9, 0.0, 2023-09-26 14:06:46.963
182.0, -162032.10944320078, 51297.43233888535, -51590.1284325276, -41906.257499010266, 2312.7126470461667, -9113.99085688482, -187500.02235174447, 4007.5336703698244, 13488.160191555047, -28578.80635008888, 4342.943947666162, -16772.972556706973, -17302.708900297752, -7249.698907101025, -23241.746216028478, -30869.144900935284, 0.106, 1.018, 0.096, 192.0, 0.0, 0.0, 0.0, 0.0, 0.0, 0.0, 0.0, 0.0, 0.0, 1.695755206963323E9, 0.0, 2023-09-26 14:06:46.963
184.0, -162047.04040849692, 51294.75012955072, -51575.08570850918, -41888.46551042384, 2323.0391529845183, -9095.952999109388, -187500.02235174447, 3988.4676323494477, 13540.597384047198, -28573.50898665297, 4362.971110698118, -16772.056135184306, -17276.93733894078, -7233.896223771122, -23214.387680815184, -30839.77470872101, 0.106, 1.018, 0.096, 192.0, 0.0, 0.0, 0.0, 0.0, 0.0, 0.0, 0.0, 0.0, 0.0, 1.695755206963333E9, 0.0, 2023-09-26 14:06:46.963
186.0, -162057.21045222407, 51297.812318541095, -51584.004054546844, -41891.505347669765, 2312.9138127462643, -9100.736272422824, -187500.02235174447, 3999.17411794354, 13541.312639869768, -28590.406905461183, 4370.682462535198, -16780.527446332868, -17276.04326916257, -7226.341334145229, -23211.9289889251, -30828.28591207098, 0.106, 1.018, 0.096, 192.0, 0.0, 0.0, 0.0, 0.0, 0.0, 0.0, 0.0, 0.0, 0.0, 1.695755206963341E9, 0.0, 2023-09-26 14:06:46.963
188.0, -162060.16088249217, 51298.28170517465, -51580.11485101162, -41882.631705121006, 2314.8137110249654, -9092.600237441093, -187500.02235174447, 3980.6892252790008, 13522.023084404836, -28553.884155021213, 4375.711605037643, -16762.26607111288, -17281.765315743127, -7216.685380540536, -23218.813326217336, -30828.28591207098, 0.10400000000000001, 1.018, 0.096, 192.0, 1.5, 32.0, 15.5, 104.0, 1.5, 0.0, 0.0, 0.0, 0.0, 1.69575520696335E9, 0.0, 2023-09-26 14:06:46.963
190.0, -162058.5515568914, 51297.11941446298, -51605.461729223935, -41906.615126921555, 2292.238449125105, -9117.008342386287, -187500.02235174447, 3994.323789396738, 13518.133880869615, -28563.495405136993, 4370.548352068467, -16773.665460785087, -17287.353251856955, -7220.4851770979385, -23228.44692807757, -30833.449165040158, 0.10400000000000001, 1.018, 0.096, 192.0, 0.0, 0.0, 0.0, 0.0, 0.0, 0.0, 0.0, 0.0, 0.0, 1.69575520696336E9, 0.0, 2023-09-26 14:06:46.963
192.0, -162030.36600713327, 51299.689865075336, -51615.184738061995, -41921.277871284234, 2286.337588588904, -9133.503929794304, -187500.02235174447, 3980.5327630678134, 13493.032871846304, -28527.866724475232, 4360.534770552489, -16750.039666895827, -17318.824508050027, -7251.777619335368, -23260.007591248464, -30867.267354401036, 0.10400000000000001, 1.018, 0.096, 192.0, 0.0, 0.0, 0.0, 0.0, 0.0, 0.0, 0.0, 0.0, 0.0, 1.695755206963368E9, 0.0, 2023-09-26 14:06:46.963
194.0, -162051.24253645452, 51290.97268473777, -51608.85919438115, -41914.97467934784, 2297.9381439612084, -9125.99374365732, -187500.02235174447, 3980.7786322568218, 13503.918171396039, -28561.528451624927, 4348.1295523797935, -16777.822885253776, -17300.98781597469, -7247.4860843999495, -23242.729692784513, -30852.91753446073, 0.10400000000000001, 1.018, 0.096, 192.0, 0.0, 0.0, 0.0, 0.0, 0.0, 0.0, 0.0, 0.0, 0.0, 1.695755206963377E9, 0.0, 2023-09-26 14:06:46.963
196.0, -162032.75764378998, 51296.00182724021, -51608.345104258675, -41912.78420839122, 2297.8934404722977, -9119.981124398842, -187500.02235174447, 3978.8340304892104, 13500.3865957721, -28539.17670716962, 4349.560064024933, -16754.84529195372, -17319.137432472402, -7245.742648332435, -23253.79380628989, -30863.512261332544, 0.10400000000000001, 1.018, 0.096, 192.0, 0.0, 0.0, 0.0, 0.0, 0.0, 0.0, 0.0, 0.0, 0.0, 1.695755207023616E9, 0.0, 2023-09-26 14:06:47.023
198.0, -162057.94805979112, 51287.84344051402, -51602.757168144846, -41908.11269380006, 2300.8215189959433, -9121.657505232992, -187500.02235174447, 3979.1916584004953, 13499.872505649628, -28568.12221623924, 4337.959508652629, -16781.779144022363, -17308.028615478113, -7247.6648983555915, -23243.735521285, -30850.749415248563, 0.11, 1.012, 0.096, 192.0, 1.5, 56.0, 15.5, 80.0, 1.5, 0.0, 0.0, 0.0, 0.0, 1.695755207023639E9, 0.0, 2023-09-26 14:06:47.023
200.0, -162020.4418325951, 51301.96974300978, -51615.52001422882, -41923.78126666323, 2285.890553699798, -9134.912089694988, -187500.02235174447, 3975.5706757987355, 13487.62374968812, -28546.664541562146, 4345.29088083397, -16760.54498678982, -17324.457147652764, -7261.925311318078, -23258.800597047877, -30871.625944569823, 0.11, 1.012, 0.096, 192.0, 0.0, 0.0, 0.0, 0.0, 0.0, 0.0, 0.0, 0.0, 0.0, 1.695755207023649E9, 0.0, 2023-09-26 14:06:47.023
202.0, -162058.84212956933, 51293.744301050225, -51590.19548776096, -41898.389684962, 2308.152891177284, -9107.017112614765, -187500.02235174447, 3970.6532920185678, 13515.138747112602, -28577.487597166015, 4340.038220886972, -16786.160085935604, -17299.847877007473, -7251.688212357547, -23236.158279914653, -30844.20035412316, 0.11, 1.012, 0.096, 192.0, 0.0, 0.0, 0.0, 0.0, 0.0, 0.0, 0.0, 0.0, 0.0, 1.695755207023658E9, 0.0, 2023-09-26 14:06:47.023
204.0, -162023.86164949677, 51301.32154242058, -51607.65220018056, -41915.10878981457, 2285.8234984664323, -9122.551575011203, -187500.02235174447, 3974.3413298536934, 13510.310770310256, -28554.957038755067, 4353.605729771344, -16763.07073391327, -17313.773013803126, -7247.57549137777, -23251.402169633173, -30858.237249641094, 0.11, 1.012, 0.096, 192.0, 0.0, 0.0, 0.0, 0.0, 0.0, 0.0, 0.0, 0.0, 0.0, 1.695755207023667E9, 0.0, 2023-09-26 14:06:47.023
206.0, -162060.89849005922, 51285.74237653523, -51579.13137425559, -41886.543260400686, 2309.2257749111386, -9097.629379943535, -187500.02235174447, 3960.0138616578415, 13505.952180141472, -28569.262155206463, 4343.368630810814, -16786.920045247083, -17309.123850956425, -7257.745535104935, -23249.971657988033, -30850.14591814827, 0.11, 1.012, 0.096, 192.0, 0.0, 0.0, 0.0, 0.0, 0.0, 0.0, 0.0, 0.0, 0.0, 1.695755207023676E9, 0.0, 2023-09-26 14:06:47.023
208.0, -162059.98206853654, 51299.93573426435, -51565.206237459926, -41873.959228272346, 2326.660135586278, -9083.45837395887, -187500.02235174447, 3971.4132513300483, 13528.348628085689, -28560.097939979787, 4368.916674723229, -16776.302966630814, -17284.603987288952, -7222.362723632184, -23221.964922185532, -30822.541513745968, 0.108, 1.01, 0.096, 192.0, 1.5, 48.0, 15.5, 72.0, 1.5, 0.0, 0.0, 0.0, 0.0, 1.695755207023685E9, 0.0, 2023-09-26 14:06:47.023
210.0, -162080.3445077353, 51291.73264404925, -51579.06431902222, -41887.638495879, 2315.1713389362503, -9097.830545643634, -187500.02235174447, 3981.806812501766, 13530.807319975773, -28566.17761447163, 4360.423011830212, -16791.300987160324, -17286.839161734482, -7223.726180043957, -23216.73461398299, -30818.71936544411, 0.108, 1.01, 0.096, 192.0, 0.0, 0.0, 0.0, 0.0, 0.0, 0.0, 0.0, 0.0, 0.0, 1.695755207085345E9, 0.0, 2023-09-26 14:06:47.085
212.0, -162043.21826019505, 51303.19908895482, -51601.86309836663, -41913.23124328032, 2290.830289224421, -9123.37858955605, -187500.02235174447, 3990.5239928393357, 13503.359377784656, -28548.922067752133, 4361.272378119514, -16765.909405459097, -17313.70595856976, -7244.334488431751, -23243.400245118173, -30850.078862914906, 0.108, 1.01, 0.096, 192.0, 0.0, 0.0, 0.0, 0.0, 0.0, 0.0, 0.0, 0.0, 0.0, 1.695755207085368E9, 0.0, 2023-09-26 14:06:47.085
214.0, -162076.83528385585, 51295.845365029025, -51569.45306890644, -41881.71528359834, 2316.825368025943, -9093.248438030296, -187500.02235174447, 3970.4074228295594, 13517.731549469418, -28562.690742336603, 4352.197569870659, -16786.27184465788, -17306.352234643964, -7251.19647397953, -23240.136890427697, -30844.20035412316, 0.108, 1.01, 0.096, 192.0, 0.0, 0.0, 0.0, 0.0, 0.0, 0.0, 0.0, 0.0, 0.0, 1.695755207085379E9, 0.0, 2023-09-26 14:06:47.085
216.0, -162062.39605693772, 51309.68109484686, -51576.89619981006, -41892.46647268134, 2310.209251667172, -9097.830545643634, -187500.02235174447, 3990.4345858615147, 13525.755825728873, -28571.094998251796, 4377.611503316343, -16782.293234144836, -17289.320205369022, -7226.81072077879, -23222.858991963745, -30825.313130058425, 0.108, 1.01, 0.096, 192.0, 0.0, 0.0, 0.0, 0.0, 0.0, 0.0, 0.0, 0.0, 0.0, 1.695755207085388E9, 0.0, 2023-09-26 14:06:47.085
218.0, -162088.4134874837, 51303.53436512165, -51566.882618294076, -41884.97863828881, 2318.658211071278, -9092.51083046327, -187500.02235174447, 3969.423946073526, 13523.945334427994, -28574.827739575834, 4371.0847939353935, -16795.301949417826, -17279.79836223106, -7233.560947604293, -23220.377948329206, -30822.00507187904, 0.106, 1.008, 0.094, 192.0, 1.5, 40.0, 15.5, 64.0, 1.0, 120.0, 0.0, 0.0, 0.0, 1.695755207085423E9, 0.0, 2023-09-26 14:06:47.085
220.0, -162062.57487089335, 51320.56639439659, -51580.89716206756, -41902.703571641876, 2299.3910073508036, -9116.583659241636, -187500.02235174447, 3979.348120611682, 13527.476910051932, -28567.831643561323, 4377.72326203862, -16779.94630097703, -17294.103478682457, -7250.190645479041, -23235.197154903075, -30841.85342095535, 0.106, 1.008, 0.094, 192.0, 0.0, 0.0, 0.0, 0.0, 0.0, 0.0, 0.0, 0.0, 0.0, 1.695755207085433E9, 0.0, 2023-09-26 14:06:47.085
222.0, -162073.7060396321, 51313.99498152673, -51575.86801956511, -41896.4897866833, 2304.6436672978007, -9109.028769615743, -187500.02235174447, 3963.8583617041545, 13533.936564199515, -28557.21456494505, 4374.906942237251, -16781.80149576682, -17295.869266494425, -7252.001136779922, -23234.571306058326, -30839.48413604309, 0.106, 1.008, 0.094, 192.0, 0.0, 0.0, 0.0, 0.0, 0.0, 0.0, 0.0, 0.0, 0.0, 1.695755207085442E9, 0.0, 2023-09-26 14:06:47.085
224.0, -162059.28916445843, 51321.52751940817, -51594.48702269638, -41913.25359502478, 2290.1597368907615, -9125.636115746036, -187500.02235174447, 3971.7261757524225, 13515.161098857057, -28564.098902237285, 4378.147945183271, -16781.287405644347, -17306.195772432777, -7254.839808325745, -23242.953210229065, -30844.982665179097, 0.106, 1.008, 0.094, 192.0, 0.0, 0.0, 0.0, 0.0, 0.0, 0.0, 0.0, 0.0, 0.0, 1.69575520708545E9, 0.0, 2023-09-26 14:06:47.085
226.0, -162069.63802214124, 51308.71996983528, -51590.88839183908, -41908.20210077788, 2295.077120670929, -9121.94807791091, -187500.02235174447, 3945.8652074176325, 13508.075595864726, -28561.55080336938, 4370.727166024109, -16787.07650745827, -17310.464955623742, -7268.832000354768, -23248.943477743087, -30852.33638910489, 0.106, 1.008, 0.094, 192.0, 0.0, 0.0, 0.0, 0.0, 0.0, 0.0, 0.0, 0.0, 0.0, 1.695755207144218E9, 0.0, 2023-09-26 14:06:47.144
228.0, -162054.5505946339, 51316.118397249986, -51608.903897870056, -41928.005746365285, 2281.0402251529963, -9140.365915342083, -187500.02235174447, 3967.680510006012, 13495.245694547379, -28584.595451902802, 4363.462849076134, -16793.46910637249, -17313.504792869662, -7266.306253231318, -23252.720922556036, -30856.71733101813, 0.106, 1.008, 0.096, 192.0, 1.5, 40.0, 15.5, 64.0, 1.5, 0.0, 0.0, 0.0, 0.0, 1.695755207144254E9, 0.0, 2023-09-26 14:06:47.144
230.0, -162062.50781565998, 51304.13786222194, -51590.17313601651, -41907.41978972194, 2297.759330005566, -9113.253249317795, -187500.02235174447, 3952.034288887297, 13482.14757229657, -28569.150396484187, 4349.470657047112, -16787.680004558566, -17329.262772710656, -7287.182782552574, -23268.277736696928, -30869.68134280221, 0.106, 1.008, 0.096, 192.0, 0.0, 0.0, 0.0, 0.0, 0.0, 0.0, 0.0, 0.0, 0.0, 1.695755207144264E9, 0.0, 2023-09-26 14:06:47.144
232.0, -162072.20847275358, 51313.72676059327, -51592.38595871758, -41907.55390018868, 2295.792376493499, -9114.236726073828, -187500.02235174447, 3981.650350290579, 13525.91228794006, -28595.301937496894, 4357.941968195673, -16806.544876878845, -17300.049042707567, -7250.078886756764, -23242.237954406497, -30835.840801696875, 0.106, 1.008, 0.096, 192.0, 0.0, 0.0, 0.0, 0.0, 0.0, 0.0, 0.0, 0.0, 0.0, 1.695755207144273E9, 0.0, 2023-09-26 14:06:47.144
234.0, -162061.07730401485, 51322.04160953064, -51591.44718545046, -41905.81046412116, 2300.1062631733735, -9113.789691184724, -187500.02235174447, 3975.414213587548, 13503.962874884948, -28561.282582435917, 4364.803953743452, -16785.64599581313, -17319.919743528335, -7261.902959573622, -23257.70536156957, -30849.92240070372, 0.106, 1.008, 0.096, 192.0, 0.0, 0.0, 0.0, 0.0, 0.0, 0.0, 0.0, 0.0, 0.0, 1.695755207144281E9, 0.0, 2023-09-26 14:06:47.144
236.0, -162061.45728367058, 51327.69660087784, -51591.35777847264, -41907.77741763323, 2294.5853822929125, -9119.84701393211, -187500.02235174447, 3983.3714346136376, 13517.128052369126, -28576.03473377642, 4362.211151386637, -16795.793687795842, -17315.56115335955, -7255.331546703762, -23254.97844874602, -30845.20618262365, 0.106, 1.008, 0.096, 192.0, 0.0, 0.0, 0.0, 0.0, 0.0, 0.0, 0.0, 0.0, 0.0, 1.69575520714429E9, 0.0, 2023-09-26 14:06:47.144
238.0, -162052.6059928663, 51326.98134505527, -51579.91368531152, -41892.846452337086, 2307.437635354714, -9103.172612568453, -187500.02235174447, 3968.5075245508583, 13499.269008549334, -28556.923992267133, 4375.532791082, -16779.09693468773, -17318.71274932775, -7264.29459623034, -23257.235974936008, -30846.480232057602, 0.108, 1.012, 0.098, 192.0, 1.5, 48.0, 15.5, 80.0, 1.5, 8.0, 0.0, 0.0, 0.0, 1.695755207144298E9, 0.0, 2023-09-26 14:06:47.144
240.0, -162079.4504379571, 51325.39437119894, -51569.050737506244, -41880.66475160894, 2318.881728515831, -9092.913161863466, -187500.02235174447, 3978.7893270002996, 13515.541078512799, -28592.262100250973, 4379.109070194849, -16799.347615164235, -17297.255074650657, -7236.466674383482, -23229.02807343341, -30815.724231687098, 0.108, 1.012, 0.098, 192.0, 0.0, 0.0, 0.0, 0.0, 0.0, 0.0, 0.0, 0.0, 0.0, 1.695755207203067E9, 0.0, 2023-09-26 14:06:47.203
242.0, -162060.94319354813, 51325.975516554776, -51581.50065916785, -41894.8357575936, 2299.9050974732754, -9106.36891202556, -187500.02235174447, 3975.9953589433862, 13525.152328628581, -28563.89773653719, 4388.742672055087, -16778.918120732083, -17309.79440329008, -7246.2567384549075, -23241.70151253957, -30831.325749316904, 0.108, 1.012, 0.098, 192.0, 0.0, 0.0, 0.0, 0.0, 0.0, 0.0, 0.0, 0.0, 0.0, 1.695755207203098E9, 0.0, 2023-09-26 14:06:47.203
244.0, -162071.8508448423, 51322.0639612751, -51586.7756708593, -41899.686086140406, 2298.1616614057616, -9110.392226027516, -187500.02235174447, 3979.3704723561377, 13497.190296314991, -28580.974469301043, 4375.935122482196, -16794.94432150654, -17320.500888884173, -7265.970977064488, -23255.626649335223, -30844.62503726781, 0.108, 1.012, 0.098, 192.0, 0.0, 0.0, 0.0, 0.0, 0.0, 0.0, 0.0, 0.0, 0.0, 1.695755207203109E9, 0.0, 2023-09-26 14:06:47.203
246.0, -162041.13954796072, 51330.57997591257, -51601.05843556624, -41911.06312406816, 2285.2647048550493, -9122.395112800015, -187500.02235174447, 3980.2198386454393, 13494.284569535801, -28563.294239436895, 4386.418090631734, -16771.31852761728, -17323.406615663363, -7264.7416311194465, -23260.812254048855, -30850.4811943151, 0.108, 1.012, 0.098, 192.0, 0.0, 0.0, 0.0, 0.0, 0.0, 0.0, 0.0, 0.0, 0.0, 1.695755207203118E9, 0.0, 2023-09-26 14:06:47.203
248.0, -162067.62636514026, 51314.933754793856, -51587.04389179277, -41895.48395818281, 2296.5746875494347, -9109.453452760394, -187500.02235174447, 3976.844725232688, 13503.00174987337, -28588.88698683822, 4367.128535166805, -16788.842295270242, -17321.931400529313, -7271.156581778119, -23258.666486581147, -30844.513278545535, 0.108, 1.01, 0.10200000000000001, 192.0, 1.5, 48.0, 15.5, 72.0, 1.5, 24.0, 0.0, 0.0, 0.0, 1.695755207203127E9, 0.0, 2023-09-26 14:06:47.203
250.0, -162037.71973105904, 51323.40506594242, -51604.29943851226, -41916.42754273743, 2273.1053558713625, -9129.972354170366, -187500.02235174447, 3977.068242677241, 13490.373014256122, -28575.207719231574, 4375.331625381902, -16777.107629431204, -17326.737025587205, -7267.177971265075, -23263.785036061414, -30849.207144881148, 0.108, 1.01, 0.10200000000000001, 192.0, 0.0, 0.0, 0.0, 0.0, 0.0, 0.0, 0.0, 0.0, 0.0, 1.695755207203135E9, 0.0, 2023-09-26 14:06:47.203
252.0, -162066.95581280658, 51308.58585936855, -51575.175115487, -41888.17493774593, 2292.4843183141134, -9105.854821903089, -187500.02235174447, 3965.2218181159283, 13511.71893021094, -28592.955004329087, 4362.166447897726, -16794.720804061988, -17327.47463315423, -7269.435497455061, -23270.758780331467, -30852.068168171427, 0.108, 1.01, 0.10200000000000001, 192.0, 0.0, 0.0, 0.0, 0.0, 0.0, 0.0, 0.0, 0.0, 0.0, 1.695755207203144E9, 0.0, 2023-09-26 14:06:47.203
254.0, -162027.28146639842, 51323.00273454222, -51595.626961663605, -41910.593737434596, 2266.7351087016, -9128.161862869485, -187500.02235174447, 3980.331597367716, 13482.90753160805, -28571.519681396447, 4380.025491717517, -16773.710164273998, -17319.51741212814, -7254.43747692555, -23260.275812181928, -30841.138165132783, 0.108, 1.01, 0.10200000000000001, 192.0, 0.0, 0.0, 0.0, 0.0, 0.0, 0.0, 0.0, 0.0, 0.0, 1.695755207203153E9, 0.0, 2023-09-26 14:06:47.203
0.0, -162061.7031528596, 51314.240850715745, -51567.866095050114, -41881.80469057616, 2294.8759549708316, -9091.661464173969, -187500.02235174447, 3966.1158878941405, 13482.52755195231, -28572.301992452383, 4370.458945090645, -16784.126077190173, -17306.821621277526, -7265.72510787548, -23262.22041394954, -30839.841763954377, 0.108, 1.01, 0.10200000000000001, 192.0, 0.0, 0.0, 0.0, 0.0, 0.0, 0.0, 0.0, 0.0, 0.0, 1.695755207263376E9, 0.0, 2023-09-26 14:06:47.263
2.0, -162056.53989989043, 51321.68398161936, -51556.44435363345, -41869.17595495891, 2311.662115056767, -9073.109516276065, -187500.02235174447, 3972.821411230733, 13505.326331296723, -28561.61785860275, 4388.362692399346, -16772.88314972915, -17275.32801334, -7236.019639494377, -23234.28073338041, -30814.51723748651, 0.10400000000000001, 1.018, 0.098, 192.0, 1.5, 32.0, 15.5, 104.0, 1.5, 8.0, 0.0, 0.0, 0.0, 1.695755207263398E9, 0.0, 2023-09-26 14:06:47.263
4.0, -162081.9091298472, 51309.81520531359, -51572.2246852189, -41886.81148133415, 2301.3579608628706, -9085.425327470939, -187500.02235174447, 3963.5901407706906, 13518.335046569711, -28567.384608672215, 4380.271360906525, -16791.926836005074, -17259.45827477673, -7223.368552132672, -23224.848297220266, -30812.48322874108, 0.10400000000000001, 1.018, 0.098, 192.0, 0.0, 0.0, 0.0, 0.0, 0.0, 0.0, 0.0, 0.0, 0.0, 1.695755207263408E9, 0.0, 2023-09-26 14:06:47.263
6.0, -162045.0958067293, 51323.315658964595, -51597.16923203102, -41913.09713281359, 2274.0664808829406, -9105.273676547251, -187500.02235174447, 3986.45597534847, 13498.732566682407, -28557.303971922873, 4376.091584693383, -16770.960899705995, -17276.199731373756, -7220.28401139784, -23241.03096020591, -30833.71738597362, 0.10400000000000001, 1.018, 0.098, 192.0, 0.0, 0.0, 0.0, 0.0, 0.0, 0.0, 0.0, 0.0, 0.0, 1.69575520726346E9, 0.0, 2023-09-26 14:06:47.263
8.0, -162050.3484666763, 51309.92696403587, -51598.10800529814, -41912.47128396884, 2272.948893660175, -9101.65269394549, -187500.02235174447, 3973.0002251863752, 13468.133028523092, -28552.453643376073, 4347.4813517905895, -16773.79957125182, -17289.878998980403, -7244.513302387393, -23252.028018477922, -30847.19548788017, 0.10400000000000001, 1.018, 0.098, 192.0, 0.0, 0.0, 0.0, 0.0, 0.0, 0.0, 0.0, 0.0, 0.0, 1.695755207263469E9, 0.0, 2023-09-26 14:06:47.263
10.0, -162038.1444142037, 51316.09604550553, -51596.76690063082, -41904.91639434295, 2271.339568059393, -9094.880115375534, -187500.02235174447, 3984.6901875365006, 13479.085383306192, -28558.153338212174, 4344.329755822391, -16768.03282118235, -17269.203635359245, -7228.755322546402, -23226.524678054415, -30827.34713880386, 0.10400000000000001, 1.018, 0.098, 192.0, 0.0, 0.0, 0.0, 0.0, 0.0, 0.0, 0.0, 0.0, 0.0, 1.695755207263479E9, 0.0, 2023-09-26 14:06:47.263
12.0, -162074.48835068804, 51303.601420355015, -51577.76791784381, -41881.20119347587, 2289.9362194462087, -9081.893751847, -187500.02235174447, 3955.5658645112358, 13488.62957818861, -28560.008533001965, 4329.242328315059, -16780.058059699306, -17256.954879397737, -7225.804892278301, -23211.861933691733, -30822.876789912796, 0.11, 1.014, 0.096, 192.0, 1.5, 56.0, 15.5, 88.0, 1.5, 0.0, 0.0, 0.0, 0.0, 1.695755207263488E9, 0.0, 2023-09-26 14:06:47.263
14.0, -162069.68272563015, 51313.190318726345, -51595.09051979668, -41894.45577793787, 2288.1033764008735, -9092.443775229905, -187500.02235174447, 3976.688263021501, 13514.803470945773, -28568.12221623924, 4344.083886633383, -16785.02014696838, -17228.746977895138, -7192.992531417911, -23183.184645555575, -30813.556112474933, 0.11, 1.014, 0.096, 192.0, 0.0, 0.0, 0.0, 0.0, 0.0, 0.0, 0.0, 0.0, 0.0, 1.695755207325019E9, 0.0, 2023-09-26 14:06:47.325
16.0, -162080.81389436888, 51303.02027499918, -51596.051644808256, -41893.20408024837, 2289.3774258348258, -9093.539010708215, -187500.02235174447, 3953.5318557658024, 13502.688825450996, -28553.884155021213, 4338.741819708564, -16781.488571344446, -17240.571050712, -7205.643618779614, -23188.280843291384, -30829.068223126917, 0.11, 1.014, 0.096, 192.0, 0.0, 0.0, 0.0, 0.0, 0.0, 0.0, 0.0, 0.0, 0.0, 1.695755207325054E9, 0.0, 2023-09-26 14:06:47.325
18.0, -162080.5009699465, 51312.02802801467, -51589.614342405126, -41883.65988536595, 2298.474585828136, -9080.37383322404, -187500.02235174447, 3959.8573994466547, 13502.2864940508, -28559.449739390584, 4342.407505799235, -16777.04057419784, -17247.053056604036, -7204.816604234768, -23186.872683390702, -30838.411252309237, 0.11, 1.014, 0.096, 192.0, 0.0, 0.0, 0.0, 0.0, 0.0, 0.0, 0.0, 0.0, 0.0, 1.695755207325064E9, 0.0, 2023-09-26 14:06:47.325
20.0, -162094.42610674218, 51305.45661514481, -51594.24115350738, -41881.31295219815, 2295.9935421935966, -9077.043423300198, -187500.02235174447, 3952.0789923762077, 13516.569258757741, -28552.833623031813, 4349.314194835924, -16778.672251543077, -17227.60703892792, -7187.292836581807, -23166.376133725185, -30819.747545689053, 0.11, 1.014, 0.096, 192.0, 0.0, 0.0, 0.0, 0.0, 0.0, 0.0, 0.0, 0.0, 0.0, 1.695755207325073E9, 0.0, 2023-09-26 14:06:47.325
22.0, -162095.54369396492, 51313.391484426444, -51602.28778151129, -41884.41984467743, 2288.148079889784, -9078.496286689793, -187500.02235174447, 3967.88167570611, 13496.407985259055, -28556.968695756044, 4341.804008698941, -16779.342803876734, -17246.293097292557, -7195.562982030271, -23183.765790911413, -30833.806792951444, 0.12, 1.008, 0.1, 192.0, 1.5, 96.0, 15.5, 64.0, 1.5, 16.0, 0.0, 0.0, 0.0, 1.695755207325082E9, 0.0, 2023-09-26 14:06:47.325
24.0, -162086.78181013846, 51309.16700472439, -51613.709522927944, -41894.88046108252, 2272.6806727267117, -9090.901504862488, -187500.02235174447, 3959.5891785131907, 13496.877371892617, -28535.823945501324, 4346.43081980119, -16771.966728206484, -17247.969478126703, -7189.192734860509, -23185.39746825665, -30831.10223187235, 0.12, 1.008, 0.1, 192.0, 0.0, 0.0, 0.0, 0.0, 0.0, 0.0, 0.0, 0.0, 0.0, 1.695755207325092E9, 0.0, 2023-09-26 14:06:47.325
26.0, -162081.32798449136, 51312.58682162605, -51613.709522927944, -41894.165205259946, 2268.92557965822, -9089.31453100616, -187500.02235174447, 3970.4074228295594, 13485.701499664963, -28541.724806037524, 4336.528997007489, -16772.592577051233, -17269.89653943736, -7204.9507147015, -23205.201113844054, -30850.10121465936, 0.12, 1.008, 0.1, 192.0, 0.0, 0.0, 0.0, 0.0, 0.0, 0.0, 0.0, 0.0, 0.0, 1.695755207325101E9, 0.0, 2023-09-26 14:06:47.325
28.0, -162073.1025425318, 51308.071769246075, -51616.92817412951, -41899.06023729566, 2263.6729197112227, -9095.975350853843, -187500.02235174447, 3954.917663922032, 13498.777270171318, -28523.083451161798, 4342.586319754877, -16766.423495581566, -17259.681792221283, -7201.687360011025, -23193.1758753271, -30836.33254007489, 0.12, 1.008, 0.1, 192.0, 0.0, 0.0, 0.0, 0.0, 0.0, 0.0, 0.0, 0.0, 0.0, 1.69575520732514E9, 0.0, 2023-09-26 14:06:47.325
30.0, -162074.98008906606, 51304.160213966396, -51619.655086953055, -41902.68121989742, 2259.917826642731, -9103.440833501916, -187500.02235174447, 3960.907931436054, 13475.57615942671, -28534.326378622816, 4320.815720655408, -16776.727649775465, -17283.50875181064, -7211.723293271458, -23214.45473604855, -30854.951543206163, 0.12, 1.008, 0.1, 192.0, 0.0, 0.0, 0.0, 0.0, 0.0, 0.0, 0.0, 0.0, 0.0, 1.695755207385328E9, 0.0, 2023-09-26 14:06:47.385
32.0, -162075.36006872178, 51305.68013258936, -51597.996246575865, -41877.9825422743, 2277.3298355734155, -9081.245551257796, -187500.02235174447, 3940.59019572618, 13487.780211899306, -28517.920198192624, 4330.561081237922, -16765.5070740589, -17273.159894127835, -7194.512450040871, -23204.351747554752, -30839.43943255418, 0.11, 1.008, 0.1, 192.0, 1.5, 56.0, 15.5, 64.0, 1.5, 16.0, 0.0, 0.0, 0.0, 1.69575520738535E9, 0.0, 2023-09-26 14:06:47.385
34.0, -162100.9528161231, 51305.52367037817, -51599.09148205417, -41878.25076320777, 2280.6155420083455, -9085.358272237572, -187500.02235174447, 3945.842855673177, 13513.730587211918, -28547.9385909961, 4331.589261482866, -16787.769411536385, -17259.614736987918, -7177.793345188302, -23185.039840345366, -30815.970100876108, 0.11, 1.008, 0.1, 192.0, 0.0, 0.0, 0.0, 0.0, 0.0, 0.0, 0.0, 0.0, 0.0, 1.695755207385361E9, 0.0, 2023-09-26 14:06:47.385
36.0, -162061.09965575932, 51307.40121691242, -51627.1876248345, -41907.95623158887, 2251.155942816251, -9110.347522538606, -187500.02235174447, 3944.3229370502163, 13479.979453084405, -28515.617968513725, 4330.806950426931, -16756.588728021234, -17290.594254802974, -7195.294761096807, -23214.54414302637, -30845.519107046024, 0.11, 1.008, 0.1, 192.0, 0.0, 0.0, 0.0, 0.0, 0.0, 0.0, 0.0, 0.0, 0.0, 1.695755207385371E9, 0.0, 2023-09-26 14:06:47.385
38.0, -162075.6059379108, 51294.83953652853, -51622.82903466571, -41904.31289724266, 2254.5757597179127, -9108.715845193368, -187500.02235174447, 3940.903120148554, 13470.032926801792, -28543.0882624493, 4307.605839682322, -16776.884111986652, -17300.227856663212, -7211.320961871263, -23225.563553042837, -30854.39274959478, 0.11, 1.008, 0.1, 192.0, 0.0, 0.0, 0.0, 0.0, 0.0, 0.0, 0.0, 0.0, 0.0, 1.69575520738538E9, 0.0, 2023-09-26 14:06:47.385
40.0, -162066.46407442857, 51301.61211509849, -51594.9787610744, -41879.77068183073, 2278.6709402407337, -9085.85001061559, -187500.02235174447, 3934.354059023149, 13476.224360015913, -28532.270018132927, 4323.4755782455895, -16763.69658275802, -17293.61174030444, -7199.608647776681, -23216.73461398299, -30847.307246602446, 0.11, 1.008, 0.1, 192.0, 0.0, 0.0, 0.0, 0.0, 0.0, 0.0, 0.0, 0.0, 0.0, 1.695755207385389E9, 0.0, 2023-09-26 14:06:47.385
42.0, -162082.3561647363, 51295.17481269537, -51609.97678160391, -41895.75217911627, 2260.20839932065, -9100.110423578075, -187500.02235174447, 3945.3511172951603, 13489.300130522268, -28554.13002421022, 4324.012020112517, -16790.965710993496, -17277.026745918603, -7195.384168074628, -23195.813381172822, -30829.805830693942, 0.114, 1.008, 0.1, 192.0, 1.5, 72.0, 15.5, 64.0, 1.5, 16.0, 0.0, 0.0, 0.0, 1.695755207385399E9, 0.0, 2023-09-26 14:06:47.385
44.0, -162066.12879826175, 51300.96391450929, -51601.66193266654, -41887.99612379028, 2271.7418994595887, -9090.856801373578, -187500.02235174447, 3941.193692826473, 13483.28751126379, -28526.927951208112, 4335.433761529179, -16768.61396653819, -17288.51554256863, -7196.747624486402, -23199.74728819696, -30834.209124351637, 0.114, 1.008, 0.1, 192.0, 0.0, 0.0, 0.0, 0.0, 0.0, 0.0, 0.0, 0.0, 0.0, 1.695755207444309E9, 0.0, 2023-09-26 14:06:47.444
46.0, -162084.97131883758, 51290.54800159312, -51613.21778454993, -41898.076760539625, 2267.852695924365, -9094.075452575142, -187500.02235174447, 3940.7466579373668, 13494.99982535837, -28544.49642234998, 4326.604822469333, -16788.216446425493, -17291.71184202574, -7209.935153715033, -23204.128230110196, -30835.77374646351, 0.114, 1.008, 0.1, 192.0, 0.0, 0.0, 0.0, 0.0, 0.0, 0.0, 0.0, 0.0, 0.0, 1.695755207444339E9, 0.0, 2023-09-26 14:06:47.444
48.0, -162062.68662961564, 51301.74622556523, -51607.33927575818, -41895.05927503816, 2273.2618180825493, -9093.896638619499, -187500.02235174447, 3939.4055532700486, 13471.3293279802, -28529.856029731756, 4333.533863250478, -16765.194149636525, -17303.446507864774, -7210.717464770969, -23220.93674194059, -30851.062339670938, 0.114, 1.008, 0.1, 192.0, 0.0, 0.0, 0.0, 0.0, 0.0, 0.0, 0.0, 0.0, 0.0, 1.695755207444348E9, 0.0, 2023-09-26 14:06:47.444
50.0, -162077.97522282306, 51288.26812365867, -51627.88052891261, -41916.20402529288, 2262.1082975993513, -9114.817871429666, -187500.02235174447, 3932.2529950443504, 13467.797752356262, -28546.396320628683, 4322.0674183449055, -16783.947263234528, -17297.009205461647, -7208.504642069894, -23217.002834916453, -30850.14591814827, 0.114, 1.008, 0.1, 192.0, 0.0, 0.0, 0.0, 0.0, 0.0, 0.0, 0.0, 0.0, 0.0, 1.69575520744439E9, 0.0, 2023-09-26 14:06:47.444
52.0, -162084.92661534867, 51295.353626651005, -51603.78534838979, -41890.79009184719, 2282.8507164538764, -9086.542914693704, -187500.02235174447, 3927.648535686557, 13468.75887736784, -28543.26707640494, 4312.679685673676, -16770.782085750354, -17297.635054306396, -7205.442453079517, -23223.462489064037, -30854.169232150227, 0.11800000000000001, 1.01, 0.096, 192.0, 1.5, 88.0, 15.5, 72.0, 1.5, 0.0, 0.0, 0.0, 0.0, 1.6957552074444E9, 0.0, 2023-09-26 14:06:47.444
54.0, -162127.66315074722, 51284.20010616781, -51605.34997050166, -41893.38289420401, 2279.3191408299376, -9090.677987417936, -187500.02235174447, 3909.588326166669, 13495.603322458664, -28559.539146368403, 4318.692304932154, -16797.268902929893, -17284.603987288952, -7196.434700064028, -23204.575264999305, -30834.633807496288, 0.11800000000000001, 1.01, 0.096, 192.0, 0.0, 0.0, 0.0, 0.0, 0.0, 0.0, 0.0, 0.0, 0.0, 1.695755207444409E9, 0.0, 2023-09-26 14:06:47.444
56.0, -162142.25883987654, 51285.228286412756, -51586.08276678119, -41876.66378935144, 2297.2675916275493, -9066.582806895114, -187500.02235174447, 3915.1539105360403, 13499.358415527156, -28563.22718420353, 4329.331735292881, -16791.524504604877, -17290.057812936047, -7193.461918051472, -23205.02229988841, -30834.186772607183, 0.11800000000000001, 1.01, 0.096, 192.0, 0.0, 0.0, 0.0, 0.0, 0.0, 0.0, 0.0, 0.0, 0.0, 1.695755207444418E9, 0.0, 2023-09-26 14:06:47.444
58.0, -162182.64844210725, 51272.44308858432, -51600.05260706575, -41891.795920347686, 2284.013007165552, -9074.383565710017, -187500.02235174447, 3916.159739036529, 13507.874430164627, -28572.70432385258, 4327.722409692098, -16809.987045524962, -17285.90038846736, -7184.8564964361785, -23196.998023628956, -30824.419060280212, 0.11800000000000001, 1.01, 0.096, 192.0, 0.0, 0.0, 0.0, 0.0, 0.0, 0.0, 0.0, 0.0, 0.0, 1.695755207444427E9, 0.0, 2023-09-26 14:06:47.444
60.0, -162189.3316136994, 51275.3041118746, -51606.75813040235, -41897.9873535618, 2282.448385053681, -9081.290254746706, -187500.02235174447, 3941.4172102710263, 13488.406060744055, -28580.03569603392, 4327.677706203188, -16806.075490245283, -17289.99075770268, -7190.556191272282, -23201.513076008927, -30826.989510892574, 0.11800000000000001, 1.01, 0.096, 192.0, 0.0, 0.0, 0.0, 0.0, 0.0, 0.0, 0.0, 0.0, 0.0, 1.695755207504434E9, 0.0, 2023-09-26 14:06:47.504
62.0, -162173.6853925807, 51269.53736180513, -51610.9826101044, -41904.379952476025, 2275.474640783625, -9094.701301419891, -187500.02235174447, 3940.6572509595458, 13452.352696937645, -28555.582887599816, 4327.029505613984, -16797.313606418804, -17317.975141760726, -7214.8525374952005, -23231.17384090112, -30859.466595586135, 0.112, 1.014, 0.1, 192.0, 1.5, 64.0, 15.5, 88.0, 1.5, 16.0, 0.0, 0.0, 0.0, 1.695755207504455E9, 0.0, 2023-09-26 14:06:47.504
64.0, -162147.77972075698, 51286.65879805789, -51612.189604304986, -41910.526682201235, 2270.378443047815, -9109.766377182768, -187500.02235174447, 3957.6222250011238, 13473.385688470089, -28565.41765516015, 4336.663107474221, -16792.88796101665, -17307.51452535564, -7214.964296217478, -23220.042672162377, -30848.335426847392, 0.112, 1.014, 0.1, 192.0, 0.0, 0.0, 0.0, 0.0, 0.0, 0.0, 0.0, 0.0, 0.0, 1.695755207504466E9, 0.0, 2023-09-26 14:06:47.504
66.0, -162133.18403162766, 51276.24288514172, -51614.96122061744, -41913.164188046954, 2266.6904052126893, -9120.115234865574, -187500.02235174447, 3934.734038678889, 13471.888121591583, -28547.893887507187, 4332.349220794346, -16782.472048100477, -17315.71761557074, -7229.984668491444, -23232.984332202, -30860.561831064446, 0.112, 1.014, 0.1, 192.0, 0.0, 0.0, 0.0, 0.0, 0.0, 0.0, 0.0, 0.0, 0.0, 1.695755207504475E9, 0.0, 2023-09-26 14:06:47.504
68.0, -162116.017891886, 51284.62478931246, -51617.59872646317, -41915.73463865932, 2265.3269488009155, -9122.28335407774, -187500.02235174447, 3943.3394602941826, 13466.635461644586, -28557.371027156238, 4328.214148070115, -16782.025013211372, -17320.679702839818, -7223.033275965843, -23237.45468109306, -30864.607496810855, 0.112, 1.014, 0.1, 192.0, 0.0, 0.0, 0.0, 0.0, 0.0, 0.0, 0.0, 0.0, 0.0, 1.695755207504484E9, 0.0, 2023-09-26 14:06:47.504
70.0, -162121.4717175331, 51282.47902184475, -51598.93501984299, -41896.24391749429, 2279.83323095241, -9098.970484610854, -187500.02235174447, 3924.7651606518225, 13465.517874421821, -28537.343864124283, 4333.287994061469, -16775.252434641414, -17314.33180741451, -7227.615383579181, -23234.571306058326, -30858.214897896636, 0.112, 1.014, 0.1, 192.0, 0.0, 0.0, 0.0, 0.0, 0.0, 0.0, 0.0, 0.0, 0.0, 1.695755207504494E9, 0.0, 2023-09-26 14:06:47.504
72.0, -162111.88281916175, 51287.19523992482, -51610.35676125965, -41907.73271414432, 2270.825477936921, -9106.972409125854, -187500.02235174447, 3942.7806666828, 13462.433333686988, -28548.050349718374, 4335.433761529179, -16786.003623724417, -17315.00235974817, -7220.3734183756615, -23229.69862576707, -30852.649313527265, 0.116, 1.014, 0.096, 192.0, 1.5, 80.0, 15.5, 88.0, 1.5, 0.0, 0.0, 0.0, 0.0, 1.695755207504529E9, 0.0, 2023-09-26 14:06:47.504
74.0, -162098.0694410884, 51290.72681554876, -51605.86406062413, -41903.66469665345, 2271.4289750372145, -9101.026845100743, -187500.02235174447, 3933.080009589197, 13474.413868715033, -28525.519791307426, 4337.758342952531, -16778.5604928208, -17316.879906282415, -7224.5978980777145, -23228.379872844205, -30850.704711759656, 0.116, 1.014, 0.096, 192.0, 0.0, 0.0, 0.0, 0.0, 0.0, 0.0, 0.0, 0.0, 0.0, 1.695755207563442E9, 0.0, 2023-09-26 14:06:47.563
76.0, -162099.9693393671, 51287.463460858286, -51612.79310140528, -41909.92318510094, 2261.63891096579, -9102.971446868354, -187500.02235174447, 3943.786495183289, 13464.489694176877, -28545.278733405918, 4332.595089983355, -16785.064850457293, -17326.535859887106, -7223.636773066137, -23233.6325327912, -30851.7328920046, 0.116, 1.014, 0.096, 192.0, 0.0, 0.0, 0.0, 0.0, 0.0, 0.0, 0.0, 0.0, 0.0, 1.695755207563464E9, 0.0, 2023-09-26 14:06:47.563
78.0, -162102.4727347461, 51285.94354223532, -51596.40927271954, -41894.54518491569, 2271.5630855039462, -9082.363138480561, -187500.02235174447, 3927.357963008638, 13472.133990780592, -28534.21461990054, 4342.519264521511, -16777.152332920115, -17309.86145852345, -7217.6688572965695, -23225.720015254024, -30839.752356976554, 0.116, 1.014, 0.096, 192.0, 0.0, 0.0, 0.0, 0.0, 0.0, 0.0, 0.0, 0.0, 0.0, 1.695755207563473E9, 0.0, 2023-09-26 14:06:47.563
80.0, -162110.4076040277, 51284.55773407909, -51612.658990938544, -41911.13017930152, 2254.754573673555, -9103.530240479737, -187500.02235174447, 3939.1596840810403, 13472.022232058316, -28559.337980668304, 4335.344354551358, -16793.156181950115, -17319.070377239033, -7223.457959110494, -23237.141756670688, -30850.90587745975, 0.116, 1.014, 0.096, 192.0, 0.0, 0.0, 0.0, 0.0, 0.0, 0.0, 0.0, 0.0, 0.0, 1.695755207563482E9, 0.0, 2023-09-26 14:06:47.563
82.0, -162093.37557475278, 51280.82499275506, -51611.92138337152, -41912.38187699102, 2252.050012594463, -9112.359179539584, -187500.02235174447, 3921.30064026125, 13457.292432462267, -28540.45075660357, 4346.743744223564, -16779.99100446594, -17315.963484759748, -7225.469616111472, -23235.21950664753, -30851.643485026776, 0.114, 1.014, 0.092, 192.0, 1.5, 72.0, 15.5, 88.0, 1.0, 112.0, 0.0, 0.0, 0.0, 1.695755207563491E9, 0.0, 2023-09-26 14:06:47.563
84.0, -162096.88479863227, 51272.39838509541, -51628.618136479636, -41929.324499288145, 2238.3036897544494, -9134.018019916775, -187500.02235174447, 3909.9906575668647, 13442.249708443846, -28552.990085243, 4328.147092836749, -16794.452583128525, -17334.89541231339, -7242.81456980879, -23258.107692969763, -30879.806683040464, 0.114, 1.014, 0.092, 192.0, 0.0, 0.0, 0.0, 0.0, 0.0, 0.0, 0.0, 0.0, 0.0, 1.6957552075635E9, 0.0, 2023-09-26 14:06:47.563
86.0, -162083.54080719245, 51269.47030657176, -51617.710485185446, -41919.2438625388, 2249.3901550042815, -9123.624458745058, -187500.02235174447, 3898.4124539390154, 13453.358525438134, -28546.463375862048, 4335.433761529179, -16784.41664986809, -17325.127699986424, -7243.976860520466, -23247.714131798046, -30871.268316658538, 0.114, 1.014, 0.092, 192.0, 0.0, 0.0, 0.0, 0.0, 0.0, 0.0, 0.0, 0.0, 0.0, 1.695755207563509E9, 0.0, 2023-09-26 14:06:47.563
88.0, -162109.0217958715, 51252.43827729682, -51616.4811392404, -41917.18750204891, 2252.7429166725774, -9115.84605167461, -187500.02235174447, 3903.799224352744, 13468.356545967645, -28581.399152445694, 4323.252060801036, -16812.222219970492, -17321.819641807037, -7249.967128034488, -23237.78995725989, -30865.367456122334, 0.114, 1.014, 0.092, 192.0, 0.0, 0.0, 0.0, 0.0, 0.0, 0.0, 0.0, 0.0, 0.0, 1.695755207563518E9, 0.0, 2023-09-26 14:06:47.563
90.0, -162094.58256895337, 51256.77451572115, -51604.679418168, -41903.2400135088, 2267.2715505685273, -9095.975350853843, -187500.02235174447, 3906.7720063653, 13456.823045828707, -28564.90356503768, 4329.7564184375315, -16793.245588927937, -17324.05481625257, -7241.428761652561, -23236.225335148018, -30861.29943863147, 0.114, 1.014, 0.092, 192.0, 0.0, 0.0, 0.0, 0.0, 0.0, 0.0, 0.0, 0.0, 0.0, 1.695755207623778E9, 0.0, 2023-09-26 14:06:47.623
92.0, -162123.43867104515, 51245.06220162657, -51622.672572454525, -41919.35562126108, 2243.288128767983, -9113.499118506805, -187500.02235174447, 3913.0304948127864, 13467.104848278148, -28593.759667129478, 4332.326869049892, -16820.917048563606, -17305.815792777037, -7220.4851770979385, -23215.482916293495, -30836.936037175186, 0.116, 1.014, 0.092, 192.0, 1.5, 80.0, 15.5, 88.0, 1.0, 112.0, 0.0, 0.0, 0.0, 1.695755207623818E9, 0.0, 2023-09-26 14:06:47.623
94.0, -162093.08500207486, 51253.57821626404, -51620.75032243137, -41919.98147010583, 2244.025736335008, -9116.583659241636, -187500.02235174447, 3912.896384346054, 13425.821176269195, -28567.36225692776, 4322.827377656386, -16791.256283671413, -17343.232612995223, -7245.742648332435, -23254.710227812557, -30879.29259291799, 0.116, 1.014, 0.092, 192.0, 0.0, 0.0, 0.0, 0.0, 0.0, 0.0, 0.0, 0.0, 0.0, 1.695755207623933E9, 0.0, 2023-09-26 14:06:47.623
96.0, -162134.32397059488, 51241.37416379144, -51601.79604313327, -41901.071894296634, 2256.8556376523543, -9103.463185246372, -187500.02235174447, 3903.0616167857193, 13464.355583710145, -28586.249480992497, 4315.048970585939, -16816.80432758383, -17318.198659205278, -7238.299517428818, -23227.418747832628, -30853.18575539419, 0.116, 1.014, 0.092, 192.0, 0.0, 0.0, 0.0, 0.0, 0.0, 0.0, 0.0, 0.0, 0.0, 1.695755207623941E9, 0.0, 2023-09-26 14:06:47.623
98.0, -162089.9557578511, 51261.46838205676, -51629.243985324385, -41927.20108356489, 2223.6632971362233, -9124.607935501092, -187500.02235174447, 3910.6612099005238, 13435.208908940425, -28562.400169658682, 4328.705886448131, -16789.75871679291, -17340.505700171674, -7234.142092960131, -23253.41382663415, -30877.370342894836, 0.116, 1.014, 0.092, 192.0, 0.0, 0.0, 0.0, 0.0, 0.0, 0.0, 0.0, 0.0, 0.0, 1.69575520762395E9, 0.0, 2023-09-26 14:06:47.623
100.0, -162131.86527870482, 51247.543245261106, -51606.668723424526, -41903.68704839791, 2247.289091025483, -9099.864554389067, -187500.02235174447, 3885.515497388303, 13465.875502333105, -28580.862710578767, 4323.654392201232, -16811.216391470003, -17320.90322028437, -7231.035200480843, -23240.963904972545, -30854.593915294878, 0.116, 1.014, 0.092, 192.0, 0.0, 0.0, 0.0, 0.0, 0.0, 0.0, 0.0, 0.0, 0.0, 1.695755207623959E9, 0.0, 2023-09-26 14:06:47.623
102.0, -162106.2725313035, 51260.08257390053, -51617.844595652175, -41914.10296131408, 2238.9742420881084, -9095.528315964737, -187500.02235174447, 3910.5718029227023, 13463.372106954112, -28572.614916874758, 4330.806950426931, -16796.37483315168, -17330.62622912243, -7230.454055125005, -23252.028018477922, -30860.941810720185, 0.108, 1.014, 0.09, 192.0, 1.5, 48.0, 15.5, 88.0, 1.0, 104.0, 0.0, 0.0, 0.0, 1.695755207623968E9, 0.0, 2023-09-26 14:06:47.623
104.0, -162135.06157816193, 51243.18465509232, -51609.70856067045, -41907.39743797749, 2252.6535096947564, -9088.666330416958, -187500.02235174447, 3906.5037854318366, 13442.584984610676, -28581.242690234507, 4321.687438689165, -16812.445737415044, -17330.067435511046, -7229.627040580159, -23245.210736419052, -30851.91170596024, 0.108, 1.014, 0.09, 192.0, 0.0, 0.0, 0.0, 0.0, 0.0, 0.0, 0.0, 0.0, 0.0, 1.6957552076841E9, 0.0, 2023-09-26 14:06:47.684
106.0, -162101.6680719457, 51255.72398373175, -51637.759999961854, -41935.650042969, 2230.368820472815, -9121.858670933088, -187500.02235174447, 3931.2918700327723, 13439.098112475647, -28580.572137900846, 4322.872081145297, -16802.633321599165, -17336.57179314754, -7227.973011490466, -23249.45756786556, -30862.6852467877, 0.108, 1.014, 0.09, 192.0, 0.0, 0.0, 0.0, 0.0, 0.0, 0.0, 0.0, 0.0, 0.0, 1.69575520768413E9, 0.0, 2023-09-26 14:06:47.684
108.0, -162117.49310702004, 51244.61516673746, -51622.247889309874, -41922.79778990719, 2245.4785997246026, -9115.644885974514, -187500.02235174447, 3910.951782578443, 13437.75700780833, -28571.966716285555, 4312.858499629319, -16806.85780130122, -17346.071284541045, -7254.035145525354, -23261.661620338156, -30875.984534738607, 0.108, 1.014, 0.09, 192.0, 0.0, 0.0, 0.0, 0.0, 0.0, 0.0, 0.0, 0.0, 0.0, 1.69575520768414E9, 0.0, 2023-09-26 14:06:47.684
110.0, -162099.23173180007, 51257.75799247718, -51632.46263652595, -41933.370165034554, 2235.375611230804, -9130.151168126007, -187500.02235174447, 3926.6650589305236, 13443.99314451136, -28577.867576821754, 4321.374514266791, -16807.03661525686, -17345.512490929665, -7239.953546518511, -23258.912355770157, -30877.571508594934, 0.108, 1.014, 0.09, 192.0, 0.0, 0.0, 0.0, 0.0, 0.0, 0.0, 0.0, 0.0, 0.0, 1.695755207684149E9, 0.0, 2023-09-26 14:06:47.684
112.0, -162121.49406927754, 51252.97471916374, -51603.98651408989, -41903.19531001989, 2258.5096667420466, -9104.290199791218, -187500.02235174447, 3900.0217795397975, 13455.213720227925, -28568.256326705974, 4322.894432889751, -16811.596371125743, -17334.358970446465, -7246.14497973263, -23253.41382663415, -30871.24596491408, 0.10200000000000001, 1.016, 0.092, 192.0, 1.5, 24.0, 15.5, 96.0, 1.0, 112.0, 0.0, 0.0, 0.0, 1.695755207684159E9, 0.0, 2023-09-26 14:06:47.684
114.0, -162099.92463587818, 51260.887236700924, -51630.853310925166, -41930.1962173219, 2225.093808781363, -9130.888775693033, -187500.02235174447, 3921.1441780500627, 13454.319650449712, -28577.66641112166, 4329.465845759612, -16811.842240314752, -17340.43864493831, -7232.845691781723, -23256.185442946608, -30871.178909680715, 0.10200000000000001, 1.016, 0.092, 192.0, 0.0, 0.0, 0.0, 0.0, 0.0, 0.0, 0.0, 0.0, 0.0, 1.695755207684169E9, 0.0, 2023-09-26 14:06:47.684
116.0, -162129.04895890344, 51247.252672583185, -51586.26158073683, -41889.78426334671, 2262.7341464440997, -9088.778089139234, -187500.02235174447, 3896.065520771208, 13458.320612707212, -28565.819986560346, 4334.092656861861, -16810.165859480603, -17338.449339681785, -7243.596880864726, -23256.69953306908, -30865.367456122334, 0.10200000000000001, 1.016, 0.092, 192.0, 0.0, 0.0, 0.0, 0.0, 0.0, 0.0, 0.0, 0.0, 0.0, 1.695755207684221E9, 0.0, 2023-09-26 14:06:47.684
118.0, -162120.9129239217, 51258.07091689955, -51616.235270051395, -41922.618975951555, 2229.1618262722286, -9121.61280174408, -187500.02235174447, 3924.4298844849927, 13478.928921095005, -28591.859768850776, 4344.933252922685, -16821.498193919444, -17320.679702839818, -7229.71644755798, -23240.516870083437, -30849.989455937084, 0.10200000000000001, 1.016, 0.092, 192.0, 0.0, 0.0, 0.0, 0.0, 0.0, 0.0, 0.0, 0.0, 0.0, 1.69575520768423E9, 0.0, 2023-09-26 14:06:47.684
120.0, -162116.24140933054, 51259.210855866775, -51600.6784559105, -41911.13017930152, 2240.181236288695, -9104.916048635967, -187500.02235174447, 3910.4376924559706, 13453.358525438134, -28558.958001012565, 4340.507607520533, -16801.94041752105, -17342.092674028, -7249.654203612114, -23261.12517847123, -30870.620116069334, 0.10200000000000001, 1.016, 0.092, 192.0, 0.0, 0.0, 0.0, 0.0, 0.0, 0.0, 0.0, 0.0, 0.0, 1.6957552077436E9, 0.0, 2023-09-26 14:06:47.743
122.0, -162120.10826112132, 51258.585007022026, -51606.3334472577, -41918.95328986088, 2235.0403350639745, -9111.912144650478, -187500.02235174447, 3922.1947100394623, 13466.054316288748, -28586.964736815065, 4341.625194743299, -16812.80336532633, -17340.41629319385, -7245.876758799167, -23256.90069876918, -30866.73091253411, 0.106, 1.008, 0.092, 192.0, 1.5, 40.0, 15.5, 64.0, 1.0, 112.0, 0.0, 0.0, 0.0, 1.695755207743622E9, 0.0, 2023-09-26 14:06:47.743
124.0, -162125.58443851286, 51256.03690815412, -51596.453976208446, -41905.832815865615, 2242.8410938788766, -9102.859688146078, -187500.02235174447, 3911.845852356655, 13473.89977859256, -28581.93559431262, 4353.2928053489695, -16811.931647292575, -17327.787557576605, -7247.419029166584, -23247.64707656468, -30855.085653672893, 0.106, 1.008, 0.092, 192.0, 0.0, 0.0, 0.0, 0.0, 0.0, 0.0, 0.0, 0.0, 0.0, 1.695755207743632E9, 0.0, 2023-09-26 14:06:47.743
126.0, -162133.78752872796, 51255.165190120366, -51610.53557521529, -41920.13793231701, 2235.3532594863486, -9121.545746510714, -187500.02235174447, 3921.7923786392666, 13468.222435500913, -28600.018155576963, 4343.838017444375, -16822.392263697657, -17346.20539500778, -7237.4501511395165, -23260.968716260042, -30870.64246781379, 0.106, 1.008, 0.092, 192.0, 0.0, 0.0, 0.0, 0.0, 0.0, 0.0, 0.0, 0.0, 0.0, 1.69575520774364E9, 0.0, 2023-09-26 14:06:47.743
128.0, -162133.65341826124, 51259.43437331133, -51593.63765640708, -41905.49753969879, 2247.6914224256784, -9097.51762122126, -187500.02235174447, 3911.3094104897277, 13467.551883167254, -28586.02596354794, 4344.486218033579, -16810.836411814264, -17340.751569360684, -7243.149845975619, -23254.106730712265, -30863.176985165715, 0.106, 1.008, 0.092, 192.0, 0.0, 0.0, 0.0, 0.0, 0.0, 0.0, 0.0, 0.0, 0.0, 1.695755207743649E9, 0.0, 2023-09-26 14:06:47.743
130.0, -162160.5649185854, 51257.98150992174, -51592.743586628865, -41908.2915077557, 2249.9713003601196, -9107.151223081497, -187500.02235174447, 3921.5465094502583, 13492.80935440175, -28615.306748784395, 4344.62032850031, -16835.33392373728, -17321.819641807037, -7229.425874880061, -23237.36527411524, -30845.25088611256, 0.106, 1.008, 0.092, 192.0, 0.0, 0.0, 0.0, 0.0, 0.0, 0.0, 0.0, 0.0, 0.0, 1.695755207743658E9, 0.0, 2023-09-26 14:06:47.743
132.0, -162130.18889787066, 51264.93290244733, -51602.399540233564, -41915.82404563714, 2228.983012316586, -9114.683760962935, -187500.02235174447, 3917.1879192814736, 13470.345851224167, -28581.71207686807, 4350.76705822552, -16810.389376925155, -17351.3462962325, -7246.033221010354, -23267.540129129902, -30877.39269463929, 0.112, 1.012, 0.09, 192.0, 1.5, 64.0, 15.5, 80.0, 1.0, 104.0, 0.0, 0.0, 0.0, 1.695755207743667E9, 0.0, 2023-09-26 14:06:47.743
134.0, -162137.98965668556, 51260.328443089544, -51616.034104351296, -41925.43529575292, 2217.6506778777457, -9124.89850817901, -187500.02235174447, 3933.2364718003837, 13449.268156202812, -28603.14739980071, 4337.981860397084, -16827.80138585584, -17353.872043355947, -7252.559930391304, -23263.47211163904, -30867.40146486777, 0.112, 1.012, 0.09, 192.0, 0.0, 0.0, 0.0, 0.0, 0.0, 0.0, 0.0, 0.0, 0.0, 1.695755207805267E9, 0.0, 2023-09-26 14:06:47.805
136.0, -162122.81282220042, 51262.34010009052, -51598.73385414289, -41905.36342923206, 2236.7167158981224, -9101.809156156678, -187500.02235174447, 3921.725323405901, 13446.831816057183, -28585.13189376973, 4340.529959264989, -16806.701339090032, -17360.75638064818, -7252.492875157938, -23270.51291114246, -30869.793101524487, 0.112, 1.012, 0.09, 192.0, 0.0, 0.0, 0.0, 0.0, 0.0, 0.0, 0.0, 0.0, 0.0, 1.695755207805299E9, 0.0, 2023-09-26 14:06:47.805
138.0, -162131.64176126025, 51253.01942265266, -51618.202223563465, -41924.652984696986, 2220.9363843126757, -9117.678894719946, -187500.02235174447, 3926.486244974881, 13458.432371429488, -28605.18140854614, 4328.1694445812045, -16831.4223684576, -17359.057648069578, -7248.223691966974, -23267.584832618813, -30865.881546244807, 0.112, 1.012, 0.09, 192.0, 0.0, 0.0, 0.0, 0.0, 0.0, 0.0, 0.0, 0.0, 0.0, 1.69575520780534E9, 0.0, 2023-09-26 14:06:47.805
140.0, -162108.28418830445, 51265.491696058714, -51609.19447054798, -41917.25455728228, 2223.6409453917677, -9110.571039983159, -187500.02235174447, 3922.909965862032, 13459.773476096807, -28585.89185308121, 4327.007153869528, -16813.876249060184, -17363.52799696064, -7260.6959653730355, -23274.469169911048, -30871.201261425173, 0.112, 1.012, 0.09, 192.0, 0.0, 0.0, 0.0, 0.0, 0.0, 0.0, 0.0, 0.0, 0.0, 1.695755207805349E9, 0.0, 2023-09-26 14:06:47.805
142.0, -162129.76421472602, 51252.75120171919, -51617.59872646317, -41925.837627153116, 2215.929593554687, -9122.216298844374, -187500.02235174447, 3914.840986113666, 13458.387667940578, -28607.126010313754, 4322.447398000646, -16842.039447073872, -17355.749589890194, -7262.238235740452, -23271.69755359859, -30868.20612766816, 0.11, 1.01, 0.09, 192.0, 1.5, 56.0, 15.5, 72.0, 1.0, 104.0, 0.0, 0.0, 0.0, 1.695755207805357E9, 0.0, 2023-09-26 14:06:47.805
144.0, -162107.0101388705, 51256.975681421245, -51617.218746807426, -41926.06114459767, 2223.1939105026618, -9119.33292380964, -187500.02235174447, 3922.5299862062916, 13435.410074640522, -28597.09007705332, 4327.767113181008, -16827.466109689012, -17364.10914231648, -7267.893227087645, -23272.94925128809, -30869.703694546664, 0.11, 1.01, 0.09, 192.0, 0.0, 0.0, 0.0, 0.0, 0.0, 0.0, 0.0, 0.0, 0.0, 1.695755207805368E9, 0.0, 2023-09-26 14:06:47.805
146.0, -162128.64662750324, 51237.73082944522, -51614.40242700606, -41924.45181899689, 2225.451436692648, -9117.053045875198, -187500.02235174447, 3917.2549745148394, 13435.722999062897, -28609.919978370664, 4316.032447341972, -16845.995705842462, -17371.418162753365, -7280.276093515885, -23274.960908289064, -30872.475310859125, 0.11, 1.01, 0.09, 192.0, 0.0, 0.0, 0.0, 0.0, 0.0, 0.0, 0.0, 0.0, 0.0, 1.695755207805378E9, 0.0, 2023-09-26 14:06:47.805
148.0, -162109.2229615716, 51246.67152722735, -51611.94373511598, -41925.50235098629, 2223.05980003593, -9122.842147689122, -187500.02235174447, 3923.4464077289595, 13431.118539705103, -28608.891798125722, 4326.113084091316, -16831.645885902155, -17368.95947086328, -7278.82323012629, -23271.47403615404, -30872.274145159026, 0.11, 1.01, 0.09, 192.0, 0.0, 0.0, 0.0, 0.0, 0.0, 0.0, 0.0, 0.0, 0.0, 1.695755207805391E9, 0.0, 2023-09-26 14:06:47.805
150.0, -162144.94104921116, 51236.65794571137, -51598.130357042595, -41910.1914060344, 2228.7147913831227, -9106.301856792195, -187500.02235174447, 3921.591212939169, 13463.975604054405, -28624.180391333153, 4324.481406746078, -16853.48354023499, -17354.363781733966, -7273.2576457569185, -23260.74519881549, -30855.91266821774, 0.11, 1.01, 0.09, 192.0, 0.0, 0.0, 0.0, 0.0, 0.0, 0.0, 0.0, 0.0, 0.0, 1.695755207864197E9, 0.0, 2023-09-26 14:06:47.864
152.0, -162119.84004018785, 51254.8969691869, -51598.756205887345, -41910.43727522341, 2228.6477361497564, -9113.968505140365, -187500.02235174447, 3936.455123001948, 13458.164150496024, -28608.66828068117, 4337.803046441441, -16834.641019659164, -17363.885624871924, -7268.407317210116, -23271.742257087502, -30866.82031951193, 0.112, 1.008, 0.096, 192.0, 1.5, 64.0, 15.5, 64.0, 1.5, 0.0, 0.0, 0.0, 0.0, 1.695755207864235E9, 0.0, 2023-09-26 14:06:47.864
154.0, -162162.35305814186, 51250.00193715119, -51573.23051371938, -41885.04569352218, 2253.480524239603, -9089.493344961804, -187500.02235174447, 3909.8565471001325, 13477.878389105606, -28616.513742984982, 4338.80887494193, -16851.29306927837, -17343.165557761855, -7273.145887034641, -23250.70926555506, -30848.804813480954, 0.112, 1.008, 0.096, 192.0, 0.0, 0.0, 0.0, 0.0, 0.0, 0.0, 0.0, 0.0, 0.0, 1.695755207864245E9, 0.0, 2023-09-26 14:06:47.864
156.0, -162140.22483113108, 51258.2497308552, -51588.94379007147, -41903.39647571999, 2238.057820565441, -9109.9004876495, -187500.02235174447, 3930.263689787828, 13471.709307635942, -28615.977301118055, 4354.902130949751, -16838.440816216567, -17342.651467639385, -7252.805799580312, -23249.50227135447, -30848.648351269767, 0.112, 1.008, 0.096, 192.0, 0.0, 0.0, 0.0, 0.0, 0.0, 0.0, 0.0, 0.0, 0.0, 1.695755207864254E9, 0.0, 2023-09-26 14:06:47.864
158.0, -162150.8195580029, 51252.86296044147, -51587.13329877058, -41901.5412809302, 2233.766285630022, -9108.179403326441, -187500.02235174447, 3917.6349541705795, 13467.28366223379, -28609.942330115122, 4357.047898417461, -16837.18911852707, -17343.634944395417, -7261.277110728874, -23249.345809143284, -30849.274200114516, 0.112, 1.008, 0.096, 192.0, 0.0, 0.0, 0.0, 0.0, 0.0, 0.0, 0.0, 0.0, 0.0, 1.695755207864263E9, 0.0, 2023-09-26 14:06:47.864
160.0, -162130.14419438175, 51266.408117581384, -51593.928229085, -41908.11269380006, 2227.641907649268, -9113.56617374017, -187500.02235174447, 3937.2150823134284, 13441.065065987716, -28607.885969625233, 4352.845770459863, -16826.23676374397, -17361.650450426394, -7272.989424823454, -23267.718943085547, -30867.87085150133, 0.112, 1.008, 0.096, 192.0, 0.0, 0.0, 0.0, 0.0, 0.0, 0.0, 0.0, 0.0, 0.0, 1.695755207864337E9, 0.0, 2023-09-26 14:06:47.864
162.0, -162153.85939524882, 51257.33330933253, -51578.10319401064, -41890.54422265819, 2243.086963067885, -9098.098766577097, -187500.02235174447, 3924.742808907367, 13462.008650542337, -28602.253330022497, 4353.382212326791, -16837.05500806034, -17348.552328175585, -7270.016642810899, -23247.714131798046, -30845.58616227939, 0.114, 1.008, 0.092, 192.0, 1.5, 72.0, 15.5, 64.0, 1.0, 112.0, 0.0, 0.0, 0.0, 1.695755207864348E9, 0.0, 2023-09-26 14:06:47.864
164.0, -162135.30744735093, 51261.378975078944, -51604.2323832789, -41915.46641772585, 2217.4271604331925, -9126.261964590783, -187500.02235174447, 3945.708745206445, 13462.589795898175, -28616.491391240525, 4355.86325596133, -16835.289220248367, -17360.77873239264, -7262.640567140647, -23259.76172205946, -30857.834918240897, 0.114, 1.008, 0.092, 192.0, 0.0, 0.0, 0.0, 0.0, 0.0, 0.0, 0.0, 0.0, 0.0, 1.69575520792368E9, 0.0, 2023-09-26 14:06:47.923
166.0, -162131.06061590443, 51255.925149431845, -51600.14201404357, -41912.58304269112, 2215.9072418102314, -9121.813967444179, -187500.02235174447, 3925.323954263205, 13437.064103730216, -28605.09200156832, 4350.141209380771, -16824.76154860992, -17374.122723832457, -7285.260532529418, -23273.50804489947, -30868.563755579446, 0.114, 1.008, 0.092, 192.0, 0.0, 0.0, 0.0, 0.0, 0.0, 0.0, 0.0, 0.0, 0.0, 1.695755207923704E9, 0.0, 2023-09-26 14:06:47.923
168.0, -162122.92458092267, 51259.32261458905, -51603.718293156424, -41916.62870843753, 2203.2338027040723, -9123.467996533871, -187500.02235174447, 3938.8020561697554, 13436.751179307841, -28621.967568632077, 4340.038220886972, -16827.019074799904, -17378.794238423616, -7290.624951198692, -23283.208701993073, -30875.738665549597, 0.114, 1.008, 0.092, 192.0, 0.0, 0.0, 0.0, 0.0, 0.0, 0.0, 0.0, 0.0, 0.0, 1.695755207923714E9, 0.0, 2023-09-26 14:06:47.923
170.0, -162137.1179386518, 51253.57821626404, -51570.1236212401, -41884.71041735535, 2234.3027274969495, -9086.967597838355, -187500.02235174447, 3923.267593773317, 13453.80556032724, -28612.155152816198, 4347.637814001777, -16825.56621141031, -17366.612537695473, -7283.986483095466, -23267.69659134109, -30854.549211805966, 0.114, 1.008, 0.092, 192.0, 0.0, 0.0, 0.0, 0.0, 0.0, 0.0, 0.0, 0.0, 0.0, 1.695755207923723E9, 0.0, 2023-09-26 14:06:47.923
172.0, -162148.65143879075, 51254.807562209084, -51583.60172314665, -41901.787150119206, 2225.540843670469, -9109.788728927222, -187500.02235174447, 3937.259785802339, 13460.779304597296, -28639.46898454058, 4352.62225301531, -16843.827586630297, -17343.43377869532, -7264.428706697072, -23250.46339636605, -30844.021540167516, 0.11, 1.012, 0.09, 192.0, 1.5, 56.0, 15.5, 80.0, 1.0, 104.0, 0.0, 0.0, 0.0, 1.695755207923732E9, 0.0, 2023-09-26 14:06:47.923
174.0, -162137.00617992954, 51251.92418717434, -51590.55311567225, -41906.16809203244, 2220.087018023374, -9115.04138887422, -187500.02235174447, 3923.1781867954955, 13434.314839162213, -28617.206647063096, 4348.800104713453, -16827.980199811485, -17349.155825275877, -7276.811573125312, -23263.315649427852, -30859.243078141582, 0.11, 1.012, 0.09, 192.0, 0.0, 0.0, 0.0, 0.0, 0.0, 0.0, 0.0, 0.0, 0.0, 1.695755207923741E9, 0.0, 2023-09-26 14:06:47.923
176.0, -162157.43567436168, 51247.744410961204, -51583.48996442437, -41894.81340584915, 2230.949965828653, -9106.65948470348, -187500.02235174447, 3920.7641983943226, 13444.216661955914, -28643.313484586895, 4336.461941774123, -16844.878118619697, -17334.828357080027, -7272.67650040108, -23267.69659134109, -30862.752302021065, 0.11, 1.012, 0.09, 192.0, 0.0, 0.0, 0.0, 0.0, 0.0, 0.0, 0.0, 0.0, 0.0, 1.69575520792375E9, 0.0, 2023-09-26 14:06:47.923
178.0, -162145.49984282255, 51245.777457449134, -51592.49771743986, -41907.06216181066, 2225.987878559575, -9113.543821995714, -187500.02235174447, 3905.7661778648117, 13442.4732258884, -28618.23482730804, 4337.803046441441, -16834.23868825897, -17322.847822051983, -7254.258662969907, -23268.054219252375, -30865.188642166693, 0.11, 1.012, 0.09, 192.0, 0.0, 0.0, 0.0, 0.0, 0.0, 0.0, 0.0, 0.0, 0.0, 1.695755207923759E9, 0.0, 2023-09-26 14:06:47.923
180.0, -162168.16451170022, 51229.88536714141, -51593.32473198471, -41910.97371709034, 2223.0374482914744, -9110.347522538606, -187500.02235174447, 3908.5377941772695, 13440.305106676235, -28636.406795550203, 4324.548461979444, -16853.751761168453, -17312.320150413532, -7256.62794788217, -23258.08534122531, -30860.40536885326, 0.11, 1.012, 0.09, 192.0, 0.0, 0.0, 0.0, 0.0, 0.0, 0.0, 0.0, 0.0, 0.0, 1.695755207984747E9, 0.0, 2023-09-26 14:06:47.984
182.0, -162156.38514237228, 51233.975736376735, -51589.56963891621, -41902.1894815194, 2227.6195559048124, -9094.254266530785, -187500.02235174447, 3900.1558900065293, 13445.647173601054, -28618.033661607944, 4324.816682912909, -16838.10554004974, -17309.123850956425, -7252.135247246653, -23258.33121041432, -30861.500604331566, 0.116, 1.016, 0.098, 192.0, 1.5, 80.0, 15.5, 96.0, 1.5, 8.0, 0.0, 0.0, 0.0, 1.695755207984766E9, 0.0, 2023-09-26 14:06:47.984
184.0, -162179.3403839279, 51222.442236237795, -51599.605572176646, -41908.559728689164, 2221.405770946237, -9099.842202644611, -187500.02235174447, 3896.713721360412, 13434.493653117856, -28632.450536781616, 4311.226822284081, -16852.120083823214, -17301.14427818588, -7242.09931398622, -23243.22143116253, -30850.928229204208, 0.116, 1.016, 0.098, 192.0, 0.0, 0.0, 0.0, 0.0, 0.0, 0.0, 0.0, 0.0, 0.0, 1.695755207984775E9, 0.0, 2023-09-26 14:06:47.984
186.0, -162141.43182533167, 51222.866919382446, -51624.013677121846, -41928.765705676764, 2199.1881369576618, -9107.37474052605, -187500.02235174447, 3911.711741889923, 13424.435368112967, -28603.862655623278, 4310.779787394976, -16830.95298182404, -17305.167592187834, -7236.5113778723935, -23240.002779960967, -30859.131319419306, 0.116, 1.016, 0.098, 192.0, 0.0, 0.0, 0.0, 0.0, 0.0, 0.0, 0.0, 0.0, 0.0, 1.695755207984784E9, 0.0, 2023-09-26 14:06:47.984
188.0, -162166.30931691042, 51208.09241629749, -51620.75032243137, -41918.975641605335, 2213.359142942327, -9095.349502009094, -187500.02235174447, 3914.259840757828, 13399.580228278664, -28611.104620826798, 4283.711824859599, -16844.25226977495, -17313.393034147386, -7250.235348967952, -23237.007646203954, -30860.807700253452, 0.116, 1.016, 0.098, 192.0, 0.0, 0.0, 0.0, 0.0, 0.0, 0.0, 0.0, 0.0, 0.0, 1.695755207984794E9, 0.0, 2023-09-26 14:06:47.984
190.0, -162129.33953158135, 51216.58607919051, -51647.93004368902, -41942.69084247242, 2196.9082590232206, -9117.008342386287, -187500.02235174447, 3918.5290239487917, 13410.51023131731, -28604.46615272357, 4284.069452770884, -16834.23868825897, -17312.789537047094, -7239.282994184851, -23231.754986256958, -30868.094368945884, 0.116, 1.016, 0.098, 192.0, 0.0, 0.0, 0.0, 0.0, 0.0, 0.0, 0.0, 0.0, 0.0, 1.695755207984803E9, 0.0, 2023-09-26 14:06:47.984
192.0, -162149.7243225246, 51197.29652372558, -51647.79593322229, -41939.15926684848, 2201.5350701254692, -9117.634191231036, -187500.02235174447, 3906.749654620845, 13391.55595201921, -28624.47096401107, 4262.142391460227, -16850.66722043362, -17323.58542961901, -7264.093430530243, -23238.236992148995, -30885.215805198648, 0.112, 1.004, 0.098, 192.0, 1.5, 64.0, 15.5, 48.0, 1.5, 8.0, 0.0, 0.0, 0.0, 1.695755207984812E9, 0.0, 2023-09-26 14:06:47.984
194.0, -162122.83517394486, 51204.31497148454, -51647.59476752219, -41934.01836562376, 2203.4796718930806, -9113.99085688482, -187500.02235174447, 3908.2025180104397, 13386.258588583301, -28612.04339409392, 4269.026728752462, -16834.931592337085, -17327.005246520668, -7249.207168723008, -23237.36527411524, -30891.273127946035, 0.112, 1.004, 0.098, 192.0, 0.0, 0.0, 0.0, 0.0, 0.0, 0.0, 0.0, 0.0, 0.0, 1.695755208043683E9, 0.0, 2023-09-26 14:06:48.043
196.0, -162155.5134243385, 51185.83007882, -51643.862026198156, -41925.68116494193, 2206.5865643723687, -9111.845089417111, -187500.02235174447, 3889.0023695233313, 13402.396548080034, -28624.51566749998, 4269.585522363845, -16858.780903670897, -17313.32597891402, -7249.698907101025, -23224.31185535334, -30880.5889940964, 0.112, 1.004, 0.098, 192.0, 0.0, 0.0, 0.0, 0.0, 0.0, 0.0, 0.0, 0.0, 0.0, 1.695755208043706E9, 0.0, 2023-09-26 14:06:48.043
198.0, -162140.515403809, 51197.72120687023, -51640.30809882976, -41921.702554428884, 2206.8100818169214, -9114.61670572957, -187500.02235174447, 3882.520363631292, 13400.94368469044, -28619.57593197536, 4278.637978868243, -16846.88977562067, -17312.454260880266, -7235.885529027645, -23230.16801240063, -30889.507340134067, 0.112, 1.004, 0.098, 192.0, 0.0, 0.0, 0.0, 0.0, 0.0, 0.0, 0.0, 0.0, 0.0, 1.695755208043717E9, 0.0, 2023-09-26 14:06:48.043
200.0, -162168.6786018227, 51187.66292186534, -51632.93202315951, -41915.421714236945, 2215.214337732117, -9112.806214428689, -187500.02235174447, 3872.7079478154124, 13422.75898727882, -28633.366958304283, 4270.725461331065, -16866.447552019068, -17301.680720052806, -7238.590090106737, -23225.317683853827, -30883.427665642223, 0.112, 1.004, 0.098, 192.0, 0.0, 0.0, 0.0, 0.0, 0.0, 0.0, 0.0, 0.0, 0.0, 1.695755208043728E9, 0.0, 2023-09-26 14:06:48.043
202.0, -162147.53385156798, 51202.437424950294, -51636.95533716147, -41923.043659096205, 2211.079265007885, -9114.393188285016, -187500.02235174447, 3884.4202619099933, 13415.897001731038, -28626.259103567496, 4277.118060245283, -16846.867423876218, -17319.3385981725, -7241.182892463553, -23234.0348641914, -30893.620061113845, 0.11, 1.002, 0.1, 192.0, 1.5, 56.0, 15.5, 40.0, 1.5, 16.0, 0.0, 0.0, 0.0, 1.695755208043766E9, 0.0, 2023-09-26 14:06:48.043
204.0, -162167.51631111102, 51190.41218643334, -51633.49081677089, -41921.38963000651, 2217.8071400889326, -9108.22410681535, -187500.02235174447, 3875.881895528066, 13414.578248808177, -28625.923827400668, 4269.876095041764, -16856.299860036357, -17323.272505196634, -7249.453037912016, -23232.514945568437, -30890.44611340119, 0.11, 1.002, 0.1, 192.0, 0.0, 0.0, 0.0, 0.0, 0.0, 0.0, 0.0, 0.0, 0.0, 1.695755208043775E9, 0.0, 2023-09-26 14:06:48.043
206.0, -162147.13152016778, 51204.42673020682, -51648.064154155756, -41933.28075805673, 2206.3630469278155, -9114.750816196301, -187500.02235174447, 3898.0324742832754, 13425.262382657813, -28631.86939142578, 4276.067528255883, -16848.56615645482, -17324.90418254187, -7236.600784850215, -23229.206887389053, -30884.366438909346, 0.11, 1.002, 0.1, 192.0, 0.0, 0.0, 0.0, 0.0, 0.0, 0.0, 0.0, 0.0, 0.0, 1.695755208043784E9, 0.0, 2023-09-26 14:06:48.043
208.0, -162145.87982247828, 51193.87670682391, -51657.42953508253, -41939.71806045986, 2192.9072967657207, -9116.002513885798, -187500.02235174447, 3886.00723576632, 13395.489859043344, -28613.80918190589, 4263.170571705171, -16844.85576687524, -17351.435703210318, -7252.448171669027, -23249.435216121106, -30900.236177472616, 0.11, 1.002, 0.1, 192.0, 0.0, 0.0, 0.0, 0.0, 0.0, 0.0, 0.0, 0.0, 0.0, 1.695755208043793E9, 0.0, 2023-09-26 14:06:48.043
210.0, -162128.51251703652, 51204.22556450672, -51656.021375181845, -41938.399307537, 2189.1969071861395, -9113.543821995714, -187500.02235174447, 3900.0888347731634, 13392.539428775244, -28615.083231339842, 4250.765353532476, -16840.586583684275, -17365.383191750432, -7265.322776475285, -23257.548899358382, -30901.845503073397, 0.11, 1.002, 0.1, 192.0, 0.0, 0.0, 0.0, 0.0, 0.0, 0.0, 0.0, 0.0, 0.0, 1.695755208104066E9, 0.0, 2023-09-26 14:06:48.104
212.0, -162129.96538042612, 51193.87670682391, -51655.35082284818, -41939.65100522649, 2187.8558025188213, -9115.600182485603, -187500.02235174447, 3883.1238607315854, 13387.867914184084, -28610.72464117106, 4251.301795399403, -16845.213394786526, -17358.54355794711, -7251.665860613091, -23251.111596955252, -30888.143883722292, 0.106, 1.006, 0.1, 192.0, 1.5, 40.0, 15.5, 56.0, 1.5, 16.0, 0.0, 0.0, 0.0, 1.695755208104089E9, 0.0, 2023-09-26 14:06:48.104
214.0, -162130.36771182631, 51195.530735913606, -51648.42178206704, -41936.83468542513, 2197.757625312522, -9115.868403419066, -187500.02235174447, 3890.0305497682753, 13379.843637924629, -28626.974359390064, 4244.417458107168, -16848.72261866601, -17365.8972818729, -7257.499665915927, -23258.75589355897, -30895.385848925813, 0.106, 1.006, 0.1, 192.0, 0.0, 0.0, 0.0, 0.0, 0.0, 0.0, 0.0, 0.0, 0.0, 1.6957552081041E9, 0.0, 2023-09-26 14:06:48.104
216.0, -162135.91094445123, 51180.30919793954, -51637.26826158384, -41932.409040022976, 2206.206584716628, -9109.609914971581, -187500.02235174447, 3875.5689711056916, 13385.588036249643, -28618.413641263684, 4243.210463906582, -16852.72358092351, -17360.44345622581, -7256.650299626625, -23253.704399312068, -30891.787218068508, 0.106, 1.006, 0.1, 192.0, 0.0, 0.0, 0.0, 0.0, 0.0, 0.0, 0.0, 0.0, 0.0, 1.695755208104109E9, 0.0, 2023-09-26 14:06:48.104
218.0, -162156.29573539447, 51171.10027922395, -51631.94854640347, -41925.278833541735, 2216.890718566265, -9101.362121267572, -187500.02235174447, 3884.4649653989036, 13397.903847444517, -28645.325141587873, 4246.809094763887, -16873.95773815605, -17343.411426950865, -7248.737782089446, -23234.995989202976, -30874.866947515842, 0.106, 1.006, 0.1, 192.0, 0.0, 0.0, 0.0, 0.0, 0.0, 0.0, 0.0, 0.0, 0.0, 1.695755208104118E9, 0.0, 2023-09-26 14:06:48.104
220.0, -162161.526043597, 51159.231502918185, -51631.14388360309, -41923.043659096205, 2224.6914773811673, -9094.947170608899, -187500.02235174447, 3866.918846001488, 13378.949568146416, -28625.52149600047, 4249.6030628208, -16863.51947349542, -17347.56885141955, -7244.647412854125, -23237.231163648506, -30875.716313805144, 0.106, 1.006, 0.1, 192.0, 0.0, 0.0, 0.0, 0.0, 0.0, 0.0, 0.0, 0.0, 0.0, 1.695755208104127E9, 0.0, 2023-09-26 14:06:48.104
222.0, -162170.7349623126, 51158.60565407344, -51645.78427622131, -41935.22535982435, 2209.9169742962094, -9108.492327748816, -187500.02235174447, 3880.039319996753, 13373.07105935467, -28654.511708559003, 4240.8858824832305, -16877.891645180185, -17353.33560148902, -7247.173159977575, -23237.767605515433, -30877.906784761763, 0.11, 1.012, 0.098, 192.0, 1.5, 56.0, 15.5, 80.0, 1.5, 8.0, 0.0, 0.0, 0.0, 1.695755208104136E9, 0.0, 2023-09-26 14:06:48.104
224.0, -162147.89147947927, 51151.40839235883, -51654.9931949369, -41941.215627338366, 2194.3601601553155, -9121.94807791091, -187500.02235174447, 3868.7740407912784, 13363.63862319453, -28632.785812948445, 4236.259071380981, -16860.2784705494, -17373.407468009886, -7257.34320370474, -23253.771454545433, -30894.625889614334, 0.11, 1.012, 0.098, 192.0, 0.0, 0.0, 0.0, 0.0, 0.0, 0.0, 0.0, 0.0, 0.0, 1.695755208133824E9, 0.0, 2023-09-26 14:06:48.133
226.0, -162146.70683702314, 51147.429781845785, -51661.98929095141, -41950.513953031776, 2183.1395844387516, -9130.777016970756, -187500.02235174447, 3876.843020539644, 13354.474407967855, -28655.606944037314, 4226.938393943118, -16878.696307980576, -17379.263625057178, -7265.05455554182, -23257.25832668046, -30895.87758730383, 0.11, 1.012, 0.098, 192.0, 0.0, 0.0, 0.0, 0.0, 0.0, 0.0, 0.0, 0.0, 0.0, 1.695755208133851E9, 0.0, 2023-09-26 14:06:48.133
228.0, -162126.32204607988, 51150.64843304735, -51654.32264260324, -41944.23311283984, 2181.507907093514, -9124.764397712279, -187500.02235174447, 3861.845000010133, 13351.881605611039, -28630.81885943638, 4235.834388236331, -16858.62444145971, -17386.974976894257, -7257.2314449824635, -23267.853053552277, -30902.337241451412, 0.11, 1.012, 0.098, 192.0, 0.0, 0.0, 0.0, 0.0, 0.0, 0.0, 0.0, 0.0, 0.0, 1.695755208133861E9, 0.0, 2023-09-26 14:06:48.133
230.0, -162140.62716253128, 51145.97691845619, -51654.479104814425, -41944.25546458429, 2176.9705029690867, -9122.66333373348, -187500.02235174447, 3862.202627921418, 13346.78540787523, -28650.846022468333, 4229.799417233398, -16875.634118990198, -17389.38896529543, -7261.701793873524, -23271.675201854134, -30903.655994374276, 0.11, 1.012, 0.098, 192.0, 0.0, 0.0, 0.0, 0.0, 0.0, 0.0, 0.0, 0.0, 0.0, 1.695755208191847E9, 0.0, 2023-09-26 14:06:48.191
232.0, -162124.93623792366, 51158.24802616215, -51644.93490993201, -41936.23118832483, 2183.7207297945893, -9116.114272608074, -187500.02235174447, 3854.1559999175074, 13352.64156492252, -28629.343644302327, 4237.6001760483, -16858.713848437532, -17387.91375016138, -7258.930177561067, -23271.362277431763, -30901.800799584486, 0.114, 1.01, 0.098, 192.0, 1.5, 72.0, 15.5, 72.0, 1.5, 8.0, 0.0, 0.0, 0.0, 1.69575520819187E9, 0.0, 2023-09-26 14:06:48.191
234.0, -162158.75442728456, 51155.45405810524, -51636.41889529454, -41929.23509231032, 2194.2036979441286, -9106.99476087031, -187500.02235174447, 3860.2803778982616, 13371.148809331515, -28656.858641726812, 4233.398048090702, -16883.837209205296, -17371.216997053267, -7262.685270629558, -23255.000800490478, -30882.22067144164, 0.114, 1.01, 0.098, 192.0, 0.0, 0.0, 0.0, 0.0, 0.0, 0.0, 0.0, 0.0, 0.0, 1.69575520819188E9, 0.0, 2023-09-26 14:06:48.191
236.0, -162137.29675260745, 51167.211075688734, -51637.69294472849, -41932.543150489706, 2198.8528607908324, -9111.576868483648, -187500.02235174447, 3859.1180871865854, 13377.69787045692, -28631.80233619241, 4244.573920318356, -16861.418409516624, -17375.374421521952, -7266.082735786765, -23259.18057670362, -30886.91453777725, 0.114, 1.01, 0.098, 192.0, 0.0, 0.0, 0.0, 0.0, 0.0, 0.0, 0.0, 0.0, 0.0, 1.695755208191889E9, 0.0, 2023-09-26 14:06:48.191
238.0, -162150.1266539248, 51161.064345963525, -51648.690003000505, -41943.96489190637, 2187.8334507743657, -9128.586546014136, -187500.02235174447, 3855.139476673541, 13366.186722062437, -28636.362092061296, 4234.001545190996, -16878.606901002753, -17381.789372180625, -7271.62596841168, -23267.56248087436, -30893.128322735825, 0.114, 1.01, 0.098, 192.0, 0.0, 0.0, 0.0, 0.0, 0.0, 0.0, 0.0, 0.0, 0.0, 1.695755208191897E9, 0.0, 2023-09-26 14:06:48.191
240.0, -162115.72731920806, 51176.710567082235, -51645.78427622131, -41942.31086281668, 2186.760567040511, -9128.340676825128, -187500.02235174447, 3864.616616322591, 13352.5521579447, -28608.310652769884, 4243.545740073412, -16853.5282437239, -17391.49002927423, -7276.051613813832, -23273.999783277486, -30901.845503073397, 0.114, 1.01, 0.098, 192.0, 0.0, 0.0, 0.0, 0.0, 0.0, 0.0, 0.0, 0.0, 0.0, 1.695755208191906E9, 0.0, 2023-09-26 14:06:48.191
242.0, -162137.34145609636, 51167.769869300115, -51636.105970872166, -41929.816237666164, 2195.8130235449107, -9117.477729019849, -187500.02235174447, 3875.9265990169765, 13364.912672628483, -28617.206647063096, 4236.571995803356, -16868.86154042024, -17389.456020528796, -7282.243047027951, -23271.496387898493, -30895.899939048286, 0.116, 1.016, 0.092, 192.0, 1.5, 80.0, 15.5, 96.0, 1.0, 112.0, 0.0, 0.0, 0.0, 1.695755208191915E9, 0.0, 2023-09-26 14:06:48.191
244.0, -162111.48048776155, 51185.27128520862, -51643.25852909786, -41938.35460404809, 2185.441814117648, -9123.199775600408, -187500.02235174447, 3890.4105294240153, 13378.79310593523, -28608.489466725525, 4257.135600702239, -16849.974316355507, -17389.59013099553, -7266.730936375969, -23269.820007064343, -30896.16815998175, 0.116, 1.016, 0.092, 192.0, 0.0, 0.0, 0.0, 0.0, 0.0, 0.0, 0.0, 0.0, 0.0, 1.695755208191925E9, 0.0, 2023-09-26 14:06:48.191
246.0, -162138.92842995268, 51174.900075781356, -51639.61519475165, -41936.789981936214, 2190.4486048756366, -9119.399979043004, -187500.02235174447, 3871.210380936907, 13388.203190350914, -28619.106545341798, 4252.352327388803, -16866.358145041246, -17379.464790757276, -7271.53656143386, -23264.254422694972, -30889.686154089708, 0.116, 1.016, 0.092, 192.0, 0.0, 0.0, 0.0, 0.0, 0.0, 0.0, 0.0, 0.0, 0.0, 1.695755208245217E9, 0.0, 2023-09-26 14:06:48.245
248.0, -162121.60582799983, 51194.971942302225, -51626.20414807846, -41921.68020268443, 2202.6526573482347, -9105.743063180813, -187500.02235174447, 3869.7351658028565, 13379.664823968986, -28608.869446381268, 4257.6049873358, -16850.5778134558, -17378.347203534508, -7266.574474164781, -23269.104751241775, -30896.078753003927, 0.116, 1.016, 0.092, 192.0, 0.0, 0.0, 0.0, 0.0, 0.0, 0.0, 0.0, 0.0, 0.0, 1.695755208245243E9, 0.0, 2023-09-26 14:06:48.245
250.0, -162160.94489824117, 51191.552125400565, -51605.41702573503, -41899.21669950685, 2215.8178348324104, -9087.571094938648, -187500.02235174447, 3851.4514388384155, 13409.996141194839, -28611.08226908234, 4270.256074697504, -16868.168636342125, -17356.86717711296, -7241.6746308415695, -23248.85407076527, -30871.380075380814, 0.116, 1.016, 0.092, 192.0, 0.0, 0.0, 0.0, 0.0, 0.0, 0.0, 0.0, 0.0, 0.0, 1.695755208245252E9, 0.0, 2023-09-26 14:06:48.245
