%OpenBCI Raw EXG Data
%Number of channels = 16
%Sample Rate = 125 Hz
%Board = OpenBCI_GUI$BoardCytonSerialDaisy
Sample Index, EXG Channel 0, EXG Channel 1, EXG Channel 2, EXG Channel 3, EXG Channel 4, EXG Channel 5, EXG Channel 6, EXG Channel 7, EXG Channel 8, EXG Channel 9, EXG Channel 10, EXG Channel 11, EXG Channel 12, EXG Channel 13, EXG Channel 14, EXG Channel 15, Accel Channel 0, Accel Channel 1, Accel Channel 2, Other, Other, Other, Other, Other, Other, Other, Analog Channel 0, Analog Channel 1, Analog Channel 2, Timestamp, Other, Timestamp (Formatted)
238.0, 7011.71988388537, 9451.345735948771, -23838.113109840528, -47569.27312246241, -31189.02071583518, 29986.385105417387, 187500.0, -36900.62903173316, -19596.802544212645, -31839.858810884813, -41838.03997493267, -55980.256912738914, -17177.561483092486, -22535.006408096124, -33538.43492727696, -44533.43683879815, 0.0, 0.0, 0.0, 192.0, 0.0, 0.0, 0.0, 0.0, 0.0, 0.0, 0.0, 0.0, 0.0, 1.695333278026986E9, 0.0, 2023-09-21 16:54:38.026
240.0, 6996.185421488932, 9434.53722411838, -23848.86429892353, -47577.34210221077, -31199.146056073438, 30002.0313265361, 187500.0, -36908.49684578143, -19594.813238956125, -31838.495354473038, -41837.525884810195, -55980.48043018347, -17174.63340456884, -22528.300884759534, -33535.55155224223, -44531.87221668628, 0.0, 0.0, 0.0, 192.0, 0.0, 0.0, 0.0, 0.0, 0.0, 0.0, 0.0, 0.0, 0.0, 1.695333278027008E9, 0.0, 2023-09-21 16:54:38.027
242.0, 6985.411880661474, 9420.299162900348, -23852.753502458752, -47589.34498898328, -31201.738858430253, 29979.16549195832, 187500.0, -36917.50459879692, -19610.235942630286, -31860.914154161714, -41855.25081816326, -56002.98863684996, -17185.786925052038, -22552.351361793444, -33551.44364254995, -44550.58062679537, 0.0, 0.0, 0.0, 192.0, 0.0, 0.0, 0.0, 0.0, 0.0, 0.0, 0.0, 0.0, 0.0, 1.695333278027038E9, 0.0, 2023-09-21 16:54:38.027
244.0, 6980.159220714477, 9417.304029143337, -23861.20246186286, -47593.18948902959, -31201.716506685796, 29984.105227482945, 187500.0, -36917.191674374546, -19621.903553235956, -31868.625505998793, -41866.65020783546, -56012.21990731, -17190.79371581003, -22559.70508571924, -33558.171517630995, -44562.65056880123, 0.012, 1.014, 0.048, 192.0, 0.0, 48.0, 15.5, 88.0, 0.5, 64.0, 0.0, 0.0, 0.0, 1.695333278027048E9, 0.0, 2023-09-21 16:54:38.027
246.0, 6984.2272382053425, 9420.522680344902, -23849.087816368083, -47586.84159360428, -31188.4619222238, 29958.89245973736, 187500.0, -36907.84864519223, -19606.525553050706, -31855.281514558974, -41854.28969315168, -55998.74180540345, -17177.02504122556, -22549.51269024762, -33546.705072725425, -44547.227865127075, 0.012, 1.014, 0.048, 192.0, 0.0, 0.0, 0.0, 0.0, 0.0, 0.0, 0.0, 0.0, 0.0, 1.695333278027059E9, 0.0, 2023-09-21 16:54:38.027
248.0, 6984.875438794546, 9421.796729778855, -23858.944935672873, -47590.149651783664, -31191.591166447542, 29978.897271024856, 187500.0, -36906.19461610253, -19619.31075087914, -31867.59732575385, -41865.66673107943, -56008.84479389725, -17184.736393062638, -22559.101588618945, -33544.35813955762, -44556.459135587116, 0.012, 1.014, 0.048, 192.0, 0.0, 0.0, 0.0, 0.0, 0.0, 0.0, 0.0, 0.0, 0.0, 1.695333278027068E9, 0.0, 2023-09-21 16:54:38.027
250.0, 6985.657749850482, 9425.797692036354, -23856.62035424952, -47587.95918082705, -31196.486198483253, 29970.0236284761, 187500.0, -36913.81656096179, -19611.50999206424, -31861.96468615111, -41859.09531820957, -56003.748596161444, -17180.86954127187, -22559.347457807955, -33545.49807852484, -44548.88189421676, 0.012, 1.014, 0.048, 192.0, 0.0, 0.0, 0.0, 0.0, 0.0, 0.0, 0.0, 0.0, 0.0, 1.695333278027078E9, 0.0, 2023-09-21 16:54:38.027
252.0, 6987.579999873638, 9430.133930460684, -23859.213156606336, -47587.22157326002, -31197.69319268384, 29984.75342807215, 187500.0, -36912.78838071685, -19623.7810997702, -31858.276648315987, -41871.32172242662, -56009.73886367546, -17190.480791387654, -22558.900422918847, -33554.59523851815, -44561.08594668937, 0.012, 1.014, 0.048, 192.0, 0.0, 0.0, 0.0, 0.0, 0.0, 0.0, 0.0, 0.0, 0.0, 1.695333278027087E9, 0.0, 2023-09-21 16:54:38.027
254.0, 6980.0474619922, 9413.995970963952, -23847.791415189677, -47583.51118368044, -31184.17038728838, 29976.907965768336, 187500.0, -36905.45700853551, -19613.052262431655, -31868.469043787605, -41863.543315356175, -56007.235468296465, -17175.25925341359, -22558.900422918847, -33546.63801749206, -44544.702118003624, 0.016, 1.012, 0.05, 192.0, 0.0, 64.0, 15.5, 80.0, 0.5, 72.0, 0.0, 0.0, 0.0, 1.695333278027097E9, 0.0, 2023-09-21 16:54:38.027
0.0, 3712.0883121595757, 4763.5367230816755, -12116.768910499683, -23480.015811922054, -15506.142736213535, 15051.061219103483, 93749.98882412778, -18490.70411809732, -9809.420682122789, -15937.419645478683, -20932.38633065061, -28004.612386776495, -8585.528562727995, -11280.813667871198, -16768.99394619393, -22273.379239246755, 0.016, 1.014, 0.052000000000000005, 192.0, 0.0, 64.0, 15.5, 88.0, 0.5, 80.0, 0.0, 0.0, 0.0, 1.695333278138571E9, 0.0, 2023-09-21 16:54:38.138
2.0, 7429.89867089971, 9531.856719476786, -24231.637922720663, -46957.46117323174, -31013.984205005672, 30076.23911812772, 187500.0, -36981.11766351672, -19596.824895957103, -31739.298312580388, -42144.52709490384, -55900.37177805565, -17091.373156472822, -23682.34380273149, -33420.887103186506, -44436.22910216202, 0.016, 1.014, 0.052000000000000005, 192.0, 0.0, 0.0, 0.0, 0.0, 0.0, 0.0, 0.0, 0.0, 0.0, 1.695333278197105E9, 0.0, 2023-09-21 16:54:38.197
4.0, 7428.401104021204, 9531.253222376494, -24247.46295779502, -46961.90917037835, -31024.735394088675, 30083.43637984233, 187500.0, -36983.01756179542, -19604.31273034963, -31752.508193553473, -42155.904132831594, -55914.25221136239, -17105.09712756838, -23698.392355250402, -33438.969664450844, -44451.07066048034, 0.016, 1.014, 0.052000000000000005, 192.0, 0.0, 0.0, 0.0, 0.0, 0.0, 0.0, 0.0, 0.0, 0.0, 1.695333278197125E9, 0.0, 2023-09-21 16:54:38.197
6.0, 7427.507034242993, 9538.674001535655, -24232.04025412086, -46939.28920498958, -31009.826780536987, 30074.450978571294, 187500.0, -36966.544326131865, -19604.960930938832, -31741.980521915022, -42144.75061234839, -55899.43300478852, -17097.944569342682, -23688.244663267695, -33424.798658466185, -44426.37198285723, 0.016, 1.014, 0.052000000000000005, 192.0, 0.0, 0.0, 0.0, 0.0, 0.0, 0.0, 0.0, 0.0, 0.0, 1.695333278197136E9, 0.0, 2023-09-21 16:54:38.197
8.0, 7430.211595322085, 9542.876129493252, -24244.579582760285, -46941.70319339076, -31019.974472519694, 30100.401353883906, 187500.0, -36967.21487846552, -19611.50999206424, -31735.699681723083, -42147.231655982934, -55895.610856486666, -17104.650092679276, -23678.432247451812, -33424.55278927717, -44425.433209590105, 0.024, 1.01, 0.052000000000000005, 192.0, 0.0, 96.0, 15.5, 72.0, 0.5, 80.0, 0.0, 0.0, 0.0, 1.695333278197184E9, 0.0, 2023-09-21 16:54:38.197
10.0, 7450.574034520869, 9561.22691169106, -24219.88090513717, -46919.28439370208, -30997.734486786663, 30078.027257684145, 187500.0, -36947.031253222376, -19596.55667502364, -31723.94266413959, -42134.33469943222, -55881.126926079625, -17093.675386151717, -23674.185416005304, -33419.52364677473, -44412.67036350613, 0.024, 1.01, 0.052000000000000005, 192.0, 0.0, 0.0, 0.0, 0.0, 0.0, 0.0, 0.0, 0.0, 0.0, 1.695333278197194E9, 0.0, 2023-09-21 16:54:38.197
12.0, 7448.830598453355, 9560.958690757596, -24231.79438493185, -46928.605071139944, -31007.546902602542, 30103.19532194082, 187500.0, -36956.77661380489, -19588.152419108443, -31717.28184429191, -42125.25989118336, -55872.92383586453, -17086.18755175919, -23661.333162943505, -33406.269062312735, -44407.30594483685, 0.024, 1.01, 0.052000000000000005, 192.0, 0.0, 0.0, 0.0, 0.0, 0.0, 0.0, 0.0, 0.0, 0.0, 1.695333278197203E9, 0.0, 2023-09-21 16:54:38.197
14.0, 7452.831560710855, 9560.735173313044, -24228.84395466375, -46932.829550842, -31004.70823105672, 30093.785237525135, 187500.0, -36959.347064417256, -19595.08145988959, -31719.18174257061, -42130.42314415254, -55876.90244637757, -17091.976653573114, -23672.39727644888, -33419.054260141165, -44419.88997696519, 0.024, 1.01, 0.052000000000000005, 192.0, 0.0, 0.0, 0.0, 0.0, 0.0, 0.0, 0.0, 0.0, 0.0, 1.695333278197213E9, 0.0, 2023-09-21 16:54:38.197
16.0, 7442.415647794682, 9553.180283687148, -24240.712730969517, -46942.932539335794, -31016.822876551498, 30120.719089593782, 187500.0, -36971.39465467866, -19592.8239336996, -31723.71914669504, -42132.05482149778, -55879.15997256756, -17091.70843263965, -23675.459465439257, -33417.4896380293, -44427.333107868806, 0.024, 1.01, 0.052000000000000005, 192.0, 0.0, 0.0, 0.0, 0.0, 0.0, 0.0, 0.0, 0.0, 0.0, 1.695333278257434E9, 0.0, 2023-09-21 16:54:38.257
18.0, 7451.222235110073, 9559.32701341236, -24236.04121637836, -46939.49037068968, -31011.190236948758, 30095.014583470176, 187500.0, -36971.55111688985, -19597.651910501947, -31727.921274652635, -42133.99942326539, -55885.172591826034, -17098.928046098717, -23687.194131278295, -33430.40894632446, -44438.17370392963, 0.026000000000000002, 1.012, 0.052000000000000005, 192.0, 0.0, 104.0, 15.5, 80.0, 0.5, 80.0, 0.0, 0.0, 0.0, 1.695333278257473E9, 0.0, 2023-09-21 16:54:38.257
20.0, 7455.089086900841, 9563.976176259062, -24233.247248321444, -46935.82468459901, -31004.84234152345, 30092.354725879995, 187500.0, -36965.8737737982, -19587.526570263693, -31718.779411170413, -42124.298766171785, -55877.61770220014, -17087.327490726413, -23680.242738752695, -33420.97651016432, -44428.9871369585, 0.026000000000000002, 1.012, 0.052000000000000005, 192.0, 0.0, 0.0, 0.0, 0.0, 0.0, 0.0, 0.0, 0.0, 0.0, 1.695333278257483E9, 0.0, 2023-09-21 16:54:38.257
22.0, 7434.190205835129, 9551.16862668617, -24249.005228162438, -46948.98986208318, -31018.923940530294, 30095.551025337107, 187500.0, -36983.21872749552, -19603.35160533805, -31730.22350433153, -42140.1461529906, -55890.492307006396, -17102.05729032246, -23689.7422301462, -33428.57610327913, -44438.6877940521, 0.026000000000000002, 1.012, 0.052000000000000005, 192.0, 0.0, 0.0, 0.0, 0.0, 0.0, 0.0, 0.0, 0.0, 0.0, 1.695333278257492E9, 0.0, 2023-09-21 16:54:38.257
24.0, 7450.126999631763, 9569.854685050808, -24239.19281234656, -46933.81302759803, -31004.46236186771, 30093.986403225234, 187500.0, -36959.347064417256, -19610.414756585928, -31728.949454897578, -42142.91776930306, -55887.765394182854, -17102.57138044493, -23693.765544148155, -33428.39728932349, -44436.65378530667, 0.026000000000000002, 1.012, 0.052000000000000005, 192.0, 0.0, 0.0, 0.0, 0.0, 0.0, 0.0, 0.0, 0.0, 0.0, 1.695333278257502E9, 0.0, 2023-09-21 16:54:38.257
26.0, 7444.85198794031, 9562.970347758574, -24241.383283303177, -46939.08803928948, -31009.290338670056, 30108.023298743166, 187500.0, -36965.203221464544, -19594.053279644642, -31721.081640849312, -42132.211283708966, -55879.47289698993, -17093.116592540337, -23683.72961088772, -33424.32927183262, -44423.04157293339, 0.026000000000000002, 1.012, 0.052000000000000005, 192.0, 0.0, 0.0, 0.0, 0.0, 0.0, 0.0, 0.0, 0.0, 0.0, 1.695333278257511E9, 0.0, 2023-09-21 16:54:38.257
28.0, 7451.825732210366, 9567.79832456092, -24240.064530380314, -46937.61282415543, -31005.55759734602, 30123.848333817525, 187500.0, -36959.749395817445, -19596.891951190468, -31724.300292050877, -42134.84878955469, -55882.44567900249, -17093.407165218254, -23688.669346412345, -33421.311786331156, -44423.622718289225, 0.024, 1.016, 0.044, 192.0, 0.0, 96.0, 15.5, 96.0, 0.5, 48.0, 0.0, 0.0, 0.0, 1.695333278257524E9, 0.0, 2023-09-21 16:54:38.257
30.0, 7439.3758105487605, 9553.94024299863, -24250.189870618568, -46949.59335918348, -31014.61005385042, 30142.62379915998, 187500.0, -36963.16921271911, -19607.26316061773, -31739.968864914044, -42148.05867052778, -55898.941266410504, -17104.136002556803, -23699.800515151088, -33435.72866150483, -44432.80928526036, 0.024, 1.016, 0.044, 192.0, 0.0, 0.0, 0.0, 0.0, 0.0, 0.0, 0.0, 0.0, 0.0, 1.695333278257557E9, 0.0, 2023-09-21 16:54:38.257
32.0, 7449.679964742657, 9567.373641416269, -24238.209335590524, -46936.4281816993, -31001.646042066342, 30140.098052036534, 187500.0, -36948.12648870069, -19597.584855268582, -31731.966940399045, -42140.21320822397, -55892.19103958501, -17095.172953030225, -23694.994890093196, -33423.546960776686, -44421.00756418795, 0.024, 1.016, 0.044, 192.0, 0.0, 0.0, 0.0, 0.0, 0.0, 0.0, 0.0, 0.0, 0.0, 1.695333278316222E9, 0.0, 2023-09-21 16:54:38.316
34.0, 7441.767447205478, 9559.192902945626, -24236.912934412114, -46937.92574857781, -30996.527492586076, 30144.389586971953, 187500.0, -36954.13910795916, -19604.31273034963, -31734.246818333486, -42146.047013526804, -55892.928647152024, -17093.362461729343, -23691.820942380542, -33423.34579507659, -44421.07461942132, 0.024, 1.016, 0.044, 192.0, 0.0, 0.0, 0.0, 0.0, 0.0, 0.0, 0.0, 0.0, 0.0, 1.695333278316245E9, 0.0, 2023-09-21 16:54:38.316
36.0, 7446.99775540802, 9562.299795424915, -24228.374568030187, -46931.01905954112, -30987.60914654841, 30127.648130374928, 187500.0, -36952.50743061393, -19596.55667502364, -31729.552951997874, -42141.33079544673, -55887.11719359365, -17084.399412202765, -23689.049326068085, -33409.10773385855, -44419.82292173182, 0.024, 1.016, 0.044, 192.0, 0.0, 0.0, 0.0, 0.0, 0.0, 0.0, 0.0, 0.0, 0.0, 1.695333278316255E9, 0.0, 2023-09-21 16:54:38.316
38.0, 7444.85198794031, 9558.678812823155, -24227.949884885536, -46935.891739832376, -30983.295259868537, 30135.515944423194, 187500.0, -36953.0215207364, -19599.21653261382, -31734.55974275586, -42144.795315837306, -55892.68277796302, -17087.685118637695, -23692.871474369942, -33414.24863508328, -44426.32727936832, 0.018000000000000002, 1.018, 0.044, 192.0, 0.0, 72.0, 15.5, 104.0, 0.5, 48.0, 0.0, 0.0, 0.0, 1.695333278316265E9, 0.0, 2023-09-21 16:54:38.316
40.0, 7433.989040135031, 9551.772123786464, -24232.80021343234, -46943.3795742249, -30991.386591361355, 30130.375043198474, 187500.0, -36961.82810805179, -19595.88612268998, -31739.410071302664, -42145.80114433779, -55896.28140882032, -17082.72303136862, -23699.73345991772, -33404.27975705621, -44429.88120673671, 0.018000000000000002, 1.018, 0.044, 192.0, 0.0, 0.0, 0.0, 0.0, 0.0, 0.0, 0.0, 0.0, 0.0, 1.695333278316275E9, 0.0, 2023-09-21 16:54:38.316
42.0, 7448.316508330883, 9568.357118172302, -24218.40569000312, -46924.31353620452, -30979.093131910937, 30133.169011255388, 187500.0, -36946.31599739981, -19597.584855268582, -31740.974693414533, -42145.82349608225, -55896.75079545389, -17085.181723258702, -23699.800515151088, -33406.9843181353, -44427.71308752455, 0.018000000000000002, 1.018, 0.044, 192.0, 0.0, 0.0, 0.0, 0.0, 0.0, 0.0, 0.0, 0.0, 0.0, 1.695333278316285E9, 0.0, 2023-09-21 16:54:38.316
44.0, 7438.504092515003, 9558.745868056521, -24227.726367440984, -46933.075420031004, -30996.862768752908, 30135.895924078934, 187500.0, -36969.78532907788, -19594.343852322563, -31735.677329978625, -42138.492123900905, -55882.8927138916, -17082.030127290505, -23693.87730287043, -33395.04848659617, -44420.02408743192, 0.018000000000000002, 1.018, 0.044, 192.0, 0.0, 0.0, 0.0, 0.0, 0.0, 0.0, 0.0, 0.0, 0.0, 1.695333278316294E9, 0.0, 2023-09-21 16:54:38.316
46.0, 7450.909310687699, 9571.352251929315, -24230.430928520076, -46925.22995772719, -30996.70630654172, 30145.06013930561, 187500.0, -36964.6220761087, -19605.98911118378, -31742.360501570765, -42146.047013526804, -55886.938379638006, -17098.078679809416, -23704.449677997793, -33415.88031242851, -44432.33989862679, 0.018000000000000002, 1.018, 0.044, 192.0, 0.0, 0.0, 0.0, 0.0, 0.0, 0.0, 0.0, 0.0, 0.0, 1.695333278376501E9, 0.0, 2023-09-21 16:54:38.376
48.0, 7468.544837062936, 9585.210333491605, -24220.149126070635, -46913.83056805498, -30987.497387826133, 30130.039767031645, 187500.0, -36958.900029528144, -19596.78019246819, -31729.28473106441, -42134.40175466559, -55873.10264982017, -17086.969862815127, -23698.97350060624, -33408.168960591436, -44421.946337455076, 0.014, 1.014, 0.048, 192.0, 0.0, 56.0, 15.5, 88.0, 0.5, 64.0, 0.0, 0.0, 0.0, 1.695333278376526E9, 0.0, 2023-09-21 16:54:38.376
50.0, 7462.062831170897, 9582.125792756771, -24230.252114564435, -46922.57010013701, -31000.394344376844, 30159.745235412745, 187500.0, -36968.1760034771, -19583.54795975065, -31721.2381030605, -42124.07524872723, -55866.95592009496, -17083.997080802572, -23691.530369702625, -33409.063030369645, -44418.6829827646, 0.014, 1.014, 0.048, 192.0, 0.0, 0.0, 0.0, 0.0, 0.0, 0.0, 0.0, 0.0, 0.0, 1.695333278376537E9, 0.0, 2023-09-21 16:54:38.376
52.0, 7461.302871859417, 9583.019862534984, -24227.927533141083, -46922.68185885929, -31004.10473395643, 30143.42846196037, 187500.0, -36971.7299308455, -19594.0756313891, -31725.596693229283, -42130.937234275014, -55872.521504464334, -17092.781316373508, -23704.047346597596, -33418.786039207705, -44426.416686346136, 0.014, 1.014, 0.048, 192.0, 0.0, 0.0, 0.0, 0.0, 0.0, 0.0, 0.0, 0.0, 0.0, 1.695333278376578E9, 0.0, 2023-09-21 16:54:38.376
54.0, 7455.849046212322, 9581.94697880113, -24233.78369018837, -46920.8266640695, -31009.066821225504, 30166.67427619389, 187500.0, -36967.48309939898, -19599.887084947477, -31727.1389635967, -42136.56987387775, -55874.44375448749, -17095.217656519133, -23701.812172152066, -33420.171847363934, -44425.1873404011, 0.014, 1.014, 0.048, 192.0, 0.0, 0.0, 0.0, 0.0, 0.0, 0.0, 0.0, 0.0, 0.0, 1.695333278376588E9, 0.0, 2023-09-21 16:54:38.376
56.0, 7446.170740863174, 9574.213275219594, -24232.75550994343, -46922.033658270084, -31005.669356068298, 30146.78122362867, 187500.0, -36966.36551217622, -19597.517800035217, -31728.41301303065, -42141.91194080257, -55878.4894202339, -17093.1836477737, -23706.729555932234, -33420.395364808486, -44421.678116521616, 0.014, 1.014, 0.048, 192.0, 0.0, 0.0, 0.0, 0.0, 0.0, 0.0, 0.0, 0.0, 0.0, 1.695333278376597E9, 0.0, 2023-09-21 16:54:38.376
58.0, 7438.392333792727, 9570.882865295753, -24243.90903042663, -46929.40973394034, -31011.078478226482, 30170.429369262383, 187500.0, -36969.4277011666, -19607.106698406544, -31734.60444624477, -42153.51249617487, -55888.01126337186, -17099.218618776635, -23707.82479141054, -33422.9881671653, -44427.400163102175, 0.014, 1.016, 0.042, 192.0, 0.0, 56.0, 15.5, 96.0, 0.5, 40.0, 0.0, 0.0, 0.0, 1.695333278376607E9, 0.0, 2023-09-21 16:54:38.376
60.0, 7443.399124550716, 9571.173437973672, -24237.56113500132, -46925.14055074937, -31009.782077048076, 30149.709302152314, 187500.0, -36971.48406165648, -19604.670358260915, -31733.15158285518, -42153.42308919705, -55887.25130406038, -17097.139906542292, -23706.997776865697, -33423.52460903223, -44428.450695091575, 0.014, 1.016, 0.042, 192.0, 0.0, 0.0, 0.0, 0.0, 0.0, 0.0, 0.0, 0.0, 0.0, 1.695333278376616E9, 0.0, 2023-09-21 16:54:38.376
62.0, 7439.644031482224, 9567.574807116367, -24244.110196126723, -46927.59924263945, -31015.034736995072, 30164.863784893012, 187500.0, -36971.79698607886, -19610.88414321949, -31739.834754447314, -42159.23454275543, -55894.2921035638, -17099.822115876927, -23707.4448117548, -33420.97651016432, -44429.925910225626, 0.014, 1.016, 0.042, 192.0, 0.0, 0.0, 0.0, 0.0, 0.0, 0.0, 0.0, 0.0, 0.0, 1.695333278436705E9, 0.0, 2023-09-21 16:54:38.436
64.0, 7454.28442410045, 9577.074298509873, -24226.519373240397, -46912.28829768757, -30997.913300742308, 30142.735557882257, 187500.0, -36960.375244662195, -19592.35454706604, -31734.112707866756, -42147.96926354996, -55886.714862193454, -17091.596673917375, -23704.583788464523, -33418.003728151765, -44423.51095956695, 0.014, 1.016, 0.042, 192.0, 0.0, 0.0, 0.0, 0.0, 0.0, 0.0, 0.0, 0.0, 0.0, 1.695333278436729E9, 0.0, 2023-09-21 16:54:38.436
66.0, 7450.66344149869, 9574.526199641967, -24234.677759966584, -46911.14835872035, -31000.528454843577, 30154.470223721295, 187500.0, -36959.01178825042, -19587.59362549706, -31730.067042120343, -42142.694251858506, -55881.77512666883, -17083.035955790994, -23692.78206739212, -33406.55963499065, -44414.816130973835, 0.014, 1.016, 0.042, 192.0, 0.0, 0.0, 0.0, 0.0, 0.0, 0.0, 0.0, 0.0, 0.0, 1.695333278436739E9, 0.0, 2023-09-21 16:54:38.436
68.0, 7439.979307649053, 9565.116115226283, -24247.261792094923, -46927.59924263945, -31005.2670246681, 30140.835659603556, 187500.0, -36973.58512563528, -19604.178619882896, -31736.772565456937, -42156.19470550951, -55895.186173342016, -17094.077717551914, -23702.907407630373, -33421.04356539769, -44424.89676772318, 0.01, 1.018, 0.04, 192.0, 0.0, 40.0, 15.5, 104.0, 0.5, 32.0, 0.0, 0.0, 0.0, 1.695333278436749E9, 0.0, 2023-09-21 16:54:38.436
70.0, 7440.359287304794, 9566.07724023786, -24252.76032123093, -46931.64490838587, -31006.250501424136, 30152.033883575667, 187500.0, -36973.808643079836, -19601.988148926277, -31740.214734103054, -42160.08390904473, -55900.17061235555, -17096.223485019622, -23709.098840844494, -33425.2903968442, -44432.96574747154, 0.01, 1.018, 0.04, 192.0, 0.0, 0.0, 0.0, 0.0, 0.0, 0.0, 0.0, 0.0, 0.0, 1.695333278436759E9, 0.0, 2023-09-21 16:54:38.436
72.0, 7438.593499492825, 9564.13263847025, -24249.362856073723, -46935.33294622099, -31002.27189091109, 30148.457604462816, 187500.0, -36977.18375649259, -19597.98718666878, -31736.884324179213, -42153.736013619426, -55895.56615299775, -17095.2847117525, -23715.580846736535, -33431.794754480696, -44432.80928526036, 0.01, 1.018, 0.04, 192.0, 0.0, 0.0, 0.0, 0.0, 0.0, 0.0, 0.0, 0.0, 0.0, 1.695333278436769E9, 0.0, 2023-09-21 16:54:38.436
74.0, 7439.934604160143, 9566.948958271618, -24255.576641032298, -46937.545768922064, -31009.290338670056, 30152.97265684279, 187500.0, -36981.81056759484, -19609.610093785537, -31745.132117883222, -42160.866220100674, -55899.41065304407, -17100.71618565514, -23728.54485852061, -33430.96773993585, -44444.096916210285, 0.01, 1.018, 0.04, 192.0, 0.0, 0.0, 0.0, 0.0, 0.0, 0.0, 0.0, 0.0, 0.0, 1.695333278436811E9, 0.0, 2023-09-21 16:54:38.436
76.0, 7441.678040227657, 9572.13456298525, -24249.340504329266, -46932.40486769735, -31011.212588693215, 30147.83175561807, 187500.0, -36988.65020139816, -19600.26706460322, -31732.99512064399, -42154.80889735328, -55889.218257572444, -17101.52084845553, -23726.220277097258, -33438.45557432837, -44443.046384220885, 0.01, 1.018, 0.04, 192.0, 0.0, 0.0, 0.0, 0.0, 0.0, 0.0, 0.0, 0.0, 0.0, 1.695333278497155E9, 0.0, 2023-09-21 16:54:38.497
78.0, 7438.884072170744, 9566.568978615878, -24243.394940304155, -46926.3251932055, -31005.13291420137, 30143.07083404909, 187500.0, -36978.346047204264, -19600.714099492325, -31743.85806844927, -42154.786545608826, -55889.642940717094, -17098.548066442974, -23730.869439943963, -33429.22430386833, -44439.17953243012, 0.008, 1.02, 0.038, 192.0, 0.0, 32.0, 15.5, 112.0, 0.5, 24.0, 0.0, 0.0, 0.0, 1.695333278497182E9, 0.0, 2023-09-21 16:54:38.497
80.0, 7437.542967503425, 9563.104458225305, -24248.737007228974, -46932.606033397446, -31009.42444913679, 30147.92116259589, 187500.0, -36982.23525073949, -19603.68688150488, -31743.701606238083, -42157.938141577026, -55892.77218494084, -17097.452830964667, -23729.103652131995, -33435.214571382356, -44437.27963415142, 0.008, 1.02, 0.038, 192.0, 0.0, 0.0, 0.0, 0.0, 0.0, 0.0, 0.0, 0.0, 0.0, 1.695333278497193E9, 0.0, 2023-09-21 16:54:38.497
82.0, 7445.679002485157, 9570.502885640011, -24242.746739714952, -46926.07932401649, -31006.652832824333, 30137.818174102093, 187500.0, -36973.36160819073, -19601.49641054826, -31743.61219926026, -42156.41822295407, -55894.202696585984, -17097.76575538704, -23729.818907954563, -33426.22917011132, -44436.36321262875, 0.008, 1.02, 0.038, 192.0, 0.0, 0.0, 0.0, 0.0, 0.0, 0.0, 0.0, 0.0, 0.0, 1.695333278497203E9, 0.0, 2023-09-21 16:54:38.497
84.0, 7438.23587158154, 9560.310490168393, -24245.786576960872, -46929.2756234736, -31007.591606091453, 30148.994046329743, 187500.0, -36974.926230302604, -19597.473096546306, -31741.33232132582, -42150.651472884594, -55892.86159191866, -17093.451868707165, -23729.260114343182, -33423.92694043242, -44432.362250371254, 0.008, 1.02, 0.038, 192.0, 0.0, 0.0, 0.0, 0.0, 0.0, 0.0, 0.0, 0.0, 0.0, 1.695333278497212E9, 0.0, 2023-09-21 16:54:38.497
86.0, 7430.546871488914, 9551.906234253196, -24245.451300794044, -46929.655603129344, -31012.777210805085, 30149.284619007663, 187500.0, -36980.871794327715, -19606.79377398417, -31754.72101625455, -42161.33560673423, -55903.09869087919, -17100.179743788212, -23736.904410946896, -33424.48573404381, -44438.374869629726, 0.008, 1.02, 0.038, 192.0, 0.0, 0.0, 0.0, 0.0, 0.0, 0.0, 0.0, 0.0, 0.0, 1.695333278497222E9, 0.0, 2023-09-21 16:54:38.497
88.0, 7430.233947066539, 9548.50876909599, -24247.507661283933, -46926.5263589056, -31007.52455085809, 30159.477014479282, 187500.0, -36968.3771691772, -19609.07365191861, -31760.308952368374, -42167.16941203707, -55908.82073745975, -17102.593732189387, -23742.872326716464, -33429.67133875744, -44431.736401526505, 0.012, 1.016, 0.038, 192.0, 0.0, 48.0, 15.5, 96.0, 0.5, 24.0, 0.0, 0.0, 0.0, 1.695333278497231E9, 0.0, 2023-09-21 16:54:38.497
90.0, 7431.284479055939, 9551.615661575277, -24251.46392005252, -46926.436951927775, -31003.344774644946, 30139.15927876941, 187500.0, -36967.88543079918, -19602.88221870449, -31752.687007509114, -42165.22481026946, -55905.13269962463, -17092.937778584692, -23734.088091145528, -33420.14949561948, -44422.75100025547, 0.012, 1.016, 0.038, 192.0, 0.0, 0.0, 0.0, 0.0, 0.0, 0.0, 0.0, 0.0, 0.0, 1.695333278497241E9, 0.0, 2023-09-21 16:54:38.497
92.0, 7416.8899556267215, 9536.818806745865, -24280.677650055608, -46950.10744930595, -31028.110507501427, 30162.650962191936, 187500.0, -36989.58897466528, -19618.349625867562, -31770.680161795637, -42185.52019423487, -55923.5505370558, -17112.026168349526, -23748.840242486032, -33439.30494061767, -44444.67806156613, 0.012, 1.016, 0.038, 192.0, 0.0, 0.0, 0.0, 0.0, 0.0, 0.0, 0.0, 0.0, 0.0, 1.695333278557588E9, 0.0, 2023-09-21 16:54:38.557
94.0, 7434.145502346219, 9549.31343189638, -24270.23938539498, -46944.58656842549, -31022.61197836542, 30129.525676909172, 187500.0, -36987.17498626411, -19617.12027992252, -31770.34488562881, -42181.563935466285, -55923.148205655605, -17112.808479405463, -23757.42331235687, -33448.58091456663, -44450.35540465777, 0.012, 1.016, 0.038, 192.0, 0.0, 0.0, 0.0, 0.0, 0.0, 0.0, 0.0, 0.0, 0.0, 1.695333278557612E9, 0.0, 2023-09-21 16:54:38.557
96.0, 7436.291269813928, 9551.302737152904, -24278.107199443246, -46950.9344638508, -31029.116336001916, 30133.280769977664, 187500.0, -36994.148730534165, -19602.055204159642, -31770.009609461977, -42170.522173705365, -55919.92955445404, -17108.360482258857, -23758.831472257552, -33452.60422856858, -44453.73051807052, 0.012, 1.016, 0.038, 192.0, 0.0, 0.0, 0.0, 0.0, 0.0, 0.0, 0.0, 0.0, 0.0, 1.695333278557655E9, 0.0, 2023-09-21 16:54:38.557
98.0, 7441.141598360729, 9554.70020231011, -24267.95950746054, -46947.559350438045, -31018.789830063564, 30100.803685284103, 187500.0, -36993.2323090115, -19597.45074480185, -31766.455682093583, -42163.459022457486, -55916.46503406347, -17101.20792403316, -23760.59726006952, -33449.407929111476, -44455.18338146012, 0.016, 1.018, 0.05, 192.0, 0.0, 64.0, 15.5, 104.0, 0.5, 72.0, 0.0, 0.0, 0.0, 1.695333278557665E9, 0.0, 2023-09-21 16:54:38.557
100.0, 7433.13967384573, 9547.324126639858, -24280.878815755703, -46955.471867975226, -31028.57989413499, 30113.901807534912, 187500.0, -36999.244928269974, -19601.854038459547, -31768.579097816837, -42166.40945272559, -55919.48251956493, -17100.71618565514, -23763.12300719297, -33446.23398139882, -44455.004567504475, 0.016, 1.018, 0.05, 192.0, 0.0, 0.0, 0.0, 0.0, 0.0, 0.0, 0.0, 0.0, 0.0, 1.695333278557675E9, 0.0, 2023-09-21 16:54:38.557
102.0, 7430.926851144654, 9546.854740006298, -24284.477446613007, -46958.176429054314, -31031.86560056992, 30088.62198455596, 187500.0, -37007.358611507254, -19609.27481761871, -31772.110673440777, -42180.46869998798, -55924.10933066718, -17109.031034592514, -23773.3601061535, -33456.00169372579, -44463.52058214195, 0.016, 1.018, 0.05, 192.0, 0.0, 0.0, 0.0, 0.0, 0.0, 0.0, 0.0, 0.0, 0.0, 1.695333278557685E9, 0.0, 2023-09-21 16:54:38.557
104.0, 7438.369982048272, 9557.963557000585, -24284.231577424, -46948.05108881606, -31028.33402494598, 30100.937795750833, 187500.0, -37004.89991961717, -19610.9288467084, -31766.321571626853, -42183.70970293399, -55920.10836840968, -17112.62966544982, -23769.26973691818, -33458.63919957152, -44465.08520425382, 0.016, 1.018, 0.05, 192.0, 0.0, 0.0, 0.0, 0.0, 0.0, 0.0, 0.0, 0.0, 0.0, 1.695333278557694E9, 0.0, 2023-09-21 16:54:38.557
106.0, 7443.756752462001, 9563.707955325599, -24274.441513352576, -46939.646832900864, -31020.019176008605, 30085.023353698656, 187500.0, -37005.346954506276, -19604.93857919438, -31755.860955221768, -42175.618371441175, -55907.92666768154, -17105.633569435307, -23766.36401013899, -33454.68294080293, -44462.73827108601, 0.016, 1.018, 0.05, 192.0, 0.0, 0.0, 0.0, 0.0, 0.0, 0.0, 0.0, 0.0, 0.0, 1.695333278616806E9, 0.0, 2023-09-21 16:54:38.616
108.0, 7436.335973302838, 9560.109324468294, -24280.632946566697, -46940.18327476779, -31024.71304234422, 30106.637490586938, 187500.0, -37007.24685278498, -19608.35839609604, -31750.585943530317, -42171.86327837268, -55901.71288272296, -17102.19140078919, -23756.75276002321, -33446.77042326575, -44462.17947747463, 0.016, 1.01, 0.048, 192.0, 0.0, 64.0, 15.5, 72.0, 0.5, 64.0, 0.0, 0.0, 0.0, 1.695333278616843E9, 0.0, 2023-09-21 16:54:38.616
110.0, 7428.065827854375, 9553.180283687148, -24277.66016455414, -46938.95392882275, -31025.361242933424, 30096.266281159675, 187500.0, -37004.89991961717, -19610.59357054157, -31756.62091453325, -42176.87006913067, -55907.56903977026, -17108.15931655876, -23766.98985898374, -33454.504126847285, -44465.17461123164, 0.016, 1.01, 0.048, 192.0, 0.0, 0.0, 0.0, 0.0, 0.0, 0.0, 0.0, 0.0, 0.0, 1.695333278616854E9, 0.0, 2023-09-21 16:54:38.616
112.0, 7431.575051733858, 9551.503902853, -24284.835074524293, -46936.87521658841, -31025.629463866888, 30116.807534314103, 187500.0, -36995.825111368315, -19623.714044536835, -31770.076664695345, -42190.102301848216, -55920.26483062087, -17118.06113935246, -23769.828530529565, -33461.366112395066, -44470.0472915229, 0.016, 1.01, 0.048, 192.0, 0.0, 0.0, 0.0, 0.0, 0.0, 0.0, 0.0, 0.0, 0.0, 1.695333278616864E9, 0.0, 2023-09-21 16:54:38.616
114.0, 7432.536176745436, 9547.36883012877, -24275.71556278653, -46936.29407123257, -31021.38263242038, 30118.282749448153, 187500.0, -36995.84746311277, -19606.704367006347, -31755.90565871068, -42174.232563284946, -55906.25028684739, -17103.219581034136, -23760.619611813978, -33452.42541461294, -44453.4399453926, 0.016, 1.01, 0.048, 192.0, 0.0, 0.0, 0.0, 0.0, 0.0, 0.0, 0.0, 0.0, 0.0, 1.695333278616874E9, 0.0, 2023-09-21 16:54:38.616
116.0, 7428.445807510115, 9545.535987083435, -24285.37151639122, -46944.02777481411, -31028.065804012516, 30141.0144735592, 187500.0, -36999.75901839245, -19613.320483365118, -31766.455682093583, -42184.357903523196, -55915.816833474266, -17113.14375557229, -23770.14145495194, -33454.03474021373, -44462.6935675971, 0.016, 1.01, 0.048, 192.0, 0.0, 0.0, 0.0, 0.0, 0.0, 0.0, 0.0, 0.0, 0.0, 1.69533327861692E9, 0.0, 2023-09-21 16:54:38.616
118.0, 7430.301002299906, 9545.737152783531, -24287.159655947646, -46943.156056780346, -31026.121202244904, 30130.822078087578, 187500.0, -36994.37224797872, -19627.715006794337, -31771.685990296126, -42192.69510420503, -55923.23761263343, -17121.52565974303, -23776.601109099523, -33462.01431298427, -44466.202791476586, 0.012, 1.016, 0.036000000000000004, 192.0, 0.0, 48.0, 15.5, 96.0, 0.5, 16.0, 0.0, 0.0, 0.0, 1.695333278616933E9, 0.0, 2023-09-21 16:54:38.616
120.0, 7446.751886219012, 9563.395030903224, -24275.626155808706, -46926.28048971659, -31012.844266038453, 30126.128211751966, 187500.0, -36977.25081172596, -19603.396308826963, -31757.604391289282, -42177.4065109976, -55907.52433628134, -17108.986331103602, -23771.057876474606, -33449.38557736702, -44449.59544534629, 0.012, 1.016, 0.036000000000000004, 192.0, 0.0, 0.0, 0.0, 0.0, 0.0, 0.0, 0.0, 0.0, 0.0, 1.695333278616943E9, 0.0, 2023-09-21 16:54:38.616
122.0, 7451.490456043537, 9566.70308908261, -24263.13153065819, -46919.50791114663, -31000.349640887936, 30115.086449991042, 187500.0, -36970.16530873362, -19589.29235807566, -31743.679254493625, -42161.67088290106, -55893.82271693024, -17092.222522762124, -23760.7090187918, -33437.025062683235, -44427.467218335536, 0.012, 1.016, 0.036000000000000004, 192.0, 0.0, 0.0, 0.0, 0.0, 0.0, 0.0, 0.0, 0.0, 0.0, 1.695333278676495E9, 0.0, 2023-09-21 16:54:38.676
124.0, 7455.133790389752, 9566.166647215683, -24267.154844660145, -46921.49721640316, -31003.94827174524, 30124.027147773166, 187500.0, -36968.287762199376, -19592.77923021069, -31748.75310048498, -42163.034339312835, -55898.941266410504, -17092.826019862416, -23762.385399625946, -33428.46434455685, -44428.62950904721, 0.012, 1.016, 0.036000000000000004, 192.0, 0.0, 0.0, 0.0, 0.0, 0.0, 0.0, 0.0, 0.0, 0.0, 1.69533327867652E9, 0.0, 2023-09-21 16:54:38.676
126.0, 7444.449656540115, 9555.236644177037, -24274.553272074852, -46927.12985600589, -31013.04543173855, 30140.8133078591, 187500.0, -36978.278991970896, -19596.288454090172, -31754.96688544356, -42165.91771434757, -55902.67400773454, -17098.413955976244, -23770.23086192976, -33435.28162661572, -44432.295195137885, 0.012, 1.016, 0.036000000000000004, 192.0, 0.0, 0.0, 0.0, 0.0, 0.0, 0.0, 0.0, 0.0, 0.0, 1.695333278676529E9, 0.0, 2023-09-21 16:54:38.676
128.0, 7453.882092700254, 9565.496094882023, -24267.95950746054, -46918.412675668325, -31012.061954982517, 30132.58786589955, 187500.0, -36975.03798902488, -19598.59068376907, -31754.676312765638, -42166.56591493677, -55900.23766758891, -17099.263322265546, -23771.437856130346, -33427.81614396765, -44434.84329400579, 0.012, 1.012, 0.046, 192.0, 0.0, 48.0, 15.5, 80.0, 0.5, 56.0, 0.0, 0.0, 0.0, 1.695333278676538E9, 0.0, 2023-09-21 16:54:38.676
130.0, 7448.875301942266, 9563.819714047875, -24262.393923091167, -46911.416579653815, -31013.067783483006, 30142.40028171543, 187500.0, -36985.16332926313, -19595.036756400677, -31744.90860043867, -42157.96049332148, -55890.93934189551, -17098.70452865416, -23762.31834439258, -33430.65481551347, -44433.25632014946, 0.012, 1.012, 0.046, 192.0, 0.0, 0.0, 0.0, 0.0, 0.0, 0.0, 0.0, 0.0, 0.0, 1.695333278676547E9, 0.0, 2023-09-21 16:54:38.676
132.0, 7445.299022829417, 9562.07627798036, -24261.253984123945, -46910.38839940887, -31012.263120682615, 30136.410014201407, 187500.0, -36986.593840908274, -19606.7267187508, -31748.417824318152, -42165.24716201391, -55891.81105992926, -17105.72297641313, -23770.09675146303, -33428.486696301305, -44441.235892920005, 0.012, 1.012, 0.046, 192.0, 0.0, 0.0, 0.0, 0.0, 0.0, 0.0, 0.0, 0.0, 0.0, 1.695333278676556E9, 0.0, 2023-09-21 16:54:38.676
134.0, 7442.594461750325, 9560.422248890669, -24259.532899800888, -46907.10269297394, -31009.647966581342, 30136.611179901505, 187500.0, -36988.96312582053, -19605.899704205956, -31746.04853940589, -42167.1023568037, -55890.02292037284, -17102.973711845127, -23771.527263108168, -33433.247617870285, -44441.90644525367, 0.012, 1.012, 0.046, 192.0, 0.0, 0.0, 0.0, 0.0, 0.0, 0.0, 0.0, 0.0, 0.0, 1.695333278676565E9, 0.0, 2023-09-21 16:54:38.676
136.0, 7443.309717572894, 9561.316318668882, -24260.38226609019, -46906.76741680711, -31007.256329924625, 30128.184572241855, 187500.0, -36987.62202115322, -19610.21359088583, -31746.406167317175, -42168.75638589339, -55888.905333150076, -17099.822115876927, -23770.90141426342, -33424.932768932915, -44443.58282608781, 0.012, 1.012, 0.046, 192.0, 0.0, 0.0, 0.0, 0.0, 0.0, 0.0, 0.0, 0.0, 0.0, 1.695333278736852E9, 0.0, 2023-09-21 16:54:38.736
138.0, 7451.825732210366, 9567.820676305375, -24257.45418756654, -46895.390378879354, -30999.455571109724, 30139.33809272505, 187500.0, -36977.40727393714, -19602.68105300439, -31742.315798081854, -42166.65532191459, -55887.765394182854, -17100.58207518841, -23767.123969450473, -33430.386594580006, -44440.63239581972, 0.012, 1.01, 0.05, 192.0, 0.0, 48.0, 15.5, 72.0, 0.5, 72.0, 0.0, 0.0, 0.0, 1.695333278736924E9, 0.0, 2023-09-21 16:54:38.736
140.0, 7445.410781551694, 9560.913987268685, -24260.80694923484, -46899.03371322557, -31001.400172877333, 30132.52081066618, 187500.0, -36975.1273960027, -19601.854038459547, -31736.392585801197, -42164.33074049124, -55882.02099585784, -17094.278883252013, -23760.619611813978, -33418.070783385134, -44430.484703837006, 0.012, 1.01, 0.05, 192.0, 0.0, 0.0, 0.0, 0.0, 0.0, 0.0, 0.0, 0.0, 0.0, 1.695333278736935E9, 0.0, 2023-09-21 16:54:38.736
142.0, 7452.920967688677, 9572.447487407624, -24262.930364958094, -46896.53031784658, -30996.90747224182, 30149.239915518752, 187500.0, -36965.85142205375, -19608.939541451877, -31744.148641127187, -42174.6572464296, -55890.31349305076, -17105.186534546203, -23770.09675146303, -33429.02313816823, -44433.23396840501, 0.012, 1.01, 0.05, 192.0, 0.0, 0.0, 0.0, 0.0, 0.0, 0.0, 0.0, 0.0, 0.0, 1.695333278736944E9, 0.0, 2023-09-21 16:54:38.736
144.0, 7450.886958943243, 9570.435830406646, -24262.57273704681, -46902.16295744931, -30998.3156321425, 30143.92020033839, 187500.0, -36967.728968587995, -19602.59164602657, -31732.70454796607, -42166.20828702549, -55881.283388290816, -17096.156429786257, -23765.246422916225, -33420.596530508585, -44421.588709543794, 0.012, 1.01, 0.05, 192.0, 0.0, 0.0, 0.0, 0.0, 0.0, 0.0, 0.0, 0.0, 0.0, 1.695333278736953E9, 0.0, 2023-09-21 16:54:38.736
146.0, 7455.446714812126, 9570.189961217638, -24268.004210949446, -46902.3194196605, -31000.975489732682, 30163.433273247872, 187500.0, -36964.89029704217, -19602.01050067073, -31738.89598118019, -42170.32100800527, -55887.81009767176, -17101.923179855727, -23771.683725319355, -33427.391460823, -44424.3379741118, 0.012, 1.01, 0.05, 192.0, 0.0, 0.0, 0.0, 0.0, 0.0, 0.0, 0.0, 0.0, 0.0, 1.695333278736963E9, 0.0, 2023-09-21 16:54:38.736
148.0, 7440.940432660632, 9552.59913833131, -24274.3297546303, -46913.919975032804, -31011.10082997094, 30155.364293499508, 187500.0, -36978.74837860446, -19609.297169363163, -31748.507231295975, -42177.786490653336, -55896.63903673161, -17107.57817120292, -23781.04910624613, -33428.41964106794, -44428.76361951395, 0.012, 1.01, 0.048, 192.0, 0.0, 48.0, 15.5, 72.0, 0.5, 64.0, 0.0, 0.0, 0.0, 1.695333278736974E9, 0.0, 2023-09-21 16:54:38.736
150.0, 7448.920005431177, 9556.600100588812, -24276.587280820284, -46909.42727439729, -31012.53134161608, 30176.59845073205, 187500.0, -36969.11477674422, -19611.30882636414, -31755.056292421377, -42180.3569412657, -55903.67983623503, -17111.601485204876, -23788.313423194104, -33435.88512371601, -44433.189264916095, 0.012, 1.01, 0.048, 192.0, 0.0, 0.0, 0.0, 0.0, 0.0, 0.0, 0.0, 0.0, 0.0, 1.695333278736983E9, 0.0, 2023-09-21 16:54:38.736
152.0, 7457.480723557559, 9563.685603581143, -24264.85261498125, -46901.134777204374, -31005.155265945825, 30155.25253477723, 187500.0, -36971.61817212321, -19606.9278844509, -31748.507231295975, -42174.59019119623, -55898.20365884348, -17106.684101424707, -23783.619556858488, -33428.6878620014, -44428.04836369138, 0.012, 1.01, 0.048, 192.0, 0.0, 0.0, 0.0, 0.0, 0.0, 0.0, 0.0, 0.0, 0.0, 1.695333278797033E9, 0.0, 2023-09-21 16:54:38.797
154.0, 7462.465162571092, 9565.406687904202, -24267.08778942678, -46899.95013474824, -31009.536207859066, 30172.68689545237, 187500.0, -36977.094349514766, -19594.097983133553, -31741.42172830364, -42163.660188157584, -55888.72651919443, -17099.486839710098, -23773.740085809244, -33422.74229797629, -44423.51095956695, 0.012, 1.01, 0.048, 192.0, 0.0, 0.0, 0.0, 0.0, 0.0, 0.0, 0.0, 0.0, 0.0, 1.695333278797053E9, 0.0, 2023-09-21 16:54:38.797
156.0, 7463.023956182476, 9563.640900092232, -24265.99255394847, -46903.70522781673, -31010.072649725993, 30147.071796306587, 187500.0, -36992.405294466655, -19594.343852322563, -31744.215696360556, -42163.12374629066, -55890.96169363996, -17097.832810620406, -23782.323155680082, -33432.487658558806, -44434.61977656124, 0.012, 1.01, 0.048, 192.0, 0.0, 0.0, 0.0, 0.0, 0.0, 0.0, 0.0, 0.0, 0.0, 1.695333278797063E9, 0.0, 2023-09-21 16:54:38.797
158.0, 7464.029784682964, 9562.27744368046, -24275.80496976435, -46908.197928452246, -31013.157190460824, 30159.387607501463, 187500.0, -36995.42277996812, -19596.199047112354, -31748.775452229438, -42169.06931031577, -55895.9908361424, -17103.107822311857, -23787.687574349355, -33441.204838896374, -44450.467163380046, 0.014, 1.008, 0.044, 192.0, 0.0, 56.0, 15.5, 64.0, 0.5, 48.0, 0.0, 0.0, 0.0, 1.695333278797072E9, 0.0, 2023-09-21 16:54:38.797
160.0, 7466.734345762056, 9564.691432081632, -24259.89052771217, -46895.07745445698, -30995.521664085587, 30133.414880444394, 187500.0, -36984.11279727373, -19582.609186483525, -31734.962074156057, -42158.11695553267, -55885.463164503955, -17087.528656426508, -23780.669126590386, -33439.46140282886, -44440.87826500872, 0.014, 1.008, 0.044, 192.0, 0.0, 0.0, 0.0, 0.0, 0.0, 0.0, 0.0, 0.0, 0.0, 1.695333278797109E9, 0.0, 2023-09-21 16:54:38.797
162.0, 7461.19111313714, 9554.27551916546, -24266.841920237774, -46892.2164311667, -30999.723792043187, 30153.55380219863, 187500.0, -36976.35674194774, -19600.8258582146, -31743.65690274917, -42170.0527870718, -55892.72748145193, -17091.66372915074, -23782.747838824733, -33429.51487654625, -44439.51480859695, 0.014, 1.008, 0.044, 192.0, 0.0, 0.0, 0.0, 0.0, 0.0, 0.0, 0.0, 0.0, 0.0, 1.695333278797118E9, 0.0, 2023-09-21 16:54:38.797
164.0, 7459.872360214277, 9547.592347573322, -24261.835129479783, -46888.23782065366, -30992.12419892838, 30143.897848593933, 187500.0, -36971.81933782331, -19585.492561518262, -31736.817268945848, -42161.24619975641, -55886.62545521563, -17084.75704011405, -23775.751742810222, -33428.53139979022, -44426.72961076851, 0.014, 1.008, 0.044, 192.0, 0.0, 0.0, 0.0, 0.0, 0.0, 0.0, 0.0, 0.0, 0.0, 1.695333278797127E9, 0.0, 2023-09-21 16:54:38.797
166.0, 7458.397145080226, 9543.770199271465, -24273.65920229664, -46891.09884394394, -31002.540111844555, 30160.326380768583, 187500.0, -36977.854308826245, -19593.382727310986, -31747.27788535093, -42168.59992368221, -55894.269751819345, -17089.875589594318, -23784.312460936602, -33429.24665561279, -44431.28936663739, 0.014, 1.008, 0.044, 192.0, 0.0, 0.0, 0.0, 0.0, 0.0, 0.0, 0.0, 0.0, 0.0, 1.695333278857274E9, 0.0, 2023-09-21 16:54:38.857
168.0, 7456.676060757168, 9540.529196325446, -24279.560062832843, -46894.988047479164, -31007.904530513828, 30160.30402902413, 187500.0, -36982.32465771731, -19595.394384311963, -31744.819193460848, -42171.148022550115, -55891.69930120699, -17096.312891997444, -23784.04424000314, -33439.72962376232, -44436.18439867311, 0.012, 1.012, 0.048, 192.0, 0.0, 48.0, 15.5, 80.0, 0.5, 64.0, 0.0, 0.0, 0.0, 1.695333278857299E9, 0.0, 2023-09-21 16:54:38.857
170.0, 7454.507941545003, 9543.03259170444, -24288.076077470312, -46898.18434693627, -31008.66448982531, 30172.373971029996, 187500.0, -36975.46267216953, -19602.68105300439, -31749.446004563095, -42180.17812731006, -55894.73913845291, -17103.06311882295, -23792.068516262596, -33440.444879584895, -44440.90061675318, 0.012, 1.012, 0.048, 192.0, 0.0, 0.0, 0.0, 0.0, 0.0, 0.0, 0.0, 0.0, 0.0, 1.695333278857309E9, 0.0, 2023-09-21 16:54:38.857
172.0, 7450.596386265324, 9541.13269342574, -24286.46675186953, -46897.8714225139, -31004.52941710108, 30161.756892413723, 187500.0, -36975.350913447255, -19608.35839609604, -31744.886248694213, -42181.832156399745, -55892.68277796302, -17099.598598432374, -23790.190969728348, -33444.11056567557, -44433.65865154966, 0.012, 1.012, 0.048, 192.0, 0.0, 0.0, 0.0, 0.0, 0.0, 0.0, 0.0, 0.0, 0.0, 1.695333278857319E9, 0.0, 2023-09-21 16:54:38.857
174.0, 7453.278595599962, 9543.837254504831, -24288.746629803973, -46901.80532953803, -31003.434181622768, 30166.31664828261, 187500.0, -36973.674532613106, -19609.096003663064, -31751.725882497536, -42186.593077968726, -55899.365949555155, -17103.57720894542, -23793.90135930793, -33438.52262956174, -44437.54785508488, 0.012, 1.012, 0.048, 192.0, 0.0, 0.0, 0.0, 0.0, 0.0, 0.0, 0.0, 0.0, 0.0, 1.695333278857328E9, 0.0, 2023-09-21 16:54:38.857
176.0, 7452.071601399375, 9540.953879470097, -24287.584339092296, -46905.56042260652, -31002.47305661119, 30158.001799345235, 187500.0, -36977.295515214864, -19606.682015261893, -31747.501402795486, -42180.60281045471, -55899.3435978107, -17099.799764132473, -23788.961623783307, -33439.64021678451, -44434.105686438765, 0.012, 1.012, 0.048, 192.0, 0.0, 0.0, 0.0, 0.0, 0.0, 0.0, 0.0, 0.0, 0.0, 1.695333278857338E9, 0.0, 2023-09-21 16:54:38.857
178.0, 7450.238758354039, 9540.819769003365, -24286.86908326973, -46904.39813189484, -31004.50706535662, 30154.49257546575, 187500.0, -36975.03798902488, -19608.26898911822, -31752.552897042384, -42184.089682589736, -55904.5962577577, -17101.722014155628, -23796.650623875932, -33434.52166730424, -44438.933663241114, 0.002, 1.01, 0.056, 192.0, 0.0, 8.0, 15.5, 72.0, 0.5, 96.0, 0.0, 0.0, 0.0, 1.695333278857348E9, 0.0, 2023-09-21 16:54:38.857
180.0, 7451.37869732126, 9542.429094604147, -24284.544501846376, -46902.02884698258, -31005.93757700176, 30165.82490990459, 187500.0, -36980.15653850514, -19604.759765238734, -31743.992178916, -42177.76413890888, -55896.01318788686, -17097.43047922021, -23799.064612277107, -33435.66160627146, -44434.21744516104, 0.002, 1.01, 0.056, 192.0, 0.0, 0.0, 0.0, 0.0, 0.0, 0.0, 0.0, 0.0, 0.0, 1.695333278857357E9, 0.0, 2023-09-21 16:54:38.857
182.0, 7444.226139095562, 9535.142425911716, -24282.242272167477, -46901.492405115656, -31006.18344619077, 30155.006665588222, 187500.0, -36986.01269555243, -19615.60036129956, -31753.42461507614, -42190.54933673732, -55904.17157461305, -17103.554857200965, -23808.698214137345, -33436.2427516273, -44445.48272436651, 0.002, 1.01, 0.056, 192.0, 0.0, 0.0, 0.0, 0.0, 0.0, 0.0, 0.0, 0.0, 0.0, 1.695333278916714E9, 0.0, 2023-09-21 16:54:38.916
184.0, 7447.601252508313, 9539.165739913671, -24271.558138317843, -46891.41176836631, -30999.52262634309, 30158.62764818998, 187500.0, -36982.39171295067, -19600.69174774787, -31743.522792282438, -42178.99348485393, -55893.33097855222, -17092.848371606873, -23798.014080287707, -33434.365205093054, -44437.324337640326, 0.002, 1.01, 0.056, 192.0, 0.0, 0.0, 0.0, 0.0, 0.0, 0.0, 0.0, 0.0, 0.0, 1.695333278916736E9, 0.0, 2023-09-21 16:54:38.916
186.0, 7445.209615851595, 9536.639992790222, -24273.70390578555, -46893.9151637453, -30998.76266703161, 30145.842450361546, 187500.0, -36985.78917810788, -19605.050337916655, -31746.607333017273, -42180.82632789926, -55892.70512970747, -17091.127287283813, -23798.975205299284, -33430.386594580006, -44441.21354117555, 0.002, 1.01, 0.056, 192.0, 0.0, 0.0, 0.0, 0.0, 0.0, 0.0, 0.0, 0.0, 0.0, 1.695333278916745E9, 0.0, 2023-09-21 16:54:38.916
188.0, 7446.170740863174, 9536.148254412205, -24281.57171983382, -46892.73052128917, -30998.405039120324, 30154.000837087733, 187500.0, -36980.29064897187, -19604.089212905077, -31747.9931411735, -42178.79231915383, -55895.92378090904, -17089.29444423848, -23799.84692333304, -33434.18639113741, -44439.89478825269, 0.002, 1.01, 0.056, 192.0, 0.0, 0.0, 15.5, 72.0, 0.5, 88.0, 0.0, 0.0, 0.0, 1.695333278916755E9, 0.0, 2023-09-21 16:54:38.916
190.0, 7449.054115897909, 9538.02580094645, -24277.57075757632, -46884.214506651704, -30991.028963450073, 30136.49942117923, 187500.0, -36971.03702676738, -19603.105736149042, -31745.825021961336, -42178.18882205353, -55893.576847741235, -17087.95333957116, -23801.32213846709, -33431.61594052505, -44433.88216899421, 0.002, 1.01, 0.056, 192.0, 0.0, 0.0, 0.0, 0.0, 0.0, 0.0, 0.0, 0.0, 0.0, 1.695333278916764E9, 0.0, 2023-09-21 16:54:38.916
192.0, 7439.152293104207, 9530.247393876005, -24289.23836818199, -46882.60518105092, -30999.209701920714, 30156.995970844746, 187500.0, -36967.93013428809, -19611.174715897407, -31749.602466774282, -42187.44244425803, -55897.57780999873, -17094.927083841216, -23799.824571588586, -33431.5935887806, -44426.79666600188, 0.002, 1.01, 0.056, 192.0, 0.0, 0.0, 0.0, 0.0, 0.0, 0.0, 0.0, 0.0, 0.0, 1.695333278916773E9, 0.0, 2023-09-21 16:54:38.916
194.0, 7441.7227437165675, 9532.996658444006, -24281.32585064481, -46869.35059658893, -30995.588719318956, 30147.027092817676, 187500.0, -36963.392730163665, -19610.571218797115, -31752.888173209212, -42191.979848382456, -55899.5447635108, -17099.71035715465, -23804.98782455776, -33430.20778062437, -44422.39337234418, 0.002, 1.01, 0.056, 192.0, 0.0, 0.0, 0.0, 0.0, 0.0, 0.0, 0.0, 0.0, 0.0, 1.695333278916784E9, 0.0, 2023-09-21 16:54:38.916
196.0, 7447.109514130297, 9541.736190526031, -24279.493007599474, -46860.99104416264, -30994.38172511837, 30172.39632277445, 187500.0, -36958.96708476151, -19604.715061749826, -31738.583056757816, -42181.698045933015, -55885.753737181876, -17094.56945592993, -23790.570949384088, -33423.97164392134, -44410.2340233605, 0.002, 1.01, 0.056, 192.0, 0.0, 0.0, 0.0, 0.0, 0.0, 0.0, 0.0, 0.0, 0.0, 1.695333278976538E9, 0.0, 2023-09-21 16:54:38.976
198.0, 7441.365115805283, 9533.466045077568, -24283.672783812617, -46876.950189703726, -31001.355469388425, 30158.62764818998, 187500.0, -36978.36839894872, -19612.426413586905, -31750.742405741505, -42187.509499491396, -55893.26392331886, -17104.739499657095, -23806.686557136367, -33426.966777678346, -44425.52261656793, 0.002, 1.01, 0.056, 192.0, 0.0, 0.0, 15.5, 88.0, 0.5, 56.0, 0.0, 0.0, 0.0, 1.695333278976562E9, 0.0, 2023-09-21 16:54:38.976
200.0, 7453.524464788969, 9537.534062568435, -24281.504664600452, -46880.2135443942, -30996.438085608257, 30160.527546468682, 187500.0, -36970.79115757837, -19607.576085040106, -31748.99896967399, -42180.73692092144, -55892.07928086272, -17095.731746641606, -23809.5699321711, -33428.285530601206, -44426.08141017931, 0.002, 1.01, 0.056, 192.0, 0.0, 0.0, 0.0, 0.0, 0.0, 0.0, 0.0, 0.0, 0.0, 1.695333278976571E9, 0.0, 2023-09-21 16:54:38.976
202.0, 7450.3505170763165, 9533.488396822024, -24280.744705288973, -46890.5176985881, -30995.722829785685, 30130.039767031645, 187500.0, -36979.530689660394, -19610.325349608105, -31756.66561802216, -42186.07898784626, -55901.82464144524, -17095.709394897152, -23819.337644498068, -33424.19516136589, -44431.42347710413, 0.002, 1.01, 0.056, 192.0, 0.0, 0.0, 0.0, 0.0, 0.0, 0.0, 0.0, 0.0, 0.0, 1.69533327897658E9, 0.0, 2023-09-21 16:54:38.976
204.0, 7450.372868820771, 9530.02387643145, -24285.930310002605, -46891.30000964404, -30996.75101003063, 30133.43723218885, 187500.0, -36981.47529142801, -19608.805430985147, -31759.079606423333, -42188.1577000806, -55905.26681009136, -17093.72008964063, -23821.52811545469, -33420.596530508585, -44438.710145796555, 0.002, 1.01, 0.056, 192.0, 0.0, 0.0, 0.0, 0.0, 0.0, 0.0, 0.0, 0.0, 0.0, 1.69533327897662E9, 0.0, 2023-09-21 16:54:38.976
206.0, 7439.3758105487605, 9519.049169903896, -24290.3336036603, -46898.36316089191, -31002.18248393327, 30123.356595439505, 187500.0, -36994.61811716773, -19619.958951468343, -31760.42071109065, -42196.47254901798, -55910.02773166034, -17092.20017101767, -23823.539772455668, -33427.927902689924, -44444.63335807721, 0.002, 1.01, 0.056, 192.0, 0.0, 0.0, 0.0, 0.0, 0.0, 0.0, 0.0, 0.0, 0.0, 1.695333278976629E9, 0.0, 2023-09-21 16:54:38.976
208.0, 7439.800493693411, 9522.580745527834, -24288.813685037338, -46894.13868118986, -31003.32242290049, 30129.39156644244, 187500.0, -36992.74057063348, -19613.387538598483, -31765.718074526558, -42201.05465663131, -55917.18028988603, -17091.171990772724, -23827.205458546337, -33434.38755683751, -44452.16589595865, 0.008, 1.018, 0.052000000000000005, 192.0, 0.0, 32.0, 15.5, 104.0, 0.5, 80.0, 0.0, 0.0, 0.0, 1.695333278976638E9, 0.0, 2023-09-21 16:54:38.976
210.0, 7441.342764060827, 9521.396103071702, -24278.129551187703, -46889.95890497672, -30999.857902509917, 30107.62096734297, 187500.0, -36988.85136709826, -19611.711157764337, -31762.633533791726, -42199.244165330434, -55917.6496765196, -17087.930987826705, -23822.444536977357, -33438.74614700629, -44449.14841045719, 0.008, 1.018, 0.052000000000000005, 192.0, 0.0, 0.0, 0.0, 0.0, 0.0, 0.0, 0.0, 0.0, 0.0, 1.695333278976648E9, 0.0, 2023-09-21 16:54:38.976
212.0, 7434.883109913244, 9511.449576789091, -24289.70775481555, -46894.74217829015, -31015.302957928536, 30127.134040252455, 187500.0, -36995.37807647921, -19605.78794548368, -31758.744330256504, -42192.87391816067, -55912.933458439526, -17085.360537214343, -23806.977129814284, -33430.3418910911, -44444.20867493256, 0.008, 1.018, 0.052000000000000005, 192.0, 0.0, 0.0, 0.0, 0.0, 0.0, 0.0, 0.0, 0.0, 0.0, 1.695333279036919E9, 0.0, 2023-09-21 16:54:39.036
214.0, 7450.730496732056, 9525.061789162373, -24282.063458211836, -46882.42636709528, -31009.066821225504, 30113.320662179074, 187500.0, -36988.784311864896, -19622.88702999199, -31770.121368184256, -42205.815578200294, -55924.44460683401, -17109.120441570336, -23819.337644498068, -33449.58674306712, -44454.53518087092, 0.008, 1.018, 0.052000000000000005, 192.0, 0.0, 0.0, 0.0, 0.0, 0.0, 0.0, 0.0, 0.0, 0.0, 1.695333279036943E9, 0.0, 2023-09-21 16:54:39.036
216.0, 7460.118229403285, 9536.058847434384, -24277.99544072097, -46870.84816346743, -31002.80833277802, 30110.59374935553, 187500.0, -36976.46850067002, -19594.746183722757, -31746.070891150346, -42180.06636858778, -55897.77897569883, -17088.758002371553, -23797.879969820973, -33425.87154220004, -44430.77527651493, 0.008, 1.018, 0.052000000000000005, 192.0, 0.0, 0.0, 0.0, 0.0, 0.0, 0.0, 0.0, 0.0, 0.0, 1.695333279036954E9, 0.0, 2023-09-21 16:54:39.036
218.0, 7459.067697413886, 9536.572937556855, -24276.14024593118, -46861.99687266313, -30996.996879219638, 30105.743420808725, 187500.0, -36965.38203542019, -19601.11643089252, -31746.13794638371, -42185.16256632359, -55898.22601058793, -17095.57528443042, -23802.931464067875, -33427.927902689924, -44424.20386364507, 0.014, 1.02, 0.052000000000000005, 192.0, 0.0, 56.0, 15.5, 112.0, 0.5, 80.0, 0.0, 0.0, 0.0, 1.695333279036966E9, 0.0, 2023-09-21 16:54:39.036
220.0, 7450.372868820771, 9523.787739728421, -24291.674708327617, -46872.07750941247, -31012.03960323806, 30118.260397703696, 187500.0, -36981.96702980602, -19607.68784376238, -31750.787109230416, -42191.3092960488, -55901.66817923405, -17100.917351355238, -23809.011138559716, -33422.87640844302, -44424.31562236734, 0.014, 1.02, 0.052000000000000005, 192.0, 0.0, 0.0, 0.0, 0.0, 0.0, 0.0, 0.0, 0.0, 0.0, 1.695333279036976E9, 0.0, 2023-09-21 16:54:39.036
222.0, 7452.161008377196, 9522.60309727229, -24290.80299029386, -46873.731538502165, -31011.503161371133, 30108.71620282128, 187500.0, -36988.98547756499, -19612.895800220467, -31753.871649965247, -42192.896269905126, -55903.366911812656, -17105.231238035114, -23821.170487543404, -33438.03089118372, -44433.74805852748, 0.014, 1.02, 0.052000000000000005, 192.0, 0.0, 0.0, 0.0, 0.0, 0.0, 0.0, 0.0, 0.0, 0.0, 1.695333279036986E9, 0.0, 2023-09-21 16:54:39.036
224.0, 7464.208598638606, 9534.494225322513, -24286.46675186953, -46864.52261978658, -31001.75780078862, 30104.357612652497, 187500.0, -36973.40631167964, -19609.20776238534, -31753.692836009603, -42191.80103442682, -55901.131737367126, -17103.085470567403, -23822.221019532804, -33431.213609124854, -44433.99392771649, 0.014, 1.02, 0.052000000000000005, 192.0, 0.0, 0.0, 0.0, 0.0, 0.0, 0.0, 0.0, 0.0, 0.0, 1.695333279036997E9, 0.0, 2023-09-21 16:54:39.036
226.0, 7465.348537605827, 9536.192957901116, -24286.109123958246, -46865.59550352043, -30996.929823986273, 30103.57530159656, 187500.0, -36977.51903265942, -19597.78602096868, -31745.46739405005, -42182.815633155784, -55892.90629540757, -17094.077717551914, -23817.035414819173, -33431.28066435822, -44426.26022413495, 0.014, 1.02, 0.052000000000000005, 192.0, 0.0, 0.0, 0.0, 0.0, 0.0, 0.0, 0.0, 0.0, 0.0, 1.695333279097019E9, 0.0, 2023-09-21 16:54:39.097
228.0, 7458.218331124584, 9525.307658351381, -24287.696097814573, -46873.12804140187, -31002.60716707792, 30105.34108940853, 187500.0, -36981.8776228282, -19603.843343716067, -31750.675350508136, -42185.63195295715, -55896.504926264875, -17089.85323784986, -23821.72928115479, -33425.67037649994, -44427.31075612435, 0.018000000000000002, 1.016, 0.052000000000000005, 192.0, 0.0, 72.0, 15.5, 96.0, 0.5, 80.0, 0.0, 0.0, 0.0, 1.695333279097043E9, 0.0, 2023-09-21 16:54:39.097
230.0, 7457.95011019112, 9526.358190340781, -24283.963356490538, -46874.5138495581, -30997.913300742308, 30110.034955744144, 187500.0, -36979.70950361604, -19607.039643173175, -31761.53829831342, -42193.70093270551, -55908.37370257064, -17096.84933386437, -23831.04995859265, -33432.21943762535, -44433.770410271936, 0.018000000000000002, 1.016, 0.052000000000000005, 192.0, 0.0, 0.0, 0.0, 0.0, 0.0, 0.0, 0.0, 0.0, 0.0, 1.69533327909706E9, 0.0, 2023-09-21 16:54:39.097
232.0, 7467.293139373439, 9535.835329989832, -24272.340449373776, -46870.289369856044, -30989.531396571565, 30092.846464258015, 187500.0, -36979.10600651574, -19597.428393057395, -31753.37991158723, -42182.83798490024, -55899.164783855056, -17083.32652846891, -23831.742862670766, -33423.390498565495, -44431.55758757086, 0.018000000000000002, 1.016, 0.052000000000000005, 192.0, 0.0, 0.0, 0.0, 0.0, 0.0, 0.0, 0.0, 0.0, 0.0, 1.695333279097075E9, 0.0, 2023-09-21 16:54:39.097
234.0, 7460.788781736945, 9527.386370585726, -24276.36376337573, -46876.391396092346, -30995.387553618857, 30104.24585393022, 187500.0, -36986.683247886096, -19594.299148833652, -31754.318684854352, -42180.379293010155, -55900.841164689205, -17078.94558655567, -23827.361920757525, -33427.52557128973, -44434.8879974947, 0.018000000000000002, 1.016, 0.052000000000000005, 192.0, 0.0, 0.0, 0.0, 0.0, 0.0, 0.0, 0.0, 0.0, 0.0, 1.69533327909709E9, 0.0, 2023-09-21 16:54:39.097
236.0, 7455.357307834305, 9523.139539139216, -24277.838978509782, -46879.811212994005, -30997.37685887538, 30090.0524962011, 187500.0, -36989.41016070964, -19602.993977426766, -31758.05142617839, -42186.01193261289, -55904.17157461305, -17079.102048766857, -23832.94985687135, -33430.07367015763, -44439.335994641304, 0.018000000000000002, 1.016, 0.052000000000000005, 192.0, 0.0, 0.0, 0.0, 0.0, 0.0, 0.0, 0.0, 0.0, 0.0, 1.695333279097104E9, 0.0, 2023-09-21 16:54:39.097
238.0, 7460.766429992489, 9528.861585719775, -24276.09554244227, -46870.445832067235, -30994.940518729753, 30105.76577255318, 187500.0, -36979.64244838267, -19603.329253593594, -31758.47610932304, -42189.58821172574, -55906.02676940284, -17083.23712149109, -23837.599019718054, -33436.35451034958, -44439.067773707844, 0.012, 1.012, 0.046, 192.0, 0.0, 48.0, 15.5, 80.0, 0.5, 56.0, 0.0, 0.0, 0.0, 1.695333279097118E9, 0.0, 2023-09-21 16:54:39.097
240.0, 7465.52735156147, 9532.974306699552, -24266.730161515494, -46862.265093596594, -30993.4653035957, 30095.32750789255, 187500.0, -36978.43545418209, -19601.541114037173, -31752.642304020206, -42187.218926813475, -55899.70122572198, -17077.179798743702, -23834.29096153867, -33428.352585834575, -44430.685869537105, 0.012, 1.012, 0.046, 192.0, 0.0, 0.0, 0.0, 0.0, 0.0, 0.0, 0.0, 0.0, 0.0, 1.69533327909713E9, 0.0, 2023-09-21 16:54:39.097
242.0, 7478.446659856637, 9550.051039463406, -24265.769036503916, -46849.99398589063, -30996.013402463606, 30116.33814768054, 187500.0, -36972.08755875678, -19594.299148833652, -31735.453812534073, -42177.294752275324, -55885.530219737324, -17070.273109707014, -23820.209362531827, -33420.37301306403, -44418.90650020916, 0.012, 1.012, 0.046, 192.0, 0.0, 0.0, 0.0, 0.0, 0.0, 0.0, 0.0, 0.0, 0.0, 1.695333279157341E9, 0.0, 2023-09-21 16:54:39.157
244.0, 7468.746002763034, 9532.750789254998, -24259.108216656237, -46851.89388416933, -31005.624652579387, 30116.91929303638, 187500.0, -36987.24204149748, -19592.376898810497, -31729.642358975692, -42174.09845281821, -55879.87522839013, -17073.84938881986, -23819.136478797973, -33420.41771655294, -44416.626622274714, 0.012, 1.012, 0.046, 192.0, 0.0, 0.0, 0.0, 0.0, 0.0, 0.0, 0.0, 0.0, 0.0, 1.695333279157372E9, 0.0, 2023-09-21 16:54:39.157
246.0, 7468.321319618383, 9528.97334444205, -24268.071266182815, -46858.44294529474, -31018.812181808018, 30139.628665402972, 187500.0, -36998.57437593632, -19590.186427853874, -31752.821117975847, -42173.76317665138, -55890.62641747313, -17081.47133367912, -23828.5242114692, -33421.937635175906, -44424.248567133975, 0.012, 1.012, 0.046, 192.0, 0.0, 0.0, 0.0, 0.0, 0.0, 0.0, 0.0, 0.0, 0.0, 1.69533327915739E9, 0.0, 2023-09-21 16:54:39.157
248.0, 7475.42917435517, 9533.376638099748, -24266.998382448957, -46861.058099396, -31014.252425939136, 30113.63358660145, 187500.0, -37003.06707657183, -19588.51004701973, -31759.727807012536, -42174.858412129695, -55893.554495996774, -17084.421763947223, -23843.43282502089, -33434.789888237705, -44440.90061675318, 0.008, 1.01, 0.044, 192.0, 0.0, 32.0, 15.5, 72.0, 0.5, 48.0, 0.0, 0.0, 0.0, 1.695333279157432E9, 0.0, 2023-09-21 16:54:39.157
250.0, 7483.006415725519, 9545.826559761354, -24268.853577238748, -46855.53721851554, -31004.66352756781, 30127.134040252455, 187500.0, -36985.342143218775, -19579.144666092954, -31747.70256849558, -42167.16941203707, -55881.8421819022, -17073.62587137531, -23834.268609794213, -33431.45947831386, -44436.29615739539, 0.008, 1.01, 0.044, 192.0, 0.0, 0.0, 0.0, 0.0, 0.0, 0.0, 0.0, 0.0, 0.0, 1.695333279157443E9, 0.0, 2023-09-21 16:54:39.157
252.0, 7477.664348800701, 9539.948050969608, -24270.105274928246, -46860.521657529076, -31001.489579855155, 30114.617063357484, 187500.0, -36980.91649781662, -19579.88227365998, -31741.488783537006, -42171.3044847613, -55881.21633305745, -17076.486894665588, -23831.452289992845, -33428.33023409012, -44430.328241625815, 0.008, 1.01, 0.044, 192.0, 0.0, 0.0, 0.0, 0.0, 0.0, 0.0, 0.0, 0.0, 0.0, 1.695333279157452E9, 0.0, 2023-09-21 16:54:39.157
254.0, 7483.520505847991, 9542.920832982163, -24275.55910057534, -46857.50417202761, -30994.64994605183, 30126.10586000751, 187500.0, -36967.39369242117, -19579.144666092954, -31742.62872250423, -42175.193688296524, -55882.378623769124, -17081.158409256746, -23833.709816182833, -33423.14462937649, -44429.97061371453, 0.008, 1.01, 0.044, 192.0, 0.0, 0.0, 0.0, 0.0, 0.0, 0.0, 0.0, 0.0, 0.0, 1.695333279157462E9, 0.0, 2023-09-21 16:54:39.157
0.0, 7482.067642458397, 9543.725495782553, -24267.84774873826, -46856.27482608257, -30989.643155293845, 30111.9572057673, 187500.0, -36966.521974387404, -19584.1738085954, -31742.38285331522, -42177.428862742054, -55882.378623769124, -17082.343051712876, -23838.046054607163, -33418.71898397434, -44423.39920084467, 0.008, 1.01, 0.044, 192.0, 0.0, 0.0, 0.0, 0.0, 0.0, 0.0, 0.0, 0.0, 0.0, 1.695333279216669E9, 0.0, 2023-09-21 16:54:39.216
2.0, 7465.817924239389, 9528.034571174929, -24284.700964057563, -46872.16691639029, -31005.69170781275, 30131.35851995451, 187500.0, -36983.55400366235, -19592.622767999503, -31749.356597585276, -42187.59890646922, -55890.492307006396, -17089.137982027292, -23847.56789774512, -33415.52268451723, -44429.32241312533, 0.004, 1.014, 0.038, 192.0, 0.0, 16.0, 15.5, 88.0, 0.5, 24.0, 0.0, 0.0, 0.0, 1.69533327921669E9, 0.0, 2023-09-21 16:54:39.216
4.0, 7462.509866060003, 9525.821748473852, -24283.113990201236, -46873.55272454652, -31002.98714673366, 30107.218635942776, 187500.0, -36991.53357643289, -19597.763669224223, -31757.62674303374, -42195.48907226194, -55901.958751911974, -17095.329415241413, -23862.72238048582, -33428.844324212594, -44439.760677785955, 0.004, 1.014, 0.038, 192.0, 0.0, 0.0, 0.0, 0.0, 0.0, 0.0, 0.0, 0.0, 0.0, 1.6953332792167E9, 0.0, 2023-09-21 16:54:39.216
6.0, 7459.760601492, 9523.877146706242, -24286.22088268052, -46877.19605889274, -31005.647004323844, 30111.01843250018, 187500.0, -36994.17108227862, -19610.0794804191, -31765.561612315374, -42205.30148807782, -55911.43589156102, -17100.403261232765, -23867.192729376882, -33427.21264686735, -44445.08039296632, 0.004, 1.014, 0.038, 192.0, 0.0, 0.0, 0.0, 0.0, 0.0, 0.0, 0.0, 0.0, 0.0, 1.69533327921671E9, 0.0, 2023-09-21 16:54:39.216
8.0, 7467.38254635126, 9531.096760165306, -24272.04987669586, -46867.093070398936, -30993.822931506984, 30094.075810203056, 187500.0, -36983.68811412908, -19599.64121575847, -31761.71711226906, -42198.64066823014, -55906.652618247586, -17092.870723351327, -23867.326839843612, -33430.20778062437, -44440.65474756417, 0.004, 1.014, 0.038, 192.0, 0.0, 0.0, 0.0, 0.0, 0.0, 0.0, 0.0, 0.0, 0.0, 1.695333279216719E9, 0.0, 2023-09-21 16:54:39.216
10.0, 7458.911235202699, 9522.178414127638, -24273.770961018916, -46865.4613930537, -30993.353544873426, 30103.37413589646, 187500.0, -36982.43641643959, -19600.378823325496, -31758.409054089672, -42196.74076995144, -55903.67983623503, -17083.170066257724, -23862.901194441463, -33414.025117638725, -44430.70822128156, 0.004, 1.014, 0.038, 192.0, 0.0, 0.0, 0.0, 0.0, 0.0, 0.0, 0.0, 0.0, 0.0, 1.695333279216729E9, 0.0, 2023-09-21 16:54:39.216
12.0, 7458.933586947154, 9522.804262972388, -24268.048914438357, -46857.83944819444, -30986.692725025743, 30102.927101007357, 187500.0, -36975.59678263626, -19601.004672170242, -31757.67144652265, -42200.54056650884, -55905.602086258186, -17080.778429601007, -23865.136368886993, -33415.56738800614, -44425.8355409903, 0.008, 1.01, 0.038, 192.0, 0.0, 32.0, 15.5, 72.0, 0.5, 24.0, 0.0, 0.0, 0.0, 1.695333279216738E9, 0.0, 2023-09-21 16:54:39.216
14.0, 7444.695525729124, 9509.25910583247, -24288.746629803973, -46872.01045417911, -31006.429315379777, 30120.227351215763, 187500.0, -36993.43347471159, -19608.64896877396, -31770.32253388435, -42210.710610236005, -55915.28039160733, -17086.701641881664, -23868.19855787737, -33416.953196162365, -44433.09985793827, 0.008, 1.01, 0.038, 192.0, 0.0, 0.0, 0.0, 0.0, 0.0, 0.0, 0.0, 0.0, 0.0, 1.695333279216782E9, 0.0, 2023-09-21 16:54:39.216
16.0, 7453.368002577782, 9512.5448122674, -24290.534769360398, -46867.24953261013, -31011.61492009341, 30114.01356625719, 187500.0, -36998.552024191864, -19609.319521107616, -31774.23408916403, -42214.39864807113, -55922.2988393663, -17093.697737896175, -23873.67473526892, -33439.79667899569, -44443.71693655455, 0.008, 1.01, 0.038, 192.0, 0.0, 0.0, 0.0, 0.0, 0.0, 0.0, 0.0, 0.0, 0.0, 1.69533327927662E9, 0.0, 2023-09-21 16:54:39.276
18.0, 7474.5351045769585, 9528.79453048641, -24283.359859390242, -46855.53721851554, -31011.32434741549, 30105.989289997735, 187500.0, -36999.5802044368, -19597.74131747977, -31761.76181575797, -42198.327743807764, -55907.21141185897, -17087.171028515226, -23861.738903729787, -33438.18735339491, -44441.50411385347, 0.008, 1.01, 0.038, 192.0, 0.0, 0.0, 0.0, 0.0, 0.0, 0.0, 0.0, 0.0, 0.0, 1.695333279276643E9, 0.0, 2023-09-21 16:54:39.276
20.0, 7478.603122067824, 9535.522405567457, -24285.79619953587, -46856.4089365493, -31017.00169050714, 30115.62289185797, 187500.0, -37009.862006886244, -19599.35064308055, -31755.1456993992, -42188.11299659169, -55897.15312685408, -17092.28957799549, -23856.5309472717, -33444.11056567557, -44450.57892210232, 0.008, 1.01, 0.038, 192.0, 0.0, 0.0, 0.0, 0.0, 0.0, 0.0, 0.0, 0.0, 0.0, 1.695333279276653E9, 0.0, 2023-09-21 16:54:39.276
22.0, 7488.460241372614, 9541.84794924831, -24281.057629711348, -46856.34188131594, -31011.41375439331, 30105.72106906427, 187500.0, -36998.686134658594, -19579.92697714889, -31741.868763192746, -42174.567839451774, -55883.89854239208, -17083.90767382475, -23853.804034448152, -33437.11446966106, -44448.36609940125, 0.006, 1.014, 0.036000000000000004, 192.0, 0.0, 24.0, 15.5, 88.0, 0.5, 16.0, 0.0, 0.0, 0.0, 1.695333279276663E9, 0.0, 2023-09-21 16:54:39.276
24.0, 7491.276561173983, 9548.061734206884, -24277.704868043053, -46852.542084758534, -30998.650908309333, 30107.91154002089, 187500.0, -36978.480157670994, -19587.280701074684, -31743.23221960452, -42180.714569176984, -55887.38541452711, -17090.47908669461, -23858.274383339212, -33438.500277817286, -44442.8899220097, 0.006, 1.014, 0.036000000000000004, 192.0, 0.0, 0.0, 0.0, 0.0, 0.0, 0.0, 0.0, 0.0, 0.0, 1.695333279276673E9, 0.0, 2023-09-21 16:54:39.276
26.0, 7492.796479796944, 9548.106437695795, -24276.967260476027, -46854.911369670794, -30991.118370427892, 30096.176874181852, 187500.0, -36974.166270991125, -19579.703459704335, -31739.47712653603, -42176.467737730476, -55884.52439123683, -17079.66084237824, -23855.77098796022, -33415.768553706235, -44426.6849072796, 0.006, 1.014, 0.036000000000000004, 192.0, 0.0, 0.0, 0.0, 0.0, 0.0, 0.0, 0.0, 0.0, 0.0, 1.695333279276682E9, 0.0, 2023-09-21 16:54:39.276
28.0, 7482.604084325324, 9539.523367824957, -24290.3336036603, -46864.52261978658, -30996.102809441425, 30110.59374935553, 187500.0, -36972.24402096796, -19583.34679405055, -31743.56749577135, -42183.57559246726, -55891.72165295144, -17080.063173778435, -23857.96145891684, -33417.2884723292, -44422.10279966627, 0.006, 1.014, 0.036000000000000004, 192.0, 0.0, 0.0, 0.0, 0.0, 0.0, 0.0, 0.0, 0.0, 0.0, 1.695333279276691E9, 0.0, 2023-09-21 16:54:39.276
30.0, 7476.278540644472, 9530.627373531745, -24288.254891425957, -46869.90939020031, -30994.113504184905, 30090.61128981248, 187500.0, -36976.26733496992, -19594.947349422855, -31755.480975566028, -42200.24999383092, -55906.11617638066, -17088.065098293435, -23874.211177135847, -33421.512952031255, -44429.03184044741, 0.006, 1.014, 0.036000000000000004, 192.0, 0.0, 0.0, 0.0, 0.0, 0.0, 0.0, 0.0, 0.0, 0.0, 1.695333279336808E9, 0.0, 2023-09-21 16:54:39.336
32.0, 7472.881075487266, 9525.732341496032, -24283.270452412424, -46866.69073899875, -30989.732562271663, 30096.310984648586, 187500.0, -36972.93692504608, -19601.518762292715, -31761.828870991336, -42207.223738100976, -55913.715769495466, -17090.389679716787, -23879.6873545274, -33423.36814682104, -44433.85981724976, 0.004, 1.018, 0.038, 192.0, 0.0, 16.0, 15.5, 104.0, 0.5, 24.0, 0.0, 0.0, 0.0, 1.695333279336836E9, 0.0, 2023-09-21 16:54:39.336
34.0, 7483.72167154809, 9528.928640953141, -24262.908013213637, -46854.97842490416, -30977.17088188778, 30068.61717326846, 187500.0, -36964.64442785316, -19593.673299988903, -31750.80946097487, -42195.15379609511, -55901.15408911158, -17073.581167886397, -23873.205348635358, -33409.59947223657, -44421.29813686587, 0.004, 1.018, 0.038, 192.0, 0.0, 0.0, 0.0, 0.0, 0.0, 0.0, 0.0, 0.0, 0.0, 1.695333279336846E9, 0.0, 2023-09-21 16:54:39.336
36.0, 7456.407839823704, 9498.753785938476, -24287.696097814573, -46881.621704294885, -31005.93757700176, 30107.509208620693, 187500.0, -36992.114721788734, -19589.53822726467, -31759.303123867885, -42201.92637466507, -55910.96650492746, -17079.549083655966, -23875.753447503263, -33405.844379168084, -44425.12028516773, 0.004, 1.018, 0.038, 192.0, 0.0, 0.0, 0.0, 0.0, 0.0, 0.0, 0.0, 0.0, 0.0, 1.695333279336888E9, 0.0, 2023-09-21 16:54:39.336
38.0, 7460.207636381107, 9498.239695816004, -24284.879778013204, -46878.64892228233, -30997.622728064387, 30084.889243231923, 187500.0, -36994.97574507901, -19615.533306066194, -31780.067894466865, -42225.57452029878, -55934.07820869425, -17098.72688039862, -23897.76991579174, -33421.915283431445, -44445.48272436651, 0.004, 1.018, 0.038, 192.0, 0.0, 0.0, 0.0, 0.0, 0.0, 0.0, 0.0, 0.0, 0.0, 1.695333279336897E9, 0.0, 2023-09-21 16:54:39.336
40.0, 7472.299930131428, 9508.566201754356, -24284.052763468357, -46866.534276787555, -30990.492521583146, 30102.591824840525, 187500.0, -36981.765864105924, -19600.110602392033, -31765.718074526558, -42211.627031758675, -55921.471824821456, -17085.00290930306, -23879.530892316212, -33411.387611793, -44434.44096260559, 0.004, 1.018, 0.038, 192.0, 0.0, 0.0, 0.0, 0.0, 0.0, 0.0, 0.0, 0.0, 0.0, 1.695333279336906E9, 0.0, 2023-09-21 16:54:39.336
42.0, 7490.829526284877, 9526.827576974341, -24259.443492823066, -46839.15338982981, -30967.93961142774, 30074.965068693768, 187500.0, -36965.58320112029, -19588.554750508636, -31748.52958304043, -42195.757293195406, -55903.52337402384, -17069.200225973156, -23863.974078175317, -33400.122332587525, -44420.31466010984, 0.014, 1.014, 0.04, 192.0, 0.0, 56.0, 15.5, 88.0, 0.5, 32.0, 0.0, 0.0, 0.0, 1.695333279336916E9, 0.0, 2023-09-21 16:54:39.336
44.0, 7478.357252878815, 9517.149271625194, -24274.419161608123, -46843.13200034285, -30982.08826566795, 30114.259435446198, 187500.0, -36972.959276790534, -19580.709288204824, -31741.265266092454, -42187.53185123585, -55891.92281865154, -17064.036973003982, -23847.254973322746, -33390.131102816, -44413.78795072889, 0.014, 1.014, 0.04, 192.0, 0.0, 0.0, 0.0, 0.0, 0.0, 0.0, 0.0, 0.0, 0.0, 1.695333279336926E9, 0.0, 2023-09-21 16:54:39.336
46.0, 7480.950055235631, 9519.719722237554, -24277.23548140949, -46849.614006234886, -30989.106713426914, 30097.830903271548, 187500.0, -36985.36449496323, -19596.02023315671, -31749.691873752105, -42198.484206018955, -55899.25419083288, -17078.364441199832, -23858.54260427268, -33405.62086172353, -44426.26022413495, 0.014, 1.014, 0.04, 192.0, 0.0, 0.0, 0.0, 0.0, 0.0, 0.0, 0.0, 0.0, 0.0, 1.695333279397224E9, 0.0, 2023-09-21 16:54:39.397
48.0, 7494.852840286832, 9534.717742767065, -24278.688344799084, -46846.954148644705, -30987.452684337222, 30102.234196929243, 187500.0, -36979.73185536049, -19585.894892918455, -31730.536428753905, -42188.98471462545, -55887.05013836028, -17076.173970243213, -23853.468758281324, -33411.007632137254, -44432.47400909353, 0.014, 1.014, 0.04, 192.0, 0.0, 0.0, 0.0, 0.0, 0.0, 0.0, 0.0, 0.0, 0.0, 1.69533327939725E9, 0.0, 2023-09-21 16:54:39.397
50.0, 7496.395110654249, 9532.996658444006, -24284.253929168455, -46858.59940750592, -30991.297184383537, 30091.773580524157, 187500.0, -36987.80083510886, -19588.01830864171, -31741.868763192746, -42188.98471462545, -55890.96169363996, -17076.978633043604, -23860.15192987346, -33416.550864762175, -44435.89382599519, 0.014, 1.014, 0.04, 192.0, 0.0, 0.0, 0.0, 0.0, 0.0, 0.0, 0.0, 0.0, 0.0, 1.695333279397259E9, 0.0, 2023-09-21 16:54:39.397
52.0, 7500.5972386118465, 9538.919870724663, -24291.56294960534, -46861.41572730729, -30992.79475126204, 30107.509208620693, 187500.0, -36984.20220425155, -19587.861846430522, -31735.163239856156, -42186.034284357345, -55887.407766271564, -17078.297385966467, -23859.77195021772, -33411.87935017102, -44437.57020682934, 0.018000000000000002, 1.014, 0.042, 192.0, 0.0, 72.0, 15.5, 88.0, 0.5, 40.0, 0.0, 0.0, 0.0, 1.695333279397269E9, 0.0, 2023-09-21 16:54:39.397
54.0, 7491.589485596358, 9528.146329897205, -24298.648452597674, -46874.156221646816, -30998.449742609235, 30101.496589362217, 187500.0, -36995.065152056835, -19590.074669131598, -31741.62289400374, -42187.91183089159, -55892.794536685295, -17086.321662225924, -23869.96434568934, -33417.71315547385, -44441.235892920005, 0.018000000000000002, 1.014, 0.042, 192.0, 0.0, 0.0, 0.0, 0.0, 0.0, 0.0, 0.0, 0.0, 0.0, 1.695333279397278E9, 0.0, 2023-09-21 16:54:39.397
56.0, 7498.5408781219585, 9536.79645500141, -24288.545464103874, -46864.500268042124, -30993.17473091778, 30108.49268537673, 187500.0, -36981.09531177227, -19589.649985986947, -31743.791013215905, -42186.99540936892, -55894.605027986174, -17083.795915102473, -23876.222834136825, -33412.32638506012, -44434.77623877242, 0.018000000000000002, 1.014, 0.042, 192.0, 0.0, 0.0, 0.0, 0.0, 0.0, 0.0, 0.0, 0.0, 0.0, 1.695333279397321E9, 0.0, 2023-09-21 16:54:39.397
58.0, 7493.176459452684, 9535.254184633994, -24290.355955404753, -46868.94826518873, -30993.13002742887, 30097.562682338084, 187500.0, -36987.577317664305, -19594.992052911766, -31754.832774976825, -42194.72911295046, -55903.23280134593, -17091.66372915074, -23884.38122086301, -33419.054260141165, -44436.67613705112, 0.018000000000000002, 1.014, 0.042, 192.0, 0.0, 0.0, 0.0, 0.0, 0.0, 0.0, 0.0, 0.0, 0.0, 1.69533327939733E9, 0.0, 2023-09-21 16:54:39.397
60.0, 7484.727500048578, 9534.471873578057, -24295.47450488502, -46871.13873614535, -30997.153341430825, 30105.028164986154, 187500.0, -36992.00296306646, -19594.813238956125, -31749.62481851874, -42195.39966528412, -55899.67887397753, -17086.835752348394, -23882.123694673028, -33414.06982112763, -44432.87634049372, 0.018000000000000002, 1.014, 0.042, 192.0, 0.0, 0.0, 0.0, 0.0, 0.0, 0.0, 0.0, 0.0, 0.0, 1.695333279456731E9, 0.0, 2023-09-21 16:54:39.456
62.0, 7476.390299366749, 9527.11814965226, -24298.648452597674, -46874.647960024835, -30997.2651001531, 30107.173932453865, 187500.0, -36994.81928286782, -19606.458497817337, -31763.862879736767, -42209.90594743561, -55916.554441041284, -17097.274017009022, -23896.58527333561, -33426.832667211616, -44442.75581154297, 0.016, 1.01, 0.052000000000000005, 192.0, 0.0, 64.0, 15.5, 72.0, 0.5, 80.0, 0.0, 0.0, 0.0, 1.695333279456753E9, 0.0, 2023-09-21 16:54:39.456
64.0, 7487.230895427572, 9539.07633293585, -24284.90212975766, -46861.639244751845, -30979.249594122124, 30098.61321432748, 187500.0, -36983.48694842899, -19604.73741349428, -31764.488728581517, -42206.664944489596, -55914.81100497377, -17086.053441292457, -23893.768953534243, -33414.136876361, -44436.899654495675, 0.016, 1.01, 0.052000000000000005, 192.0, 0.0, 0.0, 0.0, 0.0, 0.0, 0.0, 0.0, 0.0, 0.0, 1.695333279456764E9, 0.0, 2023-09-21 16:54:39.456
66.0, 7483.587561081357, 9530.157986898183, -24288.590167592785, -46866.64603550983, -30981.954155201216, 30112.67246158987, 187500.0, -36985.74447461897, -19594.50031453375, -31763.885231481225, -42198.86418567469, -55911.83822296122, -17074.832865575896, -23886.61639530854, -33410.9852803928, -44426.70725902406, 0.016, 1.01, 0.052000000000000005, 192.0, 0.0, 0.0, 0.0, 0.0, 0.0, 0.0, 0.0, 0.0, 0.0, 1.695333279456773E9, 0.0, 2023-09-21 16:54:39.456
68.0, 7487.0967849608405, 9530.470911320557, -24285.79619953587, -46862.08627964095, -30978.154358643817, 30105.922234764366, 187500.0, -36986.9291170751, -19594.857942445033, -31769.76374027297, -42200.562918253294, -55917.18028988603, -17073.04472601947, -23895.87001751304, -33408.012498380245, -44426.70725902406, 0.016, 1.01, 0.052000000000000005, 192.0, 0.0, 0.0, 0.0, 0.0, 0.0, 0.0, 0.0, 0.0, 0.0, 1.695333279456782E9, 0.0, 2023-09-21 16:54:39.456
70.0, 7482.358215136316, 9528.839233975319, -24294.871007784728, -46863.89677094183, -30986.80448374802, 30125.323548951576, 187500.0, -36999.42374222562, -19601.45170705935, -31770.47899609554, -42205.480302033466, -55919.571926542754, -17076.91157781024, -23894.931244245916, -33415.94736766188, -44429.81415150334, 0.016, 1.01, 0.052000000000000005, 192.0, 0.0, 0.0, 0.0, 0.0, 0.0, 0.0, 0.0, 0.0, 0.0, 1.695333279456791E9, 0.0, 2023-09-21 16:54:39.456
72.0, 7497.646808343746, 9548.195844673615, -24287.00319373646, -46854.39727954832, -30980.4118848338, 30112.605406356506, 187500.0, -36996.98740207999, -19600.334119836585, -31765.539260570917, -42204.65328748862, -55913.715769495466, -17076.621005132318, -23895.24416866829, -33415.075649628125, -44433.30102363837, 0.01, 1.01, 0.058, 192.0, 0.0, 40.0, 15.5, 72.0, 0.5, 104.0, 0.0, 0.0, 0.0, 1.6953332794568E9, 0.0, 2023-09-21 16:54:39.456
74.0, 7496.976256010086, 9552.42032437567, -24291.115914716236, -46855.693680726734, -30992.839454750952, 30132.990197299743, 187500.0, -37006.241024284485, -19590.633462742982, -31747.27788535093, -42191.04107511533, -55892.593370985196, -17072.351821941356, -23879.26267138275, -33413.98041414981, -44429.65768929216, 0.01, 1.01, 0.058, 192.0, 0.0, 0.0, 0.0, 0.0, 0.0, 0.0, 0.0, 0.0, 0.0, 1.695333279456809E9, 0.0, 2023-09-21 16:54:39.456
76.0, 7513.181270740184, 9569.787629817441, -24283.918653001627, -46846.820038177975, -30990.33605937196, 30122.328415194563, 187500.0, -36998.50732070295, -19597.8754279465, -31750.451833063584, -42191.622220471174, -55890.40290002858, -17082.767734857527, -23886.661098797453, -33418.31665257414, -44441.92879699812, 0.01, 1.01, 0.058, 192.0, 0.0, 0.0, 0.0, 0.0, 0.0, 0.0, 0.0, 0.0, 0.0, 1.695333279516985E9, 0.0, 2023-09-21 16:54:39.516
78.0, 7516.422273686204, 9578.32599619937, -24286.332641402798, -46845.09895385492, -30991.52070182809, 30139.382796213962, 187500.0, -36991.08654154379, -19582.475076016795, -31726.244893818486, -42173.11497606218, -55869.90635036306, -17074.966976042626, -23866.589232276587, -33416.34969906208, -44429.85885499226, 0.01, 1.01, 0.058, 192.0, 0.0, 0.0, 0.0, 0.0, 0.0, 0.0, 0.0, 0.0, 0.0, 1.695333279517052E9, 0.0, 2023-09-21 16:54:39.517
80.0, 7512.778939339989, 9576.448449665124, -24288.2325396815, -46849.59165449043, -30987.676201781775, 30124.76475534019, 187500.0, -36982.682285628594, -19590.58875925407, -31730.156449098165, -42179.954609865505, -55874.622568443134, -17084.95820581415, -23873.33945910209, -33417.89196942949, -44432.11638118224, 0.01, 1.01, 0.058, 192.0, 0.0, 0.0, 0.0, 0.0, 0.0, 0.0, 0.0, 0.0, 0.0, 1.695333279517062E9, 0.0, 2023-09-21 16:54:39.517
82.0, 7518.925669065198, 9579.80121133342, -24288.880740270706, -46845.635395721845, -30979.629573777864, 30129.0115867867, 187500.0, -36967.39369242117, -19590.812276698623, -31728.167143841645, -42182.480356988955, -55876.47776323292, -17085.472295936623, -23874.568805047133, -33416.93084441791, -44424.42738108962, 0.012, 1.012, 0.064, 192.0, 0.0, 48.0, 15.5, 80.0, 1.0, 0.0, 0.0, 0.0, 0.0, 1.695333279517071E9, 0.0, 2023-09-21 16:54:39.517
84.0, 7522.7254656226005, 9583.55630440191, -24279.51535934393, -46843.06494510949, -30967.827852705464, 30105.29638591962, 187500.0, -36962.25279119644, -19578.54116899266, -31722.623911216728, -42173.07027257327, -55870.509847463356, -17074.29642370897, -23876.96044170385, -33401.84341691058, -44409.8316919603, 0.012, 1.012, 0.064, 192.0, 0.0, 0.0, 0.0, 0.0, 0.0, 0.0, 0.0, 0.0, 0.0, 1.695333279517081E9, 0.0, 2023-09-21 16:54:39.517
86.0, 7514.67883761869, 9575.397917675724, -24286.690269314084, -46846.73063120015, -30971.113559140394, 30134.934799067356, 187500.0, -36964.89029704217, -19587.21364584132, -31734.716204967048, -42182.97209536697, -55882.06569934675, -17082.924197068714, -23886.415229608447, -33400.56936747663, -44412.782122228404, 0.012, 1.012, 0.064, 192.0, 0.0, 0.0, 0.0, 0.0, 0.0, 0.0, 0.0, 0.0, 0.0, 1.69533327951709E9, 0.0, 2023-09-21 16:54:39.517
88.0, 7508.219183471106, 9568.804153061408, -24278.129551187703, -46842.72966894265, -30967.51492828309, 30113.76769706818, 187500.0, -36964.84559355326, -19584.844360929055, -31737.823097446337, -42185.38608376814, -55886.24547555989, -17079.973766800616, -23891.95846223336, -33397.14955057497, -44407.86473844823, 0.012, 1.012, 0.064, 192.0, 0.0, 0.0, 0.0, 0.0, 0.0, 0.0, 0.0, 0.0, 0.0, 1.695333279517099E9, 0.0, 2023-09-21 16:54:39.517
90.0, 7500.530183378481, 9563.104458225305, -24282.108161700748, -46846.328299799956, -30971.918221940785, 30126.48583966325, 187500.0, -36968.13129998819, -19593.047451144153, -31748.037844662413, -42194.080912361256, -55895.16382159756, -17083.639452891286, -23896.361755891056, -33399.85411165406, -44413.005639672956, 0.012, 1.012, 0.064, 192.0, 0.0, 0.0, 0.0, 0.0, 0.0, 0.0, 0.0, 0.0, 0.0, 1.695333279577324E9, 0.0, 2023-09-21 16:54:39.577
92.0, 7494.830488542377, 9559.237606434537, -24274.597975563764, -46850.12809635736, -30969.75010272862, 30109.699679577316, 187500.0, -36975.060340769334, -19583.950291150846, -31746.33911208381, -42186.88365064665, -55893.01805412985, -17075.86104582084, -23898.35106114758, -33392.4333324949, -44406.568337269826, 0.01, 1.01, 0.068, 192.0, 0.0, 40.0, 15.5, 72.0, 1.0, 16.0, 0.0, 0.0, 0.0, 1.695333279577354E9, 0.0, 2023-09-21 16:54:39.577
94.0, 7484.7498517930335, 9549.916928996674, -24294.021641495427, -46860.70047148472, -30981.32830635647, 30127.558723397105, 187500.0, -36980.62592513871, -19604.089212905077, -31769.249650150497, -42208.83306370176, -55917.40380733059, -17092.08841229539, -23914.489020644312, -33401.66460295494, -44427.0872386798, 0.01, 1.01, 0.068, 192.0, 0.0, 0.0, 0.0, 0.0, 0.0, 0.0, 0.0, 0.0, 0.0, 1.695333279577363E9, 0.0, 2023-09-21 16:54:39.577
96.0, 7494.651674586735, 9558.70116456761, -24280.09650469977, -46848.65288122331, -30965.123291626373, 30095.372211381462, 187500.0, -36975.93205880309, -19597.29428259066, -31761.113615168768, -42201.50169152042, -55908.01607465936, -17080.823133089918, -23907.090593229605, -33407.54311174669, -44420.09114266529, 0.01, 1.01, 0.068, 192.0, 0.0, 0.0, 0.0, 0.0, 0.0, 0.0, 0.0, 0.0, 0.0, 1.695333279577373E9, 0.0, 2023-09-21 16:54:39.577
98.0, 7501.401901412238, 9566.680737338154, -24280.2306151665, -46846.954148644705, -30964.720960226176, 30102.77063879617, 187500.0, -36978.23428848199, -19591.751049965747, -31758.00672268948, -42200.00412464191, -55903.992760657406, -17075.995156287572, -23899.289834414703, -33402.73748668879, -44423.957994456054, 0.01, 1.01, 0.068, 192.0, 0.0, 0.0, 0.0, 0.0, 0.0, 0.0, 0.0, 0.0, 0.0, 1.695333279577382E9, 0.0, 2023-09-21 16:54:39.577
100.0, 7500.083148489374, 9566.010185004496, -24277.95073723206, -46849.90457891281, -30960.45177703521, 30087.504397333196, 187500.0, -36983.106968773245, -19589.180599353385, -31747.52375453994, -42194.86322341719, -55895.186173342016, -17069.177874228702, -23893.411325622958, -33407.34194604659, -44427.243700890984, 0.01, 1.01, 0.068, 192.0, 0.0, 0.0, 0.0, 0.0, 0.0, 0.0, 0.0, 0.0, 0.0, 1.695333279577418E9, 0.0, 2023-09-21 16:54:39.577
102.0, 7492.036520485463, 9552.241510420026, -24294.71454557354, -46864.27675059757, -30973.952230686216, 30105.29638591962, 187500.0, -36993.07584680031, -19599.9764919253, -31762.030036691434, -42204.04979038832, -55903.366911812656, -17075.883397565292, -23903.961349005862, -33407.29724255767, -44438.06194520735, 0.014, 1.006, 0.06, 192.0, 0.0, 56.0, 15.5, 56.0, 0.5, 112.0, 0.0, 0.0, 0.0, 1.695333279577428E9, 0.0, 2023-09-21 16:54:39.577
104.0, 7485.15218319323, 9549.380487129747, -24300.280129942912, -46872.92687570177, -30977.886137710353, 30100.758981795192, 187500.0, -36997.725009647016, -19604.580951283093, -31766.723903027047, -42208.67660149057, -55910.25124910489, -17081.80660984595, -23912.11973573205, -33419.09896363008, -44447.181456945116, 0.014, 1.006, 0.06, 192.0, 0.0, 0.0, 0.0, 0.0, 0.0, 0.0, 0.0, 0.0, 0.0, 1.695333279577437E9, 0.0, 2023-09-21 16:54:39.577
106.0, 7508.040369515464, 9572.17926647416, -24286.086772213792, -46855.31370107099, -30970.532413784556, 30102.502417862706, 187500.0, -36975.86500356973, -19602.21166637083, -31754.206926132076, -42200.67467697557, -55900.93057166703, -17074.09525800887, -23904.564846106154, -33412.32638506012, -44438.84425626329, 0.014, 1.006, 0.06, 192.0, 0.0, 0.0, 0.0, 0.0, 0.0, 0.0, 0.0, 0.0, 0.0, 1.695333279637801E9, 0.0, 2023-09-21 16:54:39.637
108.0, 7510.67787536119, 9572.626301363267, -24282.689307056586, -46848.138791100835, -30970.487710295645, 30101.250720173208, 187500.0, -36970.99232327847, -19590.991090654265, -31745.46739405005, -42192.181014082555, -55890.89463840659, -17073.42470567521, -23894.2383401678, -33411.856998426556, -44425.88024447921, 0.014, 1.006, 0.06, 192.0, 0.0, 0.0, 0.0, 0.0, 0.0, 0.0, 0.0, 0.0, 0.0, 1.695333279637822E9, 0.0, 2023-09-21 16:54:39.637
110.0, 7508.465052660114, 9569.318243183881, -24285.66208906914, -46844.227235821156, -30975.025114420074, 30111.085487733544, 187500.0, -36967.25958195443, -19598.83655295808, -31746.160298128165, -42195.86905191768, -55891.94517039599, -17081.314871467934, -23893.768953534243, -33402.71513494434, -44421.8345787328, 0.014, 1.006, 0.06, 192.0, 0.0, 0.0, 0.0, 0.0, 0.0, 0.0, 0.0, 0.0, 0.0, 1.695333279637831E9, 0.0, 2023-09-21 16:54:39.637
112.0, 7508.219183471106, 9569.295891439426, -24275.31323138633, -46837.856988651394, -30970.13008238436, 30105.139923708433, 187500.0, -36964.711483086525, -19593.0250993997, -31751.144737141698, -42193.92445015007, -55894.15799309707, -17088.467429693632, -23900.049793726183, -33403.542149489185, -44417.475988564016, 0.016, 1.01, 0.056, 192.0, 0.0, 64.0, 15.5, 72.0, 0.5, 96.0, 0.0, 0.0, 0.0, 1.695333279637841E9, 0.0, 2023-09-21 16:54:39.637
114.0, 7500.373721167293, 9563.529141369956, -24278.688344799084, -46843.48962825414, -30972.253498107613, 30111.554874367106, 187500.0, -36966.43256740959, -19597.96483492432, -31753.96105694307, -42197.88070891866, -55895.09676636419, -17088.310967482445, -23900.094497215094, -33393.886195884494, -44414.391447829184, 0.016, 1.01, 0.056, 192.0, 0.0, 0.0, 0.0, 0.0, 0.0, 0.0, 0.0, 0.0, 0.0, 1.69533327963785E9, 0.0, 2023-09-21 16:54:39.637
116.0, 7490.091918717852, 9552.867359264776, -24292.479371128007, -46855.917198171286, -30978.891966210842, 30117.701604092315, 187500.0, -36968.3771691772, -19603.172791382407, -31760.42071109065, -42207.715476478996, -55905.08799613571, -17096.514057697543, -23909.72809907533, -33405.285585556696, -44416.492511807985, 0.016, 1.01, 0.056, 192.0, 0.0, 0.0, 0.0, 0.0, 0.0, 0.0, 0.0, 0.0, 0.0, 1.695333279637859E9, 0.0, 2023-09-21 16:54:39.637
118.0, 7495.523392620492, 9556.242472677526, -24290.534769360398, -46850.239855079635, -30974.801596975518, 30108.04565048762, 187500.0, -36963.05745399684, -19610.235942630286, -31769.249650150497, -42216.45500856102, -55916.66619976357, -17100.313854254946, -23916.858305556572, -33405.151475089966, -44423.913290967146, 0.016, 1.01, 0.056, 192.0, 0.0, 0.0, 0.0, 0.0, 0.0, 0.0, 0.0, 0.0, 0.0, 1.695333279637868E9, 0.0, 2023-09-21 16:54:39.637
120.0, 7503.637075857768, 9562.500961125012, -24291.272376927423, -46846.03772712204, -30971.22531786267, 30108.939720265833, 187500.0, -36968.779500577395, -19606.77142223971, -31766.634496049228, -42213.90690969311, -55914.0957491512, -17096.782278631006, -23912.3432531766, -33408.146608846975, -44420.24760487647, 0.016, 1.01, 0.056, 192.0, 0.0, 0.0, 0.0, 0.0, 0.0, 0.0, 0.0, 0.0, 0.0, 1.695333279637878E9, 0.0, 2023-09-21 16:54:39.637
122.0, 7503.860593302321, 9560.422248890669, -24285.57268209132, -46847.84821842292, -30971.5605940295, 30094.254624158697, 187500.0, -36977.83195708179, -19591.661642987925, -31759.928972712634, -42203.06631363229, -55907.122004881145, -17079.906711567248, -23911.225665953836, -33400.01057386525, -44417.341878097286, 0.016, 1.01, 0.052000000000000005, 192.0, 0.0, 64.0, 15.5, 72.0, 0.5, 80.0, 0.0, 0.0, 0.0, 1.695333279697414E9, 0.0, 2023-09-21 16:54:39.697
124.0, 7502.385378168271, 9560.578711101856, -24285.57268209132, -46845.2554160661, -30974.84630046443, 30104.938758008335, 187500.0, -36987.06322754183, -19587.45951503033, -31764.80165300389, -42203.580403754764, -55912.084092150224, -17077.76094409954, -23919.92049454695, -33411.20879783735, -44426.84136949079, 0.016, 1.01, 0.052000000000000005, 192.0, 0.0, 0.0, 0.0, 0.0, 0.0, 0.0, 0.0, 0.0, 0.0, 1.695333279697436E9, 0.0, 2023-09-21 16:54:39.697
126.0, 7495.881020531777, 9558.187074445137, -24282.80106577886, -46846.954148644705, -30977.059123165505, 30099.574339339062, 187500.0, -36998.686134658594, -19592.466305788315, -31767.305048382885, -42205.63676424465, -55910.25124910489, -17078.252682477556, -23923.20620098188, -33412.81812343813, -44435.51384633945, 0.016, 1.01, 0.052000000000000005, 192.0, 0.0, 0.0, 0.0, 0.0, 0.0, 0.0, 0.0, 0.0, 0.0, 1.695333279697445E9, 0.0, 2023-09-21 16:54:39.697
128.0, 7505.313456691916, 9571.262844951492, -24281.370554133722, -46836.672346195264, -30967.000838160617, 30115.24291220223, 187500.0, -36988.71725663153, -19590.74522146526, -31763.81817624786, -42205.97204041148, -55906.94319092551, -17078.99029004458, -23918.713500346363, -33418.987204907804, -44441.168837686644, 0.016, 1.01, 0.052000000000000005, 192.0, 0.0, 0.0, 0.0, 0.0, 0.0, 0.0, 0.0, 0.0, 0.0, 1.695333279697454E9, 0.0, 2023-09-21 16:54:39.697
130.0, 7505.24640145855, 9570.07820249536, -24285.03624022439, -46842.46144800919, -30967.559631772, 30101.027202728656, 187500.0, -36990.14776827666, -19590.521704020706, -31751.748234241993, -42198.39479904113, -55896.01318788686, -17069.669612606718, -23908.699918830385, -33411.90170191547, -44434.48566609451, 0.016, 1.01, 0.052000000000000005, 192.0, 0.0, 0.0, 0.0, 0.0, 0.0, 0.0, 0.0, 0.0, 0.0, 1.695333279697463E9, 0.0, 2023-09-21 16:54:39.697
132.0, 7505.089939247363, 9571.374603673768, -24294.312214173344, -46849.52459925706, -30976.612088276397, 30118.14863898142, 187500.0, -36990.70656188805, -19595.30497733414, -31756.71032151107, -42205.72617122247, -55902.13756586761, -17078.744420855575, -23913.796116566198, -33422.47407704283, -44445.013337732955, 0.012, 1.014, 0.04, 192.0, 0.0, 48.0, 15.5, 88.0, 0.5, 32.0, 0.0, 0.0, 0.0, 1.695333279697473E9, 0.0, 2023-09-21 16:54:39.697
134.0, 7515.72936960809, 9578.013071776995, -24278.017792465424, -46838.147561329315, -30965.257402093102, 30094.791066025624, 187500.0, -36982.816396095324, -19586.744259207757, -31748.171955129143, -42192.963325138495, -55891.56519074026, -17070.921310296217, -23911.672700842944, -33415.29916707268, -44434.61977656124, 0.012, 1.014, 0.04, 192.0, 0.0, 0.0, 0.0, 0.0, 0.0, 0.0, 0.0, 0.0, 0.0, 1.695333279697482E9, 0.0, 2023-09-21 16:54:39.697
136.0, 7502.139508979262, 9563.551493114412, -24291.94292926108, -46848.786991690045, -30984.256384880115, 30125.703528607315, 187500.0, -36995.02044856792, -19585.693727218357, -31751.077681908333, -42190.14700533712, -55892.325150051736, -17070.451923662655, -23907.87290428554, -33414.38274555001, -44429.74709626998, 0.012, 1.014, 0.04, 192.0, 0.0, 0.0, 0.0, 0.0, 0.0, 0.0, 0.0, 0.0, 0.0, 1.695333279757798E9, 0.0, 2023-09-21 16:54:39.757
138.0, 7499.904334533732, 9561.495132624523, -24292.18879845009, -46847.736459700645, -30989.687858782752, 30114.035918001646, 187500.0, -37002.687096916095, -19608.760727496236, -31772.133025185234, -42210.62120325818, -55908.887792693116, -17088.84740934937, -23930.939904563416, -33428.95608293487, -44447.248512178485, 0.012, 1.014, 0.04, 192.0, 0.0, 0.0, 0.0, 0.0, 0.0, 0.0, 0.0, 0.0, 0.0, 1.695333279757821E9, 0.0, 2023-09-21 16:54:39.757
140.0, 7510.499061405548, 9573.118039741283, -24291.540597860887, -46840.78506717504, -30991.431294850267, 30128.8104210866, 187500.0, -36989.83484385429, -19591.7734017102, -31757.224411633542, -42197.83600542975, -55893.66625471905, -17078.051516777457, -23919.11583174656, -33419.88127468601, -44434.32920388332, 0.012, 1.014, 0.04, 192.0, 0.0, 0.0, 0.0, 0.0, 0.0, 0.0, 0.0, 0.0, 0.0, 1.695333279757831E9, 0.0, 2023-09-21 16:54:39.757
142.0, 7511.8625178173215, 9573.90035079722, -24288.791333292884, -46839.689831696734, -30990.13489367186, 30104.223502185763, 187500.0, -36993.61228866724, -19590.7228697208, -31753.75989124297, -42197.81365368529, -55890.51465875086, -17081.605444145855, -23920.814564325163, -33416.752030462274, -44432.719878282536, 0.01, 1.014, 0.042, 192.0, 0.0, 40.0, 15.5, 88.0, 0.5, 40.0, 0.0, 0.0, 0.0, 1.69533327975784E9, 0.0, 2023-09-21 16:54:39.757
144.0, 7518.523337665002, 9582.75164160152, -24287.539635603385, -46829.87741588085, -30983.295259868537, 30111.599577856017, 187500.0, -36979.08365477129, -19590.320538320608, -31746.361463828263, -42198.17128159658, -55888.815926172254, -17081.203112745658, -23911.024500253738, -33404.95030938987, -44424.539139811895, 0.01, 1.014, 0.042, 192.0, 0.0, 0.0, 0.0, 0.0, 0.0, 0.0, 0.0, 0.0, 0.0, 1.695333279757885E9, 0.0, 2023-09-21 16:54:39.757
146.0, 7520.020904543509, 9583.355138701814, -24279.29184189938, -46821.56256694348, -30972.27584985207, 30090.56658632357, 187500.0, -36975.3285617028, -19578.921148648402, -31735.7890887009, -42189.92348789257, -55878.71293767845, -17071.39069692978, -23906.285930429214, -33395.20494880735, -44408.937622182086, 0.01, 1.014, 0.042, 192.0, 0.0, 0.0, 0.0, 0.0, 0.0, 0.0, 0.0, 0.0, 0.0, 1.695333279757894E9, 0.0, 2023-09-21 16:54:39.757
148.0, 7512.845994573355, 9573.877999052764, -24297.486161885998, -46835.68886943923, -30987.60914654841, 30107.62096734297, 187500.0, -36987.778483364404, -19593.673299988903, -31756.687969766615, -42207.1119793787, -55896.661388476066, -17086.38871745929, -23919.78638408022, -33398.80357966466, -44422.21455838854, 0.01, 1.014, 0.042, 192.0, 0.0, 0.0, 0.0, 0.0, 0.0, 0.0, 0.0, 0.0, 0.0, 1.695333279757903E9, 0.0, 2023-09-21 16:54:39.757
150.0, 7518.5009859205475, 9579.063603766395, -24283.5833768348, -46823.61892743337, -30973.326381841467, 30092.064153202078, 187500.0, -36977.854308826245, -19578.116485848008, -31751.56942028635, -42196.98663914044, -55891.94517039599, -17078.31973771092, -23923.519125404255, -33412.14757110448, -44423.60036654477, 0.01, 1.014, 0.042, 192.0, 0.0, 0.0, 0.0, 0.0, 0.0, 0.0, 0.0, 0.0, 0.0, 1.695333279757919E9, 0.0, 2023-09-21 16:54:39.757
152.0, 7508.1074247488295, 9576.806077576408, -24281.839940767284, -46816.22050001866, -30969.727750984166, 30117.746307581227, 187500.0, -36968.24305871047, -19590.767573209712, -31750.56359178586, -42192.91862164958, -55883.3397487807, -17080.3313947119, -23914.690186344407, -33389.415846993434, -44408.62469775971, 0.012, 1.014, 0.046, 192.0, 0.0, 48.0, 15.5, 88.0, 0.5, 56.0, 0.0, 0.0, 0.0, 1.69533327981803E9, 0.0, 2023-09-21 16:54:39.818
154.0, 7512.264849217517, 9582.483420668057, -24284.85742626875, -46821.96489834367, -30971.448835307223, 30112.560702867595, 187500.0, -36977.40727393714, -19591.751049965747, -31744.327455082832, -42193.097435605225, -55881.99864411338, -17084.868798836327, -23917.30534044568, -33402.22339656632, -44414.59261352928, 0.012, 1.014, 0.046, 192.0, 0.0, 0.0, 0.0, 0.0, 0.0, 0.0, 0.0, 0.0, 0.0, 1.695333279818054E9, 0.0, 2023-09-21 16:54:39.818
156.0, 7521.294953977461, 9591.84880159483, -24286.086772213792, -46819.327392497944, -30965.324457326467, 30108.805609799103, 187500.0, -36971.573468634306, -19593.62859649999, -31737.264303834952, -42194.59500248373, -55880.635187701606, -17079.973766800616, -23917.037119512217, -33397.64128895298, -44420.337011854295, 0.012, 1.014, 0.046, 192.0, 0.0, 0.0, 0.0, 0.0, 0.0, 0.0, 0.0, 0.0, 0.0, 1.695333279818064E9, 0.0, 2023-09-21 16:54:39.818
158.0, 7516.511680664025, 9588.026653292973, -24286.690269314084, -46820.22146227616, -30968.65486725031, 30107.553912109604, 187500.0, -36980.447111183064, -19586.140762107465, -31729.79882118688, -42188.67179020307, -55873.236760286905, -17073.60351963085, -23911.985625265315, -33399.5858907206, -44414.97259318502, 0.012, 1.014, 0.046, 192.0, 0.0, 0.0, 0.0, 0.0, 0.0, 0.0, 0.0, 0.0, 0.0, 1.695333279818073E9, 0.0, 2023-09-21 16:54:39.818
160.0, 7509.493232905059, 9581.142316000738, -24294.28986242889, -46824.62475593385, -30974.198099875226, 30111.487819133738, 187500.0, -36983.397541451166, -19592.890988932966, -31734.872667178235, -42197.232508329456, -55879.182324312016, -17077.80564758845, -23908.722270574843, -33400.748181432275, -44422.32631711082, 0.012, 1.014, 0.046, 192.0, 0.0, 0.0, 0.0, 0.0, 0.0, 0.0, 0.0, 0.0, 0.0, 1.695333279818082E9, 0.0, 2023-09-21 16:54:39.818
162.0, 7511.951924795142, 9589.300702726925, -24287.070248969823, -46816.10874129638, -30966.374989315867, 30102.234196929243, 187500.0, -36975.28385821389, -19598.702442491347, -31736.1914201011, -42203.44629328803, -55883.00447261387, -17079.75024935606, -23910.957445020373, -33411.8346466821, -44420.73934325449, 0.01, 1.012, 0.044, 192.0, 0.0, 40.0, 15.5, 80.0, 0.5, 48.0, 0.0, 0.0, 0.0, 1.695333279818091E9, 0.0, 2023-09-21 16:54:39.818
164.0, 7512.957753295631, 9591.04413879444, -24288.590167592785, -46814.9017470958, -30971.717056240686, 30101.988327740233, 187500.0, -36975.95441054754, -19599.194180869363, -31725.95432114057, -42201.2111188425, -55874.10847832066, -17077.13509525479, -23904.36368040606, -33401.03875411019, -44418.235947875495, 0.01, 1.012, 0.044, 192.0, 0.0, 0.0, 0.0, 0.0, 0.0, 0.0, 0.0, 0.0, 0.0, 1.695333279818101E9, 0.0, 2023-09-21 16:54:39.818
166.0, 7507.593334626357, 9583.75747010201, -24294.401621151166, -46822.277822766046, -30981.730637756664, 30112.76186856769, 187500.0, -36983.106968773245, -19597.338986079572, -31724.74732693998, -42199.91471766409, -55874.51080972086, -17081.76190635704, -23905.63772984001, -33405.33028904561, -44418.8841484647, 0.01, 1.012, 0.044, 192.0, 0.0, 0.0, 0.0, 0.0, 0.0, 0.0, 0.0, 0.0, 0.0, 1.69533327987832E9, 0.0, 2023-09-21 16:54:39.878
168.0, 7515.7964248414555, 9588.317225970892, -24286.22088268052, -46815.50524419609, -30981.305954612013, 30106.793952798125, 187500.0, -36979.79891059386, -19605.184448383385, -31730.357614798264, -42207.33549682325, -55880.501077234876, -17092.311929739946, -23913.237322954814, -33403.20687332236, -44422.482779322, 0.01, 1.012, 0.044, 192.0, 0.0, 0.0, 0.0, 0.0, 0.0, 0.0, 0.0, 0.0, 0.0, 1.695333279878345E9, 0.0, 2023-09-21 16:54:39.878
170.0, 7524.938288323676, 9597.593199919844, -24275.80496976435, -46803.56941265696, -30970.197137617724, 30112.538351123138, 187500.0, -36969.56181163333, -19587.63832898597, -31719.405260015163, -42193.34330479423, -55868.20761778446, -17084.5335226695, -23899.491000114802, -33397.9318616309, -44408.7811599709, 0.01, 1.012, 0.044, 192.0, 0.0, 0.0, 0.0, 0.0, 0.0, 0.0, 0.0, 0.0, 0.0, 1.695333279878354E9, 0.0, 2023-09-21 16:54:39.878
172.0, 7521.6749336332, 9592.385243461758, -24283.292804156878, -46813.09125579492, -30980.970678445185, 30110.52669412216, 187500.0, -36981.09531177227, -19589.49352377576, -31718.533541981407, -42193.857394916704, -55865.614815427645, -17083.773563358016, -23900.429773381922, -33395.80844590765, -44410.09991289376, 0.008, 1.018, 0.048, 192.0, 0.0, 32.0, 15.5, 104.0, 0.5, 64.0, 0.0, 0.0, 0.0, 1.695333279878364E9, 0.0, 2023-09-21 16:54:39.878
174.0, 7522.859576089332, 9594.978045818574, -24289.014850737436, -46814.07473255095, -30985.105751169416, 30132.09612752153, 187500.0, -36979.7765588494, -19590.454648787338, -31719.89699839318, -42197.38897054064, -55869.21344628495, -17089.562665171943, -23900.362718148557, -33409.91239665895, -44414.883186207204, 0.008, 1.018, 0.048, 192.0, 0.0, 0.0, 0.0, 0.0, 0.0, 0.0, 0.0, 0.0, 0.0, 1.695333279878374E9, 0.0, 2023-09-21 16:54:39.878
176.0, 7518.657448131735, 9589.859496338308, -24294.558083362353, -46818.54508144201, -30987.27387038158, 30123.222484972775, 187500.0, -36987.733779875496, -19587.63832898597, -31720.165219326645, -42197.47837751846, -55871.02393758583, -17086.925159326216, -23905.97300600684, -33412.08051587111, -44417.543043797385, 0.008, 1.018, 0.048, 192.0, 0.0, 0.0, 0.0, 0.0, 0.0, 0.0, 0.0, 0.0, 0.0, 1.695333279878383E9, 0.0, 2023-09-21 16:54:39.878
178.0, 7515.304686463438, 9589.881848082763, -24300.19072296509, -46816.42166571876, -30985.865710480895, 30137.147621768432, 187500.0, -36987.62202115322, -19590.097020876055, -31722.623911216728, -42202.50752002091, -55876.74598416639, -17089.3838512163, -23905.54832286219, -33419.411888052455, -44423.24273863348, 0.008, 1.018, 0.048, 192.0, 0.0, 0.0, 0.0, 0.0, 0.0, 0.0, 0.0, 0.0, 0.0, 1.695333279878392E9, 0.0, 2023-09-21 16:54:39.878
180.0, 7516.690494619667, 9592.139374272749, -24290.221844938023, -46809.11264528187, -30976.209756876204, 30107.688022576338, 187500.0, -36984.13514901819, -19583.436201028373, -31717.684175692106, -42196.40549378461, -55869.302853262765, -17079.99611854507, -23899.15572394797, -33410.47119027033, -44417.14071239719, 0.008, 1.018, 0.048, 192.0, 0.0, 0.0, 0.0, 0.0, 0.0, 0.0, 0.0, 0.0, 0.0, 1.695333279878402E9, 0.0, 2023-09-21 16:54:39.878
182.0, 7510.096730005352, 9583.176324746171, -24305.37632767872, -46823.3507064999, -30982.982335446162, 30120.00383377121, 187500.0, -36990.88537584369, -19591.92986392139, -31727.474239763527, -42203.33453456575, -55877.2377225444, -17082.074830779413, -23905.7941920512, -33412.59460599358, -44425.433209590105, 0.008, 1.02, 0.038, 192.0, 0.0, 32.0, 15.5, 112.0, 0.5, 24.0, 0.0, 0.0, 0.0, 1.695333279937741E9, 0.0, 2023-09-21 16:54:39.937
184.0, 7506.274581703495, 9576.13552524275, -24302.872932299728, -46830.34680251441, -30981.685934267753, 30102.033031229144, 187500.0, -36998.52967244741, -19583.950291150846, -31735.81144044536, -42205.83792994475, -55884.92672263703, -17079.79495284497, -23915.181924722427, -33418.47311478533, -44433.211616660556, 0.008, 1.02, 0.038, 192.0, 0.0, 0.0, 0.0, 0.0, 0.0, 0.0, 0.0, 0.0, 0.0, 1.69533327993777E9, 0.0, 2023-09-21 16:54:39.937
186.0, 7498.764395566511, 9566.36781291578, -24311.657167870664, -46834.12424732736, -30984.211681391203, 30129.659787375902, 187500.0, -37001.39069573769, -19597.942483179868, -31749.781280729927, -42219.40543882912, -55899.00832164387, -17089.562665171943, -23927.810660339674, -33423.14462937649, -44442.6887563096, 0.008, 1.02, 0.038, 192.0, 0.0, 0.0, 0.0, 0.0, 0.0, 0.0, 0.0, 0.0, 0.0, 1.69533327993778E9, 0.0, 2023-09-21 16:54:39.937
188.0, 7494.472860631092, 9561.919815769174, -24306.3374526903, -46830.27974728105, -30980.925974956273, 30106.838656287036, 187500.0, -37002.15065504917, -19599.39534656946, -31749.535411540917, -42218.69018300655, -55898.00249314338, -17088.333319226902, -23935.41025345448, -33422.16115262046, -44436.02793646192, 0.008, 1.02, 0.038, 192.0, 0.0, 0.0, 0.0, 0.0, 0.0, 0.0, 0.0, 0.0, 0.0, 1.695333279937824E9, 0.0, 2023-09-21 16:54:39.937
190.0, 7497.266828688005, 9563.84206579233, -24306.829191068315, -46821.719029154665, -30981.529472056565, 30126.374080940972, 187500.0, -36995.78040787941, -19599.30593959164, -31742.829888204324, -42214.86803470469, -55890.559362239765, -17086.14284827028, -23928.816488840162, -33417.75785896276, -44428.60715730276, 0.008, 1.02, 0.038, 192.0, 0.0, 0.0, 0.0, 0.0, 0.0, 0.0, 0.0, 0.0, 0.0, 1.695333279937833E9, 0.0, 2023-09-21 16:54:39.937
192.0, 7496.395110654249, 9557.672984322666, -24307.790316079896, -46822.635450677335, -30984.971640702683, 30114.30413893511, 187500.0, -36999.89312885918, -19602.63634951548, -31743.65690274917, -42217.55024403933, -55889.866458161654, -17088.19920876017, -23931.744567363807, -33421.53530377571, -44429.36711661424, 0.008, 1.014, 0.038, 192.0, 0.0, 32.0, 15.5, 88.0, 0.5, 24.0, 0.0, 0.0, 0.0, 1.695333279937843E9, 0.0, 2023-09-21 16:54:39.937
194.0, 7500.172555467196, 9560.869283779775, -24312.394775437686, -46821.20493903219, -30987.139759914848, 30135.761813612204, 187500.0, -36996.27214625742, -19611.1300124085, -31749.20013537409, -42224.88161622067, -55896.75079545389, -17096.402298975267, -23935.4996604323, -33427.8384957121, -44434.19509341659, 0.008, 1.014, 0.038, 192.0, 0.0, 0.0, 0.0, 0.0, 0.0, 0.0, 0.0, 0.0, 0.0, 1.695333279937853E9, 0.0, 2023-09-21 16:54:39.937
196.0, 7498.0714914883965, 9561.763353557988, -24309.377289936223, -46825.71999141217, -30988.36910585989, 30120.38381342695, 187500.0, -37001.30128875987, -19612.202896142353, -31746.85320220628, -42227.47441857748, -55896.25905707587, -17099.866819365838, -23934.516183676267, -33428.978434679324, -44432.74223002699, 0.008, 1.014, 0.038, 192.0, 0.0, 0.0, 0.0, 0.0, 0.0, 0.0, 0.0, 0.0, 0.0, 1.695333279997503E9, 0.0, 2023-09-21 16:54:39.997
198.0, 7502.810061312922, 9570.435830406646, -24311.076022514826, -46818.12039829736, -30981.21654763419, 30120.339109938042, 187500.0, -36988.29257348688, -19605.78794548368, -31739.365367813753, -42224.278119120376, -55890.20173432848, -17095.128249541314, -23930.336407463124, -33419.814219452644, -44429.74709626998, 0.008, 1.014, 0.038, 192.0, 0.0, 0.0, 0.0, 0.0, 0.0, 0.0, 0.0, 0.0, 0.0, 1.695333279997533E9, 0.0, 2023-09-21 16:54:39.997
200.0, 7504.8217183138995, 9572.961577530095, -24312.014795781946, -46818.81330237548, -30981.596527289934, 30106.883359775948, 187500.0, -36990.81832061033, -19608.760727496236, -31733.55391425537, -42225.038078431855, -55887.81009767176, -17095.396470474778, -23928.83884058462, -33418.83074269661, -44425.34380261228, 0.008, 1.014, 0.038, 192.0, 0.0, 0.0, 0.0, 0.0, 0.0, 0.0, 0.0, 0.0, 0.0, 1.695333279997545E9, 0.0, 2023-09-21 16:54:39.997
202.0, 7513.740064351567, 9581.790516589943, -24310.360766692254, -46811.63839240532, -30973.169919630283, 30112.113667978487, 187500.0, -36978.72602686001, -19602.368128582017, -31727.340129296797, -42219.69601150704, -55879.42819350102, -17093.04953730697, -23925.97781729434, -33412.214626337845, -44420.00173568747, 0.012, 1.018, 0.038, 192.0, 0.0, 48.0, 15.5, 104.0, 0.5, 24.0, 0.0, 0.0, 0.0, 1.695333279997559E9, 0.0, 2023-09-21 16:54:39.997
204.0, 7504.754663080534, 9572.872170552275, -24311.366595192743, -46815.30407849599, -30975.405094075813, 30113.25360694571, 187500.0, -36984.8280530963, -19602.63634951548, -31732.14575435469, -42222.378220841674, -55882.06569934675, -17094.52475244102, -23927.654198128486, -33412.19227459339, -44416.33604959679, 0.012, 1.018, 0.038, 192.0, 0.0, 0.0, 0.0, 0.0, 0.0, 0.0, 0.0, 0.0, 0.0, 1.695333279997573E9, 0.0, 2023-09-21 16:54:39.997
206.0, 7502.4747851460925, 9570.212312962094, -24313.221789982534, -46817.092218052414, -30975.874480709375, 30117.567493625582, 187500.0, -36983.598707151265, -19609.297169363163, -31744.103937638276, -42229.91075872311, -55889.799402928285, -17099.71035715465, -23938.852422100597, -33410.247672825775, -44425.1873404011, 0.012, 1.018, 0.038, 192.0, 0.0, 0.0, 0.0, 0.0, 0.0, 0.0, 0.0, 0.0, 0.0, 1.695333279997588E9, 0.0, 2023-09-21 16:54:39.997
208.0, 7498.809099055422, 9567.217179205081, -24314.9875777945, -46820.22146227616, -30977.237937121146, 30117.411031414395, 187500.0, -36990.46069269904, -19606.77142223971, -31744.886248694213, -42227.74263951095, -55890.67112096204, -17096.022319319527, -23945.379131481546, -33415.94736766188, -44426.46138983505, 0.012, 1.018, 0.038, 192.0, 0.0, 0.0, 0.0, 0.0, 0.0, 0.0, 0.0, 0.0, 0.0, 1.695333279997601E9, 0.0, 2023-09-21 16:54:39.997
210.0, 7509.9849712830755, 9576.113173498294, -24302.068269499337, -46809.917308082266, -30965.056236393004, 30105.72106906427, 187500.0, -36983.44224494007, -19604.759765238734, -31739.298312580388, -42222.64644177514, -55885.70903369296, -17089.830886105407, -23941.17700352395, -33412.8851786715, -44422.61688978874, 0.012, 1.018, 0.038, 192.0, 0.0, 0.0, 0.0, 0.0, 0.0, 0.0, 0.0, 0.0, 0.0, 1.695333279997679E9, 0.0, 2023-09-21 16:54:39.997
212.0, 7495.031654242475, 9560.310490168393, -24308.080888757813, -46818.858005864386, -30974.823948719975, 30113.857104046, 187500.0, -36995.51218694594, -19603.30690184914, -31744.46156554956, -42223.562863297804, -55889.59823722819, -17088.109801782346, -23941.825204113153, -33413.35456530507, -44421.678116521616, 0.01, 1.016, 0.042, 192.0, 0.0, 40.0, 15.5, 96.0, 0.5, 40.0, 0.0, 0.0, 0.0, 1.695333280057757E9, 0.0, 2023-09-21 16:54:40.057
214.0, 7487.186191938662, 9549.671059807666, -24313.490010915997, -46820.15440704279, -30983.51877731309, 30121.43434541635, 187500.0, -37000.36251549274, -19617.813184000635, -31757.246763378, -42234.67168029209, -55897.2425338319, -17097.385775731298, -23950.74355015082, -33410.65000422597, -44427.802494502364, 0.01, 1.016, 0.042, 192.0, 0.0, 0.0, 0.0, 0.0, 0.0, 0.0, 0.0, 0.0, 0.0, 1.695333280057779E9, 0.0, 2023-09-21 16:54:40.057
216.0, 7485.934494249165, 9549.55930108539, -24314.317025460845, -46817.36043898588, -30984.18932964675, 30125.703528607315, 187500.0, -36999.46844571453, -19626.9326957384, -31762.991161703012, -42240.05845070582, -55900.17061235555, -17105.544162457485, -23958.052570587704, -33422.36231832056, -44434.84329400579, 0.01, 1.016, 0.042, 192.0, 0.0, 0.0, 0.0, 0.0, 0.0, 0.0, 0.0, 0.0, 0.0, 1.69533328005779E9, 0.0, 2023-09-21 16:54:40.057
218.0, 7506.274581703495, 9568.066545494383, -24300.257778198455, -46801.35658995588, -30969.615992261886, 30102.01067948469, 187500.0, -36991.37711422171, -19608.64896877396, -31745.690911494603, -42218.69018300655, -55880.54578072379, -17086.925159326216, -23945.401483226, -33405.53145474571, -44420.69463976558, 0.01, 1.016, 0.042, 192.0, 0.0, 0.0, 0.0, 0.0, 0.0, 0.0, 0.0, 0.0, 0.0, 1.6953332800578E9, 0.0, 2023-09-21 16:54:40.057
220.0, 7505.9393055366645, 9569.877036795264, -24306.538618390397, -46801.17777600024, -30974.354562086413, 30119.668557604382, 187500.0, -36989.32075373182, -19605.11739315002, -31740.75117596998, -42215.27036610489, -55875.740155665895, -17085.13701976979, -23941.35581747959, -33409.89004491449, -44420.87345372122, 0.01, 1.016, 0.042, 192.0, 0.0, 0.0, 0.0, 0.0, 0.0, 0.0, 0.0, 0.0, 0.0, 1.695333280057809E9, 0.0, 2023-09-21 16:54:40.057
222.0, 7516.399921941748, 9579.018900277484, -24300.973034021026, -46792.81822357395, -30968.632515505855, 30109.654976088405, 187500.0, -36983.62105889572, -19604.849172216556, -31737.2419520905, -42216.43265681656, -55873.68379517601, -17084.645281391775, -23944.97680008135, -33411.76759144874, -44420.00173568747, 0.002, 1.012, 0.046, 192.0, 0.0, 8.0, 15.5, 80.0, 0.5, 56.0, 0.0, 0.0, 0.0, 1.695333280057818E9, 0.0, 2023-09-21 16:54:40.057
224.0, 7520.780863854989, 9587.154935259216, -24297.53086537491, -46783.408139158266, -30966.28558233805, 30125.14473499593, 187500.0, -36972.28872445688, -19597.048413401655, -31723.428574017118, -42207.73782822345, -55861.79266712579, -17075.637528376286, -23948.06134081618, -33405.486751256794, -44404.42256980212, 0.002, 1.012, 0.046, 192.0, 0.0, 0.0, 0.0, 0.0, 0.0, 0.0, 0.0, 0.0, 0.0, 1.695333280057828E9, 0.0, 2023-09-21 16:54:40.057
226.0, 7514.5670788964135, 9579.689452611143, -24298.179065964112, -46786.917363037755, -30966.978486416163, 30123.557761139604, 187500.0, -36975.3285617028, -19589.404116797938, -31722.869780405737, -42204.6085839997, -55860.33980373619, -17071.167179485223, -23951.59291644012, -33396.613108708036, -44397.24765983196, 0.002, 1.012, 0.046, 192.0, 0.0, 0.0, 0.0, 0.0, 0.0, 0.0, 0.0, 0.0, 0.0, 1.695333280117994E9, 0.0, 2023-09-21 16:54:40.117
228.0, 7510.387302683271, 9577.968368288084, -24311.500705659477, -46791.387711928815, -30968.74427422813, 30148.703473651825, 187500.0, -36973.92040180211, -19604.200971627353, -31735.744385211994, -42219.45014231803, -55877.52829522232, -17087.305138981956, -23962.50056773431, -33408.0348501247, -44409.07173264882, 0.002, 1.012, 0.046, 192.0, 0.0, 0.0, 0.0, 0.0, 0.0, 0.0, 0.0, 0.0, 0.0, 1.695333280118025E9, 0.0, 2023-09-21 16:54:40.118
230.0, 7502.519488635003, 9567.552455371911, -24318.876781329727, -46805.223441746646, -30976.813253976496, 30131.35851995451, 187500.0, -36988.29257348688, -19607.441974573372, -31739.164202113654, -42222.735848752964, -55880.65753944607, -17089.875589594318, -23965.942736380428, -33408.39247803599, -44413.05034316186, 0.002, 1.012, 0.046, 192.0, 0.0, 0.0, 0.0, 0.0, 0.0, 0.0, 0.0, 0.0, 0.0, 1.695333280118066E9, 0.0, 2023-09-21 16:54:40.118
232.0, 7508.912087549221, 9570.391126917735, -24321.111955775257, -46803.50235742359, -30972.678181252264, 30143.607275916016, 187500.0, -36978.79308209337, -19609.297169363163, -31743.61219926026, -42227.65323253313, -55886.379586026625, -17093.541275684987, -23968.133207337047, -33411.722887959826, -44421.16402639914, 0.01, 1.012, 0.046, 192.0, 0.0, 40.0, 15.5, 80.0, 0.5, 56.0, 0.0, 0.0, 0.0, 1.695333280118076E9, 0.0, 2023-09-21 16:54:40.118
234.0, 7512.801291084444, 9568.334766427848, -24309.42199342513, -46795.65689511978, -30966.106768382404, 30128.899828064423, 187500.0, -36979.955372805045, -19601.921093692912, -31737.532524768416, -42222.78055224187, -55881.66336794655, -17086.053441292457, -23968.89316664853, -33402.916300644436, -44411.75394198346, 0.01, 1.012, 0.046, 192.0, 0.0, 0.0, 0.0, 0.0, 0.0, 0.0, 0.0, 0.0, 0.0, 1.695333280118085E9, 0.0, 2023-09-21 16:54:40.118
236.0, 7513.270677718006, 9566.121943726772, -24304.437554411597, -46785.59861011489, -30964.139814870337, 30139.695720636337, 187500.0, -36975.39561693616, -19600.8258582146, -31736.392585801197, -42220.008935929414, -55879.04821384528, -17082.65597613525, -23965.249832302314, -33392.94742261737, -44401.941526167575, 0.01, 1.012, 0.046, 192.0, 0.0, 0.0, 0.0, 0.0, 0.0, 0.0, 0.0, 0.0, 0.0, 1.695333280118094E9, 0.0, 2023-09-21 16:54:40.118
238.0, 7505.134642736273, 9556.577748844356, -24302.157676477156, -46791.946505540196, -30959.624762490366, 30121.613159371995, 187500.0, -36981.05060828336, -19606.994939684268, -31744.394510316197, -42226.647404032636, -55886.580751726724, -17087.41689770423, -23977.923271408472, -33396.2331290523, -44404.668438991124, 0.01, 1.012, 0.046, 192.0, 0.0, 0.0, 0.0, 0.0, 0.0, 0.0, 0.0, 0.0, 0.0, 1.695333280118104E9, 0.0, 2023-09-21 16:54:40.118
240.0, 7505.827546814388, 9555.437809877136, -24307.47739165752, -46796.95329629818, -30956.294352566525, 30137.594656657537, 187500.0, -36972.35577969024, -19607.41962282892, -31745.33328358332, -42225.462761576506, -55888.16772558305, -17083.28182498, -23973.475274261866, -33391.1816348054, -44405.94248842508, 0.01, 1.012, 0.046, 192.0, 0.0, 0.0, 0.0, 0.0, 0.0, 0.0, 0.0, 0.0, 0.0, 1.695333280118113E9, 0.0, 2023-09-21 16:54:40.118
242.0, 7500.15020372274, 9547.860568506787, -24311.43365042611, -46804.12820626834, -30957.635457233842, 30128.944531553334, 187500.0, -36984.31396297383, -19616.36032061104, -31746.361463828263, -42229.46372383401, -55891.051100617784, -17083.259473235546, -23973.4082190285, -33396.0319633522, -44409.161139626645, 0.018000000000000002, 1.016, 0.056, 192.0, 0.0, 72.0, 15.5, 96.0, 0.5, 96.0, 0.0, 0.0, 0.0, 1.695333280178308E9, 0.0, 2023-09-21 16:54:40.178
244.0, 7510.208488727629, 9557.516522111478, -24314.115859760746, -46797.8473660764, -30952.382797286846, 30133.77250835568, 187500.0, -36973.27220121291, -19610.9288467084, -31752.351731342285, -42234.626976803185, -55893.48744076341, -17090.635548905797, -23977.722105708373, -33401.508140743754, -44418.54887229787, 0.018000000000000002, 1.016, 0.056, 192.0, 0.0, 0.0, 0.0, 0.0, 0.0, 0.0, 0.0, 0.0, 0.0, 1.695333280178332E9, 0.0, 2023-09-21 16:54:40.178
246.0, 7494.942247264654, 9543.300812637903, -24315.591074894797, -46805.581069657936, -30954.439157776735, 30126.932874552356, 187500.0, -36977.787253592884, -19609.677149018902, -31746.160298128165, -42230.60366280123, -55886.8936761491, -17083.4829906801, -23973.4082190285, -33400.457608754354, -44409.161139626645, 0.018000000000000002, 1.016, 0.056, 192.0, 0.0, 0.0, 0.0, 0.0, 0.0, 0.0, 0.0, 0.0, 0.0, 1.695333280178343E9, 0.0, 2023-09-21 16:54:40.178
248.0, 7490.315436162405, 9535.36594335627, -24321.044900541892, -46807.9950580591, -30959.31183806799, 30134.755985111715, 187500.0, -36981.05060828336, -19623.22230615882, -31762.72294076955, -42244.08176470778, -55902.56224901226, -17092.08841229539, -23985.299347078722, -33399.09415234258, -44415.240814118486, 0.018000000000000002, 1.016, 0.056, 192.0, 0.0, 0.0, 0.0, 0.0, 0.0, 0.0, 0.0, 0.0, 0.0, 1.695333280178352E9, 0.0, 2023-09-21 16:54:40.178
250.0, 7489.868401273299, 9530.627373531745, -24324.777641865927, -46812.64422090581, -30961.56936425798, 30120.137944237944, 187500.0, -36994.05932355634, -19623.714044536835, -31763.974638459047, -42249.2226659325, -55905.87030719165, -17094.725918141117, -23990.574358770176, -33408.6830507139, -44420.627584532216, 0.018000000000000002, 1.016, 0.056, 192.0, 0.0, 0.0, 0.0, 0.0, 0.0, 0.0, 0.0, 0.0, 0.0, 1.695333280178362E9, 0.0, 2023-09-21 16:54:40.178
252.0, 7498.764395566511, 9541.713838781578, -24326.744595377993, -46806.38573245832, -30962.5081375251, 30119.735612837747, 187500.0, -36983.46459668453, -19630.531326595705, -31766.85801349378, -42257.0234247474, -55910.20654561598, -17097.00579607556, -23990.552007025723, -33411.924053659925, -44429.8365032478, 0.018000000000000002, 1.018, 0.058, 192.0, 0.0, 72.0, 15.5, 104.0, 0.5, 104.0, 0.0, 0.0, 0.0, 1.695333280178402E9, 0.0, 2023-09-21 16:54:40.178
254.0, 7509.157956738229, 9555.281347665948, -24318.206228996067, -46793.28761020752, -30957.300181067014, 30110.034955744144, 187500.0, -36977.49668091496, -19603.843343716067, -31738.22542884653, -42232.41415410211, -55883.719728436445, -17076.553949898953, -23964.847500902117, -33404.302108800664, -44407.46240704804, 0.018000000000000002, 1.018, 0.058, 192.0, 0.0, 0.0, 0.0, 0.0, 0.0, 0.0, 0.0, 0.0, 0.0, 1.695333280178412E9, 0.0, 2023-09-21 16:54:40.178
0.0, 7509.470881160603, 9555.281347665948, -24320.75432786397, -46794.58401138592, -30961.055274135506, 30111.62192960047, 187500.0, -36979.73185536049, -19606.659663517436, -31738.985388158013, -42235.16341867011, -55883.31739703625, -17077.42566793271, -23968.26731780378, -33400.92699538791, -44413.81030247334, 0.018000000000000002, 1.018, 0.058, 192.0, 0.0, 0.0, 0.0, 0.0, 0.0, 0.0, 0.0, 0.0, 0.0, 1.695333280238584E9, 0.0, 2023-09-21 16:54:40.238
2.0, 7503.659427602223, 9546.340649883825, -24324.308255232365, -46794.4946044081, -30971.00180041812, 30123.423650672874, 187500.0, -36987.443207197575, -19609.006596685245, -31748.775452229438, -42242.941825740556, -55893.01805412985, -17084.28765348049, -23976.381001041056, -33410.538245503696, -44419.286479864895, 0.018000000000000002, 1.018, 0.058, 192.0, 0.0, 0.0, 0.0, 0.0, 0.0, 0.0, 0.0, 0.0, 0.0, 1.695333280238621E9, 0.0, 2023-09-21 16:54:40.238
