%OpenBCI Raw EXG Data
%Number of channels = 16
%Sample Rate = 125 Hz
%Board = OpenBCI_GUI$BoardCytonSerialDaisy
Sample Index, EXG Channel 0, EXG Channel 1, EXG Channel 2, EXG Channel 3, EXG Channel 4, EXG Channel 5, EXG Channel 6, EXG Channel 7, EXG Channel 8, EXG Channel 9, EXG Channel 10, EXG Channel 11, EXG Channel 12, EXG Channel 13, EXG Channel 14, EXG Channel 15, Accel Channel 0, Accel Channel 1, Accel Channel 2, Other, Other, Other, Other, Other, Other, Other, Analog Channel 0, Analog Channel 1, Analog Channel 2, Timestamp, Other, Timestamp (Formatted)
0.0, 48972.42623238877, 48055.758840532166, 15336.001257419737, 29346.81228957323, 21611.879362091942, 18686.661861736997, -187500.02235174447, 20581.821570613574, 0.0, 0.0, 0.0, 0.0, 0.0, 0.0, 0.0, 0.0, 0.0, 0.0, 0.0, 192.0, 0.0, 0.0, 0.0, 0.0, 0.0, 0.0, 0.0, 0.0, 0.0, 1.69601660044245E9, 0.0, 2023-09-29 14:43:20.442
194.0, 48953.248435646114, 48061.57029409055, 15343.287926112167, 29353.96484779893, 21621.46826046327, 18693.79206821824, -187500.02235174447, 20592.237483529745, 44168.18698265398, 21344.440739684196, 32679.993829726438, 18427.471033033256, 39226.73037370806, 28251.57681126318, -19918.55590564679, 21661.969621416287, 0.016, 0.506, -0.079, 192.0, 0.5, 0.0, 15.5, 80.0, 125.5, 8.0, 0.0, 0.0, 0.0, 1.696016600442488E9, 0.0, 2023-09-29 14:43:20.442
196.0, 48975.287255679046, 48060.89974175689, 15343.13146390098, 29345.96292328393, 21612.88519059243, 18685.208998347403, -187500.02235174447, 20584.12380029247, 44165.61653204162, 21340.573887893428, 32730.553475684344, 18429.437986545323, 39231.82657144387, 28257.432968310473, -19910.710443342978, 21684.18725540486, 0.016, 0.506, -0.079, 192.0, 0.0, 0.0, 0.0, 0.0, 0.0, 0.0, 0.0, 0.0, 0.0, 1.696016600442499E9, 0.0, 2023-09-29 14:43:20.442
198.0, 48941.53612155153, 48051.66847129685, 15328.513423027209, 29342.81132731573, 21612.996949314707, 18682.727954712864, -187500.02235174447, 20582.87210260297, 44159.69331976096, 21331.610838366847, 32688.04045773035, 18413.054157859584, 39227.87031267528, 28234.701244199427, -19923.853269082698, 21662.48371153876, 0.016, 0.506, -0.079, 192.0, 0.0, 0.0, 0.0, 0.0, 0.0, 0.0, 0.0, 0.0, 0.0, 1.696016600442508E9, 0.0, 2023-09-29 14:43:20.442
200.0, 48973.16383995579, 48059.62569232294, 15338.616411521009, 29345.247667461357, 21618.763699384177, 18685.097239625127, -187500.02235174447, 20581.776867124663, 44160.766203494815, 21335.812966324447, 32712.13563825317, 18420.98902714122, 39229.47963827606, 28258.684665999972, -19909.50344914239, 21681.437990836857, 0.016, 0.506, -0.079, 192.0, 0.0, 0.0, 0.0, 0.0, 0.0, 0.0, 0.0, 0.0, 0.0, 1.696016600442518E9, 0.0, 2023-09-29 14:43:20.442
202.0, 48934.54002553702, 48051.19908466328, 15331.799129462139, 29343.66069360503, 21617.959036583787, 18688.584111760156, -187500.02235174447, 20579.2064165123, 44161.99554943986, 21338.606934381358, 32692.957841510517, 18417.144527094904, 39226.01511788549, 28254.862517698115, -19916.097213756708, 21669.68097325337, 0.016, 0.506, -0.079, 192.0, 0.0, 0.0, 0.0, 0.0, 0.0, 0.0, 0.0, 0.0, 0.0, 1.696016600442528E9, 0.0, 2023-09-29 14:43:20.442
204.0, 48970.727499810164, 48056.22822716573, 15339.532833043675, 29336.10580397914, 21609.55478066859, 18675.55304474271, -187500.02235174447, 20575.898358332917, 44158.62043602711, 21337.51169890305, 32708.514655651412, 18423.40301554239, 39226.32804230786, 28252.44852929694, -19912.36447243267, 21682.62263329299, 0.023, 0.761, -0.11549999999999999, 192.0, 0.0, 120.0, 15.5, 96.0, 125.5, 32.0, 0.0, 0.0, 0.0, 1.696016600442537E9, 0.0, 2023-09-29 14:43:20.442
206.0, 48899.33602801991, 48044.225340393226, 15318.633951977963, 29332.842449288662, 21616.66263540538, 18676.156541843004, -187500.02235174447, 20579.966375823784, 44156.988758681866, 21331.387320922295, 32691.952013010028, 18406.236875800714, 39218.01319337049, 28243.463128025905, -19928.03304529584, 21650.749045699722, 0.023, 0.761, -0.11549999999999999, 192.0, 0.0, 0.0, 0.0, 0.0, 0.0, 0.0, 0.0, 0.0, 0.0, 1.696016600442547E9, 0.0, 2023-09-29 14:43:20.442
208.0, 48953.673118790764, 48054.283625398115, 15343.310277856623, 29327.321568408202, 21610.828830102546, 18671.328565040658, -187500.02235174447, 20570.198663496813, 44152.920741191, 21325.37470166382, 32680.41851287109, 18404.672253688845, 39224.07051611788, 28230.990854619846, -19914.13026024464, 21669.077476153074, 0.023, 0.761, -0.11549999999999999, 192.0, 0.0, 0.0, 0.0, 0.0, 0.0, 0.0, 0.0, 0.0, 0.0, 1.696016600442556E9, 0.0, 2023-09-29 14:43:20.442
0.0, 27397.09197248125, 24113.77717420783, 9433.732561317987, 14152.029353622122, 12541.943793528533, 9863.80247638255, -93750.01117587223, 10756.218225505141, 22080.103704941717, 10666.118343605798, 16333.984295604741, 9198.212229992418, 19611.375881597505, 14120.334579984497, -9963.06657350857, 10822.781720493045, 0.0195, 0.8925000000000001, -0.07875, 192.0, 0.0, 64.0, 16.0, 0.0, 127.0, 88.0, 0.0, 0.0, 0.0, 1.696016600614679E9, 0.0, 2023-09-29 14:43:20.614
2.0, 54962.69374641106, 48285.199497365895, 18943.528109017385, 28315.41339342754, 25093.096505772653, 19728.342560332127, -187500.02235174447, 21513.665796955323, 48829.799751019455, 26961.679990491866, 28057.36250369102, 20388.791905497543, 40169.66106529964, 31717.415954758642, -16340.600411963513, 23296.664452155168, 0.0195, 0.8925000000000001, -0.07875, 192.0, 0.0, 0.0, 0.0, 0.0, 0.0, 0.0, 0.0, 0.0, 0.0, 1.696016600614756E9, 0.0, 2023-09-29 14:43:20.614
4.0, 54836.2946315163, 48244.45226722387, 18872.695430838517, 28300.102448475656, 25097.67861338599, 19728.633133010047, -187500.02235174447, 21514.045776611063, 48833.89012025477, 26966.418560316393, 28269.54761380525, 20390.423582842777, 40166.17419316461, 31714.107896579255, -16343.193214320328, 23297.670280655657, 0.0195, 0.8925000000000001, -0.07875, 192.0, 0.0, 0.0, 0.0, 0.0, 0.0, 0.0, 0.0, 0.0, 0.0, 1.696016600614767E9, 0.0, 2023-09-29 14:43:20.614
6.0, 54955.36237422972, 48281.17618336394, 18931.726387944986, 28302.091753732177, 25102.88656984408, 19728.633133010047, -187500.02235174447, 21508.9272271308, 48834.4265621217, 26965.837414960555, 28050.500518143243, 20397.732603279663, 40167.42589085411, 31701.36740223973, -16331.905583370399, 23295.7480306325, 0.0195, 0.8925000000000001, -0.07875, 192.0, 0.0, 0.0, 0.0, 0.0, 0.0, 0.0, 0.0, 0.0, 0.0, 1.696016600614776E9, 0.0, 2023-09-29 14:43:20.614
8.0, 54845.74941942089, 48243.58054919011, 18865.989907501928, 28290.26768091532, 25110.88849435908, 19727.47084229837, -187500.02235174447, 21530.139032618885, 48825.82114050641, 26958.550746268123, 28286.445532613463, 20383.13691415035, 40155.445355826065, 31716.544236724883, -16328.66458042438, 23303.45938246958, 0.01, 1.016, 0.018000000000000002, 192.0, 0.0, 40.0, 15.5, 96.0, 0.0, 72.0, 0.0, 0.0, 0.0, 1.696016600614785E9, 0.0, 2023-09-29 14:43:20.614
10.0, 54947.628670648184, 48293.67080851446, 18936.487309513966, 28306.89737879007, 25113.12366880461, 19735.115138902085, -187500.02235174447, 21524.10406161595, 48839.2768906685, 26973.235842375263, 28042.051558739135, 20387.786076997054, 40170.398672866664, 31718.354728025763, -16317.019321563164, 23298.00555682249, 0.01, 1.016, 0.018000000000000002, 192.0, 0.0, 0.0, 0.0, 0.0, 0.0, 0.0, 0.0, 0.0, 0.0, 1.696016600614794E9, 0.0, 2023-09-29 14:43:20.614
12.0, 54876.77364072486, 48252.87887488352, 18870.951994771003, 28284.9256139905, 25086.68155511398, 19728.61078126559, -187500.02235174447, 21511.944712632267, 48826.715210284616, 26962.037618403152, 28326.097527277176, 20387.69667001923, 40171.94094323408, 31698.685192905094, -16327.368179245972, 23313.38355700774, 0.01, 1.016, 0.018000000000000002, 192.0, 0.0, 0.0, 0.0, 0.0, 0.0, 0.0, 0.0, 0.0, 0.0, 1.696016600614804E9, 0.0, 2023-09-29 14:43:20.614
14.0, 54919.2643069344, 48293.2014218809, 18931.12289084469, 28310.78658232529, 25111.8272676262, 19742.491214572336, -187500.02235174447, 21526.048663383564, 48835.79001853347, 26974.353429598028, 28084.98925983778, 20383.65100427282, 40163.93901871908, 31715.449001246572, -16337.04648459512, 23286.002670049988, 0.01, 1.016, 0.018000000000000002, 192.0, 0.0, 0.0, 0.0, 0.0, 0.0, 0.0, 0.0, 0.0, 0.0, 1.696016600614812E9, 0.0, 2023-09-29 14:43:20.614
16.0, 54904.57921082726, 48261.79722092119, 18889.526294413365, 28288.12191344761, 25099.936139575977, 19733.37170283457, -187500.02235174447, 21526.294532572574, 48831.118503942314, 26970.866557463, 28335.50761169286, 20402.582931826466, 40160.29568437287, 31704.80957088585, -16320.796766376112, 23320.022025110964, 0.01, 1.016, 0.018000000000000002, 192.0, 0.0, 0.0, 0.0, 0.0, 0.0, 0.0, 0.0, 0.0, 0.0, 1.696016600675102E9, 0.0, 2023-09-29 14:43:20.675
18.0, 54901.49467009243, 48285.28890434372, 18921.198716306535, 28309.60193986916, 25103.087735544173, 19741.95477270541, -187500.02235174447, 21528.507355273647, 48835.65590806674, 26976.320383110095, 28121.489658533297, 20383.159265894803, 40166.911800731636, 31712.878550634214, -16339.885156140943, 23287.65669913968, 0.006, 1.012, 0.05, 192.0, 0.0, 24.0, 15.5, 80.0, 0.5, 72.0, 0.0, 0.0, 0.0, 1.696016600675137E9, 0.0, 2023-09-29 14:43:20.675
20.0, 54918.616106345195, 48272.548410004194, 18895.851838094215, 28300.393021153573, 25098.9750145644, 19737.10444415861, -187500.02235174447, 21520.304265058552, 48837.89108251227, 26982.57887155758, 28357.09939683669, 20414.675225576786, 40177.685341559096, 31728.61417873075, -16327.144661801418, 23325.833478669345, 0.006, 1.012, 0.05, 192.0, 0.0, 0.0, 0.0, 0.0, 0.0, 0.0, 0.0, 0.0, 0.0, 1.69601660067515E9, 0.0, 2023-09-29 14:43:20.675
22.0, 54886.317835607275, 48281.712625230866, 18908.659387667107, 28306.31623343423, 25101.612520410126, 19740.792481993733, -187500.02235174447, 21517.890276657377, 48843.702536070654, 26980.611918045513, 28165.969629999356, 20386.623786285378, 40171.20333566706, 31722.199228072077, -16344.087284098541, 23287.679050884137, 0.006, 1.012, 0.05, 192.0, 0.0, 0.0, 0.0, 0.0, 0.0, 0.0, 0.0, 0.0, 0.0, 1.696016600675159E9, 0.0, 2023-09-29 14:43:20.675
24.0, 54931.82598731828, 48272.32489255964, 18900.590407918742, 28295.0286024843, 25108.720375146913, 19734.71280750189, -187500.02235174447, 21522.047701126063, 48837.24288192307, 26975.023981931685, 28368.074103364244, 20411.188353441757, 40174.37728337971, 31711.068059333335, -16334.453682238303, 23317.6527401987, 0.006, 1.012, 0.05, 192.0, 0.0, 0.0, 0.0, 0.0, 0.0, 0.0, 0.0, 0.0, 0.0, 1.696016600675229E9, 0.0, 2023-09-29 14:43:20.675
26.0, 54851.225596812445, 48274.4930117718, 18909.12877430067, 28300.661242087037, 25112.92250310451, 19741.753607005314, -187500.02235174447, 21528.507355273647, 48844.64130933778, 26981.170711656894, 28215.45639222341, 20390.356527609412, 40162.24028614048, 31710.263396532944, -16338.409941006894, 23286.27089098345, 0.006, 1.012, 0.05, 192.0, 0.0, 0.0, 0.0, 0.0, 0.0, 0.0, 0.0, 0.0, 0.0, 1.696016600675254E9, 0.0, 2023-09-29 14:43:20.675
28.0, 54932.13891174065, 48277.48814552881, 18908.480573711466, 28281.304631388743, 25091.97891854989, 19716.742004959822, -187500.02235174447, 21514.090480099974, 48832.54901558746, 26968.519624295193, 28372.23152783293, 20414.496411621145, 40171.739777533985, 31703.781390640903, -16340.287487541138, 23306.99095809352, 0.004, 1.016, 0.056, 192.0, 0.0, 16.0, 15.5, 96.0, 0.5, 96.0, 0.0, 0.0, 0.0, 1.696016600675263E9, 0.0, 2023-09-29 14:43:20.675
30.0, 54823.554137176776, 48275.81176469466, 18902.512657941897, 28299.387192653085, 25105.792296623265, 19741.328923860663, -187500.02235174447, 21528.105023873453, 48843.12139071481, 26974.442836575847, 28276.70017203095, 20388.724850264174, 40159.46866982802, 31699.400448727665, -16356.268984826684, 23266.6907628406, 0.004, 1.016, 0.056, 192.0, 0.0, 0.0, 0.0, 0.0, 0.0, 0.0, 0.0, 0.0, 0.0, 1.696016600734456E9, 0.0, 2023-09-29 14:43:20.734
32.0, 54949.70738288252, 48288.149927634, 18922.36100701821, 28281.058762199733, 25095.48814242937, 19724.632170752546, -187500.02235174447, 21507.988453863676, 48844.842475037876, 26972.252365619228, 28386.357830328685, 20423.682978592275, 40185.24023118499, 31703.781390640903, -16339.61693520748, 23313.249446541005, 0.004, 1.016, 0.056, 192.0, 0.0, 0.0, 0.0, 0.0, 0.0, 0.0, 0.0, 0.0, 0.0, 1.696016600734481E9, 0.0, 2023-09-29 14:43:20.734
34.0, 54808.936096303005, 48262.64658721049, 18889.03455603535, 28290.357087893142, 25100.96431982092, 19734.62340052407, -187500.02235174447, 21517.845573168466, 48847.65879483924, 26969.99483942924, 28337.228696015918, 20382.913396705797, 40158.21697213852, 31704.697812163573, -16366.640194253945, 23260.834605793312, 0.004, 1.016, 0.056, 192.0, 0.0, 0.0, 0.0, 0.0, 0.0, 0.0, 0.0, 0.0, 0.0, 1.69601660073449E9, 0.0, 2023-09-29 14:43:20.734
36.0, 54957.95517658653, 48284.61835201006, 18921.243419795446, 28284.25506165684, 25090.59311039366, 19721.078243384152, -187500.02235174447, 21517.711462701736, 48834.00187897705, 26963.46813004829, 28385.106132639186, 20410.786022041564, 40159.580428550296, 31714.107896579255, -16356.671316226879, 23298.00555682249, 0.004, 1.016, 0.056, 192.0, 0.0, 0.0, 0.0, 0.0, 0.0, 0.0, 0.0, 0.0, 0.0, 1.696016600734499E9, 0.0, 2023-09-29 14:43:20.734
38.0, 54804.376340434115, 48260.76904067624, 18881.479666409454, 28290.915881504523, 25103.8253431112, 19734.66810401298, -187500.02235174447, 21515.900971400853, 48846.4294488942, 26972.92291795289, 28411.32472888526, 20389.12718166437, 40164.56486756383, 31713.727916923515, -16361.968679662787, 23271.47403615404, 0.002, 1.02, 0.052000000000000005, 192.0, 0.0, 8.0, 15.5, 112.0, 0.5, 80.0, 0.0, 0.0, 0.0, 1.696016600734508E9, 0.0, 2023-09-29 14:43:20.734
40.0, 54973.780211660895, 48287.7475962338, 18928.664198954608, 28277.236613897876, 25084.62519462409, 19732.61174352309, -187500.02235174447, 21520.88541041439, 48834.80654177744, 26962.685818992355, 28382.28981283782, 20411.501277864132, 40170.21985891103, 31690.772675367916, -16359.487636028247, 23295.9491963326, 0.002, 1.02, 0.052000000000000005, 192.0, 0.0, 0.0, 0.0, 0.0, 0.0, 0.0, 0.0, 0.0, 0.0, 1.696016600734518E9, 0.0, 2023-09-29 14:43:20.734
42.0, 54800.889468299094, 48248.22971203682, 18867.01808774687, 28285.573814579704, 25102.663052399523, 19742.91589771699, -187500.02235174447, 21523.791137193577, 48839.81333253543, 26968.653734761923, 28483.476159986993, 20384.16509439529, 40160.65331228415, 31707.357669753754, -16374.418601324393, 23274.446818166594, 0.002, 1.02, 0.052000000000000005, 192.0, 0.0, 0.0, 0.0, 0.0, 0.0, 0.0, 0.0, 0.0, 0.0, 1.696016600734527E9, 0.0, 2023-09-29 14:43:20.734
44.0, 54965.68888016807, 48288.84283171211, 18929.200640821535, 28285.1267796906, 25099.332642475685, 19731.315342344686, -187500.02235174447, 21508.63665445288, 48837.08641971188, 26970.888909207453, 28376.657173235082, 20409.80254528553, 40170.73394903349, 31713.303233778865, -16354.52554875917, 23300.307786501384, 0.002, 1.02, 0.052000000000000005, 192.0, 0.0, 0.0, 0.0, 0.0, 0.0, 0.0, 0.0, 0.0, 0.0, 1.696016600734535E9, 0.0, 2023-09-29 14:43:20.734
46.0, 54810.053683525766, 48242.97705208982, 18860.469026621464, 28274.576756307695, 25094.88464532908, 19734.645752268523, -187500.02235174447, 21535.83872745499, 48830.04562020846, 26958.617801501492, 28551.51487010895, 20380.6111670269, 40152.651387769154, 31682.346067708266, -16366.483732042758, 23286.561463661368, 0.002, 1.02, 0.052000000000000005, 192.0, 0.0, 0.0, 0.0, 0.0, 0.0, 0.0, 0.0, 0.0, 0.0, 1.696016600794144E9, 0.0, 2023-09-29 14:43:20.794
48.0, 54949.90854858262, 48298.99052369482, 18924.93145763057, 28293.061648972234, 25093.521188917304, 19732.410577822993, -187500.02235174447, 21522.20416333725, 48837.846379023365, 26968.98901092875, 28417.314996399284, 20408.17086794029, 40145.23060860999, 31720.880475149213, -16359.018249394687, 23295.99389982151, 0.002, 1.02, 0.052000000000000005, 192.0, 0.0, 0.0, 15.5, 104.0, 0.5, 72.0, 0.0, 0.0, 0.0, 1.696016600794166E9, 0.0, 2023-09-29 14:43:20.794
50.0, 54801.3365031882, 48262.825401166134, 18856.4010091306, 28278.60007030965, 25087.86619757011, 19738.981990692853, -187500.02235174447, 21519.678416213803, 48841.959100003136, 26970.553633040625, 28590.026925805443, 20395.877408489872, 40159.73689076149, 31701.52386445092, -16370.90937744491, 23282.046411281397, 0.002, 1.02, 0.052000000000000005, 192.0, 0.0, 0.0, 0.0, 0.0, 0.0, 0.0, 0.0, 0.0, 0.0, 1.696016600794176E9, 0.0, 2023-09-29 14:43:20.794
52.0, 54956.41290621912, 48307.9535732214, 18926.160803575614, 28278.10833193163, 25082.166502734006, 19717.971350904867, -187500.02235174447, 21496.16438104682, 48841.66852732522, 26971.67122026339, 28391.99046993142, 20411.99301624215, 40172.20916416754, 31707.51413196494, -16365.164979119896, 23282.09111477031, 0.002, 1.02, 0.052000000000000005, 192.0, 0.0, 0.0, 0.0, 0.0, 0.0, 0.0, 0.0, 0.0, 0.0, 1.696016600794185E9, 0.0, 2023-09-29 14:43:20.794
54.0, 54837.97101235045, 48263.98769187781, 18856.333953897232, 28257.36591307711, 25081.7194678449, 19723.76045271879, -187500.02235174447, 21501.327634015994, 48841.75793430304, 26968.85490046202, 28663.787682507955, 20406.069803961494, 40166.285951886886, 31709.99517559948, -16376.318499603094, 23276.257309467474, 0.002, 1.02, 0.052000000000000005, 192.0, 0.0, 0.0, 0.0, 0.0, 0.0, 0.0, 0.0, 0.0, 0.0, 1.696016600794194E9, 0.0, 2023-09-29 14:43:20.794
56.0, 54937.23510947647, 48306.18778540943, 18926.69724544254, 28270.195814394454, 25086.01100278032, 19730.488327799838, -187500.02235174447, 21521.801831937057, 48852.95615827515, 26979.89666222294, 28431.508354128404, 20415.144612210348, 40169.482251344, 31702.79791388487, -16373.636290268458, 23260.61108834876, 0.002, 1.02, 0.052000000000000005, 192.0, 0.0, 0.0, 0.0, 0.0, 0.0, 0.0, 0.0, 0.0, 0.0, 1.696016600794203E9, 0.0, 2023-09-29 14:43:20.794
58.0, 54842.64252694161, 48259.29382554219, 18865.274651679356, 28254.460186297918, 25078.14318873205, 19729.14722313252, -187500.02235174447, 21516.30330280105, 48836.773495289504, 26966.70913299431, 28685.71474381861, 20409.690786563253, 40152.18200113559, 31701.27799526191, -16378.888950215454, 23273.776265832934, -0.002, 1.018, 0.052000000000000005, 192.0, 127.5, 120.0, 15.5, 104.0, 0.5, 80.0, 0.0, 0.0, 0.0, 1.696016600794212E9, 0.0, 2023-09-29 14:43:20.794
60.0, 54915.84449003274, 48298.25291612779, 18920.70697792852, 28266.552480048238, 25079.931328288476, 19729.504851043803, -187500.02235174447, 21507.16143931883, 48850.966853018625, 26973.682877264368, 28435.15168847462, 20403.90168474933, 40159.155745405646, 31697.36643998223, -16375.804409480621, 23256.341905157795, -0.002, 1.018, 0.052000000000000005, 192.0, 0.0, 0.0, 0.0, 0.0, 0.0, 0.0, 0.0, 0.0, 0.0, 1.696016600854409E9, 0.0, 2023-09-29 14:43:20.854
62.0, 54864.27901557434, 48262.80304942168, 18861.87718652215, 28249.431043795474, 25070.409485150514, 19724.073377141165, -187500.02235174447, 21513.732852188692, 48840.349774402355, 26964.026923659676, 28704.758430094535, 20409.64608307434, 40151.44439356856, 31688.381038711195, -16382.442877583848, 23280.25827172497, -0.002, 1.018, 0.052000000000000005, 192.0, 0.0, 0.0, 0.0, 0.0, 0.0, 0.0, 0.0, 0.0, 0.0, 1.696016600854437E9, 0.0, 2023-09-29 14:43:20.854
64.0, 54900.53354508085, 48294.140195148015, 18914.73906215895, 28267.111273659622, 25080.780694577777, 19723.179307362952, -187500.02235174447, 21518.471422013215, 48853.13497223079, 26976.7674179992, 28456.7658253629, 20403.119373693393, 40157.18879189358, 31700.160408039144, -16370.685860000356, 23255.090207468296, -0.002, 1.018, 0.052000000000000005, 192.0, 0.0, 0.0, 0.0, 0.0, 0.0, 0.0, 0.0, 0.0, 0.0, 1.696016600854446E9, 0.0, 2023-09-29 14:43:20.854
66.0, 54894.14094616663, 48267.876895413036, 18874.77414307286, 28250.906258929524, 25075.52803463078, 19725.123909130565, -187500.02235174447, 21517.1303173459, 48846.40709714974, 26965.546842282634, 28716.381337211293, 20416.28455117757, 40170.5327833334, 31699.288690005385, -16375.022098424686, 23278.827760079832, -0.002, 1.018, 0.052000000000000005, 192.0, 0.0, 0.0, 0.0, 0.0, 0.0, 0.0, 0.0, 0.0, 0.0, 1.696016600854455E9, 0.0, 2023-09-29 14:43:20.854
68.0, 54891.63755078764, 48280.08094788563, 18905.753660887916, 28264.83139572518, 25074.00811600782, 19726.889696942533, -187500.02235174447, 21509.217799808717, 48850.31865242942, 26975.38160984297, 28512.980462667998, 20399.65485330282, 40157.2781988714, 31702.596748184773, -16378.598377537535, 23257.07951272482, 0.002, 1.018, 0.05, 192.0, 0.0, 8.0, 15.5, 104.0, 0.5, 72.0, 0.0, 0.0, 0.0, 1.696016600854499E9, 0.0, 2023-09-29 14:43:20.854
70.0, 54914.570440598785, 48268.92742740243, 18879.78093383085, 28248.82754669518, 25067.548461860235, 19724.788632963733, -187500.02235174447, 21494.622110679404, 48842.8308180369, 26969.078417906574, 28745.751529425568, 20415.546943610545, 40161.03329193989, 31694.70658239205, -16371.445819311837, 23284.16982700465, 0.002, 1.018, 0.05, 192.0, 0.0, 0.0, 0.0, 0.0, 0.0, 0.0, 0.0, 0.0, 0.0, 1.696016600854509E9, 0.0, 2023-09-29 14:43:20.854
72.0, 54870.76102146638, 48287.434671811425, 18891.850875836717, 28259.176404377988, 25069.53776711676, 19731.449452811416, -187500.02235174447, 21526.138070361387, 48846.34004191638, 26979.270813378196, 28557.348675411784, 20390.736507265152, 40150.08093715679, 31713.59380645678, -16389.371918364992, 23247.691780053592, 0.002, 1.018, 0.05, 192.0, 0.0, 0.0, 0.0, 0.0, 0.0, 0.0, 0.0, 0.0, 0.0, 1.696016600854518E9, 0.0, 2023-09-29 14:43:20.854
74.0, 54940.856092078226, 48288.775776478746, 18887.1570095011, 28246.994703649845, 25068.755456060822, 19725.95092367541, -187500.02235174447, 21512.16823007682, 48840.282719168994, 26974.53224355367, 28750.199526572174, 20420.196106457246, 40160.78742275089, 31692.247890501963, -16370.842322211543, 23292.84230385331, 0.002, 1.018, 0.05, 192.0, 0.0, 0.0, 0.0, 0.0, 0.0, 0.0, 0.0, 0.0, 0.0, 1.696016600854527E9, 0.0, 2023-09-29 14:43:20.854
76.0, 54847.023468854844, 48282.62904675354, 18885.435925178044, 28250.1686513625, 25069.046028738743, 19729.013112665787, -187500.02235174447, 21505.485058484683, 48853.5820071199, 26976.81212148811, 28581.533262912428, 20391.965853210193, 40156.13825990418, 31704.966033097036, -16382.24171188375, 23249.144643443185, 0.002, 1.018, 0.05, 192.0, 0.0, 0.0, 0.0, 0.0, 0.0, 0.0, 0.0, 0.0, 0.0, 1.696016600914583E9, 0.0, 2023-09-29 14:43:20.914
78.0, 54953.641289906656, 48290.54156429071, 18902.691471897542, 28245.00539839332, 25074.745723574844, 19720.787670706235, -187500.02235174447, 21502.10994507193, 48844.14957095976, 26959.08718813505, 28705.093706261363, 20414.496411621145, 40164.92249547512, 31674.16532923762, -16372.183426878863, 23282.22522523704, 0.006, 1.022, 0.05, 192.0, 0.0, 24.0, 15.5, 120.0, 0.5, 72.0, 0.0, 0.0, 0.0, 1.696016600914608E9, 0.0, 2023-09-29 14:43:20.914
80.0, 54849.63862295612, 48284.86422119907, 18893.080221781758, 28263.177366635486, 25093.901168573044, 19738.37849359256, -187500.02235174447, 21530.004922152155, 48860.19812347867, 26972.788807486155, 28617.184295318642, 20395.85505674542, 40170.30926588884, 31698.97576558301, -16372.742220490245, 23252.340942900293, 0.006, 1.022, 0.05, 192.0, 0.0, 0.0, 0.0, 0.0, 0.0, 0.0, 0.0, 0.0, 0.0, 1.696016600914619E9, 0.0, 2023-09-29 14:43:20.914
82.0, 54975.814220406326, 48311.70866628989, 18917.153050560126, 28262.328000346184, 25082.54648238975, 19741.99947619432, -187500.02235174447, 21526.182773850298, 48863.684995613694, 26982.221243646294, 28711.665119131223, 20438.457481677233, 40170.64454205568, 31714.80080065737, -16351.150435346419, 23305.918074359666, 0.006, 1.022, 0.05, 192.0, 0.0, 0.0, 0.0, 0.0, 0.0, 0.0, 0.0, 0.0, 0.0, 1.696016600914628E9, 0.0, 2023-09-29 14:43:20.914
84.0, 54831.98074483642, 48280.90796243048, 18872.874244794162, 28255.98010492088, 25069.20249094993, 19744.212298895396, -187500.02235174447, 21512.101174843454, 48864.891989814285, 26985.574005314593, 28675.05296171343, 20402.627635315377, 40165.12366117521, 31704.407239485652, -16381.839380483554, 23263.002725005477, 0.006, 1.022, 0.05, 192.0, 0.0, 0.0, 0.0, 0.0, 0.0, 0.0, 0.0, 0.0, 0.0, 1.696016600914637E9, 0.0, 2023-09-29 14:43:20.914
86.0, 54982.296226298364, 48314.502634346805, 18916.616608693195, 28251.59916300764, 25067.034371737765, 19726.17444111996, -187500.02235174447, 21501.282930527082, 48865.49548691458, 26983.33883086906, 28698.29877594695, 20432.28840020757, 40184.79319629588, 31700.31687025033, -16362.818045952088, 23297.714984144568, 0.006, 1.022, 0.05, 192.0, 0.0, 0.0, 0.0, 0.0, 0.0, 0.0, 0.0, 0.0, 0.0, 1.696016600914646E9, 0.0, 2023-09-29 14:43:20.914
88.0, 54824.00117206588, 48274.11303211606, 18868.69446858102, 28248.69343622845, 25069.984802005863, 19733.215240623384, -187500.02235174447, 21515.610398722936, 48863.52853340251, 26980.366048856504, 28739.627151444813, 20404.862809760907, 40156.09355641527, 31718.846466403782, -16384.543941562646, 23260.812254048855, 0.004, 1.024, 0.048, 192.0, 0.0, 16.0, 16.0, 0.0, 0.5, 64.0, 0.0, 0.0, 0.0, 1.696016600914654E9, 0.0, 2023-09-29 14:43:20.914
90.0, 54983.436165265586, 48303.61733479707, 18915.87900112617, 28237.562267489706, 25063.43574088046, 19720.251228839308, -187500.02235174447, 21493.50452345664, 48855.21368446513, 26969.592508029047, 28689.335726420373, 20420.911362279818, 40180.16638519363, 31697.388791726687, -16369.344755333039, 23291.143571274708, 0.004, 1.024, 0.048, 192.0, 0.0, 0.0, 0.0, 0.0, 0.0, 0.0, 0.0, 0.0, 0.0, 1.696016600975011E9, 0.0, 2023-09-29 14:43:20.975
92.0, 54829.92438434654, 48261.73016568782, 18857.183320186534, 28237.897543656534, 25077.33852593166, 19730.689493499936, -187500.02235174447, 21528.328541318006, 48849.223416951114, 26961.63528700296, 28794.970070716154, 20390.401231098323, 40158.93222796109, 31686.83876834378, -16388.90253173143, 23261.661620338156, 0.004, 1.024, 0.048, 192.0, 0.0, 0.0, 0.0, 0.0, 0.0, 0.0, 0.0, 0.0, 0.0, 1.696016600975037E9, 0.0, 2023-09-29 14:43:20.975
94.0, 54982.83266816529, 48301.918602218466, 18915.655483681618, 28233.337787787652, 25066.49792987084, 19721.346464317616, -187500.02235174447, 21503.78632590608, 48849.89396928477, 26964.272792848682, 28690.87799678779, 20416.955103511227, 40158.529896560896, 31698.260509760443, -16366.90841518741, 23285.689745627613, 0.004, 1.024, 0.048, 192.0, 0.0, 0.0, 0.0, 0.0, 0.0, 0.0, 0.0, 0.0, 0.0, 1.696016600975047E9, 0.0, 2023-09-29 14:43:20.975
96.0, 54826.57162267824, 48257.55038947468, 18848.86847124916, 28222.787764404748, 25068.084903727166, 19719.871249183565, -187500.02235174447, 21486.039040808566, 48848.86578903983, 26957.075531134076, 28854.29160050054, 20390.960024709704, 40149.38803307868, 31689.878605589704, -16392.210589910817, 23258.018285991944, 0.004, 1.024, 0.048, 192.0, 0.0, 0.0, 0.0, 0.0, 0.0, 0.0, 0.0, 0.0, 0.0, 1.696016600975056E9, 0.0, 2023-09-29 14:43:20.975
98.0, 54975.83657215078, 48307.014799954275, 18928.597143721243, 28237.383453534065, 25078.34435443215, 19727.135566131543, -187500.02235174447, 21508.457840497238, 48859.4828676561, 26969.212528373308, 28675.745865791545, 20416.552772111034, 40169.61636181073, 31684.871814831713, -16376.273796114183, 23267.920108785645, 0.004, 1.024, 0.048, 192.0, 0.0, 0.0, 15.5, 96.0, 0.5, 72.0, 0.0, 0.0, 0.0, 1.696016600975065E9, 0.0, 2023-09-29 14:43:20.975
100.0, 54841.72610541894, 48264.63589246701, 18865.274651679356, 28228.39805226303, 25083.552310890238, 19734.71280750189, -187500.02235174447, 21524.34993080496, 48862.500353157564, 26971.447702818838, 28881.00193512463, 20405.667472561297, 40180.79223403838, 31702.172065040122, -16375.692650758345, 23275.720867600547, 0.004, 1.024, 0.048, 192.0, 0.0, 0.0, 0.0, 0.0, 0.0, 0.0, 0.0, 0.0, 0.0, 1.696016600975075E9, 0.0, 2023-09-29 14:43:20.975
102.0, 54964.83951387877, 48305.74075052032, 18917.331864515767, 28228.979197618868, 25067.190833948953, 19725.74975797531, -187500.02235174447, 21499.897122370854, 48859.57227463392, 26968.273755106184, 28672.549566334437, 20411.344815652945, 40164.14018441918, 31687.017582299424, -16376.34085134755, 23270.378800675728, 0.004, 1.024, 0.048, 192.0, 0.0, 0.0, 0.0, 0.0, 0.0, 0.0, 0.0, 0.0, 0.0, 1.696016600975084E9, 0.0, 2023-09-29 14:43:20.975
104.0, 54857.08175385973, 48269.59797973609, 18854.702276551998, 28220.39612774803, 25072.53290087377, 19730.868307455577, -187500.02235174447, 21503.20518055024, 48859.70638510065, 26968.609031273012, 28910.662700016823, 20408.66260631831, 40148.27044585591, 31700.585091183795, -16379.268929871194, 23276.860806567765, 0.004, 1.024, 0.048, 192.0, 0.0, 0.0, 0.0, 0.0, 0.0, 0.0, 0.0, 0.0, 0.0, 1.696016600975093E9, 0.0, 2023-09-29 14:43:20.975
106.0, 54947.20398750353, 48306.2995441317, 18913.666178425097, 28229.78386041926, 25060.194737934442, 19724.654522497003, -187500.02235174447, 21502.177000305295, 48861.00278627906, 26969.950135940333, 28684.798322295945, 20410.920132508294, 40166.37535886471, 31701.970899340024, -16376.921996703388, 23265.75198957348, 0.004, 1.024, 0.048, 192.0, 0.0, 0.0, 0.0, 0.0, 0.0, 0.0, 0.0, 0.0, 0.0, 1.69601660103439E9, 0.0, 2023-09-29 14:43:21.034
108.0, 54855.71829744796, 48263.02656686623, 18854.903442252093, 28212.72947939986, 25063.927479258477, 19724.31924633017, -187500.02235174447, 21504.613340450924, 48851.592701863374, 26972.878214463977, 28945.55377311156, 20411.70244356423, 40163.15670766315, 31706.575358697817, -16372.518703045691, 23281.68878337011, 0.004, 1.024, 0.048, 192.0, 0.0, 0.0, 15.5, 104.0, 0.5, 80.0, 0.0, 0.0, 0.0, 1.696016601034415E9, 0.0, 2023-09-29 14:43:21.034
110.0, 54902.746367781925, 48291.010950924276, 18899.27165499588, 28222.96657836039, 25066.140301959553, 19721.48057478435, -187500.02235174447, 21495.136200801873, 48842.20496919215, 26962.529356781168, 28708.804095840944, 20387.383745596857, 40134.412364293625, 31683.106027019745, -16388.321386375595, 23249.8375475213, 0.004, 1.024, 0.048, 192.0, 0.0, 0.0, 0.0, 0.0, 0.0, 0.0, 0.0, 0.0, 0.0, 1.696016601034425E9, 0.0, 2023-09-29 14:43:21.034
112.0, 54862.982614395936, 48268.36863379105, 18862.5030353669, 28208.68381365345, 25064.57567984768, 19729.28133359925, -187500.02235174447, 21507.384956763384, 48849.357527417844, 26959.802443957622, 28950.784081314097, 20399.69955679173, 40149.96917843451, 31685.140035765176, -16382.979319450775, 23274.31270769986, 0.004, 1.024, 0.048, 192.0, 0.0, 0.0, 0.0, 0.0, 0.0, 0.0, 0.0, 0.0, 0.0, 1.696016601034434E9, 0.0, 2023-09-29 14:43:21.034
114.0, 54893.00100719941, 48292.03913116922, 18902.3114922418, 28212.215389277386, 25073.315211929705, 19721.435871295438, -187500.02235174447, 21495.315014757518, 48860.60045487886, 26963.46813004829, 28700.377488181293, 20387.070821174482, 40165.34717861977, 31689.856253845246, -16388.120220675497, 23249.546974843382, 0.004, 1.024, 0.048, 192.0, 0.0, 0.0, 0.0, 0.0, 0.0, 0.0, 0.0, 0.0, 0.0, 1.696016601034499E9, 0.0, 2023-09-29 14:43:21.034
116.0, 54908.133138195655, 48275.11886061655, 18872.717782582975, 28202.313566483685, 25071.504720628825, 19712.450470024403, -187500.02235174447, 21496.946692102756, 48846.69766982766, 26953.275734576673, 28949.800604558066, 20400.772440525587, 40159.580428550296, 31672.93598329258, -16378.57602579308, 23275.13972224471, 0.004, 1.024, 0.048, 192.0, 0.0, 0.0, 0.0, 0.0, 0.0, 0.0, 0.0, 0.0, 0.0, 1.696016601034509E9, 0.0, 2023-09-29 14:43:21.034
118.0, 54887.74834725241, 48283.83604095412, 18899.092841040238, 28221.267845781786, 25068.33077291617, 19718.172516604962, -187500.02235174447, 21515.766860934124, 48862.20978047965, 26966.396208571936, 28749.97600912762, 20389.75303050912, 40159.08869017228, 31703.110838307246, -16387.5167235752, 23245.680123052614, 0.004, 1.024, 0.048, 192.0, 0.0, 0.0, 15.5, 120.0, 0.5, 64.0, 0.0, 0.0, 0.0, 1.696016601034518E9, 0.0, 2023-09-29 14:43:21.034
120.0, 54931.84833906274, 48279.522154274244, 18888.095782768225, 28219.502057969818, 25070.409485150514, 19724.609819008092, -187500.02235174447, 21534.564678021037, 48853.5820071199, 26956.941420667343, 28967.436130933304, 20412.305940664522, 40168.99051296598, 31675.104102504745, -16370.887025700455, 23287.120257272752, 0.004, 1.024, 0.048, 192.0, 0.0, 0.0, 0.0, 0.0, 0.0, 0.0, 0.0, 0.0, 0.0, 1.696016601094102E9, 0.0, 2023-09-29 14:43:21.094
122.0, 54861.66386147307, 48289.02164566775, 18894.98012006046, 28241.20560183592, 25077.13736023156, 19736.992685436333, -187500.02235174447, 21525.244000583174, 48873.65387364077, 26972.744103997244, 28784.509454311068, 20390.200065398225, 40166.19654490907, 31709.101105821268, -16378.598377537535, 23259.26998368144, 0.004, 1.024, 0.048, 192.0, 0.0, 0.0, 0.0, 0.0, 0.0, 0.0, 0.0, 0.0, 0.0, 1.696016601094129E9, 0.0, 2023-09-29 14:43:21.094
124.0, 54939.35852519972, 48292.91084920298, 18892.54377991483, 28240.624456480084, 25066.564985104204, 19731.628266767057, -187500.02235174447, 21525.333407560996, 48875.84434459738, 26975.694534265345, 28914.261330874127, 20422.453632647233, 40186.11194921875, 31711.537445966896, -16360.7616854622, 23296.57504517735, 0.004, 1.024, 0.048, 192.0, 0.0, 0.0, 0.0, 0.0, 0.0, 0.0, 0.0, 0.0, 0.0, 1.696016601094139E9, 0.0, 2023-09-29 14:43:21.094
126.0, 54853.41606776906, 48286.58530552212, 18882.239625720933, 28251.286238585264, 25066.453226381927, 19744.72638901787, -187500.02235174447, 21531.50248903066, 48876.44784169768, 26980.500159323237, 28769.869061692843, 20386.266158374092, 40173.70673104605, 31706.955338353557, -16380.408868838414, 23257.168919702643, 0.004, 1.024, 0.048, 192.0, 0.0, 0.0, 0.0, 0.0, 0.0, 0.0, 0.0, 0.0, 0.0, 1.696016601094148E9, 0.0, 2023-09-29 14:43:21.094
128.0, 54972.997900604954, 48302.20917489639, 18896.053003794314, 28248.939305417458, 25065.29093567025, 19739.674894770968, -187500.02235174447, 21524.59579999397, 48864.35554794736, 26974.241670875752, 28888.132141605874, 20412.238885431158, 40164.09548093027, 31714.2867105349, -16361.968679662787, 23300.061917312374, 0.008, 1.024, 0.042, 192.0, 0.0, 32.0, 16.0, 0.0, 0.5, 40.0, 0.0, 0.0, 0.0, 1.696016601094157E9, 0.0, 2023-09-29 14:43:21.094
130.0, 54839.84855888469, 48286.71941598885, 18866.101666224204, 28267.78182599328, 25072.91288052951, 19746.20160415192, -187500.02235174447, 21533.60355300946, 48876.15726901976, 26980.09782792304, 28821.61335010688, 20381.952271694216, 40172.94677173457, 31713.258530289953, -16368.629499510469, 23262.98037326102, 0.008, 1.024, 0.042, 192.0, 0.0, 0.0, 0.0, 0.0, 0.0, 0.0, 0.0, 0.0, 0.0, 1.696016601094167E9, 0.0, 2023-09-29 14:43:21.094
132.0, 54983.436165265586, 48308.28884938823, 18896.276521238866, 28255.98010492088, 25067.816682793702, 19731.494156300327, -187500.02235174447, 21519.253733069152, 48876.80546960896, 26983.361182613517, 28830.017606022073, 20420.866658790907, 40189.93409752061, 31713.571454712328, -16348.28941205614, 23296.776210877444, 0.008, 1.024, 0.042, 192.0, 0.0, 0.0, 0.0, 0.0, 0.0, 0.0, 0.0, 0.0, 0.0, 1.696016601094176E9, 0.0, 2023-09-29 14:43:21.094
134.0, 54847.22463455494, 48279.03041589623, 18852.891785251115, 28252.716750230404, 25069.604822350124, 19733.66227551249, -187500.02235174447, 21518.136145846387, 48870.278760228015, 26972.811159230612, 28814.952530259197, 20380.23118737116, 40160.340387861776, 31708.832884887805, -16373.792752479643, 23256.677181324623, 0.008, 1.024, 0.042, 192.0, 0.0, 0.0, 0.0, 0.0, 0.0, 0.0, 0.0, 0.0, 0.0, 1.696016601094185E9, 0.0, 2023-09-29 14:43:21.094
136.0, 54993.337988059284, 48301.73978826282, 18890.93445431405, 28242.099671614134, 25056.216127421398, 19714.015092136277, -187500.02235174447, 21497.527837458594, 48860.44399266768, 26967.938478939355, 28795.104181182884, 20408.863772018405, 40160.29568437287, 31692.98549806899, -16356.067819126585, 23284.37099270475, 0.008, 1.024, 0.042, 192.0, 0.0, 0.0, 0.0, 0.0, 0.0, 0.0, 0.0, 0.0, 0.0, 1.696016601154461E9, 0.0, 2023-09-29 14:43:21.154
138.0, 54838.88743387311, 48272.50370651528, 18848.376732871144, 28256.941229932458, 25069.269546183295, 19741.083054671653, -187500.02235174447, 21538.655047256358, 48862.25448396856, 26970.374819084984, 28830.956379289197, 20380.857036215908, 40164.56486756383, 31707.357669753754, -16371.646985011934, 23253.100902211776, 0.004, 1.024, 0.05, 192.0, 0.0, 16.0, 16.0, 0.0, 0.5, 72.0, 0.0, 0.0, 0.0, 1.696016601154484E9, 0.0, 2023-09-29 14:43:21.154
140.0, 54995.01436889343, 48296.15185214899, 18899.3610619737, 28258.729369488883, 25061.088807712655, 19723.93926667443, -187500.02235174447, 21511.49767774316, 48861.09219325688, 26973.72758075328, 28740.990607856587, 20405.689824305755, 40178.42294912612, 31707.89411162068, -16345.070760854574, 23287.164960761664, 0.004, 1.024, 0.05, 192.0, 0.0, 0.0, 0.0, 0.0, 0.0, 0.0, 0.0, 0.0, 0.0, 1.696016601154494E9, 0.0, 2023-09-29 14:43:21.154
142.0, 54841.167311807556, 48244.29580501268, 18840.86654673416, 28252.850860697137, 25065.827377537178, 19724.252191096806, -187500.02235174447, 21513.330520788495, 48858.54409438898, 26963.62459225948, 28833.638588623835, 20369.189425610235, 40159.84864948376, 31699.534559194395, -16368.540092532647, 23252.60916383376, 0.004, 1.024, 0.05, 192.0, 0.0, 0.0, 0.0, 0.0, 0.0, 0.0, 0.0, 0.0, 0.0, 1.696016601154503E9, 0.0, 2023-09-29 14:43:21.154
144.0, 54995.81903169383, 48290.78743347972, 18913.174440047078, 28267.69241901546, 25063.05576122472, 19732.455281311904, -187500.02235174447, 21520.617189480923, 48864.04262352498, 26963.982220170765, 28689.00045025354, 20395.922111978784, 40173.17028917912, 31704.78721914139, -16345.204871321306, 23278.22426297954, 0.004, 1.024, 0.05, 192.0, 0.0, 0.0, 0.0, 0.0, 0.0, 0.0, 0.0, 0.0, 0.0, 1.696016601154512E9, 0.0, 2023-09-29 14:43:21.154
146.0, 54856.612367226175, 48249.70492717087, 18845.269840391855, 28268.608840538127, 25067.43670313796, 19738.065569170187, -187500.02235174447, 21526.36158780594, 48860.064013011935, 26962.931688181365, 28852.168184777285, 20380.678222260263, 40166.732986776, 31709.928120366112, -16354.52554875917, 23272.301050698883, 0.004, 1.024, 0.05, 192.0, 0.0, 0.0, 0.0, 0.0, 0.0, 0.0, 0.0, 0.0, 0.0, 1.696016601154521E9, 0.0, 2023-09-29 14:43:21.154
148.0, 54987.615941478725, 48287.144099133504, 18896.2094660055, 28271.91689871751, 25045.48729008285, 19721.793499206724, -187500.02235174447, 21510.87182889841, 48857.33710018839, 26961.52352828068, 28673.62245006829, 20400.973606225685, 40159.08869017228, 31713.906730879156, -16350.211662079295, 23278.51483565746, 0.004, 1.016, 0.052000000000000005, 192.0, 0.0, 16.0, 15.5, 96.0, 0.5, 80.0, 0.0, 0.0, 0.0, 1.69601660115453E9, 0.0, 2023-09-29 14:43:21.154
150.0, 54856.99234688191, 48250.75545916027, 18838.184337399525, 28269.346448105152, 25067.883738027067, 19739.38432209305, -187500.02235174447, 21530.340198318983, 48857.538265888485, 26957.544917767635, 28863.411112238304, 20390.065954931495, 40167.62705655421, 31701.680326662106, -16356.939537160342, 23273.195120477096, 0.004, 1.016, 0.052000000000000005, 192.0, 0.0, 0.0, 0.0, 0.0, 0.0, 0.0, 0.0, 0.0, 0.0, 1.696016601214582E9, 0.0, 2023-09-29 14:43:21.214
152.0, 54960.61503417671, 48283.456061298384, 18902.93734108655, 28277.817759253714, 25067.05672348222, 19735.830394724657, -187500.02235174447, 21522.539439504082, 48861.09219325688, 26957.924897423378, 28621.8558099098, 20395.184504411758, 40164.877791986204, 31696.718239393027, -16343.32732478706, 23270.8928907982, 0.004, 1.016, 0.052000000000000005, 192.0, 0.0, 0.0, 0.0, 0.0, 0.0, 0.0, 0.0, 0.0, 0.0, 1.696016601214607E9, 0.0, 2023-09-29 14:43:21.214
154.0, 54848.58809096672, 48231.55531067316, 18833.624581530643, 28258.461148555416, 25070.051857239232, 19736.791519736234, -187500.02235174447, 21531.994227408675, 48848.77638206201, 26942.94922863832, 28854.202193522717, 20386.690841518743, 40160.98858845098, 31679.70856186254, -16342.254441053206, 23284.7956758494, 0.004, 1.016, 0.052000000000000005, 192.0, 0.0, 0.0, 0.0, 0.0, 0.0, 0.0, 0.0, 0.0, 0.0, 1.696016601214616E9, 0.0, 2023-09-29 14:43:21.214
156.0, 54920.53835636835, 48253.79529640619, 18884.966538544482, 28255.287200842766, 25052.14810993053, 19722.933438173943, -187500.02235174447, 21512.794078921568, 48843.926053515206, 26939.305894292105, 28597.604167175792, 20376.766666980588, 40158.1275651607, 31699.780428383405, -16345.607202721501, 23269.55178613088, 0.004, 1.016, 0.052000000000000005, 192.0, 0.0, 0.0, 0.0, 0.0, 0.0, 0.0, 0.0, 0.0, 0.0, 1.696016601214625E9, 0.0, 2023-09-29 14:43:21.214
158.0, 54842.128436819134, 48220.42414193442, 18837.737302510417, 28253.63317175307, 25056.931383243966, 19735.316304602184, -187500.02235174447, 21520.907762158844, 48832.07962895389, 26924.41963248487, 28855.409187723304, 20365.83666394194, 40161.882658229195, 31693.32077423582, -16359.509987772703, 23273.418637921648, -0.002, 1.018, 0.05, 192.0, 127.5, 120.0, 15.5, 104.0, 0.5, 72.0, 0.0, 0.0, 0.0, 1.696016601214669E9, 0.0, 2023-09-29 14:43:21.214
160.0, 54879.09822214821, 48226.95085131536, 18881.189093731537, 28258.036465410765, 25052.170461674985, 19726.956752175898, -187500.02235174447, 21513.889314399876, 48837.354640645346, 26926.923027863864, 28594.497274696503, 20357.20889058219, 40164.49781233047, 31681.004963040945, -16356.358391804504, 23254.531413856916, -0.002, 1.018, 0.05, 192.0, 0.0, 0.0, 0.0, 0.0, 0.0, 0.0, 0.0, 0.0, 0.0, 1.696016601214679E9, 0.0, 2023-09-29 14:43:21.214
162.0, 54828.18094827902, 48173.552533811635, 18835.457424575976, 28240.87032566909, 25058.29483965574, 19731.985894678342, -187500.02235174447, 21522.91941915982, 48815.4722828236, 26903.319585719062, 28830.978731033654, 20356.761855693087, 40154.551286047856, 31690.571509667818, -16361.208720351306, 23269.820007064343, -0.002, 1.018, 0.05, 192.0, 0.0, 0.0, 0.0, 0.0, 0.0, 0.0, 0.0, 0.0, 0.0, 1.696016601214688E9, 0.0, 2023-09-29 14:43:21.214
164.0, 54803.01288402235, 48160.16383888291, 18859.977288243448, 28241.473822769385, 25053.95860123141, 19729.594258021625, -187500.02235174447, 21514.090480099974, 48812.85712872233, 26889.126227989942, 28569.396265673193, 20328.732768146132, 40150.14799239016, 31677.27222171691, -16367.534264032158, 23236.761777014945, -0.002, 1.018, 0.05, 192.0, 0.0, 0.0, 0.0, 0.0, 0.0, 0.0, 0.0, 0.0, 0.0, 1.696016601214696E9, 0.0, 2023-09-29 14:43:21.214
166.0, 54814.81460509475, 48139.04144037264, 18827.656665761075, 28223.413613249497, 25043.319170870684, 19723.38047306305, -187500.02235174447, 21513.956369633244, 48788.963113899605, 26866.238041667708, 28804.380155131836, 20341.048579341004, 40139.97794866299, 31649.2207824255, -16365.120275630985, 23267.070742496344, -0.002, 1.018, 0.05, 192.0, 0.0, 0.0, 0.0, 0.0, 0.0, 0.0, 0.0, 0.0, 0.0, 1.696016601274226E9, 0.0, 2023-09-29 14:43:21.274
168.0, 54755.04604042126, 48135.15223683742, 18834.272782119846, 28231.39318602004, 25046.9625052169, 19717.14433636002, -187500.02235174447, 21515.789212678577, 48786.28090456497, 26859.331352631016, 28613.295091783417, 20313.19830574969, 40125.538721744866, 31661.84951804275, -16383.404002595425, 23230.324474611818, -0.002, 1.022, 0.05, 192.0, 127.5, 120.0, 15.5, 120.0, 0.5, 72.0, 0.0, 0.0, 0.0, 1.696016601274258E9, 0.0, 2023-09-29 14:43:21.274
170.0, 54805.292761956785, 48134.32522229257, 18829.511860550865, 28228.889790641046, 25044.190888904443, 19726.308551586695, -187500.02235174447, 21519.83487842499, 48781.09529985134, 26846.724968758223, 28805.251873165595, 20336.86880312786, 40143.777745220395, 31661.201317453542, -16368.875368699477, 23263.762684316956, -0.002, 1.022, 0.05, 192.0, 0.0, 0.0, 0.0, 0.0, 0.0, 0.0, 0.0, 0.0, 0.0, 1.696016601274273E9, 0.0, 2023-09-29 14:43:21.274
172.0, 54722.92658363898, 48123.86460588749, 18815.832592944218, 28224.553552216716, 25039.161746402, 19726.82264170917, -187500.02235174447, 21511.184753320784, 48784.760985942004, 26855.55390781807, 28634.95393216061, 20310.11376501486, 40130.903140414135, 31678.970954295513, -16380.81120023861, 23226.144698398675, -0.002, 1.022, 0.05, 192.0, 0.0, 0.0, 0.0, 0.0, 0.0, 0.0, 0.0, 0.0, 0.0, 1.696016601274284E9, 0.0, 2023-09-29 14:43:21.274
174.0, 54815.909840573055, 48127.39618151142, 18821.666398247053, 28204.839313607135, 25033.663217265992, 19711.019958379264, -187500.02235174447, 21498.22074153671, 48772.333416024856, 26832.97864591821, 28777.60276527438, 20322.988369821116, 40143.286006842376, 31641.44237535505, -16380.788848494156, 23252.94444000059, -0.002, 1.022, 0.05, 192.0, 0.0, 0.0, 0.0, 0.0, 0.0, 0.0, 0.0, 0.0, 0.0, 1.696016601274293E9, 0.0, 2023-09-29 14:43:21.274
176.0, 54714.3658655126, 48122.63525994245, 18808.590627740698, 28214.338805000643, 25038.08886266814, 19720.161821861486, -187500.02235174447, 21513.129355088397, 48785.1633173422, 26837.918381442832, 28679.053923970932, 20294.512247385057, 40130.7243264585, 31660.083730230777, -16385.505066574224, 23220.847334962767, -0.002, 1.022, 0.05, 192.0, 0.0, 0.0, 0.0, 0.0, 0.0, 0.0, 0.0, 0.0, 0.0, 1.696016601274303E9, 0.0, 2023-09-29 14:43:21.274
178.0, 54840.116779818156, 48147.28923407665, 18826.829651216227, 28206.00160431881, 25037.23949637884, 19711.645807224013, -187500.02235174447, 21502.802849150044, 48785.43153827567, 26841.60641927796, 28766.806872702466, 20326.96698033416, 40144.29183534287, 31639.900104987635, -16378.978357193275, 23257.32538191383, 0.002, 1.018, 0.054, 192.0, 0.0, 8.0, 15.5, 104.0, 0.5, 88.0, 0.0, 0.0, 0.0, 1.696016601274313E9, 0.0, 2023-09-29 14:43:21.274
180.0, 54696.238600759345, 48121.62943144196, 18786.641214685587, 28199.497246682316, 25036.948923700922, 19697.51950472826, -187500.02235174447, 21482.10513378443, 48789.745424955545, 26840.17590763282, 28696.734153835077, 20289.550160115978, 40112.731172171974, 31640.01186370991, -16393.506991089223, 23212.979520914498, 0.002, 1.018, 0.054, 192.0, 0.0, 0.0, 0.0, 0.0, 0.0, 0.0, 0.0, 0.0, 0.0, 1.696016601334623E9, 0.0, 2023-09-29 14:43:21.334
182.0, 54855.65124221459, 48175.00539720123, 18836.172680398548, 28206.180418274453, 25039.00528419081, 19705.007339120788, -187500.02235174447, 21506.78145966309, 48791.958247656614, 26843.126337900918, 28733.81569788643, 20317.892172085307, 40138.56978876231, 31647.522049846895, -16378.687784515356, 23249.25640216546, 0.002, 1.018, 0.054, 192.0, 0.0, 0.0, 0.0, 0.0, 0.0, 0.0, 0.0, 0.0, 0.0, 1.69601660133465E9, 0.0, 2023-09-29 14:43:21.334
184.0, 54733.67777272198, 48170.31153086562, 18809.19412484099, 28219.122078314078, 25045.040255193744, 19714.61858923657, -187500.02235174447, 21506.6249974519, 48817.5733468024, 26866.17098643434, 28740.253000289562, 20305.174029490237, 40146.929341188596, 31656.26158192892, -16380.7664967497, 23228.782204244402, 0.002, 1.018, 0.054, 192.0, 0.0, 0.0, 0.0, 0.0, 0.0, 0.0, 0.0, 0.0, 0.0, 1.696016601334659E9, 0.0, 2023-09-29 14:43:21.334
186.0, 54899.28184739135, 48220.602955890055, 18853.651744562598, 28217.222180035376, 25034.87021146658, 19707.980121133343, -187500.02235174447, 21489.615319921413, 48820.769646259505, 26876.877472028435, 28719.48822969058, 20345.31776253197, 40160.6309605397, 31668.26446870142, -16365.410848308904, 23262.868614538744, 0.002, 1.018, 0.054, 192.0, 0.0, 0.0, 0.0, 0.0, 0.0, 0.0, 0.0, 0.0, 0.0, 1.696016601334668E9, 0.0, 2023-09-29 14:43:21.334
188.0, 54749.3239938407, 48200.79931030265, 18799.20289506947, 28218.87620912507, 25041.531031314258, 19718.552496260705, -187500.02235174447, 21502.73579391668, 48823.496559083054, 26887.718068089256, 28785.738800256113, 20323.7483291326, 40137.42984979509, 31656.12747146219, -16384.789810751656, 23227.664617021637, 0.002, 1.016, 0.052000000000000005, 192.0, 0.0, 8.0, 15.5, 96.0, 0.5, 80.0, 0.0, 0.0, 0.0, 1.696016601334677E9, 0.0, 2023-09-29 14:43:21.334
190.0, 54922.10297848022, 48253.527075472724, 18858.435017876032, 28228.420404007484, 25040.592258047138, 19704.76146993178, -187500.02235174447, 21493.50452345664, 48826.022306206505, 26890.422629168348, 28677.824578025888, 20355.063123114483, 40155.33359710379, 31654.428738883587, -16374.351546091028, 23245.233088163506, 0.002, 1.016, 0.052000000000000005, 192.0, 0.0, 0.0, 0.0, 0.0, 0.0, 0.0, 0.0, 0.0, 0.0, 1.696016601334687E9, 0.0, 2023-09-29 14:43:21.334
192.0, 54782.784555290295, 48226.39205770398, 18796.028947356815, 28228.263941796296, 25044.05677843771, 19710.37175779006, -187500.02235174447, 21503.652215439346, 48840.282719168994, 26901.710260118278, 28831.984559534143, 20345.831852654443, 40140.492038785465, 31668.21976521251, -16378.799543237632, 23234.727768269513, 0.002, 1.016, 0.052000000000000005, 192.0, 0.0, 0.0, 0.0, 0.0, 0.0, 0.0, 0.0, 0.0, 0.0, 1.696016601334696E9, 0.0, 2023-09-29 14:43:21.334
194.0, 54953.12719978419, 48267.96630239085, 18869.588538359232, 28233.851877910125, 25032.836202721144, 19702.61570246407, -187500.02235174447, 21492.476343211692, 48851.95032977466, 26905.08537353103, 28686.139426963262, 20370.396419810822, 40172.18681242309, 31671.41606466962, -16363.153322118918, 23250.12812019922, 0.002, 1.016, 0.052000000000000005, 192.0, 0.0, 0.0, 0.0, 0.0, 0.0, 0.0, 0.0, 0.0, 0.0, 1.696016601334704E9, 0.0, 2023-09-29 14:43:21.334
196.0, 54809.80781433676, 48227.934328071395, 18808.791793440796, 28225.3135115282, 25041.106348169607, 19713.389243291527, -187500.02235174447, 21501.238227038175, 48849.80456230695, 26899.631547883935, 28886.008725882617, 20354.660791714286, 40154.90891395914, 31659.815509297314, -16375.089153658051, 23240.382759616707, 0.002, 1.016, 0.052000000000000005, 192.0, 0.0, 0.0, 0.0, 0.0, 0.0, 0.0, 0.0, 0.0, 0.0, 1.696016601394849E9, 0.0, 2023-09-29 14:43:21.394
198.0, 54952.657813150625, 48288.93223868993, 18888.498114168422, 28248.87225018409, 25050.29291514074, 19728.43196730995, -187500.02235174447, 21520.572485992016, 48863.707347358155, 26917.37883298145, 28679.903290260234, 20374.64325125733, 40180.81458578284, 31667.057474500834, -16361.946327918331, 23243.467300351538, -0.002, 1.014, 0.05, 192.0, 127.5, 120.0, 15.5, 88.0, 0.5, 72.0, 0.0, 0.0, 0.0, 1.696016601394872E9, 0.0, 2023-09-29 14:43:21.394
200.0, 54834.8417681267, 48257.1927615634, 18826.53907853831, 28241.406767536017, 25055.94790648793, 19731.181231877952, -187500.02235174447, 21524.17111684932, 48864.534361902995, 26920.865705116477, 28912.182618639785, 20375.805541969006, 40169.30343738836, 31664.911707033123, -16356.917185415887, 23256.721884813534, -0.002, 1.014, 0.05, 192.0, 0.0, 0.0, 0.0, 0.0, 0.0, 0.0, 0.0, 0.0, 0.0, 1.696016601394882E9, 0.0, 2023-09-29 14:43:21.394
202.0, 54940.02907753338, 48294.81074748168, 18879.423305919565, 28246.592372249648, 25051.29874364123, 19724.676874241457, -187500.02235174447, 21515.386881278384, 48872.513934673545, 26927.347711008515, 28682.741961806056, 20379.5606350375, 40182.46861487253, 31678.523919406405, -16347.305935300104, 23247.915297498144, -0.002, 1.014, 0.05, 192.0, 0.0, 0.0, 0.0, 0.0, 0.0, 0.0, 0.0, 0.0, 0.0, 1.696016601394924E9, 0.0, 2023-09-29 14:43:21.394
204.0, 54863.20613184049, 48267.31810180165, 18826.002636671383, 28236.265866311296, 25059.077150711677, 19730.845955711124, -187500.02235174447, 21521.757128448146, 48865.584893892395, 26918.630530670947, 28926.912418235832, 20375.09028614644, 40169.83987925528, 31668.80091056835, -16355.509025515203, 23256.006628990966, -0.002, 1.014, 0.05, 192.0, 0.0, 0.0, 0.0, 0.0, 0.0, 0.0, 0.0, 0.0, 0.0, 1.696016601394933E9, 0.0, 2023-09-29 14:43:21.394
206.0, 54935.13404549767, 48300.42103533996, 18876.584634373743, 28244.893639671045, 25047.8118715062, 19725.794461464222, -187500.02235174447, 21506.26736954062, 48872.75980386255, 26925.38075749645, 28696.689450346166, 20374.240919857137, 40181.14986194967, 31666.811605311825, -16353.609127236501, 23244.473128852027, -0.002, 1.014, 0.05, 192.0, 0.0, 0.0, 0.0, 0.0, 0.0, 0.0, 0.0, 0.0, 0.0, 1.696016601394957E9, 0.0, 2023-09-29 14:43:21.394
208.0, 54893.805669999805, 48273.77775594923, 18824.169793626046, 28237.785784934258, 25036.14426090053, 19721.547630017714, -187500.02235174447, 21507.362605018927, 48864.80258283646, 26917.937626592833, 28959.188337229294, 20379.001841426118, 40164.810736752836, 31675.61819262722, -16372.652813512423, 23257.392437147195, -0.004, 1.018, 0.052000000000000005, 192.0, 127.5, 112.0, 15.5, 104.0, 0.5, 80.0, 0.0, 0.0, 0.0, 1.696016601394966E9, 0.0, 2023-09-29 14:43:21.394
210.0, 54919.35371391222, 48300.48809057332, 18861.743076055416, 28248.425215294985, 25045.66610403849, 19732.477633056358, -187500.02235174447, 21509.418965508816, 48877.94540857618, 26935.52844947916, 28734.486250220092, 20377.12429489187, 40177.886507259194, 31678.613326384228, -16373.882159457466, 23234.45954733605, -0.004, 1.018, 0.052000000000000005, 192.0, 0.0, 0.0, 0.0, 0.0, 0.0, 0.0, 0.0, 0.0, 0.0, 1.696016601456461E9, 0.0, 2023-09-29 14:43:21.456
212.0, 54920.18072845707, 48283.83604095412, 18829.78008148433, 28229.761508674805, 25050.136452929553, 19727.76141497629, -187500.02235174447, 21519.857230169444, 48874.41383295225, 26934.14264132293, 28973.761674614154, 20402.98526322666, 40171.76212927844, 31664.08469248828, -16358.794731950133, 23267.60718436327, -0.004, 1.018, 0.052000000000000005, 192.0, 0.0, 0.0, 0.0, 0.0, 0.0, 0.0, 0.0, 0.0, 0.0, 1.696016601456487E9, 0.0, 2023-09-29 14:43:21.456
214.0, 54899.21479215799, 48290.96624743536, 18854.2999451518, 28239.48451751286, 25052.30457214172, 19728.163746376486, -187500.02235174447, 21521.26539007013, 48873.74328061858, 26932.890943633432, 28758.179099342717, 20379.02419317057, 40159.42396633911, 31679.55209965135, -16371.356412334015, 23237.097053181777, -0.004, 1.018, 0.052000000000000005, 192.0, 0.0, 0.0, 0.0, 0.0, 0.0, 0.0, 0.0, 0.0, 0.0, 1.696016601456497E9, 0.0, 2023-09-29 14:43:21.456
216.0, 54937.32451645428, 48279.87978218553, 18841.648857790096, 28229.672101696982, 25046.15784241651, 19725.906220186498, -187500.02235174447, 21531.480137286206, 48872.938617818196, 26924.71020516279, 28971.68296237981, 20399.833667258463, 40171.51626008943, 31664.375265166196, -16355.374915048471, 23278.85011182429, -0.004, 1.018, 0.052000000000000005, 192.0, 0.0, 0.0, 0.0, 0.0, 0.0, 0.0, 0.0, 0.0, 0.0, 1.696016601456506E9, 0.0, 2023-09-29 14:43:21.456
218.0, 54878.51707679237, 48288.73107298983, 18842.252354890392, 28239.238648323855, 25044.8614412381, 19721.0558916397, -187500.02235174447, 21512.145878332365, 48876.7384143756, 26926.94537960832, 28799.820399262953, 20372.162207622794, 40168.61053331024, 31673.74064609297, -16376.206740880818, 23235.152451414164, -0.004, 1.018, 0.05, 192.0, 127.5, 112.0, 15.5, 104.0, 0.5, 72.0, 0.0, 0.0, 0.0, 1.696016601456515E9, 0.0, 2023-09-29 14:43:21.456
220.0, 54959.9221300986, 48284.41718630996, 18841.693561279008, 28234.321264543687, 25039.832298735655, 19727.403787065006, -187500.02235174447, 21506.803811407546, 48874.883219585805, 26928.264132531185, 28973.49345368069, 20403.164077182304, 40177.59593458127, 31673.31596294832, -16362.14749361843, 23271.161111731664, -0.004, 1.018, 0.05, 192.0, 0.0, 0.0, 0.0, 0.0, 0.0, 0.0, 0.0, 0.0, 0.0, 1.696016601456524E9, 0.0, 2023-09-29 14:43:21.456
222.0, 54877.153620380595, 48281.019721152756, 18843.235831646423, 28246.100633871632, 25045.979028460864, 19733.170537134476, -187500.02235174447, 21503.16047706133, 48881.14170803329, 26929.202905798305, 28832.72216710117, 20373.63742275684, 40177.9312107481, 31686.2799747324, -16377.659604270411, 23231.240896134485, -0.004, 1.018, 0.05, 192.0, 0.0, 0.0, 0.0, 0.0, 0.0, 0.0, 0.0, 0.0, 0.0, 1.696016601456533E9, 0.0, 2023-09-29 14:43:21.456
224.0, 54963.05137432234, 48289.51338404577, 18849.71783753846, 28236.64584596704, 25043.520336570782, 19721.257057339797, -187500.02235174447, 21511.654139954346, 48871.61986489533, 26920.66453941638, 28962.272877964126, 20401.487696348155, 40184.92730676261, 31667.21393671202, -16361.074609884574, 23265.46141689556, -0.004, 1.018, 0.05, 192.0, 0.0, 0.0, 0.0, 0.0, 0.0, 0.0, 0.0, 0.0, 0.0, 1.696016601456581E9, 0.0, 2023-09-29 14:43:21.456
226.0, 54845.347088020695, 48274.448308282896, 18828.304866350278, 28234.34361628814, 25051.164633174496, 19727.62730450956, -187500.02235174447, 21510.715366687225, 48879.95706557716, 26921.75977489469, 28867.747350662634, 20371.3575448224, 40175.293704902375, 31667.660971601126, -16373.368069334992, 23235.800652003367, -0.004, 1.018, 0.05, 192.0, 0.0, 0.0, 0.0, 0.0, 0.0, 0.0, 0.0, 0.0, 0.0, 1.696016601515464E9, 0.0, 2023-09-29 14:43:21.515
228.0, 54976.283607039884, 48300.91277371797, 18858.323259153756, 28229.917970885992, 25056.8643280106, 19724.94509517492, -187500.02235174447, 21501.595854949457, 48870.14464976128, 26919.47989696025, 28941.44105213178, 20400.705385292218, 40172.20916416754, 31657.73679706297, -16355.419618537382, 23269.21650996405, 0.002, 1.02, 0.05, 192.0, 0.0, 8.0, 15.5, 112.0, 0.5, 72.0, 0.0, 0.0, 0.0, 1.696016601515488E9, 0.0, 2023-09-29 14:43:21.515
230.0, 54837.23340478342, 48278.136346118015, 18818.693616234497, 28231.63905520905, 25040.547554558227, 19725.637999253035, -187500.02235174447, 21508.815468408524, 48881.387577222304, 26930.029920343153, 28913.411964584826, 20375.69378324673, 40168.38701586569, 31675.886413560682, -16374.798580980132, 23234.16897465813, 0.002, 1.02, 0.05, 192.0, 0.0, 0.0, 0.0, 0.0, 0.0, 0.0, 0.0, 0.0, 0.0, 1.696016601515499E9, 0.0, 2023-09-29 14:43:21.515
232.0, 54982.81031642084, 48308.86999474406, 18850.500148594398, 28227.235761551354, 25040.167574902487, 19728.6554847545, -187500.02235174447, 21508.659006197337, 48867.44008868219, 26919.435193471338, 28935.853116017952, 20399.543094580546, 40177.90885900365, 31671.773692580904, -16371.177598378374, 23264.388533161706, 0.002, 1.02, 0.05, 192.0, 0.0, 0.0, 0.0, 0.0, 0.0, 0.0, 0.0, 0.0, 0.0, 1.696016601515508E9, 0.0, 2023-09-29 14:43:21.515
234.0, 54832.7407041479, 48265.57466573414, 18798.867618902637, 28217.53510445775, 25043.967371459887, 19731.51650804478, -187500.02235174447, 21508.97193061971, 48867.66360612674, 26915.545989936116, 28986.21159627576, 20368.094190131927, 40159.155745405646, 31660.664875586615, -16382.24171188375, 23236.56061131485, 0.002, 1.02, 0.05, 192.0, 0.0, 0.0, 0.0, 0.0, 0.0, 0.0, 0.0, 0.0, 0.0, 1.696016601515518E9, 0.0, 2023-09-29 14:43:21.515
236.0, 54983.97260713251, 48297.62706728304, 18846.43213110353, 28217.937435857944, 25040.52520281377, 19727.403787065006, -187500.02235174447, 21521.39950053686, 48864.891989814285, 26918.384661481938, 28927.985301969686, 20395.60918755641, 40168.38701586569, 31671.55017513635, -16365.120275630985, 23263.740332572503, 0.002, 1.02, 0.05, 192.0, 0.0, 0.0, 0.0, 0.0, 0.0, 0.0, 0.0, 0.0, 0.0, 1.696016601515527E9, 0.0, 2023-09-29 14:43:21.515
238.0, 54823.0400470543, 48258.37740401953, 18795.5372089788, 28220.709052170405, 25042.112176670096, 19739.8090052377, -187500.02235174447, 21527.568582006526, 48862.232132224104, 26911.254455000693, 28996.761619658664, 20361.232204584147, 40155.11007965924, 31653.109985960724, -16384.901569473932, 23237.87936423771, 0.004, 1.02, 0.054, 192.0, 0.0, 16.0, 15.5, 112.0, 0.5, 88.0, 0.0, 0.0, 0.0, 1.696016601515536E9, 0.0, 2023-09-29 14:43:21.515
240.0, 54974.78604016138, 48294.363712592574, 18859.73141905444, 28225.3135115282, 25037.507717312303, 19731.069473155676, -187500.02235174447, 21505.14978231785, 48874.30207422997, 26923.458507473293, 28889.987336395665, 20395.139800922847, 40179.652295071166, 31676.713428105526, -16357.073647627074, 23273.68685885511, 0.004, 1.02, 0.054, 192.0, 0.0, 0.0, 0.0, 0.0, 0.0, 0.0, 0.0, 0.0, 0.0, 1.696016601574235E9, 0.0, 2023-09-29 14:43:21.574
242.0, 54822.95064007648, 48249.39200274849, 18797.48181074641, 28221.916046370992, 25044.30264762672, 19731.069473155676, -187500.02235174447, 21512.749375432657, 48866.90364681526, 26913.243760257217, 29030.356291574994, 20366.12723661986, 40157.56877154932, 31663.70471283254, -16378.017232181697, 23246.909468997655, 0.004, 1.02, 0.054, 192.0, 0.0, 0.0, 0.0, 0.0, 0.0, 0.0, 0.0, 0.0, 0.0, 1.696016601574259E9, 0.0, 2023-09-29 14:43:21.574
244.0, 54969.48867672547, 48293.02260792525, 18861.63131733314, 28220.709052170405, 25035.42900507796, 19727.135566131543, -187500.02235174447, 21494.510351957128, 48874.52559167452, 26920.686891160836, 28853.48693770015, 20387.428449085768, 40176.54540259187, 31671.796044325358, -16359.621746494979, 23261.50515812697, 0.004, 1.02, 0.054, 192.0, 0.0, 0.0, 0.0, 0.0, 0.0, 0.0, 0.0, 0.0, 0.0, 1.696016601574269E9, 0.0, 2023-09-29 14:43:21.574
246.0, 54837.23340478342, 48252.02950859422, 18793.61495895564, 28216.10459281261, 25036.591295789636, 19735.47276681337, -187500.02235174447, 21518.314959802028, 48871.77632710652, 26921.648016172414, 29052.21629765228, 20380.924091449273, 40170.10810018874, 31664.822300055304, -16367.154284376418, 23255.134910957207, 0.004, 1.02, 0.054, 192.0, 0.0, 0.0, 0.0, 0.0, 0.0, 0.0, 0.0, 0.0, 0.0, 1.696016601574314E9, 0.0, 2023-09-29 14:43:21.574
248.0, 54958.06693530881, 48293.40258758099, 18855.5516428413, 28218.228008535865, 25025.19190611743, 19726.397958564517, -187500.02235174447, 21493.772744390102, 48866.68012937071, 26916.19419052532, 28835.918466558276, 20379.314765848492, 40154.03719592538, 31674.254736215444, -16374.776229235678, 23246.149509686176, 0.004, 1.024, 0.06, 192.0, 0.0, 16.0, 16.0, 0.0, 0.5, 112.0, 0.0, 0.0, 0.0, 1.696016601574324E9, 0.0, 2023-09-29 14:43:21.574
250.0, 54854.80187592529, 48259.31617728665, 18782.595548939174, 28201.68771763894, 25024.09667063912, 19726.37560682006, -187500.02235174447, 21495.091497312966, 48858.85701881135, 26908.12521077695, 29077.451417142325, 20370.262309344093, 40142.97308242, 31651.858288271225, -16386.10856367452, 23248.943477743087, 0.004, 1.024, 0.06, 192.0, 0.0, 0.0, 0.0, 0.0, 0.0, 0.0, 0.0, 0.0, 0.0, 1.696016601574335E9, 0.0, 2023-09-29 14:43:21.574
252.0, 54949.68503113807, 48312.42392211246, 18856.646878319607, 28224.575903961173, 25041.262810380795, 19738.71376975939, -187500.02235174447, 21513.531686488594, 48878.951237076675, 26930.633417443445, 28838.17599274826, 20381.147608893825, 40170.73394903349, 31684.737704364983, -16362.773342463177, 23247.64707656468, 0.004, 1.024, 0.06, 192.0, 0.0, 0.0, 0.0, 0.0, 0.0, 0.0, 0.0, 0.0, 0.0, 1.696016601574348E9, 0.0, 2023-09-29 14:43:21.574
254.0, 54876.728937235945, 48262.914808143956, 18792.877351388615, 28185.43799941993, 25026.108327640097, 19723.827507952155, -187500.02235174447, 21496.991395591664, 48860.488696156586, 26912.193228267817, 29090.66129811541, 20370.75404772211, 40162.55321056285, 31658.36264590772, -16376.139685647451, 23257.28067842492, 0.004, 1.024, 0.06, 192.0, 0.0, 0.0, 0.0, 0.0, 0.0, 0.0, 0.0, 0.0, 0.0, 1.696016601574357E9, 0.0, 2023-09-29 14:43:21.574
0.0, 54922.84058604725, 48300.42103533996, 18844.800453758296, 28198.066735037177, 25025.52718228426, 19728.566077776683, -187500.02235174447, 21503.71927067271, 48870.99401605058, 26920.88805686093, 28846.915524830285, 20361.947460406718, 40155.42300408161, 31668.46563440152, -16374.23978736875, 23235.666541536637, 0.004, 1.024, 0.06, 192.0, 0.0, 0.0, 0.0, 0.0, 0.0, 0.0, 0.0, 0.0, 0.0, 1.696016601634573E9, 0.0, 2023-09-29 14:43:21.634
2.0, 54894.74444326692, 48272.190782092905, 18799.784040425307, 28179.112455739076, 25023.649635750015, 19714.260961325286, -187500.02235174447, 21485.189674519264, 48861.27100721253, 26906.918216576367, 29102.507722676724, 20370.575233766467, 40159.26750412792, 31642.9175904891, -16376.586720536558, 23258.75589355897, 0.004, 1.024, 0.06, 192.0, 0.0, 0.0, 16.0, 0.0, 1.0, 0.0, 0.0, 0.0, 0.0, 1.696016601634595E9, 0.0, 2023-09-29 14:43:21.634
4.0, 54900.9582282255, 48296.55418354919, 18836.038569931814, 28190.981232044847, 25031.00335967581, 19720.407691050495, -187500.02235174447, 21495.851456624445, 48871.329292217415, 26913.93666433533, 28872.12829257587, 20355.64426847032, 40148.51631504492, 31642.001168966435, -16378.19604613734, 23224.960055942545, 0.004, 1.024, 0.06, 192.0, 0.0, 0.0, 0.0, 0.0, 0.0, 0.0, 0.0, 0.0, 0.0, 1.696016601634605E9, 0.0, 2023-09-29 14:43:21.634
6.0, 54909.451891118515, 48286.83117471113, 18808.948255651983, 28185.527406397752, 25031.94213294293, 19722.1064236291, -187500.02235174447, 21504.456878239736, 48870.92696081722, 26914.607216668992, 29098.015022041207, 20376.856073958406, 40154.46187907003, 31662.631829098682, -16368.316575088094, 23254.106730712265, 0.004, 1.024, 0.06, 192.0, 0.0, 0.0, 0.0, 0.0, 0.0, 0.0, 0.0, 0.0, 0.0, 1.696016601634614E9, 0.0, 2023-09-29 14:43:21.634
8.0, 54875.00785291289, 48282.15966011997, 18821.39817731359, 28190.40008668901, 25015.245379834818, 19712.38341479104, -187500.02235174447, 21485.88257859738, 48873.16213526275, 26916.216542269773, 28864.70751341671, 20347.575288721953, 40150.975006935005, 31664.285858188377, -16380.7664967497, 23217.22635236101, 0.004, 1.024, 0.06, 192.0, 0.0, 0.0, 0.0, 0.0, 0.0, 0.0, 0.0, 0.0, 0.0, 1.696016601634623E9, 0.0, 2023-09-29 14:43:21.634
10.0, 54926.32745818228, 48273.55423850468, 18814.178563854526, 28190.75771460029, 25034.24436262183, 19724.38630156354, -187500.02235174447, 21515.11866034492, 48864.55671364746, 26913.26611200167, 29054.09384418653, 20368.161245365292, 40151.399690079656, 31655.03223598388, -16366.394325064937, 23257.392437147195, 0.004, 1.024, 0.06, 192.0, 0.0, 0.0, 0.0, 0.0, 0.0, 0.0, 0.0, 0.0, 0.0, 1.696016601634631E9, 0.0, 2023-09-29 14:43:21.634
12.0, 54871.11864937766, 48272.92838965993, 18821.77815696933, 28205.666328151983, 25039.228801635363, 19727.493194042825, -187500.02235174447, 21505.26154104013, 48870.032891039, 26915.18836202483, 28866.518004717593, 20345.94361137672, 40156.428832582096, 31655.747491806447, -16367.601319265525, 23227.798727488367, 0.004, 1.024, 0.06, 192.0, 0.0, 0.0, 16.0, 0.0, 1.0, 0.0, 0.0, 0.0, 0.0, 1.696016601634673E9, 0.0, 2023-09-29 14:43:21.634
14.0, 54951.7190398835, 48283.34430257611, 18819.028892401326, 28184.298060452707, 25029.461089308392, 19718.57484800516, -187500.02235174447, 21479.95936631672, 48866.41190843724, 26913.556684679592, 29028.456393296292, 20381.393478082835, 40163.201411152055, 31645.0186544679, -16354.436141781349, 23265.595527362293, 0.004, 1.024, 0.06, 192.0, 0.0, 0.0, 0.0, 0.0, 0.0, 0.0, 0.0, 0.0, 0.0, 1.696016601694925E9, 0.0, 2023-09-29 14:43:21.694
16.0, 54857.931120149035, 48286.093567144104, 18814.759709210364, 28201.44184844993, 25031.919781198478, 19729.28133359925, -187500.02235174447, 21513.174058577308, 48875.15144051927, 26921.446850472315, 28890.501426518134, 20354.638439969833, 40154.394823836665, 31654.853422028238, -16372.250482112227, 23222.143736141174, 0.004, 1.024, 0.06, 192.0, 0.0, 0.0, 0.0, 0.0, 0.0, 0.0, 0.0, 0.0, 0.0, 1.696016601694949E9, 0.0, 2023-09-29 14:43:21.694
18.0, 54973.51199072743, 48299.83988998412, 18831.232944873922, 28188.92487155496, 25028.164688129986, 19717.859592182587, -187500.02235174447, 21496.432601980283, 48873.966798063135, 26924.643149929423, 29001.41078250537, 20394.446896844733, 40168.67758854361, 31668.130358234688, -16351.75393244671, 23269.350620430785, 0.004, 1.024, 0.06, 192.0, 0.0, 0.0, 0.0, 0.0, 0.0, 0.0, 0.0, 0.0, 0.0, 1.696016601694959E9, 0.0, 2023-09-29 14:43:21.694
20.0, 54841.18966355201, 48268.7933169357, 18797.884142146606, 28173.90449928099, 25022.576752016157, 19718.306627071695, -187500.02235174447, 21484.474418696693, 48876.358434719856, 26920.597484183014, 28922.822049000508, 20355.73367544814, 40150.75148949045, 31656.93213426258, -16375.223264124783, 23220.35559658475, 0.004, 1.024, 0.06, 192.0, 0.0, 0.0, 0.0, 0.0, 0.0, 0.0, 0.0, 0.0, 0.0, 1.696016601694968E9, 0.0, 2023-09-29 14:43:21.694
22.0, 54984.397290277164, 48291.52504104675, 18831.38940708511, 28170.328220168143, 25015.938283912932, 19714.149202603006, -187500.02235174447, 21495.78440139108, 48861.449821168164, 26909.04163229962, 28969.671305378833, 20372.47513204517, 40143.08484114228, 31640.280084643375, -16363.756819219212, 23248.02705622042, 0.004, 1.024, 0.06, 192.0, 0.0, 0.0, 15.5, 112.0, 0.5, 120.0, 0.0, 0.0, 0.0, 1.696016601694976E9, 0.0, 2023-09-29 14:43:21.694
24.0, 54827.84567211219, 48255.292863284696, 18787.021194341327, 28170.685848079425, 25027.069452651675, 19714.976217147854, -187500.02235174447, 21487.91658734281, 48874.0338532965, 26911.790896867624, 28948.39244465738, 20343.64138169782, 40152.53962904688, 31645.443337612553, -16378.732488004267, 23216.93577968309, 0.004, 1.024, 0.06, 192.0, 0.0, 0.0, 0.0, 0.0, 0.0, 0.0, 0.0, 0.0, 0.0, 1.696016601694986E9, 0.0, 2023-09-29 14:43:21.694
26.0, 54991.460441525036, 48287.434671811425, 18837.267915876855, 28172.406932402486, 25018.084051380643, 19711.578751990648, -187500.02235174447, 21500.835895637978, 48866.367204948336, 26907.61112065448, 28926.733604280187, 20372.922166934273, 40162.06147218484, 31641.30826488832, -16364.583833764058, 23250.999838232976, 0.004, 1.024, 0.06, 192.0, 0.0, 0.0, 0.0, 0.0, 0.0, 0.0, 0.0, 0.0, 0.0, 1.696016601694995E9, 0.0, 2023-09-29 14:43:21.694
28.0, 54825.766959877845, 48258.06447959715, 18782.059107072248, 28177.123150482556, 25027.740004985335, 19731.09182490013, -187500.02235174447, 21501.05941308253, 48871.463402684145, 26914.13783003543, 28991.084276567017, 20347.754102677598, 40154.126602903205, 31654.60755283923, -16385.03567994066, 23222.79193673038, 0.004, 1.024, 0.06, 192.0, 0.0, 0.0, 0.0, 0.0, 0.0, 0.0, 0.0, 0.0, 0.0, 1.696016601695003E9, 0.0, 2023-09-29 14:43:21.695
30.0, 55002.94923817507, 48311.46279710088, 18849.024933460347, 28191.942357056425, 25030.645731764525, 19743.072359928174, -187500.02235174447, 21519.901933658355, 48873.74328061858, 26922.005644083696, 28899.598586511445, 20379.515931548587, 40162.575562307306, 31658.049721485346, -16361.09696162903, 23257.03480923591, 0.004, 1.024, 0.06, 192.0, 0.0, 0.0, 0.0, 0.0, 0.0, 0.0, 0.0, 0.0, 0.0, 1.696016601755221E9, 0.0, 2023-09-29 14:43:21.755
32.0, 54842.91074787507, 48263.942988388895, 18777.05231631426, 28176.877281293546, 25018.441679291926, 19736.344484847126, -187500.02235174447, 21508.435488752784, 48873.698577129675, 26922.89971386191, 29025.21539035027, 20358.795864438518, 40137.541608517364, 31645.689206801562, -16375.826761225077, 23242.975561973522, 0.004, 1.022, 0.066, 192.0, 0.0, 16.0, 15.5, 120.0, 1.0, 8.0, 0.0, 0.0, 0.0, 1.696016601755248E9, 0.0, 2023-09-29 14:43:21.755
34.0, 54989.04645312387, 48306.18778540943, 18837.111453665668, 28187.159083742987, 25016.251208335307, 19725.01215040829, -187500.02235174447, 21496.566712447013, 48877.31955973143, 26926.23012378575, 28866.786225651056, 20378.89008270384, 40167.537649576385, 31674.768826337917, -16373.14455189044, 23243.31083814035, 0.004, 1.022, 0.066, 192.0, 0.0, 0.0, 0.0, 0.0, 0.0, 0.0, 0.0, 0.0, 0.0, 1.696016601755291E9, 0.0, 2023-09-29 14:43:21.755
36.0, 54840.67557342954, 48260.098488342584, 18768.849226099162, 28177.57018537166, 25016.653539735504, 19730.28716209974, -187500.02235174447, 21504.568636962016, 48859.8851990563, 26909.62277765546, 29049.958771462298, 20353.02911436905, 40143.08484114228, 31661.246020942453, -16393.775212022687, 23232.02320719042, 0.004, 1.022, 0.066, 192.0, 0.0, 0.0, 0.0, 0.0, 0.0, 0.0, 0.0, 0.0, 0.0, 1.696016601755301E9, 0.0, 2023-09-29 14:43:21.755
38.0, 54963.274891766894, 48313.40739886849, 18841.000657200893, 28184.76744708627, 25023.783746216744, 19732.120005145076, -187500.02235174447, 21509.821296909013, 48873.408004451754, 26918.496420204214, 28861.757083148612, 20375.26910010208, 40158.75341400545, 31660.441358142063, -16375.7150025028, 23245.635419563703, 0.004, 1.022, 0.066, 192.0, 0.0, 0.0, 0.0, 0.0, 0.0, 0.0, 0.0, 0.0, 0.0, 1.69601660175531E9, 0.0, 2023-09-29 14:43:21.755
40.0, 54832.00309658088, 48271.006139636775, 18772.134932534093, 28168.674191078448, 25028.790536974735, 19731.42710106696, -187500.02235174447, 21516.839744667977, 48872.84921084037, 26912.41674571237, 29080.714771832798, 20369.055315143505, 40155.28889361488, 31643.766956778403, -16381.705270016822, 23248.45173936507, 0.004, 1.022, 0.066, 192.0, 0.0, 0.0, 0.0, 0.0, 0.0, 0.0, 0.0, 0.0, 0.0, 1.69601660175532E9, 0.0, 2023-09-29 14:43:21.755
42.0, 54950.40028696064, 48311.17222442296, 18845.11337818067, 28175.513824881775, 25019.916894425976, 19728.364912076584, -187500.02235174447, 21500.00888109313, 48877.29720798698, 26914.540161435627, 28819.668748339267, 20373.70447799021, 40158.14991690516, 31649.26548591441, -16377.972528692786, 23230.72680601201, 0.002, 1.016, 0.07, 192.0, 0.0, 8.0, 15.5, 96.0, 1.0, 24.0, 0.0, 0.0, 0.0, 1.696016601755329E9, 0.0, 2023-09-29 14:43:21.755
44.0, 54859.42868702754, 48265.73112794532, 18778.348717492667, 28156.403083372486, 25018.844010692123, 19716.697301470915, -187500.02235174447, 21492.722212400702, 48872.1339550178, 26913.13200153494, 29096.09277201805, 20375.470265802178, 40152.651387769154, 31638.380186364677, -16375.424429824881, 23249.010532976456, 0.002, 1.016, 0.07, 192.0, 0.0, 0.0, 0.0, 0.0, 0.0, 0.0, 0.0, 0.0, 0.0, 1.696016601814422E9, 0.0, 2023-09-29 14:43:21.814
46.0, 54931.66952510709, 48298.476433572345, 18830.048302417792, 28158.95118224039, 25011.713804210878, 19709.14241184502, -187500.02235174447, 21489.950596088245, 48869.13882126079, 26908.12521077695, 28851.94466733273, 20362.99799239612, 40145.297663843354, 31646.627980068683, -16386.48854333026, 23218.701567495056, 0.002, 1.016, 0.07, 192.0, 0.0, 0.0, 0.0, 0.0, 0.0, 0.0, 0.0, 0.0, 0.0, 1.696016601814451E9, 0.0, 2023-09-29 14:43:21.814
48.0, 54872.28094008934, 48269.57562799164, 18784.227226284413, 28150.390464114007, 25024.856629950602, 19719.62537999456, -187500.02235174447, 21498.06427932552, 48863.72969910261, 26897.932815305332, 29118.57862694009, 20363.3556203074, 40157.00997793794, 31626.131430403166, -16378.531322304168, 23237.968771215532, 0.002, 1.016, 0.07, 192.0, 0.0, 0.0, 0.0, 0.0, 0.0, 0.0, 0.0, 0.0, 0.0, 1.696016601814461E9, 0.0, 2023-09-29 14:43:21.814
50.0, 54916.1127109662, 48301.47156732936, 18839.368979855655, 28171.535214368727, 25027.874115452065, 19730.845955711124, -187500.02235174447, 21506.379128262895, 48875.509068430554, 26915.031899813643, 28869.736655919154, 20361.656887728797, 40146.05762315483, 31650.98657023747, -16379.447743826837, 23222.143736141174, 0.002, 1.016, 0.07, 192.0, 0.0, 0.0, 0.0, 0.0, 0.0, 0.0, 0.0, 0.0, 0.0, 1.69601660181447E9, 0.0, 2023-09-29 14:43:21.814
52.0, 54891.279922876354, 48274.090680371606, 18786.641214685587, 28154.637295560515, 25015.33478681264, 19726.37560682006, -187500.02235174447, 21505.999148607156, 48865.786059592494, 26900.816190340065, 29136.594132971066, 20369.56940526598, 40164.36370186373, 31634.982721207467, -16375.20091238033, 23254.35259990127, 0.004, 1.018, 0.062, 192.0, 0.0, 16.0, 15.5, 104.0, 0.5, 120.0, 0.0, 0.0, 0.0, 1.696016601814479E9, 0.0, 2023-09-29 14:43:21.814
54.0, 54890.07292867576, 48299.59402079511, 18822.80633721427, 28171.24464169081, 25029.72931024186, 19728.990760921333, -187500.02235174447, 21500.187695048775, 48878.07951904291, 26915.210713769284, 28880.353734535427, 20358.12531210486, 40153.61251278073, 31652.573544093793, -16384.342775862548, 23219.84150646228, 0.004, 1.018, 0.062, 192.0, 0.0, 0.0, 0.0, 0.0, 0.0, 0.0, 0.0, 0.0, 0.0, 1.696016601814489E9, 0.0, 2023-09-29 14:43:21.814
56.0, 54903.14869918212, 48273.75540420478, 18785.970662351927, 28152.37976937053, 25008.584559987135, 19726.554420775705, -187500.02235174447, 21515.25277081165, 48860.24282696758, 26895.541178648615, 29124.3230252651, 20371.111675633394, 40153.836030225284, 31633.753375262426, -16376.296147858639, 23256.677181324623, 0.004, 1.018, 0.062, 192.0, 0.0, 0.0, 0.0, 0.0, 0.0, 0.0, 0.0, 0.0, 0.0, 1.696016601814498E9, 0.0, 2023-09-29 14:43:21.814
58.0, 54869.24110284342, 48293.89432595901, 18810.892857419596, 28169.61296434557, 25020.09570838162, 19733.595220279127, -187500.02235174447, 21508.659006197337, 48871.463402684145, 26912.014414312176, 28906.080592403483, 20356.247765570613, 40147.01874816642, 31648.93020974758, -16385.05803168512, 23219.550933784358, 0.004, 1.018, 0.062, 192.0, 0.0, 0.0, 0.0, 0.0, 0.0, 0.0, 0.0, 0.0, 0.0, 1.69601660181454E9, 0.0, 2023-09-29 14:43:21.814
60.0, 54926.662734349105, 48283.389006065016, 18793.14557232208, 28143.46142333286, 25004.650652963002, 19725.883868442044, -187500.02235174447, 21495.40442173534, 48870.837553839396, 26911.94735907881, 29098.640870885956, 20387.540207808044, 40154.14895464766, 31643.185811422565, -16376.877293214477, 23258.21945169204, 0.004, 1.018, 0.062, 192.0, 0.0, 0.0, 0.0, 0.0, 0.0, 0.0, 0.0, 0.0, 0.0, 1.69601660187518E9, 0.0, 2023-09-29 14:43:21.875
62.0, 54861.03801262832, 48281.13147987503, 18796.788906668295, 28142.455594832372, 25019.42515604796, 19722.419348051473, -187500.02235174447, 21492.87867461189, 48867.77536484902, 26900.391507195414, 28936.50131660716, 20345.563631720976, 40143.24130335347, 31614.620282008684, -16402.470040615804, 23208.73268946799, 0.004, 1.02, 0.062, 192.0, 0.0, 16.0, 15.5, 112.0, 0.5, 120.0, 0.0, 0.0, 0.0, 1.696016601875205E9, 0.0, 2023-09-29 14:43:21.875
64.0, 54958.78219113138, 48284.148965376495, 18804.29909280528, 28130.072728404135, 25011.33382455514, 19708.449507766905, -187500.02235174447, 21487.71542164271, 48870.45757418365, 26898.402201938894, 29098.46205693031, 20380.812332726997, 40166.75533852045, 31629.953578705023, -16381.191179894351, 23243.69081779609, 0.004, 1.02, 0.062, 192.0, 0.0, 0.0, 0.0, 0.0, 0.0, 0.0, 0.0, 0.0, 0.0, 1.696016601875216E9, 0.0, 2023-09-29 14:43:21.875
66.0, 54830.32671574673, 48269.665034969454, 18782.2826245168, 28151.15042342549, 25020.565095015183, 19718.150164860508, -187500.02235174447, 21518.49377375767, 48870.59168465039, 26896.70346936029, 28994.68290742432, 20343.999009609106, 40146.303492343846, 31644.638674812162, -16410.136688963972, 23192.93000613809, 0.004, 1.02, 0.062, 192.0, 0.0, 0.0, 0.0, 0.0, 0.0, 0.0, 0.0, 0.0, 0.0, 1.696016601875232E9, 0.0, 2023-09-29 14:43:21.875
68.0, 54961.71026965503, 48291.72620674685, 18817.598380756186, 28155.352551383086, 25018.866362436576, 19714.998568892308, -187500.02235174447, 21508.793116664066, 48879.979417321614, 26908.214617754773, 29040.995721935717, 20389.216588642194, 40163.067300685325, 31642.0682241998, -16376.676127514378, 23240.293352638884, 0.004, 1.02, 0.062, 192.0, 0.0, 0.0, 0.0, 0.0, 0.0, 0.0, 0.0, 0.0, 0.0, 1.696016601875241E9, 0.0, 2023-09-29 14:43:21.875
70.0, 54834.37238149314, 48261.50664824327, 18781.94734834997, 28160.29228690771, 25012.60787398909, 19715.490307270327, -187500.02235174447, 21507.07203234101, 48880.02412081053, 26908.259321243684, 28995.68873592481, 20356.717152204175, 40139.3744515627, 31658.9214395191, -16386.71206077481, 23213.94064592608, 0.004, 1.02, 0.062, 192.0, 0.0, 0.0, 0.0, 0.0, 0.0, 0.0, 0.0, 0.0, 0.0, 1.69601660187525E9, 0.0, 2023-09-29 14:43:21.875
72.0, 54974.80839190583, 48291.905020702485, 18814.715005721453, 28161.700446808394, 24999.24153080482, 19708.71772870037, -187500.02235174447, 21486.24020650866, 48871.44105093969, 26897.530483905135, 29027.249399095705, 20374.352678579413, 40175.13724269119, 31636.524991574886, -16382.62169153949, 23240.44981485007, 0.002, 1.02, 0.062, 192.0, 0.0, 8.0, 15.5, 112.0, 0.5, 120.0, 0.0, 0.0, 0.0, 1.69601660187526E9, 0.0, 2023-09-29 14:43:21.875
74.0, 54818.368532463144, 48274.06832862715, 18769.98916506638, 28174.664458592473, 25009.38922278753, 19727.649656254012, -187500.02235174447, 21518.650235968857, 48883.66745515674, 26908.393431710414, 29026.578846762044, 20342.188518308227, 40151.62320752421, 31646.82914576878, -16398.0220434692, 23204.68702372158, 0.002, 1.02, 0.062, 192.0, 0.0, 0.0, 0.0, 0.0, 0.0, 0.0, 0.0, 0.0, 0.0, 1.69601660193452E9, 0.0, 2023-09-29 14:43:21.934
76.0, 54980.59749371976, 48315.24024191383, 18822.4934127919, 28181.638202862527, 25000.09089709412, 19719.580676505648, -187500.02235174447, 21507.16143931883, 48890.08240581542, 26913.310815490582, 28942.133956209895, 20367.98243140965, 40164.29664663037, 31635.027424696378, -16386.265025885707, 23229.273942622418, 0.002, 1.02, 0.062, 192.0, 0.0, 0.0, 0.0, 0.0, 0.0, 0.0, 0.0, 0.0, 0.0, 1.696016601934545E9, 0.0, 2023-09-29 14:43:21.934
78.0, 54831.46665471395, 48284.283075843225, 18773.990127323883, 28197.619700148072, 25024.38724331704, 19738.311438359196, -187500.02235174447, 21535.79402396608, 48887.51195520305, 26917.490591703725, 29030.602160764, 20346.83768115493, 40155.71357675953, 31652.908820260625, -16380.297110116138, 23225.049462920364, 0.002, 1.02, 0.062, 192.0, 0.0, 0.0, 0.0, 0.0, 0.0, 0.0, 0.0, 0.0, 0.0, 1.696016601934555E9, 0.0, 2023-09-29 14:43:21.934
80.0, 54986.40894727814, 48331.489960132836, 18837.737302510417, 28202.380621717053, 25018.642844992024, 19732.723502245368, -187500.02235174447, 21524.416986038326, 48884.82974586842, 26927.48182147525, 28917.7258512647, 20374.88912044634, 40153.25488486944, 31664.107044232733, -16356.783074949155, 23249.07758820982, 0.002, 1.02, 0.062, 192.0, 0.0, 0.0, 0.0, 0.0, 0.0, 0.0, 0.0, 0.0, 0.0, 1.696016601934608E9, 0.0, 2023-09-29 14:43:21.934
82.0, 54832.941869848, 48296.28596261573, 18771.41967671152, 28197.73145887035, 25008.182228586942, 19724.609819008092, -187500.02235174447, 21527.434471539793, 48887.467251714144, 26924.576094696058, 29054.384416864446, 20352.31385854648, 40154.23836162548, 31659.770805808403, -16370.797618722632, 23235.666541536637, 0.004, 1.02, 0.064, 192.0, 0.0, 16.0, 15.5, 112.0, 1.0, 0.0, 0.0, 0.0, 0.0, 1.696016601934618E9, 0.0, 2023-09-29 14:43:21.934
84.0, 54976.708290184535, 48348.92432080798, 18850.857776505683, 28220.239665536843, 25033.909086454998, 19739.272563370774, -187500.02235174447, 21536.26341059964, 48897.614943696855, 26948.514813007692, 28871.32362977548, 20387.540207808044, 40186.38017015221, 31693.47723644701, -16342.120330586475, 23247.065931208843, 0.004, 1.02, 0.064, 192.0, 0.0, 0.0, 0.0, 0.0, 0.0, 0.0, 0.0, 0.0, 0.0, 1.696016601934627E9, 0.0, 2023-09-29 14:43:21.934
86.0, 54846.86700664366, 48301.22569814035, 18775.800618624762, 28205.465162451885, 25025.795403217722, 19736.836223225146, -187500.02235174447, 21533.201221609263, 48885.81322262445, 26945.407920528403, 29043.767338248177, 20371.3575448224, 40166.218896653525, 31664.956410522034, -16347.082417855552, 23246.194213175084, 0.004, 1.02, 0.064, 192.0, 0.0, 0.0, 0.0, 0.0, 0.0, 0.0, 0.0, 0.0, 0.0, 1.696016601934636E9, 0.0, 2023-09-29 14:43:21.934
88.0, 54975.45659249504, 48341.212968970896, 18827.5449070388, 28217.602159691116, 25011.33382455514, 19739.51843255978, -187500.02235174447, 21530.49666053017, 48878.794774865484, 26948.760682196702, 28849.57538242047, 20379.068896659483, 40151.243227868465, 31680.468521174018, -16346.434217266347, 23247.825890520322, 0.004, 1.02, 0.064, 192.0, 0.0, 0.0, 0.0, 0.0, 0.0, 0.0, 0.0, 0.0, 0.0, 1.696016601934645E9, 0.0, 2023-09-29 14:43:21.934
90.0, 54856.07592535924, 48311.12752093405, 18770.682069144495, 28224.844124894636, 25035.18313588895, 19749.397903609028, -187500.02235174447, 21536.375169321916, 48884.20389702367, 26954.48272877726, 29060.352332634015, 20376.431390813756, 40167.73881527648, 31687.732838121992, -16346.009534121697, 23256.051332479878, 0.004, 1.02, 0.064, 192.0, 0.0, 0.0, 0.0, 0.0, 0.0, 0.0, 0.0, 0.0, 0.0, 1.696016601994955E9, 0.0, 2023-09-29 14:43:21.994
92.0, 54965.84534237926, 48351.405364442515, 18833.982209441925, 28228.286293540754, 25018.262865336284, 19739.58548779315, -187500.02235174447, 21537.40334956686, 48891.40115873828, 26961.6129352585, 28809.722222056655, 20389.060126431006, 40178.62411482622, 31690.03506780089, -16335.638324694435, 23256.565422602347, 0.004, 1.012, 0.06, 192.0, 0.0, 16.0, 15.5, 80.0, 0.5, 112.0, 0.0, 0.0, 0.0, 1.69601660199498E9, 0.0, 2023-09-29 14:43:21.994
94.0, 54884.19441988402, 48309.808768011186, 18768.022211554315, 28212.237741021843, 25014.03838563423, 19724.81098470819, -187500.02235174447, 21511.54238123207, 48873.89974282977, 26942.122214093473, 29071.28233567266, 20380.87938796036, 40153.74662324746, 31672.98068678149, -16346.925955644365, 23260.901661026677, 0.004, 1.012, 0.06, 192.0, 0.0, 0.0, 0.0, 0.0, 0.0, 0.0, 0.0, 0.0, 0.0, 1.696016601994991E9, 0.0, 2023-09-29 14:43:21.994
96.0, 54940.006725788924, 48342.95640503841, 18818.984188912415, 28228.487459240852, 25021.10153688211, 19736.031560424755, -187500.02235174447, 21528.507355273647, 48875.55377191946, 26941.585772226546, 28839.114766015384, 20367.89302443183, 40157.45701282704, 31684.60359389825, -16353.206795836306, 23232.961980457545, 0.004, 1.012, 0.06, 192.0, 0.0, 0.0, 0.0, 0.0, 0.0, 0.0, 0.0, 0.0, 0.0, 1.696016601995E9, 0.0, 2023-09-29 14:43:21.995
98.0, 54888.39654784162, 48313.07212270166, 18775.57710118021, 28222.00545334881, 25022.822621205167, 19741.9100692165, -187500.02235174447, 21521.511259259136, 48880.269989999535, 26947.508984507203, 29098.573815652588, 20387.629614785867, 40157.03232968239, 31689.006887555945, -16342.321496286571, 23266.93663202961, 0.004, 1.012, 0.06, 192.0, 0.0, 0.0, 0.0, 0.0, 0.0, 0.0, 0.0, 0.0, 0.0, 1.69601660199501E9, 0.0, 2023-09-29 14:43:21.995
100.0, 54913.76577779839, 48325.387933896534, 18811.608113242164, 28220.664348681494, 25017.212333346884, 19740.971295949377, -187500.02235174447, 21527.747395962168, 48877.1854492647, 26945.653789717413, 28846.982580063654, 20373.50331229011, 40149.45508831205, 31675.1264542492, -16353.698534214323, 23232.559649057348, 0.004, 1.012, 0.06, 192.0, 0.0, 0.0, 0.0, 0.0, 0.0, 0.0, 0.0, 0.0, 0.0, 1.696016601995019E9, 0.0, 2023-09-29 14:43:21.995
102.0, 54904.690969549534, 48300.75631150679, 18770.547958677766, 28200.61483390508, 25001.297891294707, 19724.56511551918, -187500.02235174447, 21521.01952088112, 48855.50425714305, 26919.23402777124, 29093.790542339153, 20371.826931455962, 40135.95463466104, 31638.961331720515, -16355.374915048471, 23253.257364422963, 0.004, 1.016, 0.058, 192.0, 0.0, 16.0, 15.5, 96.0, 0.5, 104.0, 0.0, 0.0, 0.0, 1.696016601995067E9, 0.0, 2023-09-29 14:43:21.995
104.0, 54900.84646950322, 48339.603643370116, 18808.702386462974, 28230.990854619846, 25020.632150248548, 19741.19481339393, -187500.02235174447, 21525.847497683466, 48885.500298202074, 26941.384606526448, 28880.979583380176, 20366.373105808867, 40169.59401006628, 31671.70663734754, -16356.246633082228, 23227.46345132154, 0.004, 1.016, 0.058, 192.0, 0.0, 0.0, 0.0, 0.0, 0.0, 0.0, 0.0, 0.0, 0.0, 1.696016602055195E9, 0.0, 2023-09-29 14:43:22.055
106.0, 54950.10971428272, 48326.885500775046, 18793.972586866927, 28212.327147999666, 25023.403766561005, 19736.09861565812, -187500.02235174447, 21532.463614042237, 48880.09117604389, 26940.825812915067, 29071.03646648365, 20389.12718166437, 40174.82431826882, 31681.31788746332, -16346.56832773308, 23261.818082549344, 0.004, 1.016, 0.058, 192.0, 0.0, 0.0, 0.0, 0.0, 0.0, 0.0, 0.0, 0.0, 0.0, 1.69601660205522E9, 0.0, 2023-09-29 14:43:22.055
108.0, 54894.431518844554, 48327.93603276444, 18798.19706656898, 28214.517618956284, 25019.402804303507, 19731.874135956066, -187500.02235174447, 21520.863058669933, 48885.12031854634, 26941.27284780417, 28885.360525293414, 20359.041733627528, 40153.38899533618, 31662.78829130987, -16354.57025224808, 23225.60825653175, 0.004, 1.016, 0.058, 192.0, 0.0, 0.0, 0.0, 0.0, 0.0, 0.0, 0.0, 0.0, 0.0, 1.69601660205523E9, 0.0, 2023-09-29 14:43:22.055
110.0, 54970.82978139279, 48314.32382039116, 18786.752973407863, 28196.189188502933, 24998.03453660423, 19721.212353850886, -187500.02235174447, 21500.97000610471, 48867.618902637834, 26928.53235346465, 29076.5126438752, 20383.159265894803, 40162.75437626295, 31672.444244914564, -16358.682973227857, 23251.89390801119, 0.004, 1.016, 0.058, 192.0, 0.0, 0.0, 0.0, 0.0, 0.0, 0.0, 0.0, 0.0, 0.0, 1.696016602055239E9, 0.0, 2023-09-29 14:43:22.055
112.0, 54857.97582363794, 48306.388951109526, 18772.403153467556, 28215.8587236236, 25002.638995962025, 19730.354217333104, -187500.02235174447, 21523.388805793384, 48870.59168465039, 26932.645074444423, 28946.045511489574, 20345.675390443255, 40144.895332443164, 31661.64835234265, -16379.7159647603, 23205.44698303306, 0.006, 1.016, 0.064, 192.0, 0.0, 24.0, 15.5, 96.0, 1.0, 0.0, 0.0, 0.0, 0.0, 1.696016602055248E9, 0.0, 2023-09-29 14:43:22.055
114.0, 54971.12035407071, 48330.61824209908, 18795.581912467707, 28212.215389277386, 25005.969405885866, 19730.57773477766, -187500.02235174447, 21516.88444815689, 48868.84824858287, 26932.510963977693, 29063.14630069093, 20382.08638216095, 40147.622245266706, 31666.521032633907, -16361.700458729323, 23248.518794598436, 0.006, 1.016, 0.064, 192.0, 0.0, 0.0, 0.0, 0.0, 0.0, 0.0, 0.0, 0.0, 0.0, 1.696016602055257E9, 0.0, 2023-09-29 14:43:22.055
116.0, 54839.401523995584, 48314.39087562453, 18771.37497322261, 28218.607988191605, 25012.496115266815, 19738.646714526025, -187500.02235174447, 21527.41211979534, 48878.526553932024, 26938.635341958445, 28968.933697811808, 20351.44214051272, 40147.354024333246, 31662.564773865317, -16369.344755333039, 23211.951340669555, 0.006, 1.016, 0.064, 192.0, 0.0, 0.0, 0.0, 0.0, 0.0, 0.0, 0.0, 0.0, 0.0, 1.696016602055266E9, 0.0, 2023-09-29 14:43:22.055
118.0, 54976.417717506614, 48331.80288455521, 18802.44389801549, 28210.449601465418, 25009.14335359852, 19730.063644655187, -187500.02235174447, 21511.564732976527, 48873.05037654047, 26931.639245943934, 29024.388375805425, 20378.711268748197, 40166.353007120255, 31658.630866841184, -16342.18738581984, 23258.21945169204, 0.006, 1.016, 0.064, 192.0, 0.0, 0.0, 0.0, 0.0, 0.0, 0.0, 0.0, 0.0, 0.0, 1.696016602055275E9, 0.0, 2023-09-29 14:43:22.055
120.0, 54826.549270933785, 48302.79032025222, 18757.382781193588, 28222.38543300455, 25012.831391433647, 19747.58741230815, -187500.02235174447, 21545.092349659488, 48868.311806715945, 26926.05130983011, 28998.97444235974, 20336.3994164943, 40137.87688468419, 31670.298477446853, -16367.914243687897, 23215.438212804584, 0.006, 1.016, 0.064, 192.0, 0.0, 0.0, 0.0, 0.0, 0.0, 0.0, 0.0, 0.0, 0.0, 1.69601660211492E9, 0.0, 2023-09-29 14:43:22.114
122.0, 54980.66454895312, 48337.346117180125, 18806.355453295168, 28213.087107311145, 25014.060737378688, 19734.24342086833, -187500.02235174447, 21518.314959802028, 48870.14464976128, 26930.923990121366, 28987.820921876544, 20373.6597745013, 40158.93222796109, 31662.005980253936, -16341.695647441824, 23257.28067842492, 0.004, 1.016, 0.062, 192.0, 0.0, 16.0, 15.5, 96.0, 0.5, 120.0, 0.0, 0.0, 0.0, 1.696016602114944E9, 0.0, 2023-09-29 14:43:22.114
124.0, 54840.78733215181, 48308.355904621596, 18759.66265912803, 28218.272712024776, 25020.162763614986, 19744.43581633995, -187500.02235174447, 21528.127375617907, 48869.76467010554, 26932.779184911156, 29043.007378936694, 20348.625820711353, 40144.00126266495, 31672.377189681196, -16355.978412148765, 23229.94449495608, 0.004, 1.016, 0.062, 192.0, 0.0, 0.0, 0.0, 0.0, 0.0, 0.0, 0.0, 0.0, 0.0, 1.696016602114988E9, 0.0, 2023-09-29 14:43:22.114
126.0, 54993.02506363691, 48342.174093982474, 18803.405023027066, 28209.82375262067, 25013.47959202285, 19729.370740577073, -187500.02235174447, 21504.79215440657, 48867.35068170437, 26930.074623832064, 28991.30779401157, 20381.32642284947, 40153.143126147166, 31659.100253474746, -16347.350638789016, 23253.480881867516, 0.004, 1.016, 0.062, 192.0, 0.0, 0.0, 0.0, 0.0, 0.0, 0.0, 0.0, 0.0, 0.0, 1.696016602114998E9, 0.0, 2023-09-29 14:43:22.114
128.0, 54839.35682050668, 48299.57166905066, 18741.6248013526, 28198.37965945955, 25014.03838563423, 19729.750720232812, -187500.02235174447, 21508.279026541597, 48867.14951600427, 26926.788917397134, 29088.895510303442, 20353.07381785796, 40135.105268371735, 31655.41221563962, -16369.411810566404, 23222.031977418897, 0.004, 1.016, 0.062, 192.0, 0.0, 0.0, 0.0, 0.0, 0.0, 0.0, 0.0, 0.0, 0.0, 1.696016602115007E9, 0.0, 2023-09-29 14:43:22.115
130.0, 54991.86277292523, 48343.62695737207, 18810.19995334148, 28204.794610118224, 25009.18805708743, 19730.7565487333, -187500.02235174447, 21503.138125316877, 48869.89878057227, 26928.353539509004, 28971.571203657535, 20371.737524478143, 40158.105213416246, 31661.916573276114, -16362.974508163275, 23233.006683946453, 0.004, 1.016, 0.062, 192.0, 0.0, 0.0, 0.0, 0.0, 0.0, 0.0, 0.0, 0.0, 0.0, 1.696016602115016E9, 0.0, 2023-09-29 14:43:22.115
132.0, 54837.1439978056, 48294.363712592574, 18741.84831879715, 28195.362173958085, 25008.673966964958, 19729.795423721724, -187500.02235174447, 21516.750337690155, 48865.83076308141, 26922.787955139633, 29143.567877241123, 20355.73367544814, 40134.054736382335, 31647.365587635708, -16372.09401990104, 23225.78707048739, 0.002, 1.018, 0.062, 192.0, 0.0, 8.0, 15.5, 104.0, 0.5, 120.0, 0.0, 0.0, 0.0, 1.696016602115025E9, 0.0, 2023-09-29 14:43:22.115
134.0, 54974.4284122501, 48345.2139312284, 18811.183430097513, 28214.696432911926, 25010.931493154945, 19731.605915022603, -187500.02235174447, 21516.9291516458, 48873.408004451754, 26935.595504712524, 28979.483721194712, 20378.55480653701, 40152.76314649143, 31667.59391636776, -16362.125141873974, 23232.090262423786, 0.002, 1.018, 0.062, 192.0, 0.0, 0.0, 0.0, 0.0, 0.0, 0.0, 0.0, 0.0, 0.0, 1.696016602115034E9, 0.0, 2023-09-29 14:43:22.115
136.0, 54842.24019554141, 48300.26457312877, 18745.692818843465, 28197.016203047777, 25023.53787702774, 19735.24924936882, -187500.02235174447, 21517.622055723914, 48870.278760228015, 26929.113498820487, 29174.05565667816, 20366.574271508965, 40143.151896375646, 31660.329599419787, -16363.488598285747, 23231.55382055686, 0.002, 1.018, 0.062, 192.0, 0.0, 0.0, 0.0, 0.0, 0.0, 0.0, 0.0, 0.0, 0.0, 1.696016602175223E9, 0.0, 2023-09-29 14:43:22.175
138.0, 54949.48386543797, 48349.39370744154, 18808.3894620406, 28210.829581121157, 25015.804173446202, 19733.01407492329, -187500.02235174447, 21506.06620384052, 48878.727719632116, 26937.51775473568, 28956.796700572577, 20374.822065212975, 40158.1275651607, 31664.151747721644, -16351.820987680077, 23228.134003655196, 0.002, 1.018, 0.062, 192.0, 0.0, 0.0, 0.0, 0.0, 0.0, 0.0, 0.0, 0.0, 0.0, 1.696016602175256E9, 0.0, 2023-09-29 14:43:22.175
140.0, 54856.321794548254, 48313.31799189067, 18739.210812951424, 28189.841293077625, 25001.27553955025, 19727.649656254012, -187500.02235174447, 21516.25859931214, 48865.27196947002, 26932.108632577496, 29187.82433126263, 20364.964945908185, 40145.36471907672, 31663.28002968789, -16365.254386097717, 23232.64905603517, 0.002, 1.018, 0.062, 192.0, 0.0, 0.0, 0.0, 0.0, 0.0, 0.0, 0.0, 0.0, 0.0, 1.696016602175266E9, 0.0, 2023-09-29 14:43:22.175
142.0, 54946.98047005898, 48347.38205044056, 18805.371976539132, 28213.15416254451, 25014.03838563423, 19734.19871737942, -187500.02235174447, 21519.231381324695, 48880.560562677456, 26934.29910353412, 28974.767503114643, 20363.288565074035, 40166.19654490907, 31663.548250621352, -16357.319516816082, 23226.8823059657, 0.002, 1.018, 0.062, 192.0, 0.0, 0.0, 15.5, 104.0, 0.5, 120.0, 0.0, 0.0, 0.0, 1.696016602175276E9, 0.0, 2023-09-29 14:43:22.175
144.0, 54883.792088483824, 48311.14987267851, 18751.817196824217, 28198.87139783757, 25007.869304164567, 19736.836223225146, -187500.02235174447, 21514.64927371136, 48881.92401908923, 26924.911370862887, 29220.256712467282, 20371.64811750032, 40159.31220761684, 31645.622151568194, -16355.03963888164, 23241.925029984122, 0.002, 1.018, 0.062, 192.0, 0.0, 0.0, 0.0, 0.0, 0.0, 0.0, 0.0, 0.0, 0.0, 1.696016602175304E9, 0.0, 2023-09-29 14:43:22.175
146.0, 54930.373123928686, 48336.11677123509, 18794.352566522666, 28205.9569008299, 25008.249283820307, 19724.922743430467, -187500.02235174447, 21500.411212493327, 48883.89097260129, 26925.492516218725, 28982.7917793741, 20366.12723661986, 40140.26852134091, 31658.832032541282, -16363.600357008025, 23219.39447157317, 0.002, 1.018, 0.062, 192.0, 0.0, 0.0, 0.0, 0.0, 0.0, 0.0, 0.0, 0.0, 0.0, 1.696016602175367E9, 0.0, 2023-09-29 14:43:22.175
148.0, 54893.649207788614, 48304.53375631974, 18744.46347289842, 28188.96957504387, 24997.743963926314, 19718.552496260705, -187500.02235174447, 21492.364584489416, 48874.14561201878, 26909.019280555163, 29229.130355016037, 20369.74821922162, 40155.62416978171, 31645.93507599057, -16365.902586686921, 23234.63836129169, 0.002, 1.018, 0.062, 192.0, 0.0, 0.0, 0.0, 0.0, 0.0, 0.0, 0.0, 0.0, 0.0, 1.696016602175376E9, 0.0, 2023-09-29 14:43:22.175
150.0, 54900.24297240293, 48331.15468396601, 18783.5343222063, 28211.701299154916, 25006.774068686256, 19734.7575109908, -187500.02235174447, 21527.12154711742, 48881.76755687804, 26919.725766149255, 28991.039573078106, 20356.69480045972, 40152.092594157766, 31660.731930819984, -16371.490522800748, 23204.46350627703, 0.002, 1.018, 0.062, 192.0, 0.0, 0.0, 0.0, 0.0, 0.0, 0.0, 0.0, 0.0, 0.0, 1.696016602235459E9, 0.0, 2023-09-29 14:43:22.235
152.0, 54918.906679023115, 48317.83304427064, 18761.875481829105, 28205.040479307234, 25008.785725687234, 19729.504851043803, -187500.02235174447, 21520.03604412509, 48891.62467618283, 26930.38754825444, 29204.409325648467, 20389.685975275752, 40169.75047227746, 31673.673590859606, -16356.00076389322, 23249.65873356566, 0.004, 1.022, 0.064, 192.0, 0.0, 16.0, 15.5, 120.0, 1.0, 0.0, 0.0, 0.0, 0.0, 1.696016602235483E9, 0.0, 2023-09-29 14:43:22.235
154.0, 54882.741556494424, 48327.37723915306, 18785.47892397391, 28218.228008535865, 25029.10346139711, 19740.077226171165, -187500.02235174447, 21519.76782319162, 48895.513879718055, 26927.66063543089, 28997.78979990361, 20365.143759863826, 40169.12462343271, 31676.89224206117, -16352.71505745829, 23218.746270983967, 0.004, 1.022, 0.064, 192.0, 0.0, 0.0, 0.0, 0.0, 0.0, 0.0, 0.0, 0.0, 0.0, 1.696016602235493E9, 0.0, 2023-09-29 14:43:22.235
156.0, 54938.84443507725, 48318.3024309042, 18767.418714454023, 28196.882092581047, 25008.51750475377, 19723.425176551962, -187500.02235174447, 21494.420944979305, 48889.210687781655, 26922.072699317065, 29182.90694748246, 20391.56352181, 40164.117832674725, 31647.16442193561, -16340.108673585497, 23254.37495164573, 0.004, 1.022, 0.064, 192.0, 0.0, 0.0, 0.0, 0.0, 0.0, 0.0, 0.0, 0.0, 0.0, 1.696016602235502E9, 0.0, 2023-09-29 14:43:22.235
158.0, 54875.65605350209, 48318.481244859846, 18766.94932782046, 28207.655633408503, 25004.673004707456, 19732.589391778638, -187500.02235174447, 21525.9816081502, 48883.063958056446, 26919.502248704703, 29045.488422571234, 20358.192367338226, 40141.833143452786, 31663.25767794343, -16370.328232089072, 23210.923160424612, 0.004, 1.022, 0.064, 192.0, 0.0, 0.0, 0.0, 0.0, 0.0, 0.0, 0.0, 0.0, 0.0, 1.69601660223551E9, 0.0, 2023-09-29 14:43:22.235
160.0, 54952.47899919498, 48325.65615483, 18771.754952878353, 28203.006470561802, 25020.43098454845, 19745.061665184698, -187500.02235174447, 21519.946637147266, 48886.37201623584, 26925.693681918823, 29202.800000047686, 20389.440106086746, 40172.27621940091, 31659.457881386028, -16351.642173724435, 23255.201966190572, 0.004, 1.022, 0.064, 192.0, 0.0, 0.0, 0.0, 0.0, 0.0, 0.0, 0.0, 0.0, 0.0, 1.696016602235519E9, 0.0, 2023-09-29 14:43:22.235
162.0, 54843.98363160892, 48303.21500339687, 18752.08541775768, 28198.312604226187, 25004.8518186631, 19734.824566224168, -187500.02235174447, 21501.595854949457, 48888.29426625899, 26925.336054007537, 29049.489384828736, 20353.99023938063, 40145.297663843354, 31662.810643054327, -16362.013383151698, 23213.337148825784, 0.006, 1.02, 0.062, 192.0, 0.0, 24.0, 15.5, 112.0, 0.5, 120.0, 0.0, 0.0, 0.0, 1.696016602235528E9, 0.0, 2023-09-29 14:43:22.235
164.0, 54974.07078433881, 48328.78539905374, 18775.15241803556, 28195.071601280168, 25006.215275074876, 19725.794461464222, -187500.02235174447, 21501.48409622718, 48881.56639117794, 26918.362309737484, 29168.11009265305, 20383.874521717375, 40164.386053608185, 31649.93603824807, -16350.457531268303, 23250.373989388227, 0.006, 1.02, 0.062, 192.0, 0.0, 0.0, 0.0, 0.0, 0.0, 0.0, 0.0, 0.0, 0.0, 1.696016602235538E9, 0.0, 2023-09-29 14:43:22.235
166.0, 54846.15175082109, 48311.26163140078, 18742.071836241703, 28197.127961770057, 25004.918873896466, 19728.387263821038, -187500.02235174447, 21503.74162241717, 48884.69563540169, 26921.93858885033, 29116.656376916933, 20353.54320449152, 40137.11692537271, 31664.55407912184, -16370.417639066893, 23206.944549911565, 0.006, 1.02, 0.062, 192.0, 0.0, 0.0, 0.0, 0.0, 0.0, 0.0, 0.0, 0.0, 0.0, 1.696016602295805E9, 0.0, 2023-09-29 14:43:22.295
168.0, 54994.72379621551, 48346.55503589571, 18780.069801815727, 28195.429229191453, 25006.796420430714, 19725.637999253035, -187500.02235174447, 21500.612378193426, 48884.114490045846, 26924.263170273683, 29161.53867978319, 20390.043603187038, 40158.37343434971, 31654.093462716755, -16359.420580794882, 23236.73942527049, 0.006, 1.02, 0.062, 192.0, 0.0, 0.0, 0.0, 0.0, 0.0, 0.0, 0.0, 0.0, 0.0, 1.696016602295854E9, 0.0, 2023-09-29 14:43:22.295
170.0, 54853.5501782358, 48313.295640146214, 18736.70741757243, 28195.362173958085, 25001.163780827974, 19729.974237677365, -187500.02235174447, 21495.225607779696, 48886.841402869395, 26927.928856364353, 29147.94881915436, 20362.729771462655, 40133.89827417115, 31657.535631362873, -16371.356412334015, 23199.032032374387, 0.006, 1.02, 0.062, 192.0, 0.0, 0.0, 0.0, 0.0, 0.0, 0.0, 0.0, 0.0, 0.0, 1.696016602295864E9, 0.0, 2023-09-29 14:43:22.295
172.0, 55005.720854487525, 48343.06816376068, 18779.24278727088, 28190.690659366926, 24993.22891154634, 19724.0063219078, -187500.02235174447, 21512.816430666022, 48875.73258587511, 26919.636359171436, 29135.90122889295, 20384.4109635843, 40144.828277209795, 31649.287837658863, -16364.472075041782, 23234.07956768031, 0.006, 1.02, 0.062, 192.0, 0.0, 0.0, 15.5, 104.0, 0.5, 112.0, 0.0, 0.0, 0.0, 1.696016602295873E9, 0.0, 2023-09-29 14:43:22.295
174.0, 54841.61434669666, 48308.66882904397, 18736.32743791669, 28188.54489189922, 25005.09768785211, 19727.448490553918, -187500.02235174447, 21494.264482768118, 48885.366187735344, 26925.38075749645, 29186.01383996175, 20363.132102862848, 40154.528934303395, 31649.667817314607, -16371.110543145007, 23207.21277084503, 0.006, 1.02, 0.062, 192.0, 0.0, 0.0, 0.0, 0.0, 0.0, 0.0, 0.0, 0.0, 0.0, 1.696016602295882E9, 0.0, 2023-09-29 14:43:22.295
176.0, 54997.78598520589, 48352.21002724291, 18800.074613103225, 28199.877226338056, 24999.867379649568, 19737.260906369796, -187500.02235174447, 21521.64536972587, 48880.20293476617, 26923.503210962204, 29114.734126893774, 20389.149533408825, 40156.361777348735, 31654.965180750514, -16351.508063257703, 23231.17384090112, 0.006, 1.02, 0.062, 192.0, 0.0, 0.0, 0.0, 0.0, 0.0, 0.0, 0.0, 0.0, 0.0, 1.69601660229589E9, 0.0, 2023-09-29 14:43:22.295
178.0, 54836.85342512768, 48304.71257027538, 18741.4236356525, 28193.641089635028, 25006.170571585964, 19740.658371527003, -187500.02235174447, 21511.698843443257, 48890.887068615804, 26927.884152875442, 29229.01859629376, 20369.234129099146, 40148.0245766669, 31653.042930727355, -16358.817083694588, 23216.958131427542, 0.006, 1.02, 0.062, 192.0, 0.0, 0.0, 0.0, 0.0, 0.0, 0.0, 0.0, 0.0, 0.0, 1.696016602295899E9, 0.0, 2023-09-29 14:43:22.295
180.0, 55000.982284663, 48345.07982076166, 18800.655758459063, 28195.585691402637, 24991.932510367933, 19723.8051562077, -187500.02235174447, 21495.20325603524, 48884.606228423865, 26921.37979523895, 29105.502856433734, 20385.41679208479, 40158.26167562744, 31645.063357956813, -16345.964830632787, 23240.561573572348, 0.006, 1.02, 0.062, 192.0, 0.0, 0.0, 0.0, 0.0, 0.0, 0.0, 0.0, 0.0, 0.0, 1.696016602356089E9, 0.0, 2023-09-29 14:43:22.356
182.0, 54849.839788656216, 48302.9020789745, 18727.878478512583, 28188.00845003229, 24998.950958126898, 19724.38630156354, -187500.02235174447, 21502.91460787232, 48880.91819058874, 26915.456582958293, 29303.673422774486, 20362.327440062458, 40154.41717558112, 31637.93315147557, -16365.589662264547, 23219.59563727327, -0.002, 1.02, 0.064, 192.0, 127.5, 120.0, 15.5, 112.0, 1.0, 0.0, 0.0, 0.0, 0.0, 1.696016602356116E9, 0.0, 2023-09-29 14:43:22.356
184.0, 54977.825877407304, 48341.14591373753, 18791.67035718803, 28187.8519878211, 24996.08993483662, 19721.65938873999, -187500.02235174447, 21499.0254043371, 48885.366187735344, 26919.256379515697, 29094.483446417267, 20376.14081813584, 40153.09842265826, 31647.857326013724, -16352.625650480468, 23221.964922185532, -0.002, 1.02, 0.064, 192.0, 0.0, 0.0, 0.0, 0.0, 0.0, 0.0, 0.0, 0.0, 0.0, 1.696016602356125E9, 0.0, 2023-09-29 14:43:22.356
186.0, 54857.95347189349, 48300.286924873224, 18724.726882544386, 28177.123150482556, 24991.552530712193, 19731.650618511514, -187500.02235174447, 21505.01567185112, 48876.80546960896, 26907.74523112121, 29320.169010182504, 20359.198195838715, 40139.75443121844, 31650.628942326184, -16360.962851162298, 23224.043634419875, -0.002, 1.02, 0.064, 192.0, 0.0, 0.0, 0.0, 0.0, 0.0, 0.0, 0.0, 0.0, 0.0, 1.696016602356134E9, 0.0, 2023-09-29 14:43:22.356
188.0, 54964.03485107838, 48348.23141672986, 18784.04841232877, 28192.881130323545, 24994.055926091187, 19729.86247895509, -187500.02235174447, 21503.36164276143, 48886.05909181346, 26922.76560339518, 29086.168597479893, 20366.417809297778, 40146.45995455503, 31647.63380856917, -16364.069743641585, 23209.626759246203, -0.002, 1.02, 0.064, 192.0, 0.0, 0.0, 0.0, 0.0, 0.0, 0.0, 0.0, 0.0, 0.0, 1.696016602356143E9, 0.0, 2023-09-29 14:43:22.356
190.0, 54882.18276288304, 48296.35301784909, 18719.94360923095, 28170.261164934775, 24980.287251506717, 19721.905257929, -187500.02235174447, 21493.660985667826, 48876.224324253126, 26907.7005276323, 29335.502306878843, 20359.041733627528, 40155.64652152616, 31635.765032263404, -16367.221339609783, 23223.9318756976, -0.002, 1.02, 0.064, 192.0, 0.0, 0.0, 0.0, 0.0, 0.0, 0.0, 0.0, 0.0, 0.0, 1.696016602356181E9, 0.0, 2023-09-29 14:43:22.356
192.0, 54956.5246649414, 48329.56771010968, 18781.008575082848, 28193.01524079028, 24996.60402495909, 19729.86247895509, -187500.02235174447, 21514.515163244625, 48879.42062371023, 26906.76175436518, 29111.694289647854, 20353.40909402479, 40148.71748074502, 31627.02550018138, -16362.95215641882, 23210.54318076887, 0.002, 1.022, 0.07, 192.0, 0.0, 8.0, 15.5, 120.0, 1.0, 24.0, 0.0, 0.0, 0.0, 1.696016602356192E9, 0.0, 2023-09-29 14:43:22.356
194.0, 54886.56370479628, 48299.23639288383, 18732.885269270573, 28183.58280463014, 25004.829466918643, 19732.030598167254, -187500.02235174447, 21507.16143931883, 48875.55377191946, 26896.256434471183, 29368.404074717055, 20357.298297560013, 40157.121736660214, 31645.0186544679, -16355.821949937577, 23235.398320603173, 0.002, 1.022, 0.07, 192.0, 0.0, 0.0, 0.0, 0.0, 0.0, 0.0, 0.0, 0.0, 0.0, 1.696016602356201E9, 0.0, 2023-09-29 14:43:22.356
196.0, 54929.657868106115, 48334.23922470084, 18782.215569283435, 28191.897653567514, 24995.95582436989, 19739.18315639295, -187500.02235174447, 21510.625959709403, 48892.83167038342, 26912.52850443465, 29096.070420273594, 20353.811425424985, 40162.307341373846, 31649.801927781336, -16354.100865614519, 23211.146677869165, 0.002, 1.022, 0.07, 192.0, 0.0, 0.0, 0.0, 0.0, 0.0, 0.0, 0.0, 0.0, 0.0, 1.696016602415003E9, 0.0, 2023-09-29 14:43:22.415
198.0, 54911.24003067494, 48312.91566049048, 18732.81821403721, 28170.507034123784, 24991.351365012095, 19728.834298710146, -187500.02235174447, 21508.435488752784, 48883.15336503427, 26904.41482119737, 29342.319588937713, 20369.636460499343, 40158.731062260995, 31637.620227053194, -16356.7607232047, 23239.39928286067, 0.002, 1.022, 0.07, 192.0, 0.0, 0.0, 0.0, 0.0, 0.0, 0.0, 0.0, 0.0, 0.0, 1.696016602415022E9, 0.0, 2023-09-29 14:43:22.415
200.0, 54916.20211794402, 48337.03319275775, 18775.1300662911, 28186.10855175359, 24998.66038544898, 19735.316304602184, -187500.02235174447, 21501.01470959362, 48894.6421616843, 26914.89778934691, 29097.076248774083, 20354.526681247557, 40154.21600988102, 31655.79219529536, -16358.101827872018, 23204.619968488216, 0.002, 1.022, 0.07, 192.0, 0.0, 0.0, 0.0, 0.0, 0.0, 0.0, 0.0, 0.0, 0.0, 1.696016602415031E9, 0.0, 2023-09-29 14:43:22.415
202.0, 54938.08447576577, 48318.16832043747, 18745.782225821284, 28171.71402832437, 24997.587501715127, 19727.515545787282, -187500.02235174447, 21517.957331890742, 48882.75103363407, 26903.23017874124, 29343.414824416024, 20374.777361724064, 40163.33552161879, 31628.79128799335, -16350.636345223946, 23246.529489341916, 0.002, 1.02, 0.066, 192.0, 0.0, 8.0, 15.5, 112.0, 1.0, 8.0, 0.0, 0.0, 0.0, 1.69601660241504E9, 0.0, 2023-09-29 14:43:22.415
204.0, 54892.50926882139, 48324.42680888496, 18759.3273829612, 28181.90642379599, 24984.28821376422, 19724.073377141165, -187500.02235174447, 21492.163418789318, 48889.92594360423, 26913.020242812665, 29119.651510673943, 20355.30899230349, 40152.27140811341, 31650.56188709282, -16365.679069242367, 23200.574302741803, 0.002, 1.02, 0.066, 192.0, 0.0, 0.0, 0.0, 0.0, 0.0, 0.0, 0.0, 0.0, 0.0, 1.696016602415049E9, 0.0, 2023-09-29 14:43:22.415
206.0, 54969.10869706973, 48323.935070506945, 18752.08541775768, 28170.350571912597, 24985.94224285391, 19728.320208587673, -187500.02235174447, 21511.40827076534, 48882.32635048942, 26906.56058866508, 29318.38087062608, 20381.88521646085, 40163.983722207995, 31630.870000227693, -16354.413790036893, 23239.019303204932, 0.002, 1.02, 0.066, 192.0, 0.0, 0.0, 0.0, 0.0, 0.0, 0.0, 0.0, 0.0, 0.0, 1.696016602415058E9, 0.0, 2023-09-29 14:43:22.415
208.0, 54883.34505359472, 48320.67171581647, 18752.264231713325, 28183.895729052514, 24997.743963926314, 19738.467900570384, -187500.02235174447, 21507.049680596552, 48892.31758026095, 26911.18739976733, 29169.182976386903, 20349.318724789468, 40152.00318717995, 31647.49969810244, -16359.845263939533, 23202.518904509416, 0.002, 1.02, 0.066, 192.0, 0.0, 0.0, 0.0, 0.0, 0.0, 0.0, 0.0, 0.0, 0.0, 1.696016602415067E9, 0.0, 2023-09-29 14:43:22.415
210.0, 54976.46242099553, 48325.2091199409, 18751.884252057585, 28168.182452700432, 24981.18132128493, 19726.353255075606, -187500.02235174447, 21491.40345947784, 48891.602324438376, 26908.035803799132, 29309.060193188216, 20377.258405358603, 40169.88458274419, 31640.905933488124, -16347.149473088917, 23249.614030076747, 0.002, 1.02, 0.066, 192.0, 0.0, 0.0, 0.0, 0.0, 0.0, 0.0, 0.0, 0.0, 0.0, 1.696016602475196E9, 0.0, 2023-09-29 14:43:22.475
212.0, 54855.2489108144, 48324.73973330733, 18742.496519386354, 28174.664458592473, 24997.22987380384, 19742.37945585006, -187500.02235174447, 21507.742584674666, 48896.87733612983, 26913.26611200167, 29189.92539524143, 20346.904736388296, 40150.03623366788, 31644.996302723444, -16367.735429732256, 23205.73755571098, 0.002, 1.02, 0.068, 192.0, 0.0, 8.0, 15.5, 112.0, 1.0, 16.0, 0.0, 0.0, 0.0, 1.696016602475248E9, 0.0, 2023-09-29 14:43:22.475
214.0, 54983.52557224341, 48341.32472769317, 18770.100923788657, 28169.38944690102, 24990.971385356355, 19729.57190627717, -187500.02235174447, 21508.05550909704, 48890.194164537694, 26908.080507288043, 29272.917422403985, 20380.566463537987, 40169.59401006628, 31636.145011919143, -16347.104769600008, 23243.64611430718, 0.002, 1.02, 0.068, 192.0, 0.0, 0.0, 0.0, 0.0, 0.0, 0.0, 0.0, 0.0, 0.0, 1.696016602475258E9, 0.0, 2023-09-29 14:43:22.475
216.0, 54857.39467828211, 48314.05559945769, 18733.578173348687, 28171.736380068825, 24988.892673122013, 19727.828470209657, -187500.02235174447, 21486.35196523094, 48895.13390006231, 26911.500324189703, 29233.220724251358, 20351.732713190642, 40139.06152714032, 31629.77476474938, -16365.43320005336, 23203.25651207644, 0.002, 1.02, 0.068, 192.0, 0.0, 0.0, 0.0, 0.0, 0.0, 0.0, 0.0, 0.0, 0.0, 1.696016602475267E9, 0.0, 2023-09-29 14:43:22.475
218.0, 55001.96576141904, 48340.14008523704, 18769.497426688366, 28160.58285958563, 24984.489379464314, 19725.056853897197, -187500.02235174447, 21489.21298852122, 48894.35158900638, 26914.853085857998, 29273.275050315267, 20387.294338619035, 40182.40155963917, 31640.995340465946, -16347.395342277927, 23236.51590782594, 0.002, 1.02, 0.068, 192.0, 0.0, 0.0, 0.0, 0.0, 0.0, 0.0, 0.0, 0.0, 0.0, 1.696016602475277E9, 0.0, 2023-09-29 14:43:22.475
220.0, 54846.889358388114, 48309.406436610996, 18721.172955175993, 28162.19218518641, 24989.56322545567, 19732.052949911707, -187500.02235174447, 21503.74162241717, 48888.62954242582, 26908.527542177148, 29286.015544654794, 20349.922221889763, 40156.629998282195, 31630.22179963849, -16373.077496657073, 23195.00871837243, 0.002, 1.02, 0.068, 192.0, 0.0, 0.0, 0.0, 0.0, 0.0, 0.0, 0.0, 0.0, 0.0, 1.696016602475286E9, 0.0, 2023-09-29 14:43:22.475
222.0, 54994.72379621551, 48349.84074233064, 18778.52753144831, 28168.897708523004, 24998.123943582053, 19730.04129291073, -187500.02235174447, 21514.179887077797, 48884.047434812484, 26908.907521832887, 29240.820317366164, 20380.78998098254, 40151.98083543549, 31648.773747536394, -16348.401170778416, 23233.140794413186, 0.002, 1.02, 0.068, 192.0, 0.0, 0.0, 15.5, 112.0, 1.0, 16.0, 0.0, 0.0, 0.0, 1.696016602475295E9, 0.0, 2023-09-29 14:43:22.475
224.0, 54843.76011416437, 48318.01185822629, 18731.74533030335, 28163.354475898086, 25001.789629672723, 19741.597144794127, -187500.02235174447, 21512.682320199292, 48903.15817632177, 26918.317606248573, 29296.878492460073, 20362.37214355137, 40168.454071099055, 31634.82625899628, -16356.581909249058, 23213.091279636774, 0.002, 1.02, 0.068, 192.0, 0.0, 0.0, 0.0, 0.0, 0.0, 0.0, 0.0, 0.0, 0.0, 1.696016602475304E9, 0.0, 2023-09-29 14:43:22.475
226.0, 55003.753900975455, 48361.28483549176, 18782.70730766145, 28154.480833349327, 24990.166722555965, 19719.893600928022, -187500.02235174447, 21483.110962284918, 48904.186356566715, 26918.384661481938, 29191.91470049795, 20384.880350217863, 40164.09548093027, 31635.07212818529, -16345.51779574368, 23231.12913741221, 0.002, 1.02, 0.068, 192.0, 0.0, 0.0, 0.0, 0.0, 0.0, 0.0, 0.0, 0.0, 0.0, 1.696016602535501E9, 0.0, 2023-09-29 14:43:22.535
228.0, 54860.34510855021, 48324.31505016268, 18718.446042352443, 28148.66937979095, 24989.920853366955, 19731.8070807227, -187500.02235174447, 21510.715366687225, 48903.20287981068, 26915.344824236017, 29332.775394055298, 20357.767684193575, 40166.285951886886, 31643.74460503395, -16366.327269831572, 23209.60440750175, 0.002, 1.02, 0.068, 192.0, 0.0, 0.0, 0.0, 0.0, 0.0, 0.0, 0.0, 0.0, 0.0, 1.69601660253552E9, 0.0, 2023-09-29 14:43:22.535
230.0, 55012.38167433521, 48361.28483549176, 18782.372031494622, 28155.41960661645, 24985.070524820152, 19732.164708633987, -187500.02235174447, 21500.657081682337, 48898.06197858596, 26917.37883298145, 29184.851549250074, 20377.526626292067, 40169.03521645489, 31642.627017811184, -16353.296202814128, 23225.16122164264, 0.002, 1.02, 0.068, 192.0, 0.0, 0.0, 0.0, 0.0, 0.0, 0.0, 0.0, 0.0, 0.0, 1.696016602535529E9, 0.0, 2023-09-29 14:43:22.535
232.0, 54864.32371906325, 48314.41322736898, 18704.18562938996, 28142.746167510293, 24984.735248653324, 19727.739063231835, -187500.02235174447, 21502.31111077203, 48891.26704827155, 26911.27680674515, 29381.09986556767, 20355.59956498141, 40159.021634938916, 31633.06047118431, -16367.042525654142, 23214.946474426568, 0.002, 1.02, 0.068, 192.0, 0.0, 0.0, 15.5, 104.0, 0.5, 120.0, 0.0, 0.0, 0.0, 1.696016602535538E9, 0.0, 2023-09-29 14:43:22.535
234.0, 54993.31563631483, 48361.17307676948, 18783.37785999511, 28155.66547580546, 24987.19394054341, 19723.827507952155, -187500.02235174447, 21504.34511951746, 48897.950219863684, 26915.836562614033, 29176.983735201808, 20367.825969198464, 40167.29178038738, 31629.12656416018, -16354.883176670453, 23221.607294274247, 0.002, 1.02, 0.068, 192.0, 0.0, 0.0, 0.0, 0.0, 0.0, 0.0, 0.0, 0.0, 0.0, 1.696016602535577E9, 0.0, 2023-09-29 14:43:22.535
236.0, 54872.951492423, 48324.51621586278, 18714.4674318394, 28150.72574028084, 24993.430077246438, 19740.56896454918, -187500.02235174447, 21503.227532294695, 48892.71991166114, 26907.23114099874, 29427.569142290253, 20355.17488183676, 40155.80298373735, 31617.905988443614, -16362.415714551893, 23221.49553555197, 0.002, 1.02, 0.068, 192.0, 0.0, 0.0, 0.0, 0.0, 0.0, 0.0, 0.0, 0.0, 0.0, 1.696016602535586E9, 0.0, 2023-09-29 14:43:22.535
238.0, 54988.55471474585, 48375.79111764325, 18791.3350810212, 28176.921984782457, 24997.274577292752, 19751.409560610005, -187500.02235174447, 21520.41602378083, 48915.60809798338, 26934.410862256394, 29180.939993970394, 20378.97948968166, 40179.205260182054, 31654.316980161308, -16344.735484687744, 23224.915352453634, 0.002, 1.02, 0.068, 192.0, 0.0, 0.0, 0.0, 0.0, 0.0, 0.0, 0.0, 0.0, 0.0, 1.696016602535595E9, 0.0, 2023-09-29 14:43:22.535
240.0, 54917.11853946669, 48341.70470734891, 18732.907621015027, 28162.7956822867, 24985.56226319817, 19745.508700073802, -187500.02235174447, 21515.25277081165, 48906.08625484542, 26927.727690664255, 29462.795491551817, 20382.667527516787, 40172.41032986764, 31660.150785464146, -16348.28941205614, 23240.427463105618, 0.002, 1.02, 0.068, 192.0, 0.0, 0.0, 0.0, 0.0, 0.0, 0.0, 0.0, 0.0, 0.0, 1.696016602595761E9, 0.0, 2023-09-29 14:43:22.595
242.0, 54965.75593540144, 48375.92522810998, 18789.926921120517, 28180.9005952955, 24998.749792426803, 19747.252136141316, -187500.02235174447, 21508.167267819317, 48921.53131026403, 26944.469147261283, 29213.126505986038, 20383.069858916984, 40184.07794047331, 31659.54728836385, -16352.335077802549, 23213.627721503704, -0.004, 1.018, 0.064, 192.0, 127.5, 112.0, 15.5, 104.0, 1.0, 0.0, 0.0, 0.0, 0.0, 1.69601660259579E9, 0.0, 2023-09-29 14:43:22.595
244.0, 54922.460606391505, 48331.51231187729, 18733.019379737303, 28149.630504802528, 24979.102609050587, 19726.777938220257, -187500.02235174447, 21489.34709898795, 48901.951182121185, 26921.51390570568, 29457.051093226804, 20387.964890952695, 40173.52791709041, 31637.217895653, -16354.19027259234, 23237.29821888187, -0.004, 1.018, 0.064, 192.0, 0.0, 0.0, 0.0, 0.0, 0.0, 0.0, 0.0, 0.0, 0.0, 1.696016602595802E9, 0.0, 2023-09-29 14:43:22.595
246.0, 54946.73460086997, 48360.837800602654, 18776.091191302683, 28167.75776955578, 24991.351365012095, 19737.774996492266, -187500.02235174447, 21507.54141897457, 48910.66836245875, 26926.632455185947, 29230.113831772072, 20371.670469244775, 40171.53861183389, 31639.87775324318, -16358.280641827661, 23209.693814479568, -0.004, 1.018, 0.064, 192.0, 0.0, 0.0, 0.0, 0.0, 0.0, 0.0, 0.0, 0.0, 0.0, 1.696016602595812E9, 0.0, 2023-09-29 14:43:22.595
248.0, 54940.87844382268, 48335.960309023896, 18728.07964421268, 28141.069786676144, 24978.856739861578, 19732.164708633987, -187500.02235174447, 21509.664834697825, 48898.57606870843, 26914.89778934691, 29489.39406745363, 20384.209797884203, 40169.39284436618, 31627.651349026128, -16359.398229050426, 23238.192288660084, -0.004, 1.018, 0.064, 192.0, 0.0, 0.0, 0.0, 0.0, 0.0, 0.0, 0.0, 0.0, 0.0, 1.696016602595823E9, 0.0, 2023-09-29 14:43:22.595
250.0, 54917.72203656698, 48350.7124603644, 18755.23701372588, 28153.98909497131, 24983.438847474918, 19736.769167991777, -187500.02235174447, 21505.797982907057, 48910.02016186955, 26921.37979523895, 29258.58995420813, 20362.260384829093, 40162.70967277404, 31643.1187561892, -16368.316575088094, 23205.290520821873, -0.004, 1.018, 0.064, 192.0, 0.0, 0.0, 0.0, 0.0, 0.0, 0.0, 0.0, 0.0, 0.0, 1.696016602595832E9, 0.0, 2023-09-29 14:43:22.595
252.0, 54953.149551528644, 48345.6609661175, 18738.003818750836, 28146.81418500116, 24990.03261208923, 19737.931458703453, -187500.02235174447, 21512.704671943746, 48901.951182121185, 26914.56251318008, 29474.664267857584, 20379.381821081857, 40174.91372524664, 31641.285913143864, -16355.218452837284, 23238.236992148995, -0.002, 1.018, 0.068, 192.0, 127.5, 120.0, 15.5, 104.0, 1.0, 16.0, 0.0, 0.0, 0.0, 1.696016602595841E9, 0.0, 2023-09-29 14:43:22.595
254.0, 54907.68610330655, 48344.073992261176, 18747.81623456672, 28151.172775169944, 24989.250301033295, 19735.316304602184, -187500.02235174447, 21505.753279418146, 48918.26795557356, 26932.220391299772, 29262.009771109795, 20370.17290236627, 40176.38894038069, 31653.668779572105, -16354.056162125607, 23210.945512169066, -0.002, 1.018, 0.068, 192.0, 0.0, 0.0, 0.0, 0.0, 0.0, 0.0, 0.0, 0.0, 0.0, 1.696016602595851E9, 0.0, 2023-09-29 14:43:22.595
0.0, 54981.49156349797, 48338.821332314175, 18739.5237373738, 28137.89583896349, 24976.018068315756, 19725.637999253035, -187500.02235174447, 21486.26255825312, 48894.172775050734, 26908.61694915497, 29451.105529201694, 20382.5110653056, 40152.38316683569, 31624.83502922476, -16354.346734803526, 23243.176727673617, -0.002, 1.018, 0.068, 192.0, 0.0, 0.0, 0.0, 0.0, 0.0, 0.0, 0.0, 0.0, 0.0, 1.69601660265611E9, 0.0, 2023-09-29 14:43:22.656
2.0, 54894.38681535564, 48330.05944848769, 18734.338132660167, 28140.33217910912, 24982.321260252153, 19740.591316293638, -187500.02235174447, 21524.17111684932, 48899.425434997735, 26908.9522253218, 29302.309966362714, 20344.826024153954, 40158.35108260526, 31616.989566920947, -16377.659604270411, 23195.96984338401, -0.002, 1.018, 0.068, 192.0, 0.0, 0.0, 0.0, 0.0, 0.0, 0.0, 0.0, 0.0, 0.0, 1.696016602656134E9, 0.0, 2023-09-29 14:43:22.656
