%OpenBCI Raw EXG Data
%Number of channels = 16
%Sample Rate = 125 Hz
%Board = OpenBCI_GUI$BoardCytonSerialDaisy
Sample Index, EXG Channel 0, EXG Channel 1, EXG Channel 2, EXG Channel 3, EXG Channel 4, EXG Channel 5, EXG Channel 6, EXG Channel 7, EXG Channel 8, EXG Channel 9, EXG Channel 10, EXG Channel 11, EXG Channel 12, EXG Channel 13, EXG Channel 14, EXG Channel 15, Accel Channel 0, Accel Channel 1, Accel Channel 2, Other, Other, Other, Other, Other, Other, Other, Analog Channel 0, Analog Channel 1, Analog Channel 2, Timestamp, Other, Timestamp (Formatted)
238.0, -6177.195152902026, -12891.793297743, 21974.961099023953, 42054.27075079331, -33281.94865965231, -18262.917490353288, 95292.41565375515, -13104.470146235246, 8791.656350094838, -12656.407076884161, -21987.88040731912, 31277.511272133743, -9598.062586553406, -7456.050211912419, -1141.9059207327273, 48247.447400980884, 0.0, 0.0, 0.0, 192.0, 0.0, 0.0, 0.0, 0.0, 0.0, 0.0, 0.0, 0.0, 0.0, 1.695414398333967E9, 0.0, 2023-09-22 15:26:38.333
240.0, -6177.150449413115, -12890.519248309047, 22008.10873605117, 42108.67489679753, -33282.373342796964, -18267.99133634464, 95352.96652948458, -13108.716977681754, 8788.392995404363, -12658.239919929496, -21993.490695177403, 31305.42860095842, -9602.242362766548, -7460.833485225855, -1137.1226474192915, 48267.161639590464, 0.0, 0.0, 0.0, 192.0, 0.0, 0.0, 0.0, 0.0, 0.0, 0.0, 0.0, 0.0, 0.0, 1.695414398333975E9, 0.0, 2023-09-22 15:26:38.333
242.0, -6181.374929115168, -12894.989597200109, 21979.140875237095, 42063.837297420185, -33288.72123822227, -18269.824179389976, 95306.47490101754, -13112.181498072327, 8795.0761669965, -12652.674335560125, -21989.221511986438, 31277.28775468919, -9601.013016821506, -7457.346613090827, -1146.7115457906182, 48231.17533101742, 0.0, 0.0, 0.0, 192.0, 0.0, 0.0, 0.0, 0.0, 0.0, 0.0, 0.0, 0.0, 0.0, 1.695414398333979E9, 0.0, 2023-09-22 15:26:38.333
244.0, -6182.961902971495, -12895.011948944564, 22047.090178381226, 42142.98482453643, -33288.22949984425, -18268.32661251147, 95394.56312591591, -13111.957980627774, 8776.367756887408, -12664.252539187974, -21998.184561513015, 31324.561694212163, -9611.495984971045, -7467.762526007, -1144.364612622811, 48273.800107693685, 0.0, 0.0, 0.0, 192.0, 0.0, 0.0, 0.0, 0.0, 0.0, 0.0, 0.0, 0.0, 0.0, 1.695414398333982E9, 0.0, 2023-09-22 15:26:38.333
246.0, -6173.685929022543, -12884.260759861561, 21976.90570079156, 42046.64880593405, -33279.042932873126, -18258.737714140145, 95288.21352579756, -13102.816117145554, 8787.923608770801, -12653.009611726953, -21989.26621547535, 31302.232301501313, -9601.437699966156, -7456.363136334794, -1147.3373946353668, 48238.12672354302, -0.068, 0.996, 0.188, 192.0, 126.5, 112.0, 15.5, 16.0, 2.5, 112.0, 0.0, 0.0, 0.0, 1.695414398333985E9, 0.0, 2023-09-22 15:26:38.333
248.0, -6181.821964004274, -12893.35791985487, 22031.376902029147, 42119.560196347265, -33287.04485738812, -18265.063257820995, 95364.63414009025, -13112.919105639352, 8788.281236682085, -12657.79288504039, -21994.250654488882, 31306.322670736634, -9607.204450035626, -7461.347575348327, -1138.6649177867077, 48240.40660147746, -0.068, 0.996, 0.188, 192.0, 0.0, 0.0, 0.0, 0.0, 0.0, 0.0, 0.0, 0.0, 0.0, 1.69541439833399E9, 0.0, 2023-09-22 15:26:38.333
250.0, -6174.8258679897635, -12888.395832585793, 21959.404284883058, 42032.99189007186, -33280.47344451826, -18258.715362395687, 95263.80542085235, -13108.538163726113, 8781.776879045592, -12664.677222332624, -21992.887198077107, 31291.682278118406, -9606.198621535137, -7464.342709105338, -1148.1644091802132, 48223.21810999133, -0.068, 0.996, 0.188, 192.0, 0.0, 0.0, 0.0, 0.0, 0.0, 0.0, 0.0, 0.0, 0.0, 1.695414398334012E9, 0.0, 2023-09-22 15:26:38.334
252.0, -6178.60331280271, -12892.374443098837, 22043.379788801645, 42107.84788225268, -33288.050685888615, -18260.212929274196, 95345.2104741586, -13107.711149181265, 8784.123812213398, -12658.485789118504, -21990.7414306094, 31276.214870955333, -9605.148089545739, -7462.129886404263, -1136.496798574543, 48211.84107206358, -0.068, 0.996, 0.188, 192.0, 0.0, 0.0, 0.0, 0.0, 0.0, 0.0, 0.0, 0.0, 0.0, 1.695414398334015E9, 0.0, 2023-09-22 15:26:38.334
254.0, -6171.830734232752, -12885.534809295514, 21984.795866584285, 42041.61966343161, -33279.244098573225, -18250.7581413696, 95263.47014468553, -13103.330207268025, 8786.828373292492, -12656.943518751088, -21991.25552073187, 31317.319729008643, -9606.131566301772, -7458.352441591316, -1149.4384586141657, 48242.46296196735, -0.068, 0.996, 0.188, 192.0, 0.0, 0.0, 0.0, 0.0, 0.0, 0.0, 0.0, 0.0, 0.0, 1.69541439833402E9, 0.0, 2023-09-22 15:26:38.334
0.0, -3017.083170066258, -6415.688266240152, 11706.770861955985, 21003.934264652045, -16658.64338381808, -8304.298913991322, 47756.893665420255, -6600.604248118908, 4398.219811704136, -6322.414436628156, -10993.236123709217, 15625.322237649232, -4800.66297062194, -3724.1806059098967, -570.4612219883469, 24092.654775697563, -0.054000000000000006, 0.999, 0.182, 192.0, 127.0, 96.0, 15.5, 40.0, 2.5, 64.0, 0.0, 0.0, 0.0, 1.695414398471931E9, 0.0, 2023-09-22 15:26:38.471
2.0, -6026.544395273256, -12823.754587621044, 23354.734284250055, 41927.514007987265, -33315.27511063518, -16601.177048823483, 95424.49211174157, -13197.006368280217, 9050.087219487097, -12440.690391145992, -21444.241278677142, 31385.44784610842, -9585.120926513782, -7290.53554422087, -1599.4237779884074, 48628.05290556585, -0.054000000000000006, 0.999, 0.182, 192.0, 0.0, 0.0, 0.0, 0.0, 0.0, 0.0, 0.0, 0.0, 0.0, 1.695414398471948E9, 0.0, 2023-09-22 15:26:38.471
4.0, -6032.847587209652, -12831.309477246938, 23429.567924686424, 41993.65281983052, -33324.37227062849, -16604.306293047226, 95501.7397405791, -13199.241542725747, 9047.941452019388, -12438.924603334022, -21447.549336856526, 31353.954238170892, -9587.199638748127, -7293.597733211248, -1599.535536710684, 48612.18316700258, -0.054000000000000006, 0.999, 0.182, 192.0, 0.0, 0.0, 0.0, 0.0, 0.0, 0.0, 0.0, 0.0, 0.0, 1.695414398471951E9, 0.0, 2023-09-22 15:26:38.471
6.0, -6030.09832264165, -12828.627267912301, 23376.23666241606, 41951.94446467692, -33321.600654316026, -16600.260627300817, 95447.6261672528, -13196.559333391111, 9058.290309702195, -12433.761350364846, -21442.85547052091, 31407.576073119173, -9584.204504991116, -7292.793070410857, -1603.469443734818, 48654.807943678854, -0.054000000000000006, 0.999, 0.182, 192.0, 0.0, 0.0, 0.0, 0.0, 0.0, 0.0, 0.0, 0.0, 0.0, 1.695414398471955E9, 0.0, 2023-09-22 15:26:38.471
8.0, -6032.512311042823, -12834.125797048308, 23430.640808420278, 42005.07456124718, -33325.936892740356, -16597.734880177366, 95513.65322037379, -13193.877124056475, 9045.907443273956, -12444.64664991458, -21448.86808977939, 31371.679171523952, -9586.998473048028, -7297.419881513105, -1600.5637169556283, 48642.87211213972, -0.022, 1.006, 0.164, 192.0, 127.5, 40.0, 15.5, 56.0, 2.5, 16.0, 0.0, 0.0, 0.0, 1.695414398471958E9, 0.0, 2023-09-22 15:26:38.471
10.0, -6023.616316749611, -12821.050026541952, 23368.122979178785, 41952.41385131048, -33322.47237234979, -16586.76017364981, 95453.14704813327, -13192.893647300441, 9056.569225379137, -12430.74386486338, -21445.00123798862, 31425.233951238868, -9578.817734577386, -7287.495706974949, -1605.9281356249019, 48686.72623476103, -0.022, 1.006, 0.164, 192.0, 0.0, 0.0, 0.0, 0.0, 0.0, 0.0, 0.0, 0.0, 0.0, 1.695414398471961E9, 0.0, 2023-09-22 15:26:38.471
12.0, -6031.797055220253, -12830.97420108011, 23424.047043805964, 41977.24663940032, -33321.75711652722, -16585.575531193677, 95497.0905777324, -13190.814935066097, 9055.026955011721, -12431.70498987496, -21446.521156611583, 31360.458595807388, -9574.660310108698, -7292.8601256442225, -1604.6093827020388, 48635.56309170283, -0.022, 1.006, 0.164, 192.0, 0.0, 0.0, 0.0, 0.0, 0.0, 0.0, 0.0, 0.0, 0.0, 1.695414398471964E9, 0.0, 2023-09-22 15:26:38.471
14.0, -6027.170244118005, -12825.408616710738, 23384.260938675518, 41950.26808384277, -33317.42087810289, -16576.679536900465, 95459.83021972541, -13193.832420567564, 9055.473989900827, -12427.815786339735, -21447.10230196742, 31427.826753595684, -9566.926606527162, -7291.340207021261, -1607.8727373925135, 48686.92740046113, -0.022, 1.006, 0.164, 192.0, 0.0, 0.0, 0.0, 0.0, 0.0, 0.0, 0.0, 0.0, 0.0, 1.695414398471968E9, 0.0, 2023-09-22 15:26:38.471
16.0, -6029.897156941553, -12828.783730123489, 23427.39980547426, 41983.75099703682, -33320.46071534881, -16570.398696708526, 95505.62894411433, -13189.339719932046, 9057.955033535365, -12424.84300432718, -21448.890441523843, 31373.981401202847, -9561.204559946604, -7290.468488987504, -1606.4198740029185, 48646.358984274746, -0.022, 1.006, 0.164, 192.0, 0.0, 0.0, 0.0, 0.0, 0.0, 0.0, 0.0, 0.0, 0.0, 1.695414398532851E9, 0.0, 2023-09-22 15:26:38.532
18.0, -6026.633802251077, -12820.737102119578, 23399.661290605225, 41988.86954651708, -33315.92331122438, -16562.62028963808, 95498.09640623289, -13186.456344897313, 9060.927815547922, -12419.567992635726, -21447.19170894524, 31453.732425419385, -9553.850836020809, -7289.082680831276, -1605.861080391536, 48719.31507817687, -0.016, 1.01, 0.158, 192.0, 127.5, 64.0, 15.5, 72.0, 2.0, 120.0, 0.0, 0.0, 0.0, 1.695414398532865E9, 0.0, 2023-09-22 15:26:38.532
20.0, -6039.419000079513, -12836.249212771561, 23409.183133743183, 41976.531383577756, -33319.83486650406, -16568.342336218637, 95494.67658933123, -13197.22988572477, 9061.576016137125, -12426.31821946123, -21452.82434854798, 31374.316677369676, -9549.738115041031, -7295.721148934502, -1609.0573798486448, 48656.95371114656, -0.016, 1.01, 0.158, 192.0, 0.0, 0.0, 0.0, 0.0, 0.0, 0.0, 0.0, 0.0, 0.0, 1.695414398532869E9, 0.0, 2023-09-22 15:26:38.532
22.0, -6033.831063965687, -12830.281297001995, 23414.748718112554, 41994.2116134419, -33319.63370080396, -16561.212129737392, 95503.77374932454, -13203.644836383444, 9049.483722386805, -12427.279344472809, -21458.47933989517, 31431.961826319915, -9549.22402491856, -7302.225506570996, -1613.572432228617, 48706.08284545933, -0.016, 1.01, 0.158, 192.0, 0.0, 0.0, 0.0, 0.0, 0.0, 0.0, 0.0, 0.0, 0.0, 1.695414398532872E9, 0.0, 2023-09-22 15:26:38.532
24.0, -6029.4948255413565, -12828.224936512106, 23413.11704076732, 41956.817144968176, -33313.73284026776, -16546.41527490798, 95469.41911809673, -13193.47479265628, 9061.687774859402, -12430.296829974275, -21447.661095578802, 31350.333255569134, -9541.31150738138, -7297.330474535284, -1615.6064409740497, 48631.98681258998, -0.016, 1.01, 0.158, 192.0, 0.0, 0.0, 0.0, 0.0, 0.0, 0.0, 0.0, 0.0, 0.0, 1.695414398532876E9, 0.0, 2023-09-22 15:26:38.532
26.0, -6026.3208778287035, -12825.699189388657, 23433.367721243827, 42004.761636824805, -33314.73866876825, -16541.27437368326, 95510.12164474984, -13195.732318846265, 9065.08524001661, -12425.55826014975, -21442.877822265367, 31420.5177331588, -9537.198786401605, -7293.150698322142, -1600.9213448669132, 48693.319999375344, -0.016, 1.01, 0.158, 192.0, 0.0, 0.0, 0.0, 0.0, 0.0, 0.0, 0.0, 0.0, 0.0, 1.695414398532879E9, 0.0, 2023-09-22 15:26:38.532
28.0, -6042.704706514443, -12840.272526773517, 23418.168535014218, 41973.17862190946, -33326.09335495155, -16550.662106354488, 95479.65621705726, -13207.958723063317, 9060.816056825644, -12428.039303784288, -21445.940011255745, 31357.977552172848, -9540.708010281089, -7293.933009378077, -1613.2371560617873, 48646.15781857465, -0.01, 1.01, 0.156, 192.0, 127.5, 88.0, 15.5, 72.0, 2.0, 112.0, 0.0, 0.0, 0.0, 1.695414398532883E9, 0.0, 2023-09-22 15:26:38.532
30.0, -6038.346116345659, -12834.371666237315, 23435.31232301144, 42026.88986383556, -33319.432535103864, -16543.666010339977, 95528.2489095031, -13209.031606797173, 9051.07069624313, -12440.198652767975, -21456.15475847182, 31409.051288253224, -9548.84404526282, -7305.935896150577, -1613.6618392064381, 48703.26652565796, -0.01, 1.01, 0.156, 192.0, 0.0, 0.0, 0.0, 0.0, 0.0, 0.0, 0.0, 0.0, 0.0, 1.695414398592585E9, 0.0, 2023-09-22 15:26:38.592
32.0, -6032.378200576091, -12829.320171990415, 23393.71572658011, 41957.01831066827, -33314.470447834785, -16534.613553835577, 95460.03138542551, -13199.643874125943, 9060.905463803467, -12437.807016111257, -21445.269458922085, 31343.046586876702, -9540.260975391982, -7296.592866968259, -1619.249775320265, 48648.14712383117, -0.01, 1.01, 0.156, 192.0, 0.0, 0.0, 0.0, 0.0, 0.0, 0.0, 0.0, 0.0, 0.0, 1.695414398592599E9, 0.0, 2023-09-22 15:26:38.592
34.0, -6028.064313896217, -12822.949924820654, 23442.621343448325, 42016.09397126365, -33315.945662968836, -16531.484309611835, 95516.58129889742, -13200.716757859798, 9071.455487186371, -12426.966420050434, -21439.905040252812, 31369.891031967527, -9538.74105676902, -7290.110861076219, -1606.1740048139102, 48677.5396677899, -0.01, 1.01, 0.156, 192.0, 0.0, 0.0, 0.0, 0.0, 0.0, 0.0, 0.0, 0.0, 0.0, 1.695414398592603E9, 0.0, 2023-09-22 15:26:38.592
36.0, -6022.901060927041, -12824.8274713549, 23396.934377781676, 41949.530476275744, -33312.95052921183, -16521.962466473873, 95446.41917305221, -13196.157001990916, 9067.499228417782, -12428.978077051412, -21436.57463032897, 31343.38186304353, -9541.244452148016, -7289.4626604870155, -1614.89118515148, 48655.05381286786, -0.01, 1.01, 0.156, 192.0, 0.0, 0.0, 0.0, 0.0, 0.0, 0.0, 0.0, 0.0, 0.0, 1.695414398592606E9, 0.0, 2023-09-22 15:26:38.592
38.0, -6017.983677146874, -12818.859555585332, 23449.237459807096, 42007.4661979039, -33310.53654081065, -16517.760338516277, 95503.48317664662, -13192.111336244505, 9074.584731410114, -12425.401797938563, -21428.751519769612, 31364.72777899835, -9538.02580094645, -7283.070061572798, -1598.7532256547483, 48675.438603811104, -0.002, 1.008, 0.16, 192.0, 127.5, 120.0, 15.5, 64.0, 2.5, 0.0, 0.0, 0.0, 0.0, 1.695414398592609E9, 0.0, 2023-09-22 15:26:38.592
40.0, -6024.711552227921, -12824.805119610444, 23401.62824411729, 41951.29626408771, -33312.90582572291, -16517.626228049547, 95442.1276381168, -13197.095775258038, 9074.092993032098, -12424.328914204707, -21427.76804301358, 31360.413892318476, -9541.535024825935, -7279.359671993217, -1603.827071646103, 48670.23064735301, -0.002, 1.008, 0.16, 192.0, 0.0, 0.0, 0.0, 0.0, 0.0, 0.0, 0.0, 0.0, 0.0, 1.695414398592612E9, 0.0, 2023-09-22 15:26:38.592
42.0, -6026.454988295435, -12825.050988799452, 23449.773901674023, 42018.28444222027, -33314.93983446835, -16517.581524560635, 95509.62990637183, -13200.180315992871, 9070.874341830533, -12431.07914103021, -21432.752482027114, 31377.647087293517, -9547.681754551144, -7289.2838465313735, -1601.5248419672064, 48691.71067377456, -0.002, 1.008, 0.16, 192.0, 0.0, 0.0, 0.0, 0.0, 0.0, 0.0, 0.0, 0.0, 0.0, 1.695414398592616E9, 0.0, 2023-09-22 15:26:38.592
44.0, -6017.246069579848, -12816.132642761784, 23385.624395087292, 41937.01349938077, -33306.088543664046, -16504.148126142994, 95416.71370467111, -13190.546714132633, 9075.232931999319, -12425.781777594302, -21422.068348177476, 31366.091235410124, -9542.093818437317, -7277.705642903525, -1607.246888547765, 48672.33171133181, -0.002, 1.008, 0.16, 192.0, 0.0, 0.0, 0.0, 0.0, 0.0, 0.0, 0.0, 0.0, 0.0, 1.695414398592619E9, 0.0, 2023-09-22 15:26:38.592
46.0, -6023.057523138228, -12820.379474208294, 23477.22184386514, 42044.36892799961, -33313.10699142301, -16505.109251154572, 95534.12741829484, -13189.697347843332, 9073.690661631903, -12420.0820827582, -21421.71072026619, 31371.38859884603, -9547.257071406493, -7276.118669047198, -1590.281914506187, 48690.43662434061, -0.002, 1.008, 0.16, 192.0, 0.0, 0.0, 0.0, 0.0, 0.0, 0.0, 0.0, 0.0, 0.0, 1.695414398653046E9, 0.0, 2023-09-22 15:26:38.653
48.0, -6018.207194591427, -12817.227878240095, 23397.135543481774, 41964.61790378307, -33305.797970986125, -16500.50479179678, 95441.59119624988, -13192.804240322619, 9074.60708315457, -12423.725417104413, -21420.391967343327, 31398.389506148043, -9548.307603395891, -7278.175029537086, -1601.346028011564, 48726.15471198019, -0.002, 0.998, 0.162, 192.0, 127.5, 120.0, 15.5, 24.0, 2.5, 8.0, 0.0, 0.0, 0.0, 1.695414398653071E9, 0.0, 2023-09-22 15:26:38.653
50.0, -6026.007953406329, -12832.360009236338, 23463.386114047305, 42040.36796574211, -33312.57054955608, -16503.477573809334, 95524.53851992352, -13192.670129855887, 9081.446716957893, -12426.944068305978, -21418.536772553536, 31343.784194443728, -9550.02868771895, -7279.225561526485, -1590.214859272821, 48696.51629883246, -0.002, 0.998, 0.162, 192.0, 0.0, 0.0, 0.0, 0.0, 0.0, 0.0, 0.0, 0.0, 0.0, 1.695414398653074E9, 0.0, 2023-09-22 15:26:38.653
52.0, -6021.291735326259, -12824.8274713549, 23390.9217585232, 41976.441976599934, -33307.87668322047, -16500.638902263512, 95448.60964400884, -13195.37469093498, 9071.991929053298, -12432.733170119904, -21421.733072010647, 31390.611099077596, -9555.08018196585, -7280.72312840499, -1602.9106501234353, 48737.1517702522, -0.002, 0.998, 0.162, 192.0, 0.0, 0.0, 0.0, 0.0, 0.0, 0.0, 0.0, 0.0, 0.0, 1.695414398653078E9, 0.0, 2023-09-22 15:26:38.653
54.0, -6025.8514911951415, -12825.989762066576, 23465.420122792737, 42051.521486225305, -33315.34216586854, -16495.766221972255, 95537.12255205185, -13192.178391477872, 9068.12507726253, -12428.352228206662, -21420.48137432115, 31353.842479448616, -9560.399897146213, -7279.449078971038, -1595.8474988755584, 48708.362723393766, -0.002, 0.998, 0.162, 192.0, 0.0, 0.0, 0.0, 0.0, 0.0, 0.0, 0.0, 0.0, 0.0, 1.695414398653081E9, 0.0, 2023-09-22 15:26:38.653
56.0, -6012.462796266413, -12810.455299670137, 23407.193828486663, 41985.248563915324, -33300.142979638935, -16478.041288619195, 95455.04694641197, -13182.23186519526, 9074.9423593214, -12421.959629292445, -21410.22192361616, 31420.294215714242, -9555.393106388225, -7268.9661108215, -1591.4218534734075, 48760.55404669691, -0.002, 0.998, 0.162, 192.0, 0.0, 0.0, 0.0, 0.0, 0.0, 0.0, 0.0, 0.0, 0.0, 1.695414398653084E9, 0.0, 2023-09-22 15:26:38.653
58.0, -6025.5609185172225, -12827.017942311519, 23470.896300184286, 42026.66634639101, -33315.72214552428, -16488.434849790912, 95508.0876360044, -13188.155077475916, 9069.957920307867, -12419.590344380182, -21413.462926562184, 31347.829860190137, -9558.835275034342, -7271.20128526703, -1588.0243883162009, 48702.75243553548, -0.004, 1.0, 0.162, 192.0, 127.5, 112.0, 15.5, 32.0, 2.5, 8.0, 0.0, 0.0, 0.0, 1.695414398653088E9, 0.0, 2023-09-22 15:26:38.653
60.0, -6021.962287659918, -12828.359046978838, 23436.362855000836, 41999.576032111174, -33312.32468036708, -16487.22785559033, 95472.70482453165, -13195.508801401711, 9069.689699374401, -12429.827443340713, -21419.542601054025, 31419.0648697692, -9567.32893792736, -7280.67842491608, -1596.7192169093153, 48766.63372118875, -0.004, 1.0, 0.162, 192.0, 0.0, 0.0, 0.0, 0.0, 0.0, 0.0, 0.0, 0.0, 0.0, 1.695414398713201E9, 0.0, 2023-09-22 15:26:38.713
62.0, -6019.5706510032005, -12820.245363741562, 23477.758285732067, 42010.97542178338, -33307.92138670938, -16477.79541943019, 95492.68728407471, -13186.121068730483, 9080.552647179682, -12421.825518825714, -21409.908999193787, 31354.848307949105, -9563.238568692037, -7273.190590523553, -1594.8193186306141, 48716.52111011995, -0.004, 1.0, 0.162, 192.0, 0.0, 0.0, 0.0, 0.0, 0.0, 0.0, 0.0, 0.0, 0.0, 1.695414398713224E9, 0.0, 2023-09-22 15:26:38.713
64.0, -6017.961325402418, -12822.01115155353, 23459.720427956632, 42010.72955259437, -33308.457828576305, -16477.907178152465, 95486.7417200496, -13193.117164744994, 9075.858780844066, -12422.965457792934, -21407.651473003803, 31433.772317620795, -9563.305623925404, -7271.804782367323, -1588.8066993721366, 48779.57538122838, -0.004, 1.0, 0.162, 192.0, 0.0, 0.0, 0.0, 0.0, 0.0, 0.0, 0.0, 0.0, 0.0, 1.695414398713227E9, 0.0, 2023-09-22 15:26:38.713
66.0, -6014.04977012274, -12812.288142715472, 23478.138265387806, 42019.82671258768, -33307.697869264826, -16467.200692558374, 95505.56188888095, -13179.907283771907, 9077.691623889403, -12416.483451900895, -21403.069365390464, 31366.91824995497, -9562.031574491451, -7263.780506107868, -1589.1419755389663, 48731.161502738185, -0.004, 1.0, 0.162, 192.0, 0.0, 0.0, 0.0, 0.0, 0.0, 0.0, 0.0, 0.0, 0.0, 1.695414398713231E9, 0.0, 2023-09-22 15:26:38.713
68.0, -6013.513328255812, -12815.484442172581, 23463.87785242532, 42034.198884272446, -33304.45686631881, -16465.189035557396, 95508.40056042679, -13184.690557085343, 9074.540027921204, -12416.282286200796, -21401.772964212058, 31449.977332350893, -9562.433905891647, -7266.015680553399, -1585.118661537011, 48802.97765767308, -0.004, 1.0, 0.166, 192.0, 127.5, 112.0, 15.5, 32.0, 2.5, 24.0, 0.0, 0.0, 0.0, 1.695414398713234E9, 0.0, 2023-09-22 15:26:38.713
70.0, -6018.609525991622, -12825.140395777273, 23478.004154921076, 42007.89088104855, -33308.54723555413, -16464.920814623933, 95494.34131316439, -13180.734298316753, 9076.596388411092, -12414.494146644372, -21400.677728733746, 31375.2554506368, -9561.539836113434, -7265.72510787548, -1594.148766296955, 48738.89520631972, -0.004, 1.0, 0.166, 192.0, 0.0, 0.0, 0.0, 0.0, 0.0, 0.0, 0.0, 0.0, 0.0, 1.695414398713237E9, 0.0, 2023-09-22 15:26:38.713
72.0, -6016.799034690743, -12821.809985853433, 23485.246120124593, 42035.450581961944, -33309.0613256766, -16462.059791333653, 95517.78829309801, -13187.03749025315, 9073.869475587544, -12417.399873423563, -21409.260798604584, 31447.89862011655, -9566.144295471227, -7270.4413259555495, -1593.2546965187428, 48803.51409954001, -0.004, 1.0, 0.166, 192.0, 0.0, 0.0, 0.0, 0.0, 0.0, 0.0, 0.0, 0.0, 0.0, 1.69541439871324E9, 0.0, 2023-09-22 15:26:38.713
74.0, -6015.8155579347085, -12821.497061431059, 23468.59407050539, 41986.790834282736, -33306.289709364144, -16452.560299940145, 95474.04592919898, -13177.649757581921, 9078.339824478606, -12418.31629494623, -21402.555275267994, 31369.198127889413, -9559.03644073444, -7265.747459619935, -1596.8086238871365, 48742.42678194366, -0.004, 1.0, 0.166, 192.0, 0.0, 0.0, 0.0, 0.0, 0.0, 0.0, 0.0, 0.0, 0.0, 1.695414398713244E9, 0.0, 2023-09-22 15:26:38.713
76.0, -6018.765988202809, -12822.301724231449, 23480.30638459997, 42031.85195110464, -33308.68134602086, -16453.052038318165, 95515.4413599302, -13182.768307062186, 9080.150315779485, -12411.700178587458, -21405.416298558273, 31431.917122831004, -9559.572882601367, -7262.305290973818, -1587.890277849469, 48809.48201530958, -0.004, 1.0, 0.166, 192.0, 0.0, 0.0, 0.0, 0.0, 0.0, 0.0, 0.0, 0.0, 0.0, 1.695414398772647E9, 0.0, 2023-09-22 15:26:38.772
78.0, -6027.52787202929, -12834.237555770584, 23447.426968506214, 41984.86858425958, -33313.35286061202, -16455.890709863987, 95468.72621401862, -13184.89172278544, 9075.389394210506, -12419.210364724442, -21410.177220127254, 31361.665590007975, -9561.338670413335, -7266.038032297854, -1601.6813041783935, 48765.13615431025, -0.008, 0.996, 0.168, 192.0, 127.5, 96.0, 15.5, 16.0, 2.5, 32.0, 0.0, 0.0, 0.0, 1.695414398772658E9, 0.0, 2023-09-22 15:26:38.772
80.0, -6028.041962151762, -12832.58352668089, 23489.850579482387, 42064.597256731664, -33317.71145078081, -16458.662326176443, 95548.92427312426, -13192.84894381153, 9067.521580162238, -12423.613658382137, -21419.67671152076, 31424.563398905208, -9568.602987361312, -7274.621102168692, -1600.9213448669132, 48832.727829543095, -0.008, 0.996, 0.168, 192.0, 0.0, 0.0, 0.0, 0.0, 0.0, 0.0, 0.0, 0.0, 0.0, 1.695414398772661E9, 0.0, 2023-09-22 15:26:38.772
82.0, -6027.214947606915, -12832.695285403168, 23435.87111662282, 41973.42449109846, -33316.079773435566, -16453.856701118555, 95459.33848134738, -13194.570028134589, 9074.294158732195, -12415.45527165595, -21412.72531899516, 31383.905575741006, -9562.635071591743, -7269.144924777142, -1614.7794264292033, 48795.400416302735, -0.008, 0.996, 0.168, 192.0, 0.0, 0.0, 0.0, 0.0, 0.0, 0.0, 0.0, 0.0, 0.0, 1.695414398772664E9, 0.0, 2023-09-22 15:26:38.772
84.0, -6027.773741218298, -12829.63309641279, 23477.60182352088, 42030.73436388187, -33316.437401346855, -16452.962631340342, 95520.8951855773, -13194.681786856865, 9070.203789496874, -12411.923696032012, -21415.34047309643, 31404.08920098415, -9564.087934981339, -7271.938892834055, -1608.2080135593433, 48808.18561413117, -0.008, 0.996, 0.168, 192.0, 0.0, 0.0, 0.0, 0.0, 0.0, 0.0, 0.0, 0.0, 0.0, 1.695414398772668E9, 0.0, 2023-09-22 15:26:38.772
86.0, -6029.405418563535, -12828.068474300919, 23423.667064150224, 41969.378825352054, -33316.32564262458, -16450.570994683625, 95461.43954532618, -13192.804240322619, 9068.862684829555, -12407.676864585503, -21416.972150441667, 31397.651898581018, -9566.054888493407, -7271.737727133957, -1616.3216967966196, 48799.803709960426, -0.008, 0.996, 0.168, 192.0, 0.0, 0.0, 0.0, 0.0, 0.0, 0.0, 0.0, 0.0, 0.0, 1.695414398772671E9, 0.0, 2023-09-22 15:26:38.772
88.0, -6030.902985442041, -12832.695285403168, 23473.533806030013, 42018.2173869869, -33316.2138839023, -16448.134654537997, 95513.92144130725, -13188.915036787395, 9068.817981340646, -12404.681730828492, -21414.111127151387, 31403.664517839497, -9563.216216947581, -7266.708584631513, -1602.8882983789802, 48808.49853855355, -0.012, 0.998, 0.17, 192.0, 127.5, 80.0, 15.5, 24.0, 2.5, 40.0, 0.0, 0.0, 0.0, 1.695414398772674E9, 0.0, 2023-09-22 15:26:38.772
90.0, -6038.346116345659, -12841.792445396477, 23431.713692154135, 41960.080499658645, -33321.0642124491, -16453.096741807072, 95452.94588243317, -13196.358167691013, 9066.716917361846, -12414.114166988633, -21420.32491210996, 31397.629546836564, -9566.524275126967, -7274.062308557309, -1613.5947839730723, 48808.20796587563, -0.012, 0.998, 0.17, 192.0, 0.0, 0.0, 0.0, 0.0, 0.0, 0.0, 0.0, 0.0, 0.0, 1.695414398832334E9, 0.0, 2023-09-22 15:26:38.832
92.0, -6033.138159887571, -12836.651544171757, 23494.343280117904, 42027.761581869316, -33318.739631025746, -16443.61960215802, 95525.18672051272, -13191.530190888667, 9066.359289450562, -12416.326989689707, -21418.313255108984, 31404.625642851075, -9566.658385593699, -7277.549180692337, -1609.437359504385, 48823.4742073386, -0.012, 0.998, 0.17, 192.0, 0.0, 0.0, 0.0, 0.0, 0.0, 0.0, 0.0, 0.0, 0.0, 1.695414398832351E9, 0.0, 2023-09-22 15:26:38.832
94.0, -6030.008915663829, -12830.750683635555, 23420.69428213767, 41944.18840935092, -33320.72893628227, -16439.573936411613, 95433.38810603478, -13196.604036880022, 9071.500190675282, -12409.420300653017, -21411.026586416556, 31413.432230166465, -9562.27744368046, -7272.005948067421, -1617.1040078525555, 48826.84932075135, -0.012, 0.998, 0.17, 192.0, 0.0, 0.0, 0.0, 0.0, 0.0, 0.0, 0.0, 0.0, 0.0, 1.695414398832354E9, 0.0, 2023-09-22 15:26:38.832
96.0, -6034.3675058326135, -12838.730256406101, 23498.143076675307, 42028.119209780605, -33325.82513401808, -16443.083160291095, 95528.09244729191, -13204.829478839574, 9064.36998419404, -12408.0791959857, -21416.9050952083, 31394.299136912723, -9569.139429228238, -7275.179895780075, -1614.4441502623738, 48814.622916534296, -0.012, 0.998, 0.17, 192.0, 0.0, 0.0, 0.0, 0.0, 0.0, 0.0, 0.0, 0.0, 0.0, 1.695414398832358E9, 0.0, 2023-09-22 15:26:38.832
98.0, -6028.421941807502, -12831.555346435947, 23426.170459529218, 41941.88617967203, -33317.82320950308, -16435.01418054273, 95433.87984441279, -13202.6166561385, 9072.349556964584, -12407.498050629862, -21412.546505039514, 31429.234913496366, -9564.959653015096, -7273.615273668203, -1620.4567695208514, 48838.2263586791, -0.006, 1.0, 0.17, 192.0, 127.5, 104.0, 15.5, 32.0, 2.5, 40.0, 0.0, 0.0, 0.0, 1.695414398832361E9, 0.0, 2023-09-22 15:26:38.832
100.0, -6032.266441853815, -12835.645715671268, 23491.12462891634, 41973.96093296539, -33321.75711652722, -16432.890764819476, 95492.84374628589, -13195.777022335174, 9080.396184968495, -12406.626332596104, -21409.81959221597, 31384.665535052485, -9564.691432081632, -7270.7318986334685, -1610.3314292825974, 48803.916430940204, -0.006, 1.0, 0.17, 192.0, 0.0, 0.0, 0.0, 0.0, 0.0, 0.0, 0.0, 0.0, 0.0, 1.695414398832364E9, 0.0, 2023-09-22 15:26:38.832
102.0, -6030.925337186496, -12833.455244714647, 23435.82641313391, 41916.807522393174, -33319.83486650406, -16429.269782217718, 95447.5814637639, -13195.397042679435, 9076.283463988717, -12406.425166896006, -21413.038243417534, 31427.89380882905, -9568.5582838724, -7270.664843400103, -1617.1040078525555, 48845.244806438066, -0.006, 1.0, 0.17, 192.0, 0.0, 0.0, 0.0, 0.0, 0.0, 0.0, 0.0, 0.0, 0.0, 1.695414398832367E9, 0.0, 2023-09-22 15:26:38.832
104.0, -6032.847587209652, -12833.63405867029, 23495.12559117384, 41941.59560699411, -33324.90871249542, -16428.15219499495, 95494.09544397538, -13193.094813000538, 9073.265978487252, -12399.83140228169, -21410.959531183187, 31374.763712258784, -9570.659347851199, -7265.523942175382, -1614.019467117723, 48814.60056478984, -0.006, 1.0, 0.17, 192.0, 0.0, 0.0, 0.0, 0.0, 0.0, 0.0, 0.0, 0.0, 0.0, 1.69541439883237E9, 0.0, 2023-09-22 15:26:38.832
106.0, -6025.918546428507, -12830.907145846742, 23463.743741958588, 41925.36824051956, -33322.517075838696, -16422.094872247562, 95482.04785371397, -13194.70413860132, 9070.628472641525, -12410.068501242222, -21412.65826376179, 31447.02690208279, -9573.98975777504, -7273.235294012463, -1618.109836353044, 48880.09117604389, -0.006, 1.0, 0.17, 192.0, 0.0, 0.0, 0.0, 0.0, 0.0, 0.0, 0.0, 0.0, 0.0, 1.695414398892601E9, 0.0, 2023-09-22 15:26:38.892
108.0, -6022.118749871105, -12827.44262545617, 23520.651283341802, 41957.01831066827, -33322.1147444385, -16416.953971022842, 95540.22944453114, -13187.104545486516, 9077.646920400492, -12399.786698792781, -21405.14807762481, 31401.049363738224, -9569.005318761507, -7266.842695098245, -1610.1749670714103, 48852.91145478624, -0.004, 0.998, 0.166, 192.0, 127.5, 112.0, 15.5, 24.0, 2.5, 24.0, 0.0, 0.0, 0.0, 1.695414398892613E9, 0.0, 2023-09-22 15:26:38.892
110.0, -6026.052656895239, -12831.287125502484, 23466.850634437877, 41923.311880029665, -33322.07004094959, -16422.407796669937, 95508.53467089351, -13200.5155921597, 9080.776164624234, -12402.066576727222, -21408.545542782016, 31485.918937435024, -9569.139429228238, -7269.211980010507, -1612.0972170945665, 48924.9958306546, -0.004, 0.998, 0.166, 192.0, 0.0, 0.0, 0.0, 0.0, 0.0, 0.0, 0.0, 0.0, 0.0, 1.695414398892617E9, 0.0, 2023-09-22 15:26:38.892
112.0, -6020.330610314681, -12826.615610911324, 23487.615405036857, 41887.169109245435, -33315.78920075765, -16408.795584296655, 95488.39574913928, -13184.958778018807, 9086.006472826777, -12402.133631960587, -21404.566932268972, 31389.717029299383, -9563.819714047875, -7266.6862328870575, -1611.8960513944687, 48830.33619288638, -0.004, 0.998, 0.166, 192.0, 0.0, 0.0, 0.0, 0.0, 0.0, 0.0, 0.0, 0.0, 0.0, 1.69541439889262E9, 0.0, 2023-09-22 15:26:38.892
114.0, -6021.537604515267, -12824.58160216589, 23473.31028858546, 41887.727902856815, -33321.42184036039, -16416.86456404502, 95490.16153695126, -13198.28041771417, 9082.787821625212, -12396.232771424386, -21405.215132858175, 31455.31939927571, -9563.573844858867, -7265.501590430927, -1607.3809990144969, 48880.94054233319, -0.004, 0.998, 0.166, 192.0, 0.0, 0.0, 0.0, 0.0, 0.0, 0.0, 0.0, 0.0, 0.0, 1.695414398892623E9, 0.0, 2023-09-22 15:26:38.892
116.0, -6024.644496994555, -12828.224936512106, 23472.796198462987, 41859.967036243324, -33327.479163107775, -16419.68088384639, 95482.27137115854, -13200.984978793262, 9079.03272855672, -12404.838193039679, -21412.72531899516, 31381.290421639733, -9569.295891439426, -7278.040919070354, -1627.2964033241753, 48826.35758237333, -0.004, 0.998, 0.166, 192.0, 0.0, 0.0, 0.0, 0.0, 0.0, 0.0, 0.0, 0.0, 0.0, 1.695414398892626E9, 0.0, 2023-09-22 15:26:38.892
118.0, -6012.261630566315, -12816.11029101733, 23480.909881700263, 41874.96505677284, -33321.42184036039, -16410.270799430706, 95498.31992367744, -13197.811031080608, 9080.820868113145, -12397.059785969233, -21407.539714281527, 31453.531259719286, -9570.681699595654, -7269.837828855256, -1621.887281165991, 48885.54500169099, -0.012, 1.01, 0.162, 192.0, 127.5, 80.0, 15.5, 72.0, 2.5, 8.0, 0.0, 0.0, 0.0, 1.695414398892629E9, 0.0, 2023-09-22 15:26:38.892
120.0, -6002.80684266172, -12807.43781416867, 23469.331678072416, 41819.778599712685, -33317.35382286952, -16398.80435452513, 95456.2315888681, -13185.472868141278, 9089.672158917447, -12387.627349809092, -21395.536827509026, 31385.626660064063, -9562.880940780753, -7263.668747385592, -1623.3177928111306, 48817.59569854685, -0.012, 1.01, 0.162, 192.0, 0.0, 0.0, 0.0, 0.0, 0.0, 0.0, 0.0, 0.0, 0.0, 1.695414398953044E9, 0.0, 2023-09-22 15:26:38.953
122.0, -6003.298581039737, -12806.63315136828, 23480.574605533435, 41853.86501000703, -33318.22554090328, -16393.30582538913, 95491.61440034086, -13187.842153053542, 9099.462222988872, -12382.128820673088, -21394.396888541807, 31459.007437110835, -9562.120981469272, -7258.214921738497, -1610.3984845159632, 48869.1835247497, -0.012, 1.01, 0.162, 192.0, 0.0, 0.0, 0.0, 0.0, 0.0, 0.0, 0.0, 0.0, 0.0, 1.695414398953073E9, 0.0, 2023-09-22 15:26:38.953
124.0, -6009.601772976133, -12813.159860749229, 23468.527015272026, 41795.0128668562, -33324.036994461654, -16398.513781847214, 95442.68643172819, -13192.826592067075, 9094.857763631078, -12381.45826833943, -21389.32304255045, 31402.010488749802, -9560.645766335221, -7259.220750238986, -1620.3003073096643, 48816.34400085736, -0.012, 1.01, 0.162, 192.0, 0.0, 0.0, 0.0, 0.0, 0.0, 0.0, 0.0, 0.0, 0.0, 1.695414398953076E9, 0.0, 2023-09-22 15:26:38.953
126.0, -6010.7640636878095, -12810.701168859145, 23496.377288863336, 41845.70662328084, -33326.65214856293, -16403.7217383053, 95493.46959513063, -13199.04037702565, 9089.649807172991, -12392.142402189065, -21399.537789766528, 31454.626495197597, -9569.65351935071, -7269.703718388524, -1619.5850514870945, 48869.228228238615, -0.012, 1.01, 0.162, 192.0, 0.0, 0.0, 0.0, 0.0, 0.0, 0.0, 0.0, 0.0, 0.0, 1.69541439895308E9, 0.0, 2023-09-22 15:26:38.953
128.0, -6005.33258978517, -12807.616628124313, 23460.34627680138, 41771.543535178134, -33321.2653781492, -16392.05412769963, 95422.5251582295, -13186.165772219394, 9094.477783975337, -12388.700233542948, -21392.698155963204, 31398.344802659132, -9566.837199549342, -7267.066212542798, -1624.5918422450832, 48832.28079465399, -0.016, 1.01, 0.16, 192.0, 127.5, 64.0, 15.5, 72.0, 2.5, 0.0, 0.0, 0.0, 0.0, 1.695414398953083E9, 0.0, 2023-09-22 15:26:38.953
130.0, -6009.37825553158, -12812.265790971016, 23504.848600011897, 41840.45396333384, -33324.752250284226, -16394.6692818009, 95497.00117075458, -13191.016100766195, 9091.572057196148, -12388.811992265224, -21394.598054241902, 31433.45939319842, -9571.441658907135, -7267.602654409726, -1616.276993307709, 48864.69082411419, -0.016, 1.01, 0.16, 192.0, 0.0, 0.0, 0.0, 0.0, 0.0, 0.0, 0.0, 0.0, 0.0, 1.695414398953087E9, 0.0, 2023-09-22 15:26:38.953
132.0, -6009.132386342572, -12816.15499450624, 23441.749625414566, 41765.17328800837, -33321.01950896019, -16389.86365674301, 95421.40757100673, -13188.602112365023, 9088.643978672502, -12389.683710298981, -21395.67093797576, 31415.510942400808, -9571.888693796242, -7268.474372443482, -1626.3576300570526, 48847.65879483924, -0.016, 1.01, 0.16, 192.0, 0.0, 0.0, 0.0, 0.0, 0.0, 0.0, 0.0, 0.0, 0.0, 1.695414398953099E9, 0.0, 2023-09-22 15:26:38.953
134.0, -6009.802938676231, -12818.904259074243, 23503.283977900028, 41851.875704750506, -33324.43932586185, -16387.5167235752, 95519.1517495098, -13188.42329840938, 9098.188173554918, -12392.857658011635, -21394.978033897645, 31437.192134522455, -9573.676833352665, -7272.564741678803, -1615.338220040586, 48874.458536441154, -0.016, 1.01, 0.16, 192.0, 0.0, 0.0, 0.0, 0.0, 0.0, 0.0, 0.0, 0.0, 0.0, 1.695414398953103E9, 0.0, 2023-09-22 15:26:38.953
136.0, -6004.527926984779, -12811.706997359634, 23443.560116715445, 41778.31611374809, -33320.751288026724, -16384.05220318463, 95446.48622828559, -13192.5136676447, 9097.94230436591, -12392.254160911341, -21390.731202451134, 31445.238762526365, -9573.453315908113, -7269.659014899614, -1624.7483044562705, 48894.37394075083, -0.016, 1.01, 0.16, 192.0, 0.0, 0.0, 0.0, 0.0, 0.0, 0.0, 0.0, 0.0, 0.0, 1.695414399013285E9, 0.0, 2023-09-22 15:26:39.013
138.0, -6001.041054849751, -12806.186116479174, 23495.25970164057, 41824.51716953721, -33317.37617461398, -16373.94921469083, 95495.52595562053, -13182.187161706348, 9099.305760777685, -12386.06272769722, -21388.85365591689, 31424.071660527192, -9569.877036795264, -7266.641529398147, -1617.4616357638404, 48877.45367019816, -0.012, 1.006, 0.156, 192.0, 127.5, 80.0, 15.5, 56.0, 2.0, 112.0, 0.0, 0.0, 0.0, 1.695414399013296E9, 0.0, 2023-09-22 15:26:39.013
140.0, -5998.694121681943, -12802.609837366324, 23437.771014901522, 41762.535782162646, -33318.247892647734, -16370.372935577981, 95422.88278614078, -13183.952949518318, 9106.480670747838, -12378.083154926677, -21380.80702791298, 31424.049308782734, -9566.27840593796, -7260.539503161848, -1619.562699742639, 48878.07951904291, -0.012, 1.006, 0.156, 192.0, 0.0, 0.0, 0.0, 0.0, 0.0, 0.0, 0.0, 0.0, 0.0, 1.695414399013299E9, 0.0, 2023-09-22 15:26:39.013
142.0, -6001.242220549849, -12805.627322867791, 23518.058480984986, 41847.248893648255, -33327.14388694095, -16370.015307666697, 95515.7989878415, -13182.813010551097, 9102.814984657167, -12378.753707260335, -21385.120914592855, 31412.426401665976, -9572.536894385445, -7260.807724095313, -1616.0087723742454, 48886.72964414712, -0.012, 1.006, 0.156, 192.0, 0.0, 0.0, 0.0, 0.0, 0.0, 0.0, 0.0, 0.0, 0.0, 1.695414399013303E9, 0.0, 2023-09-22 15:26:39.013
144.0, -5991.742729156343, -12797.178363463685, 23450.600916218867, 41775.0080555687, -33319.83486650406, -16359.957022661809, 95435.10919035783, -13179.862580282997, 9102.27854279024, -12367.175503632487, -21381.47758024664, 31451.74312016286, -9573.229798463559, -7254.146904247631, -1625.5082637677508, 48926.35928706638, -0.012, 1.006, 0.156, 192.0, 0.0, 0.0, 0.0, 0.0, 0.0, 0.0, 0.0, 0.0, 0.0, 1.695414399013306E9, 0.0, 2023-09-22 15:26:39.013
146.0, -5997.6212379480885, -12800.218200709605, 23514.906885016786, 41839.71635576682, -33327.65797706342, -16358.906490672409, 95511.08276976143, -13179.013213993694, 9113.968505140365, -12370.103582156133, -21378.460094745173, 31407.93370103046, -9571.553417629411, -7254.996270536933, -1614.7123711958375, 48895.715045418154, -0.012, 1.006, 0.156, 192.0, 0.0, 0.0, 0.0, 0.0, 0.0, 0.0, 0.0, 0.0, 0.0, 1.695414399013309E9, 0.0, 2023-09-22 15:26:39.013
148.0, -5999.811708904709, -12801.380491421281, 23440.810852147442, 41780.12660504897, -33318.963148470306, -16359.912319172898, 95440.36185030483, -13184.198818707326, 9106.570077725659, -12372.562274046217, -21381.499931991093, 31465.08711160268, -9572.313376940892, -7256.046802526332, -1622.2896125661866, 48948.19694139921, -0.01, 1.004, 0.156, 192.0, 127.5, 88.0, 15.5, 48.0, 2.0, 112.0, 0.0, 0.0, 0.0, 1.695414399013312E9, 0.0, 2023-09-22 15:26:39.013
150.0, -6005.466700251902, -12812.086977015375, 23503.17221917775, 41828.42872481689, -33326.58509332956, -16358.23593833875, 95501.9409062792, -13182.008347750707, 9104.334903280129, -12375.512704314317, -21383.355126780883, 31400.959956760402, -9570.659347851199, -7257.4102589381055, -1618.7803886867034, 48891.0882343159, -0.01, 1.004, 0.156, 192.0, 0.0, 0.0, 0.0, 0.0, 0.0, 0.0, 0.0, 0.0, 0.0, 1.695414399072656E9, 0.0, 2023-09-22 15:26:39.072
152.0, -5995.18489780246, -12800.888753043266, 23451.651448208268, 41788.44145398634, -33316.92913972487, -16351.75393244671, 95446.7768009635, -13181.85188553952, 9105.743063180813, -12370.885893212067, -21385.031507615033, 31459.677989444495, -9573.69918509712, -7257.8796455716665, -1626.469388779329, 48944.06186867498, -0.01, 1.004, 0.156, 192.0, 0.0, 0.0, 0.0, 0.0, 0.0, 0.0, 0.0, 0.0, 0.0, 1.695414399072669E9, 0.0, 2023-09-22 15:26:39.072
154.0, -5999.543487971246, -12805.20263972314, 23514.683367572234, 41841.3256813676, -33322.78529677216, -16347.440045766836, 95509.02640927154, -13177.694461070832, 9110.503984749792, -12365.49912279834, -21378.527149978538, 31397.45073288092, -9567.79832456092, -7250.8611978127, -1611.3149060386309, 48899.47013848664, -0.01, 1.004, 0.156, 192.0, 0.0, 0.0, 0.0, 0.0, 0.0, 0.0, 0.0, 0.0, 0.0, 1.695414399072672E9, 0.0, 2023-09-22 15:26:39.072
156.0, -5992.145060556539, -12796.641921596756, 23473.73497173011, 41815.75528571073, -33317.66674729189, -16340.801577663611, 95474.56001932145, -13177.068612226083, 9110.906316149989, -12360.44762855144, -21378.281280789528, 31477.715847219926, -9567.172475716172, -7250.458866412505, -1614.9135368959353, 48971.018072488085, -0.01, 1.004, 0.156, 192.0, 0.0, 0.0, 0.0, 0.0, 0.0, 0.0, 0.0, 0.0, 0.0, 1.695414399072675E9, 0.0, 2023-09-22 15:26:39.072
158.0, -5993.173240801482, -12795.166706462707, 23518.818440296465, 41838.64347203296, -33319.298424637134, -16335.99595260572, 95512.80385408449, -13173.51468485769, 9116.404845285993, -12350.992840646844, -21374.10150457639, 31416.40501217902, -9563.953824514607, -7247.262566955396, -1614.3994467734633, 48922.984173653625, -0.006, 1.006, 0.152, 192.0, 127.5, 104.0, 15.5, 56.0, 2.0, 96.0, 0.0, 0.0, 0.0, 1.695414399072679E9, 0.0, 2023-09-22 15:26:39.072
160.0, -5987.473545965379, -12793.825601795388, 23476.21601536465, 41804.86998616099, -33315.29746237963, -16332.866708381976, 95470.80492625295, -13178.476772126767, 9124.719694223368, -12355.709058726914, -21372.112199319865, 31481.31447807723, -9559.259958178993, -7249.38598267865, -1615.9417171408793, 48973.230895189154, -0.006, 1.006, 0.152, 192.0, 0.0, 0.0, 0.0, 0.0, 0.0, 0.0, 0.0, 0.0, 0.0, 1.695414399072682E9, 0.0, 2023-09-22 15:26:39.072
162.0, -5991.563915200701, -12794.272636684495, 23504.98271047863, 41799.304401791625, -33318.382003114464, -16327.99402809072, 95474.11298443234, -13172.531208101656, 9119.779958698746, -12348.78001794577, -21371.55340570848, 31393.02508747877, -9555.996603488518, -7243.172197720075, -1615.7629031852368, 48900.52067047604, -0.006, 1.006, 0.152, 192.0, 0.0, 0.0, 0.0, 0.0, 0.0, 0.0, 0.0, 0.0, 0.0, 1.695414399072685E9, 0.0, 2023-09-22 15:26:39.072
164.0, -5985.975979086874, -12787.678872070179, 23503.08281219993, 41826.10414339354, -33322.1147444385, -16325.982371089742, 95499.39280741129, -13177.359184904002, 9121.970429655365, -12340.599279475127, -21369.98878359661, 31477.939364664482, -9553.515559853979, -7245.876758799167, -1613.6618392064381, 48979.891715036836, -0.006, 1.006, 0.152, 192.0, 0.0, 0.0, 0.0, 0.0, 0.0, 0.0, 0.0, 0.0, 0.0, 1.695414399072688E9, 0.0, 2023-09-22 15:26:39.072
166.0, -5993.240296034849, -12800.44171815416, 23508.26841691356, 41799.013829113705, -33322.1147444385, -16327.94932460181, 95483.21014442566, -13182.053051239616, 9118.215336586874, -12351.797503447237, -21373.676821431734, 31418.439020924452, -9552.152103442206, -7251.442343168538, -1629.822150447625, 48938.80920872799, -0.006, 1.006, 0.152, 192.0, 0.0, 0.0, 0.0, 0.0, 0.0, 0.0, 0.0, 0.0, 0.0, 1.695414399132331E9, 0.0, 2023-09-22 15:26:39.132
168.0, -5985.595999431133, -12788.014148237009, 23525.52396363306, 41826.03708816017, -33312.2129216448, -16313.264228494672, 95501.24800220109, -13175.302824414113, 9129.413560558982, -12345.807235933213, -21370.9946120971, 31482.65558274455, -9542.384391115236, -7250.436514668049, -1620.6802869654045, 48985.07731975047, -0.006, 1.012, 0.152, 192.0, 127.5, 104.0, 15.5, 80.0, 2.0, 96.0, 0.0, 0.0, 0.0, 1.695414399132343E9, 0.0, 2023-09-22 15:26:39.132
170.0, -5987.294732009737, -12794.29498842895, 23532.90003930331, 41813.27424207619, -33314.85042749053, -16311.386681960426, 95493.64840908628, -13176.219245936782, 9128.295973336217, -12339.235823063353, -21367.88771961781, 31437.147431033547, -9534.181300900138, -7248.201340222519, -1617.3275252971084, 48951.34853736741, -0.006, 1.012, 0.152, 192.0, 0.0, 0.0, 0.0, 0.0, 0.0, 0.0, 0.0, 0.0, 0.0, 1.695414399132347E9, 0.0, 2023-09-22 15:26:39.132
172.0, -5985.551295942223, -12795.904314029733, 23542.891269074833, 41849.79699251616, -33312.0117559447, -16306.268132480162, 95522.795083856, -13177.649757581921, 9136.722580995867, -12342.812102176202, -21369.675859174236, 31498.301803863265, -9528.615716530767, -7249.788314078845, -1614.7123711958375, 49003.29399148154, -0.006, 1.012, 0.152, 192.0, 0.0, 0.0, 0.0, 0.0, 0.0, 0.0, 0.0, 0.0, 0.0, 1.695414399132351E9, 0.0, 2023-09-22 15:26:39.132
174.0, -5979.829249361665, -12785.488401113558, 23497.11489643036, 41775.2092212688, -33306.35676459751, -16293.88526605192, 95451.56007427695, -13169.960757489296, 9131.738141982334, -12338.408808518507, -21363.97616433813, 31433.995835065347, -9519.40679781518, -7245.295613443329, -1621.2837840656978, 48938.47393256115, -0.006, 1.012, 0.152, 192.0, 0.0, 0.0, 0.0, 0.0, 0.0, 0.0, 0.0, 0.0, 0.0, 1.695414399132354E9, 0.0, 2023-09-22 15:26:39.132
176.0, -5975.694176637433, -12781.934473745165, 23533.056501514497, 41808.312154807114, -33307.407296586905, -16289.526675883137, 95485.8923537603, -13170.474847611767, 9140.43297057545, -12323.902526367012, -21357.628268912827, 31463.164861579524, -9511.181355855628, -7236.62313659467, -1605.6152112025275, 48953.2037321572, -0.006, 1.012, 0.152, 192.0, 0.0, 0.0, 0.0, 0.0, 0.0, 0.0, 0.0, 0.0, 0.0, 1.695414399132357E9, 0.0, 2023-09-22 15:26:39.132
178.0, -5973.816630103187, -12781.085107455863, 23499.12655343134, 41730.59513933601, -33305.77561924167, -16285.659824092369, 95406.94599234415, -13169.960757489296, 9147.294956123229, -12327.858785135602, -21352.777940366024, 31421.657672126017, -9508.007408142974, -7238.411276151094, -1619.1827200868988, 48906.4438827567, -0.004, 1.008, 0.158, 192.0, 127.5, 112.0, 15.5, 64.0, 2.0, 120.0, 0.0, 0.0, 0.0, 1.69541439913236E9, 0.0, 2023-09-22 15:26:39.132
180.0, -5974.218961503382, -12780.056927210919, 23569.020458343086, 41810.50262576373, -33309.75422975472, -16284.631643847424, 95493.11196721936, -13172.598263335021, 9146.691459022935, -12330.183366558955, -21354.49902468908, 31456.816966154216, -9510.108472121772, -7239.57356686277, -1609.7279321823041, 48926.35928706638, -0.004, 1.008, 0.158, 192.0, 0.0, 0.0, 0.0, 0.0, 0.0, 0.0, 0.0, 0.0, 0.0, 1.695414399192491E9, 0.0, 2023-09-22 15:26:39.192
182.0, -5972.162601013494, -12780.43690686666, 23516.98559725113, 41759.093613516525, -33303.51809305169, -16283.51405662466, 95443.53579801749, -13176.331004659058, 9151.631194547557, -12323.209622288898, -21351.727408376624, 31455.85584114264, -9508.074463376339, -7234.47736912696, -1617.2381183192872, 48925.04053414352, -0.004, 1.008, 0.158, 192.0, 0.0, 0.0, 0.0, 0.0, 0.0, 0.0, 0.0, 0.0, 0.0, 1.695414399192506E9, 0.0, 2023-09-22 15:26:39.192
184.0, -5982.310292996203, -12790.204619193628, 23565.62299318588, 41828.36166958352, -33310.3130233661, -16287.067983993053, 95517.02833378654, -13184.623501851976, 9149.530130568759, -12334.385494516551, -21355.214280511653, 31465.71296044743, -9511.494280278002, -7242.054610497309, -1607.7833304146923, 48927.2980603335, -0.004, 1.008, 0.158, 192.0, 0.0, 0.0, 0.0, 0.0, 0.0, 0.0, 0.0, 0.0, 0.0, 1.69541439919251E9, 0.0, 2023-09-22 15:26:39.192
186.0, -5981.103298795617, -12787.656520325723, 23508.04489946901, 41751.046985512614, -33304.92625295237, -16281.122419967942, 95430.57178623341, -13183.03652799565, 9148.121970668075, -12338.520567240783, -21356.13070203432, 31465.601201725152, -9510.35434131078, -7242.836921553246, -1619.8532724205581, 48910.891879903305, -0.004, 1.008, 0.158, 192.0, 0.0, 0.0, 0.0, 0.0, 0.0, 0.0, 0.0, 0.0, 0.0, 1.695414399192513E9, 0.0, 2023-09-22 15:26:39.192
188.0, -5979.941008083941, -12786.740098803057, 23589.964042897707, 41837.883512721484, -33309.41895358788, -16279.893074022899, 95520.06817103246, -13179.415545393891, 9143.137531654542, -12334.564308472194, -21358.254117757573, 31468.641038971073, -9515.204669857583, -7243.149845975619, -1609.660876948938, 48910.98128688113, -0.004, 1.008, 0.158, 192.0, 127.5, 112.0, 15.5, 64.0, 2.0, 120.0, 0.0, 0.0, 0.0, 1.695414399192517E9, 0.0, 2023-09-22 15:26:39.192
190.0, -5970.240350990338, -12777.128848687275, 23518.349053662903, 41773.80106136812, -33302.9592994403, -16273.478123364226, 95445.23453059609, -13178.387365148947, 9151.139456169542, -12328.73050316936, -21349.067550786443, 31492.825626471717, -9509.750844210488, -7236.109046472197, -1616.3887520299857, 48918.69263871821, -0.004, 1.008, 0.158, 192.0, 0.0, 0.0, 0.0, 0.0, 0.0, 0.0, 0.0, 0.0, 0.0, 1.69541439919252E9, 0.0, 2023-09-22 15:26:39.192
192.0, -5983.047900563229, -12788.796459292944, 23572.775551411578, 41847.58416981508, -33314.64926179043, -16284.02814674713, 95527.1983775137, -13190.457307154813, 9147.09379042313, -12337.850014907124, -21356.823606112433, 31467.523451748308, -9518.93741118162, -7244.759171576402, -1612.1642723279326, 48896.899687874284, -0.004, 1.008, 0.158, 192.0, 0.0, 0.0, 0.0, 0.0, 0.0, 0.0, 0.0, 0.0, 0.0, 1.695414399192524E9, 0.0, 2023-09-22 15:26:39.192
194.0, -5977.4823161938575, -12785.600159835836, 23514.191629194218, 41794.342314522546, -33310.93887221085, -16277.970823999744, 95464.81465873893, -13187.730394331265, 9149.61953754658, -12335.078398594665, -21353.51554793305, 31504.20266439947, -9520.300867593392, -7241.875796541667, -1619.4956445092732, 48915.83161542793, -0.004, 1.008, 0.158, 192.0, 0.0, 0.0, 0.0, 0.0, 0.0, 0.0, 0.0, 0.0, 0.0, 1.695414399192528E9, 0.0, 2023-09-22 15:26:39.192
196.0, -5979.605731917111, -12791.545723860947, 23576.642403202346, 41859.408242631944, -33316.23623564676, -16278.261396677663, 95538.62011893035, -13188.020967009184, 9145.752685755811, -12341.180424830965, -21355.236632256107, 31475.704190218952, -9525.285306606926, -7245.7873518213455, -1614.690019451382, 48893.904554117275, -0.004, 1.008, 0.158, 192.0, 0.0, 0.0, 0.0, 0.0, 0.0, 0.0, 0.0, 0.0, 0.0, 1.695414399252884E9, 0.0, 2023-09-22 15:26:39.252
198.0, -5971.402641702014, -12783.275578412484, 23525.45690839969, 41813.45305603183, -33308.524883809674, -16272.069963463542, 95481.35494963586, -13187.305711186615, 9155.09571493813, -12336.553613728716, -21350.721579876135, 31534.645740347594, -9522.40193157219, -7238.791255806835, -1614.8017781736587, 48933.22127261416, -0.006, 1.006, 0.164, 192.0, 127.5, 104.0, 15.5, 56.0, 2.5, 16.0, 0.0, 0.0, 0.0, 1.695414399252895E9, 0.0, 2023-09-22 15:26:39.252
200.0, -5974.08485103665, -12783.923779001687, 23588.82410393049, 41865.37615840151, -33314.202226901325, -16269.700678551279, 95545.21388354468, -13184.042356496138, 9147.987860201343, -12329.62457294757, -21349.872213586834, 31477.89466117557, -9525.419417073657, -7236.0419912388315, -1614.019467117723, 48884.15919353476, -0.006, 1.006, 0.164, 192.0, 0.0, 0.0, 0.0, 0.0, 0.0, 0.0, 0.0, 0.0, 0.0, 1.695414399252899E9, 0.0, 2023-09-22 15:26:39.252
202.0, -5963.311310209193, -12773.664328296702, 23522.573533364957, 41811.32964030858, -33306.04384017514, -16258.748323768179, 95477.30928388945, -13182.723603573277, 9154.626328304568, -12325.91418336799, -21346.161824007253, 31551.87893532264, -9525.68763800712, -7232.152787703609, -1615.9640688853347, 48938.362173838876, -0.006, 1.006, 0.164, 192.0, 0.0, 0.0, 0.0, 0.0, 0.0, 0.0, 0.0, 0.0, 0.0, 1.695414399252902E9, 0.0, 2023-09-22 15:26:39.252
204.0, -5980.790374373242, -12792.86447678381, 23567.4111327423, 41842.04093719017, -33320.30425313762, -16270.818265774044, 95516.60365064189, -13190.591417621545, 9155.363935871594, -12324.573078700672, -21346.810024596456, 31471.367951794622, -9528.280440363937, -7230.074075469265, -1613.9077083954464, 48864.37789969181, -0.006, 1.006, 0.164, 192.0, 0.0, 0.0, 0.0, 0.0, 0.0, 0.0, 0.0, 0.0, 0.0, 1.695414399252905E9, 0.0, 2023-09-22 15:26:39.252
206.0, -5981.215057517893, -12792.640959339256, 23533.011798025585, 41832.80966673013, -33318.82903800357, -16273.433419875315, 95501.40446441228, -13197.252237469225, 9138.913051952488, -12341.649811464527, -21364.84788237189, 31550.917810311057, -9544.708972538589, -7249.8330175677565, -1627.27405157972, 48933.48949354762, -0.006, 1.006, 0.164, 192.0, 0.0, 0.0, 0.0, 0.0, 0.0, 0.0, 0.0, 0.0, 0.0, 1.695414399252909E9, 0.0, 2023-09-22 15:26:39.252
208.0, -5977.638778405044, -12788.416479637204, 23567.4111327423, 41829.47925680629, -33316.23623564676, -16259.8882627354, 95510.72514185014, -13181.203684950315, 9154.201645159917, -12326.048293834721, -21354.94605957819, 31471.837338428184, -9537.51171082398, -7234.276203426863, -1618.9815543868012, 48863.88616131379, -0.006, 1.004, 0.164, 192.0, 127.5, 104.0, 15.5, 48.0, 2.5, 16.0, 0.0, 0.0, 0.0, 1.695414399252912E9, 0.0, 2023-09-22 15:26:39.252
210.0, -5973.682519636455, -12780.660424311212, 23548.121577277372, 41838.442306332865, -33313.554026312115, -16254.903823721867, 95511.61921162835, -13183.617673351488, 9150.401848602516, -12330.764511914793, -21359.170539280243, 31558.271534236854, -9544.999545216508, -7237.71837207298, -1617.3275252971084, 48935.143522637314, -0.006, 1.004, 0.164, 192.0, 0.0, 0.0, 0.0, 0.0, 0.0, 0.0, 0.0, 0.0, 0.0, 1.695414399313046E9, 0.0, 2023-09-22 15:26:39.313
212.0, -5974.6659963924885, -12779.766354533, 23555.27413550307, 41814.5706432546, -33316.12447692448, -16252.847463231978, 95496.71059807666, -13177.090963970539, 9156.749744027824, -12317.286410008242, -21349.492233931094, 31475.19010009648, -9538.718705024565, -7226.967182989977, -1615.338220040586, 48858.81231532244, -0.006, 1.004, 0.164, 192.0, 0.0, 0.0, 0.0, 0.0, 0.0, 0.0, 0.0, 0.0, 0.0, 1.695414399313064E9, 0.0, 2023-09-22 15:26:39.313
214.0, -5971.112069024095, -12781.688604556157, 23556.548184937023, 41845.81838200312, -33316.52680832468, -16253.853291732466, 95522.50451117808, -13184.444687896335, 9147.339659612138, -12316.459395463395, -21353.113216532853, 31549.263781221365, -9545.044248705417, -7228.554156846304, -1613.2371560617873, 48925.53227252153, -0.006, 1.004, 0.164, 192.0, 0.0, 0.0, 0.0, 0.0, 0.0, 0.0, 0.0, 0.0, 0.0, 1.69541439931307E9, 0.0, 2023-09-22 15:26:39.313
216.0, -5967.222865488871, -12777.821752765389, 23542.33247546345, 41796.24221280125, -33311.609424544506, -16247.371285840427, 95478.40451936776, -13177.269777926182, 9163.567026086692, -12315.095939051622, -21345.983010051612, 31477.112350119634, -9539.903347480697, -7227.481273112449, -1620.2556038207538, 48867.93182706021, -0.006, 1.004, 0.164, 192.0, 0.0, 0.0, 0.0, 0.0, 0.0, 0.0, 0.0, 0.0, 0.0, 1.695414399313075E9, 0.0, 2023-09-22 15:26:39.313
218.0, -5968.899246323019, -12780.10163069983, 23564.728923407667, 41854.40145187396, -33318.22554090328, -16248.734742252202, 95529.99234557062, -13182.969472762285, 9162.069459208185, -12311.787880872236, -21346.430044940716, 31541.23950496191, -9542.74201902652, -7228.911784757589, -1609.7055804378488, 48927.78979871152, -0.004, 1.004, 0.162, 192.0, 127.5, 112.0, 15.5, 48.0, 2.5, 8.0, 0.0, 0.0, 0.0, 1.695414399313081E9, 0.0, 2023-09-22 15:26:39.313
220.0, -5973.481353936357, -12782.850895267833, 23539.627914384357, 41812.55898625362, -33323.94758748384, -16250.74639925318, 95492.86609803035, -13186.411641408402, 9160.840113263144, -12317.62168617507, -21351.347428720885, 31493.585585783196, -9546.541815583923, -7233.270374926374, -1626.2235195903206, 48892.9434291057, -0.004, 1.004, 0.162, 192.0, 0.0, 0.0, 0.0, 0.0, 0.0, 0.0, 0.0, 0.0, 0.0, 1.695414399313086E9, 0.0, 2023-09-22 15:26:39.313
222.0, -5963.914807309486, -12774.24547365254, 23569.311031021003, 41857.41893737542, -33315.74449726874, -16239.145843880875, 95533.72508689464, -13178.141495959939, 9161.711831296901, -12305.596447658116, -21349.246364742085, 31540.166621228054, -9545.893614994719, -7228.867081268679, -1621.1273218545107, 48930.85198770189, -0.004, 1.004, 0.162, 192.0, 0.0, 0.0, 0.0, 0.0, 0.0, 0.0, 0.0, 0.0, 0.0, 1.695414399313097E9, 0.0, 2023-09-22 15:26:39.313
224.0, -5970.4415166904355, -12781.733308045068, 23528.8543735569, 41781.7135789053, -33320.17014267089, -16245.203166628262, 95456.6339202683, -13182.813010551097, 9170.853694779122, -12309.552706426706, -21343.993704795088, 31482.56617576673, -9540.730362025542, -7230.09642721372, -1627.6540312354603, 48881.454632455665, -0.004, 1.004, 0.162, 192.0, 0.0, 0.0, 0.0, 0.0, 0.0, 0.0, 0.0, 0.0, 0.0, 1.695414399313102E9, 0.0, 2023-09-22 15:26:39.313
226.0, -5975.51536268179, -12788.215313937106, 23581.62684221588, 41864.2809229232, -33326.5180380962, -16244.934945694798, 95539.35772649739, -13187.864504797997, 9155.229825404862, -12320.10272980961, -21358.499986946583, 31516.652586061075, -9551.79447553092, -7241.875796541667, -1630.3809440590078, 48919.81022594097, -0.004, 1.004, 0.162, 192.0, 0.0, 0.0, 0.0, 0.0, 0.0, 0.0, 0.0, 0.0, 0.0, 1.695414399373587E9, 0.0, 2023-09-22 15:26:39.373
228.0, -5966.842885833131, -12781.710956300612, 23518.416108896272, 41775.11981429098, -33317.71145078081, -16232.440320544281, 95447.24618759706, -13178.789696549142, 9165.131648198563, -12312.123157039066, -21351.861518843358, 31481.225071099412, -9541.959707970585, -7232.152787703609, -1642.7638104872478, 48893.30105701698, -0.008, 1.01, 0.164, 192.0, 127.5, 96.0, 15.5, 72.0, 2.5, 16.0, 0.0, 0.0, 0.0, 1.695414399373601E9, 0.0, 2023-09-22 15:26:39.373
230.0, -5968.340452711636, -12779.29696789944, 23582.632670716368, 41856.92719899741, -33323.50055259473, -16234.653143245358, 95533.50156945009, -13183.438859395847, 9166.09277321014, -12309.172726770965, -21352.12973977682, 31497.13951315159, -9543.949013227108, -7236.265508683385, -1631.27501383722, 48917.10566486188, -0.008, 1.01, 0.164, 192.0, 0.0, 0.0, 0.0, 0.0, 0.0, 0.0, 0.0, 0.0, 0.0, 1.695414399373606E9, 0.0, 2023-09-22 15:26:39.373
232.0, -5957.27633920626, -12765.90827297071, 23525.45690839969, 41786.40744524091, -33311.743535011236, -16218.537535493082, 95457.99737668007, -13175.101658714017, 9173.647662836036, -12299.181496999443, -21342.049103027475, 31506.706059778462, -9534.516577066968, -7226.453092867505, -1637.8911301959909, 48922.49243527561, -0.008, 1.01, 0.164, 192.0, 0.0, 0.0, 0.0, 0.0, 0.0, 0.0, 0.0, 0.0, 0.0, 1.695414399373614E9, 0.0, 2023-09-22 15:26:39.373
234.0, -5962.774868342265, -12773.709031785613, 23607.420755317304, 41875.59090561759, -33317.15265716942, -16217.911686648333, 95552.99229061512, -13171.592434834532, 9180.554351872725, -12293.168877740965, -21335.522393646526, 31515.42324011603, -9532.437864832624, -7218.987610219433, -1617.148711341466, 48922.53713876452, -0.008, 1.01, 0.164, 192.0, 0.0, 0.0, 0.0, 0.0, 0.0, 0.0, 0.0, 0.0, 0.0, 1.695414399373622E9, 0.0, 2023-09-22 15:26:39.373
236.0, -5965.881760821553, -12778.29113939895, 23543.315952219484, 41801.02548611468, -33317.42087810289, -16220.7280064497, 95469.95555996365, -13182.768307062186, 9171.34543315714, -12303.875363335057, -21342.719655361136, 31534.75749906987, -9532.46021657708, -7226.117816700676, -1630.5821097591056, 48947.660499532285, -0.008, 1.01, 0.164, 192.0, 0.0, 0.0, 0.0, 0.0, 0.0, 0.0, 0.0, 0.0, 0.0, 1.695414399373627E9, 0.0, 2023-09-22 15:26:39.373
238.0, -5972.430821946958, -12783.543799345947, 23613.43337457578, 41884.039865021696, -33322.226503160775, -16226.204183841252, 95559.02726161806, -13188.244484453737, 9173.938235513955, -12305.775261613759, -21346.765321107545, 31513.635100559608, -9534.404818344692, -7232.868043526179, -1627.4305137909073, 48937.15517963829, -0.01, 1.006, 0.16, 192.0, 127.5, 88.0, 15.5, 56.0, 2.5, 0.0, 0.0, 0.0, 0.0, 1.695414399373632E9, 0.0, 2023-09-22 15:26:39.373
240.0, -5964.183028242949, -12778.782877776966, 23545.193498753728, 41817.90105317844, -33316.012718202204, -16217.956390137244, 95483.34425489239, -13185.5622751191, 9169.691404067446, -12298.57799989915, -21344.373684450828, 31537.149135726588, -9531.946126454608, -7227.5930318347255, -1633.0631533936446, 48951.39324085632, -0.01, 1.006, 0.16, 192.0, 0.0, 0.0, 0.0, 0.0, 0.0, 0.0, 0.0, 0.0, 0.0, 1.695414399432302E9, 0.0, 2023-09-22 15:26:39.432
242.0, -5972.654339391511, -12784.080241212874, 23616.09323216596, 41901.18365301891, -33322.67353804989, -16221.35385529445, 95578.65209324981, -13185.495219885734, 9174.228808191874, -12301.662540633983, -21346.832376340913, 31508.203626656967, -9534.829501489343, -7229.515281857883, -1624.9047666674576, 48939.479761061644, -0.01, 1.006, 0.16, 192.0, 0.0, 0.0, 0.0, 0.0, 0.0, 0.0, 0.0, 0.0, 0.0, 1.695414399432317E9, 0.0, 2023-09-22 15:26:39.432
244.0, -5970.37446145707, -12783.47674411258, 23540.61139114039, 41849.61817856052, -33323.1652764279, -16221.331503549995, 95518.77176985405, -13194.748842090232, 9173.62531109158, -12297.57217139866, -21345.670085629237, 31564.261801750876, -9534.248356133505, -7229.00119173541, -1634.247795849776, 48994.286238466055, -0.01, 1.006, 0.16, 192.0, 0.0, 0.0, 0.0, 0.0, 0.0, 0.0, 0.0, 0.0, 0.0, 1.695414399432323E9, 0.0, 2023-09-22 15:26:39.432
246.0, -5966.015871288285, -12779.341671388349, 23589.069973119495, 41876.395568417975, -33318.98550021476, -16210.53561097808, 95558.53552324003, -13186.36693791949, 9175.279340181272, -12298.063909776678, -21345.804196095967, 31493.94321369448, -9533.957783455586, -7228.844729524223, -1635.208920861354, 48938.49628430561, -0.01, 1.006, 0.16, 192.0, 0.0, 0.0, 0.0, 0.0, 0.0, 0.0, 0.0, 0.0, 0.0, 1.695414399432331E9, 0.0, 2023-09-22 15:26:39.432
248.0, -5961.120839252572, -12769.819828250389, 23542.42188244127, 41834.374288842, -33314.38104085696, -16203.137183563374, 95502.41029291277, -13181.360147161502, 9187.215171720407, -12292.297159707208, -21335.41063492425, 31544.52521139684, -9527.36401884127, -7221.535709087338, -1626.2905748236865, 48973.879095778364, -0.002, 1.008, 0.162, 192.0, 127.5, 120.0, 15.5, 64.0, 2.5, 8.0, 0.0, 0.0, 0.0, 1.695414399432336E9, 0.0, 2023-09-22 15:26:39.432
250.0, -5964.026566031763, -12779.05109871043, 23583.794961428044, 41849.9311029829, -33317.28676763616, -16203.561866708025, 95528.29361299201, -13179.03556573815, 9188.019834520797, -12290.91135155098, -21333.42132966773, 31473.647829729063, -9526.782873485432, -7220.28401139784, -1625.5753190011167, 48913.14940609329, -0.002, 1.008, 0.162, 192.0, 0.0, 0.0, 0.0, 0.0, 0.0, 0.0, 0.0, 0.0, 0.0, 1.695414399432342E9, 0.0, 2023-09-22 15:26:39.432
252.0, -5967.044051533228, -12780.794534777944, 23545.640533642832, 41814.190663598856, -33318.85138974802, -16209.999169111154, 95479.00801646805, -13194.36886243449, 9182.923636784988, -12292.632435874038, -21336.79644308048, 31534.19870545849, -9530.381504342737, -7227.19070043453, -1633.7784092162144, 48960.91508399428, -0.002, 1.008, 0.162, 192.0, 0.0, 0.0, 0.0, 0.0, 0.0, 0.0, 0.0, 0.0, 0.0, 1.695414399432347E9, 0.0, 2023-09-22 15:26:39.432
254.0, -5967.982824800351, -12782.403860378727, 23586.00778412912, 41829.38984982847, -33322.27120664969, -16207.16049756533, 95502.63381035732, -13190.770231577186, 9185.024700763786, -12295.649921375505, -21337.668161114238, 31465.1765185805, -9532.259050876983, -7224.486139355438, -1632.794932460181, 48901.370036765344, -0.002, 1.008, 0.162, 192.0, 0.0, 0.0, 0.0, 0.0, 0.0, 0.0, 0.0, 0.0, 0.0, 1.695414399432352E9, 0.0, 2023-09-22 15:26:39.432
0.0, -5964.898284065519, -12777.933511487665, 23557.777530882067, 41841.57155055661, -33322.47237234979, -16204.63475044188, 95505.78540632552, -13192.826592067075, 9181.850753051132, -12292.788898085226, -21338.338713447894, 31556.125766769146, -9537.467007335068, -7225.871947511667, -1633.7784092162144, 48975.89075277934, -0.002, 1.008, 0.162, 192.0, 0.0, 0.0, 0.0, 0.0, 0.0, 0.0, 0.0, 0.0, 0.0, 1.695414399492548E9, 0.0, 2023-09-22 15:26:39.492
2.0, -5968.6757288784665, -12783.879075512777, 23598.748278468644, 41862.53748685569, -33328.08266020807, -16208.121622576908, 95538.95539509719, -13192.603074622522, 9180.330834428172, -12289.659653861483, -21338.472823914628, 31496.1336846511, -9537.891690479719, -7225.469616111472, -1641.0650779086445, 48921.46425503067, -0.006, 1.0, 0.164, 192.0, 127.5, 104.0, 15.5, 32.0, 2.5, 16.0, 0.0, 0.0, 0.0, 1.695414399492561E9, 0.0, 2023-09-22 15:26:39.492
4.0, -5964.94298755443, -12783.230874923573, 23585.828970173476, 41875.076815495115, -33323.83582876156, -16202.06429982952, 95541.39173524283, -13194.637083367954, 9186.701081597934, -12287.022148015756, -21334.94124829069, 31579.14806355811, -9535.589460800822, -7221.401598620606, -1637.46644705134, 48986.64194186234, -0.006, 1.0, 0.164, 192.0, 0.0, 0.0, 0.0, 0.0, 0.0, 0.0, 0.0, 0.0, 0.0, 1.695414399492567E9, 0.0, 2023-09-22 15:26:39.492
6.0, -5959.4668101628795, -12776.748869031533, 23585.96308064021, 41836.52005630971, -33318.49376183674, -16194.330596247984, 95508.22174647114, -13184.310577429604, 9184.175334474485, -12287.178610226943, -21335.142413990787, 31504.403830099563, -9534.628335789244, -7224.128511444153, -1641.8473889645802, 48923.96765040966, -0.006, 1.0, 0.164, 192.0, 0.0, 0.0, 0.0, 0.0, 0.0, 0.0, 0.0, 0.0, 0.0, 1.695414399492573E9, 0.0, 2023-09-22 15:26:39.492
8.0, -5958.885664807041, -12779.319319643893, 23601.072859891996, 41874.49567013927, -33320.50541883772, -16194.822334626, 95546.06324983398, -13187.953911775818, 9194.993578790854, -12281.277749690742, -21331.297913944472, 31562.048979049803, -9533.063713677373, -7221.222784664963, -1627.0728858796224, 48973.812040544995, -0.006, 1.0, 0.164, 192.0, 0.0, 0.0, 0.0, 0.0, 0.0, 0.0, 0.0, 0.0, 0.0, 1.695414399492578E9, 0.0, 2023-09-22 15:26:39.492
10.0, -5964.94298755443, -12785.823677280388, 23576.91062413581, 41820.963242168815, -33319.52194208169, -16192.296587502551, 95503.25965920207, -13183.349452418024, 9191.372596189094, -12281.881246791036, -21328.21337320964, 31495.306670106256, -9527.922812452653, -7217.221822407463, -1632.8396359490916, 48925.82284519945, -0.006, 1.0, 0.164, 192.0, 0.0, 0.0, 0.0, 0.0, 0.0, 0.0, 0.0, 0.0, 0.0, 1.695414399492584E9, 0.0, 2023-09-22 15:26:39.492
12.0, -5966.552313155212, -12784.549627846436, 23603.531551782078, 41868.997141003274, -33318.02437520318, -16191.067241557508, 95550.66770919177, -13189.809106565608, 9183.683596096469, -12286.217485215366, -21339.232783226107, 31556.52809816934, -9537.824635246354, -7224.8884707556335, -1628.6375079914937, 48985.83727906195, -0.008, 1.008, 0.166, 192.0, 127.5, 96.0, 15.5, 64.0, 2.5, 24.0, 0.0, 0.0, 0.0, 1.695414399492597E9, 0.0, 2023-09-22 15:26:39.492
14.0, -5963.89245556503, -12785.019014479998, 23583.839664916955, 41819.86800669051, -33317.063250191604, -16182.618282153402, 95507.35002843739, -13181.293091928137, 9191.082023511175, -12273.409935642474, -21331.186155222196, 31498.2347486299, -9530.783835742932, -7216.908897985089, -1629.889205680991, 48928.88503418983, -0.008, 1.008, 0.166, 192.0, 0.0, 0.0, 0.0, 0.0, 0.0, 0.0, 0.0, 0.0, 0.0, 1.695414399552992E9, 0.0, 2023-09-22 15:26:39.552
16.0, -5958.41627817348, -12780.369851633293, 23616.920246710808, 41886.49855691178, -33319.27607289267, -16182.10419203093, 95574.98640715914, -13191.396080421935, 9189.092718254653, -12275.801572299191, -21333.197812223174, 31570.989676831923, -9536.483530579035, -7217.132415429643, -1621.5743567436168, 49004.009247304115, -0.008, 1.008, 0.166, 192.0, 0.0, 0.0, 0.0, 0.0, 0.0, 0.0, 0.0, 0.0, 0.0, 1.69541439955302E9, 0.0, 2023-09-22 15:26:39.553
18.0, -5948.626214102056, -12767.025860193475, 23559.05158031602, 41785.13339580696, -33316.839732747045, -16175.10809601642, 95470.46965008613, -13186.232827452759, 9202.235543994373, -12260.200054669387, -21317.75275680456, 31506.169617911535, -9524.726512995543, -7204.503679812394, -1634.113685383044, 48934.47297030366, -0.008, 1.008, 0.166, 192.0, 0.0, 0.0, 0.0, 0.0, 0.0, 0.0, 0.0, 0.0, 0.0, 1.695414399553026E9, 0.0, 2023-09-22 15:26:39.553
20.0, -5945.4969698783125, -12765.237720637051, 23626.307979382036, 41873.24397244978, -33315.07394493508, -16167.016764523598, 95562.26826456407, -13178.65558608241, 9202.995503305854, -12253.226310399332, -21316.8810387708, 31538.981978771924, -9526.40289382969, -7201.150918144098, -1613.214804317332, 48966.63713057484, -0.008, 1.008, 0.166, 192.0, 0.0, 0.0, 0.0, 0.0, 0.0, 0.0, 0.0, 0.0, 0.0, 1.695414399553031E9, 0.0, 2023-09-22 15:26:39.553
22.0, -5943.239443688327, -12761.862607224299, 23572.79790315603, 41798.946773880336, -33314.73866876825, -16172.58234889297, 95482.71840604764, -13184.824667552075, 9215.154852289541, -12249.024182441734, -21309.25909391154, 31531.248275190388, -9522.156062383183, -7194.445394807505, -1619.8979759094686, 48958.94813048222, -0.01, 1.012, 0.166, 192.0, 127.5, 88.0, 15.5, 80.0, 2.5, 24.0, 0.0, 0.0, 0.0, 1.695414399553036E9, 0.0, 2023-09-22 15:26:39.553
24.0, -5950.414353658481, -12770.311566628405, 23638.668494065823, 41869.80180380366, -33318.516113581194, -16177.365622206406, 95557.37323252836, -13192.75953683371, 9205.498898684848, -12252.734572021314, -21315.204657936654, 31539.51842063885, -9526.849928718797, -7205.688322268525, -1617.305173552653, 48965.698357307716, -0.01, 1.012, 0.166, 192.0, 0.0, 0.0, 0.0, 0.0, 0.0, 0.0, 0.0, 0.0, 0.0, 1.695414399553042E9, 0.0, 2023-09-22 15:26:39.553
26.0, -5946.771019312265, -12766.981156704565, 23571.90383337782, 41779.25488701521, -33311.944700711334, -16169.34134594695, 95459.89727495877, -13189.339719932046, 9202.034378294275, -12250.879377231524, -21312.567152090927, 31551.00721728888, -9524.50299555099, -7203.453147822995, -1625.8658916790357, 48971.19688644372, -0.01, 1.012, 0.166, 192.0, 0.0, 0.0, 0.0, 0.0, 0.0, 0.0, 0.0, 0.0, 0.0, 1.695414399553047E9, 0.0, 2023-09-22 15:26:39.553
28.0, -5960.830266574653, -12781.442735367149, 23651.11841572743, 41852.18862917288, -33318.113782181004, -16176.113924516909, 95538.44130497472, -13189.093850743038, 9203.308427728227, -12256.646127300994, -21314.89173351428, 31522.91107450856, -9527.229908374538, -7205.777729246346, -1614.3994467734633, 48948.80043849951, -0.01, 1.012, 0.166, 192.0, 0.0, 0.0, 0.0, 0.0, 0.0, 0.0, 0.0, 0.0, 0.0, 1.695414399553053E9, 0.0, 2023-09-22 15:26:39.553
30.0, -5964.875932321064, -12785.019014479998, 23581.62684221588, 41788.4638057308, -33317.30911938061, -16172.559997148515, 95466.02165293953, -13192.446612411335, 9195.798241591245, -12261.407048869974, -21322.960713262644, 31549.57670564374, -9533.913079966675, -7211.8574037381895, -1630.6044615035607, 48974.9072760233, -0.01, 1.012, 0.166, 192.0, 0.0, 0.0, 0.0, 0.0, 0.0, 0.0, 0.0, 0.0, 0.0, 1.69541439961331E9, 0.0, 2023-09-22 15:26:39.613
32.0, -5966.932292810952, -12785.086069713363, 23656.147558229874, 41858.04478622017, -33320.25954964871, -16166.659136612314, 95547.8513893904, -13184.936426274351, 9193.384253190072, -12257.875473246035, -21324.033596996498, 31513.210417414957, -9536.17060615666, -7210.046912437309, -1619.3391822980861, 48956.400031614314, -0.008, 1.002, 0.166, 192.0, 127.5, 96.0, 15.5, 40.0, 2.5, 24.0, 0.0, 0.0, 0.0, 1.695414399613324E9, 0.0, 2023-09-22 15:26:39.613
34.0, -5967.669900377978, -12787.768279048, 23596.915435423307, 41801.5172244927, -33316.77267751368, -16165.988584278653, 95489.53568810651, -13193.47479265628, 9192.601942134135, -12260.177702924932, -21321.753719062057, 31556.684560380527, -9536.148254412205, -7209.063435681276, -1630.7385719702927, 48998.68953212375, -0.008, 1.002, 0.166, 192.0, 0.0, 0.0, 0.0, 0.0, 0.0, 0.0, 0.0, 0.0, 0.0, 1.695414399613329E9, 0.0, 2023-09-22 15:26:39.613
36.0, -5970.9109033239965, -12791.501020372036, 23662.763674588645, 41865.487917123784, -33321.86887524949, -16155.103284728919, 95567.40916578879, -13180.689594827843, 9192.646645623046, -12258.90365349098, -21317.708053315648, 31508.628309801617, -9535.857681734286, -7208.728159514447, -1624.1001038670665, 48960.82567701646, -0.008, 1.002, 0.166, 192.0, 0.0, 0.0, 0.0, 0.0, 0.0, 0.0, 0.0, 0.0, 0.0, 1.695414399613334E9, 0.0, 2023-09-22 15:26:39.613
38.0, -5960.874970063564, -12779.162857432708, 23597.027194145587, 41818.81747470111, -33314.85042749053, -16149.38123814836, 95517.40831344227, -13184.221170451781, 9194.43478517947, -12254.85798774457, -21314.69056781418, 31584.803054905304, -9537.779931757443, -7205.442453079517, -1627.0281823907117, 49027.322116771, -0.008, 1.002, 0.166, 192.0, 0.0, 0.0, 0.0, 0.0, 0.0, 0.0, 0.0, 0.0, 0.0, 1.695414399613338E9, 0.0, 2023-09-22 15:26:39.613
40.0, -5963.154847998006, -12785.33193890237, 23645.06109298004, 41842.44326859037, -33316.079773435566, -16145.223813679673, 95553.37227027086, -13179.102620971516, 9199.620389893102, -12254.388601111008, -21310.10846020084, 31508.71771677944, -9534.494225322513, -7205.4648048239715, -1622.4013712884632, 48968.715842809186, -0.008, 1.002, 0.166, 192.0, 0.0, 0.0, 0.0, 0.0, 0.0, 0.0, 0.0, 0.0, 0.0, 1.695414399613343E9, 0.0, 2023-09-22 15:26:39.613
42.0, -5960.316176452181, -12777.508828343014, 23601.13991512536, 41818.63866074546, -33315.00688970171, -16142.742770045135, 95518.39179019831, -13178.968510504785, 9206.281209740784, -12242.944507949891, -21295.199846649153, 31567.05576980779, -9529.554489797889, -7196.144127386109, -1619.7862171871923, 49015.967430587705, -0.002, 1.01, 0.164, 192.0, 127.5, 120.0, 15.5, 72.0, 2.5, 16.0, 0.0, 0.0, 0.0, 1.695414399613348E9, 0.0, 2023-09-22 15:26:39.613
44.0, -5969.770964356776, -12781.91212200071, 23624.363377614427, 41845.84073374757, -33316.437401346855, -16142.407493878305, 95562.17885758626, -13175.258120925204, 9196.938180558465, -12243.168025394443, -21295.468067582617, 31515.222074415935, -9534.605984044789, -7197.529935542338, -1619.8532724205581, 48985.99374127314, -0.002, 1.01, 0.164, 192.0, 0.0, 0.0, 0.0, 0.0, 0.0, 0.0, 0.0, 0.0, 0.0, 1.69541439967343E9, 0.0, 2023-09-22 15:26:39.673
46.0, -5961.791391586232, -12777.508828343014, 23574.161359567806, 41820.91853867991, -33310.290671621646, -16135.679618797258, 95530.03704905952, -13180.197856449826, 9190.992616533353, -12239.547042792683, -21290.88595996928, 31586.479435739453, -9536.260013134483, -7201.776766988846, -1619.7191619538262, 49050.25500658214, -0.002, 1.01, 0.164, 192.0, 0.0, 0.0, 0.0, 0.0, 0.0, 0.0, 0.0, 0.0, 0.0, 1.695414399673447E9, 0.0, 2023-09-22 15:26:39.673
48.0, -5965.971167799374, -12783.119116201296, 23601.206970358726, 41816.0235066442, -33312.8164187451, -16135.679618797258, 95534.66386016177, -13174.609920335999, 9203.710759128424, -12238.876490459024, -21262.00750613302, 31497.072457918224, -9528.325143852848, -7192.478441295439, -1616.2546415632537, 48975.08608997895, -0.002, 1.01, 0.164, 192.0, 0.0, 0.0, 0.0, 0.0, 0.0, 0.0, 0.0, 0.0, 0.0, 1.695414399673453E9, 0.0, 2023-09-22 15:26:39.673
50.0, -5959.7573828407985, -12776.972386476087, 23583.66085096131, 41810.1673495969, -33309.15073265442, -16130.359903616894, 95522.3480489669, -13177.739164559742, 9202.861392839122, -12237.267164858242, -21242.33797101235, 31571.615525676672, -9529.107454908784, -7192.746662228902, -1615.7405514407817, 49051.79727694956, -0.002, 1.01, 0.164, 192.0, 0.0, 0.0, 0.0, 0.0, 0.0, 0.0, 0.0, 0.0, 0.0, 1.695414399673459E9, 0.0, 2023-09-22 15:26:39.673
52.0, -5972.252007991316, -12788.125906959285, 23590.768705698098, 41791.973029610286, -33323.07586945008, -16142.586307833948, 95516.33542970842, -13181.695423328332, 9199.553334659737, -12238.630621270016, -21238.87345062178, 31483.527300778307, -9532.102588665795, -7199.116909398665, -1620.2332520762984, 48984.987912772645, -0.002, 1.01, 0.164, 192.0, 0.0, 0.0, 15.5, 64.0, 2.0, 120.0, 0.0, 0.0, 0.0, 1.695414399673464E9, 0.0, 2023-09-22 15:26:39.673
54.0, -5965.144153254528, -12780.146334188741, 23593.741487710657, 41822.930195680885, -33321.466543849296, -16141.513424100092, 95539.06715381947, -13184.690557085343, 9194.479488668381, -12243.100970161078, -21242.896764623736, 31568.91096459758, -9540.395085858714, -7208.661104281081, -1623.9659934003346, 49062.39200382138, -0.002, 1.01, 0.164, 192.0, 0.0, 0.0, 0.0, 0.0, 0.0, 0.0, 0.0, 0.0, 0.0, 1.69541439967347E9, 0.0, 2023-09-22 15:26:39.673
56.0, -5962.841923575631, -12778.022918465485, 23578.09526659194, 41787.43562548586, -33314.3139856236, -16136.260764153096, 95509.18287148273, -13176.7109843148, 9200.760328860322, -12230.695751988382, -21231.87735460727, 31501.69926902047, -9530.135635153727, -7196.4794035529385, -1625.731781212304, 48999.673008879785, -0.002, 1.01, 0.164, 192.0, 0.0, 0.0, 0.0, 0.0, 0.0, 0.0, 0.0, 0.0, 0.0, 1.695414399673475E9, 0.0, 2023-09-22 15:26:39.673
58.0, -5959.667975862977, -12772.569092818392, 23599.128258124383, 41827.19937887185, -33314.40339260142, -16130.024627450066, 95543.11281956588, -13175.548693603123, 9210.036302809274, -12224.213746096344, -21226.91526733819, 31560.68552263803, -9524.659457762178, -7195.764147730369, -1612.4548450058514, 49042.65541346734, -0.002, 1.01, 0.164, 192.0, 0.0, 0.0, 0.0, 0.0, 0.0, 0.0, 0.0, 0.0, 0.0, 1.69541439967348E9, 0.0, 2023-09-22 15:26:39.673
60.0, -5964.115973009583, -12784.124944701785, 23589.67347021979, 41775.49979394672, -33317.64439554744, -16134.29381064103, 95496.35297016538, -13180.309615172102, 9210.81861386521, -12223.744359462782, -21223.76367136999, 31512.38340287011, -9521.97724842754, -7199.809813476779, -1624.502435267262, 48998.354255956925, -0.002, 1.01, 0.164, 192.0, 0.0, 0.0, 0.0, 0.0, 0.0, 0.0, 0.0, 0.0, 0.0, 1.695414399732376E9, 0.0, 2023-09-22 15:26:39.732
62.0, -5964.540656154234, -12781.91212200071, 23638.28851441008, 41830.41803007341, -33316.504456580216, -16132.371560617872, 95552.2099795592, -13179.549655860623, 9203.062558539219, -12227.90178393147, -21225.19418301513, 31564.82059536226, -9520.233812360026, -7202.4696710669605, -1619.696810209371, 49041.15784658884, -0.004, 1.006, 0.152, 192.0, 127.5, 112.0, 15.5, 56.0, 2.0, 96.0, 0.0, 0.0, 0.0, 1.695414399732402E9, 0.0, 2023-09-22 15:26:39.732
64.0, -5965.658243377, -12779.542837088447, 23602.81629595951, 41764.905067074906, -33315.364517613, -16130.315200127985, 95491.88262127432, -13181.18133320586, 9204.381311462083, -12224.660780985449, -21223.62956090326, 31533.036414746814, -9514.444710546102, -7203.18492688953, -1630.4032958034632, 49007.853747350426, -0.004, 1.006, 0.152, 192.0, 0.0, 0.0, 0.0, 0.0, 0.0, 0.0, 0.0, 0.0, 0.0, 1.695414399732408E9, 0.0, 2023-09-22 15:26:39.732
66.0, -5968.966301556386, -12783.09676445684, 23651.319581427524, 41840.78923950067, -33322.04768920514, -16130.583421061448, 95566.55979949949, -13184.064708240594, 9204.560125417725, -12225.577202508117, -21225.574162670873, 31566.787548874327, -9511.471928533547, -7209.376360103651, -1623.2730893222201, 49030.630174950384, -0.004, 1.006, 0.152, 192.0, 0.0, 0.0, 0.0, 0.0, 0.0, 0.0, 0.0, 0.0, 0.0, 1.695414399732413E9, 0.0, 2023-09-22 15:26:39.732
68.0, -5967.692252122432, -12782.493267356547, 23597.496580779145, 41782.63000042796, -33317.71145078081, -16122.849717479912, 95508.82524357144, -13179.124972715972, 9205.543602173759, -12216.837670426092, -21219.136860267743, 31557.57863015874, -9503.894687163198, -7204.123700156653, -1638.338165085097, 49018.02379107759, -0.004, 1.006, 0.152, 192.0, 0.0, 0.0, 0.0, 0.0, 0.0, 0.0, 0.0, 0.0, 0.0, 1.695414399732418E9, 0.0, 2023-09-22 15:26:39.732
70.0, -5966.664071877489, -12787.164781947708, 23668.329258958016, 41876.79789981817, -33320.2148461598, -16126.738921015136, 95612.35852388841, -13184.42233615188, 9207.577610919192, -12220.190432094389, -21221.260275990997, 31594.235491065443, -9500.854849917276, -7211.343313615717, -1633.2643190937424, 49053.227788594704, -0.004, 1.006, 0.152, 192.0, 0.0, 0.0, 0.0, 0.0, 0.0, 0.0, 0.0, 0.0, 0.0, 1.695414399732423E9, 0.0, 2023-09-22 15:26:39.732
72.0, -5955.89053105003, -12769.95393871712, 23604.62678726039, 41799.84084365855, -33311.184741399855, -16115.004255176098, 95534.52974969504, -13178.096792471028, 9210.68450339848, -12213.104929102055, -21209.123278751766, 31600.58338649075, -9488.650797444678, -7203.542554800815, -1638.628737763016, 49052.42312579431, -0.008, 1.006, 0.154, 192.0, 127.5, 96.0, 15.5, 56.0, 2.0, 104.0, 0.0, 0.0, 0.0, 1.695414399732428E9, 0.0, 2023-09-22 15:26:39.732
74.0, -5962.998385786818, -12778.805229521422, 23664.73062810071, 41857.19541993087, -33318.516113581194, -16117.172374388263, 95601.98731446116, -13185.159943718905, 9220.407512236538, -12206.757033676748, -21203.06595600438, 31592.223834064465, -9485.678015432122, -7200.5921245327145, -1628.8833771805023, 49030.94309937276, -0.008, 1.006, 0.154, 192.0, 0.0, 0.0, 0.0, 0.0, 0.0, 0.0, 0.0, 0.0, 0.0, 1.695414399792731E9, 0.0, 2023-09-22 15:26:39.792
76.0, -5953.4765426488575, -12767.13761891575, 23587.99708938564, 41758.98185479425, -33313.710488523306, -16109.013987662076, 95497.11292947686, -13187.41746990889, 9215.02074182281, -12203.761899919737, -21201.099002492312, 31595.911871899592, -9484.15809680916, -7202.2908571113185, -1645.4013163329741, 49011.74295088565, -0.008, 1.006, 0.154, 192.0, 0.0, 0.0, 0.0, 0.0, 0.0, 0.0, 0.0, 0.0, 0.0, 1.695414399792745E9, 0.0, 2023-09-22 15:26:39.792
78.0, -5953.118914737573, -12767.271729382484, 23665.848215323476, 41821.253814846736, -33316.23623564676, -16107.248199850108, 95562.69294770873, -13181.5613128616, 9223.045018082265, -12194.687091670883, -21190.28075817594, 31556.90807782508, -9479.196009540083, -7195.071243652254, -1631.7444004707816, 48970.16870619878, -0.008, 1.006, 0.154, 192.0, 0.0, 0.0, 0.0, 0.0, 0.0, 0.0, 0.0, 0.0, 0.0, 1.695414399792749E9, 0.0, 2023-09-22 15:26:39.792
80.0, -5944.535844866735, -12759.023935678475, 23598.86003719092, 41747.04602325511, -33314.202226901325, -16103.828382948446, 95478.49392634559, -13183.394155906935, 9221.972134348409, -12191.446088724862, -21182.189426683122, 31584.177206060554, -9478.436050228602, -7191.763185472869, -1632.4149528044406, 48989.30179945252, -0.008, 1.006, 0.154, 192.0, 0.0, 0.0, 0.0, 0.0, 0.0, 0.0, 0.0, 0.0, 0.0, 1.695414399792752E9, 0.0, 2023-09-22 15:26:39.792
82.0, -5950.436705402935, -12766.154142159718, 23665.624697878924, 41815.375306054986, -33316.77267751368, -16099.492144524116, 95554.37809877135, -13181.963644261796, 9226.7777594063, -12182.259521753731, -21176.08740044682, 31529.99657750089, -9478.883085117708, -7191.114984883665, -1623.5636620001392, 48947.83931348793, -0.006, 1.004, 0.154, 192.0, 127.5, 104.0, 15.5, 48.0, 2.0, 104.0, 0.0, 0.0, 0.0, 1.695414399792755E9, 0.0, 2023-09-22 15:26:39.792
84.0, -5943.060629732684, -12758.062810666897, 23614.48390656518, 41779.52310794868, -33307.67551752037, -16094.686519466224, 95508.17704298224, -13183.28239718466, 9220.452215725449, -12195.737623660281, -21178.411981870173, 31590.569804974773, -9482.995806097486, -7193.394862818106, -1630.5150545257395, 49000.432968191264, -0.006, 1.004, 0.154, 192.0, 0.0, 0.0, 0.0, 0.0, 0.0, 0.0, 0.0, 0.0, 0.0, 1.695414399792758E9, 0.0, 2023-09-22 15:26:39.792
86.0, -5943.597071599612, -12760.946185701632, 23663.4342269223, 41799.438512258355, -33307.899034964925, -16092.764269443069, 95530.88641534882, -13174.878141269463, 9225.548413461258, -12180.046699052657, -21165.559728808374, 31518.843057017693, -9475.217399027038, -7182.554266757282, -1620.501473009762, 48933.198920869705, -0.006, 1.004, 0.154, 192.0, 0.0, 0.0, 0.0, 0.0, 0.0, 0.0, 0.0, 0.0, 0.0, 1.695414399792761E9, 0.0, 2023-09-22 15:26:39.792
88.0, -5947.352164668103, -12766.556473559915, 23620.183601401284, 41767.475517687264, -33313.68813677885, -16100.47562128015, 95485.51237410455, -13190.166734476894, 9226.621297195114, -12185.656986910939, -21171.885272489224, 31572.06256056578, -9483.755765408965, -7190.712653483469, -1631.3197173261306, 48976.181325457255, -0.006, 1.004, 0.154, 192.0, 0.0, 0.0, 0.0, 0.0, 0.0, 0.0, 0.0, 0.0, 0.0, 1.695414399792765E9, 0.0, 2023-09-22 15:26:39.792
90.0, -5947.910958279486, -12768.746944516533, 23671.570261904035, 41807.753361195726, -33313.10699142301, -16097.636949734326, 95530.50643569308, -13181.628368094965, 9218.418206980015, -12185.858152611036, -21168.554862565383, 31526.57676059923, -9486.035643343406, -7193.506621540382, -1633.6219470050273, 48939.39035408382, -0.006, 1.004, 0.154, 192.0, 0.0, 0.0, 0.0, 0.0, 0.0, 0.0, 0.0, 0.0, 0.0, 1.695414399852815E9, 0.0, 2023-09-22 15:26:39.852
92.0, -5944.200568699905, -12762.689621769146, 23641.708331311744, 41813.341297309555, -33312.27997687816, -16101.213228847175, 95522.63862164482, -13190.680824599365, 9216.853584868144, -12181.141934530966, -21165.582080552827, 31611.044002895833, -9488.136707322206, -7190.019749405355, -1630.1350748699995, 49008.07726479498, -0.006, 1.004, 0.154, 192.0, 0.0, 0.0, 15.5, 40.0, 2.5, 8.0, 0.0, 0.0, 0.0, 1.69541439985283E9, 0.0, 2023-09-22 15:26:39.852
94.0, -5947.441571645924, -12765.215368892596, 23672.285517726603, 41824.62892825949, -33317.80085775863, -16104.700100982202, 95544.87860737785, -13190.166734476894, 9219.401683736049, -12180.31491998612, -21160.731752006024, 31539.786641572315, -9490.327178278825, -7195.272409352352, -1636.8853016955022, 48953.2037321572, -0.006, 1.004, 0.154, 192.0, 0.0, 0.0, 0.0, 0.0, 0.0, 0.0, 0.0, 0.0, 0.0, 1.695414399852836E9, 0.0, 2023-09-22 15:26:39.852
96.0, -5939.394943642014, -12759.739191501045, 23650.894898282873, 41826.10414339354, -33309.75422975472, -16099.514496268572, 95539.02245033055, -13187.70804258681, 9220.58632619218, -12173.050603038146, -21156.060237414866, 31615.760220975906, -9488.628445700222, -7189.5503627717935, -1630.1350748699995, 49019.744875400655, -0.006, 1.004, 0.154, 192.0, 0.0, 0.0, 0.0, 0.0, 0.0, 0.0, 0.0, 0.0, 0.0, 1.695414399852841E9, 0.0, 2023-09-22 15:26:39.852
98.0, -5949.162655968983, -12768.411668349705, 23658.96387803124, 41813.40835254292, -33317.08560193606, -16105.52711552705, 95538.10602880789, -13190.122030987983, 9220.16164304753, -12174.570521661106, -21154.80853972537, 31528.454307133474, -9492.40589051317, -7190.556191272282, -1635.2312726058094, 48945.62649078685, -0.006, 1.004, 0.154, 192.0, 0.0, 0.0, 0.0, 0.0, 0.0, 0.0, 0.0, 0.0, 0.0, 1.695414399852847E9, 0.0, 2023-09-22 15:26:39.852
100.0, -5946.972185012363, -12769.149275916729, 23643.317656912524, 41850.400489616455, -33313.68813677885, -16103.649568992803, 95568.23618033364, -13193.497144400733, 9216.987695334876, -12171.061297781624, -21157.580156037828, 31602.21506383599, -9498.59732372729, -7195.115947141165, -1630.470351036829, 49012.815834619505, -0.006, 1.004, 0.154, 192.0, 0.0, 0.0, 0.0, 0.0, 0.0, 0.0, 0.0, 0.0, 0.0, 1.695414399852852E9, 0.0, 2023-09-22 15:26:39.852
102.0, -5951.688403092433, -12771.630319551268, 23634.086386452484, 41826.68528874937, -33319.27607289267, -16111.360920829884, 95551.42766850325, -13195.285283957159, 9211.131538287585, -12164.221663978298, -21154.495615302996, 31529.258969933868, -9500.586628983812, -7194.4230430630505, -1643.2331971208093, 48961.25036016111, -0.002, 1.002, 0.162, 192.0, 127.5, 120.0, 15.5, 40.0, 2.5, 8.0, 0.0, 0.0, 0.0, 1.695414399852857E9, 0.0, 2023-09-22 15:26:39.852
104.0, -5949.564987369178, -12768.47872358307, 23651.72191282772, 41873.3333794276, -33319.566645570594, -16111.606790018892, 95598.20986964821, -13198.28041771417, 9206.035340551774, -12162.142951743956, -21155.434388570116, 31594.928395143557, -9505.302847063882, -7195.406519819084, -1640.215711619343, 49026.65156443734, -0.002, 1.002, 0.162, 192.0, 0.0, 0.0, 0.0, 0.0, 0.0, 0.0, 0.0, 0.0, 0.0, 1.695414399913178E9, 0.0, 2023-09-22 15:26:39.913
106.0, -5948.22388270186, -12766.779991004467, 23634.712235297233, 41826.99821317175, -33317.35382286952, -16107.449365550205, 95561.48595350813, -13191.70900484431, 9208.8740120976, -12151.861149294515, -21149.242955356, 31542.62531311814, -9503.961742396563, -7189.796231960801, -1643.6131767765496, 48987.91599129629, -0.002, 1.002, 0.162, 192.0, 0.0, 0.0, 0.0, 0.0, 0.0, 0.0, 0.0, 0.0, 0.0, 1.695414399913197E9, 0.0, 2023-09-22 15:26:39.913
108.0, -5943.239443688327, -12763.67309852518, 23654.739398329188, 41862.11280371104, -33317.465581591794, -16108.298731839506, 95590.7667387446, -13195.732318846265, 9213.813747622222, -12140.797035789137, -21145.75608322097, 31594.324898043265, -9505.794585441898, -7190.176211616542, -1639.0310691632117, 49035.92753838629, -0.002, 1.002, 0.162, 192.0, 0.0, 0.0, 0.0, 0.0, 0.0, 0.0, 0.0, 0.0, 0.0, 1.695414399913203E9, 0.0, 2023-09-22 15:26:39.913
110.0, -5937.249176174304, -12761.303813612916, 23619.714214767722, 41780.08190156006, -33314.55985481261, -16102.219057347664, 95508.73583659361, -13186.679862341865, 9218.351151746649, -12141.646402078439, -21136.90479241667, 31528.275493177833, -9502.710044707066, -7184.700034224991, -1648.1282291565217, 48972.53799111104, -0.002, 1.002, 0.162, 192.0, 0.0, 0.0, 0.0, 0.0, 0.0, 0.0, 0.0, 0.0, 0.0, 1.695414399913212E9, 0.0, 2023-09-22 15:26:39.913
112.0, -5939.707868064388, -12765.841217737345, 23674.610099149955, 41843.2255796463, -33321.55595082712, -16105.9517986717, 95574.87464843687, -13193.608903123011, 9215.087797056174, -12132.325724640576, -21133.79789993738, 31563.43478720603, -9508.275629076437, -7184.18594410252, -1639.4781040523178, 49002.60108740343, -0.002, 1.0, 0.16, 192.0, 127.5, 120.0, 15.5, 32.0, 2.5, 0.0, 0.0, 0.0, 0.0, 1.69541439991322E9, 0.0, 2023-09-22 15:26:39.913
114.0, -5937.182120940938, -12760.320336856883, 23644.859927279944, 41793.291782533146, -33316.30329088012, -16099.223923590653, 95530.90876709328, -13184.154115218416, 9215.467776711916, -12124.279096636665, -21127.315894045343, 31535.495106636896, -9504.967570897052, -7181.503734767883, -1645.2672058662422, 48982.64097960484, -0.002, 1.0, 0.16, 192.0, 0.0, 0.0, 0.0, 0.0, 0.0, 0.0, 0.0, 0.0, 0.0, 1.695414399913226E9, 0.0, 2023-09-22 15:26:39.913
116.0, -5936.153940695995, -12761.90731071321, 23688.87051211244, 41861.129326955, -33315.34216586854, -16099.46979277966, 95604.13308192887, -13186.56810361959, 9213.366712733115, -12115.606619788006, -21124.723091688527, 31576.86818562367, -9507.336855809315, -7178.642711477603, -1629.4421707918848, 49039.54852098805, -0.002, 1.0, 0.16, 192.0, 0.0, 0.0, 0.0, 0.0, 0.0, 0.0, 0.0, 0.0, 0.0, 1.695414399913232E9, 0.0, 2023-09-22 15:26:39.913
118.0, -5932.667068560966, -12758.554549044913, 23639.428453377303, 41781.534764949654, -33312.45879083381, -16097.61459798987, 95528.45007520319, -13184.08705998505, 9207.10822428563, -12114.600791287517, -21120.297446286375, 31549.3978916881, -9505.727530208533, -7180.788478945313, -1639.634566263505, 49011.899413096835, -0.002, 1.0, 0.16, 192.0, 0.0, 0.0, 0.0, 0.0, 0.0, 0.0, 0.0, 0.0, 0.0, 1.695414399913237E9, 0.0, 2023-09-22 15:26:39.913
120.0, -5936.288051162726, -12761.974365946577, 23698.079430828027, 41832.854370219036, -33316.839732747045, -16100.9003044248, 95590.99025618915, -13187.730394331265, 9211.466814454416, -12108.319951095576, -21114.620103194728, 31557.668037136562, -9505.571067997345, -7181.481383023427, -1630.8950341814798, 49024.483445225174, -0.002, 1.0, 0.16, 192.0, 0.0, 0.0, 0.0, 0.0, 0.0, 0.0, 0.0, 0.0, 0.0, 1.695414399973394E9, 0.0, 2023-09-22 15:26:39.973
122.0, -5935.729257551344, -12760.342688601339, 23648.078578481505, 41760.34531120602, -33315.56568331309, -16099.872124179856, 95516.06720877496, -13189.809106565608, 9206.72824462989, -12106.464756305786, -21114.41893749463, 31559.702045881993, -9507.582724998323, -7186.331711570229, -1646.2283308778206, 49022.18121554628, -0.014, 0.994, 0.16, 192.0, 127.5, 72.0, 15.5, 8.0, 2.5, 0.0, 0.0, 0.0, 0.0, 1.695414399973407E9, 0.0, 2023-09-22 15:26:39.973
124.0, -5941.026620987252, -12763.807208991911, 23731.048253899608, 41836.65416677644, -33318.71727928129, -16102.174353858753, 95606.56942207449, -13189.406775165413, 9203.241372494862, -12098.865163190982, -21113.100184571766, 31560.372598215654, -9505.92869590863, -7184.342406313706, -1638.18170287391, 49029.13260807188, -0.014, 0.994, 0.16, 192.0, 0.0, 0.0, 0.0, 0.0, 0.0, 0.0, 0.0, 0.0, 0.0, 1.695414399973412E9, 0.0, 2023-09-22 15:26:39.973
126.0, -5942.077152976651, -12767.227025893573, 23671.21263399275, 41762.64754088492, -33317.10795368051, -16101.23558059163, 95532.13811303832, -13193.810068823108, 9202.34730271665, -12097.121727123467, -21112.876667127213, 31582.947860115513, -9507.985056398518, -7188.097499382198, -1650.8998454689797, 49047.9304251588, -0.014, 0.994, 0.16, 192.0, 0.0, 0.0, 0.0, 0.0, 0.0, 0.0, 0.0, 0.0, 0.0, 1.695414399973417E9, 0.0, 2023-09-22 15:26:39.973
128.0, -5942.166559954472, -12766.198845648629, 23732.94815217831, 41821.723201480294, -33316.37034611349, -16094.820629932956, 95610.68214305428, -13186.523400130678, 9195.306503213227, -12093.813668944082, -21111.446155482074, 31554.739958612918, -9509.88495467722, -7188.365720315662, -1645.3342610996083, 49031.61365170642, -0.014, 0.994, 0.16, 192.0, 0.0, 0.0, 0.0, 0.0, 0.0, 0.0, 0.0, 0.0, 0.0, 1.695414399973422E9, 0.0, 2023-09-22 15:26:39.973
130.0, -5938.187949441427, -12759.940357201143, 23654.270011695626, 41740.16168596288, -33314.26928213469, -16091.75844094258, 95520.82813034393, -13187.283359442159, 9202.749634116844, -12077.2510263027, -21097.453963453052, 31584.668944438574, -9500.005483627974, -7172.51833349685, -1645.3342610996083, 49043.303614056545, -0.014, 0.994, 0.16, 192.0, 0.0, 0.0, 0.0, 0.0, 0.0, 0.0, 0.0, 0.0, 0.0, 1.695414399973427E9, 0.0, 2023-09-22 15:26:39.973
132.0, -5939.327888408648, -12756.09585715483, 23704.53908497561, 41776.03623581365, -33313.151694911925, -16091.065536864466, 95571.09720362393, -13187.573932120078, 9200.000369548843, -12077.921578636358, -21100.06911755432, 31537.707929337972, -9504.20761158557, -7179.916760911556, -1646.116572155544, 49006.93732582776, -0.006, 1.006, 0.162, 192.0, 127.5, 104.0, 15.5, 56.0, 2.5, 8.0, 0.0, 0.0, 0.0, 1.695414399973433E9, 0.0, 2023-09-22 15:26:39.973
134.0, -5934.388152884025, -12753.637165264747, 23650.62667734941, 41716.15591241788, -33307.51905530919, -16083.264778049563, 95499.70573183367, -13182.99182450674, 9200.11212827112, -12065.605767441484, -21086.725126114503, 31579.86331938068, -9493.63523645821, -7171.423098018539, -1638.762848229748, 49025.77984640358, -0.006, 1.006, 0.162, 192.0, 0.0, 0.0, 0.0, 0.0, 0.0, 0.0, 0.0, 0.0, 0.0, 1.695414400032917E9, 0.0, 2023-09-22 15:26:40.032
136.0, -5946.659260589989, -12769.171627661184, 23714.84323916951, 41773.97987532376, -33316.012718202204, -16085.90228389529, 95573.06415713599, -13182.880065784462, 9196.62525613609, -12069.383212254432, -21090.860198838735, 31534.466926391953, -9500.02783537243, -7178.307435310774, -1637.8911301959909, 48989.90529655282, -0.006, 1.006, 0.162, 192.0, 0.0, 0.0, 0.0, 0.0, 0.0, 0.0, 0.0, 0.0, 0.0, 1.695414400032933E9, 0.0, 2023-09-22 15:26:40.032
138.0, -5940.423123886958, -12761.169703146184, 23674.632450894413, 41759.652407127905, -33308.07784892057, -16075.32990876793, 95558.40141277331, -13181.18133320586, 9190.456174666426, -12068.53384596513, -21088.245044737465, 31617.81658146579, -9498.954951638574, -7176.56399924326, -1637.46644705134, 49066.504724801154, -0.006, 1.006, 0.162, 192.0, 0.0, 0.0, 0.0, 0.0, 0.0, 0.0, 0.0, 0.0, 0.0, 1.69541440003294E9, 0.0, 2023-09-22 15:26:40.032
140.0, -5943.775885555254, -12761.013240934997, 23698.392355250402, 41766.022654297674, -33310.44713383283, -16074.301728522985, 95575.88047693735, -13177.023908737172, 9197.273456725296, -12054.586357425018, -21079.147884744154, 31556.90807782508, -9491.712986435055, -7169.702013695481, -1634.3595545720525, 49012.86053810842, -0.006, 1.006, 0.162, 192.0, 0.0, 0.0, 0.0, 0.0, 0.0, 0.0, 0.0, 0.0, 0.0, 1.695414400032946E9, 0.0, 2023-09-22 15:26:40.032
142.0, -5946.055763489695, -12765.125961914775, 23666.474064168226, 41748.09655524451, -33312.8164187451, -16082.884798393823, 95547.38200275684, -13192.08898450005, 9188.53392464327, -12053.245252757699, -21081.450114423053, 31622.488096056954, -9495.803355670376, -7173.255941063874, -1639.9698424303344, 49058.30163458605, -0.006, 1.01, 0.16, 192.0, 127.5, 104.0, 15.5, 72.0, 2.5, 0.0, 0.0, 0.0, 0.0, 1.695414400032952E9, 0.0, 2023-09-22 15:26:40.032
144.0, -5952.023679259262, -12772.457334096114, 23699.39818375089, 41763.34044496303, -33317.17500891388, -16082.549522226993, 95581.78133747356, -13191.79841182213, 9185.605846119624, -12060.91190110587, -21084.93698655808, 31551.990694044915, -9498.619675471744, -7185.772917958846, -1651.1233629135327, 48995.58263964446, -0.006, 1.01, 0.16, 192.0, 0.0, 0.0, 0.0, 0.0, 0.0, 0.0, 0.0, 0.0, 0.0, 1.695414400032957E9, 0.0, 2023-09-22 15:26:40.032
146.0, -5940.691344820421, -12760.47679906807, 23682.612023664955, 41774.628075912966, -33313.554026312115, -16076.872179135346, 95591.43729107825, -13195.061766512605, 9174.027642491776, -12055.234558014221, -21083.752344101948, 31654.83107028378, -9502.866506918253, -7181.839010934712, -1649.6034442905718, 49084.94491397678, -0.006, 1.01, 0.16, 192.0, 0.0, 0.0, 0.0, 0.0, 0.0, 0.0, 0.0, 0.0, 0.0, 1.695414400032963E9, 0.0, 2023-09-22 15:26:40.032
148.0, -5933.024696472251, -12749.725609985067, 23694.324337759535, 41744.78849706513, -33311.944700711334, -16073.720583167147, 95569.73374721214, -13184.377632662969, 9191.77492758929, -12037.487272916707, -21063.63577409217, 31561.15490927159, -9491.6906346906, -7168.115039839154, -1647.3682698450411, 48999.89652632434, -0.006, 1.01, 0.16, 192.0, 0.0, 0.0, 0.0, 0.0, 0.0, 0.0, 0.0, 0.0, 0.0, 1.695414400032969E9, 0.0, 2023-09-22 15:26:40.032
150.0, -5929.180196425938, -12745.47877853856, 23690.21161677976, 41782.5629451946, -33308.56958729858, -16071.530112210527, 95599.81919524899, -13185.025833252173, 9190.7690990888, -12037.353162449976, -21061.154730457634, 31639.58718056526, -9494.931637636619, -7170.864304407157, -1638.986365674301, 49073.81374523804, -0.006, 1.01, 0.16, 192.0, 0.0, 0.0, 0.0, 0.0, 0.0, 0.0, 0.0, 0.0, 0.0, 1.695414400092776E9, 0.0, 2023-09-22 15:26:40.092
152.0, -5931.46007436038, -12747.42338030617, 23668.619831635933, 41737.16655220587, -33308.815456487595, -16069.853731376379, 95558.53552324003, -13182.477734384267, 9198.01106429232, -12030.938211791303, -21050.53765184136, 31555.924601069048, -9489.813088156354, -7166.170438071542, -1642.1603133869546, 49004.99272406015, -0.002, 1.002, 0.162, 192.0, 127.5, 120.0, 15.5, 40.0, 2.5, 8.0, 0.0, 0.0, 0.0, 1.695414400092791E9, 0.0, 2023-09-22 15:26:40.092
154.0, -5932.532958094234, -12759.00158393402, 23687.752924889675, 41786.76507315219, -33312.03410768916, -16072.558292455471, 95604.98244821817, -13190.904342043917, 9182.029567006775, -12028.94890653478, -21059.523053112396, 31621.571674534283, -9499.625503972233, -7173.613568975159, -1641.9591476868568, 49068.270512613126, -0.002, 1.002, 0.162, 192.0, 0.0, 0.0, 0.0, 0.0, 0.0, 0.0, 0.0, 0.0, 0.0, 1.695414400092797E9, 0.0, 2023-09-22 15:26:40.092
156.0, -5929.850748759598, -12754.464179809593, 23669.893881069886, 41734.26082542668, -33311.87764547797, -16065.919824352244, 95556.81443891698, -13182.097754728527, 9188.265703709807, -12023.875060543425, -21048.54834658484, 31560.30554298229, -9493.501125991479, -7164.069374092744, -1649.9610722018567, 49011.318267741, -0.002, 1.002, 0.162, 192.0, 0.0, 0.0, 0.0, 0.0, 0.0, 0.0, 0.0, 0.0, 0.0, 1.695414400092802E9, 0.0, 2023-09-22 15:26:40.092
158.0, -5930.901280748997, -12751.938432686144, 23720.18530609433, 41815.84469268855, -33311.69883152233, -16066.903301108277, 95637.25836721163, -13182.723603573277, 9177.179238459974, -12025.171461721833, -21052.683419309073, 31626.757279247915, -9501.54775399539, -7168.405612517073, -1641.7803337312143, 49077.52413481762, -0.002, 1.002, 0.162, 192.0, 0.0, 0.0, 0.0, 0.0, 0.0, 0.0, 0.0, 0.0, 0.0, 1.695414400092808E9, 0.0, 2023-09-22 15:26:40.092
160.0, -5922.832301000632, -12743.869452937777, 23672.665497382342, 41736.33953766102, -33305.39563958593, -16060.667164405248, 95552.07586909246, -13179.79552504963, 9186.321101942194, -12005.27840915661, -21036.433701090064, 31583.48430198244, -9489.321349778336, -7159.375507757129, -1649.0670024236445, 49037.71567794272, -0.002, 1.002, 0.162, 192.0, 0.0, 0.0, 0.0, 0.0, 0.0, 0.0, 0.0, 0.0, 0.0, 1.695414400092813E9, 0.0, 2023-09-22 15:26:40.092
162.0, -5926.922670235953, -12749.815016962888, 23719.827678183043, 41798.27622154668, -33308.79310474314, -16065.025754574031, 95617.74529430215, -13181.360147161502, 9190.187953732962, -12016.789557551094, -21035.606686545216, 31602.68445046955, -9491.712986435055, -7165.701051437981, -1637.3770400735189, 49052.244311838665, -0.002, 1.0, 0.16, 192.0, 127.5, 120.0, 15.5, 32.0, 2.5, 0.0, 0.0, 0.0, 0.0, 1.695414400092819E9, 0.0, 2023-09-22 15:26:40.092
164.0, -5932.734123794333, -12760.029764178964, 23682.567320176044, 41749.21414246728, -33313.911654223404, -16069.116123809354, 95569.89020942333, -13184.623501851976, 9189.517401399304, -12011.42513888182, -21033.72914001097, 31582.187900804034, -9491.087137590306, -7165.0752025932325, -1651.5927495470942, 49035.92753838629, -0.002, 1.0, 0.16, 192.0, 0.0, 0.0, 0.0, 0.0, 0.0, 0.0, 0.0, 0.0, 0.0, 1.695414400152971E9, 0.0, 2023-09-22 15:26:40.152
166.0, -5932.130626694039, -12758.95688044511, 23734.825698712553, 41819.17510261239, -33312.25762513371, -16065.56219644096, 95646.40023069385, -13187.618635608987, 9176.776907059779, -12012.632133082407, -21040.814643003305, 31607.959462161, -9498.97730338303, -7174.41823177555, -1648.4858570678066, 49065.61065502294, -0.002, 1.0, 0.16, 192.0, 0.0, 0.0, 0.0, 0.0, 0.0, 0.0, 0.0, 0.0, 0.0, 1.695414400152988E9, 0.0, 2023-09-22 15:26:40.152
168.0, -5923.6593155454775, -12748.831540206855, 23667.614003135444, 41737.68064232834, -33304.83684597455, -16060.264833005052, 95562.06709886398, -13183.237693695748, 9179.14619197204, -12010.866345270437, -21031.762186498905, 31590.167473574576, -9490.97537886803, -7168.427964261528, -1655.1243251710328, 49039.235596565675, -0.002, 1.0, 0.16, 192.0, 0.0, 0.0, 0.0, 0.0, 0.0, 0.0, 0.0, 0.0, 0.0, 1.695414400152994E9, 0.0, 2023-09-22 15:26:40.152
170.0, -5919.926574221441, -12740.896670925222, 23737.865535958474, 41801.047837859136, -33302.71343025129, -16053.626364901826, 95634.39734392134, -13176.487466870245, 9187.796317076245, -11995.935379974293, -21024.095538150734, 31584.512482227386, -9486.527381721424, -7160.023708346333, -1640.2380633637981, 49033.40179126284, -0.002, 1.0, 0.16, 192.0, 0.0, 0.0, 0.0, 0.0, 0.0, 0.0, 0.0, 0.0, 0.0, 1.695414400153E9, 0.0, 2023-09-22 15:26:40.153
172.0, -5920.686533532922, -12742.550700014914, 23683.528445187625, 41743.06741274207, -33305.61915703049, -16055.772132369535, 95571.32072106848, -13178.94615876033, 9192.400776434039, -11991.956769461247, -21016.674758991572, 31602.796209191827, -9485.946236365586, -7157.967347856445, -1645.244854121787, 49038.16271283182, -0.008, 1.004, 0.16, 192.0, 127.5, 96.0, 15.5, 48.0, 2.5, 0.0, 0.0, 0.0, 0.0, 1.695414400153008E9, 0.0, 2023-09-22 15:26:40.153
174.0, -5922.564080067168, -12746.886938439244, 23754.47288208877, 41807.44043677336, -33306.17795064187, -16055.727428880624, 95650.6247103959, -13176.5098186147, 9189.562104888213, -11989.766298504628, -21017.658235747604, 31595.464837010484, -9488.226114300027, -7160.604853702171, -1638.8746069520244, 49033.80412266304, -0.008, 1.004, 0.16, 192.0, 0.0, 0.0, 0.0, 0.0, 0.0, 0.0, 0.0, 0.0, 0.0, 1.695414400153021E9, 0.0, 2023-09-22 15:26:40.153
176.0, -5912.88577471802, -12733.542946999425, 23701.78982040761, 41752.05281401311, -33301.43938081734, -16047.569042154437, 95587.79395673204, -13181.51660937269, 9185.114107741609, -11978.99275767717, -21013.076128134267, 31631.384090350162, -9486.683843932611, -7152.200597786975, -1642.9426244428903, 49062.34730033247, -0.008, 1.004, 0.16, 192.0, 0.0, 0.0, 0.0, 0.0, 0.0, 0.0, 0.0, 0.0, 0.0, 1.695414400153026E9, 0.0, 2023-09-22 15:26:40.153
178.0, -5915.724446263844, -12734.727589455557, 23774.880024776463, 41807.99923038474, -33306.49087506424, -16047.971373554634, 95651.98816680769, -13182.500086128723, 9187.595151376147, -11973.628339007895, -21005.364776297185, 31595.241319565932, -9485.365091009748, -7147.953766340467, -1636.661784250949, 49043.54948324555, -0.008, 1.004, 0.16, 192.0, 0.0, 0.0, 0.0, 0.0, 0.0, 0.0, 0.0, 0.0, 0.0, 1.695414400153031E9, 0.0, 2023-09-22 15:26:40.153
180.0, -5918.652524787489, -12740.561394758392, 23726.332035819538, 41764.32392171907, -33309.73187801026, -16055.056876546965, 95596.84641323643, -13194.391214178946, 9186.969302531399, -11975.438830308776, -21002.459049518, 31639.006035209422, -9486.437974743601, -7151.708859408958, -1647.144752400488, 49079.915771474334, -0.008, 1.004, 0.16, 192.0, 0.0, 0.0, 0.0, 0.0, 0.0, 0.0, 0.0, 0.0, 0.0, 1.695414400213208E9, 0.0, 2023-09-22 15:26:40.213
182.0, -5918.4960625763015, -12744.294136082428, 23770.09675146303, 41792.53182322167, -33309.843636732534, -16057.51556843705, 95629.14468397436, -13195.75467059072, 9191.216133977907, -11978.880998954894, -21004.850686174716, 31575.370618745164, -9486.885009632708, -7158.526141467827, -1650.56456930215, 49031.79246566206, -0.01, 0.996, 0.162, 192.0, 127.5, 88.0, 15.5, 16.0, 2.5, 8.0, 0.0, 0.0, 0.0, 1.695414400213221E9, 0.0, 2023-09-22 15:26:40.213
184.0, -5919.054856187685, -12740.539043013936, 23722.442832284312, 41758.42306118287, -33313.39756410093, -16061.874158605833, 95581.84839270692, -13200.895571815441, 9187.304578698227, -11973.382469818887, -21001.25205531741, 31616.676642498573, -9486.72854742152, -7155.5086559663605, -1650.4081070909629, 49059.50862878664, -0.01, 0.996, 0.162, 192.0, 0.0, 0.0, 0.0, 0.0, 0.0, 0.0, 0.0, 0.0, 0.0, 1.695414400213227E9, 0.0, 2023-09-22 15:26:40.213
186.0, -5916.707923019877, -12738.929717413153, 23752.08124543205, 41762.89341007393, -33306.580282042065, -16054.632193402314, 95595.57236380248, -13194.27945545667, 9187.39398567605, -11969.761487217127, -21001.989662884436, 31548.034435276324, -9488.896666633686, -7159.688432179503, -1653.5149995702507, 49005.46211069371, -0.01, 0.996, 0.162, 192.0, 0.0, 0.0, 0.0, 0.0, 0.0, 0.0, 0.0, 0.0, 0.0, 1.695414400213232E9, 0.0, 2023-09-22 15:26:40.213
188.0, -5920.17244341045, -12739.354400557804, 23718.955960149284, 41745.34729067651, -33308.56958729858, -16056.040353302998, 95571.63364549085, -13196.335815946559, 9183.8177065632, -11969.672080239307, -20997.63107271565, 31605.16549410409, -9487.130878821717, -7160.113115324154, -1645.2672058662422, 49045.874064668904, -0.01, 0.996, 0.162, 192.0, 0.0, 0.0, 0.0, 0.0, 0.0, 0.0, 0.0, 0.0, 0.0, 1.695414400213237E9, 0.0, 2023-09-22 15:26:40.213
190.0, -5923.391094612014, -12747.42338030617, 23748.169690152372, 41747.761279077684, -33309.19543614333, -16048.55251891047, 95587.54808754302, -13188.289187942648, 9182.588360618158, -11968.554493016542, -20996.804058170805, 31539.272551449845, -9489.097832333784, -7154.614586188149, -1648.7093745123595, 48991.93930529825, -0.01, 0.996, 0.162, 192.0, 0.0, 0.0, 0.0, 0.0, 0.0, 0.0, 0.0, 0.0, 0.0, 1.695414400213242E9, 0.0, 2023-09-22 15:26:40.213
192.0, -5916.842033486609, -12742.148368614718, 23721.21348633927, 41751.42696516836, -33306.80379948662, -16045.713847364646, 95582.7648142296, -13195.37469093498, 9181.113145484107, -11971.996661662659, -20994.412421514087, 31624.231532124464, -9491.914152135152, -7159.397859501584, -1648.4635053233512, 49062.4814107992, -0.01, 0.992, 0.156, 192.0, 127.5, 88.0, 15.5, 0.0, 2.0, 112.0, 0.0, 0.0, 0.0, 1.695414400213247E9, 0.0, 2023-09-22 15:26:40.213
194.0, -5922.675838789444, -12745.970516916575, 23744.191079639328, 41725.07425845555, -33313.33050886756, -16044.730370608613, 95566.49274426613, -13188.870333298486, 9190.567933388702, -11961.290176068565, -20984.82352314276, 31544.52521139684, -9488.986073611508, -7151.865321620146, -1653.8949792259907, 48977.67889233576, -0.01, 0.992, 0.156, 192.0, 0.0, 0.0, 0.0, 0.0, 0.0, 0.0, 0.0, 0.0, 0.0, 1.695414400273509E9, 0.0, 2023-09-22 15:26:40.273
196.0, -5922.74289402281, -12745.411723305193, 23756.283373389648, 41753.79625008062, -33315.92331122438, -16042.025809529521, 95589.82796547747, -13193.586551378556, 9181.359014673117, -11965.022917392602, -20991.417287757075, 31632.859305484213, -9500.02783537243, -7155.218083288441, -1657.627720550027, 49045.56114024653, -0.01, 0.992, 0.156, 192.0, 0.0, 0.0, 0.0, 0.0, 0.0, 0.0, 0.0, 0.0, 0.0, 1.695414400273526E9, 0.0, 2023-09-22 15:26:40.273
198.0, -5917.065550931162, -12739.28734532444, 23752.148300665416, 41723.934319488326, -33307.02731693117, -16027.161899466742, 95565.91159891029, -13177.873275026473, 9183.750651329834, -11949.711972440717, -20983.169494053065, 31572.464891965974, -9495.199858570082, -7146.635013417604, -1657.7171275278483, 48986.396072673335, -0.01, 0.992, 0.156, 192.0, 0.0, 0.0, 0.0, 0.0, 0.0, 0.0, 0.0, 0.0, 0.0, 1.695414400273532E9, 0.0, 2023-09-22 15:26:40.273
200.0, -5920.798292255198, -12743.288307581939, 23762.13953043694, 41760.09944201702, -33312.12351466698, -16034.850899559367, 95596.2652678806, -13190.613769365998, 9184.689424596956, -11954.070562609502, -20983.191845797523, 31645.15276493463, -9496.02687311493, -7144.712763394447, -1648.217636134343, 49037.73802968717, -0.01, 0.992, 0.156, 192.0, 0.0, 0.0, 0.0, 0.0, 0.0, 0.0, 0.0, 0.0, 0.0, 1.695414400273538E9, 0.0, 2023-09-22 15:26:40.273
202.0, -5930.8789290045415, -12757.615775777791, 23751.83537624304, 41728.67288931285, -33320.03603220416, -16040.46118741765, 95577.9591891717, -13189.071498998583, 9172.373613402082, -11959.45733302323, -20990.567921467773, 31590.413342763586, -9501.659512717666, -7155.08397282171, -1661.3604618740633, 48984.429119161265, -0.006, 0.998, 0.156, 192.0, 127.5, 104.0, 15.5, 24.0, 2.0, 112.0, 0.0, 0.0, 0.0, 1.695414400273543E9, 0.0, 2023-09-22 15:26:40.273
204.0, -5926.3638766245695, -12750.485569296548, 23770.56613809659, 41788.12852956397, -33315.11864842399, -16032.481614647106, 95642.75689634764, -13186.411641408402, 9179.794392561245, -11959.323222556499, -20993.2054273135, 31659.36847440821, -9505.280495319426, -7155.016917588344, -1653.6491100369824, 49049.740916459676, -0.006, 0.998, 0.156, 192.0, 0.0, 0.0, 0.0, 0.0, 0.0, 0.0, 0.0, 0.0, 0.0, 1.695414400273549E9, 0.0, 2023-09-22 15:26:40.273
206.0, -5929.359010381581, -12752.85485420881, 23728.254285842693, 41723.82256076605, -33316.05742169111, -16032.906297791757, 95585.46937530869, -13186.65751059741, 9179.168543716496, -11953.422362020297, -20987.729249921947, 31605.54547375983, -9501.435995273114, -7151.5747489422265, -1662.3439386300968, 48998.68953212375, -0.006, 0.998, 0.156, 192.0, 0.0, 0.0, 0.0, 0.0, 0.0, 0.0, 0.0, 0.0, 0.0, 1.695414400273554E9, 0.0, 2023-09-22 15:26:40.273
208.0, -5925.760379524277, -12754.106551898307, 23760.396094369426, 41776.84089861404, -33317.01854670269, -16038.047199016477, 95642.28750971408, -13192.401908922424, 9176.106354726118, -11954.897577154348, -20989.003299355903, 31639.341311376254, -9506.442786031103, -7157.542664711794, -1654.4537728373734, 49027.90326212684, -0.006, 0.998, 0.156, 192.0, 0.0, 0.0, 0.0, 0.0, 0.0, 0.0, 0.0, 0.0, 0.0, 1.695414400273559E9, 0.0, 2023-09-22 15:26:40.273
210.0, -5915.053893930184, -12737.387447045738, 23715.580846736535, 41687.94801091529, -33309.59776754353, -16027.296009933474, 95552.18762781474, -13182.56714136209, 9183.750651329834, -11936.636201934363, -20975.234624771434, 31586.2559182949, -9493.411719013659, -7144.55630118326, -1660.0417089512002, 48971.55451435501, -0.006, 0.998, 0.156, 192.0, 0.0, 0.0, 0.0, 0.0, 0.0, 0.0, 0.0, 0.0, 0.0, 1.695414400332812E9, 0.0, 2023-09-22 15:26:40.332
212.0, -5927.101484191595, -12747.043400650431, 23768.621536328978, 41751.896351801915, -33315.40922110191, -16033.97918152561, 95622.9756025047, -13195.464097912802, 9178.810915805212, -11943.051152593036, -20983.48241847544, 31617.570712276785, -9501.994788884496, -7156.961519355956, -1651.6374530360047, 48997.97427630118, -0.002, 1.004, 0.152, 192.0, 127.5, 120.0, 15.5, 48.0, 2.0, 96.0, 0.0, 0.0, 0.0, 1.695414400332827E9, 0.0, 2023-09-22 15:26:40.332
214.0, -5928.733161536832, -12753.637165264747, 23708.987082122218, 41679.72256895573, -33321.55595082712, -16036.192004226687, 95549.32660452445, -13197.520458402689, 9172.48537212436, -11949.08612359597, -20981.761334152383, 31585.898290383615, -9497.904419649174, -7159.621376946137, -1662.0980694410885, 48962.144429939326, -0.002, 1.004, 0.152, 192.0, 0.0, 0.0, 0.0, 0.0, 0.0, 0.0, 0.0, 0.0, 0.0, 1.695414400332833E9, 0.0, 2023-09-22 15:26:40.332
216.0, -5925.469806846358, -12750.016182662986, 23759.814949013587, 41749.81763956758, -33318.40435485892, -16026.670161088725, 95630.48578864167, -13189.451478654324, 9173.558255858214, -11945.643954949852, -20986.2540347879, 31607.1100958717, -9503.35824529627, -7161.968310113944, -1661.7851450187143, 48988.40772967431, -0.002, 1.004, 0.152, 192.0, 0.0, 0.0, 0.0, 0.0, 0.0, 0.0, 0.0, 0.0, 0.0, 1.695414400332839E9, 0.0, 2023-09-22 15:26:40.332
218.0, -5923.994591712308, -12744.696467482623, 23683.014355065152, 41666.95972287175, -33316.66091879141, -16020.299913918963, 95549.17014231326, -13188.959740276307, 9180.353186172628, -11933.93164085527, -20977.939185850526, 31618.934168688556, -9495.40102427018, -7152.312356509252, -1667.9765782328343, 48984.96556102819, -0.002, 1.004, 0.152, 192.0, 0.0, 0.0, 0.0, 0.0, 0.0, 0.0, 0.0, 0.0, 0.0, 1.695414400332844E9, 0.0, 2023-09-22 15:26:40.332
220.0, -5928.330830136637, -12748.719781484579, 23740.25717261519, 41718.63695605242, -33316.52680832468, -16019.718768563125, 95614.03490472256, -13188.266836198192, 9176.732203570868, -11936.345629256444, -20979.235587028932, 31600.11399985719, -9492.11531783525, -7156.827408889224, -1664.0873746976108, 48957.47291534817, -0.002, 1.004, 0.152, 192.0, 0.0, 0.0, 0.0, 0.0, 0.0, 0.0, 0.0, 0.0, 0.0, 1.69541440033285E9, 0.0, 2023-09-22 15:26:40.332
222.0, -5925.089827190617, -12746.506958783504, 23680.44390445279, 41649.14538254087, -33314.93983446835, -16018.422367384717, 95539.42478173075, -13195.195876979336, 9175.949892514933, -11927.539041941052, -20975.569900938262, 31626.176133892077, -9485.409794498659, -7156.089801322199, -1671.8657817680578, 48958.47874384865, -0.004, 1.004, 0.156, 192.0, 127.5, 112.0, 15.5, 48.0, 2.0, 112.0, 0.0, 0.0, 0.0, 1.695414400332855E9, 0.0, 2023-09-22 15:26:40.332
224.0, -5921.222975399849, -12743.578880259858, 23758.093864690527, 41702.07431341104, -33312.27997687816, -16007.648826557259, 95606.23414590767, -13185.294054185637, 9184.53296238577, -11919.179489514767, -20967.76914212336, 31600.091648112735, -9478.54780895088, -7152.066487320243, -1665.920217742946, 48930.53906327952, -0.004, 1.004, 0.156, 192.0, 0.0, 0.0, 0.0, 0.0, 0.0, 0.0, 0.0, 0.0, 0.0, 1.695414400392727E9, 0.0, 2023-09-22 15:26:40.392
226.0, -5919.971277710352, -12743.064790137387, 23723.78393695163, 41664.14340307038, -33310.424782088376, -16007.581771323894, 95556.63562496133, -13190.99374902174, 9188.399814176539, -11921.794643616038, -20964.215214754968, 31649.64546557015, -9469.428297213113, -7153.429943732017, -1668.0659852106555, 48967.95588349771, -0.004, 1.004, 0.156, 192.0, 0.0, 0.0, 0.0, 0.0, 0.0, 0.0, 0.0, 0.0, 0.0, 1.695414400392742E9, 0.0, 2023-09-22 15:26:40.392
228.0, -5922.7205422783545, -12745.054095393909, 23783.88777779195, 41710.32210711505, -33311.609424544506, -16006.039500956476, 95611.64326806585, -13186.478696641767, 9188.53392464327, -11909.903515565815, -20959.81192109727, 31605.72428771547, -9461.426372698113, -7151.373583242129, -1669.9658834893567, 48929.421476056756, -0.004, 1.004, 0.156, 192.0, 0.0, 0.0, 0.0, 0.0, 0.0, 0.0, 0.0, 0.0, 0.0, 1.695414400392747E9, 0.0, 2023-09-22 15:26:40.392
230.0, -5920.842995744109, -12738.728551713057, 23728.678968987344, 41659.15896405685, -33308.23431113175, -16003.44669859966, 95556.18859007223, -13193.363033934002, 9189.7185670994, -11915.178527257267, -20957.464987929463, 31665.60461111124, -9457.738334862988, -7157.185036800509, -1673.7209765578482, 48975.3096074235, -0.004, 1.004, 0.156, 192.0, 0.0, 0.0, 0.0, 0.0, 0.0, 0.0, 0.0, 0.0, 0.0, 1.695414400392754E9, 0.0, 2023-09-22 15:26:40.392
232.0, -5925.961545224374, -12749.457389051604, 23785.69826909283, 41690.160833616355, -33314.15752341241, -16001.971483465612, 95604.53541332907, -13190.502010643722, 9190.590285133158, -11911.646951633329, -20951.80999658227, 31595.286023054843, -9451.01045978194, -7156.17920830002, -1669.697662555893, 48912.009467126074, -0.008, 1.006, 0.156, 192.0, 127.5, 96.0, 15.5, 56.0, 2.0, 112.0, 0.0, 0.0, 0.0, 1.695414400392759E9, 0.0, 2023-09-22 15:26:40.392
234.0, -5918.406655598481, -12740.896670925222, 23754.808158255597, 41663.96458911474, -33305.39563958593, -15992.06966067191, 95566.24687507712, -13191.597246122034, 9193.227790978885, -11914.575030156975, -20947.42905466903, 31658.94379126356, -9448.44000916958, -7155.709821666458, -1672.2457614237978, 48962.8596857619, -0.008, 1.006, 0.156, 192.0, 0.0, 0.0, 0.0, 0.0, 0.0, 0.0, 0.0, 0.0, 0.0, 1.695414400392764E9, 0.0, 2023-09-22 15:26:40.392
236.0, -5928.8225685146535, -12748.786836717945, 23799.91397856641, 41680.48252826721, -33309.709526265804, -15997.434079341183, 95592.9125062123, -13189.339719932046, 9197.921657314499, -11909.903515565815, -20942.779891822327, 31577.78460714634, -9442.069761999817, -7148.870187863135, -1667.1272119435325, 48896.05032158498, -0.008, 1.006, 0.156, 192.0, 0.0, 0.0, 0.0, 0.0, 0.0, 0.0, 0.0, 0.0, 0.0, 1.695414400392769E9, 0.0, 2023-09-22 15:26:40.392
238.0, -5924.262812645771, -12745.076447138365, 23771.035524730152, 41675.00635087566, -33307.407296586905, -15995.176553151197, 95580.55199152851, -13195.03941476815, 9196.91582881401, -11920.542945926542, -20947.876089558136, 31645.957427735026, -9448.507064402946, -7158.772010656836, -1672.7374998018147, 48949.96272921118, -0.008, 1.006, 0.156, 192.0, 0.0, 0.0, 0.0, 0.0, 0.0, 0.0, 0.0, 0.0, 0.0, 1.695414400392774E9, 0.0, 2023-09-22 15:26:40.392
240.0, -5926.788559769221, -12744.04826689342, 23776.601109099523, 41658.82368789002, -33310.46948557728, -15991.488515316072, 95572.39360480233, -13194.011234523206, 9203.867221339611, -11910.574067899475, -20941.483490643917, 31545.933371297524, -9444.81902656782, -7155.486304221905, -1675.5091161142727, 48862.74622234658, -0.008, 1.006, 0.156, 192.0, 0.0, 0.0, 0.0, 0.0, 0.0, 0.0, 0.0, 0.0, 0.0, 1.695414400453909E9, 0.0, 2023-09-22 15:26:40.453
242.0, -5925.223937657349, -12742.99773490402, 23759.74789378022, 41686.025760892124, -33306.848502975525, -15992.203771138642, 95586.09522415344, -13196.358167691013, 9195.954703802432, -11918.821861603483, -20940.209441209965, 31606.9089301716, -9448.81998882532, -7157.3862025006065, -1668.468316610851, 48915.697504961194, -0.006, 1.004, 0.158, 192.0, 127.5, 104.0, 15.5, 48.0, 2.0, 120.0, 0.0, 0.0, 0.0, 1.695414400453922E9, 0.0, 2023-09-22 15:26:40.453
244.0, -5926.296821391204, -12747.870415195277, 23768.398018884425, 41680.929563156315, -33308.949566954325, -15993.343710105863, 95581.557820029, -13197.051071769129, 9200.179183504484, -11916.094948779935, -20936.275534185832, 31542.267685206854, -9447.568291135824, -7156.961519355956, -1676.179668447932, 48869.04941428297, -0.006, 1.004, 0.158, 192.0, 0.0, 0.0, 0.0, 0.0, 0.0, 0.0, 0.0, 0.0, 0.0, 1.695414400453927E9, 0.0, 2023-09-22 15:26:40.453
246.0, -5929.716638292866, -12750.753790230012, 23781.965527768796, 41732.69620331481, -33314.71631702379, -16000.831544498391, 95624.62963159438, -13205.254161984225, 9200.53681141577, -11918.754806370116, -20936.09672023019, 31602.080953369255, -9453.469151672025, -7157.877940878623, -1674.1903631914097, 48927.745095222606, -0.006, 1.004, 0.158, 192.0, 0.0, 0.0, 0.0, 0.0, 0.0, 0.0, 0.0, 0.0, 0.0, 1.695414400453933E9, 0.0, 2023-09-22 15:26:40.453
248.0, -5930.610708071078, -12749.658554751702, 23762.497158348222, 41704.53300530112, -33314.24693039023, -16000.295102631462, 95600.64620979383, -13206.863487585008, 9192.512535156315, -11921.369960471387, -20935.984961507915, 31544.368749185654, -9459.571177908323, -7161.722440924936, -1682.885191784524, 48893.21165003916, -0.006, 1.004, 0.158, 192.0, 0.0, 0.0, 0.0, 0.0, 0.0, 0.0, 0.0, 0.0, 0.0, 1.695414400453939E9, 0.0, 2023-09-22 15:26:40.453
250.0, -5927.861443503076, -12740.114359869285, 23792.984937785262, 41744.81084880958, -33312.07881117807, -15996.16002990723, 95639.33707944598, -13206.774080607187, 9197.63108463658, -11913.770367356583, -20930.262914927356, 31590.43569450804, -9458.654756385655, -7154.458123976961, -1671.2846364122197, 48936.23875811562, -0.006, 1.004, 0.158, 192.0, 0.0, 0.0, 0.0, 0.0, 0.0, 0.0, 0.0, 0.0, 0.0, 1.695414400453945E9, 0.0, 2023-09-22 15:26:40.453
252.0, -5930.498949348802, -12741.8577959368, 23766.006382227708, 41691.61369700595, -33310.983575699756, -15993.343710105863, 95587.03399742056, -13206.148231762438, 9194.300674712738, -11914.105643523413, -20927.24542942589, 31535.651568848083, -9458.364183707738, -7154.525179210327, -1680.3594446610743, 48887.06492031395, -0.006, 1.004, 0.158, 192.0, 0.0, 0.0, 15.5, 48.0, 2.5, 24.0, 0.0, 0.0, 0.0, 1.695414400453951E9, 0.0, 2023-09-22 15:26:40.453
