%OpenBCI Raw EXG Data
%Number of channels = 16
%Sample Rate = 125 Hz
%Board = OpenBCI_GUI$BoardCytonSerialDaisy
Sample Index, EXG Channel 0, EXG Channel 1, EXG Channel 2, EXG Channel 3, EXG Channel 4, EXG Channel 5, EXG Channel 6, EXG Channel 7, EXG Channel 8, EXG Channel 9, EXG Channel 10, EXG Channel 11, EXG Channel 12, EXG Channel 13, EXG Channel 14, EXG Channel 15, Accel Channel 0, Accel Channel 1, Accel Channel 2, Other, Other, Other, Other, Other, Other, Other, Analog Channel 0, Analog Channel 1, Analog Channel 2, Timestamp, Other, Timestamp (Formatted)
0.0, -5971.179124257461, -12529.583278844748, 20627.75440546923, 40688.46740585177, -33328.46263986381, -19580.284605060173, 95076.72131976145, -12944.364600701881, 0.0, 0.0, 0.0, 0.0, 0.0, 0.0, 0.0, 0.0, 0.0, 0.0, 0.0, 192.0, 0.0, 0.0, 0.0, 0.0, 0.0, 0.0, 0.0, 0.0, 0.0, 1.695414382868041E9, 0.0, 2023-09-22 15:26:22.868
254.0, -5965.188856743438, -12528.756264299902, 20576.30068973311, 40600.93797456479, -33322.718241538794, -19573.802599168135, 94987.40374891803, -12937.03322852054, 8395.225810435511, -13886.244760304065, -21997.44695394599, 30991.855977994917, -9732.418922474257, -8002.505660355767, -6154.4634287909785, 50001.344084899916, 0.0, 0.0, 0.0, 192.0, 0.0, 0.0, 0.0, 0.0, 0.0, 0.0, 0.0, 0.0, 0.0, 1.695414382868051E9, 0.0, 2023-09-22 15:26:22.868
0.0, -5965.680595121455, -12538.032238248854, 20630.41426305941, 40658.00197815919, -33328.93202649737, -19574.16022707942, 95043.6854414565, -12939.916603555275, 8394.912886013137, -13886.960016126635, -21999.570369669244, 31003.32242290049, -9731.16722478476, -8002.2374394223025, -6127.373114511146, 50007.37905590285, -0.062, 0.998, 0.164, 192.0, 127.0, 8.0, 15.5, 24.0, 2.5, 16.0, 0.0, 0.0, 0.0, 1.695414382868056E9, 0.0, 2023-09-22 15:26:22.868
2.0, -5966.731127110855, -12533.941869013534, 20563.2025674823, 40588.55510813655, -33326.20511367382, -19572.01445961171, 94969.63411207606, -12941.03419077804, 8393.460022623542, -13887.65292020475, -22001.78319237032, 30989.84432099394, -9729.110864294871, -8001.499831855278, -6119.997038840895, 49988.044796949005, -0.062, 0.998, 0.164, 192.0, 0.0, 0.0, 0.0, 0.0, 0.0, 0.0, 0.0, 0.0, 0.0, 1.695414382868059E9, 0.0, 2023-09-22 15:26:22.868
4.0, -5979.292807494737, -12546.570604630782, 20626.145079868445, 40668.55200154209, -33334.20703818882, -19586.9230731634, 95059.24225559739, -12952.858263594899, 8387.849734765261, -13889.150487083256, -22010.522724452345, 31004.372954889892, -9736.129312053838, -8007.624209836032, -6096.773576351831, 49992.71631154017, -0.062, 0.998, 0.164, 192.0, 0.0, 0.0, 0.0, 0.0, 0.0, 0.0, 0.0, 0.0, 0.0, 1.695414382868064E9, 0.0, 2023-09-22 15:26:22.868
6.0, -5968.251045733816, -12532.041970734832, 20562.80023608211, 40608.805788613055, -33326.02629971818, -19578.474113759294, 94992.65640886503, -12948.186749003738, 8391.940104000581, -13894.581960985895, -22009.047509318294, 31018.23103645218, -9733.178881785738, -8009.635866837009, -6093.689035616999, 50000.494718610615, -0.062, 0.998, 0.164, 192.0, 0.0, 0.0, 0.0, 0.0, 0.0, 0.0, 0.0, 0.0, 0.0, 1.695414382868067E9, 0.0, 2023-09-22 15:26:22.868
8.0, -5977.929351082963, -12547.688191853547, 20635.17518462839, 40699.24094667923, -33335.05640447812, -19583.056221372633, 95092.5463548358, -12950.868958338377, 8392.431842378599, -13892.145620840267, -22011.819125630755, 31016.37584166239, -9733.447102719201, -8007.557154602666, -6066.129334703605, 50001.99228548912, -0.062, 0.998, 0.164, 192.0, 0.0, 0.0, 0.0, 0.0, 0.0, 0.0, 0.0, 0.0, 0.0, 1.695414382868071E9, 0.0, 2023-09-22 15:26:22.868
10.0, -5975.090679537139, -12548.135226742654, 20565.08011401655, 40639.785306428115, -33333.067099221604, -19579.83757017107, 95023.99355459138, -12958.312089241994, 8387.357996387243, -13893.46437376313, -22015.663625677065, 31049.34466473397, -9737.157492298782, -8007.467747624844, -6071.337291161692, 50032.70358237071, -0.056, 1.0, 0.166, 192.0, 127.0, 32.0, 15.5, 32.0, 2.5, 24.0, 0.0, 0.0, 0.0, 1.695414382868075E9, 0.0, 2023-09-22 15:26:22.868
12.0, -5978.823420861176, -12547.710543598003, 20622.03235888867, 40702.23608043624, -33336.017529489705, -19576.753029436237, 95095.98852348191, -12956.747467130122, 8392.431842378599, -13892.123269095811, -22016.848268133195, 31007.74806830264, -9736.5986986874, -8005.590201090598, -6049.5666920622225, 50002.461672122685, -0.056, 1.0, 0.166, 192.0, 0.0, 0.0, 0.0, 0.0, 0.0, 0.0, 0.0, 0.0, 0.0, 1.695414382868078E9, 0.0, 2023-09-22 15:26:22.868
0.0, -3022.469940479987, -6346.509617150977, 10216.289486442744, 20720.603551936576, -16659.716267551932, -9475.239750771494, 47486.906944144604, -6472.484048901088, 4198.0375883624065, -6936.506263793262, -11004.769623848155, 15496.039747719735, -4865.997119664803, -3995.419024875048, -3017.7760741443726, 24993.743001668812, -0.058, 0.994, 0.178, 192.0, 127.0, 24.0, 15.5, 8.0, 2.5, 72.0, 0.0, 0.0, 0.0, 1.695414383009614E9, 0.0, 2023-09-22 15:26:23.009
2.0, -6041.028325680295, -12689.241789489006, 20384.813294984495, 41421.26934781901, -33311.09533442203, -18952.714675988518, 94940.26391986178, -12951.785379861043, 8722.075369605467, -13426.357618136122, -22119.55453390533, 31288.083647261104, -9675.891360746786, -7865.824743011563, -111.33403913188448, 48009.53543299859, -0.058, 0.994, 0.178, 192.0, 0.0, 0.0, 0.0, 0.0, 0.0, 0.0, 0.0, 0.0, 0.0, 1.695414383009633E9, 0.0, 2023-09-22 15:26:23.009
4.0, -6039.731924501887, -12688.191257499608, 20360.248727828115, 41353.901190030716, -33305.57445354157, -18946.903222430137, 94868.47011667135, -12942.151778000805, 8731.39604704333, -13425.240030913357, -22113.787783835865, 31196.061515338602, -9667.665918787232, -7863.723679032765, -119.13479794678665, 47917.46859758718, -0.058, 0.994, 0.178, 192.0, 0.0, 0.0, 0.0, 0.0, 0.0, 0.0, 0.0, 0.0, 0.0, 1.695414383009637E9, 0.0, 2023-09-22 15:26:23.009
6.0, -6045.00693619334, -12692.907475579677, 20382.622824027876, 41413.4238855152, -33313.68813677885, -18954.301649844845, 94914.80528292719, -12950.243109493627, 8721.494224249629, -13431.073836216192, -22118.70516761603, 31261.127443448004, -9675.421974113224, -7867.612882567988, -117.12314094580901, 47961.814458586516, -0.058, 0.994, 0.178, 192.0, 0.0, 0.0, 0.0, 0.0, 0.0, 0.0, 0.0, 0.0, 0.0, 1.69541438300964E9, 0.0, 2023-09-22 15:26:23.009
8.0, -6050.751334518353, -12699.814164616368, 20355.241937070125, 41367.602809381824, -33320.10308743752, -18957.90028070215, 94868.53717190471, -12949.952536815708, 8724.82463417347, -13428.61514432611, -22119.12985076068, 31207.349146288532, -9676.651320058265, -7866.294129645125, -125.70621081664692, 47913.33352486295, -0.064, 0.998, 0.17400000000000002, 192.0, 127.0, 0.0, 15.5, 24.0, 2.5, 56.0, 0.0, 0.0, 0.0, 1.695414383009644E9, 0.0, 2023-09-22 15:26:23.009
10.0, -6049.5666920622225, -12697.489583193015, 20375.49261754663, 41427.304318821945, -33322.13709618296, -18956.335658590277, 94921.73432370834, -12953.886443839841, 8713.648761945817, -13438.360504908624, -22128.38347296518, 31268.61527784053, -9684.809706784452, -7872.373804136969, -126.01913523902122, 47967.06711853351, -0.064, 0.998, 0.17400000000000002, 192.0, 0.0, 0.0, 0.0, 0.0, 0.0, 0.0, 0.0, 0.0, 0.0, 1.695414383009647E9, 0.0, 2023-09-22 15:26:23.009
12.0, -6042.458837325435, -12689.219437744552, 20345.54127997652, 41370.6649983722, -33325.243988662245, -18952.915841688617, 94858.70240434438, -12945.951574558208, 8722.477701005662, -13429.531565848776, -22119.19690599405, 31215.50753301472, -9679.288825903992, -7863.455458099301, -134.4680946431273, 47916.23925164214, -0.064, 0.998, 0.17400000000000002, 192.0, 0.0, 0.0, 0.0, 0.0, 0.0, 0.0, 0.0, 0.0, 0.0, 1.695414383009651E9, 0.0, 2023-09-22 15:26:23.009
14.0, -6038.05554366774, -12682.111583007763, 20394.357489866914, 41455.06518543544, -33326.04865146263, -18950.993591665458, 94946.50005656482, -12949.729019371156, 8719.616677715383, -13430.447987371444, -22125.14247001916, 31274.56084186564, -9688.542448108488, -7867.0540889566055, -132.72465857561335, 47980.679330906794, -0.064, 0.998, 0.17400000000000002, 192.0, 0.0, 0.0, 0.0, 0.0, 0.0, 0.0, 0.0, 0.0, 0.0, 1.695414383009654E9, 0.0, 2023-09-22 15:26:23.009
16.0, -6034.009877921329, -12677.820048072344, 20332.510212959078, 41362.03722501245, -33321.041860704645, -18946.143263118658, 94846.27483442723, -12945.45983618019, 8733.318297066486, -13418.601562810132, -22113.13958324666, 31230.103222144036, -9678.372404381324, -7853.911263216885, -141.1065627463535, 47934.36651639539, -0.064, 0.998, 0.17400000000000002, 192.0, 0.0, 0.0, 0.0, 0.0, 0.0, 0.0, 0.0, 0.0, 0.0, 1.695414383069918E9, 0.0, 2023-09-22 15:26:23.069
18.0, -6052.405363608046, -12700.46236520557, 20391.69763227673, 41409.981716869086, -33333.08945096606, -18967.913862218127, 94901.23777404282, -12960.144932287329, 8722.120073094376, -13432.929031005982, -22126.103595030738, 31233.27716985669, -9685.524962607022, -7870.876237258463, -138.0443737559764, 47930.79023728255, -0.068, 0.996, 0.178, 192.0, 126.5, 112.0, 15.5, 16.0, 2.5, 72.0, 0.0, 0.0, 0.0, 1.695414383069931E9, 0.0, 2023-09-22 15:26:23.069
20.0, -6054.059392697739, -12700.37295822775, 20343.328457275446, 41333.11406768728, -33330.9660352428, -18965.298708116854, 94817.3740288465, -12957.574481674968, 8711.704160178204, -13443.143778222058, -22134.61960966821, 31212.93708240236, -9693.6386458443, -7882.789717053141, -155.97047280913267, 47905.599821281416, -0.068, 0.996, 0.178, 192.0, 0.0, 0.0, 0.0, 0.0, 0.0, 0.0, 0.0, 0.0, 0.0, 1.695414383069935E9, 0.0, 2023-09-22 15:26:23.069
22.0, -6056.562788076733, -12704.016292573964, 20413.71410056521, 41399.61050744182, -33335.41403238941, -18963.443513327064, 94892.16296579396, -12953.37235371737, 8710.363055510887, -13448.66465910252, -22138.128833547693, 31222.235408095767, -9699.852430802874, -7885.494278132234, -146.13570524879756, 47910.986591695146, -0.068, 0.996, 0.178, 192.0, 0.0, 0.0, 0.0, 0.0, 0.0, 0.0, 0.0, 0.0, 0.0, 1.695414383069939E9, 0.0, 2023-09-22 15:26:23.069
24.0, -6051.5783490632, -12697.199010515096, 20353.967887636172, 41334.92455898816, -33330.54135209815, -18959.12962664719, 94819.74331375878, -12947.471493181169, 8711.43593924474, -13448.41878991351, -22133.5243741899, 31236.2723036137, -9697.907829035263, -7882.230923441759, -158.45151644367178, 47918.34031562094, -0.068, 0.996, 0.178, 192.0, 0.0, 0.0, 0.0, 0.0, 0.0, 0.0, 0.0, 0.0, 0.0, 1.695414383069943E9, 0.0, 2023-09-22 15:26:23.069
26.0, -6056.406325865546, -12705.871487363755, 20417.64800758934, 41397.84471962985, -33333.24591317724, -18961.588318537273, 94890.4418814709, -12947.806769347999, 8716.889764891836, -13449.022287013804, -22131.602124166744, 31224.872913941494, -9696.767890068042, -7883.236751942248, -146.98507153809925, 47906.96327769319, -0.068, 0.996, 0.178, 192.0, 0.0, 0.0, 0.0, 0.0, 0.0, 0.0, 0.0, 0.0, 0.0, 1.695414383069947E9, 0.0, 2023-09-22 15:26:23.069
28.0, -6056.406325865546, -12706.005597830486, 20355.040771370026, 41359.355015677815, -33329.11084045301, -18959.733123747483, 94840.82100878013, -12948.142045514829, 8711.145366566821, -13455.727810350396, -22135.37956897969, 31262.870879515518, -9702.087605248405, -7889.428185156368, -158.29505423248463, 47940.64735658734, -0.068, 0.992, 0.178, 192.0, 126.5, 112.0, 15.5, 0.0, 2.5, 72.0, 0.0, 0.0, 0.0, 1.695414383069951E9, 0.0, 2023-09-22 15:26:23.069
30.0, -6058.10505844415, -12711.794699644412, 20391.60822529891, 41398.31410626342, -33327.23329391877, -18956.156844634635, 94894.37578849505, -12946.130388513851, 8713.58170671245, -13458.857054574139, -22133.032635811884, 31234.08183265708, -9697.505497635068, -7887.662397344398, -151.34366170688412, 47914.65227778581, -0.068, 0.992, 0.178, 192.0, 0.0, 0.0, 0.0, 0.0, 0.0, 0.0, 0.0, 0.0, 0.0, 1.695414383129305E9, 0.0, 2023-09-22 15:26:23.129
32.0, -6056.048697954261, -12714.543964212415, 20338.54518396201, 41367.111071003805, -33327.054479963124, -18955.62040276771, 94850.90164552948, -12948.164397259283, 8708.731378165648, -13464.199121498958, -22137.547688191855, 31265.3295714056, -9698.377215668825, -7894.412624169901, -154.7411268640908, 47933.18187393926, -0.068, 0.992, 0.178, 192.0, 0.0, 0.0, 0.0, 0.0, 0.0, 0.0, 0.0, 0.0, 0.0, 1.695414383129318E9, 0.0, 2023-09-22 15:26:23.129
34.0, -6057.121581688116, -12712.308789766883, 20398.157286424313, 41405.712533678125, -33326.45098286283, -18950.121873631702, 94903.33883802162, -12941.011839033585, 8724.48935800664, -13459.460551674432, -22132.116214289217, 31226.862219198018, -9692.029320243517, -7889.1823159673595, -149.30965296145118, 47909.73489400565, -0.068, 0.992, 0.178, 192.0, 0.0, 0.0, 0.0, 0.0, 0.0, 0.0, 0.0, 0.0, 0.0, 1.695414383129321E9, 0.0, 2023-09-22 15:26:23.129
36.0, -6052.248901396859, -12701.08821405032, 20339.148681062303, 41359.60088486682, -33316.504456580216, -18943.014018894915, 94841.75978204726, -12937.994353532118, 8711.324180522464, -13462.701554620453, -22135.021941068404, 31277.71243783384, -9694.86799178934, -7887.416528155391, -157.82566759892316, 47955.511266650115, -0.068, 0.992, 0.178, 192.0, 0.0, 0.0, 0.0, 0.0, 0.0, 0.0, 0.0, 0.0, 0.0, 1.695414383129324E9, 0.0, 2023-09-22 15:26:23.129
38.0, -6061.882503257097, -12711.459423477581, 20410.09311796345, 41414.40736227124, -33326.5180380962, -18950.188928865067, 94909.19499506892, -12935.870937808864, 8717.91794513678, -13452.084476004182, -22127.310589231325, 31213.674689969386, -9688.67655857522, -7877.246484428226, -144.50402790356017, 47905.666876514784, -0.064, 0.984, 0.184, 192.0, 127.0, 0.0, 15.0, 96.0, 2.5, 96.0, 0.0, 0.0, 0.0, 1.695414383129328E9, 0.0, 2023-09-22 15:26:23.129
40.0, -6061.837799768186, -12710.677112421647, 20359.846396427918, 41401.800978398445, -33325.35574738452, -18949.540728275864, 94882.08232904463, -12945.683353624745, 8708.217288043177, -13465.406115699545, -22138.754682392442, 31294.05156303067, -9697.505497635068, -7889.785813067653, -157.5797984099148, 47988.435386232784, -0.064, 0.984, 0.184, 192.0, 0.0, 0.0, 0.0, 0.0, 0.0, 0.0, 0.0, 0.0, 0.0, 1.695414383129331E9, 0.0, 2023-09-22 15:26:23.129
42.0, -6059.982604978395, -12707.816089131367, 20372.542187278534, 41398.29175451896, -33323.902883994924, -18944.198661351045, 94888.67609365894, -12939.491920410625, 8713.29113403453, -13459.907586563539, -22133.18909802307, 31221.207227850824, -9692.051671987972, -7886.634217099455, -159.5467519219818, 47936.02054548509, -0.064, 0.984, 0.184, 192.0, 0.0, 0.0, 0.0, 0.0, 0.0, 0.0, 0.0, 0.0, 0.0, 1.695414383129334E9, 0.0, 2023-09-22 15:26:23.129
44.0, -6062.5977590796665, -12712.46525197807, 20347.3517712774, 41386.51238519101, -33325.534561340166, -18951.32886783229, 94865.87731431452, -12947.18092050325, 8713.96168636819, -13465.71904012192, -22137.458281214032, 31279.634687856997, -9693.01279699955, -7888.444708400334, -160.12789727781978, 47982.46747046321, -0.064, 0.984, 0.184, 192.0, 0.0, 0.0, 0.0, 0.0, 0.0, 0.0, 0.0, 0.0, 0.0, 1.695414383129337E9, 0.0, 2023-09-22 15:26:23.129
46.0, -6064.587064336189, -12717.784967158434, 20371.22343435567, 41384.92541133468, -33329.4684683643, -18952.51351028842, 94874.92977081893, -12938.486091910136, 8706.585610697939, -13470.815237857729, -22140.743987648963, 31212.64650972444, -9693.705701077664, -7895.03847301465, -162.81010661245665, 47937.741629808144, -0.064, 0.984, 0.184, 192.0, 0.0, 0.0, 0.0, 0.0, 0.0, 0.0, 0.0, 0.0, 0.0, 1.695414383189171E9, 0.0, 2023-09-22 15:26:23.189
48.0, -6065.056450969751, -12718.120243325264, 20367.31187907599, 41393.93316435017, -33331.43542187636, -18957.252080112947, 94875.08623303012, -12946.398609447315, 8718.320276536975, -13478.817162372728, -22145.080226073293, 31287.122522249523, -9694.82328830043, -7900.469946917289, -160.7090426336578, 48006.07091260802, -0.06, 0.986, 0.18, 192.0, 127.0, 16.0, 15.0, 104.0, 2.5, 80.0, 0.0, 0.0, 0.0, 1.695414383189183E9, 0.0, 2023-09-22 15:26:23.189
50.0, -6073.617169096133, -12727.306810296395, 20372.251614600613, 41361.56783837889, -33336.26339867871, -18962.504740059943, 94853.11446823055, -12944.252841979605, 8707.166756053777, -13480.404136229055, -22150.399941253658, 31206.008041621215, -9695.113860978348, -7904.873240574985, -172.95779859516605, 47933.561853595005, -0.06, 0.986, 0.18, 192.0, 0.0, 0.0, 0.0, 0.0, 0.0, 0.0, 0.0, 0.0, 0.0, 1.695414383189187E9, 0.0, 2023-09-22 15:26:23.189
52.0, -6073.237189440392, -12726.703313196102, 20366.574271508965, 41390.69216140416, -33333.20120968833, -18959.867234214216, 94876.06970978616, -12946.130388513851, 8705.57978219745, -13490.060089833749, -22161.218185570026, 31275.790187810682, -9701.01472151455, -7914.350380224036, -169.60503692686999, 47995.073854336006, -0.06, 0.986, 0.18, 192.0, 0.0, 0.0, 0.0, 0.0, 0.0, 0.0, 0.0, 0.0, 0.0, 1.69541438318919E9, 0.0, 2023-09-22 15:26:23.189
54.0, -6072.6336923400995, -12723.149385827708, 20350.21279456768, 41337.94204448963, -33329.35670964202, -18952.960545177528, 94825.68887778389, -12934.015743019074, 8711.413587500285, -13478.481886205898, -22155.026752355905, 31196.553253716622, -9691.96226501015, -7904.5156126637, -172.24254277259624, 47927.124551191875, -0.06, 0.986, 0.18, 192.0, 0.0, 0.0, 0.0, 0.0, 0.0, 0.0, 0.0, 0.0, 0.0, 1.695414383189193E9, 0.0, 2023-09-22 15:26:23.189
56.0, -6078.467497642934, -12729.206708575095, 20361.656887728797, 41368.3627686933, -33331.815401532105, -18954.838091711772, 94847.59358735009, -12939.715437855177, 8707.256163031598, -13482.19227578548, -22158.82654891331, 31242.262571127725, -9691.381119654312, -7904.0909295190495, -167.32515899242867, 47965.65895863283, -0.06, 0.986, 0.18, 192.0, 0.0, 0.0, 0.0, 0.0, 0.0, 0.0, 0.0, 0.0, 0.0, 1.695414383189196E9, 0.0, 2023-09-22 15:26:23.189
58.0, -6076.232323197404, -12724.669304450668, 20325.715282644665, 41315.43383782313, -33328.93202649737, -18950.568908520807, 94793.3235518126, -12938.262574465583, 8702.048206573512, -13485.232113031401, -22164.548595493867, 31195.770942660685, -9688.542448108488, -7909.455348188323, -175.93058060772188, 47925.939908735745, -0.068, 0.994, 0.17400000000000002, 192.0, 126.5, 112.0, 15.5, 8.0, 2.5, 56.0, 0.0, 0.0, 0.0, 1.695414383189199E9, 0.0, 2023-09-22 15:26:23.189
60.0, -6084.547172134778, -12732.246545821017, 20365.903719175305, 41381.68440838867, -33337.98448300177, -18954.74868473395, 94857.92009328844, -12943.559937901491, 8711.234773544642, -13482.661662419041, -22166.224976328012, 31225.945797675347, -9685.547314351477, -7908.2036504988255, -170.2085340271633, 47955.66772886131, -0.068, 0.994, 0.17400000000000002, 192.0, 0.0, 0.0, 0.0, 0.0, 0.0, 0.0, 0.0, 0.0, 0.0, 1.695414383249494E9, 0.0, 2023-09-22 15:26:23.249
62.0, -6082.401404667068, -12729.743150442024, 20324.17301227725, 41345.31812015988, -33334.07292772209, -18951.731199232483, 94817.48578756879, -12941.7047431117, 8703.702235663204, -13485.545037453776, -22172.550520008866, 31217.630948737977, -9686.977825996617, -7914.037455801661, -184.1783743117302, 47963.200266742744, -0.068, 0.994, 0.17400000000000002, 192.0, 0.0, 0.0, 0.0, 0.0, 0.0, 0.0, 0.0, 0.0, 0.0, 1.695414383249509E9, 0.0, 2023-09-22 15:26:23.249
64.0, -6077.7969453092755, -12726.636257962735, 20371.536358778045, 41412.552167481444, -33331.48012536528, -18944.578641006785, 94881.21061101087, -12938.128463998852, 8708.351398509909, -13487.467287476933, -22172.10348511976, 31248.319893875112, -9681.144020693782, -7914.640952901955, -172.37665323932808, 47988.05540657704, -0.068, 0.994, 0.17400000000000002, 192.0, 0.0, 0.0, 0.0, 0.0, 0.0, 0.0, 0.0, 0.0, 0.0, 1.695414383249512E9, 0.0, 2023-09-22 15:26:23.249
66.0, -6073.930093518507, -12719.081368336841, 20319.345035474904, 41341.250102669015, -33324.953415984324, -18938.878946170684, 94798.62091524851, -12934.79805407501, 8720.756616682604, -13486.841438632184, -22163.699229204565, 31227.778640720684, -9672.180971167203, -7913.299848234636, -181.42910974372742, 47965.03310978808, -0.068, 0.994, 0.17400000000000002, 192.0, 0.0, 0.0, 0.0, 0.0, 0.0, 0.0, 0.0, 0.0, 0.0, 1.695414383249516E9, 0.0, 2023-09-22 15:26:23.249
68.0, -6083.116660489638, -12727.150348085208, 20381.28171936056, 41422.901025164254, -33330.04961372013, -18945.204489851534, 94878.97543656534, -12938.329629698948, 8722.142424838832, -13482.438144974489, -22162.805159426352, 31233.545390790154, -9666.280110631003, -7904.336798708057, -172.86839161734483, 47958.97578704069, -0.07200000000000001, 1.0, 0.178, 192.0, 126.5, 96.0, 15.5, 32.0, 2.5, 72.0, 0.0, 0.0, 0.0, 1.695414383249519E9, 0.0, 2023-09-22 15:26:23.249
70.0, -6075.070032485728, -12719.438996248127, 20308.16916324725, 41367.69221635965, -33322.78529677216, -18941.4717485275, 94811.65198226595, -12937.770836087566, 8716.107453835899, -13494.016348602338, -22168.974240896016, 31242.933123461382, -9670.281072888503, -7917.546679681144, -187.732301680124, 47969.99519705716, -0.07200000000000001, 1.0, 0.178, 192.0, 0.0, 0.0, 0.0, 0.0, 0.0, 0.0, 0.0, 0.0, 0.0, 1.695414383249522E9, 0.0, 2023-09-22 15:26:23.249
72.0, -6072.410174895546, -12719.953086370599, 20359.89109991683, 41422.05165887495, -33319.991328715245, -18939.41538803761, 94867.97837829332, -12936.206213975694, 8729.384390042353, -13487.780211899306, -22160.502929747454, 31232.02547216719, -9660.558064050445, -7910.394121455446, -169.82855437142305, 47962.574417897995, -0.07200000000000001, 1.0, 0.178, 192.0, 0.0, 0.0, 0.0, 0.0, 0.0, 0.0, 0.0, 0.0, 0.0, 1.695414383249526E9, 0.0, 2023-09-22 15:26:23.249
74.0, -6072.588988851188, -12717.226173547051, 20308.392680691803, 41365.010007025005, -33319.27607289267, -18942.03054213888, 94796.98923790327, -12933.568708129967, 8736.268727334587, -13491.71411892344, -22157.39603726817, 31231.354919833535, -9657.96526169363, -7911.824633100586, -175.95293235217719, 47954.326624193985, -0.07200000000000001, 1.0, 0.178, 192.0, 0.0, 0.0, 0.0, 0.0, 0.0, 0.0, 0.0, 0.0, 0.0, 1.695414383249529E9, 0.0, 2023-09-22 15:26:23.249
76.0, -6069.482096371901, -12714.275743278951, 20363.78030345205, 41406.830120900886, -33319.07490719258, -18939.84007118226, 94851.19221820739, -12937.03322852054, 8723.908212650802, -13490.976511356415, -22160.011191369438, 31216.111030115015, -9659.954566950151, -7912.785758112163, -169.06859505994262, 47947.598749112934, -0.07200000000000001, 1.0, 0.178, 192.0, 0.0, 0.0, 0.0, 0.0, 0.0, 0.0, 0.0, 0.0, 0.0, 1.695414383309744E9, 0.0, 2023-09-22 15:26:23.309
78.0, -6069.213875438438, -12712.129975811242, 20295.853352052374, 41351.733070818555, -33318.49376183674, -18940.17534734909, 94784.42755751939, -12940.631859377845, 8732.82655868847, -13489.031909588804, -22154.423255255613, 31226.83986745356, -9657.317061104424, -7907.868374331996, -168.1074700483644, 47946.50351363463, -0.07200000000000001, 0.994, 0.18, 192.0, 126.5, 96.0, 15.5, 8.0, 2.5, 80.0, 0.0, 0.0, 0.0, 1.695414383309757E9, 0.0, 2023-09-22 15:26:23.309
80.0, -6073.371299907124, -12716.265048535473, 20361.522777262067, 41416.95546113914, -33323.008814216715, -18947.082036385782, 94863.08334625761, -12942.732923356643, 8729.96553539819, -13500.274837049823, -22160.033543113896, 31203.012907864206, -9661.094505917372, -7916.429092458379, -165.31350199145103, 47932.42191462778, -0.07200000000000001, 0.994, 0.18, 192.0, 0.0, 0.0, 0.0, 0.0, 0.0, 0.0, 0.0, 0.0, 0.0, 1.69541438330976E9, 0.0, 2023-09-22 15:26:23.309
82.0, -6067.269273670826, -12712.822879889356, 20317.266323240558, 41373.257800729014, -33318.35965137001, -18942.634039239176, 94811.04848516567, -12943.269365223572, 8734.324125566975, -13495.022177102826, -22155.451435500556, 31248.56576306412, -9660.021622183516, -7915.2444500022475, -169.89560960478897, 47973.10208953644, -0.07200000000000001, 0.994, 0.18, 192.0, 0.0, 0.0, 0.0, 0.0, 0.0, 0.0, 0.0, 0.0, 0.0, 1.695414383309764E9, 0.0, 2023-09-22 15:26:23.309
84.0, -6071.20318069496, -12718.634333447735, 20372.743352978632, 41410.58521396938, -33322.651186305426, -18940.64473398265, 94865.16205849196, -12943.492882668124, 8731.910137165802, -13501.370072528134, -22153.395075010667, 31196.799122905628, -9662.122686162316, -7914.7750633686865, -166.54284793649293, 47933.830074528465, -0.07200000000000001, 0.994, 0.18, 192.0, 0.0, 0.0, 0.0, 0.0, 0.0, 0.0, 0.0, 0.0, 0.0, 1.695414383309767E9, 0.0, 2023-09-22 15:26:23.309
86.0, -6064.6317678251, -12711.213554288574, 20311.41016619327, 41360.31614068939, -33316.52680832468, -18939.057760126325, 94799.93966817137, -12946.577423402958, 8740.023820403077, -13504.991055129893, -22150.176423809102, 31249.70570203134, -9661.519189062023, -7916.317333736102, -166.25227525857395, 47973.9738075702, -0.07200000000000001, 0.994, 0.18, 192.0, 0.0, 0.0, 0.0, 0.0, 0.0, 0.0, 0.0, 0.0, 0.0, 1.69541438330977E9, 0.0, 2023-09-22 15:26:23.309
88.0, -6075.271198185826, -12719.528403225948, 20330.94559084721, 41373.36955945129, -33327.00977647421, -18945.405655551633, 94809.86384270953, -12949.192577504227, 8738.570957013484, -13507.181526086513, -22153.417426755124, 31154.12964274045, -9665.698965275165, -7917.837252359063, -167.7274903926242, 47897.79906246651, -0.066, 0.996, 0.184, 192.0, 126.5, 120.0, 15.5, 16.0, 2.5, 96.0, 0.0, 0.0, 0.0, 1.695414383309773E9, 0.0, 2023-09-22 15:26:23.309
90.0, -6070.890256272585, -12708.37488274275, 20304.950512045685, 41367.37929193727, -33323.701718294826, -18943.41635029511, 94802.26424959472, -12951.874786838865, 8725.338724295942, -13511.3389505552, -22154.91499363363, 31225.40935580842, -9671.286901388992, -7922.776987883686, -164.8664671023449, 47959.93691205227, -0.066, 0.996, 0.184, 192.0, 0.0, 0.0, 0.0, 0.0, 0.0, 0.0, 0.0, 0.0, 0.0, 1.695414383370145E9, 0.0, 2023-09-22 15:26:23.370
92.0, -6071.627863839611, -12712.956990356088, 20327.39166347881, 41372.22962048407, -33321.31008163811, -18935.973219391493, 94824.97362196131, -12940.698914611212, 8732.088951121445, -13505.505145252366, -22147.024827840905, 31169.664105136886, -9667.62121529832, -7914.573897668589, -161.379594967317, 47913.40058009632, -0.066, 0.996, 0.184, 192.0, 0.0, 0.0, 0.0, 0.0, 0.0, 0.0, 0.0, 0.0, 0.0, 1.695414383370159E9, 0.0, 2023-09-22 15:26:23.370
94.0, -6074.757108063353, -12719.148423570208, 20304.81640157895, 41371.581419894865, -33318.538465325655, -18940.84589968275, 94820.81619749263, -12948.343211214926, 8731.373695298875, -13509.05907262076, -22151.539880220877, 31236.294655358157, -9670.43753509969, -7919.647743659943, -154.07057453043157, 47970.24106624616, -0.066, 0.996, 0.184, 192.0, 0.0, 0.0, 0.0, 0.0, 0.0, 0.0, 0.0, 0.0, 0.0, 1.695414383370163E9, 0.0, 2023-09-22 15:26:23.370
96.0, -6074.153610963061, -12714.745129912511, 20320.619084908856, 41343.977015492565, -33315.83390424656, -18939.683608971074, 94811.09318865457, -12939.000182032607, 8728.557375497505, -13505.505145252366, -22151.76339766543, 31154.464918907277, -9667.755325765052, -7915.736188380264, -154.7187751196355, 47893.708693231194, -0.066, 0.996, 0.184, 192.0, 0.0, 0.0, 0.0, 0.0, 0.0, 0.0, 0.0, 0.0, 0.0, 1.695414383370166E9, 0.0, 2023-09-22 15:26:23.370
98.0, -6073.259541184848, -12714.678074679146, 20340.758006663087, 41386.57944042438, -33313.50932282321, -18936.46495776951, 94854.14264847549, -12936.586193631434, 8734.122959866878, -13512.545944755788, -22155.33967677828, 31245.078890929093, -9673.656186301254, -7917.077293047583, -140.88304530180042, 47966.68713887777, -0.058, 0.994, 0.176, 192.0, 127.0, 24.0, 15.5, 8.0, 2.5, 64.0, 0.0, 0.0, 0.0, 1.695414383370169E9, 0.0, 2023-09-22 15:26:23.370
100.0, -6078.601608109666, -12720.355417770794, 20329.984465835627, 41340.981881735555, -33316.146828668934, -18942.164652605614, 94822.91726147143, -12940.006010533096, 8731.77602669907, -13513.842345934194, -22150.131720320194, 31194.139265315447, -9672.113915933838, -7917.256107003225, -145.2639872150406, 47913.17706265176, -0.058, 0.994, 0.176, 192.0, 0.0, 0.0, 0.0, 0.0, 0.0, 0.0, 0.0, 0.0, 0.0, 1.695414383370172E9, 0.0, 2023-09-22 15:26:23.370
102.0, -6082.423756411524, -12723.216441061073, 20345.07189334296, 41375.26945772999, -33323.433497361366, -18948.825472453293, 94862.94923579089, -12948.142045514829, 8722.34359053893, -13523.855927450173, -22161.86638615923, 31253.594905566562, -9683.15567769476, -7928.499034464245, -142.98410928059928, 47957.58997888446, -0.058, 0.994, 0.176, 192.0, 0.0, 0.0, 0.0, 0.0, 0.0, 0.0, 0.0, 0.0, 0.0, 1.695414383370176E9, 0.0, 2023-09-22 15:26:23.370
104.0, -6083.742509334387, -12723.37290327226, 20332.331399003437, 41342.90413175871, -33324.0146427172, -18947.238498596966, 94841.75978204726, -12944.074028023962, 8715.481604991151, -13527.879241452127, -22165.509720505444, 31205.09162009855, -9689.704738820164, -7931.136540309971, -154.24938848607405, 47914.85344348591, -0.058, 0.994, 0.176, 192.0, 0.0, 0.0, 0.0, 0.0, 0.0, 0.0, 0.0, 0.0, 0.0, 1.695414383370179E9, 0.0, 2023-09-22 15:26:23.370
106.0, -6077.9757592649175, -12718.85785089229, 20368.69768723222, 41388.05465555843, -33319.38783161496, -18942.097597372245, 94889.27959075924, -12937.301449454004, 8721.941259138735, -13522.134843127114, -22160.43587451409, 31257.126481190502, -9687.603674841366, -7922.687580905865, -139.13960923428647, 47949.90097879183, -0.058, 0.994, 0.176, 192.0, 0.0, 0.0, 0.0, 0.0, 0.0, 0.0, 0.0, 0.0, 0.0, 1.695414383430264E9, 0.0, 2023-09-22 15:26:23.430
108.0, -6078.780422065309, -12719.70721718159, 20323.614218665865, 41311.03054416544, -33321.958282227315, -18944.802158451337, 94821.24088063728, -12937.03322852054, 8722.880032405857, -13520.302000081778, -22157.99953436846, 31218.681480727373, -9686.35197715187, -7921.726455894287, -145.33104244840652, 47908.2596788716, -0.062, 0.994, 0.17200000000000001, 192.0, 127.0, 8.0, 15.5, 8.0, 2.5, 48.0, 0.0, 0.0, 0.0, 1.69541438343029E9, 0.0, 2023-09-22 15:26:23.430
110.0, -6075.24884644137, -12715.37097875726, 20374.620899512876, 41368.787451837954, -33320.84069500455, -18939.97418164899, 94889.36899773705, -12931.579402873445, 8718.588497470439, -13516.43514829101, -22159.698266947064, 31241.122632160503, -9689.592980097888, -7922.352304739035, -138.53611213399319, 47926.02931571357, -0.062, 0.994, 0.17200000000000001, 192.0, 0.0, 0.0, 0.0, 0.0, 0.0, 0.0, 0.0, 0.0, 0.0, 1.695414383430294E9, 0.0, 2023-09-22 15:26:23.430
112.0, -6079.428622654513, -12722.679999194146, 20326.609352422878, 41306.448436552106, -33321.24302640474, -18942.47757702799, 94824.32542137211, -12928.763083072077, 8727.193919085732, -13518.849136692184, -22156.85959540124, 31208.444381766843, -9688.363634152845, -7921.681752405376, -143.16292323624174, 47895.92151593227, -0.062, 0.994, 0.17200000000000001, 192.0, 0.0, 0.0, 0.0, 0.0, 0.0, 0.0, 0.0, 0.0, 0.0, 1.695414383430297E9, 0.0, 2023-09-22 15:26:23.430
114.0, -6088.145802992082, -12732.023028376465, 20388.680146775263, 41405.846644144855, -33330.80957303161, -18950.45714979853, 94932.3066988357, -12937.815539576477, 8713.335837523442, -13529.756787986373, -22169.644793229676, 31241.971998449804, -9699.383044169314, -7931.248299032248, -137.55263537795966, 47931.527844849574, -0.062, 0.994, 0.17200000000000001, 192.0, 0.0, 0.0, 0.0, 0.0, 0.0, 0.0, 0.0, 0.0, 0.0, 1.695414383430301E9, 0.0, 2023-09-22 15:26:23.430
116.0, -6080.210933710448, -12724.848118406311, 20317.579247662932, 41318.58543379133, -33318.739631025746, -18937.850765925738, 94842.81031403666, -12925.611487103879, 8719.236698059643, -13525.509956539865, -22164.682705960597, 31226.23637035327, -9689.436517886701, -7927.0461710746495, -143.0288127695099, 47912.48415857365, -0.062, 0.994, 0.17200000000000001, 192.0, 0.0, 0.0, 0.0, 0.0, 0.0, 0.0, 0.0, 0.0, 0.0, 1.695414383430304E9, 0.0, 2023-09-22 15:26:23.430
118.0, -6084.9048000460625, -12732.738284199035, 20384.12039090638, 41385.30539099043, -33326.495686351744, -18942.969315406004, 94922.62839348655, -12930.819443561966, 8712.262953789586, -13532.997790932393, -22169.28716531839, 31228.292730843157, -9694.219791200137, -7932.947031610851, -133.05993474244295, 47913.691152774234, -0.068, 1.002, 0.17200000000000001, 192.0, 126.5, 112.0, 15.5, 40.0, 2.5, 48.0, 0.0, 0.0, 0.0, 1.695414383430308E9, 0.0, 2023-09-22 15:26:23.430
120.0, -6085.217724468437, -12733.699409210612, 20307.722128358142, 41299.98878240452, -33322.248854905236, -18943.930440417582, 94831.74620053127, -12933.792225574522, 8714.319314279475, -13533.310715354768, -22170.114179863238, 31223.4200505519, -9692.163430710249, -7933.751694411242, -145.35339419286183, 47894.71452173168, -0.068, 1.002, 0.17200000000000001, 192.0, 0.0, 0.0, 0.0, 0.0, 0.0, 0.0, 0.0, 0.0, 0.0, 1.695414383489065E9, 0.0, 2023-09-22 15:26:23.489
122.0, -6091.722082104931, -12739.71202846909, 20375.850245457917, 41359.287960444446, -33327.21094217431, -18946.456187541033, 94908.45738750188, -12931.55705112899, 8710.452462488707, -13532.997790932393, -22175.188025854593, 31193.22284379278, -9692.990445255095, -7935.04809558965, -133.79754230946807, 47859.91285561477, -0.068, 1.002, 0.17200000000000001, 192.0, 0.0, 0.0, 0.0, 0.0, 0.0, 0.0, 0.0, 0.0, 0.0, 1.695414383489077E9, 0.0, 2023-09-22 15:26:23.489
124.0, -6091.386805938102, -12743.444769793126, 20299.608445120866, 41295.58548874682, -33327.769735785696, -18951.641792254664, 94841.51391285824, -12941.101246011407, 8711.123014822366, -13539.30098286879, -22178.853711945263, 31222.481277284776, -9693.973922011128, -7941.485397992778, -148.25912097205173, 47877.61543722337, -0.068, 1.002, 0.17200000000000001, 192.0, 0.0, 0.0, 0.0, 0.0, 0.0, 0.0, 0.0, 0.0, 0.0, 1.695414383489081E9, 0.0, 2023-09-22 15:26:23.489
126.0, -6094.359587950657, -12743.891804682233, 20362.461550529188, 41366.976960537075, -33335.525791111686, -18958.548481291353, 94935.54770178172, -12942.285888467537, 8709.893668877325, -13543.413703848566, -22182.184121869104, 31190.02654433567, -9697.080814490417, -7952.996546387261, -143.92288254772217, 47848.87109385384, -0.068, 1.002, 0.17200000000000001, 192.0, 0.0, 0.0, 0.0, 0.0, 0.0, 0.0, 0.0, 0.0, 0.0, 1.695414383489084E9, 0.0, 2023-09-22 15:26:23.489
128.0, -6083.5860471232, -12733.095912110319, 20290.533636872013, 41284.07434035234, -33324.886360750956, -18947.03733289687, 94837.89293025648, -12941.03419077804, 8718.119110836877, -13538.58572704622, -22177.132627622203, 31223.084774385068, -9691.895209776785, -7946.223967817304, -154.58466465290365, 47872.385129020826, -0.068, 0.998, 0.168, 192.0, 126.5, 112.0, 15.5, 24.0, 2.5, 32.0, 0.0, 0.0, 0.0, 1.695414383489087E9, 0.0, 2023-09-22 15:26:23.489
130.0, -6088.548134392278, -12736.538080756436, 20358.59469873842, 41317.78077099095, -33329.9155032534, -18941.874079927693, 94890.15130879299, -12930.79709181751, 8720.242526560132, -13536.708180511974, -22174.07043863183, 31148.094671737515, -9689.168296953238, -7941.060714848128, -141.799466824468, 47802.200651431165, -0.068, 0.998, 0.168, 192.0, 0.0, 0.0, 0.0, 0.0, 0.0, 0.0, 0.0, 0.0, 0.0, 1.69541438348909E9, 0.0, 2023-09-22 15:26:23.489
132.0, -6093.219648983437, -12739.957897658098, 20320.21675350866, 41305.15203537369, -33332.083622465565, -18945.428007296086, 94861.80929682366, -12938.307277954493, 8714.38636951284, -13545.715933527463, -22178.898415434174, 31217.094506871046, -9694.77858481152, -7944.055848605139, -147.58856863839253, 47856.8953701133, -0.068, 0.998, 0.168, 192.0, 0.0, 0.0, 0.0, 0.0, 0.0, 0.0, 0.0, 0.0, 0.0, 1.695414383489094E9, 0.0, 2023-09-22 15:26:23.489
134.0, -6090.693901859988, -12741.924851170166, 20365.121408119372, 41339.26079741249, -33331.77069804319, -18944.33277181778, 94906.53513747873, -12935.222737219661, 8714.900459635313, -13542.787855003817, -22179.18898811209, 31172.927459827362, -9692.230485943614, -7946.358078284035, -145.6216151263255, 47813.46593063664, -0.068, 0.998, 0.168, 192.0, 0.0, 0.0, 0.0, 0.0, 0.0, 0.0, 0.0, 0.0, 0.0, 1.695414383489097E9, 0.0, 2023-09-22 15:26:23.489
136.0, -6088.168154736538, -12739.220290091072, 20312.84067783841, 41323.10048617131, -33330.54135209815, -18944.46688228451, 94877.00848305327, -12943.068199523474, 8722.209480072199, -13540.195052647001, -22178.809008456352, 31244.274228128703, -9691.939913265696, -7946.671002706409, -147.58856863839253, 47866.014881851064, -0.068, 0.998, 0.168, 192.0, 0.0, 0.0, 0.0, 0.0, 0.0, 0.0, 0.0, 0.0, 0.0, 1.695414383549415E9, 0.0, 2023-09-22 15:26:23.549
138.0, -6094.0019600393725, -12742.863624437288, 20348.55876547799, 41346.256893427, -33336.777488801185, -18945.11508287371, 94913.73239919334, -12937.927298298753, 8715.280439291053, -13544.128959671136, -22179.256043345456, 31167.987724302737, -9691.91756152124, -7947.341555040069, -149.55552215045955, 47797.573840328914, -0.066, 1.0, 0.17200000000000001, 192.0, 126.5, 120.0, 15.5, 32.0, 2.5, 48.0, 0.0, 0.0, 0.0, 1.695414383549434E9, 0.0, 2023-09-22 15:26:23.549
140.0, -6082.580218622711, -12731.128958598252, 20327.436366967722, 41343.15000094772, -33325.4675061068, -18937.2696205699, 94898.73437866382, -12933.255783707595, 8719.996657371123, -13539.122168913147, -22175.85857818825, 31244.76596650672, -9690.889381276296, -7944.726400938797, -144.52637964801548, 47860.53870445952, -0.066, 1.0, 0.17200000000000001, 192.0, 0.0, 0.0, 0.0, 0.0, 0.0, 0.0, 0.0, 0.0, 0.0, 1.695414383549441E9, 0.0, 2023-09-22 15:26:23.549
142.0, -6087.855230314163, -12739.913194169189, 20356.02424812606, 41338.61259682329, -33326.38392762947, -18934.632114724172, 94907.22804155685, -12929.299524939004, 8729.451445275718, -13534.33889559971, -22168.393095540177, 31167.764206858184, -9684.96616899564, -7941.61950845951, -141.97828078011045, 47792.56704957093, -0.066, 1.0, 0.17200000000000001, 192.0, 0.0, 0.0, 0.0, 0.0, 0.0, 0.0, 0.0, 0.0, 0.0, 1.695414383549446E9, 0.0, 2023-09-22 15:26:23.549
144.0, -6088.950465792474, -12738.125054612763, 20348.15643407779, 41358.77387032197, -33324.79695377314, -18936.152033347134, 94919.11916960707, -12933.769873830066, 8724.601116728916, -13541.044418936304, -22172.751685708965, 31245.391815351468, -9688.475392875123, -7942.401819515446, -136.74797257756862, 47849.27342525404, -0.066, 1.0, 0.17200000000000001, 192.0, 0.0, 0.0, 0.0, 0.0, 0.0, 0.0, 0.0, 0.0, 0.0, 1.695414383549451E9, 0.0, 2023-09-22 15:26:23.549
146.0, -6088.3693204366355, -12737.52155751247, 20350.302201545503, 41327.347317617816, -33323.03116596117, -18932.665161212106, 94892.0959105606, -12930.104187739396, 8725.852814418413, -13538.317506112757, -22169.77890369641, 31181.130550042457, -9683.468602117135, -7939.76431366972, -138.6031673673591, 47789.99659895857, -0.066, 1.0, 0.17200000000000001, 192.0, 0.0, 0.0, 0.0, 0.0, 0.0, 0.0, 0.0, 0.0, 0.0, 1.695414383549455E9, 0.0, 2023-09-22 15:26:23.549
148.0, -6090.403329182069, -12741.500168025514, 20366.104884875404, 41368.25100997103, -33322.98646247226, -18936.2190885805, 94928.68571623394, -12936.854414564898, 8721.851852160913, -13541.20088114749, -22176.171502610625, 31252.879649743994, -9687.424860885723, -7943.027668360194, -128.2543096845519, 47841.60677690587, -0.062, 0.992, 0.178, 192.0, 127.0, 8.0, 15.5, 0.0, 2.5, 72.0, 0.0, 0.0, 0.0, 1.69541438354946E9, 0.0, 2023-09-22 15:26:23.549
150.0, -6094.404291439569, -12744.204729104607, 20345.11659683187, 41305.956698174086, -33326.80861077412, -18943.930440417582, 94872.82870684013, -12938.642554121323, 8728.378561541864, -13537.602250290187, -22169.220110085025, 31187.769018145686, -9681.00991022705, -7940.971307870306, -137.55263537795966, 47772.919866194716, -0.062, 0.992, 0.178, 192.0, 0.0, 0.0, 0.0, 0.0, 0.0, 0.0, 0.0, 0.0, 0.0, 1.695414383609746E9, 0.0, 2023-09-22 15:26:23.609
152.0, -6091.789137338297, -12740.293173824928, 20374.956175679705, 41366.909905303706, -33326.115706696, -18945.025675895893, 94936.28530934875, -12944.208138490694, 8715.280439291053, -13545.693581783007, -22181.62532825772, 31247.17995490789, -9694.040977244495, -7952.661270220432, -139.74310633457975, 47827.41341917675, -0.062, 0.992, 0.178, 192.0, 0.0, 0.0, 0.0, 0.0, 0.0, 0.0, 0.0, 0.0, 0.0, 1.69541438360976E9, 0.0, 2023-09-22 15:26:23.609
154.0, -6085.530648890812, -12735.398141789216, 20331.012646080573, 41313.712753500076, -33322.1147444385, -18932.93338214557, 94884.20574476788, -12930.03713250603, 8722.544756239027, -13537.714009012463, -22170.851787430263, 31196.106218827514, -9685.81553528494, -7943.586461971577, -142.4029639247613, 47779.625389531306, -0.062, 0.992, 0.178, 192.0, 0.0, 0.0, 0.0, 0.0, 0.0, 0.0, 0.0, 0.0, 0.0, 1.695414383609764E9, 0.0, 2023-09-22 15:26:23.609
156.0, -6092.057358271762, -12743.131845370752, 20375.045582657527, 41395.02839982849, -33325.95924448482, -18937.51548975891, 94967.89067600855, -12936.340324442426, 8724.39995102882, -13532.953087443482, -22168.840130429286, 31256.120652690013, -9684.183857939704, -7939.674906691898, -130.19891145216363, 47831.23556747861, -0.062, 0.992, 0.178, 192.0, 0.0, 0.0, 0.0, 0.0, 0.0, 0.0, 0.0, 0.0, 0.0, 1.695414383609767E9, 0.0, 2023-09-22 15:26:23.609
158.0, -6093.39846293908, -12743.020086648476, 20318.58507616342, 41327.32496587336, -33323.52290433919, -18938.70013221504, 94900.74603566481, -12940.453045422202, 8721.002485871611, -13538.33985785721, -22173.690458976085, 31233.41128032342, -9690.397642898279, -7944.659345705431, -142.20179822466352, 47816.57282311593, -0.058, 0.99, 0.17200000000000001, 192.0, 127.0, 24.0, 15.0, 120.0, 2.5, 48.0, 0.0, 0.0, 0.0, 1.695414383609771E9, 0.0, 2023-09-22 15:26:23.609
160.0, -6095.611285640155, -12749.971479174075, 20360.427541783756, 41376.275286230484, -33325.42280261789, -18937.0684548698, 94956.04425144724, -12941.794150089521, 8710.765386911082, -13542.810206748272, -22173.533996764898, 31245.525925818198, -9690.956436509661, -7945.911043394929, -134.71396383213568, 47823.56891913044, -0.058, 0.99, 0.17200000000000001, 192.0, 0.0, 0.0, 0.0, 0.0, 0.0, 0.0, 0.0, 0.0, 0.0, 1.695414383609774E9, 0.0, 2023-09-22 15:26:23.609
162.0, -6090.291570459792, -12739.242641835528, 20310.35963420387, 41294.15497710169, -33317.15265716942, -18929.379454777176, 94869.31948296065, -12932.719341840666, 8722.991791128134, -13539.323334613246, -22169.19775834057, 31217.519190015697, -9684.876762017819, -7940.613679959021, -135.4292196547055, 47794.73516878309, -0.058, 0.99, 0.17200000000000001, 192.0, 0.0, 0.0, 0.0, 0.0, 0.0, 0.0, 0.0, 0.0, 0.0, 1.695414383609777E9, 0.0, 2023-09-22 15:26:23.609
164.0, -6096.930038563018, -12747.691601239634, 20389.998899698126, 41381.97498106658, -33323.65701480592, -18936.93434440307, 94965.78961202975, -12934.775702330555, 8718.72260793717, -13541.089122425214, -22173.042258386882, 31233.567742534608, -9688.363634152845, -7943.385296271479, -125.25917592754078, 47811.47662538011, -0.058, 0.99, 0.17200000000000001, 192.0, 0.0, 0.0, 0.0, 0.0, 0.0, 0.0, 0.0, 0.0, 0.0, 1.69541438360978E9, 0.0, 2023-09-22 15:26:23.609
166.0, -6091.386805938102, -12742.461293037093, 20320.060291297472, 41316.81964597936, -33317.063250191604, -18933.42512052359, 94893.7499396503, -12933.278135452048, 8717.537965481039, -13539.457445079977, -22174.80804619885, 31250.93504797638, -9689.34711090888, -7941.999488115251, -133.2163969536301, 47830.47560816713, -0.058, 0.99, 0.17200000000000001, 192.0, 0.0, 0.0, 0.0, 0.0, 0.0, 0.0, 0.0, 0.0, 0.0, 1.695414383669991E9, 0.0, 2023-09-22 15:26:23.669
168.0, -6093.152593750071, -12745.411723305193, 20372.810408211997, 41372.94487630664, -33322.382965371966, -18936.174385091592, 94957.69828053693, -12936.541490142525, 8721.62833471636, -13540.887956725117, -22175.076267132317, 31227.778640720684, -9689.10124171987, -7943.966441627317, -126.64498408376981, 47814.94114577069, -0.06, 0.996, 0.178, 192.0, 127.0, 16.0, 15.5, 16.0, 2.5, 72.0, 0.0, 0.0, 0.0, 1.695414383670002E9, 0.0, 2023-09-22 15:26:23.670
170.0, -6083.898971545574, -12736.783949945444, 20291.606520605867, 41288.99172413251, -33317.86791299199, -18932.285181556366, 94861.89870380149, -12936.51913839807, 8724.936392895746, -13541.290288125312, -22172.908147920152, 31236.361710591522, -9686.10610796286, -7944.502883494245, -137.0385452554876, 47816.394009160285, -0.06, 0.996, 0.178, 192.0, 0.0, 0.0, 0.0, 0.0, 0.0, 0.0, 0.0, 0.0, 0.0, 1.695414383670006E9, 0.0, 2023-09-22 15:26:23.670
172.0, -6084.077785501217, -12736.04634237842, 20378.89008270384, 41368.98861753805, -33326.27216890719, -18931.458167011522, 94957.54181832574, -12935.736827342133, 8731.552509254518, -13524.258258850368, -22168.840130429286, 31219.4190882944, -9685.167334695738, -7934.981040356284, -126.04148698347653, 47809.64378233478, -0.06, 0.996, 0.178, 192.0, 0.0, 0.0, 0.0, 0.0, 0.0, 0.0, 0.0, 0.0, 0.0, 1.69541438367001E9, 0.0, 2023-09-22 15:26:23.670
174.0, -6087.005864024862, -12738.639144735234, 20313.846506338898, 41316.640832023724, -33328.08266020807, -18934.185079835068, 94896.92388736295, -12941.548280900513, 8728.82559643097, -13529.577974030732, -22172.036429886393, 31268.883498773994, -9689.972959753628, -7936.970345612806, -137.3067661889513, 47857.11888755785, -0.06, 0.996, 0.178, 192.0, 0.0, 0.0, 0.0, 0.0, 0.0, 0.0, 0.0, 0.0, 0.0, 1.695414383670013E9, 0.0, 2023-09-22 15:26:23.670
176.0, -6093.621980383633, -12742.57305175937, 20368.250652343115, 41362.99835002403, -33330.04961372013, -18938.409559537122, 94960.80517301621, -12942.218833234172, 8715.235735802144, -13539.211575890968, -22180.284223590403, 31225.23054185278, -9695.315026678447, -7945.754581183742, -136.54680687747086, 47834.38716344681, -0.06, 0.996, 0.178, 192.0, 0.0, 0.0, 0.0, 0.0, 0.0, 0.0, 0.0, 0.0, 0.0, 1.695414383670016E9, 0.0, 2023-09-22 15:26:23.670
178.0, -6094.11371876165, -12741.075484880863, 20317.243971496104, 41301.93338417213, -33324.886360750956, -18935.21326008001, 94886.10564304658, -12939.93895529973, 8720.443692260229, -13537.19991888999, -22178.093752633784, 31253.43844335538, -9691.87285803233, -7945.598118972554, -141.4865424020937, 47861.56688470446, -0.064, 0.998, 0.18, 192.0, 127.0, 0.0, 15.5, 24.0, 2.5, 80.0, 0.0, 0.0, 0.0, 1.695414383670019E9, 0.0, 2023-09-22 15:26:23.670
180.0, -6099.232268241914, -12747.602194261814, 20380.78998098254, 41346.0557277269, -33326.38392762947, -18931.07818735578, 94946.12007690908, -12932.093492995918, 8714.654590446306, -13539.904479969084, -22181.714735235542, 31197.402620005923, -9694.35390166687, -7942.915909637918, -135.58568186589264, 47824.59709937538, -0.064, 0.998, 0.18, 192.0, 0.0, 0.0, 0.0, 0.0, 0.0, 0.0, 0.0, 0.0, 0.0, 1.695414383730303E9, 0.0, 2023-09-22 15:26:23.730
182.0, -6098.829936841719, -12747.870415195277, 20327.056387311983, 41316.81964597936, -33321.22067466029, -18929.245344310446, 94898.5555647082, -12931.132367984339, 8715.77217766907, -13545.492416082909, -22181.82649395782, 31262.24503067077, -9696.454965645667, -7944.704049194343, -136.0997719883647, 47891.406463552295, -0.064, 0.998, 0.18, 192.0, 0.0, 0.0, 0.0, 0.0, 0.0, 0.0, 0.0, 0.0, 0.0, 1.695414383730327E9, 0.0, 2023-09-22 15:26:23.730
184.0, -6104.440224700002, -12751.849025708321, 20367.915376176283, 41345.18400969315, -33322.78529677216, -18928.351274532233, 94935.57005352617, -12926.46085339318, 8708.977247354656, -13542.452578836988, -22186.185084126602, 31200.062477596104, -9699.383044169314, -7945.62047071701, -133.35050742036194, 47852.35796598887, -0.064, 0.998, 0.18, 192.0, 0.0, 0.0, 0.0, 0.0, 0.0, 0.0, 0.0, 0.0, 0.0, 1.69541438373033E9, 0.0, 2023-09-22 15:26:23.730
186.0, -6097.44412868549, -12745.836406449844, 20328.93393384623, 41332.97995722055, -33321.64535780494, -18924.93145763057, 94907.71977993487, -12925.119748725861, 8711.72651192266, -13538.026933434838, -22182.29588059138, 31256.992370723772, -9698.623084857833, -7940.814845659119, -133.46226614263847, 47914.138187663346, -0.064, 0.998, 0.18, 192.0, 0.0, 0.0, 0.0, 0.0, 0.0, 0.0, 0.0, 0.0, 0.0, 1.695414383730333E9, 0.0, 2023-09-22 15:26:23.730
188.0, -6096.907686818563, -12743.288307581939, 20362.282736573547, 41331.9070734867, -33320.19249441534, -18917.84595463824, 94917.46514051738, -12916.782548044033, 8713.20172705671, -13535.992924689404, -22178.898415434174, 31189.22188153528, -9696.20909645666, -7938.512615980222, -135.36216442133957, 47869.41234700827, -0.06, 0.996, 0.17400000000000002, 192.0, 127.0, 16.0, 15.5, 16.0, 2.5, 56.0, 0.0, 0.0, 0.0, 1.695414383730337E9, 0.0, 2023-09-22 15:26:23.730
190.0, -6095.164250751049, -12739.667324980179, 20355.97954463715, 41341.76419279149, -33322.69588979434, -18920.796384906338, 94918.96270739588, -12926.818481304465, 8714.319314279475, -13534.54006129981, -22178.71960147853, 31256.14300443447, -9695.695006334186, -7939.607851458532, -130.86946378582286, 47941.7649438101, -0.06, 0.996, 0.17400000000000002, 192.0, 0.0, 0.0, 0.0, 0.0, 0.0, 0.0, 0.0, 0.0, 0.0, 1.69541438373034E9, 0.0, 2023-09-22 15:26:23.730
192.0, -6091.364454193646, -12736.269859822973, 20368.585928509943, 41337.02562296696, -33321.7124130383, -18919.83525989476, 94925.24354758783, -12923.55512661399, 8719.549622482016, -13535.545889800298, -22175.09861887677, 31196.59795720553, -9694.465660389145, -7940.881900892485, -140.12308599031996, 47908.79612073852, -0.06, 0.996, 0.17400000000000002, 192.0, 0.0, 0.0, 0.0, 0.0, 0.0, 0.0, 0.0, 0.0, 0.0, 1.695414383730343E9, 0.0, 2023-09-22 15:26:23.730
194.0, -6090.693901859988, -12737.722723212568, 20358.617050482877, 41358.84092555534, -33321.37713687147, -18920.08112908377, 94940.912120451, -12926.818481304465, 8723.148253339321, -13529.48856705291, -22169.555386251854, 31270.559879608143, -9692.185782454704, -7936.277441534691, -136.27858594400715, 47984.12149955291, -0.06, 0.996, 0.17400000000000002, 192.0, 0.0, 0.0, 0.0, 0.0, 0.0, 0.0, 0.0, 0.0, 0.0, 1.695414383730346E9, 0.0, 2023-09-22 15:26:23.730
196.0, -6093.644332128088, -12741.343705814328, 20357.678277215753, 41343.73114630355, -33323.83582876156, -18923.970332618992, 94936.4641233044, -12929.791263317022, 8716.219212558177, -13542.564337559264, -22160.346467536267, 31216.580416748577, -9694.018625500039, -7945.933395139385, -143.6770133587138, 47947.174065968284, -0.06, 0.996, 0.17400000000000002, 192.0, 0.0, 0.0, 0.0, 0.0, 0.0, 0.0, 0.0, 0.0, 0.0, 1.695414383789689E9, 0.0, 2023-09-22 15:26:23.789
198.0, -6091.5879716382, -12742.438941292638, 20363.64619298532, 41366.19464948114, -33319.1643141704, -18917.60008544923, 94953.92083572398, -12929.299524939004, 8721.382465527353, -13532.170776387547, -22147.29304877437, 31284.015629770238, -9689.213000442149, -7940.256052047736, -132.3446789198731, 48011.18946208829, -0.058, 0.992, 0.178, 192.0, 127.0, 24.0, 15.5, 0.0, 2.5, 72.0, 0.0, 0.0, 0.0, 1.695414383789705E9, 0.0, 2023-09-22 15:26:23.789
200.0, -6096.930038563018, -12743.556528515403, 20328.486898957122, 41296.88188992523, -33320.17014267089, -18916.057815081815, 94882.95404707838, -12926.349094670904, 8718.476738748162, -13529.242697863901, -22142.398016738658, 31212.043012624148, -9687.201343441171, -7937.685601435376, -140.97245227962165, 47949.141019480354, -0.058, 0.992, 0.178, 192.0, 0.0, 0.0, 0.0, 0.0, 0.0, 0.0, 0.0, 0.0, 0.0, 1.695414383789709E9, 0.0, 2023-09-22 15:26:23.789
202.0, -6093.242000727892, -12739.62262149127, 20357.83473942694, 41347.77681204997, -33319.67840429287, -18911.83333537976, 94934.69833549242, -12924.315085925471, 8716.57684046946, -13533.467177565954, -22143.4261969836, 31265.240164427778, -9692.789279554998, -7940.703086936843, -132.63525159779212, 48001.80172941706, -0.058, 0.992, 0.178, 192.0, 0.0, 0.0, 0.0, 0.0, 0.0, 0.0, 0.0, 0.0, 0.0, 1.695414383789712E9, 0.0, 2023-09-22 15:26:23.789
204.0, -6090.5374396488005, -12739.957897658098, 20321.40139596479, 41282.93440138512, -33315.453924590816, -18909.73227140096, 94868.13484050451, -12914.41326313177, 8716.9568201252, -13525.375846073133, -22131.557420677833, 31221.18487610637, -9684.429727128712, -7931.0918368210605, -137.3514696778619, 47963.96022605422, -0.058, 0.992, 0.178, 192.0, 0.0, 0.0, 0.0, 0.0, 0.0, 0.0, 0.0, 0.0, 0.0, 1.695414383789716E9, 0.0, 2023-09-22 15:26:23.789
206.0, -6101.735663620909, -12750.016182662986, 20389.551864809022, 41376.23058274157, -33322.092392694045, -18917.488326726954, 94958.83821950415, -12921.074082979452, 8713.827575901458, -13533.578936288231, -22137.011246324928, 31270.00108599676, -9690.911733020752, -7940.121941581005, -127.98608875108825, 48021.89594768238, -0.058, 0.992, 0.178, 192.0, 0.0, 0.0, 0.0, 0.0, 0.0, 0.0, 0.0, 0.0, 0.0, 1.695414383789719E9, 0.0, 2023-09-22 15:26:23.789
208.0, -6096.259486229359, -12747.065752394887, 20331.37027399186, 41312.595166277315, -33321.75711652722, -18916.683663926564, 94888.83255587013, -12923.912754525276, 8713.335837523442, -13528.952125185982, -22137.838260869776, 31248.632818297487, -9690.419994642734, -7938.289098535669, -142.55942613594846, 48014.87749992341, -0.064, 0.994, 0.17400000000000002, 192.0, 127.0, 0.0, 15.5, 8.0, 2.5, 56.0, 0.0, 0.0, 0.0, 1.695414383789722E9, 0.0, 2023-09-22 15:26:23.789
210.0, -6106.7424543788975, -12755.939394943643, 20393.955158466717, 41418.430676273194, -33327.769735785696, -18923.836222152262, 95002.80410084774, -12926.550260371001, 8708.172584554266, -13536.954049700982, -22143.314438261325, 31291.10113276257, -9693.236314444102, -7949.599081230054, -139.85486505685628, 48071.44976513979, -0.064, 0.994, 0.17400000000000002, 192.0, 0.0, 0.0, 0.0, 0.0, 0.0, 0.0, 0.0, 0.0, 0.0, 1.695414383849423E9, 0.0, 2023-09-22 15:26:23.849
212.0, -6102.719140376943, -12752.8101507199, 20326.40818672278, 41339.081983456854, -33319.566645570594, -18917.98006510497, 94907.20568981238, -12924.359789414382, 8709.804261899502, -13534.651820022085, -22138.03942656987, 31286.407266426955, -9688.274227175025, -7947.833293418085, -148.57204539442606, 48074.199029707794, -0.064, 0.994, 0.17400000000000002, 192.0, 0.0, 0.0, 0.0, 0.0, 0.0, 0.0, 0.0, 0.0, 0.0, 1.695414383849447E9, 0.0, 2023-09-22 15:26:23.849
214.0, -6104.529631677822, -12751.133769885751, 20387.003765941117, 41398.157644052226, -33318.739631025746, -18916.348387759732, 94970.86345802111, -12922.7504638136, 8716.44273000273, -13531.634334520619, -22133.18909802307, 31264.32374290511, -9681.479296860613, -7945.307546294635, -137.0608969999429, 48062.35260514649, -0.064, 0.994, 0.17400000000000002, 192.0, 0.0, 0.0, 0.0, 0.0, 0.0, 0.0, 0.0, 0.0, 0.0, 1.695414383849455E9, 0.0, 2023-09-22 15:26:23.849
216.0, -6105.133128778116, -12753.503054798015, 20324.888268099818, 41346.61452133829, -33318.27024439219, -18915.29785577033, 94909.61967821357, -12925.142100470317, 8714.609886957394, -13533.511881054865, -22134.5749061793, 31286.787246082695, -9678.551218336966, -7947.632127717988, -143.0288127695099, 48082.6479891119, -0.064, 0.994, 0.17400000000000002, 192.0, 0.0, 0.0, 0.0, 0.0, 0.0, 0.0, 0.0, 0.0, 0.0, 1.695414383849459E9, 0.0, 2023-09-22 15:26:23.849
218.0, -6105.848384600686, -12751.446694308126, 20369.770570966073, 41390.24512651505, -33316.34799436903, -18912.07920456877, 94968.0694899642, -12921.677580079744, 8717.940296881236, -13530.919078698049, -22135.558382935335, 31267.207117939844, -9673.477372345611, -7948.794418429664, -139.6089958678479, 48074.82487855254, -0.068, 0.996, 0.176, 192.0, 126.5, 112.0, 15.5, 16.0, 2.5, 64.0, 0.0, 0.0, 0.0, 1.695414383849464E9, 0.0, 2023-09-22 15:26:23.849
220.0, -6103.814375855252, -12746.797531461423, 20307.5433144025, 41341.92065500267, -33318.672575792385, -18917.376568004678, 94908.59149796862, -12932.294658696015, 8717.806186414504, -13526.985171673916, -22133.971409079008, 31288.173054238923, -9669.141133921283, -7948.101514351549, -144.72754534811324, 48093.309771217086, -0.068, 0.996, 0.176, 192.0, 0.0, 0.0, 0.0, 0.0, 0.0, 0.0, 0.0, 0.0, 0.0, 1.695414383849469E9, 0.0, 2023-09-22 15:26:23.849
222.0, -6101.623904898633, -12748.183339617652, 20368.764742465584, 41397.71060916312, -33319.05255544812, -18914.69435867004, 94973.52331561128, -12928.874841794353, 8720.197823071221, -13525.509956539865, -22132.89852534515, 31257.126481190502, -9662.10033441786, -7951.767200442219, -142.1570947357529, 48074.981340763734, -0.068, 0.996, 0.176, 192.0, 0.0, 0.0, 0.0, 0.0, 0.0, 0.0, 0.0, 0.0, 0.0, 1.695414383849473E9, 0.0, 2023-09-22 15:26:23.849
224.0, -6098.271143230337, -12743.645935493225, 20314.27118948355, 41362.17133547919, -33315.76684901319, -18918.538858716354, 94924.43888478744, -12936.183862231239, 8740.448503547728, -13525.353494328678, -22125.365987463712, 31304.512179435755, -9657.741744249075, -7952.057773120138, -145.5545598929596, 48104.01625681118, -0.068, 0.996, 0.176, 192.0, 0.0, 0.0, 0.0, 0.0, 0.0, 0.0, 0.0, 0.0, 0.0, 1.695414383849479E9, 0.0, 2023-09-22 15:26:23.849
226.0, -6101.333332220714, -12743.914156426688, 20372.65394600081, 41422.49869376406, -33319.231369403766, -18916.54955345983, 94994.84687982165, -12934.351019185904, 8732.40187554382, -13525.375846073133, -22123.28727522937, 31267.76591155123, -9654.4783895586, -7952.415401031423, -143.31938544742889, 48072.07561398454, -0.068, 0.996, 0.176, 192.0, 0.0, 0.0, 0.0, 0.0, 0.0, 0.0, 0.0, 0.0, 0.0, 1.695414383909619E9, 0.0, 2023-09-22 15:26:23.909
228.0, -6101.8697740876405, -12747.982173917553, 20320.574381419945, 41400.50457722003, -33316.81738100259, -18916.214277293002, 94957.07243169218, -12941.548280900513, 8729.518500509084, -13523.788872216806, -22124.42721419659, 31325.29930177919, -9655.283052358991, -7953.175360342903, -151.72364136262433, 48119.304850018605, -0.07, 0.99, 0.17400000000000002, 192.0, 126.5, 104.0, 15.0, 120.0, 2.5, 56.0, 0.0, 0.0, 0.0, 1.695414383909632E9, 0.0, 2023-09-22 15:26:23.909
230.0, -6100.774538609331, -12744.361191315795, 20346.658867199287, 41404.25967028853, -33310.93887221085, -18907.98883533345, 94971.2210859324, -12934.909812797287, 8730.121997609378, -13530.069712408747, -22123.08610952927, 31273.51030987624, -9652.332622090891, -7950.984889386284, -148.95202505016627, 48075.71894833076, -0.07, 0.99, 0.17400000000000002, 192.0, 0.0, 0.0, 0.0, 0.0, 0.0, 0.0, 0.0, 0.0, 0.0, 1.695414383909636E9, 0.0, 2023-09-22 15:26:23.909
232.0, -6094.270180972837, -12735.822824933866, 20306.135154501815, 41380.52211767699, -33308.34606985403, -18905.30662599881, 94931.92671917996, -12938.687257610234, 8734.748808711625, -13526.560488529265, -22119.733347860976, 31311.418868472443, -9648.599880766855, -7947.028630617694, -147.8120860829456, 48094.60617239549, -0.07, 0.99, 0.17400000000000002, 192.0, 0.0, 0.0, 0.0, 0.0, 0.0, 0.0, 0.0, 0.0, 0.0, 1.695414383909639E9, 0.0, 2023-09-22 15:26:23.909
234.0, -6100.998056053884, -12744.405894804704, 20346.033018354537, 41397.889423118766, -33313.24110188975, -18910.40282373462, 94965.43198411846, -12939.693086110723, 8736.939279668246, -13523.632410005619, -22114.86066756972, 31250.443309598366, -9648.71163948913, -7941.932432881884, -146.02394652652103, 48047.39928810588, -0.07, 0.99, 0.17400000000000002, 192.0, 0.0, 0.0, 0.0, 0.0, 0.0, 0.0, 0.0, 0.0, 0.0, 1.695414383909642E9, 0.0, 2023-09-22 15:26:23.909
236.0, -6096.751224607376, -12740.404932547204, 20312.572456904945, 41384.05369330093, -33311.117686166486, -18911.676873168573, 94935.74886748182, -12949.125522270862, 8731.261936576599, -13528.952125185982, -22118.682815871576, 31308.2896242487, -9653.316098846924, -7950.448447519357, -154.00351929706565, 48093.55564040609, -0.07, 0.99, 0.17400000000000002, 192.0, 0.0, 0.0, 0.0, 0.0, 0.0, 0.0, 0.0, 0.0, 0.0, 1.695414383909645E9, 0.0, 2023-09-22 15:26:23.909
238.0, -6102.450919443479, -12745.098798882818, 20337.159375805782, 41382.24320200005, -33315.96801471329, -18911.051024323824, 94938.18520762745, -12946.331554213948, 8737.498073279628, -13530.829671720228, -22116.581751892776, 31230.5726087776, -9653.204340124648, -7947.498017251256, -152.2377314850964, 48026.053372151066, -0.062, 0.99, 0.176, 192.0, 127.0, 8.0, 15.0, 120.0, 2.5, 64.0, 0.0, 0.0, 0.0, 1.695414383909649E9, 0.0, 2023-09-22 15:26:23.909
240.0, -6102.674436888032, -12743.33301107085, 20334.745387404608, 41412.485112248076, -33313.37521235648, -18914.13556505866, 94961.54278058324, -12951.338344971937, 8730.658439476305, -13537.311677612268, -22122.348501962246, 31310.43539171641, -9659.865159972329, -7953.667098720921, -148.1473622497752, 48097.489547430225, -0.062, 0.99, 0.176, 192.0, 0.0, 0.0, 0.0, 0.0, 0.0, 0.0, 0.0, 0.0, 0.0, 1.695414383969353E9, 0.0, 2023-09-22 15:26:23.969
242.0, -6103.344989221691, -12747.266918094983, 20327.436366967722, 41370.016797783, -33318.13613392546, -18916.817774393294, 94926.51759702178, -12951.874786838865, 8734.815863944992, -13532.886032210117, -22114.257170469424, 31228.918579687906, -9656.020659926016, -7949.800246930153, -153.89176057478912, 48019.14668311438, -0.062, 0.99, 0.176, 192.0, 0.0, 0.0, 0.0, 0.0, 0.0, 0.0, 0.0, 0.0, 0.0, 1.695414383969366E9, 0.0, 2023-09-22 15:26:23.969
244.0, -6104.149652022083, -12748.160987873196, 20350.65982945679, 41421.13523735228, -33318.42670660337, -18918.717672671995, 94974.26092317831, -12959.295565998027, 8728.266802819588, -13538.049285179291, -22121.029749039382, 31300.71238287835, -9666.883607731295, -7958.2715580787135, -150.42724018421654, 48079.2952274436, -0.062, 0.99, 0.176, 192.0, 0.0, 0.0, 0.0, 0.0, 0.0, 0.0, 0.0, 0.0, 0.0, 1.69541438396937E9, 0.0, 2023-09-22 15:26:23.969
246.0, -6107.837689857208, -12750.776141974467, 20331.057349569484, 41363.534791890954, -33318.00202345872, -18914.292027269847, 94921.42139928597, -12950.913661827286, 8730.25610807611, -13535.05415142228, -22115.732385603475, 31229.477373299287, -9663.217921640626, -7949.9343573968845, -157.15511526526396, 48015.771569701625, -0.062, 0.99, 0.176, 192.0, 0.0, 0.0, 0.0, 0.0, 0.0, 0.0, 0.0, 0.0, 0.0, 1.695414383969373E9, 0.0, 2023-09-22 15:26:23.969
248.0, -6114.2526405158815, -12760.722668257078, 20351.576250979455, 41414.80969367143, -33320.43836360435, -18922.539820973852, 94979.02184474729, -12960.860188109898, 8718.923773637269, -13549.2475091514, -22128.204659009538, 31289.178882739412, -9673.700889790165, -7963.635976747987, -153.10944951885338, 48068.208762193775, -0.062, 0.998, 0.176, 192.0, 127.0, 8.0, 15.5, 24.0, 2.5, 64.0, 0.0, 0.0, 0.0, 1.695414383969377E9, 0.0, 2023-09-22 15:26:23.969
250.0, -6108.709407890965, -12753.99479317603, 20334.052483326494, 41384.590135167855, -33317.93496822536, -18918.78472790536, 94955.95484446942, -12954.378182217859, 8719.259049804097, -13543.614869548665, -22123.264923484912, 31256.366521879023, -9670.750459522063, -7957.601005745055, -159.5244001775265, 48031.8871774539, -0.062, 0.998, 0.176, 192.0, 0.0, 0.0, 0.0, 0.0, 0.0, 0.0, 0.0, 0.0, 0.0, 1.69541438396938E9, 0.0, 2023-09-22 15:26:23.969
252.0, -6109.290553246803, -12755.112380398796, 20360.11461736138, 41430.90294967925, -33314.1128199235, -18917.443623238043, 95005.5757171602, -12955.18284501825, 8718.655552703805, -13543.212538148468, -22120.873286828195, 31308.267272504247, -9673.946758979173, -7956.19284584437, -149.98020529511038, 48073.930808774334, -0.062, 0.998, 0.176, 192.0, 0.0, 0.0, 0.0, 0.0, 0.0, 0.0, 0.0, 0.0, 0.0, 1.695414383969383E9, 0.0, 2023-09-22 15:26:23.969
254.0, -6106.250716000881, -12747.848063450821, 20304.68229111222, 41360.71847208959, -33313.844598990036, -18911.83333537976, 94937.46995180487, -12952.455932194702, 8721.069541104978, -13539.926831713537, -22117.073490270795, 31267.654152828953, -9673.477372345611, -7953.041249876172, -156.46221118714945, 48030.27785185312, -0.062, 0.998, 0.176, 192.0, 0.0, 0.0, 0.0, 0.0, 0.0, 0.0, 0.0, 0.0, 0.0, 1.695414383969386E9, 0.0, 2023-09-22 15:26:23.969
0.0, -6103.009713054862, -12746.261089594494, 20359.68993421673, 41416.9778128836, -33317.35382286952, -18911.766280146396, 95004.41342644852, -12950.220757749172, 8722.924735894769, -13537.19991888999, -22115.955903048027, 31297.896063076983, -9675.086697946394, -7950.1131713525265, -144.5934348813814, 48047.868674739446, -0.062, 0.998, 0.176, 192.0, 0.0, 0.0, 0.0, 0.0, 0.0, 0.0, 0.0, 0.0, 0.0, 1.695414384029686E9, 0.0, 2023-09-22 15:26:24.029
2.0, -6099.92517232003, -12741.053133136409, 20318.003930807583, 41347.9109225167, -33313.03993618965, -18906.603027177218, 94928.9539371674, -12948.32085947047, 8721.58363122745, -13527.812186218762, -22112.20080997954, 31279.813501812638, -9675.176104924216, -7944.368773027512, -151.81304834044556, 48025.53928202859, -0.064, 0.994, 0.184, 192.0, 127.0, 0.0, 15.5, 8.0, 2.5, 96.0, 0.0, 0.0, 0.0, 1.695414384029713E9, 0.0, 2023-09-22 15:26:24.029
4.0, -6103.166175266048, -12742.796569203922, 20380.924091449273, 41406.71836217861, -33317.622043802985, -18908.45822196701, 94998.53491765677, -12945.906871069297, 8723.43882601724, -13532.10372115418, -22112.111403001716, 31282.451007658365, -9677.076003202916, -7942.781799171186, -140.01132726804343, 48024.578157017015, -0.064, 0.994, 0.184, 192.0, 0.0, 0.0, 0.0, 0.0, 0.0, 0.0, 0.0, 0.0, 0.0, 1.695414384029718E9, 0.0, 2023-09-22 15:26:24.029
6.0, -6108.39648346859, -12748.317450084383, 20319.79207036401, 41354.683501086656, -33320.79599151564, -18913.487364469453, 94940.08510590615, -12951.13717927184, 8714.699293935215, -13538.228099134934, -22117.676987371087, 31294.118618264034, -9684.809706784452, -7948.213273073826, -151.9471588071774, 48027.26036635165, -0.064, 0.994, 0.184, 192.0, 0.0, 0.0, 0.0, 0.0, 0.0, 0.0, 0.0, 0.0, 0.0, 1.695414384029723E9, 0.0, 2023-09-22 15:26:24.029
8.0, -6106.183660767515, -12749.56914777388, 20378.085419903447, 41425.29266182097, -33319.70075603733, -18909.396995234132, 95023.18889179098, -12947.784417603543, 8713.24643054562, -13536.77523574534, -22119.55453390533, 31292.57634789662, -9687.670730074731, -7950.157874841438, -146.7839058380015, 48031.21662512024, -0.064, 0.994, 0.184, 192.0, 0.0, 0.0, 0.0, 0.0, 0.0, 0.0, 0.0, 0.0, 0.0, 1.695414384029728E9, 0.0, 2023-09-22 15:26:24.029
10.0, -6107.480061945923, -12749.725609985067, 20304.302311456482, 41357.879800543764, -33322.3159101386, -18913.353254002723, 94944.17547514147, -12951.584214160946, 8726.948049896724, -13535.523538055842, -22113.631321624678, 31302.14289452349, -9683.289788161492, -7945.66517420592, -152.90828381875562, 48027.39447681839, -0.064, 0.994, 0.184, 192.0, 0.0, 0.0, 0.0, 0.0, 0.0, 0.0, 0.0, 0.0, 0.0, 1.695414384029733E9, 0.0, 2023-09-22 15:26:24.029
12.0, -6115.63844867211, -12760.789723490445, 20370.5081785331, 41425.53853100998, -33329.69198580885, -18918.896486627636, 95025.35701100314, -12952.858263594899, 8712.352360767409, -13546.542948072309, -22124.226048496494, 31268.771740051718, -9691.761099310053, -7956.14814235546, -151.5895308958925, 48008.21668007573, -0.064, 1.002, 0.178, 192.0, 127.0, 0.0, 15.5, 40.0, 2.5, 72.0, 0.0, 0.0, 0.0, 1.695414384029739E9, 0.0, 2023-09-22 15:26:24.029
14.0, -6105.691922389498, -12751.558453030402, 20312.483049927123, 41352.82830629686, -33320.30425313762, -18916.683663926564, 94943.661385019, -12953.99820256212, 8713.067616589979, -13545.291250382812, -22120.202734494538, 31307.976699826326, -9689.615331842344, -7956.550473755655, -157.17746700971927, 48032.758895487656, -0.064, 1.002, 0.178, 192.0, 0.0, 0.0, 0.0, 0.0, 0.0, 0.0, 0.0, 0.0, 0.0, 1.695414384089997E9, 0.0, 2023-09-22 15:26:24.089
16.0, -6113.224460270937, -12758.219272878085, 20391.921149721285, 41405.80194065594, -33328.50734335272, -18916.92953311557, 95015.20931902043, -12950.578385660458, 8714.900459635313, -13538.96570670196, -22119.599237394243, 31252.00793171024, -9687.603674841366, -7954.941148154873, -147.74503084957968, 47973.549124425546, -0.064, 1.002, 0.178, 192.0, 0.0, 0.0, 0.0, 0.0, 0.0, 0.0, 0.0, 0.0, 0.0, 1.695414384090013E9, 0.0, 2023-09-22 15:26:24.090
18.0, -6108.240021257404, -12750.61967976328, 20330.87853561384, 41371.603771639326, -33324.39462237294, -18910.55928594581, 94974.75266155633, -12951.830083349954, 8705.333913008442, -13544.128959671136, -22120.38154845018, 31319.10786856507, -9691.805802798963, -7958.0927441230715, -152.14832450727516, 48030.14374138639, -0.064, 1.002, 0.178, 192.0, 0.0, 0.0, 0.0, 0.0, 0.0, 0.0, 0.0, 0.0, 0.0, 1.695414384090017E9, 0.0, 2023-09-22 15:26:24.090
20.0, -6113.090349804205, -12755.04532516543, 20359.444065027725, 41396.74948415154, -33327.43445961887, -18910.805155134818, 95013.35412423064, -12946.845644336421, 8706.563258953483, -13539.278631124334, -22118.548705404843, 31251.784414265683, -9687.760137052554, -7952.348345798057, -144.928711048211, 47971.49276393566, -0.064, 1.002, 0.178, 192.0, 0.0, 0.0, 0.0, 0.0, 0.0, 0.0, 0.0, 0.0, 0.0, 1.695414384090021E9, 0.0, 2023-09-22 15:26:24.090
22.0, -6109.804643369275, -12755.00062167652, 20331.526736203043, 41389.66398115921, -33326.5180380962, -18908.12294580018, 94998.44551067895, -12951.450103694213, 8706.138575808833, -13539.010410190871, -22122.326150217792, 31307.082630048113, -9690.598808598377, -7956.706935966842, -149.6672808727361, 48013.469340022726, -0.066, 1.002, 0.176, 192.0, 126.5, 120.0, 15.5, 40.0, 2.5, 64.0, 0.0, 0.0, 0.0, 1.695414384090025E9, 0.0, 2023-09-22 15:26:24.090
24.0, -6109.134091035616, -12749.412685562693, 20370.396419810822, 41405.31020227793, -33322.78529677216, -18902.3114922418, 95034.90120588556, -12943.358772201393, 8710.2065932997, -13539.636259035618, -22120.359196705725, 31251.784414265683, -9689.861201031352, -7954.404706287945, -148.95202505016627, 47971.33630172447, -0.066, 1.002, 0.176, 192.0, 0.0, 0.0, 0.0, 0.0, 0.0, 0.0, 0.0, 0.0, 0.0, 1.695414384090028E9, 0.0, 2023-09-22 15:26:24.090
26.0, -6110.475195702934, -12757.325203099872, 20320.999064564596, 41379.67275138769, -33320.37130837099, -18902.64676840863, 94999.36193220162, -12947.985583303642, 8708.351398509909, -13535.121206655647, -22119.845106583252, 31307.552016681675, -9688.140116708293, -7950.180226585892, -144.928711048211, 48011.52473825512, -0.066, 1.002, 0.176, 192.0, 0.0, 0.0, 0.0, 0.0, 0.0, 0.0, 0.0, 0.0, 0.0, 1.695414384090032E9, 0.0, 2023-09-22 15:26:24.090
28.0, -6119.192376040504, -12767.405839849216, 20334.20894553768, 41369.39094893825, -33326.36157588501, -18905.194867276536, 95005.91099332702, -12947.538548414535, 8704.573953696961, -13540.306811369279, -22123.354330462735, 31224.55998951912, -9689.123593464326, -7954.516465010222, -150.2707779730294, 47931.50549310511, -0.066, 1.002, 0.176, 192.0, 0.0, 0.0, 0.0, 0.0, 0.0, 0.0, 0.0, 0.0, 0.0, 1.695414384090035E9, 0.0, 2023-09-22 15:26:24.090
30.0, -6119.326486507236, -12765.863569481799, 20334.432462982233, 41394.22373702809, -33322.092392694045, -18904.03257656486, 95023.88179586909, -12948.544376915024, 8699.477755961152, -13544.933622471526, -22126.975313064493, 31304.512179435755, -9692.454003388168, -7958.696241223364, -147.34269944938416, 48000.75119742766, -0.066, 1.002, 0.176, 192.0, 0.0, 0.0, 0.0, 0.0, 0.0, 0.0, 0.0, 0.0, 0.0, 1.695414384150223E9, 0.0, 2023-09-22 15:26:24.150
32.0, -6117.7171609064535, -12764.120133414286, 20343.46256774218, 41362.75248083502, -33319.54429382614, -18900.053966051815, 95000.61362989112, -12942.151778000805, 8706.67501767576, -13537.334029356722, -22123.354330462735, 31226.973977920294, -9685.413203884746, -7951.588386486577, -150.51664716203777, 47930.969051238186, -0.068, 1.002, 0.17200000000000001, 192.0, 126.5, 112.0, 15.5, 40.0, 2.5, 48.0, 0.0, 0.0, 0.0, 1.695414384150235E9, 0.0, 2023-09-22 15:26:24.150
34.0, -6115.6608004165655, -12762.734325258056, 20358.684105716242, 41400.5716324534, -33323.34409038354, -18903.920817842583, 95038.4327815095, -12951.919490327775, 8702.092910062422, -13542.899613726095, -22125.81302235282, 31293.358658952555, -9690.82232604293, -7961.2666918357245, -145.9568912931551, 47983.54035419707, -0.068, 1.002, 0.17200000000000001, 192.0, 0.0, 0.0, 0.0, 0.0, 0.0, 0.0, 0.0, 0.0, 0.0, 1.695414384150239E9, 0.0, 2023-09-22 15:26:24.150
36.0, -6111.771596881342, -12757.682831011158, 20356.136006848337, 41372.18491699516, -33321.86887524949, -18898.288178239844, 95020.59608943417, -12942.196481489716, 8715.593363713428, -13530.986133931416, -22115.441812925557, 31241.10028041605, -9684.943817251184, -7953.197712087359, -150.33783320639532, 47936.26641467409, -0.068, 1.002, 0.17200000000000001, 192.0, 0.0, 0.0, 0.0, 0.0, 0.0, 0.0, 0.0, 0.0, 0.0, 1.695414384150242E9, 0.0, 2023-09-22 15:26:24.150
38.0, -6116.532518450323, -12761.61673803529, 20371.04462040003, 41420.01765012952, -33324.99811947324, -18903.384375975656, 95063.22086611044, -12955.51812118508, 8712.24060204513, -13537.714009012463, -22121.208562995027, 31303.618109657542, -9688.989482997595, -7957.645709233965, -145.9121878042445, 47989.17299379981, -0.068, 1.002, 0.17200000000000001, 192.0, 0.0, 0.0, 0.0, 0.0, 0.0, 0.0, 0.0, 0.0, 0.0, 1.695414384150245E9, 0.0, 2023-09-22 15:26:24.150
40.0, -6107.882393346119, -12752.743095486534, 20341.048579341004, 41359.7126435891, -33315.61038680201, -18896.097707283225, 95007.43091194998, -12944.699876868712, 8715.503956735607, -13533.847157221695, -22113.38545243567, 31245.41416709592, -9681.524000349522, -7952.817732431618, -151.52247566252657, 47938.56864435299, -0.068, 1.002, 0.17200000000000001, 192.0, 0.0, 0.0, 0.0, 0.0, 0.0, 0.0, 0.0, 0.0, 0.0, 1.695414384150248E9, 0.0, 2023-09-22 15:26:24.150
42.0, -6108.105910790671, -12755.090028654342, 20386.377917096368, 41415.81552217192, -33317.97967171427, -18897.729384628463, 95068.25000861289, -12947.762065859088, 8719.34845678192, -13528.415683319055, -22106.47876339898, 31281.95926928035, -9679.735860793098, -7949.532025996688, -134.8257225544122, 47968.74349936766, -0.066, 1.002, 0.178, 192.0, 126.5, 120.0, 15.5, 40.0, 2.5, 72.0, 0.0, 0.0, 0.0, 1.695414384150252E9, 0.0, 2023-09-22 15:26:24.150
44.0, -6109.804643369275, -12756.408781577204, 20346.234184054636, 41378.309294975916, -33317.68909903635, -18889.146314757625, 95027.94981335996, -12943.649344879312, 8718.588497470439, -13531.075540909236, -22107.32812968828, 31259.47341435831, -9681.635759071798, -7947.520368995711, -145.64396687078082, 47950.77269682559, -0.066, 1.002, 0.178, 192.0, 0.0, 0.0, 0.0, 0.0, 0.0, 0.0, 0.0, 0.0, 0.0, 1.695414384210484E9, 0.0, 2023-09-22 15:26:24.210
46.0, -6114.16323353806, -12761.348517101827, 20390.33417586496, 41452.62884528981, -33319.566645570594, -18887.760506601397, 95109.198404455, -12943.023496034562, 8712.709988678693, -13534.16008164407, -22114.19011523606, 31301.85232184557, -9687.044881229984, -7949.107342852038, -137.6420423557809, 47994.11272932443, -0.066, 1.002, 0.178, 192.0, 0.0, 0.0, 0.0, 0.0, 0.0, 0.0, 0.0, 0.0, 0.0, 1.695414384210498E9, 0.0, 2023-09-22 15:26:24.210
48.0, -6112.35274223718, -12760.85677872381, 20327.659884412275, 41378.84573684284, -33315.61038680201, -18884.988890288936, 95029.6261941941, -12938.933126799242, 8713.29113403453, -13522.894802438594, -22109.56330413381, 31276.125463977514, -9682.999215483573, -7943.474703249301, -144.0122895255434, 47964.89899932135, -0.066, 1.002, 0.178, 192.0, 0.0, 0.0, 0.0, 0.0, 0.0, 0.0, 0.0, 0.0, 0.0, 1.695414384210502E9, 0.0, 2023-09-22 15:26:24.210
50.0, -6121.338143508214, -12768.85870323881, 20384.768591495587, 41459.55788607096, -33323.12057293899, -18887.514637412387, 95119.36844818217, -12942.397647189815, 8712.799395656515, -13533.400122332589, -22114.65950186962, 31289.178882739412, -9686.217866685136, -7944.011145116227, -134.33398417639543, 47972.31977848051, -0.066, 1.002, 0.178, 192.0, 0.0, 0.0, 0.0, 0.0, 0.0, 0.0, 0.0, 0.0, 0.0, 1.695414384210506E9, 0.0, 2023-09-22 15:26:24.210
52.0, -6120.667591174554, -12764.231892136562, 20316.77458486254, 41389.418111970204, -33321.69006129385, -18889.570997902276, 95042.65726121156, -12947.113865269885, 8708.038474087534, -13539.30098286879, -22118.101670515738, 31290.452932173364, -9689.145945208782, -7948.570900985111, -151.2319029846076, 47974.89022909287, -0.062, 0.998, 0.17400000000000002, 192.0, 127.0, 8.0, 15.5, 24.0, 2.5, 56.0, 0.0, 0.0, 0.0, 1.695414384210509E9, 0.0, 2023-09-22 15:26:24.210
54.0, -6123.662724931565, -12767.227025893573, 20379.203007126216, 41457.41211860325, -33321.93593048286, -18892.94611131503, 95120.1507592381, -12944.632821635345, 8709.401930499307, -13533.690695010508, -22119.4204234386, 31272.817405798127, -9689.39181439779, -7951.029592875194, -144.74989709256855, 47957.746441095645, -0.062, 0.998, 0.17400000000000002, 192.0, 0.0, 0.0, 0.0, 0.0, 0.0, 0.0, 0.0, 0.0, 0.0, 1.695414384210512E9, 0.0, 2023-09-22 15:26:24.210
56.0, -6116.331352750225, -12760.633261279258, 20307.45390742468, 41366.88755355925, -33314.470447834785, -18888.07343102377, 95017.93623184398, -12944.61046989089, 8706.429148486752, -13532.282535109824, -22117.09584201525, 31282.20513846936, -9689.81649754244, -7950.493151008267, -154.1599815082528, 47956.29357770605, -0.062, 0.998, 0.17400000000000002, 192.0, 0.0, 0.0, 0.0, 0.0, 0.0, 0.0, 0.0, 0.0, 0.0, 1.695414384210516E9, 0.0, 2023-09-22 15:26:24.210
58.0, -6120.0640940742605, -12768.232854394062, 20388.814257241997, 41430.657080490244, -33323.277035150175, -18892.476724681466, 95095.07210195925, -12947.94087981473, 8706.563258953483, -13534.942392700004, -22113.452507669033, 31239.781527493185, -9687.58132309691, -7948.14621784046, -140.8159900684345, 47920.08375168846, -0.062, 0.998, 0.17400000000000002, 192.0, 0.0, 0.0, 0.0, 0.0, 0.0, 0.0, 0.0, 0.0, 0.0, 1.69541438421052E9, 0.0, 2023-09-22 15:26:24.210
60.0, -6113.000942826384, -12762.846083980332, 20325.73763438912, 41379.069254287395, -33317.66674729189, -18884.78772458884, 95034.07419134071, -12943.649344879312, 8709.58074445495, -13535.657648522574, -22113.00547277993, 31284.19444372588, -9690.06236673145, -7951.789552186675, -148.97437679462158, 47956.762964339614, -0.062, 0.998, 0.17400000000000002, 192.0, 0.0, 0.0, 0.0, 0.0, 0.0, 0.0, 0.0, 0.0, 0.0, 1.695414384269345E9, 0.0, 2023-09-22 15:26:24.269
62.0, -6119.080617318227, -12764.924796214676, 20389.596568297933, 41456.00395870256, -33319.27607289267, -18884.67596586656, 95128.28679421984, -12936.340324442426, 8704.685712419237, -13533.601288032687, -22112.066699512805, 31250.175088664902, -9689.928256264719, -7948.392087029468, -138.13378073379764, 47934.23240592866, -0.06, 0.998, 0.18, 192.0, 127.0, 16.0, 15.5, 24.0, 2.5, 80.0, 0.0, 0.0, 0.0, 1.69541438426936E9, 0.0, 2023-09-22 15:26:24.269
64.0, -6119.102969062683, -12763.181360147162, 20315.88051508433, 41408.68531569068, -33319.49959033723, -18889.816867091282, 95074.17322089353, -12947.650307136812, 8700.371825739363, -13529.332104841722, -22111.843182068253, 31307.68612714841, -9689.10124171987, -7946.983927128784, -144.9510627926663, 47979.18176402828, -0.06, 0.998, 0.18, 192.0, 0.0, 0.0, 0.0, 0.0, 0.0, 0.0, 0.0, 0.0, 0.0, 1.695414384269364E9, 0.0, 2023-09-22 15:26:24.269
66.0, -6123.729780164931, -12768.90340672772, 20374.062105901492, 41461.65895004976, -33321.332433382566, -18894.913064827095, 95144.98354732795, -12944.409304190793, 8696.929657093246, -13536.618773534152, -22115.24064722546, 31256.835908512585, -9692.833983043907, -7956.505770266745, -146.40392618226127, 47940.893225776344, -0.06, 0.998, 0.18, 192.0, 0.0, 0.0, 0.0, 0.0, 0.0, 0.0, 0.0, 0.0, 0.0, 1.695414384269367E9, 0.0, 2023-09-22 15:26:24.269
68.0, -6116.934849850518, -12762.28729036895, 20317.98157906313, 41413.02155411501, -33316.68327053586, -18889.950977558015, 95086.35492162168, -12944.6551733798, 8706.362093253385, -13530.896726953593, -22109.56330413381, 31307.172037025935, -9687.558971352455, -7952.974194642806, -147.00742328255456, 47977.661845405324, -0.06, 0.998, 0.18, 192.0, 0.0, 0.0, 0.0, 0.0, 0.0, 0.0, 0.0, 0.0, 0.0, 1.695414384269371E9, 0.0, 2023-09-22 15:26:24.269
70.0, -6123.327448764736, -12770.825656750878, 20371.46930354468, 41456.56275231395, -33325.4675061068, -18888.36400370169, 95148.73864039643, -12941.972964045164, 8709.424282243763, -13531.38846533161, -22110.435022167567, 31252.834946255083, -9691.090546976393, -7952.705973709342, -141.68770810219146, 47928.2644901591, -0.06, 0.998, 0.18, 192.0, 0.0, 0.0, 0.0, 0.0, 0.0, 0.0, 0.0, 0.0, 0.0, 1.695414384269383E9, 0.0, 2023-09-22 15:26:24.269
72.0, -6114.274992260336, -12758.353383344816, 20340.55684096299, 41451.7347755116, -33320.97480547128, -18883.87130306617, 95135.0593727898, -12944.699876868712, 8710.363055510887, -13525.308790839767, -22109.496248900447, 31341.191392086912, -9693.124555721826, -7948.0568108626385, -144.50402790356017, 48004.05925560704, -0.068, 0.998, 0.178, 192.0, 126.5, 112.0, 15.5, 24.0, 2.5, 72.0, 0.0, 0.0, 0.0, 1.695414384269386E9, 0.0, 2023-09-22 15:26:24.269
74.0, -6114.386750982613, -12758.934528700654, 20362.84153018493, 41440.5812550284, -33323.142924683445, -18885.994718789425, 95135.08172453425, -12946.264498980583, 8713.738168923637, -13521.374883815633, -22105.338824431758, 31277.891251789482, -9691.716395821142, -7944.100552094049, -143.7217168476244, 47952.80670557103, -0.068, 0.998, 0.178, 192.0, 0.0, 0.0, 0.0, 0.0, 0.0, 0.0, 0.0, 0.0, 0.0, 1.695414384329597E9, 0.0, 2023-09-22 15:26:24.329
76.0, -6104.127300277627, -12747.445732050626, 20349.78811142303, 41438.211970116135, -33318.113782181004, -18878.484532652445, 95125.29166046283, -12945.102208268907, 8718.700256192715, -13521.48664253791, -22101.29315868535, 31336.519877495753, -9692.699872577175, -7946.4698370063115, -140.30189994596242, 47994.11272932443, -0.068, 0.998, 0.178, 192.0, 0.0, 0.0, 0.0, 0.0, 0.0, 0.0, 0.0, 0.0, 0.0, 1.695414384329611E9, 0.0, 2023-09-22 15:26:24.329
78.0, -6101.914477576552, -12743.08714188184, 20356.27011731507, 41396.973001596096, -33315.677442035376, -18872.471913393965, 95091.7416920354, -12936.295620953515, 8733.58651799995, -13497.05618584826, -22086.630414322666, 31259.09343470257, -9677.76890728103, -7928.499034464245, -137.0161935110323, 47926.699868047224, -0.068, 0.998, 0.178, 192.0, 0.0, 0.0, 0.0, 0.0, 0.0, 0.0, 0.0, 0.0, 0.0, 1.695414384329615E9, 0.0, 2023-09-22 15:26:24.329
80.0, -6108.217669512948, -12751.066714652387, 20349.922221889763, 41420.71055420763, -33322.00298571622, -18882.3066809543, 95104.07985497474, -12950.444275193726, 8721.985962627645, -13513.976456400927, -22098.901522028627, 31320.42662148793, -9688.20717194166, -7939.1384648249705, -137.21735921113006, 47984.948514097756, -0.068, 0.998, 0.178, 192.0, 0.0, 0.0, 0.0, 0.0, 0.0, 0.0, 0.0, 0.0, 0.0, 1.695414384329618E9, 0.0, 2023-09-22 15:26:24.329
82.0, -6118.074788817738, -12765.416534592692, 20357.678277215753, 41413.55799598194, -33328.30617765262, -18886.68762286754, 95107.0526369873, -12950.556033916002, 8718.163814325788, -13516.278686079822, -22100.063812740304, 31250.622123554007, -9689.01183474205, -7941.731267181786, -141.64300461328085, 47940.37913565387, -0.068, 1.002, 0.18, 192.0, 126.5, 112.0, 15.5, 40.0, 2.5, 80.0, 0.0, 0.0, 0.0, 1.695414384329621E9, 0.0, 2023-09-22 15:26:24.329
84.0, -6123.215690042459, -12773.977252719076, 20361.031038884048, 41465.8387262629, -33327.59092183005, -18892.476724681466, 95157.09819282273, -12960.971946832175, 8709.1560613103, -13534.852985722184, -22113.541914646856, 31327.57917971363, -9698.06429124645, -7956.729287711298, -142.42531566921662, 48030.14374138639, -0.068, 1.002, 0.18, 192.0, 0.0, 0.0, 0.0, 0.0, 0.0, 0.0, 0.0, 0.0, 0.0, 1.695414384329624E9, 0.0, 2023-09-22 15:26:24.329
86.0, -6127.060190088772, -12775.29600564194, 20324.575343677443, 41397.2188707851, -33323.54525608364, -18890.755640358406, 95091.11584319065, -12954.266423495583, 8705.557430452995, -13533.087197910214, -22114.883019314173, 31251.247972398756, -9694.733881322609, -7955.030555132695, -154.45055418617181, 47972.90092383634, -0.068, 1.002, 0.18, 192.0, 0.0, 0.0, 0.0, 0.0, 0.0, 0.0, 0.0, 0.0, 0.0, 1.695414384329628E9, 0.0, 2023-09-22 15:26:24.329
88.0, -6132.379905269135, -12778.894636499243, 20352.336210290934, 41445.72215625312, -33326.58509332956, -18892.11909677018, 95140.28968099234, -12955.22754850716, 8702.942276351723, -13531.008485675871, -22118.168725749103, 31291.682278118406, -9695.695006334186, -7954.427058032401, -141.8441703133786, 48006.607354474945, -0.068, 1.002, 0.18, 192.0, 0.0, 0.0, 0.0, 0.0, 0.0, 0.0, 0.0, 0.0, 0.0, 1.695414384329631E9, 0.0, 2023-09-22 15:26:24.329
90.0, -6130.59176571271, -12774.468991097092, 20299.004948020574, 41389.90985034822, -33335.95047425634, -18896.701204383517, 95085.63966579911, -12960.256691009605, 8701.444709473219, -13540.709142769474, -22120.828583339284, 31255.874783501007, -9701.4394046592, -7962.138409869482, -158.69738563268015, 47982.24395301866, -0.068, 1.002, 0.18, 192.0, 0.0, 0.0, 0.0, 0.0, 0.0, 0.0, 0.0, 0.0, 0.0, 1.695414384389824E9, 0.0, 2023-09-22 15:26:24.389
92.0, -6121.584012697222, -12767.00350844902, 20334.83479438243, 41440.29068235048, -33322.04768920514, -18872.807189560794, 95138.12156178016, -12940.006010533096, 8701.332950750942, -13529.086235652714, -22117.09584201525, 31288.32951645011, -9701.841736059396, -7954.181188843392, -148.32617620541768, 48024.13112212791, -0.064, 0.998, 0.17400000000000002, 192.0, 127.0, 0.0, 15.5, 24.0, 2.5, 56.0, 0.0, 0.0, 0.0, 1.695414384389834E9, 0.0, 2023-09-22 15:26:24.389
94.0, -6128.155425567082, -12776.48064809807, 20289.706622327165, 41384.7689491235, -33325.75807878472, -18870.616718604175, 95080.07408142973, -12937.74848434311, 8702.964628096179, -13525.062921650759, -22110.345615189748, 31246.62116129651, -9697.796070312987, -7940.457217747834, -143.0064610250546, 47992.97279035721, -0.064, 0.998, 0.17400000000000002, 192.0, 0.0, 0.0, 0.0, 0.0, 0.0, 0.0, 0.0, 0.0, 0.0, 1.695414384389838E9, 0.0, 2023-09-22 15:26:24.389
96.0, -6122.433378986523, -12767.562302060403, 20338.634590939833, 41451.10892666685, -33324.0146427172, -18864.559395856788, 95157.18759980054, -12934.619240119368, 8699.611866427884, -13518.20093610298, -22114.927722803084, 31288.10599900556, -9702.624047115332, -7937.23856654627, -141.03950751298757, 48046.236997394204, -0.064, 0.998, 0.17400000000000002, 192.0, 0.0, 0.0, 0.0, 0.0, 0.0, 0.0, 0.0, 0.0, 0.0, 1.695414384389841E9, 0.0, 2023-09-22 15:26:24.389
98.0, -6115.794910883297, -12759.873301967777, 20290.4889333831, 41388.5687456809, -33320.55012232663, -18858.367962642667, 95091.7416920354, -12927.064350493474, 8699.365997238874, -13512.903572667072, -22107.551647132834, 31275.790187810682, -9699.226581958126, -7931.2706507767025, -148.03560352749867, 48038.12331415693, -0.064, 0.998, 0.17400000000000002, 192.0, 0.0, 0.0, 0.0, 0.0, 0.0, 0.0, 0.0, 0.0, 0.0, 1.695414384389845E9, 0.0, 2023-09-22 15:26:24.389
100.0, -6124.377980754135, -12770.982118962065, 20348.4023032668, 41466.330464640916, -33325.869837506994, -18868.001564502905, 95182.4674227795, -12937.189690731728, 8699.209535027687, -13518.71502622545, -22109.13862098916, 31291.883443818504, -9701.506459892567, -7937.3726770130015, -137.61969061132558, 48070.98037850623, -0.064, 0.998, 0.17400000000000002, 192.0, 0.0, 0.0, 0.0, 0.0, 0.0, 0.0, 0.0, 0.0, 0.0, 1.695414384389848E9, 0.0, 2023-09-22 15:26:24.389
102.0, -6116.7783876393305, -12762.577863046869, 20270.01473546204, 41371.313198961405, -33318.71727928129, -18865.945204013016, 95077.3918720951, -12938.977830288153, 8701.57881993995, -13517.753901213873, -22107.641054110652, 31278.986487267794, -9698.086642990906, -7938.669078191409, -150.24842622857406, 48065.37009064795, -0.062, 1.004, 0.17200000000000001, 192.0, 127.0, 8.0, 15.5, 48.0, 2.5, 48.0, 0.0, 0.0, 0.0, 1.695414384389851E9, 0.0, 2023-09-22 15:26:24.389
104.0, -6114.297344004792, -12760.76737174599, 20331.862012369875, 41426.96904265512, -33320.863046749, -18863.06182897828, 95144.33534673875, -12935.55801338649, 8703.702235663204, -13516.792776202295, -22106.076431998783, 31242.553143805642, -9696.410262156756, -7940.054886347639, -137.08324874439822, 48040.04556418009, -0.062, 1.004, 0.17200000000000001, 192.0, 0.0, 0.0, 0.0, 0.0, 0.0, 0.0, 0.0, 0.0, 0.0, 1.695414384450089E9, 0.0, 2023-09-22 15:26:24.450
106.0, -6107.994152068395, -12750.038534407442, 20258.369476600823, 41351.80012605192, -33313.64343328994, -18857.764465542372, 95052.35791830516, -12931.735865084633, 8707.502032220607, -13508.544982498286, -22101.76254531891, 31257.70762654634, -9691.20230569867, -7933.99756360025, -143.58760638089257, 48057.32346264404, -0.062, 1.004, 0.17200000000000001, 192.0, 0.0, 0.0, 0.0, 0.0, 0.0, 0.0, 0.0, 0.0, 0.0, 1.695414384450106E9, 0.0, 2023-09-22 15:26:24.450
108.0, -6116.331352750225, -12762.399049091227, 20341.517965974566, 41433.026365402504, -33322.9641107278, -18865.02878249035, 95142.8601316047, -12933.054618007496, 8708.44080548773, -13500.118374838636, -22103.12600173068, 31224.671748241395, -9692.25283768807, -7933.885804877974, -137.21735921113006, 48038.36918334594, -0.062, 1.004, 0.17200000000000001, 192.0, 0.0, 0.0, 0.0, 0.0, 0.0, 0.0, 0.0, 0.0, 0.0, 1.69541438445011E9, 0.0, 2023-09-22 15:26:24.450
110.0, -6108.575297424233, -12756.967575188586, 20279.29070941099, 41377.07994903087, -33314.80572400161, -18856.602174830696, 95070.99927318087, -12930.819443561966, 8704.953933352701, -13504.499316751877, -22102.52250463039, 31276.639554099987, -9691.58228535441, -7931.5612234546215, -152.05891752945394, 48092.99684679471, -0.062, 1.004, 0.17200000000000001, 192.0, 0.0, 0.0, 0.0, 0.0, 0.0, 0.0, 0.0, 0.0, 0.0, 1.695414384450114E9, 0.0, 2023-09-22 15:26:24.450
112.0, -6112.039817814805, -12760.38739209025, 20345.183652065236, 41429.58419675639, -33318.49376183674, -18857.093913208715, 95131.52779716585, -12927.55608887149, 8703.255200774098, -13499.447822504977, -22099.549722617834, 31231.019643666703, -9689.01183474205, -7926.353266996535, -139.67605110121383, 48056.22822716573, -0.066, 0.998, 0.168, 192.0, 126.5, 120.0, 15.5, 24.0, 2.5, 32.0, 0.0, 0.0, 0.0, 1.69541438445012E9, 0.0, 2023-09-22 15:26:24.450
114.0, -6107.994152068395, -12754.464179809593, 20277.413162876746, 41364.98765528055, -33312.615253045, -18854.12113119616, 95048.53577000329, -12931.065312750974, 8715.883936391347, -13494.508086980355, -22096.12990571617, 31282.741580336286, -9684.608541084355, -7924.676886162387, -146.31451920444005, 48094.069730528565, -0.066, 0.998, 0.168, 192.0, 0.0, 0.0, 0.0, 0.0, 0.0, 0.0, 0.0, 0.0, 0.0, 1.695414384450125E9, 0.0, 2023-09-22 15:26:24.450
116.0, -6113.403274226579, -12760.834426979354, 20334.745387404608, 41400.50457722003, -33319.49959033723, -18857.11626495317, 95096.12263394865, -12928.561917371979, 8705.132747308344, -13497.167944570536, -22101.919007530094, 31227.51041978722, -9687.111936463349, -7929.013124586717, -145.97924303761042, 48043.91241597085, -0.066, 0.998, 0.168, 192.0, 0.0, 0.0, 0.0, 0.0, 0.0, 0.0, 0.0, 0.0, 0.0, 1.695414384450128E9, 0.0, 2023-09-22 15:26:24.450
118.0, -6109.178794524526, -12754.732400743056, 20298.759078831565, 41392.79322538296, -33316.839732747045, -18853.741151540416, 95070.10520340267, -12933.278135452048, 8701.109433306388, -13497.167944570536, -22105.025900009383, 31312.514103950754, -9687.760137052554, -7930.577746698588, -146.29216745998474, 48115.594460439024, -0.066, 0.998, 0.168, 192.0, 0.0, 0.0, 0.0, 0.0, 0.0, 0.0, 0.0, 0.0, 0.0, 1.695414384450132E9, 0.0, 2023-09-22 15:26:24.450
120.0, -6108.575297424233, -12754.642993765236, 20336.600582194398, 41411.88161514779, -33314.87277923498, -18847.3485526262, 95097.53079384934, -12925.74559757061, 8709.536040966039, -13487.37788049911, -22099.19209470655, 31257.417053868423, -9678.260645659047, -7922.620525672499, -142.78294358050152, 48069.90749477238, -0.066, 0.998, 0.168, 192.0, 0.0, 0.0, 0.0, 0.0, 0.0, 0.0, 0.0, 0.0, 0.0, 1.695414384510332E9, 0.0, 2023-09-22 15:26:24.510
122.0, -6105.423701456035, -12751.558453030402, 20308.97382604764, 41418.18480708418, -33311.341203611046, -18843.615811302163, 95087.4948605889, -12925.969115015163, 8708.574915954461, -13477.47605770541, -22099.37090866219, 31350.06503463567, -9678.417107870235, -7918.2395837592585, -142.6935366026803, 48147.02101314319, -0.068, 0.996, 0.17200000000000001, 192.0, 126.5, 112.0, 15.5, 16.0, 2.5, 48.0, 0.0, 0.0, 0.0, 1.695414384510341E9, 0.0, 2023-09-22 15:26:24.510
124.0, -6109.715236391454, -12757.883996711254, 20309.59967489239, 41401.6221644428, -33315.43157284636, -18845.605116558687, 95073.92735170452, -12926.349094670904, 8709.1560613103, -13482.169924041025, -22098.27567318388, 31278.159472722946, -9672.560950822945, -7918.261935503714, -146.02394652652103, 48088.615904881466, -0.068, 0.996, 0.17200000000000001, 192.0, 0.0, 0.0, 0.0, 0.0, 0.0, 0.0, 0.0, 0.0, 0.0, 1.695414384510345E9, 0.0, 2023-09-22 15:26:24.510
126.0, -6107.5918206682, -12759.71683975659, 20303.92233180074, 41419.34709779586, -33311.743535011236, -18847.12503518165, 95077.68244477302, -12931.825272062455, 8705.24450603062, -13486.819086887728, -22105.160010476116, 31338.889162408017, -9669.096430432372, -7923.492243706256, -151.6342343848031, 48136.62745197147, -0.068, 0.996, 0.17200000000000001, 192.0, 0.0, 0.0, 0.0, 0.0, 0.0, 0.0, 0.0, 0.0, 0.0, 1.695414384510348E9, 0.0, 2023-09-22 15:26:24.510
128.0, -6106.92126833454, -12755.71587749909, 20312.795974349498, 41414.11678959332, -33313.978709456766, -18847.169738670556, 95073.90499996007, -12933.233431963139, 8718.901421892813, -13484.80742988675, -22102.835429052764, 31288.19540598338, -9664.983709452596, -7925.213328029315, -156.5963216538813, 48095.16496600687, -0.068, 0.996, 0.17200000000000001, 192.0, 0.0, 0.0, 0.0, 0.0, 0.0, 0.0, 0.0, 0.0, 0.0, 1.695414384510351E9, 0.0, 2023-09-22 15:26:24.510
130.0, -6105.736625878409, -12755.559415287902, 20315.947570317694, 41449.49960106607, -33310.424782088376, -18841.805320001284, 95094.82623277024, -12935.222737219661, 8722.0083143721, -13486.617921187632, -22103.52833313088, 31353.417796303966, -9661.094505917372, -7932.477644977289, -154.47290593062712, 48144.51761776419, -0.068, 0.996, 0.17200000000000001, 192.0, 0.0, 0.0, 0.0, 0.0, 0.0, 0.0, 0.0, 0.0, 0.0, 1.695414384510354E9, 0.0, 2023-09-22 15:26:24.510
132.0, -6107.323599734736, -12756.453485066115, 20298.20028522018, 41406.78541741198, -33306.289709364144, -18842.58763105722, 95051.53090376031, -12935.423902919758, 8722.656514961305, -13490.66358693404, -22101.404917407624, 31299.05835378866, -9655.372459336813, -7929.23664203127, -154.22703674161872, 48096.64018114092, -0.07, 0.996, 0.17200000000000001, 192.0, 126.5, 104.0, 15.5, 16.0, 2.5, 48.0, 0.0, 0.0, 0.0, 1.695414384510357E9, 0.0, 2023-09-22 15:26:24.510
134.0, -6107.725931134932, -12757.325203099872, 20323.055425054485, 41438.52489453851, -33304.747438996725, -18841.179471156534, 95075.13434590511, -12939.93895529973, 8718.432035259251, -13490.305959022757, -22102.343690674745, 31346.645217734007, -9653.33845059138, -7929.571918198099, -143.94523429217747, 48131.84417865803, -0.07, 0.996, 0.17200000000000001, 192.0, 0.0, 0.0, 0.0, 0.0, 0.0, 0.0, 0.0, 0.0, 0.0, 1.695414384569898E9, 0.0, 2023-09-22 15:26:24.569
136.0, -6116.130187050127, -12767.785819504956, 20313.06419528296, 41408.05946684593, -33311.49766582223, -18847.25914564838, 95046.97114789143, -12945.28102222455, 8721.114244593888, -13493.52461022432, -22102.388394163656, 31291.90579556296, -9651.57266277941, -7928.968421097806, -152.90828381875562, 48083.430300167835, -0.07, 0.996, 0.17200000000000001, 192.0, 0.0, 0.0, 0.0, 0.0, 0.0, 0.0, 0.0, 0.0, 0.0, 1.695414384569911E9, 0.0, 2023-09-22 15:26:24.569
138.0, -6110.363436980658, -12760.745020001534, 20340.243916540614, 41474.51120311156, -33306.24500587523, -18840.15129091159, 95109.13134922163, -12946.46566468068, 8716.018046858078, -13497.570275970731, -22105.76350757641, 31357.709331239384, -9656.91472970423, -7932.343534510557, -149.95785355065507, 48151.15608586742, -0.07, 0.996, 0.17200000000000001, 192.0, 0.0, 0.0, 0.0, 0.0, 0.0, 0.0, 0.0, 0.0, 0.0, 1.695414384569914E9, 0.0, 2023-09-22 15:26:24.569
140.0, -6106.116605534149, -12751.022011163475, 20284.990404247095, 41400.86220513132, -33304.68038376336, -18831.88114546313, 95027.18985404848, -12942.643516378823, 8717.91794513678, -13489.277778777812, -22099.482667384465, 31315.553941196675, -9654.746610492064, -7919.021894815194, -155.4340309422053, 48103.94920157781, -0.07, 0.996, 0.17200000000000001, 192.0, 0.0, 0.0, 0.0, 0.0, 0.0, 0.0, 0.0, 0.0, 0.0, 1.695414384569918E9, 0.0, 2023-09-22 15:26:24.569
142.0, -6111.704541647976, -12760.09681941233, 20337.896983372808, 41473.505374611064, -33309.82128498808, -18838.117282166157, 95101.71057006247, -12947.203272247705, 8714.140500323832, -13493.077575335214, -22102.723670330488, 31342.711310709874, -9658.233482627093, -7923.894575106451, -146.71685060463557, 48123.350515765014, -0.07, 0.994, 0.176, 192.0, 126.5, 104.0, 15.5, 8.0, 2.5, 64.0, 0.0, 0.0, 0.0, 1.695414384569921E9, 0.0, 2023-09-22 15:26:24.569
144.0, -6106.87656484563, -12755.693525754634, 20270.77469477352, 41393.70964690562, -33311.02827918867, -18835.680942020528, 95013.51058644183, -12949.483150182146, 8717.314448036486, -13492.407023001555, -22100.063812740304, 31323.757031411773, -9660.423953583713, -7920.4077029714235, -153.22120824112991, 48108.73247489124, -0.07, 0.994, 0.176, 192.0, 0.0, 0.0, 0.0, 0.0, 0.0, 0.0, 0.0, 0.0, 0.0, 1.695414384569924E9, 0.0, 2023-09-22 15:26:24.569
146.0, -6108.508242190867, -12758.95688044511, 20334.901849615795, 41467.31394139695, -33316.2138839023, -18838.989000199916, 95090.17706992353, -12954.89227234033, 8712.687636934237, -13497.458517248455, -22105.85291455423, 31330.417851259455, -9669.409354854746, -7925.101569307038, -149.64492912828078, 48118.79075989613, -0.07, 0.994, 0.176, 192.0, 0.0, 0.0, 0.0, 0.0, 0.0, 0.0, 0.0, 0.0, 0.0, 1.695414384569928E9, 0.0, 2023-09-22 15:26:24.569
148.0, -6103.993189810895, -12756.364078088294, 20263.800950503464, 41395.006048084026, -33310.625947788474, -18837.759654254874, 95000.23365023539, -12954.17701651776, 8722.544756239027, -13496.966778870437, -22097.5157138724, 31322.43827848891, -9664.268453630026, -7919.111301793016, -158.831496099412, 48106.60905916799, -0.07, 0.994, 0.176, 192.0, 0.0, 0.0, 0.0, 0.0, 0.0, 0.0, 0.0, 0.0, 0.0, 1.695414384569931E9, 0.0, 2023-09-22 15:26:24.569
150.0, -6108.865870102152, -12757.615775777791, 20317.40043370729, 41459.02144420403, -33316.30329088012, -18839.972476955947, 95070.3957760806, -12956.99333631913, 8715.593363713428, -13495.223342802925, -22100.153219718126, 31308.33432773761, -9666.72714552011, -7922.128787294482, -150.2707779730294, 48112.62167842647, -0.07, 0.994, 0.176, 192.0, 0.0, 0.0, 0.0, 0.0, 0.0, 0.0, 0.0, 0.0, 0.0, 1.695414384629717E9, 0.0, 2023-09-22 15:26:24.629
152.0, -6108.955277079974, -12756.922871699677, 20257.497758567068, 41410.62991745829, -33313.844598990036, -18842.051189190293, 95010.60485966264, -12960.815484620987, 8710.564221210983, -13498.15142132657, -22106.47876339898, 31320.068993576646, -9672.359785122846, -7928.007296086228, -159.07736528842037, 48131.687716446846, -0.064, 0.996, 0.18, 192.0, 127.0, 0.0, 15.5, 16.0, 2.5, 80.0, 0.0, 0.0, 0.0, 1.695414384629729E9, 0.0, 2023-09-22 15:26:24.629
154.0, -6107.323599734736, -12754.553586787413, 20311.83484933792, 41457.30035988097, -33312.83877048955, -18842.878203735138, 95065.94777893399, -12960.301394498516, 8714.319314279475, -13501.794755672785, -22102.298987185837, 31302.209949756856, -9669.252892643559, -7926.263860018714, -149.62257738382547, 48128.044382100634, -0.064, 0.996, 0.18, 192.0, 0.0, 0.0, 0.0, 0.0, 0.0, 0.0, 0.0, 0.0, 0.0, 1.695414384629733E9, 0.0, 2023-09-22 15:26:24.629
156.0, -6103.814375855252, -12750.686734996645, 20251.61924977532, 41392.41324572721, -33312.168218155886, -18844.174604913547, 94989.43775766347, -12959.899063098319, 8709.96072411069, -13498.933732382506, -22098.00745225042, 31328.652063447484, -9668.045898442972, -7925.168624540404, -151.85775182935618, 48143.981175897265, -0.064, 0.996, 0.18, 192.0, 0.0, 0.0, 0.0, 0.0, 0.0, 0.0, 0.0, 0.0, 0.0, 1.695414384629736E9, 0.0, 2023-09-22 15:26:24.629
158.0, -6113.895012604597, -12758.934528700654, 20314.31589297246, 41455.04283369098, -33320.37130837099, -18848.10851193768, 95069.94874119149, -12959.787304376043, 8703.188145540733, -13501.280665550312, -22105.76350757641, 31290.072952517625, -9676.047822957971, -7930.644801931954, -153.78000185251258, 48116.9579168508, -0.064, 0.996, 0.18, 192.0, 0.0, 0.0, 0.0, 0.0, 0.0, 0.0, 0.0, 0.0, 0.0, 1.695414384629739E9, 0.0, 2023-09-22 15:26:24.629
160.0, -6105.937791578507, -12752.13959838624, 20262.415142347236, 41415.05556286044, -33316.280939135664, -18843.25818339088, 95022.6300981796, -12961.016650321086, 8708.1055293209, -13503.225267317925, -22105.875266298684, 31351.316732325166, -9679.937026493195, -7931.672982176899, -160.23965600009635, 48178.06758619161, -0.064, 0.996, 0.18, 192.0, 0.0, 0.0, 0.0, 0.0, 0.0, 0.0, 0.0, 0.0, 0.0, 1.695414384629742E9, 0.0, 2023-09-22 15:26:24.629
162.0, -6097.555887407767, -12746.797531461423, 20308.63854988081, 41432.556978768946, -33309.933043710356, -18836.686770521017, 95056.02360439583, -12948.253804237105, 8711.525346222561, -13504.476965007421, -22097.716879572497, 31280.99814426877, -9675.10904969085, -7924.542775695655, -151.9695105516327, 48127.15031232242, -0.066, 0.994, 0.176, 192.0, 126.5, 120.0, 15.5, 8.0, 2.5, 64.0, 0.0, 0.0, 0.0, 1.695414384629746E9, 0.0, 2023-09-22 15:26:24.629
164.0, -6097.801756596775, -12746.082275638853, 20266.885491238296, 41396.48126321808, -33311.184741399855, -18840.3971601006, 95010.56015617373, -12955.56282467399, 8715.213384057688, -13495.29039803629, -22094.431173137567, 31336.475174006842, -9673.253854901059, -7919.357170982024, -148.46028667214952, 48166.80230698613, -0.066, 0.994, 0.176, 192.0, 0.0, 0.0, 0.0, 0.0, 0.0, 0.0, 0.0, 0.0, 0.0, 1.695414384689977E9, 0.0, 2023-09-22 15:26:24.689
166.0, -6106.138957278605, -12754.821807720877, 20307.386852191314, 41415.368487282816, -33316.25858739121, -18837.960819954973, 95049.96628164843, -12949.080818781951, 8703.478718218652, -13499.179601571514, -22101.784897063364, 31282.13808323599, -9680.093488704382, -7921.5699936831, -151.12014426233105, 48119.75188490771, -0.066, 0.994, 0.176, 192.0, 0.0, 0.0, 0.0, 0.0, 0.0, 0.0, 0.0, 0.0, 0.0, 1.695414384689998E9, 0.0, 2023-09-22 15:26:24.689
168.0, -6106.720102634443, -12754.754752487512, 20280.654165822765, 41412.708629692635, -33321.600654316026, -18842.989962457414, 95041.1373425886, -12959.250862509116, 8696.48262220414, -13505.81806967474, -22110.725594845488, 31349.170964857458, -9687.715433563642, -7924.967458840306, -158.67503388822485, 48179.25222864774, -0.066, 0.994, 0.176, 192.0, 0.0, 0.0, 0.0, 0.0, 0.0, 0.0, 0.0, 0.0, 0.0, 1.695414384690001E9, 0.0, 2023-09-22 15:26:24.690
170.0, -6102.026236298828, -12754.53123504296, 20320.127346530837, 41432.93695842469, -33319.32077638159, -18841.246526389903, 95077.66009302856, -12953.908795584297, 8702.316427506976, -13498.509049237855, -22107.685757599564, 31296.53260666521, -9687.670730074731, -7921.5252901941885, -157.49039143209356, 48145.76931545369, -0.066, 0.994, 0.176, 192.0, 0.0, 0.0, 0.0, 0.0, 0.0, 0.0, 0.0, 0.0, 0.0, 1.695414384690005E9, 0.0, 2023-09-22 15:26:24.690
172.0, -6101.333332220714, -12754.218310620585, 20297.552084630977, 41434.32276658092, -33312.77171525618, -18839.838366489217, 95072.56389529275, -12953.7076298842, 8705.87035487537, -13507.807374931263, -22104.57886512028, 31368.773444744762, -9684.407375384257, -7926.420322229901, -148.59439713888136, 48211.729313341304, -0.066, 0.994, 0.18, 192.0, 126.5, 120.0, 15.5, 8.0, 2.5, 80.0, 0.0, 0.0, 0.0, 1.695414384690008E9, 0.0, 2023-09-22 15:26:24.690
174.0, -6100.148689764583, -12758.509845556004, 20300.234293965616, 41401.13042606478, -33315.31981412409, -18839.279572877833, 95052.17910434952, -12952.6570978948, 8712.44176774523, -13504.074633607226, -22095.99579524944, 31288.687144361396, -9679.378232881812, -7922.017028572206, -150.606054139859, 48144.31645206409, -0.066, 0.994, 0.18, 192.0, 0.0, 0.0, 0.0, 0.0, 0.0, 0.0, 0.0, 0.0, 0.0, 1.695414384690011E9, 0.0, 2023-09-22 15:26:24.690
176.0, -6095.25365772887, -12750.887900696744, 20299.049651509482, 41418.363621039825, -33311.09533442203, -18842.453520590487, 95065.7913167228, -12955.763990374087, 8713.335837523442, -13512.300075566778, -22100.555551118323, 31348.67922647944, -9682.038090471995, -7931.360057754524, -148.348527949873, 48198.89941202395, -0.066, 0.994, 0.18, 192.0, 0.0, 0.0, 0.0, 0.0, 0.0, 0.0, 0.0, 0.0, 0.0, 1.695414384690014E9, 0.0, 2023-09-22 15:26:24.690
178.0, -6101.467442687445, -12757.839293222343, 20293.282901440016, 41382.04203629995, -33314.58220655706, -18839.771311255852, 95045.11595310163, -12950.71249612719, 8715.079273590956, -13506.019235374837, -22098.700356328533, 31276.4830918888, -9677.500686347566, -7926.263860018714, -153.89176057478912, 48135.64397521543, -0.066, 0.994, 0.18, 192.0, 0.0, 0.0, 0.0, 0.0, 0.0, 0.0, 0.0, 0.0, 0.0, 1.695414384690018E9, 0.0, 2023-09-22 15:26:24.690
180.0, -6101.601553154177, -12759.202749634118, 20304.548180645488, 41411.94867038115, -33316.146828668934, -18839.994828700404, 95075.40256683857, -12953.953499073208, 8712.374712511863, -13509.126127854124, -22108.244551210948, 31334.239999561312, -9682.194552683182, -7931.114188565516, -154.07057453043157, 48195.21137418883, -0.066, 0.994, 0.18, 192.0, 0.0, 0.0, 0.0, 0.0, 0.0, 0.0, 0.0, 0.0, 0.0, 1.695414384750343E9, 0.0, 2023-09-22 15:26:24.750
182.0, -6103.903782833074, -12762.689621769146, 20298.893189298295, 41379.18101300967, -33320.66188104891, -18840.06188393377, 95049.11691535913, -12953.729981628656, 8703.970456596668, -13510.064901121248, -22111.530257645878, 31281.556937880152, -9685.212038184649, -7930.778912398686, -163.86063860185607, 48158.95684468232, -0.06, 0.994, 0.178, 192.0, 127.0, 16.0, 15.5, 8.0, 2.5, 72.0, 0.0, 0.0, 0.0, 1.695414384750355E9, 0.0, 2023-09-22 15:26:24.750
184.0, -6100.372207209135, -12757.548720544424, 20324.798861121995, 41417.938937895175, -33318.538465325655, -18834.58570654222, 95088.52304083384, -12952.545339172524, 8705.602133941906, -13511.00367438837, -22112.111403001716, 31326.975682613338, -9686.06140447395, -7930.644801931954, -159.1667722662416, 48201.84984229205, -0.06, 0.994, 0.178, 192.0, 0.0, 0.0, 0.0, 0.0, 0.0, 0.0, 0.0, 0.0, 0.0, 1.695414384750358E9, 0.0, 2023-09-22 15:26:24.750
186.0, -6100.036931042306, -12756.319374599383, 20288.745497315587, 41347.59799809432, -33318.113782181004, -18832.10466290768, 95026.11697031463, -12951.6065659054, 8713.1570235678, -13499.693691693985, -22102.723670330488, 31266.670676072918, -9678.81943927043, -7920.5194616937, -162.36307172335052, 48147.93743466585, -0.06, 0.994, 0.178, 192.0, 0.0, 0.0, 0.0, 0.0, 0.0, 0.0, 0.0, 0.0, 0.0, 1.695414384750361E9, 0.0, 2023-09-22 15:26:24.750
188.0, -6104.641390400099, -12764.522464814481, 20330.92323910275, 41408.68531569068, -33320.50541883772, -18828.930715195027, 95097.5978490827, -12951.89713858332, 8704.797471141514, -13509.617866232142, -22110.18915297856, 31301.29352823419, -9684.720299806631, -7924.542775695655, -158.5185716770377, 48183.47670834979, -0.06, 0.994, 0.178, 192.0, 0.0, 0.0, 0.0, 0.0, 0.0, 0.0, 0.0, 0.0, 0.0, 1.695414384750365E9, 0.0, 2023-09-22 15:26:24.750
190.0, -6103.479099688423, -12759.962708945599, 20274.99917447557, 41351.64366384073, -33318.314947881096, -18820.01236915736, 95037.94104313148, -12947.158568758794, 8707.300866520509, -13502.510011495355, -22107.573998877288, 31278.360638423044, -9683.334491650403, -7915.736188380264, -164.77706012452367, 48167.87519071999, -0.06, 0.994, 0.178, 192.0, 0.0, 0.0, 0.0, 0.0, 0.0, 0.0, 0.0, 0.0, 0.0, 1.695414384750368E9, 0.0, 2023-09-22 15:26:24.750
192.0, -6107.7929863682975, -12764.85774098131, 20329.31391350197, 41433.71926948062, -33317.64439554744, -18825.10856689317, 95127.61624188618, -12951.070124038473, 8702.428186229252, -13501.05714810576, -22108.780993077875, 31307.149685281478, -9683.759174795054, -7918.776025626186, -154.07057453043157, 48202.16276671443, -0.062, 1.0, 0.178, 192.0, 127.0, 8.0, 15.5, 32.0, 2.5, 72.0, 0.0, 0.0, 0.0, 1.695414384750371E9, 0.0, 2023-09-22 15:26:24.750
194.0, -6098.852288586175, -12756.297022854927, 20258.168310900728, 41346.41335563819, -33310.916520466395, -18816.458441788967, 95031.41433375054, -12949.796074604521, 8704.752767652604, -13495.960950369948, -22106.746984332443, 31304.065144546646, -9681.72516604962, -7915.289153491159, -166.07346130293146, 48196.08309222259, -0.062, 1.0, 0.178, 192.0, 0.0, 0.0, 0.0, 0.0, 0.0, 0.0, 0.0, 0.0, 0.0, 1.695414384810427E9, 0.0, 2023-09-22 15:26:24.810
196.0, -6103.613210155155, -12761.080296168364, 20314.539410417012, 41397.26357427402, -33313.17404665638, -18823.85686920367, 95090.13236643463, -12954.042906051029, 8708.194936298722, -13498.777270171318, -22103.95301627553, 31289.044772272682, -9679.355881137357, -7918.105473292527, -155.52343792002654, 48167.741080253254, -0.062, 1.0, 0.178, 192.0, 0.0, 0.0, 0.0, 0.0, 0.0, 0.0, 0.0, 0.0, 0.0, 1.695414384810441E9, 0.0, 2023-09-22 15:26:24.810
198.0, -6100.059282786761, -12759.627432778769, 20256.938964955683, 41336.37742237776, -33310.84946523303, -18821.554639524777, 95015.74576088737, -12956.94863283022, 8704.14927055231, -13499.62663646062, -22105.00354826493, 31295.839702587095, -9678.662977059243, -7919.603040171032, -162.78775486800134, 48160.23089411627, -0.062, 1.0, 0.178, 192.0, 0.0, 0.0, 0.0, 0.0, 0.0, 0.0, 0.0, 0.0, 0.0, 1.695414384810445E9, 0.0, 2023-09-22 15:26:24.810
200.0, -6110.028160813828, -12770.62449105078, 20333.203117037192, 41423.459818775635, -33318.09143043654, -18826.427319816034, 95117.71441909247, -12959.742600887133, 8706.898535120314, -13500.476002749921, -22106.94815003254, 31299.371278211034, -9680.942854993684, -7922.218194272304, -157.11041177635335, 48162.57782728408, -0.062, 1.0, 0.178, 192.0, 0.0, 0.0, 0.0, 0.0, 0.0, 0.0, 0.0, 0.0, 0.0, 1.695414384810448E9, 0.0, 2023-09-22 15:26:24.810
202.0, -6099.746358364387, -12760.409743834703, 20260.559947557445, 41361.90311454572, -33309.240139632246, -18824.169793626046, 95049.54159850378, -12961.173112532273, 8704.52925020805, -13504.164040585047, -22106.456411654523, 31339.425604274944, -9680.540523593489, -7921.9946768277505, -168.6439119152918, 48197.58065910109, -0.064, 0.996, 0.184, 192.0, 127.0, 0.0, 15.5, 16.0, 2.5, 96.0, 0.0, 0.0, 0.0, 1.695414384810461E9, 0.0, 2023-09-22 15:26:24.810
204.0, -6095.901858318074, -12758.979232189564, 20322.45192795419, 41403.0750278324, -33311.45296233332, -18820.794680213294, 95109.28781143282, -12955.808693862999, 8720.443692260229, -13492.161153812547, -22095.414649893602, 31298.47720843282, -9670.504590333056, -7914.32802847958, -154.22703674161872, 48159.090955149055, -0.064, 0.996, 0.184, 192.0, 0.0, 0.0, 0.0, 0.0, 0.0, 0.0, 0.0, 0.0, 0.0, 1.695414384810464E9, 0.0, 2023-09-22 15:26:24.810
206.0, -6093.666683872543, -12755.782932732456, 20249.562889285433, 41346.39100389374, -33311.22944488877, -18823.767462225853, 95042.41139202255, -12963.47534221117, 8705.49037521963, -13500.565409727742, -22099.03563249536, 31345.147650855502, -9674.39379386828, -7921.94997333884, -167.16869678124152, 48196.88775502297, -0.064, 0.996, 0.184, 192.0, 0.0, 0.0, 0.0, 0.0, 0.0, 0.0, 0.0, 0.0, 0.0, 1.695414384810467E9, 0.0, 2023-09-22 15:26:24.810
208.0, -6100.640428142599, -12761.639089779746, 20298.15558173127, 41378.95749556512, -33314.962186212804, -18825.197973870992, 95086.26551464386, -12961.620147421378, 8714.118148579377, -13498.509049237855, -22098.3650801617, 31281.08755124659, -9673.00798571205, -7917.859604103519, -162.85481010136726, 48137.700335705325, -0.064, 0.996, 0.184, 192.0, 0.0, 0.0, 0.0, 0.0, 0.0, 0.0, 0.0, 0.0, 0.0, 1.69541438481047E9, 0.0, 2023-09-22 15:26:24.810
210.0, -6102.361512465658, -12759.783894989956, 20252.3792090868, 41359.46677440009, -33316.012718202204, -18826.71789249395, 95053.00611889437, -12966.448124223725, 8707.43497698724, -13498.844325404683, -22102.544856374843, 31336.274008306744, -9676.517209591533, -7920.005371571228, -168.04041481499848, 48184.10255719454, -0.064, 0.996, 0.184, 192.0, 0.0, 0.0, 0.0, 0.0, 0.0, 0.0, 0.0, 0.0, 0.0, 1.69541438486992E9, 0.0, 2023-09-22 15:26:24.869
212.0, -6108.865870102152, -12770.982118962065, 20293.55112237348, 41406.561899967426, -33317.17500891388, -18829.802433228782, 95111.43357890053, -12964.637632922844, 8698.203706527198, -13506.153345841569, -22110.256208211926, 31297.76195261025, -9682.328663149914, -7925.012162329217, -169.44857471568284, 48162.98015868427, -0.06, 0.998, 0.184, 192.0, 127.0, 16.0, 15.5, 24.0, 2.5, 96.0, 0.0, 0.0, 0.0, 1.695414384869931E9, 0.0, 2023-09-22 15:26:24.869
214.0, -6109.134091035616, -12773.172589918684, 20257.609517289344, 41401.24218478706, -33316.03506994666, -18828.81895647275, 95090.40058736809, -12964.90585385631, 8702.785814140536, -13508.097947609182, -22107.37283317719, 31356.77055797226, -9681.635759071798, -7925.839176874063, -164.10650779086444, 48203.99560975977, -0.06, 0.998, 0.184, 192.0, 0.0, 0.0, 0.0, 0.0, 0.0, 0.0, 0.0, 0.0, 0.0, 1.695414384869935E9, 0.0, 2023-09-22 15:26:24.869
216.0, -6113.939716093507, -12778.537008587959, 20286.44326763669, 41441.363566084336, -33322.7629450277, -18829.86948846215, 95146.30230025081, -12964.771743389576, 8695.208572770187, -13513.596476745186, -22113.720728602497, 31314.23518827381, -9688.274227175025, -7932.4999967217445, -168.42039447073873, 48177.03940594666, -0.06, 0.998, 0.184, 192.0, 0.0, 0.0, 0.0, 0.0, 0.0, 0.0, 0.0, 0.0, 0.0, 1.695414384869938E9, 0.0, 2023-09-22 15:26:24.869
218.0, -6104.261410744359, -12768.56813056089, 20242.94677292666, 41414.13914133777, -33314.40339260142, -18823.745110481395, 95109.17605271055, -12966.001089334619, 8702.137613551333, -13511.160136599558, -22110.636187867665, 31380.485758839342, -9687.603674841366, -7930.197767042848, -170.09677530488673, 48232.11410428454, -0.06, 0.998, 0.184, 192.0, 0.0, 0.0, 0.0, 0.0, 0.0, 0.0, 0.0, 0.0, 0.0, 1.695414384869941E9, 0.0, 2023-09-22 15:26:24.869
220.0, -6107.211841012459, -12771.540912573448, 20266.281994138004, 41403.20913829913, -33315.655090290915, -18822.940447681005, 95109.6007358552, -12958.714420642189, 8696.1026425484, -13507.67326446453, -22107.4175366661, 31286.742542593784, -9683.222732928125, -7922.821691372596, -163.41360371274993, 48145.38933579795, -0.06, 0.998, 0.184, 192.0, 0.0, 0.0, 0.0, 0.0, 0.0, 0.0, 0.0, 0.0, 0.0, 1.695414384869944E9, 0.0, 2023-09-22 15:26:24.869
222.0, -6099.500489175379, -12761.393220590739, 20261.4316655912, 41401.26453653152, -33312.995232700734, -18820.884087191116, 95096.5920205822, -12960.502560198613, 8697.331988493443, -13504.72283419643, -22105.875266298684, 31346.332293311632, -9685.994349240584, -7925.459197218323, -161.46900194513822, 48191.76920554271, -0.058, 0.998, 0.184, 192.0, 127.0, 24.0, 15.5, 24.0, 2.5, 96.0, 0.0, 0.0, 0.0, 1.695414384869948E9, 0.0, 2023-09-22 15:26:24.869
224.0, -6099.545192664289, -12763.248415380529, 20277.591976832387, 41395.96717309561, -33316.504456580216, -18817.68778773401, 95099.38598863911, -12958.84853110892, 8701.556468195495, -13497.547924226275, -22099.817943551298, 31292.95632755236, -9687.134288207804, -7916.89847909194, -160.86550484484493, 48139.086143861554, -0.058, 0.998, 0.184, 192.0, 0.0, 0.0, 0.0, 0.0, 0.0, 0.0, 0.0, 0.0, 0.0, 1.695414384929433E9, 0.0, 2023-09-22 15:26:24.929
226.0, -6095.499526917878, -12758.129865900262, 20271.48995059609, 41423.90685366474, -33315.63273854646, -18815.184392355015, 95120.77660808284, -12961.106057298906, 8703.411662985285, -13501.079499850215, -22099.37090866219, 31353.641313748518, -9685.81553528494, -7917.971362825795, -155.4340309422053, 48187.54472584066, -0.058, 0.998, 0.184, 192.0, 0.0, 0.0, 0.0, 0.0, 0.0, 0.0, 0.0, 0.0, 0.0, 1.695414384929449E9, 0.0, 2023-09-22 15:26:24.929
228.0, -6098.025274041328, -12765.841217737345, 20262.30338362496, 41390.64745791524, -33315.252758890725, -18808.970607396437, 95090.17706992353, -12951.472455438668, 8707.859660131891, -13488.09313632168, -22096.778106305374, 31286.876653060517, -9681.903980005263, -7908.896554576941, -159.43499319970527, 48129.85487340151, -0.058, 0.998, 0.184, 192.0, 0.0, 0.0, 0.0, 0.0, 0.0, 0.0, 0.0, 0.0, 0.0, 1.695414384929453E9, 0.0, 2023-09-22 15:26:24.929
230.0, -6107.457710201467, -12777.218255665095, 20309.711433614666, 41471.60547633237, -33315.230407146264, -18812.211610342456, 95174.24198081995, -12958.51325494209, 8699.142479794322, -13510.020197632337, -22109.205676222526, 31363.72195049786, -9691.850506287874, -7920.13948203796, -150.53899890649308, 48215.97614478781, -0.058, 0.998, 0.184, 192.0, 0.0, 0.0, 0.0, 0.0, 0.0, 0.0, 0.0, 0.0, 0.0, 1.695414384929458E9, 0.0, 2023-09-22 15:26:24.929
232.0, -6110.698713147487, -12778.24643591004, 20261.766941758033, 41390.84862361534, -33319.38783161496, -18817.956008667472, 95094.46860485895, -12960.99429857663, 8702.897572862814, -13504.074633607226, -22104.958844776018, 31288.821254828126, -9685.100279462371, -7915.557374424622, -163.25714150156278, 48150.39612655594, -0.066, 1.0, 0.182, 192.0, 126.5, 120.0, 15.5, 32.0, 2.5, 88.0, 0.0, 0.0, 0.0, 1.695414384929462E9, 0.0, 2023-09-22 15:26:24.929
234.0, -6110.519899191845, -12776.234778909062, 20305.933988801717, 41454.2828743795, -33320.17014267089, -18817.352511567176, 95160.47330623548, -12965.866978867887, 8693.263971002576, -13516.166927357546, -22119.979217049982, 31326.640406446506, -9697.505497635068, -7927.113226308015, -161.98309206761027, 48189.86930726401, -0.066, 1.0, 0.182, 192.0, 0.0, 0.0, 0.0, 0.0, 0.0, 0.0, 0.0, 0.0, 0.0, 1.695414384929466E9, 0.0, 2023-09-22 15:26:24.929
236.0, -6104.2167072554485, -12773.016127707497, 20258.883566723296, 41387.7193793916, -33317.08560193606, -18814.290322576802, 95089.93120073453, -12960.904891598808, 8702.271724018065, -13503.3370260402, -22109.5186006449, 31281.735751835797, -9688.475392875123, -7917.747845381242, -166.11816479184208, 48148.27271083269, -0.066, 1.0, 0.182, 192.0, 0.0, 0.0, 0.0, 0.0, 0.0, 0.0, 0.0, 0.0, 0.0, 1.695414384929471E9, 0.0, 2023-09-22 15:26:24.929
238.0, -6107.413006712557, -12772.658499796213, 20312.326587715936, 41465.123470440325, -33322.852352005524, -18820.191183113002, 95170.59864647374, -12967.342194001938, 8699.634218172338, -13505.035758618804, -22111.37379543469, 31314.86103711856, -9692.878686532818, -7916.205575013826, -154.51760941953773, 48180.749795526244, -0.066, 1.0, 0.182, 192.0, 0.0, 0.0, 0.0, 0.0, 0.0, 0.0, 0.0, 0.0, 0.0, 1.695414384929475E9, 0.0, 2023-09-22 15:26:24.929
240.0, -6108.374131724136, -12771.272691639984, 20249.09350265187, 41390.08866430386, -33318.49376183674, -18819.431223801523, 95085.61731405465, -12966.157551545806, 8701.489412962128, -13500.453651005466, -22112.357272190726, 31291.950499051873, -9691.15760220976, -7917.5913831700545, -170.34264449389514, 48162.10844065052, -0.066, 1.0, 0.182, 192.0, 0.0, 0.0, 0.0, 0.0, 0.0, 0.0, 0.0, 0.0, 0.0, 1.695414384990749E9, 0.0, 2023-09-22 15:26:24.990
242.0, -6113.515032948856, -12781.666252811701, 20300.591921876898, 41450.75129875557, -33326.3168723961, -18824.3933110706, 95154.05835557681, -12972.751316160122, 8694.135689036333, -13505.974531885926, -22118.3698914492, 31303.260481746256, -9697.326683679425, -7924.296906506647, -168.71096714865772, 48174.93834196786, -0.062, 1.002, 0.18, 192.0, 127.0, 8.0, 15.5, 40.0, 2.5, 80.0, 0.0, 0.0, 0.0, 1.695414384990761E9, 0.0, 2023-09-22 15:26:24.990
244.0, -6116.174890539038, -12780.839238266855, 20241.359799070335, 41389.70868464812, -33327.546218341144, -18823.87922094813, 95084.14209892061, -12974.360641760904, 8689.128898278344, -13511.897744166583, -22119.6215891387, 31290.56469089564, -9698.77954706902, -7925.95093559634, -181.6749789327358, 48160.43205981637, -0.062, 1.002, 0.18, 192.0, 0.0, 0.0, 0.0, 0.0, 0.0, 0.0, 0.0, 0.0, 0.0, 1.695414384990765E9, 0.0, 2023-09-22 15:26:24.990
246.0, -6116.912498106062, -12784.884904013266, 20320.194401764205, 41485.061226494465, -33328.84261951955, -18822.4934127919, 95193.75505372943, -12974.740621416644, 8686.29022673252, -13515.205802345969, -22126.75179561994, 31303.95338582437, -9707.429672173223, -7930.1530635539375, -176.0423393299984, 48190.741025297764, -0.062, 1.002, 0.18, 192.0, 0.0, 0.0, 0.0, 0.0, 0.0, 0.0, 0.0, 0.0, 0.0, 1.695414384990769E9, 0.0, 2023-09-22 15:26:24.990
248.0, -6107.6812276460205, -12776.592406820346, 20248.28883985148, 41409.73584768008, -33318.29259613664, -18813.172735354037, 95106.38208465363, -12964.928205600763, 8695.72266289266, -13509.327293554223, -22114.525391402887, 31325.701633179386, -9701.148831981282, -7922.195842527848, -176.80229864147887, 48207.90716503944, -0.062, 1.002, 0.18, 192.0, 0.0, 0.0, 0.0, 0.0, 0.0, 0.0, 0.0, 0.0, 0.0, 1.695414384990773E9, 0.0, 2023-09-22 15:26:24.990
