%OpenBCI Raw EXG Data
%Number of channels = 16
%Sample Rate = 125 Hz
%Board = OpenBCI_GUI$BoardCytonSerialDaisy
Sample Index, EXG Channel 0, EXG Channel 1, EXG Channel 2, EXG Channel 3, EXG Channel 4, EXG Channel 5, EXG Channel 6, EXG Channel 7, EXG Channel 8, EXG Channel 9, EXG Channel 10, EXG Channel 11, EXG Channel 12, EXG Channel 13, EXG Channel 14, EXG Channel 15, Accel Channel 0, Accel Channel 1, Accel Channel 2, Other, Other, Other, Other, Other, Other, Other, Analog Channel 0, Analog Channel 1, Analog Channel 2, Timestamp, Other, Timestamp (Formatted)
238.0, 52178.292236124544, -187500.02235174447, -21016.361834569198, 11642.643707113708, 51060.77206859256, 73037.23073449502, 118423.27486554085, 51223.40336124937, 73023.57381863282, 33998.456179911635, -5912.572850295645, 21741.318314232627, 48951.88497923434, 18912.63799818015, -15293.108259810002, -36939.67752929658, 0.0, 0.0, 0.0, 192.0, 0.0, 0.0, 0.0, 0.0, 0.0, 0.0, 0.0, 0.0, 0.0, 1.695412508808168E9, 0.0, 2023-09-22 14:55:08.808
240.0, 52193.44671886525, -187500.02235174447, -20963.9469938215, 11663.207312012592, 51073.736080376635, 73047.31137124436, 118482.90931974762, 51251.05246914059, 73028.13357450171, 33991.3706769193, -5903.028655413229, 21748.515575947236, 48957.092935692424, 18919.79055640585, -15280.345413726023, -36979.84361408277, 0.0, 0.0, 0.0, 192.0, 0.0, 0.0, 0.0, 0.0, 0.0, 0.0, 0.0, 0.0, 0.0, 1.695412508808177E9, 0.0, 2023-09-22 14:55:08.808
242.0, 52209.4729196397, -187500.02235174447, -20989.092706333722, 11668.392916726223, 51054.46887665617, 73051.53585094641, 118427.36523477618, 51251.723021474245, 73021.49510639848, 33998.478531656096, -5914.763321252265, 21744.604020667557, 48973.29795042252, 18917.577733704777, -15294.695233666329, -36935.16247691661, 0.0, 0.0, 0.0, 192.0, 0.0, 0.0, 0.0, 0.0, 0.0, 0.0, 0.0, 0.0, 0.0, 1.695412508808181E9, 0.0, 2023-09-22 14:55:08.808
244.0, 52236.876158341904, -187500.02235174447, -20930.57583934973, 11700.713539208597, 51066.739984362124, 73063.22581329654, 118470.54880506382, 51280.22149565476, 73024.53494364441, 33986.67681058369, -5922.608783556078, 21729.69540711587, 48947.34757510991, 18906.580675432764, -15300.21611454679, -36942.94088398706, 0.0, 0.0, 0.0, 192.0, 0.0, 0.0, 0.0, 0.0, 0.0, 0.0, 0.0, 0.0, 0.0, 1.695412508808184E9, 0.0, 2023-09-22 14:55:08.808
246.0, 52190.205715919226, -187500.02235174447, -21009.052814132312, 11649.21511998357, 51063.744850605115, 73023.21619072153, 118417.82103989377, 51220.81055889256, 73025.87604831172, 33992.465912397616, -5913.6233822850445, 21742.525308433214, 48957.2046944147, 18918.36004476071, -15292.325948754067, -36926.04296517884, -0.056, 0.886, 0.47800000000000004, 192.0, 127.0, 32.0, 13.5, 88.0, 7.0, 120.0, 0.0, 0.0, 0.0, 1.695412508808187E9, 0.0, 2023-09-22 14:55:08.808
248.0, 52169.2621313646, -187500.02235174447, -21005.409479786096, 11633.68065758713, 51083.615551425886, 73018.45526915256, 118485.65858431562, 51217.390741990894, 73032.38040594822, 33988.64376409576, -5900.726425734333, 21749.700218403366, 48925.576976010445, 18927.613666965208, -15279.965434070282, -37014.645280199686, -0.056, 0.886, 0.47800000000000004, 192.0, 0.0, 0.0, 0.0, 0.0, 0.0, 0.0, 0.0, 0.0, 0.0, 1.695412508808191E9, 0.0, 2023-09-22 14:55:08.808
250.0, 52189.69162579675, -187500.02235174447, -21011.802078700315, 11640.363829179267, 51064.28129247204, 73028.42414717963, 118431.52265924486, 51222.6881054268, 73032.20159199258, 34004.22292998111, -5919.032504443229, 21729.985979793786, 48980.29404643703, 18915.3649110037, -15290.940140597839, -36961.47048014051, -0.056, 0.886, 0.47800000000000004, 192.0, 0.0, 0.0, 0.0, 0.0, 0.0, 0.0, 0.0, 0.0, 0.0, 1.695412508808194E9, 0.0, 2023-09-22 14:55:08.808
252.0, 52195.72659679969, -187500.02235174447, -20995.887636648135, 11645.661192615175, 51083.72731014816, 73036.64958913918, 118484.00455522593, 51236.30031780009, 73023.12678374372, 33987.79439780646, -5918.518414320757, 21740.804224110154, 48926.046362644, 18924.305608785824, -15281.97709107126, -37013.41593425464, -0.056, 0.886, 0.47800000000000004, 192.0, 0.0, 0.0, 0.0, 0.0, 0.0, 0.0, 0.0, 0.0, 0.0, 1.695412508808203E9, 0.0, 2023-09-22 14:55:08.808
254.0, 52168.05513716402, -187500.02235174447, -21039.004151702422, 11610.68071254262, 51081.559190935994, 73012.04031849389, 118438.94343840402, 51201.811576105545, 73031.44163268109, 33997.11507524432, -5913.712789262866, 21744.715779389833, 48980.7634330706, 18920.729329672973, -15282.804105616106, -36965.78436682038, -0.056, 0.886, 0.47800000000000004, 192.0, 0.0, 0.0, 0.0, 0.0, 0.0, 0.0, 0.0, 0.0, 0.0, 1.695412508808206E9, 0.0, 2023-09-22 14:55:08.808
0.0, 25980.080780992605, -93750.01117587223, -10289.357339067143, 5542.42796211576, 25499.048888569938, 36409.80707523907, 59400.83377371237, 25408.92665492614, 36515.553178257134, 16993.94190239214, -2952.0619454457697, 10875.10715426292, 24454.820091106903, 9464.376802966215, -7638.619260623367, -18525.930467358885, -0.059, 0.888, 0.48, 192.0, 127.0, 8.0, 13.5, 104.0, 7.5, 8.0, 0.0, 0.0, 0.0, 1.69541250897394E9, 0.0, 2023-09-22 14:55:08.973
2.0, 52054.575330564425, -187500.02235174447, -20443.039589290573, 11184.723518457833, 50987.21247759015, 72895.11834324818, 118877.6634785728, 50928.13681699477, 73190.36253575832, 34297.90250037939, -6081.484983144401, 21904.463697011914, 48948.286348377034, 19239.219336416645, -15423.977723595826, -38699.54212898519, -0.059, 0.888, 0.48, 192.0, 0.0, 0.0, 0.0, 0.0, 0.0, 0.0, 0.0, 0.0, 0.0, 1.695412508973951E9, 0.0, 2023-09-22 14:55:08.973
4.0, 52033.92231868772, -187500.02235174447, -20504.685700498307, 11162.483532724802, 50980.66341646474, 72868.54211909081, 118802.20398929168, 50893.581020066864, 73135.511354865, 34310.97827088574, -6108.955277079974, 21887.409315992514, 48949.470990833164, 19218.1863448842, -15451.380962298032, -38592.67843874436, -0.059, 0.888, 0.48, 192.0, 0.0, 0.0, 0.0, 0.0, 0.0, 0.0, 0.0, 0.0, 0.0, 1.695412508973955E9, 0.0, 2023-09-22 14:55:08.973
6.0, 52069.171019693735, -187500.02235174447, -20450.236851005182, 11202.001416921785, 50994.14151837129, 72899.83456132824, 118873.14842619281, 50933.94827055315, 73211.66374822424, 34310.57593948555, -6080.657968599555, 21899.456906253923, 48941.82669422945, 19243.846147518892, -15437.142901080002, -38614.78431401066, -0.059, 0.888, 0.48, 192.0, 0.0, 0.0, 0.0, 0.0, 0.0, 0.0, 0.0, 0.0, 0.0, 1.695412508973958E9, 0.0, 2023-09-22 14:55:08.973
8.0, 51994.024454834995, -187500.02235174447, -20562.241442470724, 11122.563317127624, 50972.61678846083, 72834.72392972994, 118797.66658516724, 50846.68706019963, 73169.68717213717, 34315.11334360997, -6091.7667855938425, 21896.461772496914, 48951.61675830087, 19249.031752232524, -15449.414008785965, -38565.94575237582, -0.06, 0.884, 0.482, 192.0, 127.0, 16.0, 13.5, 80.0, 7.5, 8.0, 0.0, 0.0, 0.0, 1.695412508973961E9, 0.0, 2023-09-22 14:55:08.973
10.0, 52023.05937088244, -187500.02235174447, -20529.25026765469, 11154.63807042099, 50998.41070156225, 72867.06690395676, 118873.34959189291, 50889.468299087086, 73183.20997753262, 34326.624492004456, -6078.892180787585, 21908.6211214806, 48904.05224609998, 19241.655676562274, -15456.968898411858, -38635.906712520926, -0.06, 0.884, 0.482, 192.0, 0.0, 0.0, 0.0, 0.0, 0.0, 0.0, 0.0, 0.0, 0.0, 1.695412508973965E9, 0.0, 2023-09-22 14:55:08.973
12.0, 52028.5802517629, -187500.02235174447, -20552.29491618811, 11151.218253519328, 50988.0841956239, 72860.71900853145, 118825.24863782509, 50877.219543125575, 73210.09912611236, 34322.10943962448, -6071.270235928326, 21900.887417899063, 48990.061758764, 19249.076455721435, -15440.160386581469, -38537.00024330619, -0.06, 0.884, 0.482, 192.0, 0.0, 0.0, 0.0, 0.0, 0.0, 0.0, 0.0, 0.0, 0.0, 1.695412508973968E9, 0.0, 2023-09-22 14:55:08.973
14.0, 52045.38876359329, -187500.02235174447, -20542.43779688332, 11166.752715915765, 50987.99478864608, 72875.8064360388, 118865.97351622267, 50898.43134861367, 73172.83876810537, 34285.69844790679, -6074.2206661964265, 21905.894208657053, 48909.148443835795, 19233.497289836087, -15449.01167738577, -38570.39374952242, -0.06, 0.884, 0.482, 192.0, 0.0, 0.0, 0.0, 0.0, 0.0, 0.0, 0.0, 0.0, 0.0, 1.695412508973971E9, 0.0, 2023-09-22 14:55:08.973
16.0, 52049.456781084154, -187500.02235174447, -20557.189948223826, 11160.762448401743, 50977.84709666337, 72859.6461247976, 118813.11164058586, 50880.32643560487, 73233.92608570172, 34286.88309036292, -6056.3169188877255, 21907.727051702386, 48991.67108436479, 19222.634342030804, -15452.766770454262, -38474.50476580915, -0.06, 0.884, 0.482, 192.0, 0.0, 0.0, 0.0, 0.0, 0.0, 0.0, 0.0, 0.0, 0.0, 1.695412509034164E9, 0.0, 2023-09-22 14:55:09.034
18.0, 52014.56570798942, -187500.02235174447, -20609.873009904983, 11125.938430540375, 50987.92773341271, 72841.04947341079, 118857.85983298538, 50858.712298716586, 73211.2837685685, 34251.902610290366, -6043.15174140355, 21927.217772867414, 48909.93075489173, 19232.71497878015, -15435.220651056845, -38558.01088309418, -0.06, 0.884, 0.48, 192.0, 127.0, 16.0, 13.5, 80.0, 7.5, 0.0, 0.0, 0.0, 0.0, 1.695412509034177E9, 0.0, 2023-09-22 14:55:09.034
20.0, 52105.71612187816, -187500.02235174447, -20525.472822841744, 11207.07526291314, 50953.05901206243, 72893.19609322502, 118819.61599822236, 50925.27579370449, 73224.96303617515, 34284.804378128574, -6077.6851865869985, 21892.349051517136, 49001.70701762522, 19208.061004645944, -15463.49560779281, -38429.08602107597, -0.06, 0.884, 0.48, 192.0, 0.0, 0.0, 0.0, 0.0, 0.0, 0.0, 0.0, 0.0, 0.0, 1.695412509034181E9, 0.0, 2023-09-22 14:55:09.034
22.0, 52053.21187415265, -187500.02235174447, -20603.770983668684, 11158.661384422945, 50987.07836712341, 72852.29240087181, 118848.2038793807, 50879.58882803784, 73188.30617526844, 34250.717967834236, -6061.077840456705, 21904.8213249232, 48897.41377799676, 19219.37098734033, -15451.403314042487, -38455.34932081096, -0.06, 0.884, 0.48, 192.0, 0.0, 0.0, 0.0, 0.0, 0.0, 0.0, 0.0, 0.0, 0.0, 1.695412509034185E9, 0.0, 2023-09-22 14:55:09.034
24.0, 52113.092197548416, -187500.02235174447, -20537.095729958502, 11214.65250428349, 50972.66149194974, 72888.09989548921, 118841.47600429965, 50926.39338092726, 73233.23318162361, 34284.536157195114, -6062.553055590756, 21897.691118441955, 48997.571944900985, 19212.79957447047, -15445.033066872726, -38375.82181403897, -0.06, 0.884, 0.48, 192.0, 0.0, 0.0, 0.0, 0.0, 0.0, 0.0, 0.0, 0.0, 0.0, 1.695412509034189E9, 0.0, 2023-09-22 14:55:09.034
26.0, 52033.11765588733, -187500.02235174447, -20654.732961026784, 11134.72266611131, 51005.04916966548, 72840.6918454995, 118856.76459750708, 50853.459638769586, 73190.49664622506, 34261.29034296159, -6046.10217167165, 21920.33343557518, 48905.10277808938, 19235.441891603696, -15422.591915439596, -38408.65652664382, -0.06, 0.884, 0.48, 192.0, 0.0, 0.0, 0.0, 0.0, 0.0, 0.0, 0.0, 0.0, 0.0, 1.695412509034192E9, 0.0, 2023-09-22 14:55:09.034
28.0, 52097.289514218515, -187500.02235174447, -20575.29486123262, 11195.273541840737, 50996.9354864282, 72891.78793332433, 118865.03474295554, 50912.84822378734, 73256.03196096802, 34291.241680531704, -6050.192540906971, 21905.82715342369, 49010.647715407344, 19222.723749008626, -15422.591915439596, -38354.16297366178, -0.06, 0.886, 0.47600000000000003, 192.0, 127.0, 16.0, 13.5, 88.0, 7.0, 112.0, 0.0, 0.0, 0.0, 1.695412509034196E9, 0.0, 2023-09-22 14:55:09.034
30.0, 52028.848472696365, -187500.02235174447, -20687.27710095371, 11123.323276439105, 50995.84025094989, 72845.02808392383, 118848.69561775871, 50852.38675503573, 73208.3780417893, 34259.21163072725, -6054.037040953283, 21907.5705894912, 48916.79274043951, 19224.64599903178, -15428.313962020155, -38383.55551762051, -0.06, 0.886, 0.47600000000000003, 192.0, 0.0, 0.0, 0.0, 0.0, 0.0, 0.0, 0.0, 0.0, 0.0, 1.695412509093476E9, 0.0, 2023-09-22 14:55:09.093
32.0, 52108.398331212804, -187500.02235174447, -20584.79435262613, 11196.189963363406, 50987.19012584569, 72902.09208751823, 118865.14650167782, 50924.80640707093, 73234.99896943558, 34278.54588968109, -6065.39172713658, 21890.42680149398, 48987.714825596195, 19208.977426168614, -15445.904784906483, -38311.35938302986, -0.06, 0.886, 0.47600000000000003, 192.0, 0.0, 0.0, 0.0, 0.0, 0.0, 0.0, 0.0, 0.0, 0.0, 1.695412509093495E9, 0.0, 2023-09-22 14:55:09.093
34.0, 52035.57634777741, -187500.02235174447, -20710.52291518723, 11119.81405255962, 50985.312579311445, 72849.85606072618, 118828.89197217132, 50851.17976083515, 73183.09821881035, 34255.948276036775, -6069.727965560909, 21900.932121387974, 48918.49147301811, 19224.24366763159, -15450.375133797543, -38310.06298185146, -0.06, 0.886, 0.47600000000000003, 192.0, 0.0, 0.0, 0.0, 0.0, 0.0, 0.0, 0.0, 0.0, 0.0, 1.695412509093499E9, 0.0, 2023-09-22 14:55:09.093
36.0, 52106.40902595628, -187500.02235174447, -20612.622274472986, 11186.779878947722, 50991.34755031438, 72906.54008466484, 118881.5079786191, 50923.17472972569, 73220.85031519536, 34271.527441922124, -6057.300395643759, 21908.598769736145, 48963.105554950904, 19225.540068809994, -15449.592822741608, -38285.453711206166, -0.06, 0.886, 0.47600000000000003, 192.0, 0.0, 0.0, 0.0, 0.0, 0.0, 0.0, 0.0, 0.0, 0.0, 1.695412509093502E9, 0.0, 2023-09-22 14:55:09.093
38.0, 52031.41892330872, -187500.02235174447, -20747.246831327302, 11107.319427409104, 50991.883992181305, 72842.90466820057, 118812.12816382982, 50838.03693509543, 73216.11174537084, 34274.187299512305, -6044.470494326412, 21919.282903585783, 48937.177531382746, 19234.011379958556, -15453.973764654847, -38247.4780973766, -0.06, 0.882, 0.48, 192.0, 127.0, 16.0, 13.5, 72.0, 7.5, 0.0, 0.0, 0.0, 0.0, 1.695412509093505E9, 0.0, 2023-09-22 14:55:09.093
40.0, 52097.51303166307, -187500.02235174447, -20652.050751692146, 11171.670099695933, 50978.49529725257, 72899.2534159724, 118861.48081558714, 50913.07174123189, 73223.53252453, 34287.79951188559, -6041.318898358214, 21914.745499461354, 48956.78001127005, 19240.605144572874, -15456.119532122557, -38268.15346099776, -0.06, 0.882, 0.48, 192.0, 0.0, 0.0, 0.0, 0.0, 0.0, 0.0, 0.0, 0.0, 0.0, 1.695412509093509E9, 0.0, 2023-09-22 14:55:09.093
42.0, 52063.3372143909, -187500.02235174447, -20740.54130799071, 11131.682828865389, 50987.838326434896, 72862.70831378798, 118804.66268118176, 50868.81528721038, 73204.24296906508, 34284.87143336194, -6049.343174617669, 21910.185743592472, 48936.08229590444, 19224.42248158723, -15467.094238650114, -38206.03796315646, -0.06, 0.882, 0.48, 192.0, 0.0, 0.0, 0.0, 0.0, 0.0, 0.0, 0.0, 0.0, 0.0, 1.695412509093512E9, 0.0, 2023-09-22 14:55:09.093
44.0, 52131.21946230167, -187500.02235174447, -20645.009952188728, 11200.839126210109, 50988.39712004628, 72907.50120967641, 118866.1076266894, 50937.56925315491, 73232.51792580103, 34289.07356131954, -6057.233340410393, 21904.039013867263, 48958.54579908202, 19226.34473161039, -15464.903767693493, -38188.73771294805, -0.06, 0.882, 0.48, 192.0, 0.0, 0.0, 0.0, 0.0, 0.0, 0.0, 0.0, 0.0, 0.0, 1.695412509093515E9, 0.0, 2023-09-22 14:55:09.093
46.0, 52075.07188022994, -187500.02235174447, -20753.035933141226, 11140.020029547219, 50974.36022452834, 72847.53147930282, 118787.74241062909, 50861.39450805122, 73195.10110558286, 34283.95501183927, -6058.283872399792, 21902.183819077472, 48941.2008453847, 19219.52744955152, -15474.403259087, -38130.98080527554, -0.06, 0.882, 0.48, 192.0, 0.0, 0.0, 0.0, 0.0, 0.0, 0.0, 0.0, 0.0, 0.0, 1.695412509153241E9, 0.0, 2023-09-22 14:55:09.153
48.0, 52111.952258581194, -187500.02235174447, -20686.919473042428, 11178.219160821338, 50987.19012584569, 72875.67232557206, 118861.7043330317, 50906.74619755104, 73205.11468709883, 34272.443863444794, -6045.968061204918, 21901.870894655098, 48927.946260922705, 19214.3865483268, -15469.15059914, -38152.84081135283, -0.064, 0.884, 0.482, 192.0, 127.0, 0.0, 13.5, 80.0, 7.5, 8.0, 0.0, 0.0, 0.0, 1.69541250915325E9, 0.0, 2023-09-22 14:55:09.153
50.0, 52059.62682481132, -187500.02235174447, -20792.084430704646, 11118.070616492107, 50984.2843990665, 72825.89499067009, 118791.67631765323, 50839.28863278492, 73209.56268424544, 34279.842290859495, -6041.274194869304, 21909.939874403462, 48945.73824950913, 19212.79957447047, -15460.34401182461, -38084.71269425305, -0.064, 0.884, 0.482, 192.0, 0.0, 0.0, 0.0, 0.0, 0.0, 0.0, 0.0, 0.0, 0.0, 1.695412509153254E9, 0.0, 2023-09-22 14:55:09.153
52.0, 52096.797775840496, -187500.02235174447, -20736.562697477664, 11159.376640245515, 51003.50689929807, 72865.12230218915, 118876.70235356121, 50891.479956088064, 73215.44119303719, 34267.95116280927, -6033.853415710141, 21910.76688894831, 48924.30292657649, 19211.90550469226, -15444.116645350057, -38130.377308175244, -0.064, 0.884, 0.482, 192.0, 0.0, 0.0, 0.0, 0.0, 0.0, 0.0, 0.0, 0.0, 0.0, 1.695412509153257E9, 0.0, 2023-09-22 14:55:09.153
54.0, 52064.7900777805, -187500.02235174447, -20810.614026858097, 11122.697427594356, 51001.27172485253, 72836.445014053, 118813.17869581922, 50848.76577243397, 73222.52669602951, 34288.78298864162, -6035.015706421817, 21921.20515360894, 48967.531200353056, 19221.38264434131, -15439.489834247808, -38040.6797576761, -0.064, 0.884, 0.482, 192.0, 0.0, 0.0, 0.0, 0.0, 0.0, 0.0, 0.0, 0.0, 0.0, 1.69541250915326E9, 0.0, 2023-09-22 14:55:09.153
56.0, 52100.843441586905, -187500.02235174447, -20764.323564091155, 11157.789666389188, 51016.068579681945, 72873.1465784486, 118883.4078768978, 50896.57615382387, 73207.37221328882, 34280.624601915435, -6037.295584356259, 21927.86597345662, 48924.83936844342, 19224.154260653766, -15437.746398180296, -38077.13545288271, -0.064, 0.884, 0.482, 192.0, 0.0, 0.0, 0.0, 0.0, 0.0, 0.0, 0.0, 0.0, 0.0, 1.695412509153263E9, 0.0, 2023-09-22 14:55:09.153
58.0, 52083.05145300049, -187500.02235174447, -20817.744233339337, 11127.257183463238, 51012.358190102364, 72852.18064214953, 118821.35943428987, 50864.367290063776, 73209.13800110079, 34300.4953027362, -6042.995279192362, 21914.834906439177, 48968.559380597995, 19231.70915027966, -15443.893127905505, -37980.41945462459, -0.068, 0.884, 0.482, 192.0, 126.5, 112.0, 13.5, 80.0, 7.5, 8.0, 0.0, 0.0, 0.0, 1.695412509153267E9, 0.0, 2023-09-22 14:55:09.153
60.0, 52101.491642176115, -187500.02235174447, -20794.58782608364, 11150.614756419034, 51027.266803654056, 72882.53431111983, 118894.65080435883, 50902.40995912671, 73192.3294892704, 34283.46327346126, -6041.363601847124, 21916.95832216243, 48915.16106309427, 19235.37483637033, -15432.404331255477, -38041.64088268768, -0.068, 0.884, 0.482, 192.0, 0.0, 0.0, 0.0, 0.0, 0.0, 0.0, 0.0, 0.0, 0.0, 1.695412509214356E9, 0.0, 2023-09-22 14:55:09.214
62.0, 52107.50426143459, -187500.02235174447, -20808.915294279494, 11150.905329096953, 51011.70998951316, 72874.51003486039, 118832.13297511733, 50891.79288051044, 73208.9815388896, 34304.33980278252, -6053.5005990863565, 21904.083717356174, 48987.17838372927, 19223.61781878684, -15437.81345341366, -37914.928843370544, -0.068, 0.884, 0.482, 192.0, 0.0, 0.0, 0.0, 0.0, 0.0, 0.0, 0.0, 0.0, 0.0, 1.695412509214376E9, 0.0, 2023-09-22 14:55:09.214
64.0, 52080.68216808822, -187500.02235174447, -20843.024056318292, 11129.313543953127, 51023.66817279675, 72861.65778179858, 118879.04928672902, 50881.46637457209, 73175.14099778426, 34267.70529362027, -6044.895177471063, 21911.459793026424, 48897.190260552205, 19225.42831008772, -15435.690037690407, -37979.27951565737, -0.068, 0.884, 0.482, 192.0, 0.0, 0.0, 0.0, 0.0, 0.0, 0.0, 0.0, 0.0, 0.0, 1.69541250921438E9, 0.0, 2023-09-22 14:55:09.214
66.0, 52108.17481376825, -187500.02235174447, -20827.914277066502, 11148.379581973504, 50989.93939041369, 72869.1009127022, 118833.71994897365, 50895.50327009002, 73223.06313789645, 34293.16393055486, -6046.660965283033, 21902.653205711034, 48979.28821793655, 19216.867591961338, -15444.764845939262, -37891.52656692584, -0.068, 0.884, 0.482, 192.0, 0.0, 0.0, 0.0, 0.0, 0.0, 0.0, 0.0, 0.0, 0.0, 1.695412509214383E9, 0.0, 2023-09-22 14:55:09.214
68.0, 52083.1408599783, -187500.02235174447, -20873.08715261068, 11125.044360762164, 51013.87810872532, 72850.90659271558, 118861.92785047626, 50876.191362880636, 73191.90480612575, 34271.92977332232, -6040.380125091091, 21901.4685632549, 48886.59553368039, 19212.598408770373, -15461.796875214206, -37923.28839579682, -0.07, 0.888, 0.484, 192.0, 126.5, 104.0, 13.5, 96.0, 7.5, 16.0, 0.0, 0.0, 0.0, 1.695412509214387E9, 0.0, 2023-09-22 14:55:09.214
70.0, 52144.87637816386, -187500.02235174447, -20807.373023912078, 11182.287178312205, 50991.05697763646, 72885.68590708803, 118840.47017579916, 50924.80640707093, 73207.43926852218, 34289.36413399746, -6058.954424733452, 21890.38209800507, 48994.48740416615, 19210.85497270286, -15450.084561119624, -37822.48202830339, -0.07, 0.888, 0.484, 192.0, 0.0, 0.0, 0.0, 0.0, 0.0, 0.0, 0.0, 0.0, 0.0, 1.695412509214391E9, 0.0, 2023-09-22 14:55:09.214
72.0, 52084.437261156716, -187500.02235174447, -20894.388365076586, 11122.652724105445, 51003.75276848707, 72837.4955460424, 118848.31563810297, 50868.12238313227, 73165.50739592403, 34269.31461922105, -6049.72315427341, 21905.536580745767, 48894.530402962024, 19214.766527982538, -15462.333317081133, -37849.30412164976, -0.07, 0.888, 0.484, 192.0, 0.0, 0.0, 0.0, 0.0, 0.0, 0.0, 0.0, 0.0, 0.0, 1.695412509214395E9, 0.0, 2023-09-22 14:55:09.214
74.0, 52138.93081413875, -187500.02235174447, -20822.661617119506, 11173.122963085529, 50986.11724211183, 72873.72772380445, 118844.2029171232, 50911.84239528685, 73200.04084110747, 34295.62262244494, -6057.814485766231, 21894.7183364294, 48978.30474118051, 19212.643112259284, -15466.960128183382, -37771.94473408994, -0.07, 0.888, 0.484, 192.0, 0.0, 0.0, 0.0, 0.0, 0.0, 0.0, 0.0, 0.0, 0.0, 1.695412509214398E9, 0.0, 2023-09-22 14:55:09.214
76.0, 52069.28277841602, -187500.02235174447, -20924.742034046893, 11108.504069865236, 50992.95687591516, 72825.49265926989, 118836.87154494185, 50849.14575208971, 73177.64439316325, 34271.01335179965, -6044.850473982153, 21896.28295854127, 48901.70531293217, 19218.14164139529, -15461.662764747474, -37783.992324351355, -0.07, 0.888, 0.484, 192.0, 0.0, 0.0, 0.0, 0.0, 0.0, 0.0, 0.0, 0.0, 0.0, 1.69541250927327E9, 0.0, 2023-09-22 14:55:09.273
78.0, 52135.19807281472, -187500.02235174447, -20834.731559125372, 11176.945111387386, 50986.67603572322, 72875.56056684979, 118855.84817598441, 50907.72967430707, 73183.29938451045, 34293.99094509971, -6063.402421880058, 21883.81068513521, 48967.508848608595, 19205.42349880022, -15469.754096240295, -37728.24707367981, -0.062, 0.888, 0.486, 192.0, 127.0, 8.0, 13.5, 96.0, 7.5, 24.0, 0.0, 0.0, 0.0, 1.69541250927328E9, 0.0, 2023-09-22 14:55:09.273
80.0, 52070.646234827786, -187500.02235174447, -20941.349380177187, 11113.53321236768, 50996.846079450384, 72831.99701690639, 118838.59262926491, 50834.39360074921, 73157.48311966457, 34272.712084378254, -6051.667756041022, 21895.32183352969, 48895.62563844033, 19214.207734371153, -15463.048572903703, -37722.92735849945, -0.062, 0.888, 0.486, 192.0, 0.0, 0.0, 0.0, 0.0, 0.0, 0.0, 0.0, 0.0, 0.0, 1.695412509273283E9, 0.0, 2023-09-22 14:55:09.273
82.0, 52126.21267154368, -187500.02235174447, -20857.396228003054, 11167.535026971702, 50993.80624220446, 72871.89488075911, 118864.63241155534, 50875.49845880252, 73197.89507363977, 34292.06869507655, -6054.886407242586, 21890.739725916355, 48965.36308114089, 19207.74808022357, -15468.927081695449, -37672.144195097, -0.062, 0.888, 0.486, 192.0, 0.0, 0.0, 0.0, 0.0, 0.0, 0.0, 0.0, 0.0, 0.0, 1.695412509273287E9, 0.0, 2023-09-22 14:55:09.273
84.0, 52049.09915317287, -187500.02235174447, -20979.123828306656, 11096.992921470754, 50999.19301261819, 72825.06797612524, 118834.41285305178, 50792.841707806794, 73172.99523031655, 34288.62652643043, -6047.085648427684, 21907.145906346548, 48905.3933507673, 19230.41274910125, -15457.460636789876, -37677.575668999634, -0.062, 0.888, 0.486, 192.0, 0.0, 0.0, 0.0, 0.0, 0.0, 0.0, 0.0, 0.0, 0.0, 1.69541250927329E9, 0.0, 2023-09-22 14:55:09.273
86.0, 52136.49447399312, -187500.02235174447, -20856.859786136127, 11188.031576637219, 50999.148309129276, 72895.0512880148, 118884.19018795375, 50875.43140356916, 73194.45290499365, 34306.776142928145, -6057.210988665937, 21891.633795694568, 48966.21244743019, 19215.571190782928, -15459.449942046398, -37622.0315840282, -0.062, 0.888, 0.486, 192.0, 0.0, 0.0, 0.0, 0.0, 0.0, 0.0, 0.0, 0.0, 0.0, 1.695412509273294E9, 0.0, 2023-09-22 14:55:09.273
88.0, 52057.8386852549, -187500.02235174447, -20986.58931095473, 11108.369959398504, 50990.43112879171, 72831.92996167303, 118814.65391095328, 50782.783422801906, 73147.3130759374, 34295.75673291168, -6058.194465421971, 21894.38306026257, 48909.081388602426, 19218.298103606478, -15460.120494380057, -37572.3213043596, -0.058, 0.894, 0.49, 192.0, 127.0, 24.0, 13.5, 120.0, 7.5, 40.0, 0.0, 0.0, 0.0, 1.695412509273297E9, 0.0, 2023-09-22 14:55:09.273
90.0, 52103.21272649917, -187500.02235174447, -20905.452478581963, 11155.621547177023, 51009.83244297891, 72877.77338955086, 118875.02597272706, 50823.68711515512, 73192.73182067058, 34290.95110785378, -6054.461724097935, 21893.220769550895, 48932.126037135844, 19224.623647287328, -15452.744418709806, -37582.8713277425, -0.058, 0.894, 0.49, 192.0, 0.0, 0.0, 0.0, 0.0, 0.0, 0.0, 0.0, 0.0, 0.0, 1.695412509333503E9, 0.0, 2023-09-22 14:55:09.333
92.0, 52031.1283506308, -187500.02235174447, -21026.956561441013, 11084.922979464887, 50999.81886146294, 72826.31967381474, 118805.93673061571, 50756.14014341118, 73189.98255610258, 34289.61000318647, -6054.4393723534795, 21899.725127187387, 48934.674136003756, 19227.32820836642, -15445.01071512827, -37542.19115283384, -0.058, 0.894, 0.49, 192.0, 0.0, 0.0, 0.0, 0.0, 0.0, 0.0, 0.0, 0.0, 0.0, 1.695412509333515E9, 0.0, 2023-09-22 14:55:09.333
94.0, 52078.55875236497, -187500.02235174447, -20949.44071167001, 11137.896613823965, 50998.54481202899, 72870.26320341388, 118863.91715573278, 50828.38098149073, 73188.59674794636, 34289.989982842206, -6063.022442224317, 21882.670746167987, 48943.52542680805, 19213.291312848487, -15448.251718074289, -37534.39039401894, -0.058, 0.894, 0.49, 192.0, 0.0, 0.0, 0.0, 0.0, 0.0, 0.0, 0.0, 0.0, 0.0, 1.695412509333518E9, 0.0, 2023-09-22 14:55:09.333
96.0, 52016.08562661238, -187500.02235174447, -21062.384076402675, 11074.6635287599, 50987.972436901626, 72827.68313022652, 118800.3934979908, 50774.28975990889, 73176.63856466276, 34291.59930844299, -6052.427715352502, 21897.154676575028, 48935.47879880414, 19227.93170546671, -15444.764845939262, -37498.87347207945, -0.058, 0.894, 0.49, 192.0, 0.0, 0.0, 0.0, 0.0, 0.0, 0.0, 0.0, 0.0, 0.0, 1.695412509333521E9, 0.0, 2023-09-22 14:55:09.333
98.0, 52083.02910125603, -187500.02235174447, -20973.49118870392, 11140.847044092065, 50989.157079357756, 72882.78018030885, 118860.78791150903, 50854.86779867027, 73185.1769310447, 34295.89084337841, -6063.402421880058, 21885.42001073599, 48943.52542680805, 19218.99100768459, -15451.448017531398, -37485.17185272835, -0.06, 0.892, 0.488, 192.0, 127.0, 16.0, 13.5, 112.0, 7.5, 32.0, 0.0, 0.0, 0.0, 1.695412509333524E9, 0.0, 2023-09-22 14:55:09.333
100.0, 52047.95921420565, -187500.02235174447, -21052.41519837561, 11104.145479696452, 50974.673148950715, 72851.44303458251, 118788.77059087403, 50809.694923126095, 73174.5151489395, 34301.41172425887, -6058.417982866524, 21891.81260965021, 48963.37377588436, 19219.37098734033, -15447.022372129248, -37390.333401004485, -0.06, 0.892, 0.488, 192.0, 0.0, 0.0, 0.0, 0.0, 0.0, 0.0, 0.0, 0.0, 0.0, 1.695412509333527E9, 0.0, 2023-09-22 14:55:09.333
102.0, 52073.57431335143, -187500.02235174447, -21004.31424430779, 11138.075427779608, 50978.78586993049, 72882.3554971642, 118862.12901617635, 50856.41006903769, 73157.97485804258, 34276.60128791348, -6069.124468460616, 21886.649356681035, 48909.796644425, 19220.399167585274, -15444.161348838968, -37428.3313665785, -0.06, 0.892, 0.488, 192.0, 0.0, 0.0, 0.0, 0.0, 0.0, 0.0, 0.0, 0.0, 0.0, 1.695412509333531E9, 0.0, 2023-09-22 14:55:09.333
104.0, 52060.40913586726, -187500.02235174447, -21049.174195429587, 11123.591497372568, 50968.43701224768, 72864.42939811104, 118790.13404728581, 50836.472312983555, 73165.64150639076, 34291.46519797626, -6072.588988851188, 21881.061420567206, 48962.18913342823, 19221.315589107944, -15443.446093016399, -37308.77188548707, -0.06, 0.892, 0.488, 192.0, 0.0, 0.0, 0.0, 0.0, 0.0, 0.0, 0.0, 0.0, 0.0, 1.695412509333534E9, 0.0, 2023-09-22 14:55:09.333
106.0, 52086.82889781343, -187500.02235174447, -21011.86913393368, 11154.63807042099, 50982.36214904334, 72891.09502924622, 118864.58770806644, 50878.895923959724, 73146.59782011484, 34265.336008708, -6071.784326050798, 21884.883568869063, 48892.429338983224, 19225.808289743458, -15436.33823827961, -37346.25576093862, -0.06, 0.892, 0.488, 192.0, 0.0, 0.0, 0.0, 0.0, 0.0, 0.0, 0.0, 0.0, 0.0, 1.695412509393718E9, 0.0, 2023-09-22 14:55:09.393
108.0, 52097.31186596297, -187500.02235174447, -21027.090671907747, 11162.505884469258, 50969.59930295936, 72884.76948556537, 118794.42558222123, 50871.631607011754, 73160.03121853247, 34290.906404364876, -6079.048642998772, 21878.312155999203, 48978.774127814075, 19214.498307049074, -15438.10402609158, -37213.9334337632, -0.066, 0.884, 0.484, 192.0, 126.5, 120.0, 13.5, 80.0, 7.5, 16.0, 0.0, 0.0, 0.0, 1.695412509393728E9, 0.0, 2023-09-22 14:55:09.393
110.0, 52079.676339587735, -187500.02235174447, -21041.172270914587, 11153.006393075751, 50994.83442244941, 72879.09214247372, 118855.08821667293, 50870.82694421136, 73127.46472686109, 34255.61299986995, -6077.707538331454, 21880.815551378197, 48883.60039992337, 19223.61781878684, -15438.305191791678, -37258.52516395154, -0.066, 0.884, 0.484, 192.0, 0.0, 0.0, 0.0, 0.0, 0.0, 0.0, 0.0, 0.0, 0.0, 1.695412509393731E9, 0.0, 2023-09-22 14:55:09.393
112.0, 52082.15738322227, -187500.02235174447, -21053.890413509656, 11155.576843688112, 50986.89955316777, 72875.6052703387, 118808.30601552797, 50865.77544996446, 73182.2265007766, 34292.06869507655, -6053.947633975463, 21887.85635088162, 48975.488421379145, 19225.920048465738, -15425.430586985422, -37149.87333415429, -0.066, 0.884, 0.484, 192.0, 0.0, 0.0, 0.0, 0.0, 0.0, 0.0, 0.0, 0.0, 0.0, 1.695412509393734E9, 0.0, 2023-09-22 14:55:09.393
114.0, 52023.97579240511, -187500.02235174447, -21120.163335819645, 11110.515726866213, 51008.2901726115, 72847.3973688361, 118852.78598699403, 50837.321679272856, 73127.68824430564, 34255.322427192026, -6055.400497365057, 21899.00987136482, 48882.4381092117, 19223.774280998026, -15417.38395898151, -37219.36490766584, -0.066, 0.884, 0.484, 192.0, 0.0, 0.0, 0.0, 0.0, 0.0, 0.0, 0.0, 0.0, 0.0, 1.695412509393737E9, 0.0, 2023-09-22 14:55:09.393
116.0, 52083.87846754533, -187500.02235174447, -21066.36268691572, 11163.310547269648, 50978.02591061901, 72885.52944487685, 118818.00667262157, 50891.770528765985, 73170.9165180822, 34278.99292457019, -6056.808657265742, 21873.864158852597, 48970.995720743624, 19213.492478548585, -15433.186642311412, -37115.83162734886, -0.066, 0.884, 0.484, 192.0, 0.0, 0.0, 0.0, 0.0, 0.0, 0.0, 0.0, 0.0, 0.0, 1.695412509393741E9, 0.0, 2023-09-22 14:55:09.393
118.0, 52057.95044397718, -187500.02235174447, -21116.631760195705, 11139.662401635935, 50984.50791651105, 72867.02220046785, 118842.79475722251, 50877.97950243706, 73132.27035191898, 34251.09794748997, -6058.708555544443, 21876.255795509314, 48910.62365896984, 19213.693644248684, -15431.53261322172, -37117.35154597182, -0.06, 0.88, 0.484, 192.0, 127.0, 16.0, 13.5, 64.0, 7.5, 16.0, 0.0, 0.0, 0.0, 1.695412509393744E9, 0.0, 2023-09-22 14:55:09.393
120.0, 52095.03198802853, -187500.02235174447, -21069.40252416164, 11177.88388465451, 51008.67015226724, 72893.86664555868, 118841.00661766609, 50916.938593022656, 73152.94571554015, 34272.712084378254, -6060.094363700672, 21881.888435112054, 48986.50783139561, 19211.726690736617, -15419.350912493577, -37030.06798387384, -0.06, 0.88, 0.484, 192.0, 0.0, 0.0, 0.0, 0.0, 0.0, 0.0, 0.0, 0.0, 0.0, 1.695412509454051E9, 0.0, 2023-09-22 14:55:09.454
122.0, 52034.16818787673, -187500.02235174447, -21159.636516527717, 11121.222212460305, 51004.870355709834, 72854.05818868378, 118843.53236478954, 50873.173877379166, 73107.63872952924, 34258.56343013805, -6053.187674663982, 21896.059441096717, 48901.90647863227, 19221.36029259685, -15412.62303741253, -37054.87842021923, -0.06, 0.88, 0.484, 192.0, 0.0, 0.0, 0.0, 0.0, 0.0, 0.0, 0.0, 0.0, 0.0, 1.695412509454062E9, 0.0, 2023-09-22 14:55:09.454
124.0, 52104.73264512213, -187500.02235174447, -21071.25771895143, 11191.809021450164, 50989.40294854676, 72902.53912240734, 118839.46434729868, 50943.425410202195, 73186.58509094537, 34282.45744496077, -6041.8776919695965, 21880.94966184493, 48991.5146221536, 19210.452641302665, -15422.837784628606, -36955.569619604306, -0.06, 0.88, 0.484, 192.0, 0.0, 0.0, 0.0, 0.0, 0.0, 0.0, 0.0, 0.0, 0.0, 1.695412509454065E9, 0.0, 2023-09-22 14:55:09.454
126.0, 52048.272138628025, -187500.02235174447, -21168.443103843107, 11136.980192301296, 50986.206649089654, 72857.83563349672, 118825.06982386946, 50892.12815667727, 73132.27035191898, 34252.863735301944, -6059.222645666915, 21887.409315992514, 48895.6926936737, 19214.56536228244, -15423.307171262166, -36965.18086972009, -0.06, 0.88, 0.484, 192.0, 0.0, 0.0, 0.0, 0.0, 0.0, 0.0, 0.0, 0.0, 0.0, 1.695412509454068E9, 0.0, 2023-09-22 14:55:09.454
128.0, 52123.59751744241, -187500.02235174447, -21069.380172417186, 11210.718597259354, 50985.24552407808, 72908.32822422126, 118844.49348980111, 50960.926826110706, 73183.63466067727, 34280.6916571488, -6060.116715445128, 21879.027411821775, 48978.640017347345, 19203.389490054786, -15422.882488117515, -36875.237450031935, -0.06, 0.88, 0.486, 192.0, 127.0, 16.0, 13.5, 64.0, 7.5, 24.0, 0.0, 0.0, 0.0, 1.695412509454071E9, 0.0, 2023-09-22 14:55:09.454
130.0, 52050.12733341782, -187500.02235174447, -21189.990185498023, 11141.048209792163, 50965.866561635325, 72852.38180784963, 118808.1942568057, 50888.95420896461, 73153.72802659607, 34257.9375812933, -6053.411192108535, 21885.017679335797, 48900.185394309214, 19222.388472841798, -15422.949543350882, -36869.76127264038, -0.06, 0.88, 0.486, 192.0, 0.0, 0.0, 0.0, 0.0, 0.0, 0.0, 0.0, 0.0, 0.0, 1.695412509454074E9, 0.0, 2023-09-22 14:55:09.454
132.0, 52122.055247075, -187500.02235174447, -21088.468562182017, 11216.083015928629, 50985.781965945, 72903.83552358575, 118848.4050450808, 50962.53615171149, 73151.20227947262, 34279.50701469267, -6070.398517894569, 21884.749458402333, 48955.26009264709, 19212.307836092456, -15431.286744032712, -36809.50096958887, -0.06, 0.88, 0.486, 192.0, 0.0, 0.0, 0.0, 0.0, 0.0, 0.0, 0.0, 0.0, 0.0, 1.695412509454078E9, 0.0, 2023-09-22 14:55:09.454
134.0, 52054.4859235866, -187500.02235174447, -21207.469249662074, 11146.278517994704, 50985.49139326708, 72848.87258397015, 118809.53536147301, 50892.23991539954, 73157.21489873111, 34265.872450574934, -6042.078857669694, 21900.70860394342, 48913.283516560026, 19228.602257800372, -15418.635656671007, -36783.46118729844, -0.06, 0.88, 0.486, 192.0, 0.0, 0.0, 0.0, 0.0, 0.0, 0.0, 0.0, 0.0, 0.0, 1.695412509454081E9, 0.0, 2023-09-22 14:55:09.454
136.0, 52110.03000855804, -187500.02235174447, -21118.822231152324, 11203.320169844648, 50984.77613744452, 72894.02310776987, 118855.60230679541, 50951.2261690171, 73163.83101508988, 34270.409854699355, -6061.211950923437, 21886.828170636676, 48950.11919142237, 19213.224257615122, -15429.990342854304, -36749.21831479291, -0.06, 0.88, 0.486, 192.0, 0.0, 0.0, 0.0, 0.0, 0.0, 0.0, 0.0, 0.0, 0.0, 1.695412509514347E9, 0.0, 2023-09-22 14:55:09.514
138.0, 52061.25850215656, -187500.02235174447, -21217.035796288943, 11155.889768110486, 50970.3816140153, 72853.72291251694, 118791.9892420756, 50899.72774979207, 73161.59584064434, 34267.97351455373, -6062.418945124024, 21881.106124056118, 48929.421476056756, 19207.949245923668, -15437.858156902572, -36690.23206117535, -0.064, 0.888, 0.486, 192.0, 127.0, 0.0, 13.5, 96.0, 7.5, 24.0, 0.0, 0.0, 0.0, 1.695412509514358E9, 0.0, 2023-09-22 14:55:09.514
140.0, 52103.45859568818, -187500.02235174447, -21139.74346396249, 11201.844954710597, 50970.985111115595, 72889.35159317871, 118847.7568444916, 50952.90254985125, 73163.00400054503, 34278.814110614556, -6068.185695193493, 21887.05168808123, 48931.097856890905, 19209.200943613167, -15444.898956405994, -36679.68203779245, -0.064, 0.888, 0.486, 192.0, 0.0, 0.0, 0.0, 0.0, 0.0, 0.0, 0.0, 0.0, 0.0, 1.695412509514362E9, 0.0, 2023-09-22 14:55:09.514
142.0, 52043.75708624806, -187500.02235174447, -21249.043494348945, 11139.7294568693, 50971.745070427074, 72837.67435999804, 118783.45087569367, 50884.573267051375, 73163.85336683433, 34279.26114550366, -6057.993299721873, 21877.105161798616, 48921.8442346864, 19205.669367989227, -15446.888261662516, -36600.847435098585, -0.064, 0.888, 0.486, 192.0, 0.0, 0.0, 0.0, 0.0, 0.0, 0.0, 0.0, 0.0, 0.0, 1.695412509514367E9, 0.0, 2023-09-22 14:55:09.514
144.0, 52096.61896188486, -187500.02235174447, -21165.917356719656, 11195.161783118461, 50975.880143151306, 72883.69660183151, 118856.40696959579, 50947.336965481874, 73160.65706737722, 34245.97939800971, -6068.453916126957, 21862.46476918039, 48914.043475871506, 19202.04838538747, -15441.836767415616, -36611.68803115941, -0.064, 0.888, 0.486, 192.0, 0.0, 0.0, 0.0, 0.0, 0.0, 0.0, 0.0, 0.0, 0.0, 1.69541250951437E9, 0.0, 2023-09-22 14:55:09.514
146.0, 52023.10407437135, -187500.02235174447, -21289.142523901766, 11116.43893914687, 50958.57989294289, 72815.74729868738, 118772.27500346601, 50866.06602264238, 73158.55600339842, 34244.39242415338, -6065.615244581133, 21860.162539501496, 48903.78402516652, 19187.810324169437, -15452.543253009708, -36531.08764065357, -0.064, 0.888, 0.486, 192.0, 0.0, 0.0, 0.0, 0.0, 0.0, 0.0, 0.0, 0.0, 0.0, 1.695412509514374E9, 0.0, 2023-09-22 14:55:09.514
148.0, 52107.86188934588, -187500.02235174447, -21186.23509242953, 11202.582562277623, 50987.30188456797, 72886.44586639952, 118865.68294354474, 50961.21739878862, 73164.97095405709, 34227.986243723186, -6067.96217774894, 21857.770902844775, 48910.02016186955, 19188.65969045874, -15446.463578517865, -36542.41997509241, -0.062, 0.884, 0.486, 192.0, 127.0, 8.0, 13.5, 80.0, 7.5, 24.0, 0.0, 0.0, 0.0, 1.695412509514377E9, 0.0, 2023-09-22 14:55:09.514
150.0, 52071.763822050554, -187500.02235174447, -21265.11439861231, 11162.394125746981, 50975.65662570675, 72843.30699960077, 118792.25746300907, 50908.44493012964, 73166.89320408025, 34243.096022974976, -6066.352852148158, 21862.7106383694, 48944.91123496428, 19194.202923083656, -15438.551060980686, -36406.11903740395, -0.062, 0.884, 0.486, 192.0, 0.0, 0.0, 0.0, 0.0, 0.0, 0.0, 0.0, 0.0, 0.0, 1.695412509573219E9, 0.0, 2023-09-22 14:55:09.573
152.0, 52095.36726419536, -187500.02235174447, -21222.355511469308, 11191.473745283336, 50994.07446313792, 72870.64318306961, 118874.91421400479, 50949.929767838694, 73164.32275346789, 34229.57321757951, -6062.709517801943, 21874.244138508337, 48905.795682167496, 19202.13779236529, -15425.72115966334, -36442.842953544015, -0.062, 0.884, 0.486, 192.0, 0.0, 0.0, 0.0, 0.0, 0.0, 0.0, 0.0, 0.0, 0.0, 1.695412509573242E9, 0.0, 2023-09-22 14:55:09.573
154.0, 52089.68992110371, -187500.02235174447, -21259.817035176402, 11179.984948633308, 50973.39909951676, 72856.47217708494, 118809.60241670639, 50928.22622397259, 73159.38301794327, 34245.64412184288, -6071.6949190729765, 21868.94677507243, 48962.21148517269, 19199.94732140867, -15436.181776068423, -36317.40496366083, -0.062, 0.884, 0.486, 192.0, 0.0, 0.0, 0.0, 0.0, 0.0, 0.0, 0.0, 0.0, 0.0, 1.695412509573246E9, 0.0, 2023-09-22 14:55:09.573
156.0, 52077.77644130903, -187500.02235174447, -21262.186320088666, 11174.553474730668, 51007.48550981111, 72861.59072656522, 118877.77523729506, 50933.38947694177, 73166.98261105808, 34226.53338033359, -6052.450067096957, 21883.743629901845, 48900.92300187624, 19215.817059971938, -15421.608438683563, -36351.826650122006, -0.062, 0.884, 0.486, 192.0, 0.0, 0.0, 0.0, 0.0, 0.0, 0.0, 0.0, 0.0, 0.0, 1.695412509573249E9, 0.0, 2023-09-22 14:55:09.573
158.0, 52086.62773211333, -187500.02235174447, -21273.7198202276, 11175.447544508881, 50973.42145126122, 72859.62377305314, 118823.05816686848, 50929.388514684266, 73174.89512859525, 34252.77432832412, -6061.279006156803, 21873.238310007848, 48974.81786904548, 19218.812193728947, -15427.464595730853, -36247.242837815626, -0.062, 0.882, 0.484, 192.0, 127.0, 8.0, 13.5, 72.0, 7.5, 16.0, 0.0, 0.0, 0.0, 1.695412509573253E9, 0.0, 2023-09-22 14:55:09.573
160.0, 52064.76772603604, -187500.02235174447, -21295.40101234925, 11160.069544323629, 50982.60801823235, 72856.20395615148, 118865.83940575593, 50923.97939252608, 73146.93309628166, 34225.86282799993, -6065.190561436482, 21866.532786671258, 48887.84723136989, 19207.591618012386, -15436.405293512977, -36272.74617823913, -0.062, 0.882, 0.484, 192.0, 0.0, 0.0, 0.0, 0.0, 0.0, 0.0, 0.0, 0.0, 0.0, 1.695412509573256E9, 0.0, 2023-09-22 14:55:09.573
162.0, 52073.6413685848, -187500.02235174447, -21293.389355348274, 11168.429096749915, 50962.156172055744, 72857.70152302999, 118816.41969876525, 50923.93468903717, 73155.20324173012, 34248.77336606662, -6076.589951108689, 21856.966240044385, 48946.49820882061, 19198.203885341154, -15453.236157087822, -36171.71629330114, -0.062, 0.882, 0.484, 192.0, 0.0, 0.0, 0.0, 0.0, 0.0, 0.0, 0.0, 0.0, 0.0, 1.695412509573259E9, 0.0, 2023-09-22 14:55:09.573
164.0, 52046.26048162705, -187500.02235174447, -21333.30957094545, 11146.63614590599, 50973.153230327756, 72844.15636589007, 118849.67909451475, 50908.690799318654, 73147.62600035979, 34221.10190643095, -6066.017575981328, 21862.196548246928, 48882.30399874497, 19204.842353444383, -15447.447055273899, -36208.373154207846, -0.062, 0.882, 0.484, 192.0, 0.0, 0.0, 0.0, 0.0, 0.0, 0.0, 0.0, 0.0, 0.0, 1.695412509573263E9, 0.0, 2023-09-22 14:55:09.573
166.0, 52116.98140108364, -187500.02235174447, -21262.275727066484, 11212.260867626772, 50952.61197717333, 72879.82975004075, 118812.88812314131, 50960.41273598823, 73166.20030000214, 34250.20387771176, -6083.854268056663, 21844.583373616144, 48965.81011602999, 19189.397298025764, -15462.95916592588, -36078.91185032271, -0.062, 0.882, 0.484, 192.0, 0.0, 0.0, 0.0, 0.0, 0.0, 0.0, 0.0, 0.0, 0.0, 1.695412509633607E9, 0.0, 2023-09-22 14:55:09.633
168.0, 52079.29635993199, -187500.02235174447, -21326.916972031235, 11175.49224799779, 50970.13574482629, 72844.26812461235, 118823.32638780194, 50921.78892156946, 73128.00116872802, 34220.90074073085, -6084.189544223493, 21844.851594549607, 48871.61986489533, 19190.693699204174, -15466.423686316453, -36069.591172884844, -0.058, 0.88, 0.47800000000000004, 192.0, 127.0, 24.0, 13.5, 64.0, 7.0, 120.0, 0.0, 0.0, 0.0, 1.695412509633617E9, 0.0, 2023-09-22 14:55:09.633
170.0, 52111.25935450308, -187500.02235174447, -21283.68869825467, 11201.867306455053, 50959.2280935321, 72861.70248528749, 118818.83368716642, 50943.358354968834, 73176.30328849594, 34244.79475555358, -6083.161363978549, 21847.131472484052, 48954.231912402145, 19194.493495761573, -15459.271128090755, -35981.83822415331, -0.058, 0.88, 0.47800000000000004, 192.0, 0.0, 0.0, 0.0, 0.0, 0.0, 0.0, 0.0, 0.0, 0.0, 1.695412509633621E9, 0.0, 2023-09-22 14:55:09.633
172.0, 52063.20310392417, -187500.02235174447, -21362.52330094854, 11160.561282701647, 50982.27274206552, 72832.0417203953, 118825.62861748083, 50904.04163647195, 73152.5657358844, 34226.75689777814, -6066.062279470239, 21857.793254589233, 48889.54596394849, 19192.124210849313, -15454.890186177516, -35992.0976748583, -0.058, 0.88, 0.47800000000000004, 192.0, 0.0, 0.0, 0.0, 0.0, 0.0, 0.0, 0.0, 0.0, 0.0, 1.695412509633624E9, 0.0, 2023-09-22 14:55:09.633
174.0, 52119.730665651645, -187500.02235174447, -21279.754791230534, 11220.106329930584, 50981.3339687984, 72873.72772380445, 118845.7004840017, 50956.277663264, 73167.16142501372, 34245.88999103189, -6070.063241727739, 21854.507548154303, 48972.94032251124, 19192.146562593767, -15446.910613406972, -35900.1202464247, -0.058, 0.88, 0.47800000000000004, 192.0, 0.0, 0.0, 0.0, 0.0, 0.0, 0.0, 0.0, 0.0, 0.0, 1.695412509633627E9, 0.0, 2023-09-22 14:55:09.633
176.0, 52060.63265331181, -187500.02235174447, -21377.834245900423, 11165.031631592707, 50986.51957351203, 72833.62869425163, 118831.17185010575, 50905.963886495105, 73138.43943338864, 34227.427450111805, -6060.161418934038, 21863.64941163652, 48902.152347821284, 19192.727707949605, -15442.172043582446, -35882.84234796075, -0.058, 0.88, 0.47800000000000004, 192.0, 0.0, 0.0, 0.0, 0.0, 0.0, 0.0, 0.0, 0.0, 0.0, 1.695412509633631E9, 0.0, 2023-09-22 14:55:09.633
178.0, 52122.591688941924, -187500.02235174447, -21287.801419234445, 11227.08007420064, 50992.308675325956, 72876.32052616126, 118857.9045364743, 50967.58764595838, 73182.53942519896, 34245.64412184288, -6065.279968414303, 21843.689303837935, 48969.341691653935, 19181.976518866602, -15442.060284860168, -35805.46060865648, -0.062, 0.886, 0.47800000000000004, 192.0, 127.0, 8.0, 13.5, 88.0, 7.0, 120.0, 0.0, 0.0, 0.0, 1.695412509633634E9, 0.0, 2023-09-22 14:55:09.633
180.0, 52047.75804850555, -187500.02235174447, -21407.33854858143, 11153.92281459842, 50996.75667247256, 72819.88237141162, 118826.92501865924, 50896.9114299907, 73138.73000606657, 34229.036775712586, -6068.655081827054, 21850.28306845225, 48906.73445543462, 19194.381737039297, -15439.601592970086, -35789.210890437476, -0.062, 0.886, 0.47800000000000004, 192.0, 0.0, 0.0, 0.0, 0.0, 0.0, 0.0, 0.0, 0.0, 0.0, 1.695412509693973E9, 0.0, 2023-09-22 14:55:09.693
182.0, 52133.11936058037, -187500.02235174447, -21285.49918955555, 11241.966336007874, 50995.169698616235, 72886.33410767723, 118873.1037227039, 50986.51957351203, 73155.62792487477, 34246.515839876636, -6085.44124191299, 21840.42594914746, 48951.25913038959, 19179.09314383187, -15443.200223827389, -35729.978767630906, -0.062, 0.886, 0.47800000000000004, 192.0, 0.0, 0.0, 0.0, 0.0, 0.0, 0.0, 0.0, 0.0, 0.0, 1.695412509693988E9, 0.0, 2023-09-22 14:55:09.693
184.0, 52087.79002282501, -187500.02235174447, -21381.343469779906, 11195.944094174398, 50986.27370432302, 72846.41389208006, 118813.20104756369, 50935.35643045383, 73144.42970090266, 34243.72187181972, -6080.859134299652, 21846.907955039496, 48915.518691005556, 19183.407030511742, -15449.123436108046, -35648.99839746933, -0.062, 0.886, 0.47800000000000004, 192.0, 0.0, 0.0, 0.0, 0.0, 0.0, 0.0, 0.0, 0.0, 0.0, 1.695412509693991E9, 0.0, 2023-09-22 14:55:09.693
186.0, 52145.725744453164, -187500.02235174447, -21285.990927933566, 11260.69709786142, 50990.073500880426, 72889.39629666762, 118869.61685056888, 50998.76832947354, 73143.64738984674, 34236.59166533848, -6091.118585004639, 21841.588239859135, 48929.22031035666, 19172.857007128838, -15453.482026276832, -35613.83910344113, -0.062, 0.886, 0.47800000000000004, 192.0, 0.0, 0.0, 0.0, 0.0, 0.0, 0.0, 0.0, 0.0, 0.0, 1.695412509693995E9, 0.0, 2023-09-22 14:55:09.693
188.0, 52097.2448107296, -187500.02235174447, -21381.65639420228, 11213.669027527456, 50989.67116948023, 72843.53051704532, 118804.32740501493, 50940.631442145284, 73138.0594537329, 34237.21751418323, -6087.519954147334, 21835.84384153412, 48917.15036835079, 19170.308908260933, -15456.141883867012, -35531.875256523526, -0.062, 0.892, 0.48, 192.0, 127.0, 8.0, 13.5, 112.0, 7.5, 0.0, 0.0, 0.0, 0.0, 1.695412509693998E9, 0.0, 2023-09-22 14:55:09.693
190.0, 52165.81996271849, -187500.02235174447, -21273.98804116107, 11291.587208698656, 50992.26397183704, 72897.77820083835, 118868.72278079067, 51019.0413616945, 73168.39077095877, 34237.68690081679, -6078.825125554219, 21845.23157420535, 48936.86460696037, 19178.959033365136, -15448.564642496664, -35508.74120101228, -0.062, 0.892, 0.48, 192.0, 0.0, 0.0, 0.0, 0.0, 0.0, 0.0, 0.0, 0.0, 0.0, 1.695412509694002E9, 0.0, 2023-09-22 14:55:09.694
192.0, 52117.94252609522, -187500.02235174447, -21369.921728363246, 11239.84292028462, 50978.875276908315, 72845.85509846867, 118795.67727991073, 50953.3272329959, 73155.7173318526, 34250.47209864522, -6070.689090572488, 21849.187832973937, 48939.412705828276, 19181.28361478849, -15452.096218120601, -35406.9066532739, -0.062, 0.892, 0.48, 192.0, 0.0, 0.0, 0.0, 0.0, 0.0, 0.0, 0.0, 0.0, 0.0, 1.695412509694005E9, 0.0, 2023-09-22 14:55:09.694
194.0, 52156.90161668082, -187500.02235174447, -21297.010337950032, 11286.893342363042, 51003.32808534242, 72881.61788959717, 118872.72374304816, 51002.791643475495, 73152.65514286222, 34243.006615997154, -6063.447125368968, 21852.473539408868, 48923.051228886994, 19180.098972332355, -15448.274069818744, -35405.92317651787, -0.062, 0.892, 0.48, 192.0, 0.0, 0.0, 0.0, 0.0, 0.0, 0.0, 0.0, 0.0, 0.0, 1.695412509694008E9, 0.0, 2023-09-22 14:55:09.694
196.0, 52138.99786937212, -187500.02235174447, -21351.772111865535, 11268.475504931868, 50983.36797754383, 72856.58393580723, 118803.88037012583, 50972.12505008281, 73157.6172301313, 34260.39627318338, -6068.766840549331, 21848.830205062655, 48948.39810709931, 19185.910425890735, -15447.827034929638, -35303.55218691256, -0.062, 0.892, 0.48, 192.0, 0.0, 0.0, 0.0, 0.0, 0.0, 0.0, 0.0, 0.0, 0.0, 1.695412509754211E9, 0.0, 2023-09-22 14:55:09.754
198.0, 52164.99294817364, -187500.02235174447, -21296.384489105283, 11304.171240826994, 51004.51272779855, 72880.88028203015, 118866.66642030078, 51008.379579589324, 73171.18473901568, 34254.16013648035, -6064.67647131401, 21857.167405744483, 48916.18924333921, 19186.379812524297, -15447.20118608489, -35293.605660629946, -0.066, 0.892, 0.48, 192.0, 126.5, 120.0, 13.5, 112.0, 7.5, 0.0, 0.0, 0.0, 0.0, 1.695412509754221E9, 0.0, 2023-09-22 14:55:09.754
200.0, 52129.520729723066, -187500.02235174447, -21362.56800443745, 11268.117877020584, 50994.72266372713, 72846.52565080233, 118798.22537877863, 50961.08328832189, 73176.39269547375, 34264.01725578514, -6057.099229943661, 21858.32969645616, 48959.93160723825, 19190.60429222635, -15443.267279060756, -35195.41444723779, -0.066, 0.892, 0.48, 192.0, 0.0, 0.0, 0.0, 0.0, 0.0, 0.0, 0.0, 0.0, 0.0, 1.695412509754225E9, 0.0, 2023-09-22 14:55:09.754
202.0, 52147.625642731866, -187500.02235174447, -21323.251285940565, 11295.901095378531, 51008.603097033876, 72871.17962493654, 118868.99100172413, 50995.37086431633, 73169.88833783727, 34250.31563643404, -6051.533645574289, 21871.47252219588, 48917.21742358416, 19193.018280627522, -15434.281877789723, -35220.604863238914, -0.066, 0.892, 0.48, 192.0, 0.0, 0.0, 0.0, 0.0, 0.0, 0.0, 0.0, 0.0, 0.0, 1.695412509754228E9, 0.0, 2023-09-22 14:55:09.754
204.0, 52151.1572183558, -187500.02235174447, -21337.399940180774, 11301.444328003447, 50994.27562883802, 72865.56933707825, 118801.66754742475, 50983.479736266105, 73170.80475935993, 34264.53134590761, -6061.100192201161, 21850.93126904145, 48967.33003465296, 19186.737440435583, -15448.050552374192, -35084.37098078382, -0.066, 0.892, 0.48, 192.0, 0.0, 0.0, 0.0, 0.0, 0.0, 0.0, 0.0, 0.0, 0.0, 1.695412509754231E9, 0.0, 2023-09-22 14:55:09.754
206.0, 52129.163101811784, -187500.02235174447, -21348.08407403041, 11291.810726143209, 51002.5904777754, 72858.23796489692, 118860.07265568647, 50977.623579218816, 73171.14003552677, 34236.72577580521, -6049.633747295588, 21868.633850650054, 48908.05320835748, 19195.544027750973, -15437.411122013466, -35116.0881061659, -0.066, 0.892, 0.48, 192.0, 0.0, 0.0, 0.0, 0.0, 0.0, 0.0, 0.0, 0.0, 0.0, 1.695412509754234E9, 0.0, 2023-09-22 14:55:09.754
208.0, 52136.8073984155, -187500.02235174447, -21352.107388032364, 11295.923447122985, 50991.593419503384, 72855.15342416208, 118807.88133238332, 50970.1804483152, 73169.48600643707, 34261.69267436179, -6057.188636921482, 21854.775769087766, 48967.240627675135, 19190.336071292888, -15453.10204662109, -35004.329383889366, -0.062, 0.892, 0.47800000000000004, 192.0, 127.0, 8.0, 13.5, 112.0, 7.0, 120.0, 0.0, 0.0, 0.0, 1.695412509754237E9, 0.0, 2023-09-22 14:55:09.754
210.0, 52110.924078336255, -187500.02235174447, -21380.80702791298, 11279.383156226058, 50994.99088466059, 72843.77638623434, 118849.09794915891, 50959.51866621002, 73177.91261409671, 34240.212647940236, -6043.174093148004, 21859.42493193447, 48908.47789150213, 19197.868609174326, -15447.491758762808, -35025.04945099944, -0.062, 0.892, 0.47800000000000004, 192.0, 0.0, 0.0, 0.0, 0.0, 0.0, 0.0, 0.0, 0.0, 0.0, 1.695412509814431E9, 0.0, 2023-09-22 14:55:09.814
212.0, 52145.099895608415, -187500.02235174447, -21347.36881820784, 11311.815537430708, 50970.80629715995, 72864.0494184553, 118809.043623095, 50977.64593096327, 73172.59289891635, 34264.464290674245, -6067.179866693004, 21843.9575247714, 48965.67600556326, 19181.730649677593, -15469.329413095644, -34902.71835359554, -0.062, 0.892, 0.47800000000000004, 192.0, 0.0, 0.0, 0.0, 0.0, 0.0, 0.0, 0.0, 0.0, 0.0, 1.695412509814445E9, 0.0, 2023-09-22 14:55:09.814
214.0, 52098.675322374744, -187500.02235174447, -21406.13155438084, 11271.492990433335, 50989.24648633558, 72834.36630181865, 118837.4526902977, 50948.49925619355, 73163.87571857878, 34246.62759859891, -6050.885444985086, 21860.117836012585, 48875.62082715283, 19190.09020210388, -15460.232253102335, -34921.22559800454, -0.062, 0.892, 0.47800000000000004, 192.0, 0.0, 0.0, 0.0, 0.0, 0.0, 0.0, 0.0, 0.0, 0.0, 1.695412509814449E9, 0.0, 2023-09-22 14:55:09.814
216.0, 52161.28255859406, -187500.02235174447, -21328.526297632015, 11334.457854563934, 50972.66149194974, 72876.16406395007, 118819.59364647791, 51006.05499816597, 73177.13030304079, 34280.28932574861, -6062.351889890658, 21851.914745797487, 48956.10945893639, 19185.37398402381, -15471.609291030085, -34807.7681431494, -0.062, 0.892, 0.47800000000000004, 192.0, 0.0, 0.0, 0.0, 0.0, 0.0, 0.0, 0.0, 0.0, 0.0, 1.695412509814452E9, 0.0, 2023-09-22 14:55:09.814
218.0, 52093.26620021656, -187500.02235174447, -21416.681577763746, 11272.968205567386, 50988.55358225746, 72834.72392972994, 118827.19323959271, 50949.95211958315, 73170.9165180822, 34259.792776083086, -6041.564767547223, 21866.979821560362, 48868.40121369377, 19200.014376642033, -15457.415933300965, -34803.83423612526, -0.056, 0.884, 0.47800000000000004, 192.0, 127.0, 32.0, 13.5, 80.0, 7.0, 120.0, 0.0, 0.0, 0.0, 1.695412509814455E9, 0.0, 2023-09-22 14:55:09.814
220.0, 52142.03770661804, -187500.02235174447, -21343.546669905983, 11321.359732313125, 50978.83057341941, 72872.0960464592, 118830.32248381645, 50996.980189917114, 73189.11083806882, 34286.1901862848, -6059.155590433549, 21850.774806830264, 48934.47297030366, 19189.75492593705, -15465.127285138045, -34725.49137180941, -0.056, 0.884, 0.47800000000000004, 192.0, 0.0, 0.0, 0.0, 0.0, 0.0, 0.0, 0.0, 0.0, 0.0, 1.695412509814459E9, 0.0, 2023-09-22 14:55:09.814
222.0, 52073.97664475163, -187500.02235174447, -21442.207269931707, 11259.51245540529, 50994.63325674931, 72834.52276402984, 118832.02121639505, 50945.37001196981, 73169.55306167043, 34275.662514646356, -6034.6580785105325, 21871.204301262416, 48866.32250145942, 19208.23981860159, -15448.184662840924, -34727.92771195504, -0.056, 0.884, 0.47800000000000004, 192.0, 0.0, 0.0, 0.0, 0.0, 0.0, 0.0, 0.0, 0.0, 0.0, 1.695412509814462E9, 0.0, 2023-09-22 14:55:09.814
224.0, 52167.18341913026, -187500.02235174447, -21318.11038471584, 11351.981622216896, 50977.556523985455, 72900.41570668409, 118840.29136184351, 51028.56320483246, 73184.21580603311, 34308.11724759546, -6065.5928928366775, 21840.135376469538, 48944.71006926418, 19198.717975463627, -15460.098142635601, -34609.88814948656, -0.056, 0.884, 0.47800000000000004, 192.0, 0.0, 0.0, 0.0, 0.0, 0.0, 0.0, 0.0, 0.0, 0.0, 1.695412509814465E9, 0.0, 2023-09-22 14:55:09.814
226.0, 52083.11850823385, -187500.02235174447, -21438.876860007866, 11271.358879966603, 50992.39808230378, 72836.80264196428, 118811.43525975171, 50947.51577943752, 73156.45493941962, 34279.68582864831, -6055.288738642781, 21850.797158574722, 48857.31474844393, 19212.46429830364, -15447.87173841855, -34593.30315510072, -0.056, 0.884, 0.47800000000000004, 192.0, 0.0, 0.0, 0.0, 0.0, 0.0, 0.0, 0.0, 0.0, 0.0, 1.695412509873437E9, 0.0, 2023-09-22 14:55:09.873
228.0, 52136.67328794877, -187500.02235174447, -21350.18513800921, 11329.071084150206, 50992.86746893734, 72877.79574129531, 118853.32242886096, 51007.99959993358, 73183.29938451045, 34297.120189323454, -6066.196389936971, 21850.573641130166, 48934.56237728147, 19209.625626757817, -15438.931040636426, -34541.00007307531, -0.056, 0.886, 0.484, 192.0, 127.0, 32.0, 13.5, 88.0, 7.5, 16.0, 0.0, 0.0, 0.0, 1.695412509873464E9, 0.0, 2023-09-22 14:55:09.873
230.0, 52093.62382812784, -187500.02235174447, -21436.082891950955, 11284.836981873153, 50992.4874892816, 72845.65393276858, 118811.25644579607, 50964.212532545636, 73170.11185528182, 34289.81116888657, -6064.184732935993, 21853.81464407619, 48894.61980993984, 19211.480821547608, -15439.646296458995, -34488.11584569405, -0.056, 0.886, 0.484, 192.0, 0.0, 0.0, 0.0, 0.0, 0.0, 0.0, 0.0, 0.0, 0.0, 1.695412509873468E9, 0.0, 2023-09-22 14:55:09.873
232.0, 52171.63141627687, -187500.02235174447, -21314.22118118062, 11365.10209621216, 50999.48358529611, 72907.90354107661, 118864.31948713298, 51047.67394634175, 73189.20024504665, 34299.60123295799, -6065.7046515589545, 21847.80202481771, 48941.089086662425, 19214.475955304617, -15431.107930077069, -34432.7282229338, -0.056, 0.886, 0.484, 192.0, 0.0, 0.0, 0.0, 0.0, 0.0, 0.0, 0.0, 0.0, 0.0, 1.695412509873471E9, 0.0, 2023-09-22 14:55:09.873
234.0, 52088.57233388095, -187500.02235174447, -21441.939048998243, 11284.747574895331, 50996.68961723919, 72836.93675243101, 118794.26912001004, 50959.719831910115, 73183.34408799936, 34291.21932878725, -6057.590968321678, 21853.144091742528, 48915.45163577219, 19216.644074516782, -15428.760996909261, -34359.973294731775, -0.056, 0.886, 0.484, 192.0, 0.0, 0.0, 0.0, 0.0, 0.0, 0.0, 0.0, 0.0, 0.0, 1.695412509873474E9, 0.0, 2023-09-22 14:55:09.873
236.0, 52121.92113660826, -187500.02235174447, -21365.943117850198, 11327.081778893684, 50998.50010854007, 72874.8006075383, 118858.68684753023, 51008.67015226724, 73197.51509398402, 34292.4933782212, -6058.932072988996, 21859.067304023185, 48922.73830446462, 19222.634342030804, -15424.044778829191, -34367.05879772411, -0.056, 0.886, 0.484, 192.0, 0.0, 0.0, 0.0, 0.0, 0.0, 0.0, 0.0, 0.0, 0.0, 1.695412509873477E9, 0.0, 2023-09-22 14:55:09.873
238.0, 52078.08936573141, -187500.02235174447, -21451.19267120274, 11284.881685362065, 50973.51085823904, 72844.51399380136, 118792.30216649798, 50961.530323210995, 73179.83486411988, 34296.85196838999, -6054.998165964862, 21854.887527810042, 48914.87049041635, 19216.644074516782, -15433.834842900616, -34294.527386966634, -0.062, 0.886, 0.486, 192.0, 127.0, 8.0, 13.5, 88.0, 7.5, 24.0, 0.0, 0.0, 0.0, 1.69541250987348E9, 0.0, 2023-09-22 14:55:09.873
240.0, 52118.79189238452, -187500.02235174447, -21373.341545264906, 11332.423845818503, 50993.985056160105, 72883.42838089805, 118858.88801323033, 51013.36401860286, 73167.09436978035, 34290.124093308936, -6061.167247434527, 21850.417178918982, 48903.87343214434, 19208.932722679703, -15424.402406740477, -34277.07067454704, -0.062, 0.886, 0.486, 192.0, 0.0, 0.0, 0.0, 0.0, 0.0, 0.0, 0.0, 0.0, 0.0, 1.695412509933646E9, 0.0, 2023-09-22 14:55:09.933
242.0, 52062.57725507942, -187500.02235174447, -21472.33742145746, 11273.549350923224, 50988.039492134994, 72839.37309257664, 118789.75406763007, 50951.404982972745, 73183.90288161075, 34289.23002353073, -6049.320822873214, 21857.480330166858, 48918.20090034019, 19212.0843186479, -15416.66870315894, -34199.44306605376, -0.062, 0.886, 0.486, 192.0, 0.0, 0.0, 0.0, 0.0, 0.0, 0.0, 0.0, 0.0, 0.0, 1.695412509933659E9, 0.0, 2023-09-22 14:55:09.933
244.0, 52104.64323814431, -187500.02235174447, -21400.14128686682, 11321.069159635206, 51001.383483574806, 72881.26026168588, 118859.29034463053, 51005.295038854485, 73179.56664318641, 34277.45065420278, -6056.853360754652, 21851.355952186103, 48904.611039711366, 19207.882190690303, -15415.349950236077, -34189.13891185986, -0.062, 0.886, 0.486, 192.0, 0.0, 0.0, 0.0, 0.0, 0.0, 0.0, 0.0, 0.0, 0.0, 1.695412509933662E9, 0.0, 2023-09-22 14:55:09.933
246.0, 52056.609339309856, -187500.02235174447, -21482.820389607, 11271.023603799773, 50983.09975661037, 72841.31769434425, 118794.38087873232, 50951.069706805916, 73183.18762578817, 34287.66540141885, -6052.919453730518, 21855.759245843798, 48919.58670849642, 19209.80444071346, -15414.47823220232, -34112.137152211326, -0.062, 0.886, 0.486, 192.0, 0.0, 0.0, 0.0, 0.0, 0.0, 0.0, 0.0, 0.0, 0.0, 1.695412509933666E9, 0.0, 2023-09-22 14:55:09.933
248.0, 52099.658799130775, -187500.02235174447, -21413.641740517825, 11322.276153835792, 51003.28338185351, 72883.69660183151, 118863.31365863248, 51010.48064356812, 73167.22848024708, 34276.33306698001, -6064.922340503018, 21841.94586777042, 48883.24277201209, 19200.684928975694, -15417.741586892795, -34111.24308243312, -0.058, 0.878, 0.484, 192.0, 127.0, 24.0, 13.5, 56.0, 7.5, 16.0, 0.0, 0.0, 0.0, 1.695412509933669E9, 0.0, 2023-09-22 14:55:09.933
250.0, 52076.50239187508, -187500.02235174447, -21466.123636498887, 11292.481278476867, 50991.99575090358, 72855.33223811773, 118791.22928276412, 50975.00842511755, 73173.48696869457, 34283.93266009482, -6067.023404481817, 21835.732082811843, 48933.623604014356, 19200.03672838649, -15415.886392103004, -33998.79145607847, -0.058, 0.878, 0.484, 192.0, 0.0, 0.0, 0.0, 0.0, 0.0, 0.0, 0.0, 0.0, 0.0, 1.695412509933672E9, 0.0, 2023-09-22 14:55:09.933
252.0, 52074.20016219618, -187500.02235174447, -21451.550299114027, 11295.811688400709, 51010.748864501584, 72862.61890681015, 118857.18928065173, 50990.94521891418, 73169.75422737053, 34262.16206099535, -6051.488942085379, 21847.60085911761, 48870.99401605058, 19202.69658597667, -15404.352891964067, -34039.20341005366, -0.058, 0.878, 0.484, 192.0, 0.0, 0.0, 0.0, 0.0, 0.0, 0.0, 0.0, 0.0, 0.0, 1.695412509933675E9, 0.0, 2023-09-22 14:55:09.933
254.0, 52092.796813582994, -187500.02235174447, -21444.062464721497, 11311.636723475067, 50996.287285839, 72868.81034002428, 118800.12527705733, 50997.76250097305, 73180.72893389809, 34284.91613685085, -6065.5928928366775, 21832.8040042882, 48958.32228163747, 19183.69760318966, -15415.774633380728, -33902.58954794282, -0.058, 0.878, 0.484, 192.0, 0.0, 0.0, 0.0, 0.0, 0.0, 0.0, 0.0, 0.0, 0.0, 1.695412509933678E9, 0.0, 2023-09-22 14:55:09.933
0.0, 52056.34111837639, -187500.02235174447, -21471.10807551242, 11283.965263839396, 51018.10258842738, 72853.54409856131, 118855.40114109531, 50982.22803857661, 73172.27997449398, 34262.81026158456, -6051.533645574289, 21851.065379508185, 48879.979417321614, 19200.23789408659, -15397.513258160741, -33949.25999036551, -0.058, 0.878, 0.484, 192.0, 0.0, 0.0, 0.0, 0.0, 0.0, 0.0, 0.0, 0.0, 0.0, 1.695412509994039E9, 0.0, 2023-09-22 14:55:09.994
2.0, 52072.65789182876, -187500.02235174447, -21457.808787561513, 11297.577476212678, 50999.57299227393, 72863.13299693263, 118807.68016668322, 50987.92773341271, 73190.25077703605, 34288.42536073033, -6060.4296398675015, 21836.51439386778, 48955.99770021412, 19193.21944632762, -15413.561810679652, -33848.923009505634, -0.06, 0.872, 0.48, 192.0, 127.0, 16.0, 13.5, 32.0, 7.5, 0.0, 0.0, 0.0, 0.0, 1.695412509994051E9, 0.0, 2023-09-22 14:55:09.994
4.0, 52066.22058942564, -187500.02235174447, -21471.711572612712, 11297.868048890597, 51005.42914932122, 72859.82493875324, 118839.1961263652, 50989.87233518033, 73149.28002944947, 34264.10666276296, -6063.91651200253, 21827.28312340774, 48880.87348709983, 19184.636376456783, -15416.71340664785, -33861.238820700506, -0.06, 0.872, 0.48, 192.0, 0.0, 0.0, 0.0, 0.0, 0.0, 0.0, 0.0, 0.0, 0.0, 1.695412509994054E9, 0.0, 2023-09-22 14:55:09.994
6.0, 52084.16904022325, -187500.02235174447, -21443.57072634348, 11316.263534577314, 50996.44374805019, 72868.27389815735, 118809.51300972856, 51000.84704170788, 73197.40333526174, 34284.78202638412, -6059.110886944639, 21829.406539130992, 48947.97342395466, 19188.682042203196, -15419.037988071203, -33758.465499695005, -0.06, 0.872, 0.48, 192.0, 0.0, 0.0, 0.0, 0.0, 0.0, 0.0, 0.0, 0.0, 0.0, 1.695412509994057E9, 0.0, 2023-09-22 14:55:09.994
8.0, 52040.20315887966, -187500.02235174447, -21499.807715393035, 11276.790353869243, 51004.9374109432, 72847.17385139155, 118829.29430357151, 50966.917093624725, 73169.15073027024, 34268.241735487194, -6054.573482820211, 21842.594068359624, 48868.78119334951, 19195.633434728796, -15414.589990924596, -33777.95622086003, -0.06, 0.872, 0.48, 192.0, 0.0, 0.0, 0.0, 0.0, 0.0, 0.0, 0.0, 0.0, 0.0, 1.695412509994061E9, 0.0, 2023-09-22 14:55:09.994
10.0, 52100.776386353544, -187500.02235174447, -21419.453194076206, 11331.865052207118, 50983.211515332645, 72885.86472104368, 118820.97945463413, 51015.42037909274, 73185.5792624449, 34292.716895665755, -6061.994261979373, 21831.507603109792, 48950.70033677821, 19186.737440435583, -15419.932057849415, -33685.73292323744, -0.06, 0.872, 0.48, 192.0, 0.0, 0.0, 0.0, 0.0, 0.0, 0.0, 0.0, 0.0, 0.0, 1.695412509994064E9, 0.0, 2023-09-22 14:55:09.994
12.0, 52035.39753382177, -187500.02235174447, -21510.31303528703, 11268.386097954048, 50993.09098638189, 72834.25454309638, 118813.75984117507, 50954.824799874405, 73174.55985242843, 34291.733418909724, -6040.178959390993, 21848.919612040474, 48868.75884160505, 19200.930798164703, -15423.53068870672, -33681.7990162133, -0.062, 0.878, 0.48, 192.0, 127.0, 8.0, 13.5, 56.0, 7.5, 0.0, 0.0, 0.0, 0.0, 1.695412509994067E9, 0.0, 2023-09-22 14:55:09.994
14.0, 52095.70254036219, -187500.02235174447, -21417.530944053047, 11330.836871962176, 50981.736300198594, 72878.6004040957, 118826.32152155894, 51015.085102925914, 73193.80470440444, 34274.88020359042, -6067.045756226273, 21815.570809313158, 48940.597348284406, 19183.407030511742, -15421.273162516734, -33617.47069567093, -0.062, 0.878, 0.48, 192.0, 0.0, 0.0, 0.0, 0.0, 0.0, 0.0, 0.0, 0.0, 0.0, 1.695412510054228E9, 0.0, 2023-09-22 14:55:10.054
16.0, 52010.90002189875, -187500.02235174447, -21527.479175028704, 11253.566891380178, 50995.303809082965, 72822.18460109051, 118801.4440299802, 50942.665450890716, 73166.40146570223, 34225.54990357756, -6072.164305706538, 21807.613588287066, 48865.22726598111, 19177.707335675637, -15419.261505515757, -33606.67480309901, -0.062, 0.878, 0.48, 192.0, 0.0, 0.0, 0.0, 0.0, 0.0, 0.0, 0.0, 0.0, 0.0, 1.69541251005424E9, 0.0, 2023-09-22 14:55:10.054
18.0, 52057.61516781034, -187500.02235174447, -21436.373464628872, 11308.28396180677, 50987.10071886787, 72865.27876440034, 118826.63444598133, 51001.40583531927, 73195.12345732731, 34221.70540353125, -6085.687111101998, 21787.117038621553, 48938.719801750165, 19162.664611657216, -15421.720197405839, -33565.9722764459, -0.062, 0.878, 0.48, 192.0, 0.0, 0.0, 0.0, 0.0, 0.0, 0.0, 0.0, 0.0, 0.0, 1.695412510054244E9, 0.0, 2023-09-22 14:55:10.054
20.0, 52012.86697541082, -187500.02235174447, -21515.230419067197, 11266.352089208614, 50987.14542235678, 72835.32742683023, 118792.43627696471, 50957.28349176449, 73165.70856162412, 34202.30408934404, -6084.502468645867, 21790.26863458975, 48880.78408012201, 19166.84438787036, -15427.933982364415, -33528.42134576099, -0.062, 0.878, 0.48, 192.0, 0.0, 0.0, 0.0, 0.0, 0.0, 0.0, 0.0, 0.0, 0.0, 1.695412510054247E9, 0.0, 2023-09-22 14:55:10.054
22.0, 52063.20310392417, -187500.02235174447, -21421.174278399263, 11322.499671280346, 50996.71196898365, 72872.99011623742, 118831.52947801704, 51009.921849956736, 73196.64337595027, 34219.67139478581, -6079.003939509862, 21795.543646281203, 48932.86364470287, 19173.88518737378, -15425.251773029779, -33466.21644094186, -0.06, 0.886, 0.484, 192.0, 127.0, 16.0, 13.5, 88.0, 7.5, 16.0, 0.0, 0.0, 0.0, 1.69541251005425E9, 0.0, 2023-09-22 14:55:10.054
24.0, 51966.80003008843, -187500.02235174447, -21555.262393386653, 11231.013981224774, 51007.01612317755, 72805.91253112705, 118787.27302399553, 50919.77726456848, 73168.23430874757, 34207.690859757764, -6065.525837603312, 21803.724384751844, 48887.06492031395, 19184.949300879158, -15421.00494158327, -33469.14451946551, -0.06, 0.886, 0.484, 192.0, 0.0, 0.0, 0.0, 0.0, 0.0, 0.0, 0.0, 0.0, 0.0, 1.695412510054253E9, 0.0, 2023-09-22 14:55:10.054
26.0, 52049.30031887297, -187500.02235174447, -21426.583400557447, 11317.358770055625, 51003.77512023153, 72874.9570697495, 118849.52263230356, 51010.50299531258, 73194.89993988276, 34220.92309247531, -6074.801811552265, 21792.906140435476, 48930.181435368235, 19179.003736854047, -15421.742549150295, -33441.9424464634, -0.06, 0.886, 0.484, 192.0, 0.0, 0.0, 0.0, 0.0, 0.0, 0.0, 0.0, 0.0, 0.0, 1.695412510054257E9, 0.0, 2023-09-22 14:55:10.054
28.0, 51996.058463580426, -187500.02235174447, -21521.06422437003, 11262.798161840221, 50993.42626254872, 72831.86290643965, 118779.785189603, 50949.25921550503, 73177.19735827415, 34210.66364177032, -6085.508297146356, 21782.467875774848, 48906.063903100956, 19169.1242658048, -15429.632714943018, -33374.46252995283, -0.06, 0.886, 0.484, 192.0, 0.0, 0.0, 0.0, 0.0, 0.0, 0.0, 0.0, 0.0, 0.0, 1.69541251005426E9, 0.0, 2023-09-22 14:55:10.054
30.0, 52050.037926439996, -187500.02235174447, -21417.016853930578, 11326.344171326658, 51002.009332419555, 72879.98621225193, 118844.87346945686, 51012.96168720266, 73184.3275647554, 34214.23992088317, -6089.866887315141, 21790.44744854539, 48916.23394682812, 19180.680117688193, -15426.503470719275, -33361.587925146574, -0.06, 0.886, 0.484, 192.0, 0.0, 0.0, 0.0, 0.0, 0.0, 0.0, 0.0, 0.0, 0.0, 1.695412510114569E9, 0.0, 2023-09-22 14:55:10.114
32.0, 51998.986542104074, -187500.02235174447, -21502.86990438341, 11276.276263746771, 50995.63908524979, 72834.47806054093, 118765.0330382625, 50953.75191614055, 73174.96218382863, 34220.230188397196, -6086.692939602487, 21792.36969856855, 48912.68001945973, 19174.75690540754, -15430.035046343213, -33293.32569758007, -0.06, 0.886, 0.484, 192.0, 127.0, 16.0, 13.5, 88.0, 7.5, 16.0, 0.0, 0.0, 0.0, 1.695412510114581E9, 0.0, 2023-09-22 14:55:10.114
34.0, 52016.93499290168, -187500.02235174447, -21440.19561293073, 11305.959380383418, 51007.19493713319, 72860.16021492008, 118835.97747516364, 50986.09489036738, 73187.61327119032, 34207.44499056876, -6077.77459356482, 21801.17628588394, 48901.43709199871, 19183.921120634215, -15421.250810772279, -33316.839732747045, -0.06, 0.886, 0.484, 192.0, 0.0, 0.0, 0.0, 0.0, 0.0, 0.0, 0.0, 0.0, 0.0, 1.695412510114584E9, 0.0, 2023-09-22 14:55:10.114
36.0, 51984.457908208125, -187500.02235174447, -21500.657081682337, 11275.583359668655, 50977.333006540895, 72832.06407213975, 118762.0826079944, 50948.40984921573, 73185.64631767826, 34221.3254238755, -6078.9145325320405, 21797.51059979327, 48912.18828108171, 19180.568358965917, -15437.992267369304, -33246.99053132421, -0.06, 0.886, 0.484, 192.0, 0.0, 0.0, 0.0, 0.0, 0.0, 0.0, 0.0, 0.0, 0.0, 1.695412510114588E9, 0.0, 2023-09-22 14:55:10.114
38.0, 52018.76783594702, -187500.02235174447, -21427.075138935466, 11322.09733988015, 50993.18039335971, 72862.44009285452, 118825.02512038054, 50993.15804161526, 73184.19345428866, 34211.28949061507, -6089.4869076594005, 21789.06164038916, 48874.90557133026, 19167.35847799283, -15450.039857630714, -33249.69509240331, -0.06, 0.886, 0.484, 192.0, 0.0, 0.0, 0.0, 0.0, 0.0, 0.0, 0.0, 0.0, 0.0, 1.695412510114591E9, 0.0, 2023-09-22 14:55:10.114
40.0, 51985.8213646199, -187500.02235174447, -21481.702802384236, 11290.782545898264, 50976.86361990734, 72828.80071744928, 118756.65113409176, 50947.26991024851, 73193.1788555597, 34227.38274662289, -6082.6696256005325, 21797.30943409317, 48916.52451950604, 19172.566434450917, -15446.552985495686, -33158.87995468139, -0.06, 0.886, 0.484, 192.0, 0.0, 0.0, 0.0, 0.0, 0.0, 0.0, 0.0, 0.0, 0.0, 1.695412510114594E9, 0.0, 2023-09-22 14:55:10.114
42.0, 52029.4296180522, -187500.02235174447, -21408.76906022657, 11343.24209013487, 50988.0841956239, 72867.93862199053, 118831.61888499485, 51001.71875974164, 73192.3294892704, 34210.708345259234, -6071.359642906147, 21794.22489335834, 48878.86183009885, 19175.449809485654, -15439.95922088137, -33193.05577195356, -0.062, 0.884, 0.484, 192.0, 127.0, 8.0, 13.5, 80.0, 7.5, 16.0, 0.0, 0.0, 0.0, 1.695412510114597E9, 0.0, 2023-09-22 14:55:10.114
44.0, 52014.230431822594, -187500.02235174447, -21435.881726250856, 11328.33347658318, 50968.90639888125, 72839.61896176565, 118754.05833173494, 50965.48658197959, 73201.78427717499, 34231.45076411376, -6078.892180787585, 21789.642785745, 48930.29319409051, 19169.012507082523, -15451.403314042487, -33073.65275307331, -0.062, 0.884, 0.484, 192.0, 0.0, 0.0, 0.0, 0.0, 0.0, 0.0, 0.0, 0.0, 0.0, 1.695412510173352E9, 0.0, 2023-09-22 14:55:10.173
46.0, 51998.31598977042, -187500.02235174447, -21427.34335986893, 11325.025418403795, 50989.09002412439, 72840.08834839921, 118824.64514072481, 50964.30193952345, 73190.40723924723, 34207.19912137975, -6064.072974213716, 21799.11992539405, 48858.78996357798, 19184.18934156768, -15439.422779014443, -33143.41254751832, -0.062, 0.884, 0.484, 192.0, 0.0, 0.0, 0.0, 0.0, 0.0, 0.0, 0.0, 0.0, 0.0, 1.695412510173366E9, 0.0, 2023-09-22 14:55:10.173
48.0, 52022.0311906375, -187500.02235174447, -21403.583455512937, 11349.835854749186, 50980.79752693147, 72854.63933403962, 118780.47809368111, 50975.20959081764, 73209.78620168999, 34242.55958110805, -6077.9757592649175, 21788.83812294461, 48941.11143840688, 19170.912405361225, -15444.161348838968, -33028.56928450695, -0.062, 0.884, 0.484, 192.0, 0.0, 0.0, 0.0, 0.0, 0.0, 0.0, 0.0, 0.0, 0.0, 1.695412510173369E9, 0.0, 2023-09-22 14:55:10.173
50.0, 51968.85639057832, -187500.02235174447, -21443.928354254767, 11308.038092617762, 51003.14927138678, 72829.40421454958, 118827.84144018192, 50947.784000370986, 73188.39558224626, 34210.59658653696, -6058.86501775563, 21800.572788783647, 48851.123315229815, 19187.139771835777, -15425.788214896706, -33099.223148730176, -0.062, 0.884, 0.484, 192.0, 0.0, 0.0, 0.0, 0.0, 0.0, 0.0, 0.0, 0.0, 0.0, 1.695412510173372E9, 0.0, 2023-09-22 14:55:10.173
52.0, 51979.24995175004, -187500.02235174447, -21422.314217366486, 11319.012799145317, 50985.22317233362, 72836.35560707517, 118784.94844257217, 50956.41177373073, 73210.16618134573, 34240.145592706875, -6069.973834749918, 21795.901274192485, 48939.18918838372, 19182.021222355514, -15436.919383635448, -33011.53725523201, -0.064, 0.886, 0.484, 192.0, 127.0, 0.0, 13.5, 88.0, 7.5, 16.0, 0.0, 0.0, 0.0, 1.695412510173376E9, 0.0, 2023-09-22 14:55:10.173
54.0, 51940.71554430909, -187500.02235174447, -21461.608584118912, 11288.368557497091, 51002.14344288629, 72827.57137150424, 118822.90170465728, 50939.67031713371, 73193.71529742662, 34218.64321454087, -6051.846569996664, 21808.664120276466, 48857.828838566405, 19195.119344606323, -15424.715331162852, -33084.180424711754, -0.064, 0.886, 0.484, 192.0, 0.0, 0.0, 0.0, 0.0, 0.0, 0.0, 0.0, 0.0, 0.0, 1.695412510173379E9, 0.0, 2023-09-22 14:55:10.173
56.0, 51982.826230862884, -187500.02235174447, -21399.448382788705, 11330.166319628515, 50985.379634544806, 72857.83563349672, 118794.9396723437, 50976.37188152932, 73217.69871922716, 34244.124203219915, -6067.112811459639, 21799.589312027612, 48939.43505757273, 19186.64803345776, -15436.226479557334, -32992.78414163401, -0.064, 0.886, 0.484, 192.0, 0.0, 0.0, 0.0, 0.0, 0.0, 0.0, 0.0, 0.0, 0.0, 1.695412510173382E9, 0.0, 2023-09-22 14:55:10.173
58.0, 51920.12958766575, -187500.02235174447, -21471.15277900133, 11273.37053696758, 51009.76538774555, 72819.41298477806, 118811.12233532935, 50932.20483448563, 73189.93785261367, 34215.49161857267, -6057.278043899303, 21802.83031497363, 48855.01251876504, 19181.95416712215, -15427.15167130848, -33029.64216824081, -0.064, 0.886, 0.484, 192.0, 0.0, 0.0, 0.0, 0.0, 0.0, 0.0, 0.0, 0.0, 0.0, 1.695412510173385E9, 0.0, 2023-09-22 14:55:10.173
60.0, 51960.72035559659, -187500.02235174447, -21400.275397333553, 11313.983656642873, 51000.44471030769, 72849.67724677053, 118811.63642545181, 50975.097832095365, 73221.47616404011, 34237.26221767214, -6068.386860893591, 21789.93335842292, 48944.531255308546, 19173.818132140415, -15428.559831209164, -32968.912478555736, -0.064, 0.886, 0.484, 192.0, 0.0, 0.0, 0.0, 0.0, 0.0, 0.0, 0.0, 0.0, 0.0, 1.695412510233733E9, 0.0, 2023-09-22 14:55:10.233
62.0, 51902.382302568236, -187500.02235174447, -21478.618261649404, 11260.741801350332, 51003.66336150925, 72814.7861736758, 118808.06014633896, 50934.08238101988, 73180.527768198, 34214.7763627501, -6065.056450969751, 21795.968329425854, 48864.69082411419, 19183.74230667857, -15429.67741843193, -33009.63735695331, -0.064, 0.892, 0.48, 192.0, 127.0, 0.0, 13.5, 112.0, 7.5, 0.0, 0.0, 0.0, 0.0, 1.695412510233743E9, 0.0, 2023-09-22 14:55:10.233
64.0, 51940.760247797996, -187500.02235174447, -21398.487257777128, 11301.265514047804, 50999.349474829374, 72844.80456647927, 118813.71513768616, 50976.88597165179, 73217.00581514905, 34235.29526416007, -6071.829029539708, 21791.162704367962, 48937.378697082844, 19171.806475139438, -15435.980610368326, -32947.298341667454, -0.064, 0.892, 0.48, 192.0, 0.0, 0.0, 0.0, 0.0, 0.0, 0.0, 0.0, 0.0, 0.0, 1.695412510233747E9, 0.0, 2023-09-22 14:55:10.233
66.0, 51857.03061306842, -187500.02235174447, -21506.535590474083, 11225.090768944117, 51003.842175464895, 72797.50827521185, 118797.53247470052, 50909.92014526369, 73200.95726263014, 34212.54118830457, -6051.801866507753, 21807.814753987164, 48865.09315551438, 19191.163085837732, -15424.111834062558, -33004.65291793978, -0.064, 0.892, 0.48, 192.0, 0.0, 0.0, 0.0, 0.0, 0.0, 0.0, 0.0, 0.0, 0.0, 1.69541251023375E9, 0.0, 2023-09-22 14:55:10.233
68.0, 51928.33267788085, -187500.02235174447, -21390.75355419559, 11300.170278569494, 50990.02879739151, 72854.01348519487, 118816.62086446535, 50984.552619999966, 73220.00094890606, 34230.75786003564, -6072.298416173269, 21785.753582209778, 48930.85198770189, 19177.953204864647, -15443.334334294123, -32953.869754537314, -0.064, 0.892, 0.48, 192.0, 0.0, 0.0, 0.0, 0.0, 0.0, 0.0, 0.0, 0.0, 0.0, 1.695412510233753E9, 0.0, 2023-09-22 14:55:10.233
70.0, 51877.3930522672, -187500.02235174447, -21476.293680226052, 11250.437647156436, 50977.84709666337, 72812.97568237492, 118768.98929703109, 50931.84720657435, 73193.89411138227, 34215.044583683564, -6070.890256272585, 21793.55434102468, 48872.938617818196, 19173.907539118238, -15448.184662840924, -32946.49367886707, -0.064, 0.892, 0.48, 192.0, 0.0, 0.0, 0.0, 0.0, 0.0, 0.0, 0.0, 0.0, 0.0, 1.695412510233757E9, 0.0, 2023-09-22 14:55:10.233
72.0, 51945.49881762252, -187500.02235174447, -21359.371704980338, 11320.28684857927, 50976.10366059586, 72862.8424242547, 118805.57910270443, 50997.896611439784, 73221.14088787329, 34231.87544725841, -6072.231360939903, 21780.523274007235, 48912.277688059534, 19167.202015781644, -15461.394543814009, -32910.84264646085, -0.07200000000000001, 0.886, 0.484, 192.0, 126.5, 96.0, 13.5, 88.0, 7.5, 16.0, 0.0, 0.0, 0.0, 1.69541251023376E9, 0.0, 2023-09-22 14:55:10.233
74.0, 51871.335729519815, -187500.02235174447, -21463.933165542265, 11249.677687844955, 50983.39032928829, 72810.29347304028, 118762.06025624994, 50924.42642741519, 73197.33628002838, 34224.767592521624, -6068.610378338144, 21794.113134636063, 48866.74718460407, 19183.854065400847, -15452.051514631692, -32905.12059988029, -0.07200000000000001, 0.886, 0.484, 192.0, 0.0, 0.0, 0.0, 0.0, 0.0, 0.0, 0.0, 0.0, 0.0, 1.695412510293879E9, 0.0, 2023-09-22 14:55:10.293
76.0, 51910.29482010542, -187500.02235174447, -21372.693344675703, 11296.99633085684, 50995.10264338287, 72850.37015084866, 118824.44397502471, 50978.741166441585, 73218.01164364954, 34230.60139782446, -6065.816410281231, 21793.30847183567, 48901.951182121185, 19186.60332996885, -15442.015581371259, -32920.409193087726, -0.07200000000000001, 0.886, 0.484, 192.0, 0.0, 0.0, 0.0, 0.0, 0.0, 0.0, 0.0, 0.0, 0.0, 1.695412510293894E9, 0.0, 2023-09-22 14:55:10.293
78.0, 51839.77506634892, -187500.02235174447, -21475.466665681204, 11232.042161469719, 50989.7382247136, 72800.0340223353, 118760.38387541579, 50909.56251735241, 73213.94362615868, 34236.12227870492, -6055.3781456206025, 21803.098535907095, 48900.16304256476, 19196.013414384535, -15443.490796505308, -32898.571538754884, -0.07200000000000001, 0.886, 0.484, 192.0, 0.0, 0.0, 0.0, 0.0, 0.0, 0.0, 0.0, 0.0, 0.0, 1.695412510293898E9, 0.0, 2023-09-22 14:55:10.293
80.0, 51879.18119182363, -187500.02235174447, -21386.909054149277, 11277.99734806983, 50995.21440210514, 72841.36239783316, 118827.28264657053, 50964.7266226681, 73224.49364954157, 34232.54599959207, -6050.080782184695, 21805.020785930254, 48904.09694958889, 19193.21944632762, -15445.10012210609, -32936.79302177346, -0.07200000000000001, 0.886, 0.484, 192.0, 0.0, 0.0, 0.0, 0.0, 0.0, 0.0, 0.0, 0.0, 0.0, 1.695412510293902E9, 0.0, 2023-09-22 14:55:10.293
82.0, 51833.74009534599, -187500.02235174447, -21461.720342841192, 11230.7010568024, 50979.34466354187, 72807.72302242792, 118753.58894510138, 50916.4692063891, 73224.82892570841, 34238.69272931728, -6045.431619337991, 21806.004262686285, 48905.795682167496, 19191.65482421575, -15450.933927408925, -32900.069105633396, -0.07, 0.884, 0.486, 192.0, 126.5, 104.0, 13.5, 80.0, 7.5, 24.0, 0.0, 0.0, 0.0, 1.695412510293906E9, 0.0, 2023-09-22 14:55:10.293
84.0, 51902.8516892018, -187500.02235174447, -21348.396998452783, 11305.42293851649, 50981.44572752067, 72861.56837482075, 118814.60920746437, 50992.88982068179, 73240.43044333822, 34234.84822927097, -6053.142971175072, 21794.60487301408, 48891.26704827155, 19169.057210571435, -15471.408125329986, -32907.13225688127, -0.07, 0.884, 0.486, 192.0, 0.0, 0.0, 0.0, 0.0, 0.0, 0.0, 0.0, 0.0, 0.0, 1.695412510293909E9, 0.0, 2023-09-22 14:55:10.293
86.0, 51855.17541827863, -187500.02235174447, -21418.894400464822, 11256.025583270262, 50987.32423631242, 72823.70451971347, 118754.37125615732, 50937.56925315491, 73227.7346524876, 34238.044528728075, -6055.713421787432, 21801.735079495324, 48908.45553975768, 19182.222388055612, -15462.78035197024, -32841.038148526924, -0.07, 0.884, 0.486, 192.0, 0.0, 0.0, 0.0, 0.0, 0.0, 0.0, 0.0, 0.0, 0.0, 1.695412510293913E9, 0.0, 2023-09-22 14:55:10.293
88.0, 51865.36781375025, -187500.02235174447, -21367.395981239795, 11276.23156025786, 51001.20466961917, 72848.17967989203, 118833.295265829, 50972.21445706063, 73224.76187047505, 34227.02511871161, -6057.166285177027, 21798.807000971676, 48869.47409742762, 19192.75005969406, -15457.214767600868, -32914.68714650717, -0.07, 0.884, 0.486, 192.0, 0.0, 0.0, 0.0, 0.0, 0.0, 0.0, 0.0, 0.0, 0.0, 1.695412510293916E9, 0.0, 2023-09-22 14:55:10.293
90.0, 51825.67111559762, -187500.02235174447, -21420.52607781006, 11239.284126673238, 50992.42043404823, 72824.93386565852, 118766.10592199635, 50932.98714554157, 73212.44605928016, 34257.892877804385, -6056.652195054555, 21804.350233596593, 48915.16106309427, 19201.869571431824, -15460.478122291343, -32857.98077082405, -0.07, 0.884, 0.486, 192.0, 0.0, 0.0, 0.0, 0.0, 0.0, 0.0, 0.0, 0.0, 0.0, 1.695412510354225E9, 0.0, 2023-09-22 14:55:10.354
92.0, 51835.461179669044, -187500.02235174447, -21377.789542411512, 11260.56298739469, 51006.88201271081, 72850.83953748221, 118838.27970484254, 50969.9792826151, 73221.31970182892, 34261.178584239315, -6049.231415895393, 21810.340501110615, 48865.98722529259, 19209.536219779995, -15452.766770454262, -32932.00974846003, -0.06, 0.878, 0.492, 192.0, 127.0, 16.0, 13.5, 56.0, 7.5, 48.0, 0.0, 0.0, 0.0, 1.695412510354235E9, 0.0, 2023-09-22 14:55:10.354
94.0, 51855.398935723184, -187500.02235174447, -21359.90814684727, 11281.171295782482, 50981.06574786494, 72857.45565384098, 118772.92320405522, 50978.1823728302, 73219.5315622725, 34280.42343621534, -6062.441296868479, 21803.03148067373, 48926.58280451093, 19196.259283573545, -15472.324546852655, -32836.858372313785, -0.06, 0.878, 0.492, 192.0, 0.0, 0.0, 0.0, 0.0, 0.0, 0.0, 0.0, 0.0, 0.0, 1.695412510354238E9, 0.0, 2023-09-22 14:55:10.354
96.0, 51812.70710381355, -187500.02235174447, -21376.627251699836, 11251.063496001185, 51006.43497782171, 72838.92605768754, 118826.38857679232, 50955.51770395252, 73210.76967844603, 34252.75197657967, -6048.516160072823, 21821.382262871535, 48849.022251251015, 19207.211638356643, -15462.266261847766, -32909.3674313268, -0.06, 0.878, 0.492, 192.0, 0.0, 0.0, 0.0, 0.0, 0.0, 0.0, 0.0, 0.0, 0.0, 1.695412510354242E9, 0.0, 2023-09-22 14:55:10.354
98.0, 51821.848967295766, -187500.02235174447, -21361.293955003497, 11259.400696683013, 50996.89078293929, 72846.16802289106, 118792.52568394253, 50961.15034355526, 73235.58011479142, 34283.95501183927, -6043.419962337013, 21820.398786115504, 48924.3476300654, 19205.93758892269, -15461.930985680938, -32853.73393937754, -0.06, 0.878, 0.492, 192.0, 0.0, 0.0, 0.0, 0.0, 0.0, 0.0, 0.0, 0.0, 0.0, 1.695412510354245E9, 0.0, 2023-09-22 14:55:10.354
100.0, 51791.16002215863, -187500.02235174447, -21384.919748892757, 11236.288992916227, 51005.227983621124, 72837.11556638665, 118837.0503588975, 50952.030831817494, 73225.27596059752, 34261.29034296159, -6033.875767454597, 21830.904106009497, 48853.5820071199, 19218.85689721786, -15451.58212799813, -32944.459670121636, -0.06, 0.878, 0.492, 192.0, 0.0, 0.0, 0.0, 0.0, 0.0, 0.0, 0.0, 0.0, 0.0, 1.695412510354249E9, 0.0, 2023-09-22 14:55:10.354
102.0, 51807.81207177783, -187500.02235174447, -21352.28620198801, 11251.979917523851, 50998.745977729086, 72850.48190957092, 118804.66268118176, 50965.88891337978, 73240.31868461594, 34291.6440119319, -6043.799941992753, 21817.805983758688, 48935.09881914841, 19210.184420369198, -15458.734686223828, -32871.79414889743, -0.062, 0.88, 0.484, 192.0, 127.0, 8.0, 13.5, 64.0, 7.5, 16.0, 0.0, 0.0, 0.0, 1.695412510354252E9, 0.0, 2023-09-22 14:55:10.354
104.0, 51758.05708862032, -187500.02235174447, -21401.01300490058, 11214.853669983588, 51012.58170754692, 72835.17096461904, 118833.6975972292, 50943.358354968834, 73223.44311755217, 34274.09789253448, -6025.963249917419, 21832.89341126602, 48852.95615827515, 19227.12704266632, -15441.434436015421, -32965.42560642071, -0.062, 0.88, 0.484, 192.0, 0.0, 0.0, 0.0, 0.0, 0.0, 0.0, 0.0, 0.0, 0.0, 1.695412510414584E9, 0.0, 2023-09-22 14:55:10.414
106.0, 51793.50695532643, -187500.02235174447, -21335.298876201974, 11253.790408824732, 50994.45444279366, 72867.82686326824, 118810.47413474014, 50979.165849586236, 73255.45081561217, 34308.20665457328, -6033.026401165295, 21831.84287927662, 48939.18918838372, 19220.265057118544, -15451.559776253674, -32902.483094034564, -0.062, 0.88, 0.484, 192.0, 0.0, 0.0, 0.0, 0.0, 0.0, 0.0, 0.0, 0.0, 0.0, 1.695412510414595E9, 0.0, 2023-09-22 14:55:10.414
108.0, 51750.122219338686, -187500.02235174447, -21392.42993502974, 11217.133547918029, 51017.20851864917, 72850.68307527102, 118830.56835300547, 50954.31070975193, 73233.05436766797, 34282.92683159433, -6028.5560522742335, 21835.50856536729, 48852.68793734169, 19236.268906148543, -15437.589935969108, -32969.20305123366, -0.062, 0.88, 0.484, 192.0, 0.0, 0.0, 0.0, 0.0, 0.0, 0.0, 0.0, 0.0, 0.0, 1.695412510414599E9, 0.0, 2023-09-22 14:55:10.414
110.0, 51817.55743236034, -187500.02235174447, -21287.60025353435, 11284.94874059543, 51004.289210354, 72899.0522502723, 118825.67332096974, 51015.778007004024, 73259.47412961413, 34303.22221555975, -6039.173130890505, 21823.37156812806, 48936.08229590444, 19220.37681584082, -15440.227441814834, -32903.10894287931, -0.062, 0.88, 0.484, 192.0, 0.0, 0.0, 0.0, 0.0, 0.0, 0.0, 0.0, 0.0, 0.0, 1.695412510414602E9, 0.0, 2023-09-22 14:55:10.414
112.0, 51729.04452431733, -187500.02235174447, -21396.006214142588, 11199.319207587148, 51023.824635007935, 72839.2389821099, 118809.60241670639, 50936.89870082125, 73229.07575715492, 34277.67417164733, -6021.403494048535, 21850.95362078591, 48863.215608980136, 19233.385531113807, -15427.039912586202, -32962.6316383638, -0.068, 0.882, 0.484, 192.0, 126.5, 112.0, 13.5, 72.0, 7.5, 16.0, 0.0, 0.0, 0.0, 1.695412510414606E9, 0.0, 2023-09-22 14:55:10.414
114.0, 51815.83634803729, -187500.02235174447, -21267.72955271358, 11283.540580694746, 51004.64683826528, 72905.84718058672, 118831.08244312793, 51018.54962331649, 73256.05431271247, 34305.45739000528, -6029.874805197097, 21830.457071120392, 48949.828618744454, 19217.761661739547, -15435.131244079024, -32933.3732048718, -0.068, 0.882, 0.484, 192.0, 0.0, 0.0, 0.0, 0.0, 0.0, 0.0, 0.0, 0.0, 0.0, 1.695412510414609E9, 0.0, 2023-09-22 14:55:10.414
116.0, 51755.88896940815, -187500.02235174447, -21354.9907630671, 11224.733141032833, 51003.52925104252, 72856.6956945295, 118793.57621593193, 50958.22226503161, 73232.16029788976, 34284.960840339765, -6023.728075471888, 21835.50856536729, 48890.194164537694, 19221.337940852398, -15433.38780801151, -32951.4781178806, -0.068, 0.882, 0.484, 192.0, 0.0, 0.0, 0.0, 0.0, 0.0, 0.0, 0.0, 0.0, 0.0, 1.695412510414612E9, 0.0, 2023-09-22 14:55:10.414
118.0, 51812.84121428028, -187500.02235174447, -21243.433206490663, 11286.558066196212, 50997.673093995225, 72903.07556427426, 118828.98137914913, 51018.28140238302, 73252.81330976645, 34298.528349224136, -6033.495787798856, 21829.786518786732, 48936.909310449286, 19222.835507730902, -15432.136110322013, -32950.04760623546, -0.068, 0.882, 0.484, 192.0, 0.0, 0.0, 0.0, 0.0, 0.0, 0.0, 0.0, 0.0, 0.0, 1.695412510414616E9, 0.0, 2023-09-22 14:55:10.414
120.0, 51732.30787900781, -187500.02235174447, -21350.922745576234, 11209.332789103126, 50996.75667247256, 72841.27299085534, 118778.95817505816, 50936.25050023205, 73232.13794614529, 34287.821863630044, -6021.381142304081, 21837.36376015708, 48881.745205133586, 19224.64599903178, -15426.48111897482, -32964.59859187587, -0.068, 0.882, 0.484, 192.0, 0.0, 0.0, 0.0, 0.0, 0.0, 0.0, 0.0, 0.0, 0.0, 1.695412510473385E9, 0.0, 2023-09-22 14:55:10.473
122.0, 51795.205687905036, -187500.02235174447, -21230.804470873412, 11276.902112591519, 50999.46123355165, 72897.7558490939, 118841.56541127746, 51010.1900708902, 73270.4935396306, 34302.84223590401, -6014.742674200854, 21840.47065263637, 48918.804397440486, 19235.307781136966, -15410.343159478089, -32993.030010823015, -0.06, 0.882, 0.48, 192.0, 127.0, 16.0, 13.5, 72.0, 7.5, 0.0, 0.0, 0.0, 0.0, 1.695412510473394E9, 0.0, 2023-09-22 14:55:10.473
124.0, 51727.34579173873, -187500.02235174447, -21332.616666867336, 11209.399844336493, 50992.66630323724, 72843.88814495661, 118780.07576228092, 50936.31755546541, 73255.40611212327, 34298.19307305731, -6012.6416102220555, 21844.89629803852, 48893.5916296949, 19235.866574748346, -15408.376205966022, -32984.44694095218, -0.06, 0.882, 0.48, 192.0, 0.0, 0.0, 0.0, 0.0, 0.0, 0.0, 0.0, 0.0, 0.0, 1.695412510473397E9, 0.0, 2023-09-22 14:55:10.473
126.0, 51795.04922569385, -187500.02235174447, -21214.442993932127, 11280.925426593474, 51003.32808534242, 72902.31560496279, 118854.97645795066, 51012.648762780285, 73255.51787084555, 34301.07644809204, -6018.8106916917195, 21845.477443394357, 48911.651839214785, 19239.152281183277, -15401.044833784681, -33022.310796059464, -0.06, 0.882, 0.48, 192.0, 0.0, 0.0, 0.0, 0.0, 0.0, 0.0, 0.0, 0.0, 0.0, 1.6954125104734E9, 0.0, 2023-09-22 14:55:10.473
128.0, 51723.30012599232, -187500.02235174447, -21317.37277714882, 11207.567001291156, 50994.812070704946, 72843.12818564512, 118779.44991343617, 50934.95409905363, 73249.72876903162, 34296.002602100685, -6015.390874790058, 21836.626152590055, 48912.16592933726, 19237.05121720448, -15399.010825039248, -32996.04749632448, -0.06, 0.882, 0.48, 192.0, 0.0, 0.0, 0.0, 0.0, 0.0, 0.0, 0.0, 0.0, 0.0, 1.695412510473404E9, 0.0, 2023-09-22 14:55:10.473
130.0, 51761.096925866244, -187500.02235174447, -21225.529459181962, 11254.885644303042, 51002.41166381975, 72889.46335190098, 118855.55760330649, 50996.37669281682, 73249.61701030935, 34286.72662815173, -6021.895232426552, 21838.883678780043, 48901.928830376724, 19243.287353907508, -15391.433583668899, -33073.38453213984, -0.06, 0.882, 0.48, 192.0, 0.0, 0.0, 0.0, 0.0, 0.0, 0.0, 0.0, 0.0, 0.0, 1.695412510473407E9, 0.0, 2023-09-22 14:55:10.473
132.0, 51747.462361748505, -187500.02235174447, -21265.427323034684, 11234.41144638198, 50973.1308785833, 72871.06786621426, 118772.56557614394, 50974.3825762728, 73241.70449277217, 34300.16002656937, -6034.881595955086, 21822.32103613866, 48921.95599340868, 19224.780109498515, -15408.510316432754, -33011.984290121116, -0.052000000000000005, 0.886, 0.482, 192.0, 127.0, 48.0, 13.5, 88.0, 7.5, 8.0, 0.0, 0.0, 0.0, 1.69541251047341E9, 0.0, 2023-09-22 14:55:10.473
134.0, 51782.73341449898, -187500.02235174447, -21184.446952873106, 11275.292786990738, 50991.21343984764, 72900.86274157319, 118839.3972920653, 51026.842120509406, 73244.789033507, 34289.47589271973, -6036.110941900128, 21820.667007048967, 48888.27191451454, 19224.154260653766, -15404.531705919708, -33055.9054679758, -0.052000000000000005, 0.886, 0.482, 192.0, 0.0, 0.0, 0.0, 0.0, 0.0, 0.0, 0.0, 0.0, 0.0, 1.695412510533763E9, 0.0, 2023-09-22 14:55:10.533
136.0, 51721.53433818035, -187500.02235174447, -21265.36026780132, 11210.405672836981, 50987.65951247925, 72847.10679615817, 118772.40911393275, 50964.413698245735, 73246.13013817431, 34294.7956079001, -6030.880633697586, 21828.93715249743, 48911.808301425976, 19230.077472934423, -15395.278083715211, -33034.4477932987, -0.052000000000000005, 0.886, 0.482, 192.0, 0.0, 0.0, 0.0, 0.0, 0.0, 0.0, 0.0, 0.0, 0.0, 1.695412510533773E9, 0.0, 2023-09-22 14:55:10.533
138.0, 51741.24857678993, -187500.02235174447, -21209.950293296613, 11231.684533558433, 51004.669190009736, 72874.5547383493, 118844.8511177124, 51004.33391384291, 73237.4353095812, 34287.888918863406, -6036.245052366859, 21828.93715249743, 48873.29624572948, 19231.642095046296, -15392.931150547403, -33126.80520138803, -0.052000000000000005, 0.886, 0.482, 192.0, 0.0, 0.0, 0.0, 0.0, 0.0, 0.0, 0.0, 0.0, 0.0, 1.695412510533777E9, 0.0, 2023-09-22 14:55:10.533
140.0, 51720.46145444649, -187500.02235174447, -21243.54496521294, 11202.895486699997, 50985.446689778175, 72854.32640961724, 118776.47713142361, 50973.644968705776, 73245.39253060729, 34311.73823019722, -6038.10024715665, 21834.36862640007, 48927.0968946334, 19230.03276944551, -15395.278083715211, -33077.67606707526, -0.052000000000000005, 0.886, 0.482, 192.0, 0.0, 0.0, 0.0, 0.0, 0.0, 0.0, 0.0, 0.0, 0.0, 1.69541251053378E9, 0.0, 2023-09-22 14:55:10.533
142.0, 51707.2068699845, -187500.02235174447, -21236.884145365257, 11191.7419662168, 51004.4903760541, 72855.8463282402, 118837.07271064195, 50978.47294550812, 73239.51402181554, 34284.84908161749, -6025.359752817125, 21834.547440355713, 48863.12620200231, 19230.010417701058, -15394.451069170365, -33176.13550140089, -0.056, 0.88, 0.484, 192.0, 127.0, 32.0, 13.5, 64.0, 7.5, 16.0, 0.0, 0.0, 0.0, 1.695412510533783E9, 0.0, 2023-09-22 14:55:10.533
144.0, 51711.76662585338, -187500.02235174447, -21234.939543597644, 11191.496097027792, 50983.032701377, 72854.48287182843, 118777.99705004657, 50973.75672742805, 73235.3342456024, 34309.436000518326, -6041.475360569401, 21830.926457753954, 48931.92487143575, 19224.489536820598, -15409.76201412225, -33119.9655675847, -0.056, 0.88, 0.484, 192.0, 0.0, 0.0, 0.0, 0.0, 0.0, 0.0, 0.0, 0.0, 0.0, 1.695412510533786E9, 0.0, 2023-09-22 14:55:10.533
146.0, 51664.537389819314, -187500.02235174447, -21267.26016608002, 11148.893672095975, 51015.375675603835, 72838.56842977625, 118833.98816990713, 50951.69555565066, 73237.68117877022, 34283.418569972346, -6019.5706510032005, 21839.5542311137, 48846.18357970519, 19242.99678122959, -15391.500638902264, -33230.450240427286, -0.056, 0.88, 0.484, 192.0, 0.0, 0.0, 0.0, 0.0, 0.0, 0.0, 0.0, 0.0, 0.0, 1.69541251053379E9, 0.0, 2023-09-22 14:55:10.533
148.0, 51720.3049922353, -187500.02235174447, -21204.34000543833, 11195.944094174398, 50988.50887876855, 72876.72285756146, 118793.62091942083, 50997.04724515048, 73277.57904262294, 34317.50498026669, -6023.0351713937725, 21831.08291996514, 48940.08325816194, 19225.405958343265, -15398.13910700549, -33172.492167054676, -0.056, 0.88, 0.484, 192.0, 0.0, 0.0, 0.0, 0.0, 0.0, 0.0, 0.0, 0.0, 0.0, 1.695412510533793E9, 0.0, 2023-09-22 14:55:10.533
150.0, 51697.72973033544, -187500.02235174447, -21225.68592139315, 11174.218198563838, 51008.82661447843, 72867.17866267904, 118828.86962042685, 50991.07932938091, 73231.7356147451, 34288.15713979687, -6024.152758616538, 21838.481347379846, 48856.845361810374, 19230.725673523626, -15385.309205688145, -33243.57071442255, -0.056, 0.88, 0.484, 192.0, 0.0, 0.0, 0.0, 0.0, 0.0, 0.0, 0.0, 0.0, 0.0, 1.695412510594085E9, 0.0, 2023-09-22 14:55:10.594
152.0, 51739.4604372335, -187500.02235174447, -21163.9951066965, 11209.31043735867, 50989.40294854676, 72887.09406698872, 118790.35756473037, 51016.627373293326, 73263.63155408282, 34305.05505860508, -6033.518139543312, 21831.41819613197, 48938.228063372146, 19216.822888472427, -15394.898104059472, -33180.739960758685, -0.066, 0.884, 0.47800000000000004, 192.0, 126.5, 120.0, 13.5, 80.0, 7.0, 120.0, 0.0, 0.0, 0.0, 1.695412510594095E9, 0.0, 2023-09-22 14:55:10.594
154.0, 51688.23023894194, -187500.02235174447, -21225.551810926416, 11157.566148944636, 51004.82565222093, 72848.98434269242, 118803.00865209206, 50967.94527386967, 73238.53054505952, 34277.78593036961, -6016.2849445682705, 21847.287934695236, 48843.23314943709, 19223.081376919912, -15391.94767379137, -33272.471520003266, -0.066, 0.884, 0.47800000000000004, 192.0, 0.0, 0.0, 0.0, 0.0, 0.0, 0.0, 0.0, 0.0, 0.0, 1.695412510594099E9, 0.0, 2023-09-22 14:55:10.594
156.0, 51739.16986455559, -187500.02235174447, -21148.259478599964, 11201.353216332582, 50987.391291545784, 72878.28747967332, 118786.0883815394, 51006.636143521806, 73272.50519663158, 34301.18820681432, -6023.9739446608955, 21825.360873384583, 48939.68092676174, 19211.70433899216, -15404.866982086538, -33233.780650351124, -0.066, 0.884, 0.47800000000000004, 192.0, 0.0, 0.0, 0.0, 0.0, 0.0, 0.0, 0.0, 0.0, 0.0, 1.695412510594103E9, 0.0, 2023-09-22 14:55:10.594
158.0, 51689.83956454272, -187500.02235174447, -21218.06397653389, 11150.212425018839, 50992.75571021506, 72841.45180481099, 118783.7414483716, 50961.66443367773, 73248.45471959766, 34277.94239258079, -6027.371409818103, 21833.675722321954, 48859.23699846709, 19210.385586069297, -15405.157554764457, -33303.33927909604, -0.066, 0.884, 0.47800000000000004, 192.0, 0.0, 0.0, 0.0, 0.0, 0.0, 0.0, 0.0, 0.0, 0.0, 1.695412510594106E9, 0.0, 2023-09-22 14:55:10.594
160.0, 51766.64015849116, -187500.02235174447, -21105.388832734687, 11222.520318331757, 50984.46321302214, 72889.32924143424, 118785.73075362812, 51026.93152748723, 73252.7462545331, 34296.762561412164, -6048.069125183717, 21803.858495218577, 48935.92583369325, 19186.871550902313, -15419.82029912714, -33258.65814192988, -0.066, 0.884, 0.47800000000000004, 192.0, 0.0, 0.0, 0.0, 0.0, 0.0, 0.0, 0.0, 0.0, 0.0, 1.69541251059411E9, 0.0, 2023-09-22 14:55:10.594
162.0, 51688.67727383105, -187500.02235174447, -21209.279740962953, 11142.165797014928, 50992.68865498169, 72829.27010408284, 118764.00485801755, 50951.203817272646, 73234.35076884637, 34274.20965125676, -6036.043886666762, 21818.40948085898, 48859.25935021155, 19200.506115020053, -15413.114775790547, -33317.331471125064, -0.068, 0.886, 0.47400000000000003, 192.0, 126.5, 112.0, 13.5, 88.0, 7.0, 104.0, 0.0, 0.0, 0.0, 1.695412510594115E9, 0.0, 2023-09-22 14:55:10.594
164.0, 51735.079495320264, -187500.02235174447, -21117.034091595902, 11185.863457425054, 50990.92286716973, 72864.36234287768, 118802.87454162534, 50998.79068121799, 73253.81913826695, 34286.1901862848, -6047.443276338969, 21814.095594179107, 48915.67515321674, 19199.56734175293, -15414.120604291036, -33332.79887828814, -0.068, 0.886, 0.47400000000000003, 192.0, 0.0, 0.0, 0.0, 0.0, 0.0, 0.0, 0.0, 0.0, 0.0, 1.695412510654268E9, 0.0, 2023-09-22 14:55:10.654
166.0, 51650.23227336792, -187500.02235174447, -21228.569296427882, 11099.898648249942, 50987.79362294598, 72803.25267353686, 118758.21575620363, 50922.682991347676, 73245.10195792938, 34265.671284874836, -6033.875767454597, 21821.60578031609, 48856.46538215463, 19197.779202196503, -15418.613304926552, -33382.17388178991, -0.068, 0.886, 0.47400000000000003, 192.0, 0.0, 0.0, 0.0, 0.0, 0.0, 0.0, 0.0, 0.0, 0.0, 1.695412510654276E9, 0.0, 2023-09-22 14:55:10.654
168.0, 51719.88030909065, -187500.02235174447, -21107.311082757842, 11165.322204270626, 50987.45834677915, 72864.11647368867, 118802.7851346475, 51001.182317874714, 73254.78026327852, 34276.0424943021, -6044.939880959974, 21805.490172563812, 48892.83167038342, 19189.95609163715, -15431.53261322172, -33395.09319008508, -0.068, 0.886, 0.47400000000000003, 192.0, 0.0, 0.0, 0.0, 0.0, 0.0, 0.0, 0.0, 0.0, 0.0, 1.695412510654293E9, 0.0, 2023-09-22 14:55:10.654
170.0, 51627.79112193479, -187500.02235174447, -21233.9113633527, 11066.751011222723, 50988.6876927242, 72798.91643511254, 118754.48301487959, 50914.52460462149, 73252.1427574328, 34273.38263671191, -6018.43071203598, 21829.36183564208, 48857.22534146611, 19209.156240124255, -15413.472403701831, -33430.945388191394, -0.068, 0.886, 0.47400000000000003, 192.0, 0.0, 0.0, 0.0, 0.0, 0.0, 0.0, 0.0, 0.0, 0.0, 1.695412510654316E9, 0.0, 2023-09-22 14:55:10.654
172.0, 51697.86384080218, -187500.02235174447, -21118.285789285397, 11132.018105032219, 50983.636198477296, 72857.83563349672, 118814.11746908636, 50996.73432072811, 73268.5936413519, 34289.52059620865, -6029.673639496999, 21823.84095476162, 48889.5906674374, 19206.272865089522, -15419.686188660407, -33478.5993073701, -0.07200000000000001, 0.886, 0.48, 192.0, 126.5, 96.0, 13.5, 88.0, 7.5, 0.0, 0.0, 0.0, 0.0, 1.695412510654324E9, 0.0, 2023-09-22 14:55:10.654
174.0, 51671.35467187818, -187500.02235174447, -21183.23995867252, 11095.093023192052, 50970.336910526385, 72828.66660698254, 118751.30906716693, 50960.16686679922, 73240.81042299395, 34284.75967463967, -6031.6629447535215, 21816.263713391272, 48876.11256553085, 19196.46044927364, -15429.073921331636, -33462.751920551294, -0.07200000000000001, 0.886, 0.48, 192.0, 0.0, 0.0, 0.0, 0.0, 0.0, 0.0, 0.0, 0.0, 0.0, 1.695412510654327E9, 0.0, 2023-09-22 14:55:10.654
176.0, 51724.77534112637, -187500.02235174447, -21085.69694586956, 11144.512730182736, 50993.22509684862, 72870.53142434734, 118817.02319586555, 51016.76148376006, 73260.41290288126, 34281.00458157117, -6028.421941807502, 21816.88956223602, 48881.36522547784, 19201.489591776084, -15423.754206151272, -33485.14836849551, -0.07200000000000001, 0.886, 0.48, 192.0, 0.0, 0.0, 0.0, 0.0, 0.0, 0.0, 0.0, 0.0, 0.0, 1.695412510654331E9, 0.0, 2023-09-22 14:55:10.654
178.0, 51680.0495004713, -187500.02235174447, -21163.168092151653, 11091.092060934552, 50972.05799484945, 72829.96300816095, 118749.45387237715, 50961.50797146654, 73248.3429608754, 34284.670267661844, -6031.484130797879, 21825.159707684485, 48884.315655745944, 19208.977426168614, -15424.201241040379, -33487.94233655243, -0.07200000000000001, 0.886, 0.48, 192.0, 0.0, 0.0, 0.0, 0.0, 0.0, 0.0, 0.0, 0.0, 0.0, 1.695412510654334E9, 0.0, 2023-09-22 14:55:10.654
180.0, 51743.90843438011, -187500.02235174447, -21057.153768200133, 11153.766352387232, 50987.59245724588, 72877.77338955086, 118819.23601856662, 51028.40674262128, 73252.16510917725, 34273.87437508993, -6036.110941900128, 21816.241361646815, 48876.80546960896, 19197.622739985316, -15436.651162701985, -33536.155049342524, -0.07200000000000001, 0.886, 0.48, 192.0, 0.0, 0.0, 0.0, 0.0, 0.0, 0.0, 0.0, 0.0, 0.0, 1.695412510714697E9, 0.0, 2023-09-22 14:55:10.714
182.0, 51701.529526892846, -187500.02235174447, -21124.052539354867, 11103.653741318434, 50975.63427396229, 72836.26620009735, 118743.66477056322, 50966.85003839136, 73256.3895888793, 34281.83159611602, -6032.914642443018, 21819.549419826202, 48906.33212403442, 19203.791821454983, -15438.059322602669, -33492.591499399125, -0.066, 0.886, 0.47800000000000004, 192.0, 126.5, 120.0, 13.5, 88.0, 7.0, 120.0, 0.0, 0.0, 0.0, 1.695412510714704E9, 0.0, 2023-09-22 14:55:10.714
184.0, 51729.357448739705, -187500.02235174447, -21051.565832086308, 11138.611869646535, 50988.888858424296, 72872.6548400706, 118816.77732667653, 51011.15119590178, 73254.40028362277, 34266.073616275025, -6025.3821045615805, 21815.32494012415, 48868.64708288277, 19206.898713934268, -15432.806662655672, -33573.57186956071, -0.066, 0.886, 0.47800000000000004, 192.0, 0.0, 0.0, 0.0, 0.0, 0.0, 0.0, 0.0, 0.0, 0.0, 1.695412510714707E9, 0.0, 2023-09-22 14:55:10.714
186.0, 51714.76175961039, -187500.02235174447, -21080.667803367116, 11117.489471136269, 50969.018157603525, 72853.63350553912, 118751.3314189114, 50980.842230420385, 73260.77053079255, 34285.56433744005, -6032.24409010936, 21805.06548941916, 48918.26795557356, 19206.406975556252, -15439.62394471454, -33528.57780797217, -0.066, 0.886, 0.47800000000000004, 192.0, 0.0, 0.0, 0.0, 0.0, 0.0, 0.0, 0.0, 0.0, 0.0, 1.695412510714711E9, 0.0, 2023-09-22 14:55:10.714
188.0, 51771.4681352935, -187500.02235174447, -20994.21125581399, 11174.911102641952, 50982.00452113206, 72898.06877351628, 118823.30403605748, 51041.795437550005, 73252.27686789952, 34274.343761723496, -6038.10024715665, 21808.999396443298, 48868.42356543822, 19209.245647102078, -15441.47913950433, -33591.00623023584, -0.066, 0.886, 0.47800000000000004, 192.0, 0.0, 0.0, 0.0, 0.0, 0.0, 0.0, 0.0, 0.0, 0.0, 1.695412510714714E9, 0.0, 2023-09-22 14:55:10.714
190.0, 51742.45557099052, -187500.02235174447, -21032.276276621375, 11138.880090579998, 50973.063823349934, 72853.36528460566, 118742.8824595073, 50989.71587296914, 73265.30793491697, 34292.94041311031, -6036.557976789234, 21808.7982307432, 48917.61975498436, 19207.65867324575, -15449.056380874681, -33510.6070054301, -0.066, 0.886, 0.47800000000000004, 192.0, 0.0, 0.0, 0.0, 0.0, 0.0, 0.0, 0.0, 0.0, 0.0, 1.695412510714718E9, 0.0, 2023-09-22 14:55:10.714
192.0, 51694.399320411605, -187500.02235174447, -21057.667858322606, 11093.550752824636, 50997.91896318424, 72832.17583086203, 118813.26810279705, 50961.64208193327, 73246.82304225244, 34265.380712196915, -6017.827214935686, 21830.859402520586, 48839.05337322395, 19233.497289836087, -15429.342142265099, -33664.364655538164, -0.058, 0.878, 0.482, 192.0, 127.0, 24.0, 13.5, 56.0, 7.5, 8.0, 0.0, 0.0, 0.0, 1.695412510714721E9, 0.0, 2023-09-22 14:55:10.714
194.0, 51715.54407066633, -187500.02235174447, -21032.03040743237, 11106.827689031088, 50982.1833350877, 72842.97172343395, 118757.8804800368, 50967.56529421393, 73258.6471150693, 34304.13863708242, -6030.85828195313, 21813.69326277891, 48933.55654878099, 19214.967693682636, -15445.323639550645, -33601.01981175182, -0.058, 0.878, 0.482, 192.0, 0.0, 0.0, 0.0, 0.0, 0.0, 0.0, 0.0, 0.0, 0.0, 1.695412510773572E9, 0.0, 2023-09-22 14:55:10.773
196.0, 51662.88336072962, -187500.02235174447, -21070.65422185114, 11056.37980179546, 51006.3902743328, 72820.01648187834, 118808.77540216154, 50934.95409905363, 73258.13302494682, 34273.628505900924, -6007.321895041692, 21834.614495589078, 48846.60826284984, 19232.178536913223, -15423.933020106915, -33718.92526375357, -0.058, 0.878, 0.482, 192.0, 0.0, 0.0, 0.0, 0.0, 0.0, 0.0, 0.0, 0.0, 0.0, 1.695412510773611E9, 0.0, 2023-09-22 14:55:10.773
198.0, 51700.27782920335, -187500.02235174447, -21014.68545373505, 11088.05222368863, 50983.032701377, 72844.60340077917, 118769.9280702982, 50966.291244779975, 73289.35841195087, 34309.1007243515, -6018.967153902907, 21827.998379230306, 48939.52446455055, 19225.964751954645, -15434.751264423283, -33667.784472439824, -0.058, 0.878, 0.482, 192.0, 0.0, 0.0, 0.0, 0.0, 0.0, 0.0, 0.0, 0.0, 0.0, 1.695412510773614E9, 0.0, 2023-09-22 14:55:10.773
200.0, 51668.09131718771, -187500.02235174447, -21041.93223022607, 11060.470171030782, 50996.53315502801, 72830.32063607224, 118800.30409101298, 50951.069706805916, 73264.7938447945, 34284.42439847284, -6008.685351453466, 21835.50856536729, 48857.91824554423, 19228.155222911268, -15431.309095777166, -33741.18760123105, -0.058, 0.878, 0.482, 192.0, 0.0, 0.0, 0.0, 0.0, 0.0, 0.0, 0.0, 0.0, 0.0, 1.695412510773617E9, 0.0, 2023-09-22 14:55:10.773
202.0, 51713.1077305207, -187500.02235174447, -20968.394990968107, 11097.775232526688, 50978.02591061901, 72858.95322071949, 118782.46739893763, 50987.90538166826, 73273.37691466534, 34311.04532611911, -6023.772778960798, 21825.964370484875, 48931.723705735654, 19232.245592146588, -15434.90772663447, -33691.67848726255, -0.058, 0.88, 0.48, 192.0, 127.0, 24.0, 13.5, 64.0, 7.5, 0.0, 0.0, 0.0, 0.0, 1.695412510773621E9, 0.0, 2023-09-22 14:55:10.773
204.0, 51637.64824123958, -187500.02235174447, -21053.286916409364, 11023.61214442398, 50998.41070156225, 72809.80173466227, 118783.02619254902, 50925.07462800439, 73263.31862966045, 34281.317505993546, -6009.110034598117, 21837.74373981282, 48841.75793430304, 19244.226127174632, -15428.58218295362, -33776.503357470436, -0.058, 0.88, 0.48, 192.0, 0.0, 0.0, 0.0, 0.0, 0.0, 0.0, 0.0, 0.0, 0.0, 1.695412510773624E9, 0.0, 2023-09-22 14:55:10.773
206.0, 51689.79486105381, -187500.02235174447, -20965.109284533177, 11070.416697313392, 50974.31552103943, 72848.6937700145, 118781.08159078141, 50973.24263730558, 73302.32242373496, 34304.78683767162, -6020.017685892307, 21832.669893821465, 48928.59446151191, 19235.486595092607, -15438.461654002866, -33769.39550273365, -0.058, 0.88, 0.48, 192.0, 0.0, 0.0, 0.0, 0.0, 0.0, 0.0, 0.0, 0.0, 0.0, 1.695412510773627E9, 0.0, 2023-09-22 14:55:10.773
208.0, 51628.0369911238, -187500.02235174447, -21043.206279660022, 11008.725882616745, 50999.30477134047, 72811.92515038552, 118781.95330881517, 50922.63828785876, 73258.60241158037, 34278.389427469905, -6014.09447361165, 21840.42594914746, 48856.39832692127, 19241.409807373264, -15431.57731671063, -33823.68789001559, -0.058, 0.88, 0.48, 192.0, 0.0, 0.0, 0.0, 0.0, 0.0, 0.0, 0.0, 0.0, 0.0, 1.69541251077363E9, 0.0, 2023-09-22 14:55:10.773
210.0, 51732.978431341464, -187500.02235174447, -20892.75668773135, 11107.319427409104, 50987.74891945707, 72893.82194206977, 118806.47317248264, 51020.80714950647, 73283.23403397013, 34311.26884356366, -6028.757217974332, 21837.542574112722, 48937.28929010502, 19245.209603930667, -15430.169156809945, -33796.016430379925, -0.058, 0.88, 0.48, 192.0, 0.0, 0.0, 0.0, 0.0, 0.0, 0.0, 0.0, 0.0, 0.0, 1.695412510833869E9, 0.0, 2023-09-22 14:55:10.833
212.0, 51649.89699720109, -187500.02235174447, -20997.206389570998, 11027.680161914846, 50993.73918697109, 72829.7394907164, 118760.13800622679, 50936.56342465442, 73254.15441443377, 34309.36894528496, -6021.179976603982, 21844.672780593966, 48865.71900435913, 19256.363124413863, -15432.806662655672, -33807.2817095854, -0.056, 0.878, 0.482, 192.0, 127.0, 32.0, 13.5, 56.0, 7.5, 8.0, 0.0, 0.0, 0.0, 1.695412510833878E9, 0.0, 2023-09-22 14:55:10.833
214.0, 51705.21756472797, -187500.02235174447, -20888.08517314019, 11087.091098677052, 50991.83928869239, 72874.42062788256, 118807.45664923867, 50999.640047507295, 73290.6995166182, 34330.02195716166, -6012.57455498869, 21847.958487028896, 48908.857871157874, 19262.46515065016, -15431.107930077069, -33847.44779437158, -0.056, 0.878, 0.482, 192.0, 0.0, 0.0, 0.0, 0.0, 0.0, 0.0, 0.0, 0.0, 0.0, 1.695412510833882E9, 0.0, 2023-09-22 14:55:10.833
216.0, 51645.42664831003, -187500.02235174447, -20969.95961307998, 11026.674333414358, 50984.4855647666, 72824.79975519178, 118758.46162539264, 50940.58673865638, 73259.69764705868, 34311.42530577485, -6018.386008547069, 21839.777748558256, 48870.56933290593, 19255.96079301367, -15434.639505701007, -33864.70334109108, -0.056, 0.878, 0.482, 192.0, 0.0, 0.0, 0.0, 0.0, 0.0, 0.0, 0.0, 0.0, 0.0, 1.695412510833885E9, 0.0, 2023-09-22 14:55:10.833
218.0, 51691.78416631033, -187500.02235174447, -20868.348582786155, 11075.28937760465, 50993.18039335971, 72862.50714808788, 118808.99891960609, 50991.2357915921, 73270.78411230852, 34312.31937555306, -6028.220776107404, 21834.83801303363, 48912.18828108171, 19241.879194006826, -15433.611325456062, -33891.61484141527, -0.056, 0.878, 0.482, 192.0, 0.0, 0.0, 0.0, 0.0, 0.0, 0.0, 0.0, 0.0, 0.0, 1.695412510833889E9, 0.0, 2023-09-22 14:55:10.833
220.0, 51636.32948831672, -187500.02235174447, -20953.844005327705, 11018.203022265796, 50985.20082058917, 72816.26138880986, 118744.55884034144, 50928.02505827249, 73255.58492607891, 34313.951052898294, -6031.484130797879, 21827.79721353021, 48882.371053978335, 19240.71690329515, -15440.696828448396, -33895.52639669495, -0.056, 0.878, 0.482, 192.0, 0.0, 0.0, 0.0, 0.0, 0.0, 0.0, 0.0, 0.0, 0.0, 1.695412510833892E9, 0.0, 2023-09-22 14:55:10.833
222.0, 51705.441082172525, -187500.02235174447, -20827.48959392185, 11088.38749985546, 51002.299905097476, 72872.0960464592, 118818.9454458887, 51001.71875974164, 73276.9978972671, 34319.18136110084, -6028.466645296413, 21828.870097264065, 48897.83846114141, 19239.353446883375, -15436.114720835058, -33929.8586761783, -0.056, 0.88, 0.482, 192.0, 127.0, 32.0, 13.5, 64.0, 7.5, 8.0, 0.0, 0.0, 0.0, 1.695412510833896E9, 0.0, 2023-09-22 14:55:10.833
224.0, 51626.874700412125, -187500.02235174447, -20935.917906274546, 11004.903734314888, 50999.99767541858, 72808.55003697277, 118753.79011080148, 50916.33509592237, 73273.10869373188, 34319.02489888965, -6025.5609185172225, 21838.54840261321, 48886.68494065821, 19244.092016707902, -15431.599668455085, -33918.32517603936, -0.056, 0.88, 0.482, 192.0, 0.0, 0.0, 0.0, 0.0, 0.0, 0.0, 0.0, 0.0, 0.0, 1.695412510894128E9, 0.0, 2023-09-22 14:55:10.894
226.0, 51690.30895117628, -187500.02235174447, -20817.476012405874, 11069.23205485726, 50999.640047507295, 72866.95514523449, 118824.13105060233, 50991.749881714575, 73282.80935082548, 34316.610910488474, -6032.400552320547, 21830.859402520586, 48890.30592325997, 19247.221260931645, -15435.53357547922, -33975.29977265594, -0.056, 0.88, 0.482, 192.0, 0.0, 0.0, 0.0, 0.0, 0.0, 0.0, 0.0, 0.0, 0.0, 1.695412510894144E9, 0.0, 2023-09-22 14:55:10.894
228.0, 51651.327508846225, -187500.02235174447, -20883.525417271307, 11024.975600835753, 50984.262047322045, 72829.80654594977, 118747.84454677637, 50940.18440725618, 73259.5411848475, 34325.3504425705, -6034.121636643606, 21832.6028385881, 48899.358379764366, 19244.069664963445, -15442.753188938284, -33944.09673739633, -0.056, 0.88, 0.482, 192.0, 0.0, 0.0, 0.0, 0.0, 0.0, 0.0, 0.0, 0.0, 0.0, 1.695412510894149E9, 0.0, 2023-09-22 14:55:10.894
230.0, 51683.37991039514, -187500.02235174447, -20802.58975059864, 11061.185426853352, 50996.53315502801, 72858.14855791909, 118811.05528009597, 50982.85388742136, 73261.70930405967, 34318.04142213362, -6030.165377875016, 21832.46872812137, 48873.49741142958, 19244.896679508292, -15445.81537792866, -34003.82059858091, -0.056, 0.88, 0.482, 192.0, 0.0, 0.0, 0.0, 0.0, 0.0, 0.0, 0.0, 0.0, 0.0, 1.695412510894154E9, 0.0, 2023-09-22 14:55:10.894
232.0, 51641.35863081916, -187500.02235174447, -20863.252385050346, 11013.866783841466, 50986.69838746767, 72819.79296443379, 118741.36254088434, 50930.72961935159, 73272.23697569812, 34329.418460061366, -6025.583270261678, 21831.79817578771, 48906.46623450115, 19247.601240587384, -15445.345991295098, -33976.90909825672, -0.06, 0.886, 0.47800000000000004, 192.0, 127.0, 16.0, 13.5, 88.0, 7.0, 120.0, 0.0, 0.0, 0.0, 1.695412510894168E9, 0.0, 2023-09-22 14:55:10.894
234.0, 51629.84748242468, -187500.02235174447, -20834.17276551399, 11009.709359372779, 51016.02387619304, 72829.11364187165, 118818.47605925513, 50946.48759919257, 73278.56251937897, 34319.09195412302, -6012.395741033047, 21842.7058270819, 48863.52853340251, 19256.51958662505, -15424.938848607404, -34081.26939311855, -0.06, 0.886, 0.47800000000000004, 192.0, 0.0, 0.0, 0.0, 0.0, 0.0, 0.0, 0.0, 0.0, 0.0, 1.695412510894173E9, 0.0, 2023-09-22 14:55:10.894
236.0, 51646.27601459933, -187500.02235174447, -20825.544992154242, 11021.04169381162, 50990.94521891418, 72838.3896158206, 118757.63461084779, 50955.808276630436, 73289.17959799524, 34346.338730614036, -6020.956459159429, 21829.630056575545, 48925.66638298826, 19247.735351054114, -15438.260488302767, -34030.95561634965, -0.06, 0.886, 0.47800000000000004, 192.0, 0.0, 0.0, 0.0, 0.0, 0.0, 0.0, 0.0, 0.0, 0.0, 1.695412510894178E9, 0.0, 2023-09-22 14:55:10.894
238.0, 51651.88630245761, -187500.02235174447, -20789.715145792383, 11031.792882894622, 51011.15119590178, 72849.52078455935, 118819.548942989, 50974.29316929498, 73274.82977805493, 34323.71876522527, -6015.167357345505, 21839.08484448014, 48863.550885146964, 19249.747008055092, -15433.924249878437, -34107.89032076482, -0.06, 0.886, 0.47800000000000004, 192.0, 0.0, 0.0, 0.0, 0.0, 0.0, 0.0, 0.0, 0.0, 0.0, 1.695412510894183E9, 0.0, 2023-09-22 14:55:10.894
240.0, 51653.47327631394, -187500.02235174447, -20790.78802952624, 11027.903679359399, 50996.55550677246, 72839.26133385436, 118753.70070382366, 50960.30097726596, 73278.00372576759, 34357.62636156397, -6027.259651095826, 21827.663103063478, 48930.606118512886, 19238.705246294172, -15444.407218027976, -34037.8846571308, -0.06, 0.886, 0.47800000000000004, 192.0, 0.0, 0.0, 0.0, 0.0, 0.0, 0.0, 0.0, 0.0, 0.0, 1.695412510954664E9, 0.0, 2023-09-22 14:55:10.954
242.0, 51647.86298845566, -187500.02235174447, -20776.840540986126, 11024.03682756863, 51010.1900708902, 72845.45276706848, 118819.23601856662, 50973.04147160548, 73271.32055417544, 34326.35627107099, -6014.742674200854, 21848.249059706817, 48854.900760042765, 19256.698400580695, -15428.850403887083, -34153.97961783166, -0.058, 0.886, 0.48, 192.0, 127.0, 24.0, 13.5, 88.0, 7.5, 0.0, 0.0, 0.0, 0.0, 1.695412510954677E9, 0.0, 2023-09-22 14:55:10.954
244.0, 51677.344939392206, -187500.02235174447, -20735.19924106589, 11045.069819101074, 50994.92382942723, 72858.41677885257, 118773.75021860006, 50989.09002412439, 73281.17767348024, 34355.72646328527, -6021.492901026357, 21837.81079504619, 48933.891824947816, 19248.33884815441, -15439.176909825435, -34075.74851223809, -0.058, 0.886, 0.48, 192.0, 0.0, 0.0, 0.0, 0.0, 0.0, 0.0, 0.0, 0.0, 0.0, 1.695412510954682E9, 0.0, 2023-09-22 14:55:10.954
246.0, 51632.26147082585, -187500.02235174447, -20773.890110718028, 11002.914429058364, 51025.858643753374, 72830.1865256055, 118811.5917219629, 50958.825762131906, 73265.6432110838, 34319.78485820113, -6007.210136319415, 21838.36958865757, 48850.02807975151, 19257.704229081184, -15433.119587078047, -34166.116615070896, -0.058, 0.886, 0.48, 192.0, 0.0, 0.0, 0.0, 0.0, 0.0, 0.0, 0.0, 0.0, 0.0, 1.695412510954695E9, 0.0, 2023-09-22 14:55:10.954
248.0, 51676.31675914726, -187500.02235174447, -20704.57735116212, 11044.220452811773, 51008.13371040031, 72862.55185157679, 118792.50333219807, 50999.081253895914, 73303.06003130198, 34347.67983528136, -6022.923412671496, 21827.774861785754, 48936.57403428245, 19246.461301620162, -15437.969915624848, -34128.54333264152, -0.058, 0.886, 0.48, 192.0, 0.0, 0.0, 0.0, 0.0, 0.0, 0.0, 0.0, 0.0, 0.0, 1.695412510954699E9, 0.0, 2023-09-22 14:55:10.954
250.0, 51616.235270051395, -187500.02235174447, -20765.910537947482, 10988.586960862513, 51030.35134438889, 72824.86681042514, 118810.31767252895, 50955.98709058608, 73262.78218779352, 34319.51663726767, -6016.821386435197, 21829.27242866426, 48848.91049252874, 19252.898604023292, -15430.90676437697, -34208.18259813578, -0.058, 0.886, 0.48, 192.0, 0.0, 0.0, 0.0, 0.0, 0.0, 0.0, 0.0, 0.0, 0.0, 1.695412510954705E9, 0.0, 2023-09-22 14:55:10.954
252.0, 51704.256439716395, -187500.02235174447, -20648.45212083484, 11068.986185668253, 51007.86548946685, 72882.64606984211, 118804.2379980371, 51033.055905467976, 73287.72673460565, 34349.13269867095, -6028.265479596314, 21822.455146605393, 48947.302871621, 19237.61001081586, -15433.901898133981, -34161.646266179836, -0.06, 0.886, 0.48, 192.0, 127.0, 16.0, 13.5, 88.0, 7.5, 0.0, 0.0, 0.0, 0.0, 1.69541251095471E9, 0.0, 2023-09-22 14:55:10.954
254.0, 51636.79887495028, -187500.02235174447, -20725.20801129437, 11009.664655883867, 51018.929602972225, 72832.98049366243, 118796.99603283359, 50970.26985529302, 73257.32836214642, 34318.04142213362, -6018.184842846971, 21829.31713215317, 48859.34875718937, 19245.00843823057, -15430.01269459876, -34202.34879283295, -0.06, 0.886, 0.48, 192.0, 0.0, 0.0, 0.0, 0.0, 0.0, 0.0, 0.0, 0.0, 0.0, 1.695412510954716E9, 0.0, 2023-09-22 14:55:10.954
