%OpenBCI Raw EXG Data
%Number of channels = 16
%Sample Rate = 125 Hz
%Board = OpenBCI_GUI$BoardCytonSerialDaisy
Sample Index, EXG Channel 0, EXG Channel 1, EXG Channel 2, EXG Channel 3, EXG Channel 4, EXG Channel 5, EXG Channel 6, EXG Channel 7, EXG Channel 8, EXG Channel 9, EXG Channel 10, EXG Channel 11, EXG Channel 12, EXG Channel 13, EXG Channel 14, EXG Channel 15, Accel Channel 0, Accel Channel 1, Accel Channel 2, Other, Other, Other, Other, Other, Other, Other, Analog Channel 0, Analog Channel 1, Analog Channel 2, Timestamp, Other, Timestamp (Formatted)
238.0, 48228.51547342724, 37098.68783935164, 15730.39778833363, 19955.39158050914, 19905.23426595143, 15997.41172759673, -48678.88077245722, 24555.46999638915, 38636.30904392112, 22217.67869206413, 992.6409712601867, 28757.977933642618, 36125.35877530084, 24827.62483687697, -14772.603186679267, 3698.7890242086683, 0.0, 0.0, 0.0, 192.0, 0.0, 0.0, 0.0, 0.0, 0.0, 0.0, 0.0, 0.0, 0.0, 1.696015211734001E9, 0.0, 2023-09-29 14:20:11.734
240.0, 48080.68103559984, 37084.740350811524, 15662.962575311969, 19913.951446288997, 19909.861077053676, 16004.8772102448, -48859.61697812283, 24559.470958646652, 38645.31679693661, 22218.103375208782, 871.8074407347967, 28737.235514788095, 36076.98960029955, 24835.269133480684, -14797.21245732456, 3671.206971550819, 0.0, 0.0, 0.0, 192.0, 0.0, 0.0, 0.0, 0.0, 0.0, 0.0, 0.0, 0.0, 0.0, 1.696015211734021E9, 0.0, 2023-09-29 14:20:11.734
242.0, 48256.20928480736, 37088.16016771319, 15747.429817608574, 19959.549004977824, 19890.683280311023, 15989.812134481925, -48643.833237151295, 24551.20081319819, 38627.05542171662, 22202.099526178783, 979.1852210980918, 28750.7359684391, 36109.600795459846, 24823.825040319567, -14779.040489082396, 3692.8658119280117, 0.0, 0.0, 0.0, 192.0, 0.0, 0.0, 0.0, 0.0, 0.0, 0.0, 0.0, 0.0, 0.0, 1.696015211734031E9, 0.0, 2023-09-29 14:20:11.734
244.0, 48051.95904397476, 37082.21460368807, 15642.846005302192, 19891.28677741132, 19916.924228301552, 16015.762509794535, -48889.45655697067, 24573.351391953398, 38642.90280853544, 22218.21513393106, 921.18244423657, 28739.269523533527, 36065.6125623718, 24842.15347077292, -14799.268817814449, 3669.4858872277605, -0.003, 0.509, -0.059000000000000004, 192.0, 127.5, 104.0, 15.5, 104.0, 126.0, 40.0, 0.0, 0.0, 0.0, 1.69601521173405E9, 0.0, 2023-09-29 14:20:11.734
246.0, 48267.27339831274, 37096.05033350591, 15771.524998131395, 19980.894920932642, 19896.22651293594, 15989.365099592818, -48673.829278210316, 24544.942324750704, 38635.39262239845, 22211.420203616646, 921.5177204033996, 28757.754416198066, 36124.84468517837, 24835.91733406989, -14769.563349433345, 3694.5421927621596, -0.003, 0.509, -0.059000000000000004, 192.0, 0.0, 0.0, 0.0, 0.0, 0.0, 0.0, 0.0, 0.0, 0.0, 1.69601521173406E9, 0.0, 2023-09-29 14:20:11.734
248.0, 48057.70344229978, 37071.06108320488, 15640.588479112206, 19882.055506951274, 19906.955350274486, 15998.506963075039, -48889.992998837595, 24558.57688886844, 38638.3207009221, 22208.425069859633, 948.3174620053128, 28734.77682289801, 36079.56005091191, 24822.707453096802, -14803.448594027592, 3659.986395834255, -0.003, 0.509, -0.059000000000000004, 192.0, 0.0, 0.0, 0.0, 0.0, 0.0, 0.0, 0.0, 0.0, 0.0, 1.696015211734069E9, 0.0, 2023-09-29 14:20:11.734
250.0, 48267.96630239085, 37098.01728701798, 15761.198492193043, 19973.384734795658, 19892.113791956162, 15978.993890165555, -48681.63003702522, 24539.555554336974, 38630.00585198472, 22202.501857578976, 896.506118357911, 28755.20631733016, 36116.351022285344, 24826.328435698564, -14786.125992074729, 3680.1923728218526, -0.003, 0.509, -0.059000000000000004, 192.0, 0.0, 0.0, 0.0, 0.0, 0.0, 0.0, 0.0, 0.0, 0.0, 1.696015211734098E9, 0.0, 2023-09-29 14:20:11.734
252.0, 48055.490619598706, 37073.34096113932, 15626.059845216258, 19868.666812022544, 19909.57050437576, 16007.000625968056, -48888.56248719245, 24566.310592449976, 38636.51020962122, 22208.268607648446, 985.1084333787481, 28736.006168843054, 36076.18493749916, 24809.855200035003, -14806.957817907074, 3658.019442322188, -0.003, 0.509, -0.059000000000000004, 192.0, 0.0, 0.0, 0.0, 0.0, 0.0, 0.0, 0.0, 0.0, 0.0, 1.696015211734107E9, 0.0, 2023-09-29 14:20:11.734
254.0, 48265.95464538987, 37103.76168534299, 15768.283995185377, 19979.017374398398, 19890.973852988944, 15985.297082101952, -48689.05081618438, 24542.081301460425, 38629.804686284624, 22204.558218068865, 869.214638377981, 28750.847727161377, 36110.651327449246, 24824.428537419863, -14785.746012418987, 3684.0592246126207, -0.006500000000000001, 0.7645, -0.08750000000000001, 192.0, 127.5, 88.0, 15.5, 112.0, 126.0, 48.0, 0.0, 0.0, 0.0, 1.696015211734117E9, 0.0, 2023-09-29 14:20:11.734
0.0, 24048.71124609843, 18507.020891549695, 7729.926136723297, 9798.758900017609, 9867.490514217678, 7878.900513517919, -26255.56603140426, 12195.64821668246, 19313.404776263807, 11101.172697683895, 566.393204497481, 14370.048269039187, 18052.766388984488, 12413.756539077347, -7400.014388562965, 1833.6477081355702, -0.00725, 0.88825, -0.09375, 192.0, 127.5, 96.0, 15.5, 80.0, 126.0, 112.0, 0.0, 0.0, 0.0, 1.696015211897E9, 0.0, 2023-09-29 14:20:11.897
2.0, 48276.48231702833, 37025.99996638298, 15550.890928613058, 19654.827672818625, 19723.33576957414, 15747.608631564217, -52308.424092343346, 24380.54524428192, 38545.60566492149, 21884.838865380152, 1665.629645065027, 28418.54434234433, 35997.596203994304, 24383.786247227938, -14602.595818352202, 2720.9449077778945, -0.00725, 0.88825, -0.09375, 192.0, 0.0, 0.0, 0.0, 0.0, 0.0, 0.0, 0.0, 0.0, 0.0, 1.696015211897031E9, 0.0, 2023-09-29 14:20:11.897
4.0, 48067.426451137835, 37002.2847655159, 15421.42962472792, 19560.816235639602, 19742.87119422808, 15766.02646899539, -52518.284621034225, 24397.35375611231, 38546.2985689996, 21884.28007176877, 1731.3661255080851, 28396.974908944954, 35957.20660176356, 24372.610375000284, -14625.03696978533, 2696.1791749214144, -0.00725, 0.88825, -0.09375, 192.0, 0.0, 0.0, 0.0, 0.0, 0.0, 0.0, 0.0, 0.0, 0.0, 1.696015211897041E9, 0.0, 2023-09-29 14:20:11.897
6.0, 48291.36857883556, 37028.682175717615, 15562.670297941006, 19668.70810612537, 19720.027711394752, 15738.198547148533, -52312.58151681203, 24371.448084288608, 38543.9963393207, 21882.916615356997, 1623.5636620001392, 28417.62792082166, 35986.93442188912, 24383.07099140537, -14604.115736975162, 2717.905070531973, -0.00725, 0.88825, -0.09375, 192.0, 0.0, 0.0, 0.0, 0.0, 0.0, 0.0, 0.0, 0.0, 0.0, 1.69601521189705E9, 0.0, 2023-09-29 14:20:11.897
8.0, 48080.345759433, 37000.20605328155, 15413.204182768368, 19549.282735500663, 19734.66810401298, 15752.570718833294, -52492.267190488245, 24383.316860594376, 38537.84960959549, 21873.417123963492, 1789.4583093474282, 28389.487074552428, 35946.45541268056, 24365.860148174783, -14630.08846403223, 2684.1539364044593, -0.006, 1.016, -0.096, 192.0, 127.5, 104.0, 15.5, 96.0, 126.5, 0.0, 0.0, 0.0, 0.0, 1.696015211897059E9, 0.0, 2023-09-29 14:20:11.897
10.0, 48278.35986356257, 37030.224446085034, 15556.769437404804, 19654.760617585256, 19724.296894585717, 15732.856480223714, -52310.18988015531, 24362.93206965114, 38540.15183927439, 21880.27910951127, 1625.664725978938, 28405.37916486015, 35984.47572999904, 24370.86693893277, -14609.390748666616, 2704.0469889696824, -0.006, 1.016, -0.096, 192.0, 0.0, 0.0, 0.0, 0.0, 0.0, 0.0, 0.0, 0.0, 0.0, 1.696015211897068E9, 0.0, 2023-09-29 14:20:11.897
12.0, 48080.7480908332, 37001.59186143778, 15410.56667692264, 19541.68314238586, 19739.51843255978, 15754.604727578728, -52471.32360593362, 24386.557863540398, 38544.64453990991, 21875.272318753283, 1825.9363562984893, 28392.05752516479, 35972.31638101535, 24365.435465030132, -14621.08071101674, 2688.57958180661, -0.006, 1.016, -0.096, 192.0, 0.0, 0.0, 0.0, 0.0, 0.0, 0.0, 0.0, 0.0, 0.0, 1.696015211897077E9, 0.0, 2023-09-29 14:20:11.897
14.0, 48241.90416835596, 37033.934835664615, 15539.55859417422, 19648.07744599312, 19733.706979001403, 15744.434683851563, -52362.40355520291, 24386.06612516238, 38545.62801666594, 21880.90495835602, 1603.8717751350136, 28404.70861252649, 35983.91693638765, 24383.719191994573, -14606.395614909605, 2713.1441489629924, -0.006, 1.016, -0.096, 192.0, 0.0, 0.0, 0.0, 0.0, 0.0, 0.0, 0.0, 0.0, 0.0, 1.696015211897086E9, 0.0, 2023-09-29 14:20:11.897
16.0, 48087.923000803356, 37002.57533819382, 15418.188621781901, 19545.34882847653, 19737.931458703453, 15758.672745069594, -52494.81528935615, 24394.269215377477, 38544.06339455407, 21876.23344376486, 1816.8615480496346, 28399.545359557316, 35978.77603516293, 24376.49957853551, -14613.972856279954, 2698.3919976224897, -0.006, 1.016, -0.096, 192.0, 0.0, 0.0, 0.0, 0.0, 0.0, 0.0, 0.0, 0.0, 0.0, 1.696015211957434E9, 0.0, 2023-09-29 14:20:11.957
18.0, 48241.77005788923, 37027.51988500594, 15552.813178636216, 19648.904460537968, 19723.738100974333, 15735.1140064137, -52388.35393051552, 24375.717267479573, 38551.595932435506, 21879.988536833353, 1567.3937281839524, 28409.894217240122, 35979.93832587461, 24381.327555337855, -14606.395614909605, 2710.5960500950873, -0.004, 1.018, -0.094, 192.0, 127.5, 112.0, 15.5, 104.0, 126.5, 8.0, 0.0, 0.0, 0.0, 1.696015211957459E9, 0.0, 2023-09-29 14:20:11.957
20.0, 48111.839367370536, 37007.492721973984, 15432.33727602211, 19550.780302379168, 19734.19871737942, 15754.44826536754, -52458.091373216084, 24394.895064222226, 38541.33648173052, 21866.353972715613, 1859.2851590258074, 28397.62310953416, 35979.64775319669, 24361.3003923059, -14617.70559760399, 2691.2617911412467, -0.004, 1.018, -0.094, 192.0, 0.0, 0.0, 0.0, 0.0, 0.0, 0.0, 0.0, 0.0, 0.0, 1.696015211957474E9, 0.0, 2023-09-29 14:20:11.957
22.0, 48213.98683953129, 37034.359518809266, 15540.854995352627, 19648.546832626682, 19726.353255075606, 15743.227689650976, -52423.87085245501, 24384.903834450703, 38555.12750805944, 21887.744592159343, 1562.923379292891, 28407.212007905488, 35968.00249433547, 24378.3547733253, -14611.290646945316, 2708.092654716093, -0.004, 1.018, -0.094, 192.0, 0.0, 0.0, 0.0, 0.0, 0.0, 0.0, 0.0, 0.0, 0.0, 1.696015211957483E9, 0.0, 2023-09-29 14:20:11.957
24.0, 48142.68477471886, 36995.31102124584, 15443.133168594024, 19552.05435181312, 19726.710882986892, 15742.44537859504, -52413.477291283285, 24380.72405823756, 38530.58529264752, 21861.43658893545, 1870.5280864868269, 28395.387935088627, 35973.12104381574, 24368.698819720605, -14620.387806938626, 2690.5241835742218, -0.004, 1.018, -0.094, 192.0, 0.0, 0.0, 0.0, 0.0, 0.0, 0.0, 0.0, 0.0, 0.0, 1.696015211957492E9, 0.0, 2023-09-29 14:20:11.957
26.0, 48182.20265891584, 37023.36246053725, 15517.408015419009, 19627.55854458315, 19736.165670891485, 15742.154805917122, -52444.05447769815, 24382.713363494084, 38554.14403130341, 21881.776676389778, 1579.3966149564524, 28401.020574691367, 35962.52631694393, 24382.534549538443, -14615.202202224995, 2687.707863772853, -0.004, 1.018, -0.094, 192.0, 0.0, 0.0, 0.0, 0.0, 0.0, 0.0, 0.0, 0.0, 0.0, 1.696015211957501E9, 0.0, 2023-09-29 14:20:11.957
28.0, 48176.65942629093, 36994.66282065664, 15457.170064111957, 19567.67822118738, 19724.788632963733, 15731.873003467681, -52374.42879371987, 24360.719246950062, 38537.91666482886, 21864.543481414734, 1871.9362463875111, 28397.421943834062, 35984.16280557666, 24363.200290584602, -14606.194449209506, 2693.5193173312327, -0.004, 1.02, -0.08600000000000001, 192.0, 127.5, 112.0, 15.5, 112.0, 126.5, 40.0, 0.0, 0.0, 0.0, 1.69601521195751E9, 0.0, 2023-09-29 14:20:11.957
30.0, 48156.431097558874, 37000.1837015371, 15490.563570328186, 19610.21359088583, 19732.76820573428, 15738.355009359719, -52445.23912015428, 24384.568558283874, 38548.35492948949, 21871.539577429245, 1621.1943770878765, 28388.615356518672, 35954.6361511512, 24363.401456284697, -14620.03017902734, 2679.013035179739, -0.004, 1.02, -0.08600000000000001, 192.0, 0.0, 0.0, 0.0, 0.0, 0.0, 0.0, 0.0, 0.0, 0.0, 1.696015212016834E9, 0.0, 2023-09-29 14:20:12.016
32.0, 48181.01801645971, 36983.732817617994, 15470.357593340588, 19574.0708201016, 19726.085034142143, 15742.981820461968, -52363.141162769934, 24379.36060182579, 38532.999281048695, 21858.821434834175, 1867.9576358744666, 28396.304356611297, 35990.55540449088, 24357.120616092758, -14606.395614909605, 2693.7875382646967, -0.004, 1.02, -0.08600000000000001, 192.0, 0.0, 0.0, 0.0, 0.0, 0.0, 0.0, 0.0, 0.0, 0.0, 1.696015212016859E9, 0.0, 2023-09-29 14:20:12.016
34.0, 48115.84032962803, 36992.539404933385, 15472.503360808298, 19595.86377094552, 19736.94798194742, 15751.319021143798, -52501.990199326305, 24392.995165943525, 38551.97591209125, 21877.932176343464, 1620.8814526655024, 28391.81165597578, 35957.51952618593, 24373.63855524523, -14614.263428957873, 2687.6408085394874, -0.004, 1.02, -0.08600000000000001, 192.0, 0.0, 0.0, 0.0, 0.0, 0.0, 0.0, 0.0, 0.0, 0.0, 1.69601521201687E9, 0.0, 2023-09-29 14:20:12.016
36.0, 48217.943098299875, 36988.96312582053, 15492.06113720669, 19591.862808688024, 19718.731310216346, 15733.817605235292, -52363.297624981125, 24364.653153974195, 38537.603740406485, 21860.721333112877, 1820.6166411181262, 28402.138161914132, 35988.27552655644, 24349.16339506667, -14599.712443317467, 2699.800157523174, -0.004, 1.02, -0.08600000000000001, 192.0, 0.0, 0.0, 0.0, 0.0, 0.0, 0.0, 0.0, 0.0, 0.0, 1.696015212016879E9, 0.0, 2023-09-29 14:20:12.016
38.0, 48108.754826635704, 37001.971841093524, 15462.221558358857, 19585.872541174, 19739.42902558196, 15755.029410723379, -52528.99110662832, 24401.757049770004, 38550.21012427928, 21878.110990299105, 1649.8716652240355, 28393.28687110983, 35943.19205799008, 24369.123502865255, -14621.974780794953, 2674.609741522043, -0.002, 1.02, -0.088, 192.0, 127.5, 120.0, 15.5, 112.0, 126.5, 32.0, 0.0, 0.0, 0.0, 1.696015212016923E9, 0.0, 2023-09-29 14:20:12.016
40.0, 48250.44253473789, 37026.42464952763, 15523.711207355405, 19612.15819265344, 19737.372665092073, 15745.93225073007, -52371.63482566295, 24382.378087327255, 38545.53860968812, 21884.6153479356, 1782.0822336771769, 28426.278045925865, 35993.88581441472, 24381.97575592706, -14583.596835565191, 2709.5902215945985, -0.002, 1.02, -0.088, 192.0, 0.0, 0.0, 0.0, 0.0, 0.0, 0.0, 0.0, 0.0, 0.0, 1.696015212016932E9, 0.0, 2023-09-29 14:20:12.016
42.0, 48100.19410850932, 37009.34791676378, 15457.170064111957, 19574.808427668624, 19738.624362781567, 15748.547404831339, -52547.096019637116, 24377.751276225004, 38549.87484811245, 21888.415144493003, 1671.5081538567727, 28404.77566775986, 35949.65171213767, 24380.14291288172, -14608.183754466028, 2680.331788102602, -0.002, 1.02, -0.088, 192.0, 0.0, 0.0, 0.0, 0.0, 0.0, 0.0, 0.0, 0.0, 0.0, 1.696015212016941E9, 0.0, 2023-09-29 14:20:12.016
44.0, 48274.0459768827, 37012.27599528742, 15540.45266395243, 19628.296152150175, 19730.28716209974, 15736.611573292206, -52326.12667395195, 24384.747372239515, 38529.557112402574, 21870.690211139943, 1777.7683469973026, 28415.549208587316, 35995.45043652659, 24374.01853490097, -14586.726079788934, 2702.4376633689003, -0.002, 1.02, -0.088, 192.0, 0.0, 0.0, 0.0, 0.0, 0.0, 0.0, 0.0, 0.0, 0.0, 1.69601521201695E9, 0.0, 2023-09-29 14:20:12.016
46.0, 48078.80348906559, 36995.91451834614, 15440.070979603646, 19562.492616473748, 19745.218127395885, 15753.129512444677, -52539.65288873349, 24394.760953755493, 38544.44337420981, 21879.317984499692, 1733.757762164803, 28395.27617636635, 35949.96463656004, 24376.49957853551, -14607.736719576922, 2683.0587009261494, -0.002, 1.02, -0.088, 192.0, 0.0, 0.0, 0.0, 0.0, 0.0, 0.0, 0.0, 0.0, 0.0, 1.696015212077106E9, 0.0, 2023-09-29 14:20:12.077
48.0, 48272.88368617102, 37025.64233847169, 15546.711152399917, 19645.79756805868, 19735.89744995802, 15747.988611219957, -52353.73107835425, 24384.099171650312, 38541.06826079706, 21875.115856542096, 1729.0415440847332, 28413.33638588624, 35997.81972143886, 24368.318840064865, -14589.140068190107, 2702.2364976688027, -0.004, 1.02, -0.09, 192.0, 127.5, 112.0, 15.5, 112.0, 126.5, 24.0, 0.0, 0.0, 0.0, 1.696015212077132E9, 0.0, 2023-09-29 14:20:12.077
50.0, 48073.863753540965, 37000.295460259375, 15429.29743877619, 19559.855110628025, 19749.9119937315, 15762.673707327094, -52560.68588026594, 24396.59379680083, 38551.70769115778, 21884.503589213324, 1749.0016518833224, 28402.04875493631, 35963.55449718887, 24365.547223752408, -14599.958312506476, 2687.216125394836, -0.004, 1.02, -0.09, 192.0, 0.0, 0.0, 0.0, 0.0, 0.0, 0.0, 0.0, 0.0, 0.0, 1.696015212077151E9, 0.0, 2023-09-29 14:20:12.077
52.0, 48286.76411947777, 37021.99900412548, 15550.98033559088, 19643.69650407988, 19725.61564750858, 15735.583393047262, -52337.07902873505, 24369.659944732186, 38536.03911829461, 21876.56871993169, 1696.6091628800825, 28410.832990507246, 35984.49808174349, 24377.214834358077, -14585.049698954786, 2701.811814524152, -0.004, 1.02, -0.09, 192.0, 0.0, 0.0, 0.0, 0.0, 0.0, 0.0, 0.0, 0.0, 0.0, 1.69601521207716E9, 0.0, 2023-09-29 14:20:12.077
54.0, 48065.30303541458, 36995.80275962386, 15406.990397809792, 19537.838642339546, 19745.061665184698, 15760.997326492945, -52557.95896744239, 24392.101096165312, 38542.14114453091, 21873.99826931933, 1806.7362078113804, 28388.928280941043, 35946.32130221383, 24363.312049306878, -14611.402405667593, 2673.939189188384, -0.004, 1.02, -0.09, 192.0, 0.0, 0.0, 0.0, 0.0, 0.0, 0.0, 0.0, 0.0, 0.0, 1.696015212077169E9, 0.0, 2023-09-29 14:20:12.077
56.0, 48265.99934887879, 37029.39743154019, 15542.419617464499, 19647.22807970382, 19727.582601020647, 15745.172291418588, -52400.71444519931, 24375.761970968484, 38545.38214747693, 21875.451132708924, 1647.5247320562282, 28407.77080151687, 35979.558346218866, 24380.254671604, -14590.03413796832, 2702.9517534913725, -0.004, 1.02, -0.09, 192.0, 0.0, 0.0, 0.0, 0.0, 0.0, 0.0, 0.0, 0.0, 0.0, 1.696015212077179E9, 0.0, 2023-09-29 14:20:12.077
58.0, 48067.98524474922, 36994.81928286782, 15399.748432606273, 19532.317761459086, 19737.551479047714, 15757.286936913364, -52586.05511022271, 24381.34990708231, 38541.82822010854, 21872.411295463004, 1799.5165943523164, 28391.543435042317, 35950.36696796024, 24371.71630522207, -14613.145841735106, 2670.4076135644455, -0.004, 1.02, -0.09, 192.0, 0.0, 0.0, 15.5, 112.0, 126.5, 32.0, 0.0, 0.0, 0.0, 1.696015212077188E9, 0.0, 2023-09-29 14:20:12.077
60.0, 48250.531941715715, 37029.97857689602, 15544.654791910029, 19645.685809336403, 19734.71280750189, 15745.172291418588, -52453.66572781393, 24387.384878085242, 38543.124621286945, 21877.529844943267, 1593.701731407849, 28410.453010851506, 35980.13949157471, 24379.047677403414, -14589.341233890205, 2695.776843521219, -0.004, 1.02, -0.09, 192.0, 0.0, 0.0, 0.0, 0.0, 0.0, 0.0, 0.0, 0.0, 0.0, 1.696015212137495E9, 0.0, 2023-09-29 14:20:12.137
62.0, 48074.53430587463, 36998.52967244741, 15411.594857167585, 19531.267229469686, 19743.47469132837, 15763.098390471745, -52587.23975267885, 24393.01751768798, 38536.01676655016, 21865.973993059873, 1815.4086846600396, 28389.91175769708, 35958.21243026405, 24351.219755556554, -14605.32273117575, 2677.2695991122246, -0.004, 1.02, -0.09, 192.0, 0.0, 0.0, 0.0, 0.0, 0.0, 0.0, 0.0, 0.0, 0.0, 1.696015212137524E9, 0.0, 2023-09-29 14:20:12.137
64.0, 48242.44061022289, 37025.262358815955, 15546.957021588925, 19644.59057385809, 19725.883868442044, 15741.663067539104, -52466.00389075326, 24378.31006983639, 38545.62801666594, 21877.61925192109, 1567.0808037615782, 28404.932129971046, 35964.44856696708, 24376.43252330214, -14590.212951923962, 2697.5649830776433, -0.004, 1.02, -0.09, 192.0, 0.0, 0.0, 0.0, 0.0, 0.0, 0.0, 0.0, 0.0, 0.0, 1.696015212137533E9, 0.0, 2023-09-29 14:20:12.137
66.0, 48099.21063175328, 36986.683247886096, 15414.277066502222, 19530.082587013556, 19731.851784211613, 15754.336506645264, -52552.84041796213, 24378.712401236582, 38533.53572291562, 21861.481292424356, 1846.9469960864778, 28383.832083205234, 35963.84506986679, 24354.147834080202, -14613.056434757285, 2670.899351942462, -0.004, 1.02, -0.09, 192.0, 0.0, 0.0, 0.0, 0.0, 0.0, 0.0, 0.0, 0.0, 0.0, 1.696015212137542E9, 0.0, 2023-09-29 14:20:12.137
68.0, 48225.76620885923, 37012.00777435396, 15536.608163906118, 19637.013332487742, 19722.03936839573, 15732.185927890056, -52458.53840810519, 24365.748389452507, 38540.196542763304, 21868.835016350153, 1585.9009725929468, 28395.991432188923, 35957.22895350802, 24378.041848902925, -14602.37230090765, 2679.9294567024062, -0.004, 1.02, -0.09, 192.0, 0.0, 0.0, 15.5, 104.0, 126.5, 48.0, 0.0, 0.0, 0.0, 1.696015212137551E9, 0.0, 2023-09-29 14:20:12.137
70.0, 48116.42147498387, 36989.45486419855, 15425.072959074136, 19540.8114243521, 19732.76820573428, 15752.436608366563, -52506.84052787311, 24379.628822759252, 38526.137295500914, 21857.27916446676, 1881.7263104589356, 28389.75529548589, 35965.02971232292, 24359.86988066076, -14607.066167243263, 2672.91100894344, -0.004, 1.02, -0.09, 192.0, 0.0, 0.0, 0.0, 0.0, 0.0, 0.0, 0.0, 0.0, 0.0, 1.69601521213756E9, 0.0, 2023-09-29 14:20:12.137
72.0, 48184.50488859474, 37017.81922791234, 15514.636399106552, 19624.921038737422, 19724.229839352352, 15741.014866949901, -52510.70737966387, 24368.38589529823, 38544.95746433228, 21872.299536740727, 1584.2916469921647, 28399.835932235233, 35954.25617149546, 24364.653153974195, -14601.455879384981, 2678.7895177351857, -0.004, 1.02, -0.09, 192.0, 0.0, 0.0, 0.0, 0.0, 0.0, 0.0, 0.0, 0.0, 0.0, 1.696015212137569E9, 0.0, 2023-09-29 14:20:12.137
74.0, 48143.46708577479, 36996.96505033554, 15445.055418617181, 19549.841529112047, 19723.112252129587, 15744.524090829384, -52488.17682125293, 24370.889290677227, 38531.90404557038, 21858.307344711702, 1867.8011736632793, 28394.449161821507, 35963.912125100156, 24351.82325265685, -14607.960237021476, 2672.9780641768057, -0.004, 1.02, -0.09, 192.0, 0.0, 0.0, 0.0, 0.0, 0.0, 0.0, 0.0, 0.0, 0.0, 1.696015212137578E9, 0.0, 2023-09-29 14:20:12.137
76.0, 48158.35334758203, 37009.102047574765, 15492.39641337352, 19602.345776837563, 19722.195830606917, 15735.784558747358, -52523.649039703494, 24380.858168704293, 38540.755336374685, 21860.14018775704, 1614.2653363067313, 28381.976888415444, 35937.402956176156, 24347.934049121624, -14613.972856279954, 2667.904218185451, -0.004, 1.02, -0.09, 192.0, 0.0, 0.0, 0.0, 0.0, 0.0, 0.0, 0.0, 0.0, 0.0, 1.696015212196415E9, 0.0, 2023-09-29 14:20:12.196
78.0, 48174.26778963421, 36990.50539618795, 15459.181721112935, 19564.146645563444, 19719.513621272283, 15736.723332014482, -52452.32462314661, 24375.44904654611, 38529.73592635822, 21849.90308879651, 1881.4133860365614, 28385.888443695123, 35969.29889551388, 24348.91752587766, -14605.83682129822, 2670.251151353258, 0.002, 1.018, -0.088, 192.0, 0.0, 8.0, 15.5, 104.0, 126.5, 32.0, 0.0, 0.0, 0.0, 1.696015212196439E9, 0.0, 2023-09-29 14:20:12.196
80.0, 48122.098818075516, 37001.32364050432, 15473.822113731161, 19596.377861067995, 19728.789595221235, 15742.266564639398, -52571.39236586003, 24380.92522393766, 38545.31509224357, 21867.650373894023, 1635.2312726058094, 28381.820426204256, 35937.80528757635, 24366.95538365309, -14615.157498736084, 2663.2997588276576, 0.002, 1.018, -0.088, 192.0, 0.0, 0.0, 0.0, 0.0, 0.0, 0.0, 0.0, 0.0, 0.0, 1.69601521219645E9, 0.0, 2023-09-29 14:20:12.196
82.0, 48195.792519544666, 36996.94269859108, 15482.718108024374, 19583.68207021738, 19721.7040922289, 15739.897279727136, -52457.890207515986, 24372.34215406682, 38532.5969496485, 21855.200452232417, 1845.784705374802, 28395.075010666253, 35986.755607933475, 24352.918488135158, -14597.231399682929, 2683.7739567487192, 0.002, 1.018, -0.088, 192.0, 0.0, 0.0, 0.0, 0.0, 0.0, 0.0, 0.0, 0.0, 0.0, 1.696015212196503E9, 0.0, 2023-09-29 14:20:12.196
84.0, 48094.78498635114, 36998.46261721404, 15458.06413389017, 19578.49646550375, 19735.338656346637, 15747.228651908477, -52612.27370646879, 24384.07681990586, 38540.71063288577, 21862.04008603574, 1651.7715635027366, 28380.345211070206, 35937.71588059853, 24367.4024185422, -14612.005902767885, 2669.2453228527693, 0.002, 1.018, -0.088, 192.0, 0.0, 0.0, 0.0, 0.0, 0.0, 0.0, 0.0, 0.0, 0.0, 1.696015212196513E9, 0.0, 2023-09-29 14:20:12.196
86.0, 48203.66033359293, 37003.111780060746, 15496.442079119932, 19590.34289006506, 19718.351330560607, 15734.175233146578, -52462.31585291813, 24365.21194758558, 38531.30054847009, 21853.099388253617, 1816.0345335047882, 28393.42098157656, 35978.91014562966, 24353.611392213275, -14589.564751334758, 2687.841974239585, 0.002, 1.018, -0.088, 192.0, 0.0, 0.0, 0.0, 0.0, 0.0, 0.0, 0.0, 0.0, 0.0, 1.696015212196522E9, 0.0, 2023-09-29 14:20:12.196
88.0, 48066.51002961517, 36994.41695146763, 15445.167177339457, 19555.094189059044, 19736.09861565812, 15744.099407684733, -52642.090933572166, 24387.809561229893, 38541.872923597446, 21857.480330166858, 1674.1009562135885, 28372.164472599565, 35931.12211598422, 24340.177993795634, -14611.312998689771, 2661.7574884602413, 0.002, 1.018, -0.088, 192.0, 0.0, 0.0, 15.5, 104.0, 126.5, 16.0, 0.0, 0.0, 0.0, 1.696015212196531E9, 0.0, 2023-09-29 14:20:12.196
90.0, 48238.95373808787, 37007.06803882933, 15520.02316952028, 19597.98718666878, 19714.395071792016, 15723.468747552484, -52421.85919545403, 24363.826139429348, 38525.28792921161, 21843.734007326842, 1808.7925683012688, 28387.631879762637, 35977.5913927068, 24337.741653650006, -14589.229475167927, 2682.254038125758, 0.002, 1.018, -0.088, 192.0, 0.0, 0.0, 0.0, 0.0, 0.0, 0.0, 0.0, 0.0, 0.0, 1.696015212257765E9, 0.0, 2023-09-29 14:20:12.257
92.0, 48057.09994519949, 36998.79789338087, 15426.838746886106, 19544.186537764854, 19740.39015059354, 15749.888509498658, -52627.74111363186, 24378.466532047576, 38540.598874163494, 21857.122702255572, 1755.237788586353, 28373.773798200345, 35931.949130529065, 24344.849508386793, -14618.46555691547, 2649.709898198831, 0.002, 1.018, -0.088, 192.0, 0.0, 0.0, 0.0, 0.0, 0.0, 0.0, 0.0, 0.0, 0.0, 1.696015212257789E9, 0.0, 2023-09-29 14:20:12.257
94.0, 48252.54359871669, 37026.447001272085, 15532.294277226243, 19620.204820657353, 19719.200696849908, 15741.797178005836, -52413.969029661304, 24380.120561137268, 38537.536685173116, 21861.481292424356, 1798.2425449183638, 28395.969080444465, 35990.77892193543, 24357.277078303945, -14583.909759987566, 2681.6281892810093, 0.002, 1.018, -0.088, 192.0, 0.0, 0.0, 0.0, 0.0, 0.0, 0.0, 0.0, 0.0, 0.0, 1.696015212257803E9, 0.0, 2023-09-29 14:20:12.257
96.0, 48047.086363683506, 37002.731800405, 15422.234287528312, 19542.465453441793, 19731.58356327815, 15752.101332199734, -52632.25616601184, 24376.946613424614, 38554.90399061489, 21871.584280918156, 1800.433015874984, 28381.351039570694, 35950.344616215785, 24378.31006983639, -14604.205143952984, 2661.6010262490545, 0.002, 1.018, -0.088, 192.0, 0.0, 0.0, 0.0, 0.0, 0.0, 0.0, 0.0, 0.0, 0.0, 1.696015212257814E9, 0.0, 2023-09-29 14:20:12.257
98.0, 48251.26954928274, 37022.02135586993, 15548.164015789513, 19630.01723647323, 19716.89846717101, 15728.475538310473, -52444.23329165379, 24363.91554640717, 38546.47738295524, 21865.549309915223, 1753.4720007743838, 28402.115810169675, 35993.77405569244, 24369.458779032087, -14584.446201854493, 2683.4163288374343, -0.004, 1.016, -0.096, 192.0, 127.5, 112.0, 15.5, 96.0, 126.5, 0.0, 0.0, 0.0, 0.0, 1.696015212257824E9, 0.0, 2023-09-29 14:20:12.257
100.0, 48045.81231424955, 36992.00296306646, 15419.507374704765, 19531.937781803346, 19726.912048686987, 15739.651410538127, -52638.15702654803, 24375.985488413036, 38540.77768811914, 21858.79908308972, 1831.6807546235032, 28376.545414512806, 35946.276598724915, 24349.67748518914, -14610.575391122746, 2650.8945406549624, -0.004, 1.016, -0.096, 192.0, 0.0, 0.0, 0.0, 0.0, 0.0, 0.0, 0.0, 0.0, 0.0, 1.696015212257833E9, 0.0, 2023-09-29 14:20:12.257
102.0, 48247.29093876969, 37026.64816697218, 15553.684896669973, 19634.9346202534, 19720.09476662812, 15730.800119733825, -52461.62294884002, 24365.882499919237, 38540.755336374685, 21864.27526048127, 1719.698514902415, 28401.981699702945, 35979.51364272996, 24356.852395159294, -14591.308187402272, 2673.9615409328394, -0.004, 1.016, -0.096, 192.0, 0.0, 0.0, 0.0, 0.0, 0.0, 0.0, 0.0, 0.0, 0.0, 1.696015212257842E9, 0.0, 2023-09-29 14:20:12.257
104.0, 48043.375974103925, 36988.829015353804, 15411.304284489666, 19530.015531780187, 19732.52233654527, 15749.508529842919, -52649.914044131525, 24386.021421673468, 38540.24124625221, 21860.296649968226, 1860.9838916044107, 28382.356868071183, 35951.81983134983, 24346.05650258738, -14606.753242820889, 2662.2715785827136, -0.004, 1.016, -0.096, 192.0, 0.0, 0.0, 0.0, 0.0, 0.0, 0.0, 0.0, 0.0, 0.0, 1.69601521225788E9, 0.0, 2023-09-29 14:20:12.257
106.0, 48226.43676119289, 37015.56170172235, 15548.968678589903, 19645.50699538076, 19723.022845151765, 15735.851613980725, -52519.58102221263, 24376.767799468973, 38545.18098177684, 21870.623155906578, 1665.9425694874012, 28397.466647322974, 35970.684703670115, 24357.96998238206, -14584.781478021323, 2693.9440004758835, -0.004, 1.016, -0.096, 192.0, 0.0, 0.0, 0.0, 0.0, 0.0, 0.0, 0.0, 0.0, 0.0, 1.696015212316868E9, 0.0, 2023-09-29 14:20:12.316
108.0, 48043.375974103925, 36983.174024006614, 15414.299418246677, 19531.378988191962, 19723.425176551962, 15741.26073613891, -52658.65357621355, 24369.88346217674, 38533.49101942671, 21852.786463831242, 1862.168534060542, 28372.633859233127, 35956.133718029705, 24355.176014325145, -14600.450050884492, 2670.7875932201855, -0.008, 1.014, -0.098, 192.0, 127.5, 96.0, 15.5, 88.0, 126.0, 120.0, 0.0, 0.0, 0.0, 1.6960152123169E9, 0.0, 2023-09-29 14:20:12.316
110.0, 48210.14233948498, 37026.51405650545, 15541.614954664106, 19632.967666741333, 19720.206525350397, 15726.530936542862, -52524.230185059336, 24371.001049399503, 38536.48615318372, 21851.46771090838, 1656.9348164719127, 28379.540548269815, 35962.16868903264, 24350.19157531161, -14591.934036247021, 2676.867267712029, -0.008, 1.014, -0.098, 192.0, 0.0, 0.0, 0.0, 0.0, 0.0, 0.0, 0.0, 0.0, 0.0, 1.696015212316911E9, 0.0, 2023-09-29 14:20:12.316
112.0, 48056.92113124384, 37002.77650389392, 15407.728005376817, 19523.019435765676, 19737.260906369796, 15743.406503606619, -52653.11034358863, 24379.047677403414, 38543.3481387315, 21855.28985921024, 1894.42210130955, 28373.639687733616, 35959.10650004226, 24351.420921256653, -14600.427699140037, 2659.768183203719, -0.008, 1.014, -0.098, 192.0, 0.0, 0.0, 0.0, 0.0, 0.0, 0.0, 0.0, 0.0, 0.0, 1.696015212316921E9, 0.0, 2023-09-29 14:20:12.316
114.0, 48203.50387138175, 37033.10782111977, 15542.330210486676, 19630.732492295803, 19731.874135956066, 15728.45318656602, -52580.60128457562, 24367.558880753386, 38560.93896161782, 21873.215958263394, 1609.213842059832, 28397.421943834062, 35969.05302632487, 24359.288735304923, -14582.635710553612, 2676.2637706117357, -0.008, 1.014, -0.098, 192.0, 0.0, 0.0, 0.0, 0.0, 0.0, 0.0, 0.0, 0.0, 0.0, 1.69601521231693E9, 0.0, 2023-09-29 14:20:12.316
116.0, 48095.00850379569, 36999.69196315908, 15433.72308417834, 19538.7103603733, 19733.37170283457, 15738.802044248825, -52626.26589849781, 24380.992279171023, 38538.67662414034, 21853.18879523144, 1902.558136291282, 28383.00506866039, 35968.293067013394, 24343.3966449972, -14594.057451970275, 2661.779840204697, -0.008, 1.014, -0.098, 192.0, 0.0, 0.0, 0.0, 0.0, 0.0, 0.0, 0.0, 0.0, 0.0, 1.696015212316938E9, 0.0, 2023-09-29 14:20:12.316
118.0, 48187.23180141828, 37029.62094898474, 15537.144605773045, 19644.434111646904, 19735.47276681337, 15732.990590690446, -52604.91998254299, 24375.002011657, 38552.422946980354, 21874.7135251419, 1609.4597112488404, 28394.359754843685, 35957.51952618593, 24369.1011511208, -14586.45785885547, 2673.000415921261, -0.008, 1.014, -0.106, 192.0, 127.5, 96.0, 15.5, 88.0, 126.0, 88.0, 0.0, 0.0, 0.0, 1.696015212316947E9, 0.0, 2023-09-29 14:20:12.316
120.0, 48131.84417865803, 36998.70848640305, 15451.87270067605, 19561.710305417815, 19718.57484800516, 15733.392922090641, -52569.26895013678, 24365.658982474684, 38527.52310365714, 21849.52310914077, 1929.8272645267564, 28386.357830328685, 35964.06858731134, 24348.314028777368, -14591.26348391336, 2669.7817647196966, -0.008, 1.014, -0.106, 192.0, 0.0, 0.0, 0.0, 0.0, 0.0, 0.0, 0.0, 0.0, 0.0, 1.696015212377245E9, 0.0, 2023-09-29 14:20:12.377
122.0, 48153.503019035226, 37035.43240254312, 15514.323474684177, 19623.289361392184, 19726.308551586695, 15742.937116973057, -52623.4719304409, 24383.607433272296, 38555.66394992638, 21870.42199020648, 1642.6744035094266, 28391.99046993142, 35950.72459587152, 24361.523909750453, -14597.924303761043, 2669.0218054082166, -0.008, 1.014, -0.106, 192.0, 0.0, 0.0, 0.0, 0.0, 0.0, 0.0, 0.0, 0.0, 0.0, 1.69601521237728E9, 0.0, 2023-09-29 14:20:12.377
124.0, 48152.519542279195, 37008.78912315239, 15466.356631083088, 19566.0688955866, 19725.481537041847, 15739.87492798268, -52562.474019822366, 24378.980622170046, 38535.659138638875, 21855.80394933271, 1921.1771394225527, 28390.38114433064, 35974.41744499415, 24348.269325288456, -14590.570579835246, 2676.19671537837, -0.008, 1.014, -0.106, 192.0, 0.0, 0.0, 0.0, 0.0, 0.0, 0.0, 0.0, 0.0, 0.0, 1.696015212377294E9, 0.0, 2023-09-29 14:20:12.377
126.0, 48128.44671350082, 37025.01648962695, 15504.756928057306, 19610.995901941766, 19731.784728978244, 15739.405541349119, -52654.406744767046, 24381.26050010449, 38551.97591209125, 21872.70186814092, 1654.6549385374713, 28390.62701351965, 35942.8344300788, 24368.899985420703, -14596.337329904716, 2672.0616426541383, -0.008, 1.014, -0.106, 192.0, 0.0, 0.0, 0.0, 0.0, 0.0, 0.0, 0.0, 0.0, 0.0, 1.696015212377338E9, 0.0, 2023-09-29 14:20:12.377
128.0, 48166.89171396395, 37018.78035292392, 15494.273959907767, 19588.219474341808, 19726.86734519808, 15744.367628618198, -52566.43027859095, 24387.34017459633, 38540.688281141316, 21862.84474883613, 1889.169441362553, 28400.305318868795, 35982.03938985341, 24370.419904043665, -14583.46272509846, 2682.7904799926855, -0.006, 1.018, -0.1, 192.0, 127.5, 104.0, 15.5, 104.0, 126.0, 112.0, 0.0, 0.0, 0.0, 1.696015212377349E9, 0.0, 2023-09-29 14:20:12.377
130.0, 48091.678093871844, 37020.41203026915, 15485.802648759205, 19602.099907648553, 19733.729330745857, 15740.50077682743, -52704.876983747126, 24390.938805453636, 38556.04392958211, 21874.311193741705, 1659.304101384175, 28391.409324575583, 35944.331996957306, 24375.113770379277, -14596.516143860359, 2664.7973257061635, -0.006, 1.018, -0.1, 192.0, 0.0, 0.0, 0.0, 0.0, 0.0, 0.0, 0.0, 0.0, 0.0, 1.696015212377359E9, 0.0, 2023-09-29 14:20:12.377
132.0, 48195.16667069992, 37017.0369168564, 15497.313797153689, 19596.06493664562, 19710.99760663481, 15726.218012120487, -52552.952176684405, 24369.39172379872, 38536.64261539491, 21858.5085104118, 1857.7205369139358, 28394.695031010513, 35983.604011965275, 24360.987467883526, -14590.928207746532, 2671.9945874207724, -0.006, 1.018, -0.1, 192.0, 0.0, 0.0, 0.0, 0.0, 0.0, 0.0, 0.0, 0.0, 0.0, 1.696015212377368E9, 0.0, 2023-09-29 14:20:12.377
134.0, 48079.22817221024, 37007.55977720735, 15459.449942046398, 19579.30112830414, 19720.340635817127, 15731.783596489859, -52704.49700409138, 24380.79111347093, 38549.8971998569, 21861.302478468715, 1702.4206164384625, 28368.208213830974, 35943.19205799008, 24372.945651167116, -14617.593838881712, 2639.6963166828536, -0.006, 1.018, -0.1, 192.0, 0.0, 0.0, 0.0, 0.0, 0.0, 0.0, 0.0, 0.0, 0.0, 1.696015212377377E9, 0.0, 2023-09-29 14:20:12.377
136.0, 48212.66808660842, 37004.40818123915, 15515.753986329317, 19607.01729142872, 19714.439775280927, 15727.380302832164, -52525.21366181537, 24374.040886645424, 38536.93318807283, 21839.442472391424, 1857.9664061029443, 28373.95261215599, 35987.537918989416, 24361.658020217183, -14590.704690301978, 2665.691395484376, -0.006, 1.018, -0.1, 192.0, 0.0, 0.0, 0.0, 0.0, 0.0, 0.0, 0.0, 0.0, 0.0, 1.69601521243744E9, 0.0, 2023-09-29 14:20:12.437
138.0, 48043.21951189274, 36992.807625866844, 15438.886337147516, 19558.379895493974, 19735.09278715763, 15743.272393139887, -52742.338507454224, 24396.191465400632, 38550.38893823492, 21851.959449286398, 1737.1999308109203, 28351.533812467318, 35941.180400989106, 24351.242107301012, -14607.334388176727, 2638.042287593161, -0.004, 1.022, -0.098, 192.0, 127.5, 112.0, 15.5, 120.0, 126.0, 120.0, 0.0, 0.0, 0.0, 1.696015212437472E9, 0.0, 2023-09-29 14:20:12.437
140.0, 48234.90807234145, 37009.884358630705, 15542.441969208952, 19626.88799224949, 19719.647731739013, 15728.587297032751, -52547.02896440375, 24386.96019494059, 38544.465725954266, 21852.13826324204, 1789.5477163252494, 28376.210138345974, 35995.87511967124, 24376.544282024417, -14576.64544303959, 2669.4688402973225, -0.004, 1.022, -0.098, 192.0, 0.0, 0.0, 0.0, 0.0, 0.0, 0.0, 0.0, 0.0, 0.0, 1.696015212437482E9, 0.0, 2023-09-29 14:20:12.437
142.0, 48059.64804406739, 36999.982535837, 15448.341125052111, 19561.889119373456, 19737.417368580984, 15749.910861243114, -52743.34433595471, 24399.49952358002, 38554.99339759271, 21863.694115125432, 1770.884009705068, 28364.766045184857, 35946.18719174709, 24377.706572736093, -14597.36551014966, 2642.065601595116, -0.004, 1.022, -0.098, 192.0, 0.0, 0.0, 0.0, 0.0, 0.0, 0.0, 0.0, 0.0, 0.0, 1.696015212437491E9, 0.0, 2023-09-29 14:20:12.437
144.0, 48270.13442160302, 37025.552931493876, 15563.229091552388, 19646.110492481053, 19711.981083390845, 15727.53676504335, -52534.4002287865, 24375.851377946303, 38554.43460398133, 21871.22665300687, 1773.0297771727774, 28395.611452533183, 36001.32894531834, 24374.845549445814, -14569.336422602704, 2670.00528216425, -0.004, 1.022, -0.098, 192.0, 0.0, 0.0, 0.0, 0.0, 0.0, 0.0, 0.0, 0.0, 0.0, 1.6960152124375E9, 0.0, 2023-09-29 14:20:12.437
146.0, 48069.03577673862, 37002.41887598263, 15432.225517299834, 19551.808482624114, 19727.00145566481, 15742.423026850585, -52744.52897841084, 24382.892177449725, 38559.01671159467, 21873.350068730124, 1819.655516106548, 28377.32772556874, 35953.25034299497, 24374.912604679183, -14593.65512057008, 2639.361040516024, -0.004, 1.022, -0.098, 192.0, 0.0, 0.0, 0.0, 0.0, 0.0, 0.0, 0.0, 0.0, 0.0, 1.696015212437509E9, 0.0, 2023-09-29 14:20:12.437
148.0, 48289.6474945125, 37016.92515813412, 15564.369030519609, 19653.285402451205, 19706.974292632854, 15719.601895761716, -52520.72096117985, 24369.659944732186, 38546.61149342197, 21870.354934973115, 1755.7518787088252, 28394.113885654675, 35994.60107023729, 24377.90773843619, -14573.225626137928, 2667.5242385297106, -0.006, 1.018, -0.1, 192.0, 127.5, 104.0, 15.5, 104.0, 126.0, 112.0, 0.0, 0.0, 0.0, 1.696015212437519E9, 0.0, 2023-09-29 14:20:12.437
150.0, 48071.203895950784, 36984.93981181858, 15410.276104244722, 19539.58207840706, 19727.895525443022, 15741.953640217023, -52733.55427188329, 24386.893139707227, 38546.61149342197, 21868.38798146105, 1873.456165010472, 28363.916678895555, 35954.47968894002, 24363.379104540243, -14602.439356141014, 2636.4776654812895, -0.006, 1.018, -0.1, 192.0, 0.0, 0.0, 0.0, 0.0, 0.0, 0.0, 0.0, 0.0, 0.0, 1.696015212498292E9, 0.0, 2023-09-29 14:20:12.498
152.0, 48280.75150021929, 37020.859065158256, 15554.623669937095, 19652.704257095367, 19717.56901950467, 15720.898296940124, -52549.42060106047, 24369.63759298773, 38543.839877109516, 21867.60567040511, 1720.7713986362696, 28377.886519180123, 35990.398942279695, 24370.77753195495, -14581.674585542034, 2658.1141541140264, -0.006, 1.018, -0.1, 192.0, 0.0, 0.0, 0.0, 0.0, 0.0, 0.0, 0.0, 0.0, 0.0, 1.696015212498314E9, 0.0, 2023-09-29 14:20:12.498
154.0, 48082.31271294507, 36975.619134380715, 15407.951522821371, 19535.312895216095, 19722.262885840286, 15727.581468532262, -52706.441605859, 24374.264404089976, 38535.70384212778, 21855.60278363261, 1906.2238223819522, 28352.33847526771, 35961.74400588799, 24348.91752587766, -14606.663835843068, 2623.04426706365, -0.006, 1.018, -0.1, 192.0, 0.0, 0.0, 0.0, 0.0, 0.0, 0.0, 0.0, 0.0, 0.0, 1.696015212498323E9, 0.0, 2023-09-29 14:20:12.498
156.0, 48259.78556392021, 37014.31000403285, 15540.720884885895, 19643.025951746222, 19712.47282176886, 15712.739910213937, -52579.01431071929, 24358.975810882548, 38537.4472781953, 21868.075057038674, 1696.117424502066, 28373.170301100054, 35969.902392614174, 24367.02243888646, -14595.59972233769, 2634.1754358023927, -0.006, 1.018, -0.1, 192.0, 0.0, 0.0, 0.0, 0.0, 0.0, 0.0, 0.0, 0.0, 0.0, 1.696015212498332E9, 0.0, 2023-09-29 14:20:12.498
158.0, 48086.581896136035, 36985.766826363426, 15406.3869007095, 19524.829927066556, 19725.928571930956, 15733.705846513016, -52713.99649548489, 24376.544282024417, 38530.98762404772, 21854.440492920934, 1922.071209200765, 28360.586268971714, 35968.20366003557, 24353.074950346345, -14608.854306799687, 2619.6244501619876, -0.006, 1.018, -0.098, 192.0, 127.5, 104.0, 15.5, 104.0, 126.0, 120.0, 0.0, 0.0, 0.0, 1.696015212498341E9, 0.0, 2023-09-29 14:20:12.498
160.0, 48243.49114221229, 37014.66763194414, 15542.84430060915, 19638.46619587734, 19714.32801655865, 15718.014921905391, -52606.97634303288, 24364.988430141024, 38539.03425205163, 21862.28595522475, 1671.4634503678622, 28373.617335989158, 35982.19585206459, 24360.406322527688, -14592.783402536323, 2637.036459092672, -0.006, 1.018, -0.098, 192.0, 0.0, 0.0, 0.0, 0.0, 0.0, 0.0, 0.0, 0.0, 0.0, 1.69601521249835E9, 0.0, 2023-09-29 14:20:12.498
162.0, 48097.93658231933, 36986.79500660837, 15421.139052050003, 19532.20600273681, 19728.029635909752, 15740.009038449412, -52713.63886757361, 24389.329479852855, 38531.97110080375, 21844.851594549607, 1937.739782063935, 28358.641667204105, 35975.60208745028, 24339.216868784057, -14601.41117589607, 2624.0500955641387, -0.006, 1.018, -0.098, 192.0, 0.0, 0.0, 0.0, 0.0, 0.0, 0.0, 0.0, 0.0, 0.0, 1.696015212498359E9, 0.0, 2023-09-29 14:20:12.498
164.0, 48224.60391814756, 37025.06119311586, 15543.73837038736, 19637.46036737685, 19722.933438173943, 15730.934230200557, -52677.317282833734, 24381.14874138221, 38551.21595277977, 21869.03618205025, 1633.1749121159212, 28378.020629646857, 35970.8411658813, 24378.39947681421, -14582.74746927589, 2638.936357371373, -0.006, 1.018, -0.098, 192.0, 0.0, 0.0, 0.0, 0.0, 0.0, 0.0, 0.0, 0.0, 0.0, 1.696015212498368E9, 0.0, 2023-09-29 14:20:12.498
166.0, 48137.29800430513, 36998.216748025035, 15438.126377836035, 19541.526680174673, 19725.973275419867, 15739.494948326941, -52721.1937571995, 24383.741543739026, 38536.262635739164, 21858.106179011607, 1917.6455637986141, 28370.890423165612, 35980.72063693054, 24353.63374395773, -14590.592931579702, 2628.296927010647, -0.006, 1.018, -0.098, 192.0, 0.0, 0.0, 0.0, 0.0, 0.0, 0.0, 0.0, 0.0, 0.0, 1.696015212556591E9, 0.0, 2023-09-29 14:20:12.556
168.0, 48201.35810391404, 37024.54710299338, 15515.955152029414, 19620.584800313092, 19712.875153169054, 15719.333674828253, -52722.73602756692, 24366.240127830522, 38547.84083936702, 21864.766998859286, 1619.4509410203625, 28377.126559868644, 35959.911162842654, 24361.546261494907, -14592.805754280776, 2628.587499688566, -0.01, 1.02, -0.098, 192.0, 127.5, 88.0, 15.5, 112.0, 126.0, 120.0, 0.0, 0.0, 0.0, 1.696015212556612E9, 0.0, 2023-09-29 14:20:12.556
170.0, 48168.41163258692, 36991.44416945508, 15452.364439054065, 19548.232203511263, 19705.744946687813, 15719.847764950726, -52676.982006666905, 24365.502520263497, 38530.85351358098, 21843.80106256021, 1915.9915347089213, 28371.069237121254, 35981.16767181965, 24345.43065374263, -14599.734795061922, 2620.5855751735658, -0.01, 1.02, -0.098, 192.0, 0.0, 0.0, 0.0, 0.0, 0.0, 0.0, 0.0, 0.0, 0.0, 1.696015212556623E9, 0.0, 2023-09-29 14:20:12.556
172.0, 48158.0180714152, 37004.72110566153, 15501.046538477725, 19598.523628535706, 19718.150164860508, 15722.73113998546, -52759.616405918176, 24371.53749126643, 38553.16055454738, 21862.889452325042, 1643.0990866540774, 28369.19169058701, 35955.95490407406, 24356.070084103358, -14608.295513188305, 2619.4679879508008, -0.01, 1.02, -0.098, 192.0, 0.0, 0.0, 0.0, 0.0, 0.0, 0.0, 0.0, 0.0, 0.0, 1.696015212556665E9, 0.0, 2023-09-29 14:20:12.556
174.0, 48180.32511238159, 36981.564698405826, 15472.25749161929, 19555.228299525774, 19710.23764732333, 15722.68643649655, -52672.86928568713, 24363.91554640717, 38530.562940903066, 21842.75053057081, 1908.4813485719383, 28372.61150748867, 35980.45241599708, 24342.3461130078, -14594.437431626015, 2629.0121828332167, -0.01, 1.02, -0.098, 192.0, 0.0, 0.0, 0.0, 0.0, 0.0, 0.0, 0.0, 0.0, 0.0, 1.696015212556674E9, 0.0, 2023-09-29 14:20:12.556
176.0, 48118.50018721822, 36993.299364244864, 15480.97467195686, 19579.39053528196, 19721.927609673454, 15726.083901653756, -52809.170223375586, 24371.693953477617, 38549.137240545424, 21860.833091835153, 1656.9795199608232, 28369.348152798197, 35951.037520293896, 24370.889290677227, -14605.970931764954, 2615.511729182211, -0.01, 1.02, -0.098, 192.0, 0.0, 0.0, 0.0, 0.0, 0.0, 0.0, 0.0, 0.0, 0.0, 1.696015212556683E9, 0.0, 2023-09-29 14:20:12.556
178.0, 48208.7788830732, 36981.631753639194, 15495.838582019638, 19579.189369581865, 19714.775051447756, 15717.545535271829, -52672.04227114228, 24360.763950438974, 38532.55224615958, 21844.583373616144, 1859.9780631039218, 28378.065333135764, 35983.35814277627, 24351.487976490018, -14587.843667011699, 2627.268746765703, -0.004, 1.02, -0.098, 192.0, 127.5, 112.0, 15.5, 112.0, 126.0, 120.0, 0.0, 0.0, 0.0, 1.696015212556692E9, 0.0, 2023-09-29 14:20:12.556
180.0, 48097.780120108146, 36977.161404748134, 15463.272090348255, 19571.120389833497, 19721.882906184543, 15725.323942342275, -52835.83585451077, 24374.934956423636, 38544.82335386555, 21853.032333020252, 1678.7054155713815, 28361.547393983295, 35940.42044167763, 24363.446159773608, -14605.702710831489, 2609.096778523538, -0.004, 1.02, -0.098, 192.0, 0.0, 0.0, 0.0, 0.0, 0.0, 0.0, 0.0, 0.0, 0.0, 1.696015212616923E9, 0.0, 2023-09-29 14:20:12.616
182.0, 48222.61461289103, 36975.46267216953, 15512.758852572306, 19593.695651733356, 19709.18711533393, 15717.545535271829, -52659.19001808048, 24365.077837118846, 38523.05275476608, 21829.31713215317, 1840.6438041500812, 28364.006085873378, 35988.007305622974, 24343.553107208387, -14590.771745535345, 2625.23473802027, -0.004, 1.02, -0.098, 192.0, 0.0, 0.0, 0.0, 0.0, 0.0, 0.0, 0.0, 0.0, 0.0, 1.696015212616957E9, 0.0, 2023-09-29 14:20:12.616
184.0, 48073.95316051879, 36978.05547452634, 15454.286689077222, 19556.59175593755, 19725.74975797531, 15732.677666268071, -52838.674526056595, 24382.802770471906, 38534.452144438284, 21840.18007995845, 1717.0610090566886, 28350.32681826673, 35943.01324403444, 24349.208098555577, -14606.08269048723, 2602.257144720214, -0.004, 1.02, -0.098, 192.0, 0.0, 0.0, 0.0, 0.0, 0.0, 0.0, 0.0, 0.0, 0.0, 1.696015212616968E9, 0.0, 2023-09-29 14:20:12.616
186.0, 48238.6855171544, 36995.31102124584, 15526.728692856872, 19598.054241902144, 19713.791574691724, 15718.014921905391, -52641.3756777496, 24360.58513648333, 38518.24712970819, 21831.440547876424, 1824.0364580197881, 28371.449216776993, 35977.457282240066, 24336.95934259407, -14583.529780331824, 2628.7216101552976, -0.004, 1.02, -0.098, 192.0, 0.0, 0.0, 0.0, 0.0, 0.0, 0.0, 0.0, 0.0, 0.0, 1.696015212616976E9, 0.0, 2023-09-29 14:20:12.616
188.0, 48047.55575031707, 36964.867945297716, 15431.353799266077, 19530.9096015584, 19734.533993546247, 15729.123738899678, -52857.98643326598, 24379.226491359055, 38530.9429205588, 21842.45995789289, 1750.3204048061855, 28351.198536300486, 35929.423383405614, 24358.1487963377, -14604.31690267526, 2598.1220719959824, -0.004, 1.018, -0.10200000000000001, 192.0, 127.5, 112.0, 15.5, 104.0, 126.0, 104.0, 0.0, 0.0, 0.0, 1.696015212616985E9, 0.0, 2023-09-29 14:20:12.616
190.0, 48230.08009553911, 36965.82907030929, 15532.562498159707, 19596.623730257004, 19702.302778041696, 15700.021767618868, -52658.49711400236, 24348.448139244098, 38516.68250759632, 21807.7476987538, 1763.5079340348166, 28357.85935614817, 35971.578773448324, 24347.755235165983, -14578.545341318291, 2619.3338774840686, -0.004, 1.018, -0.10200000000000001, 192.0, 0.0, 0.0, 0.0, 0.0, 0.0, 0.0, 0.0, 0.0, 0.0, 1.696015212616995E9, 0.0, 2023-09-29 14:20:12.616
192.0, 48018.20790984725, 36935.81067750581, 15403.101194274568, 19512.268246682674, 19723.33576957414, 15720.339503328742, -52873.31972996232, 24369.570537754364, 38513.687373839304, 21799.008166671774, 1781.4116813435176, 28324.59996039867, 35916.25820592144, 24331.170240780146, -14614.933981291531, 2581.6041328435103, -0.004, 1.018, -0.10200000000000001, 192.0, 0.0, 0.0, 0.0, 0.0, 0.0, 0.0, 0.0, 0.0, 0.0, 1.696015212617004E9, 0.0, 2023-09-29 14:20:12.617
194.0, 48205.11319698253, 36937.82233450679, 15526.16989924549, 19598.50127679125, 19709.880019412045, 15706.995511888923, -52695.95863770946, 24361.143930094713, 38514.38027791742, 21787.78759095521, 1714.401151466507, 28342.727225151924, 35972.852822882276, 24330.00795006847, -14585.630844310625, 2616.7187233827976, -0.004, 1.018, -0.10200000000000001, 192.0, 0.0, 0.0, 0.0, 0.0, 0.0, 0.0, 0.0, 0.0, 0.0, 1.696015212617044E9, 0.0, 2023-09-29 14:20:12.617
196.0, 47993.1292525684, 36887.06152284879, 15400.91072331795, 19504.311025656585, 19713.724519458356, 15716.338541071242, -52891.93873309359, 24368.855281931792, 38507.1383127139, 21776.92464314993, 1787.5360593242717, 28316.866256817135, 35933.93843578559, 24324.53177267692, -14608.407271910582, 2590.3436649255354, -0.004, 1.018, -0.10200000000000001, 192.0, 0.0, 0.0, 0.0, 0.0, 0.0, 0.0, 0.0, 0.0, 0.0, 1.696015212677191E9, 0.0, 2023-09-29 14:20:12.677
198.0, 48180.01218795922, 36904.451180035016, 15524.627628878074, 19599.909436691934, 19701.6992809414, 15701.809907175293, -52721.61844034415, 24350.705665434085, 38497.21413817575, 21770.867320402544, 1671.374043390041, 28325.42697494352, 35955.21729650704, 24324.19649651009, -14596.426736882537, 2607.8227290895857, -0.006, 1.02, -0.10400000000000001, 192.0, 127.5, 104.0, 15.5, 112.0, 126.0, 96.0, 0.0, 0.0, 0.0, 1.696015212677213E9, 0.0, 2023-09-29 14:20:12.677
200.0, 47973.57147617001, 36870.275362762855, 15396.216856982335, 19495.77265927466, 19721.257057339797, 15721.010055662402, -52917.17385258363, 24375.24788084601, 38500.343382399486, 21773.41541927045, 1795.2250594168972, 28307.590282868183, 35933.558456129846, 24321.916618575648, -14612.140013234617, 2588.823746302575, -0.006, 1.02, -0.10400000000000001, 192.0, 0.0, 0.0, 0.0, 0.0, 0.0, 0.0, 0.0, 0.0, 0.0, 1.696015212677222E9, 0.0, 2023-09-29 14:20:12.677
202.0, 48165.32709185209, 36900.58432824425, 15538.753931373827, 19610.861791475036, 19712.271656068762, 15704.894447910125, -52762.052746063804, 24363.803787684894, 38497.258841664654, 21766.352268022572, 1612.1866240723878, 28314.94400679398, 35958.68181689761, 24340.356807751275, -14589.02830946783, 2612.1813192583704, -0.006, 1.02, -0.10400000000000001, 192.0, 0.0, 0.0, 0.0, 0.0, 0.0, 0.0, 0.0, 0.0, 0.0, 1.696015212677231E9, 0.0, 2023-09-29 14:20:12.677
204.0, 47995.073854336006, 36870.342417996224, 15400.642502384486, 19496.219694163763, 19709.14241184502, 15714.483346281451, -52883.86975334523, 24366.083665619335, 38487.60288805996, 21756.852776629064, 1831.6136993901373, 28295.095657717666, 35940.331034699804, 24334.72416814854, -14601.299417173794, 2589.851926547519, -0.006, 1.02, -0.10400000000000001, 192.0, 0.0, 0.0, 0.0, 0.0, 0.0, 0.0, 0.0, 0.0, 0.0, 1.69601521267724E9, 0.0, 2023-09-29 14:20:12.677
206.0, 48164.477725562785, 36913.615395261695, 15524.091187011147, 19597.182523868385, 19702.66040595298, 15702.033424619845, -52750.83217034724, 24355.66775270316, 38488.675771793816, 21767.961593623353, 1619.5403479981837, 28308.104372990656, 35938.811116076846, 24331.125537291235, -14605.434489898025, 2596.713912095298, -0.006, 1.02, -0.10400000000000001, 192.0, 0.0, 0.0, 0.0, 0.0, 0.0, 0.0, 0.0, 0.0, 0.0, 1.696015212677249E9, 0.0, 2023-09-29 14:20:12.677
208.0, 48009.960116143244, 36891.531871739855, 15394.33931044809, 19492.174028417354, 19716.004397392797, 15722.664084752094, -52881.05343354386, 24370.53166276594, 38498.2870219096, 21774.64476521549, 1856.491190968894, 28310.898341047567, 35933.46904915202, 24326.945761078092, -14609.7483765779, 2586.6332753459546, -0.004, 1.022, -0.096, 192.0, 127.5, 112.0, 15.5, 120.0, 126.5, 0.0, 0.0, 0.0, 0.0, 1.696015212677258E9, 0.0, 2023-09-29 14:20:12.677
210.0, 48149.12207712199, 36918.0633924083, 15513.45175665042, 19591.706346476836, 19704.202676320398, 15704.91679965458, -52812.813557721805, 24356.874746903748, 38508.54647261459, 21783.831332186623, 1581.4976789352513, 28317.089774261687, 35941.20275273356, 24325.314083732854, -14601.388824151616, 2596.579801628566, -0.004, 1.022, -0.096, 192.0, 0.0, 0.0, 0.0, 0.0, 0.0, 0.0, 0.0, 0.0, 0.0, 1.696015212738125E9, 0.0, 2023-09-29 14:20:12.738
212.0, 48055.08828819851, 36897.030400875854, 15415.685226402908, 19504.66865356787, 19714.1044991141, 15715.06449163729, -52853.85136054175, 24361.032171372437, 38503.78555104561, 21781.01501238525, 1860.1792288040197, 28312.41825967053, 35947.26007548095, 24327.77277562294, -14596.203219437984, 2593.428205660368, -0.004, 1.022, -0.096, 192.0, 0.0, 0.0, 0.0, 0.0, 0.0, 0.0, 0.0, 0.0, 0.0, 1.696015212738149E9, 0.0, 2023-09-29 14:20:12.738
214.0, 48140.65076597343, 36937.82233450679, 15500.152468699513, 19595.86377094552, 19712.450470024403, 15710.996474146425, -52832.63955505366, 24363.177938840145, 38510.78164706012, 21792.213236357362, 1589.0302168166897, 28319.816687085236, 35931.41268866214, 24342.48022347453, -14604.003978252886, 2596.199821972826, -0.004, 1.022, -0.096, 192.0, 0.0, 0.0, 0.0, 0.0, 0.0, 0.0, 0.0, 0.0, 0.0, 1.696015212738161E9, 0.0, 2023-09-29 14:20:12.738
216.0, 48075.42837565284, 36921.505561054415, 15413.3382932351, 19518.705549085804, 19717.479612526848, 15724.139299886145, -52866.12246824771, 24374.756142467995, 38504.63491733491, 21796.549474781692, 1854.680699668014, 28330.79139361279, 35942.6332643787, 24332.332531491822, -14602.953446263487, 2602.3689034424906, -0.004, 1.022, -0.096, 192.0, 0.0, 0.0, 0.0, 0.0, 0.0, 0.0, 0.0, 0.0, 0.0, 1.696015212738202E9, 0.0, 2023-09-29 14:20:12.738
218.0, 48121.42826574186, 36941.48802059746, 15482.405183601999, 19584.15145685094, 19713.165725846975, 15709.700072968017, -52893.39159648318, 24363.893194662716, 38519.02944076413, 21806.719518508857, 1562.632806614972, 28327.773908111325, 35924.0813164808, 24334.38889198171, -14603.042853241308, 2597.9209062958844, -0.006, 1.02, -0.096, 192.0, 127.5, 104.0, 15.5, 112.0, 126.5, 0.0, 0.0, 0.0, 0.0, 1.69601521273823E9, 0.0, 2023-09-29 14:20:12.738
220.0, 48117.89669011792, 36932.79319200435, 15433.72308417834, 19528.562668390594, 19717.9042956715, 15715.735043970948, -52847.14583720516, 24375.06906689037, 38508.21119644776, 21787.631128744022, 1838.4086297045505, 28326.477506932915, 35957.810098863854, 24331.729034391527, -14598.572504350246, 2596.043359761639, -0.006, 1.02, -0.096, 192.0, 0.0, 0.0, 0.0, 0.0, 0.0, 0.0, 0.0, 0.0, 0.0, 1.696015212738241E9, 0.0, 2023-09-29 14:20:12.738
222.0, 48105.08914054503, 36949.93698000157, 15472.481009063842, 19572.528549734183, 19708.38245253354, 15711.376453802164, -52920.548965996386, 24376.477226791052, 38522.18103673232, 21800.148105638997, 1576.8261643440921, 28319.63787312959, 35925.95886301504, 24341.92142986315, -14600.517106117859, 2592.064749248594, -0.006, 1.02, -0.096, 192.0, 0.0, 0.0, 0.0, 0.0, 0.0, 0.0, 0.0, 0.0, 0.0, 1.696015212738262E9, 0.0, 2023-09-29 14:20:12.738
224.0, 48154.598254513534, 36945.66779681061, 15457.237119345322, 19552.009648324212, 19712.696339213413, 15721.211221362499, -52811.338342587755, 24379.517064036976, 38507.60769934746, 21790.849779945587, 1833.781818602302, 28328.89149533409, 35958.50300294197, 24328.175107023133, -14589.587103079213, 2605.006409288217, -0.006, 1.02, -0.096, 192.0, 0.0, 0.0, 0.0, 0.0, 0.0, 0.0, 0.0, 0.0, 0.0, 1.696015212738271E9, 0.0, 2023-09-29 14:20:12.738
226.0, 48059.35747138947, 36958.72121557251, 15444.58603198362, 19552.76960763569, 19728.6554847545, 15728.54259354384, -52989.68291159665, 24390.938805453636, 38531.5464176591, 21815.5484575687, 1585.118661537011, 28320.531942907804, 35919.11922921172, 24345.05067408689, -14594.951521748486, 2588.9578567693065, -0.006, 1.02, -0.096, 192.0, 0.0, 0.0, 0.0, 0.0, 0.0, 0.0, 0.0, 0.0, 0.0, 1.696015212796934E9, 0.0, 2023-09-29 14:20:12.796
228.0, 48182.20265891584, 36962.14103247417, 15482.449887090908, 19567.16413106491, 19712.696339213413, 15715.355064315208, -52828.28096488488, 24373.705610478595, 38518.58240587502, 21797.64471026, 1758.367032810096, 28333.071271547233, 35964.00153207797, 24328.063348300857, -14573.829123238222, 2606.481624422267, -0.004, 1.02, -0.09, 192.0, 127.5, 112.0, 15.5, 112.0, 126.5, 24.0, 0.0, 0.0, 0.0, 1.696015212796964E9, 0.0, 2023-09-29 14:20:12.796
230.0, 48061.36912839045, 36972.53459364588, 15437.589935969108, 19540.610258652003, 19722.7546242183, 15724.809852219803, -52999.65178962371, 24380.16526462618, 38537.402574706386, 21809.6475970325, 1603.469443734818, 28326.768079610836, 35921.041479234875, 24330.499688446485, -14600.539457862313, 2579.681882820354, -0.004, 1.02, -0.09, 192.0, 0.0, 0.0, 0.0, 0.0, 0.0, 0.0, 0.0, 0.0, 0.0, 1.696015212796974E9, 0.0, 2023-09-29 14:20:12.796
232.0, 48221.47467392382, 36982.481119928496, 15505.047500735225, 19579.479942259783, 19714.864458425578, 15713.097538125223, -52794.86510692419, 24366.329534808345, 38521.734001843215, 21801.086878906117, 1742.139666335543, 28344.671826919537, 35971.087035070304, 24333.67363615914, -14585.496733843893, 2594.9481242833285, -0.004, 1.02, -0.09, 192.0, 0.0, 0.0, 0.0, 0.0, 0.0, 0.0, 0.0, 0.0, 0.0, 1.696015212796983E9, 0.0, 2023-09-29 14:20:12.796
234.0, 48050.88616024091, 36970.478233156, 15415.841688614093, 19520.516040386683, 19710.416461278972, 15719.91482018409, -52977.72472831306, 24371.15751161069, 38526.2937577121, 21806.630111531034, 1672.2234096793427, 28323.907056320557, 35919.365098400725, 24329.739729135006, -14612.363530679171, 2572.1493449389154, -0.004, 1.02, -0.09, 192.0, 0.0, 0.0, 0.0, 0.0, 0.0, 0.0, 0.0, 0.0, 0.0, 1.696015212796992E9, 0.0, 2023-09-29 14:20:12.796
236.0, 48231.9352903289, 37001.65891667115, 15518.816175319693, 19577.11065734752, 19710.483516512337, 15710.862363679691, -52792.13819410065, 24366.82127318636, 38526.2937577121, 21811.25692263328, 1718.6032794241048, 28345.834117631213, 35966.147299545686, 24341.630857185228, -14593.342196147705, 2593.159984726904, -0.004, 1.02, -0.09, 192.0, 0.0, 0.0, 0.0, 0.0, 0.0, 0.0, 0.0, 0.0, 0.0, 1.696015212797001E9, 0.0, 2023-09-29 14:20:12.797
238.0, 48040.514950813646, 36978.904840815645, 15404.062319286148, 19496.353804630497, 19714.015092136277, 15714.371587559175, -53006.78199610496, 24362.283869061932, 38536.1955805058, 21816.8001552582, 1695.2233547238536, 28324.152925509567, 35920.77325830141, 24331.1925925246, -14616.923286548054, 2561.845190745019, -0.008, 1.018, -0.092, 192.0, 127.5, 96.0, 15.5, 104.0, 126.5, 16.0, 0.0, 0.0, 0.0, 1.696015212797039E9, 0.0, 2023-09-29 14:20:12.797
240.0, 48239.132552043506, 37009.07969583031, 15519.553782886718, 19586.811314441125, 19704.940283887423, 15700.938189141536, -52807.82911870827, 24356.025380614446, 38530.115906013954, 21810.809887744177, 1680.4488516388956, 28345.52119320884, 35963.44273846659, 24318.5415051629, -14596.538495604813, 2576.5302868521558, -0.008, 1.018, -0.092, 192.0, 0.0, 0.0, 0.0, 0.0, 0.0, 0.0, 0.0, 0.0, 0.0, 1.696015212856727E9, 0.0, 2023-09-29 14:20:12.856
242.0, 48035.50816005566, 36983.55400366235, 15401.71538611834, 19495.795011019112, 19715.982045648343, 15715.645636993127, -53016.72852238757, 24370.039924387926, 38538.83308635153, 21816.151954668996, 1723.945346348923, 28329.874972090125, 35932.5302758849, 24331.952551836082, -14615.17985048054, 2559.6100162994885, -0.008, 1.018, -0.092, 192.0, 0.0, 0.0, 0.0, 0.0, 0.0, 0.0, 0.0, 0.0, 0.0, 1.696015212856759E9, 0.0, 2023-09-29 14:20:12.856
244.0, 48250.33077601562, 37014.220597055035, 15549.147492545546, 19602.21166637083, 19701.31930128566, 15697.451317006507, -52806.15273787412, 24359.556956238386, 38535.18975200531, 21811.79336450021, 1639.8133802191473, 28347.108167065166, 35969.92474435863, 24321.80485985337, -14586.12258268864, 2593.137632982449, -0.008, 1.018, -0.092, 192.0, 0.0, 0.0, 0.0, 0.0, 0.0, 0.0, 0.0, 0.0, 0.0, 1.69601521285677E9, 0.0, 2023-09-29 14:20:12.856
246.0, 48039.17384614633, 36987.3314484753, 15407.10215653207, 19493.448077851306, 19716.607894493092, 15718.77488121687, -52991.091071497336, 24378.28771809193, 38533.73688861572, 21806.227780130837, 1783.266876133308, 28325.56108541025, 35932.15029622916, 24324.263551743457, -14603.288722430316, 2571.299978649614, -0.008, 1.018, -0.092, 192.0, 0.0, 0.0, 0.0, 0.0, 0.0, 0.0, 0.0, 0.0, 0.0, 1.696015212856779E9, 0.0, 2023-09-29 14:20:12.856
248.0, 48236.65150840897, 37023.921254148634, 15546.666448911006, 19605.095041405566, 19715.065624125677, 15708.984817145447, -52823.47533982698, 24364.54139525192, 38540.37535671894, 21816.64369304701, 1627.1399411129883, 28344.805937386267, 35964.49327045599, 24329.471508201543, -14578.545341318291, 2598.8149760740966, -0.004, 1.018, -0.094, 192.0, 127.5, 112.0, 15.5, 104.0, 126.5, 8.0, 0.0, 0.0, 0.0, 1.696015212856788E9, 0.0, 2023-09-29 14:20:12.856
250.0, 48046.32640437203, 36986.30326823035, 15398.921418061427, 19484.61913879146, 19712.22695257985, 15720.11598588419, -52974.28255966694, 24365.927203408148, 38529.95944380277, 21802.60679752908, 1817.1968242164642, 28323.70589062046, 35933.5808078743, 24317.222752240035, -14598.997187494897, 2572.8646007614852, -0.004, 1.018, -0.094, 192.0, 0.0, 0.0, 0.0, 0.0, 0.0, 0.0, 0.0, 0.0, 0.0, 1.696015212856797E9, 0.0, 2023-09-29 14:20:12.856
252.0, 48221.25115647926, 37022.98248088151, 15534.618858649595, 19596.176695367896, 19707.08605135513, 15709.811831690293, -52846.83291278278, 24362.66384871767, 38535.70384212778, 21812.88859997852, 1604.631734446494, 28341.564934440248, 35961.14050878769, 24315.367557450245, -14591.531704846824, 2590.745996325731, -0.004, 1.018, -0.094, 192.0, 0.0, 0.0, 0.0, 0.0, 0.0, 0.0, 0.0, 0.0, 0.0, 1.696015212856806E9, 0.0, 2023-09-29 14:20:12.856
254.0, 48060.20683767877, 36984.67159088512, 15400.039005284192, 19473.845597964002, 19707.04134786622, 15711.957599158002, -52956.401164102695, 24352.82908115734, 38525.82437107854, 21800.572788783647, 1842.2531297508633, 28325.315216221243, 35945.40488069116, 24327.34809247829, -14608.206106210484, 2564.7956210131197, -0.004, 1.018, -0.094, 192.0, 0.0, 0.0, 0.0, 0.0, 0.0, 0.0, 0.0, 0.0, 0.0, 1.696015212856815E9, 0.0, 2023-09-29 14:20:12.856
0.0, 48209.67295285141, 37009.593785952784, 15522.347750943632, 19569.555767721627, 19697.541856472715, 15693.428003004552, -52852.107924474236, 24348.314028777368, 38532.708708370774, 21801.712727750866, 1601.1895658003768, 28329.785565112303, 35949.986988304496, 24309.444345169588, -14609.681321344535, 2566.382594869446, -0.004, 1.018, -0.094, 192.0, 0.0, 0.0, 0.0, 0.0, 0.0, 0.0, 0.0, 0.0, 0.0, 1.696015212917012E9, 0.0, 2023-09-29 14:20:12.917
2.0, 48072.56735236256, 36984.13514901819, 15395.881580815505, 19456.18771984431, 19715.33384505914, 15712.337578813742, -52959.061021692876, 24362.507386506488, 38534.2956822271, 21794.73898348081, 1865.230723050919, 28319.41435568504, 35948.46706968154, 24309.84667656978, -14617.415024926071, 2549.7305452502424, -0.008, 1.018, -0.088, 192.0, 127.5, 96.0, 15.5, 104.0, 126.5, 32.0, 0.0, 0.0, 0.0, 1.696015212917043E9, 0.0, 2023-09-29 14:20:12.917
4.0, 48193.35617939904, 37013.41593425464, 15514.59169561764, 19563.00670659622, 19700.492286740817, 15695.193790816522, -52904.947448366576, 24350.504499733986, 38547.326749244545, 21809.737004010323, 1567.4607834173185, 28331.238428501896, 35943.907313812655, 24315.99340629499, -14603.400481152592, 2566.136725680438, -0.008, 1.018, -0.088, 192.0, 0.0, 0.0, 0.0, 0.0, 0.0, 0.0, 0.0, 0.0, 0.0, 1.69601521291709E9, 0.0, 2023-09-29 14:20:12.917
6.0, 48119.2601465297, 36991.354762477255, 15419.28385726021, 19483.99328994671, 19708.069528111166, 15708.53778225634, -52908.25550654597, 24364.027305129446, 38527.3442897015, 21791.274463090238, 1872.8303161657234, 28324.532905165306, 35950.65754063815, 24304.77283057843, -14607.624960854646, 2556.7042895202985, -0.008, 1.018, -0.088, 192.0, 0.0, 0.0, 0.0, 0.0, 0.0, 0.0, 0.0, 0.0, 0.0, 1.696015212917099E9, 0.0, 2023-09-29 14:20:12.917
8.0, 48161.616702272506, 37019.09327734629, 15491.412936617488, 19562.894947873945, 19719.24540033882, 15714.885677681646, -52945.38175408623, 24369.68229647664, 38546.9467695888, 21816.37547211355, 1581.922362079902, 28335.105280292664, 35937.80528757635, 24322.788336609407, -14601.433527640525, 2565.4661733467788, -0.008, 1.018, -0.088, 192.0, 0.0, 0.0, 0.0, 0.0, 0.0, 0.0, 0.0, 0.0, 0.0, 1.696015212917107E9, 0.0, 2023-09-29 14:20:12.917
10.0, 48138.125018849976, 36992.78527412239, 15434.125415578535, 19501.740575044227, 19700.71580418537, 15709.677721223561, -52916.3915415277, 24357.2994300484, 38539.213066007265, 21803.65732951848, 1846.8352373642012, 28338.36863498314, 35962.146337288184, 24309.779621336416, -14592.962216491964, 2574.518629851178, -0.008, 1.018, -0.088, 192.0, 0.0, 0.0, 0.0, 0.0, 0.0, 0.0, 0.0, 0.0, 0.0, 1.696015212917116E9, 0.0, 2023-09-29 14:20:12.917
12.0, 48135.599271726525, 37010.55491096436, 15475.766715498772, 19555.943555348345, 19706.70607169939, 15707.77782294486, -52985.01139700549, 24364.474340018554, 38551.90885685788, 21813.425041845447, 1584.090481292067, 28331.886629091103, 35930.339804928284, 24322.318949975845, -14607.26733294336, 2560.45938258879, -0.006, 1.02, -0.088, 192.0, 127.5, 104.0, 15.5, 112.0, 126.5, 32.0, 0.0, 0.0, 0.0, 1.696015212917125E9, 0.0, 2023-09-29 14:20:12.917
14.0, 48171.00443494373, 36986.16915776362, 15446.552985495686, 19519.890191541934, 19693.27267328175, 15693.383299515643, -52888.85419235876, 24343.10607231928, 38536.75437411718, 21801.98094868433, 1831.5466441567714, 28337.631027416115, 35967.42134897964, 24312.10420275977, -14601.187658451518, 2562.8957227344185, -0.006, 1.02, -0.088, 192.0, 0.0, 0.0, 0.0, 0.0, 0.0, 0.0, 0.0, 0.0, 0.0, 1.696015212977269E9, 0.0, 2023-09-29 14:20:12.977
16.0, 48093.26506772817, 37005.01167833945, 15438.461654002866, 19530.7084358583, 19705.923760643454, 15707.643712478128, -53031.23480453907, 24357.277078303945, 38540.35300497449, 21808.84293423211, 1601.79306290067, 28316.776849839312, 35916.90640651064, 24308.706737602562, -14624.925211063053, 2539.336984078525, -0.006, 1.02, -0.088, 192.0, 0.0, 0.0, 0.0, 0.0, 0.0, 0.0, 0.0, 0.0, 0.0, 1.6960152129773E9, 0.0, 2023-09-29 14:20:12.977
18.0, 48181.800327515644, 37003.17883529411, 15469.597634029107, 19533.2118312373, 19697.206580305887, 15700.1558780856, -52893.36924473873, 24350.303334033888, 38529.8923885694, 21797.912931193463, 1803.6516670765482, 28331.37253896863, 35972.89752637118, 24311.590112637296, -14603.17696370804, 2566.0249669581613, -0.006, 1.02, -0.088, 192.0, 0.0, 0.0, 0.0, 0.0, 0.0, 0.0, 0.0, 0.0, 0.0, 1.69601521297731E9, 0.0, 2023-09-29 14:20:12.977
20.0, 48076.61301810897, 36997.434436969095, 15441.456787759877, 19525.56753463358, 19704.515600742772, 15701.876962408658, -53042.54478723345, 24347.30820027688, 38536.50850492818, 21803.813791729666, 1622.0660951216335, 28310.898341047567, 35926.33884267078, 24326.632836655717, -14621.147766250107, 2547.6071295269885, -0.006, 1.02, -0.088, 192.0, 0.0, 0.0, 0.0, 0.0, 0.0, 0.0, 0.0, 0.0, 0.0, 1.696015212977319E9, 0.0, 2023-09-29 14:20:12.977
22.0, 48203.99560975977, 37002.821207382825, 15485.959110970392, 19545.214718009796, 19696.267807038763, 15694.63499720514, -52868.00001478196, 24347.129386321234, 38523.79036233311, 21791.475628790336, 1790.0618064477214, 28323.951759809468, 35972.74106416, 24304.929292789617, -14601.83585904072, 2564.728565779754, -0.008, 1.018, -0.09, 192.0, 127.5, 96.0, 15.5, 104.0, 126.5, 24.0, 0.0, 0.0, 0.0, 1.696015212977328E9, 0.0, 2023-09-29 14:20:12.977
24.0, 48055.73648878771, 37004.89991961717, 15432.2925725332, 19520.359578175496, 19718.463089282883, 15712.561096258296, -53057.78867695197, 24368.83293018734, 38541.33648173052, 21809.379376099037, 1657.0689269386444, 28317.201532983963, 35927.21056070454, 24320.95549356407, -14617.191507481517, 2541.4603998017787, -0.008, 1.018, -0.09, 192.0, 0.0, 0.0, 0.0, 0.0, 0.0, 0.0, 0.0, 0.0, 0.0, 1.696015212977337E9, 0.0, 2023-09-29 14:20:12.977
26.0, 48234.21516826334, 37028.056326872866, 15522.750082343828, 19579.25642481523, 19704.13562108703, 15712.136413113645, -52857.897026288156, 24360.160453338678, 38535.88265608343, 21813.60385580109, 1762.591512512149, 28347.0411118318, 35979.58069796332, 24336.847583871793, -14585.384975121615, 2571.612903071988, -0.008, 1.018, -0.09, 192.0, 0.0, 0.0, 0.0, 0.0, 0.0, 0.0, 0.0, 0.0, 0.0, 1.696015212977372E9, 0.0, 2023-09-29 14:20:12.977
28.0, 48055.8929509989, 37011.31487027584, 15420.2896857607, 19506.389737890928, 19710.70703395689, 15726.240363864943, -53069.858618957835, 24369.972869154557, 38552.91468535837, 21839.12954796905, 1707.3156484741746, 28338.70391114997, 35941.56038064485, 24346.145909565203, -14604.048681741797, 2555.385536597435, -0.008, 1.018, -0.09, 192.0, 0.0, 0.0, 0.0, 0.0, 0.0, 0.0, 0.0, 0.0, 0.0, 1.696015212977382E9, 0.0, 2023-09-29 14:20:12.977
30.0, 48240.69717415538, 37030.9397019076, 15516.223372962879, 19564.325459519085, 19703.398013520004, 15708.53778225634, -52900.03006458641, 24355.198366069602, 38547.125583544446, 21825.60674257359, 1708.7461601193143, 28353.679579935026, 35979.96067761906, 24328.15275527868, -14588.335405389716, 2577.9160950083847, -0.008, 1.018, -0.09, 192.0, 0.0, 0.0, 0.0, 0.0, 0.0, 0.0, 0.0, 0.0, 0.0, 1.696015213037532E9, 0.0, 2023-09-29 14:20:13.037
32.0, 48051.80258176358, 37001.077771315315, 15404.129374519513, 19478.47240906625, 19709.723557200858, 15710.817660190782, -53112.97513401212, 24362.48503476203, 38555.708653415284, 21821.538725082723, 1704.7675496062698, 28330.053786045766, 35934.69839509707, 24327.593961667295, -14611.625923112146, 2545.3719550814576, -0.006, 1.018, -0.09, 192.0, 127.5, 104.0, 15.5, 104.0, 126.5, 24.0, 0.0, 0.0, 0.0, 1.696015213037554E9, 0.0, 2023-09-29 14:20:13.037
34.0, 48270.17912509193, 37024.703565204574, 15535.825852850183, 19572.88617764547, 19694.70318492689, 15689.874075636159, -52884.22738125651, 24348.828118899837, 38537.91666482886, 21804.976082441342, 1679.174802204943, 28338.301579749776, 35964.180346033616, 24312.417127182143, -14592.962216491964, 2563.9909582127284, -0.006, 1.018, -0.09, 192.0, 0.0, 0.0, 0.0, 0.0, 0.0, 0.0, 0.0, 0.0, 0.0, 1.696015213037574E9, 0.0, 2023-09-29 14:20:13.037
36.0, 48050.14855267388, 36994.305192745356, 15397.960293049848, 19466.76009497167, 19704.448545509404, 15703.06160486479, -53080.028662685, 24353.81255791337, 38542.40936546437, 21807.233608631326, 1785.4796988343835, 28319.324948707217, 35936.50888639795, 24315.367557450245, -14617.102100503696, 2540.365164323469, -0.006, 1.018, -0.09, 192.0, 0.0, 0.0, 0.0, 0.0, 0.0, 0.0, 0.0, 0.0, 0.0, 1.696015213037583E9, 0.0, 2023-09-29 14:20:13.037
38.0, 48253.8399998951, 37028.257492572964, 15533.344809215643, 19578.049430614643, 19703.532123986737, 15690.566979714273, -52888.56361968084, 24345.900040376193, 38536.79907760609, 21808.619416787555, 1666.1213834430437, 28335.46290820395, 35960.760529131956, 24323.123612776235, -14593.02927172533, 2558.201856398804, -0.006, 1.018, -0.09, 192.0, 0.0, 0.0, 0.0, 0.0, 0.0, 0.0, 0.0, 0.0, 0.0, 1.696015213037593E9, 0.0, 2023-09-29 14:20:13.037
40.0, 48040.96198570276, 36992.58410842229, 15389.824258068116, 19463.452036792285, 19709.18711533393, 15711.756433457904, -53080.40864234074, 24352.42674975714, 38540.44241195231, 21812.016881944764, 1827.009240032344, 28322.56595165324, 35937.470011409525, 24315.00992953896, -14610.150707978095, 2539.69461198981, -0.006, 1.018, -0.09, 192.0, 0.0, 0.0, 0.0, 0.0, 0.0, 0.0, 0.0, 0.0, 0.0, 1.696015213037602E9, 0.0, 2023-09-29 14:20:13.037
42.0, 48229.96833681683, 37027.31871930584, 15541.167919775, 19592.77923021069, 19709.075356611655, 15709.744776456926, -52950.00856518848, 24368.38589529823, 38551.86415336897, 21817.761280269777, 1611.1584438274438, 28342.123728051632, 35965.16382278965, 24328.71154889006, -14587.754260033878, 2571.0988129495163, -0.006, 1.02, -0.09, 192.0, 127.5, 104.0, 15.5, 112.0, 126.5, 24.0, 0.0, 0.0, 0.0, 1.696015213037612E9, 0.0, 2023-09-29 14:20:13.037
44.0, 48058.642215566906, 36984.917460074124, 15411.48309844531, 19488.977728960246, 19718.485441027336, 15726.843860965237, -53092.05390120196, 24374.64438374572, 38546.72325214425, 21813.93913196792, 1822.8741673081122, 28329.472640689928, 35954.59144766229, 24319.636740641206, -14589.385937379115, 2568.4166036148795, -0.006, 1.02, -0.09, 192.0, 0.0, 0.0, 0.0, 0.0, 0.0, 0.0, 0.0, 0.0, 0.0, 1.696015213096901E9, 0.0, 2023-09-29 14:20:13.096
46.0, 48221.45232217936, 37014.220597055035, 15544.40892272102, 19597.383689568484, 19698.99471986231, 15702.68162520905, -52968.62756831975, 24358.417017271164, 38540.93415033032, 21809.312320865673, 1593.3888069854745, 28331.19372501299, 35955.865497096245, 24328.33156923432, -14580.936977975009, 2581.425318887868, -0.006, 1.02, -0.09, 192.0, 0.0, 0.0, 0.0, 0.0, 0.0, 0.0, 0.0, 0.0, 0.0, 1.69601521309693E9, 0.0, 2023-09-29 14:20:13.096
48.0, 48072.187372706816, 36989.29840198736, 15415.975799080827, 19480.908749211878, 19706.66136821048, 15711.219991590977, -53062.68370898768, 24359.95928763858, 38532.61930139295, 21797.89057944901, 1858.0781648252207, 28321.60482664166, 35953.45150869507, 24317.379214451223, -14598.237228183418, 2554.3797080969466, -0.006, 1.02, -0.09, 192.0, 0.0, 0.0, 0.0, 0.0, 0.0, 0.0, 0.0, 0.0, 0.0, 1.696015213096979E9, 0.0, 2023-09-29 14:20:13.096
50.0, 48199.63701959098, 37023.1389430927, 15528.159204502012, 19575.16605557991, 19697.743022172814, 15691.908084381592, -52995.29319945493, 24348.29167703291, 38549.226647523246, 21806.11602140856, 1589.8348796170808, 28332.55718142476, 35947.59535164778, 24312.305368459867, -14593.453954869981, 2561.845190745019, -0.006, 1.02, -0.09, 192.0, 0.0, 0.0, 0.0, 0.0, 0.0, 0.0, 0.0, 0.0, 0.0, 1.696015213096989E9, 0.0, 2023-09-29 14:20:13.096
52.0, 48099.523556175656, 36996.89799510217, 15413.38299672401, 19472.437438063316, 19694.457315737884, 15698.367738529176, -53029.379609749274, 24349.14104332221, 38536.597911906, 21797.398841070994, 1884.6320372381256, 28323.32591096472, 35954.92672382912, 24302.180028221614, -14609.703673088989, 2543.0250219136506, -0.006, 1.012, -0.088, 192.0, 127.5, 104.0, 15.5, 80.0, 126.5, 32.0, 0.0, 0.0, 0.0, 1.696015213096998E9, 0.0, 2023-09-29 14:20:13.096
54.0, 48167.897542464445, 37021.909597147656, 15492.664634306984, 19554.691857658847, 19695.440792493915, 15696.534895483841, -53032.173577806185, 24349.901002633695, 38546.34327248851, 21806.160724897472, 1596.0710163201113, 28320.978977796913, 35939.079337010306, 24312.215961482045, -14612.296475445804, 2541.3486410795026, -0.006, 1.012, -0.088, 192.0, 0.0, 0.0, 0.0, 0.0, 0.0, 0.0, 0.0, 0.0, 0.0, 1.696015213097008E9, 0.0, 2023-09-29 14:20:13.097
56.0, 48119.75188490771, 36995.84746311277, 15421.630790428018, 19478.76298174417, 19699.777030918245, 15705.341482799231, -53033.0676475844, 24357.67940970414, 38535.77089736115, 21798.918759693952, 1871.4221562650391, 28323.16944875353, 35959.575886675826, 24306.158638734658, -14603.89221953061, 2545.1484376369044, -0.006, 1.012, -0.088, 192.0, 0.0, 0.0, 0.0, 0.0, 0.0, 0.0, 0.0, 0.0, 0.0, 1.696015213097017E9, 0.0, 2023-09-29 14:20:13.097
58.0, 48137.990908383246, 37022.535445992406, 15481.756983012794, 19534.955267304813, 19710.416461278972, 15703.218067075977, -53107.14132870929, 24358.260555059976, 38558.61438019447, 21814.967312212862, 1573.5851613980726, 28328.355053467163, 35940.80042133336, 24322.229542998022, -14603.042853241308, 2541.1251236349494, -0.006, 1.012, -0.088, 192.0, 0.0, 0.0, 0.0, 0.0, 0.0, 0.0, 0.0, 0.0, 0.0, 1.696015213097025E9, 0.0, 2023-09-29 14:20:13.097
60.0, 48157.124001636985, 37007.358611507254, 15448.966973896859, 19491.52582782815, 19704.292083298216, 15699.284160051842, -53033.62644119578, 24356.181842825634, 38544.108098042976, 21801.466858561856, 1832.9324523130003, 28326.544562166284, 35973.45631998257, 24307.075060257324, -14593.923341503543, 2553.4409348298236, -0.006, 1.012, -0.088, 192.0, 0.0, 0.0, 0.0, 0.0, 0.0, 0.0, 0.0, 0.0, 0.0, 1.696015213156742E9, 0.0, 2023-09-29 14:20:13.156
62.0, 48116.24266102823, 37014.13119007721, 15464.3002705932, 19525.500479400216, 19709.32122580066, 15698.993587373923, -53140.28896573651, 24355.131310836234, 38556.31215051558, 21814.475573834847, 1583.9787225697903, 28313.871123060126, 35948.91410457064, 24337.80870888337, -14600.31594041776, 2549.17175163886, -0.006, 1.014, -0.092, 192.0, 127.5, 104.0, 15.5, 88.0, 126.5, 16.0, 0.0, 0.0, 0.0, 1.696015213156763E9, 0.0, 2023-09-29 14:20:13.156
64.0, 48182.91791473841, 37002.77650389392, 15458.980555412836, 19506.00975823519, 19688.958786601877, 15689.896427380614, -53016.4155979652, 24340.71443566256, 38536.217932250256, 21794.381355569527, 1822.5612428857378, 28307.299710190262, 35977.189061306606, 24316.887476073203, -14600.360643906672, 2541.996841668706, -0.006, 1.014, -0.092, 192.0, 0.0, 0.0, 0.0, 0.0, 0.0, 0.0, 0.0, 0.0, 0.0, 1.696015213156776E9, 0.0, 2023-09-29 14:20:13.156
66.0, 48107.14550103492, 37006.75511440696, 15476.616081788074, 19541.929011574866, 19707.13075484404, 15716.025616648867, -53120.93235503821, 24372.699781978106, 38549.87484811245, 21825.070300706662, 1622.8931096664799, 28313.155867237554, 35951.39514820518, 24327.303388989378, -14602.238190440918, 2540.5439782791113, -0.006, 1.014, -0.092, 192.0, 0.0, 0.0, 0.0, 0.0, 0.0, 0.0, 0.0, 0.0, 0.0, 1.696015213156789E9, 0.0, 2023-09-29 14:20:13.156
68.0, 48207.10250223905, 37013.572396465825, 15506.589771102641, 19560.995049595243, 19702.258074552785, 15718.663122494594, -52961.81028626088, 24371.559843010884, 38530.65234788088, 21817.78363201423, 1832.5077691683496, 28329.74086162339, 35990.68951495761, 24349.319857277856, -14580.154666919074, 2565.8014495136085, -0.006, 1.014, -0.092, 192.0, 0.0, 0.0, 0.0, 0.0, 0.0, 0.0, 0.0, 0.0, 0.0, 1.696015213156798E9, 0.0, 2023-09-29 14:20:13.156
70.0, 48082.78209957863, 37011.136056320196, 15462.57918627014, 19541.25845924121, 19712.22695257985, 15730.196622633532, -53115.6349916023, 24383.853302461303, 38542.02938580864, 21837.721388068367, 1692.9434767894122, 28320.68840511899, 35948.10944177025, 24362.641496973218, -14594.973873492941, 2546.422487070857, -0.006, 1.014, -0.092, 192.0, 0.0, 0.0, 0.0, 0.0, 0.0, 0.0, 0.0, 0.0, 0.0, 1.696015213156841E9, 0.0, 2023-09-29 14:20:13.156
72.0, 48232.67289789592, 37025.61998672724, 15523.442986421942, 19570.82981715558, 19696.893655883512, 15716.562058515796, -52939.346783083296, 24370.53166276594, 38530.92056881435, 21836.55909735669, 1825.9587080429446, 28346.61642868715, 35985.54861373289, 24349.476319489044, -14574.298509871784, 2567.4107751143906, -0.004, 1.018, -0.088, 192.0, 127.5, 112.0, 15.5, 104.0, 126.5, 32.0, 0.0, 0.0, 0.0, 1.696015213156851E9, 0.0, 2023-09-29 14:20:13.156
74.0, 48075.070747741556, 37024.077716359825, 15451.179796597935, 19526.975694534267, 19721.681740484448, 15729.548422044329, -53142.81471285996, 24388.122485652268, 38554.456955725786, 21853.457016164903, 1728.6168609400822, 28342.190783284997, 35950.54578191588, 24358.037037615424, -14588.111887945162, 2548.478847560745, -0.004, 1.018, -0.088, 192.0, 0.0, 0.0, 0.0, 0.0, 0.0, 0.0, 0.0, 0.0, 0.0, 1.696015213216929E9, 0.0, 2023-09-29 14:20:13.216
76.0, 48272.682520470924, 37043.993120669504, 15545.370047732598, 19581.73746844977, 19701.498115241306, 15709.811831690293, -52924.23700383151, 24360.607488227786, 38538.90014158489, 21848.09259749563, 1791.8722977486013, 28360.31804803825, 35992.0976748583, 24357.835871915326, -14559.032268408808, 2570.0259292156616, -0.004, 1.018, -0.088, 192.0, 0.0, 0.0, 0.0, 0.0, 0.0, 0.0, 0.0, 0.0, 0.0, 1.696015213216987E9, 0.0, 2023-09-29 14:20:13.216
78.0, 48079.63050361044, 37029.06215537336, 15436.76292142426, 19503.305197156096, 19723.29106608523, 15726.821509220781, -53126.31912545194, 24378.511235536487, 38548.019653322655, 21858.79908308972, 1789.3912541140621, 28341.162603040055, 35957.743043630486, 24354.997200369504, -14582.41219310906, 2536.878292188441, -0.004, 1.018, -0.088, 192.0, 0.0, 0.0, 0.0, 0.0, 0.0, 0.0, 0.0, 0.0, 0.0, 1.696015213216997E9, 0.0, 2023-09-29 14:20:13.216
80.0, 48276.191744350406, 37055.52662080844, 15545.705323899429, 19588.420640041906, 19712.361063046585, 15712.270523580377, -52938.11743713826, 24370.576366254852, 38545.96329283277, 21861.123664513074, 1759.7081374774145, 28365.056617862778, 35998.780846450434, 24357.21002307058, -14555.992431162887, 2561.912245978385, -0.004, 1.018, -0.088, 192.0, 0.0, 0.0, 0.0, 0.0, 0.0, 0.0, 0.0, 0.0, 0.0, 1.696015213217006E9, 0.0, 2023-09-29 14:20:13.217
82.0, 48079.78696582162, 37018.825056412825, 15414.232363013312, 19488.66480453787, 19714.66329272548, 15717.724349227472, -53133.695201122195, 24374.57732851235, 38544.68924339882, 21853.23349872035, 1812.659420092037, 28338.36863498314, 35955.4855174405, 24346.034150842926, -14581.272254141839, 2536.654774743888, -0.006, 1.012, -0.088, 192.0, 127.5, 104.0, 15.5, 80.0, 126.5, 32.0, 0.0, 0.0, 0.0, 1.696015213217016E9, 0.0, 2023-09-29 14:20:13.217
84.0, 48290.452157312895, 37059.862859232766, 15546.062951810713, 19585.671375473903, 19710.79644093471, 15704.670930465572, -52951.66259427817, 24362.93206965114, 38537.80490610658, 21851.445359163925, 1712.9706398213673, 28348.40456824357, 35982.95581137607, 24345.721226420552, -14570.431658081015, 2553.1950656408153, -0.006, 1.012, -0.088, 192.0, 0.0, 0.0, 0.0, 0.0, 0.0, 0.0, 0.0, 0.0, 0.0, 1.696015213217034E9, 0.0, 2023-09-29 14:20:13.217
86.0, 48084.41377692387, 37034.22540834253, 15413.67356940193, 19485.490856825218, 19725.19096436393, 15723.938134186046, -53137.740866868604, 24379.29354659242, 38542.074089297545, 21854.976934787865, 1843.7283448849137, 28332.065443046744, 35961.386377976705, 24357.67940970414, -14586.077879199729, 2535.2913183321143, -0.006, 1.012, -0.088, 192.0, 0.0, 0.0, 0.0, 0.0, 0.0, 0.0, 0.0, 0.0, 0.0, 1.696015213217043E9, 0.0, 2023-09-29 14:20:13.217
88.0, 48288.216982867365, 37059.10289992129, 15559.518701972807, 19600.35647158104, 19704.828525165143, 15702.592218231228, -52950.14267565521, 24363.334401051332, 38537.49198168421, 21848.629039362557, 1679.308912671675, 28344.872992619636, 35984.27456429894, 24349.208098555577, -14571.728059259423, 2557.1289726649493, -0.006, 1.012, -0.088, 192.0, 0.0, 0.0, 0.0, 0.0, 0.0, 0.0, 0.0, 0.0, 0.0, 1.696015213217052E9, 0.0, 2023-09-29 14:20:13.217
90.0, 48077.283570442625, 37025.08354486031, 15403.525877419219, 19481.266377123164, 19724.296894585717, 15732.118872656689, -53132.97994529962, 24379.472360548065, 38532.75341185968, 21843.599896860112, 1886.0178453943547, 28320.241370229887, 35966.72844490152, 24333.450118714587, -14593.610417081169, 2530.4186380408573, -0.006, 1.012, -0.088, 192.0, 0.0, 0.0, 0.0, 0.0, 0.0, 0.0, 0.0, 0.0, 0.0, 1.696015213277324E9, 0.0, 2023-09-29 14:20:13.277
92.0, 48258.2432935528, 37060.46635633306, 15551.740294902362, 19596.824895957103, 19713.635112480537, 15716.740872471437, -53015.65563865371, 24372.006877899992, 38539.838914852015, 21850.7077515969, 1645.5801302886166, 28339.50857395036, 35983.26873579845, 24357.76881668196, -14573.650309282579, 2554.938501708329, -0.002, 1.01, -0.08, 192.0, 127.5, 120.0, 15.5, 72.0, 126.5, 64.0, 0.0, 0.0, 0.0, 1.696015213277345E9, 0.0, 2023-09-29 14:20:13.277
94.0, 48095.45553868479, 37032.526675763926, 15418.702711904374, 19480.417010833862, 19715.222086336864, 15729.861346466703, -53135.34923021188, 24382.24397686052, 38529.11007751347, 21839.733045069344, 1890.9128774300668, 28326.65632088856, 35963.30862799986, 24339.082758317323, -14593.252789169883, 2534.486655531723, -0.002, 1.01, -0.08, 192.0, 0.0, 0.0, 0.0, 0.0, 0.0, 0.0, 0.0, 0.0, 0.0, 1.696015213277395E9, 0.0, 2023-09-29 14:20:13.277
96.0, 48255.069345840144, 37061.248667389, 15546.867614611105, 19590.36524180952, 19705.09674609861, 15711.734081713448, -53036.73333367507, 24364.809616185383, 38541.78351661963, 21848.293763195725, 1629.5539295141614, 28338.279228005318, 35964.537973944905, 24349.699836933596, -14588.804792023277, 2548.3447370940135, -0.002, 1.01, -0.08, 192.0, 0.0, 0.0, 0.0, 0.0, 0.0, 0.0, 0.0, 0.0, 0.0, 1.696015213277404E9, 0.0, 2023-09-29 14:20:13.277
98.0, 48136.068658360084, 37026.69287046109, 15422.614267184052, 19488.75421151569, 19697.65361519499, 15717.34436957173, -53097.686540804694, 24372.78918895593, 38533.2451502377, 21837.050835734706, 1922.9652789789773, 28327.75155636687, 35962.10163379928, 24345.721226420552, -14605.076861986741, 2528.362277550969, -0.002, 1.01, -0.08, 192.0, 0.0, 0.0, 0.0, 0.0, 0.0, 0.0, 0.0, 0.0, 0.0, 1.696015213277412E9, 0.0, 2023-09-29 14:20:13.277
100.0, 48224.06747628063, 37051.45860331757, 15524.627628878074, 19579.30112830414, 19695.239626793817, 15706.72729095546, -53065.56708402242, 24367.804749942396, 38544.15280153189, 21847.958487028896, 1638.7181447408373, 28336.155812282064, 35958.39124421969, 24346.034150842926, -14600.517106117859, 2531.223300841248, -0.002, 1.01, -0.08, 192.0, 0.0, 0.0, 0.0, 0.0, 0.0, 0.0, 0.0, 0.0, 0.0, 1.696015213277421E9, 0.0, 2023-09-29 14:20:13.277
102.0, 48150.060850389105, 37026.49170476099, 15440.495662748297, 19502.880514011445, 19707.04134786622, 15721.993532418435, -53083.47083133112, 24373.16916861167, 38534.78742060511, 21841.252963692306, 1927.457979614494, 28335.552315181772, 35977.5913927068, 24341.273229273946, -14594.236265925916, 2528.205815339782, -0.002, 1.016, -0.08600000000000001, 192.0, 127.5, 120.0, 15.5, 96.0, 126.5, 40.0, 0.0, 0.0, 0.0, 1.69601521327743E9, 0.0, 2023-09-29 14:20:13.277
104.0, 48191.791557287164, 37043.52373403594, 15510.568381615685, 19568.862863643513, 19710.505868256794, 15714.460994536996, -53108.75065431007, 24365.480168519043, 38549.53957194562, 21853.56877488718, 1644.5072465547619, 28337.07223380473, 35966.549630945876, 24351.10799683428, -14591.487001357915, 2531.223300841248, -0.002, 1.016, -0.08600000000000001, 192.0, 0.0, 0.0, 0.0, 0.0, 0.0, 0.0, 0.0, 0.0, 0.0, 1.696015213337629E9, 0.0, 2023-09-29 14:20:13.337
106.0, 48174.08897567856, 37024.56945473784, 15457.594747256608, 19511.329473415553, 19712.115193857575, 15721.010055662402, -53070.640930013775, 24372.140988366722, 38534.22862699373, 21836.402635145503, 1914.6280782971476, 28336.89341984909, 35987.806139922875, 24338.166336794657, -14581.965158219953, 2533.8608066869747, -0.002, 1.016, -0.08600000000000001, 192.0, 0.0, 0.0, 0.0, 0.0, 0.0, 0.0, 0.0, 0.0, 0.0, 1.696015213337665E9, 0.0, 2023-09-29 14:20:13.337
108.0, 48155.2688068472, 37033.0407658864, 15488.328395882654, 19556.547052448637, 19721.413519550984, 15719.467785294984, -53169.23447480613, 24371.023401143957, 38546.25386551069, 21850.46188240789, 1633.4207813049295, 28327.595094155684, 35951.663369138645, 24343.798976397393, -14594.280969414827, 2522.729637948232, -0.002, 1.016, -0.08600000000000001, 192.0, 0.0, 0.0, 0.0, 0.0, 0.0, 0.0, 0.0, 0.0, 0.0, 1.696015213337675E9, 0.0, 2023-09-29 14:20:13.337
110.0, 48192.26094392073, 37020.5908442248, 15469.240006117823, 19523.444118910327, 19711.824621179658, 15718.529012027862, -53087.002406955056, 24369.794055198916, 38528.461876924266, 21837.497870623814, 1864.3143015282515, 28332.311312235754, 35983.78282592092, 24323.548295920886, -14577.338347117704, 2531.6479839858994, -0.002, 1.016, -0.08600000000000001, 192.0, 0.0, 0.0, 0.0, 0.0, 0.0, 0.0, 0.0, 0.0, 0.0, 1.696015213337684E9, 0.0, 2023-09-29 14:20:13.337
112.0, 48139.086143861554, 37022.58014948132, 15477.376041099555, 19544.700627887327, 19715.065624125677, 15715.712692226494, -53185.3053790695, 24364.20611908509, 38535.793249105605, 21843.93517302694, 1643.9037494544684, 28314.809896327246, 35944.15318300166, 24344.782453153428, -14593.789231036812, 2523.9589838932734, -0.004, 1.014, -0.094, 192.0, 127.5, 112.0, 15.5, 88.0, 126.5, 8.0, 0.0, 0.0, 0.0, 1.696015213337693E9, 0.0, 2023-09-29 14:20:13.337
114.0, 48228.00138330476, 37022.110762847755, 15492.038785462235, 19544.275944742676, 19711.84697292411, 15716.785575960348, -53046.27752855749, 24365.72603770805, 38525.779667589624, 21834.435681633437, 1863.3978800055838, 28327.148059266576, 35983.84988115429, 24340.312104262364, -14573.873826727133, 2539.5381497786225, -0.004, 1.014, -0.094, 192.0, 0.0, 0.0, 0.0, 0.0, 0.0, 0.0, 0.0, 0.0, 0.0, 1.696015213337702E9, 0.0, 2023-09-29 14:20:13.337
116.0, 48106.34083823453, 37034.76185020946, 15453.169101854457, 19531.71426435879, 19723.313417829682, 15729.77193948888, -53228.80187377952, 24375.806674457395, 38543.57165617605, 21847.712617839887, 1682.2369911953201, 28322.70006211997, 35941.69449111158, 24344.67069443115, -14592.492829858404, 2517.1864053233153, -0.004, 1.014, -0.094, 192.0, 0.0, 0.0, 0.0, 0.0, 0.0, 0.0, 0.0, 0.0, 0.0, 1.696015213337744E9, 0.0, 2023-09-29 14:20:13.337
118.0, 48257.729203430325, 37037.6899287331, 15517.78799507475, 19565.82302639759, 19707.153106588496, 15713.34340731423, -53041.67306919969, 24354.550165480396, 38532.68635662632, 21841.252963692306, 1823.6117748751374, 28350.818556644746, 35994.48931151501, 24334.880630359727, -14566.095419656685, 2541.3709928239577, -0.004, 1.014, -0.094, 192.0, 0.0, 0.0, 0.0, 0.0, 0.0, 0.0, 0.0, 0.0, 0.0, 1.696015213337752E9, 0.0, 2023-09-29 14:20:13.337
120.0, 48095.679056129346, 37031.00675714097, 15442.037933115715, 19517.677368840858, 19718.686606727435, 15729.526070299873, -53242.883472786365, 24370.844587188316, 38545.96329283277, 21852.048856264217, 1714.468206699873, 28335.015873314846, 35946.32130221383, 24334.925333848638, -14600.830030540232, 2509.385646508413, -0.004, 1.014, -0.094, 192.0, 0.0, 0.0, 0.0, 0.0, 0.0, 0.0, 0.0, 0.0, 0.0, 1.696015213397004E9, 0.0, 2023-09-29 14:20:13.397
122.0, 48275.38708155001, 37044.44015555861, 15533.277753982276, 19576.887139902967, 19701.9004466415, 15705.0062066324, -53039.08026684288, 24348.023456099447, 38540.30830148558, 21843.17521371546, 1787.6701697910037, 28356.60765845867, 35993.34937254779, 24335.43942397111, -14577.159533162063, 2535.760704965676, -0.008, 1.018, -0.1, 192.0, 127.5, 96.0, 15.5, 104.0, 126.0, 112.0, 0.0, 0.0, 0.0, 1.696015213397024E9, 0.0, 2023-09-29 14:20:13.397
124.0, 48078.80348906559, 37028.65982397316, 15423.061302073158, 19500.846505266014, 19717.77018520477, 15720.719482984483, -53262.30713871803, 24363.78143594044, 38546.902066099894, 21847.42204516197, 1754.0531461302216, 28333.65241690307, 35943.8849620682, 24340.759139151472, -14605.076861986741, 2509.363294763958, -0.008, 1.018, -0.1, 192.0, 0.0, 0.0, 0.0, 0.0, 0.0, 0.0, 0.0, 0.0, 0.0, 1.696015213397036E9, 0.0, 2023-09-29 14:20:13.397
126.0, 48283.05372989819, 37052.307969606874, 15529.321495213688, 19577.490637003262, 19695.440792493915, 15692.645691948617, -53060.560293264425, 24340.557973451374, 38540.08478404102, 21841.498832881312, 1731.567291208183, 28344.001274585877, 35982.37466602024, 24339.552144950885, -14585.228512910428, 2529.1892920958153, -0.008, 1.018, -0.1, 192.0, 0.0, 0.0, 0.0, 0.0, 0.0, 0.0, 0.0, 0.0, 0.0, 1.696015213397048E9, 0.0, 2023-09-29 14:20:13.397
128.0, 48078.6470268544, 37015.31583253334, 15404.822278597627, 19483.85917947998, 19708.650673467004, 15706.77199444437, -53258.79791483855, 24357.34413353731, 38544.55513293209, 21833.6533705775, 1770.5040300493276, 28316.106297505656, 35935.525409641916, 24316.775717350927, -14609.815431811267, 2493.6723701563324, -0.008, 1.018, -0.1, 192.0, 0.0, 0.0, 0.0, 0.0, 0.0, 0.0, 0.0, 0.0, 0.0, 1.696015213397056E9, 0.0, 2023-09-29 14:20:13.397
130.0, 48285.08773864362, 37036.460582788066, 15540.430312207976, 19577.714154447815, 19697.787725661725, 15689.047061091313, -53053.273624572, 24347.62112469925, 38539.503638685186, 21818.342425625615, 1708.43323569694, 28335.64172215959, 35974.730369416524, 24314.67465337213, -14579.372355863137, 2524.8307019270305, -0.008, 1.018, -0.1, 192.0, 0.0, 0.0, 0.0, 0.0, 0.0, 0.0, 0.0, 0.0, 0.0, 1.696015213397065E9, 0.0, 2023-09-29 14:20:13.397
132.0, 48072.32148317355, 36994.95339333456, 15397.066223271637, 19468.928214183834, 19697.675966939445, 15702.212238575488, -53241.408257652314, 24356.762988181472, 38535.39091770541, 21814.877905235044, 1833.0665627797323, 28311.993576525878, 35935.525409641916, 24316.48514467301, -14609.681321344535, 2491.9289340888186, -0.008, 1.02, -0.096, 192.0, 127.5, 96.0, 15.5, 112.0, 126.5, 0.0, 0.0, 0.0, 0.0, 1.696015213397074E9, 0.0, 2023-09-29 14:20:13.397
134.0, 48284.17131712095, 37025.73174544951, 15538.999800562837, 19582.139799849963, 19682.074449309643, 15680.799267387303, -53048.602109980835, 24336.981694338527, 38540.330653230034, 21814.54262906821, 1689.434252909929, 28330.903152335068, 35970.461186225555, 24308.326757946823, -14589.140068190107, 2518.7733791796422, -0.008, 1.02, -0.096, 192.0, 0.0, 0.0, 0.0, 0.0, 0.0, 0.0, 0.0, 0.0, 0.0, 1.696015213456787E9, 0.0, 2023-09-29 14:20:13.456
136.0, 48066.01829123715, 36998.23909976949, 15387.812601067139, 19459.763998957158, 19704.8508769096, 15701.117003097179, -53240.581243107474, 24352.516156734964, 38539.43658345182, 21813.335634867624, 1862.682624183014, 28304.706907833446, 35937.35825268725, 24311.56776089284, -14615.693940603012, 2486.1621840193493, -0.008, 1.02, -0.096, 192.0, 0.0, 0.0, 0.0, 0.0, 0.0, 0.0, 0.0, 0.0, 0.0, 1.696015213456809E9, 0.0, 2023-09-29 14:20:13.456
138.0, 48252.11891557204, 37033.82307694234, 15532.897774326537, 19571.81329391161, 19695.17257156045, 15684.86728487817, -53106.783700798005, 24340.62502868474, 38545.940941088316, 21815.03436744623, 1636.438266806396, 28322.722413864427, 35974.26098278296, 24323.347130220787, -14596.203219437984, 2505.9881813512065, -0.008, 1.02, -0.096, 192.0, 0.0, 0.0, 0.0, 0.0, 0.0, 0.0, 0.0, 0.0, 0.0, 1.696015213456871E9, 0.0, 2023-09-29 14:20:13.456
140.0, 48083.027968767645, 37000.653088170664, 15395.166324992935, 19463.384981558916, 19695.664309938467, 15701.318168797276, -53233.04870522603, 24353.320819535355, 38535.77089736115, 21803.947902196396, 1868.6281882081257, 28304.0810589887, 35951.46220343855, 24307.99148177999, -14612.452937656992, 2481.401262450369, -0.008, 1.02, -0.096, 192.0, 0.0, 0.0, 0.0, 0.0, 0.0, 0.0, 0.0, 0.0, 0.0, 1.69601521345688E9, 0.0, 2023-09-29 14:20:13.456
142.0, 48243.89347361249, 37034.5383327649, 15531.98135280387, 19584.57613999559, 19687.41651623446, 15688.24239829092, -53125.022724273535, 24343.083720574825, 38548.75726088968, 21821.002283215796, 1611.3596095275414, 28327.908018578055, 35965.61085767876, 24324.017682554448, -14595.063280470764, 2497.3827597359136, -0.004, 1.022, -0.098, 192.0, 127.5, 112.0, 15.5, 120.0, 126.0, 120.0, 0.0, 0.0, 0.0, 1.696015213456889E9, 0.0, 2023-09-29 14:20:13.456
144.0, 48103.010428310685, 36983.82222459582, 15400.396633195476, 19462.982650158723, 19683.102629554585, 15689.605854702695, -53205.131376401354, 24338.25574377248, 38531.792286848104, 21804.573751041145, 1888.23066809543, 28311.255968958852, 35956.15606977416, 24300.928330532115, -14612.072958001252, 2478.853163582464, -0.004, 1.022, -0.098, 192.0, 0.0, 0.0, 0.0, 0.0, 0.0, 0.0, 0.0, 0.0, 0.0, 1.696015213456898E9, 0.0, 2023-09-29 14:20:13.456
146.0, 48216.91491805493, 37016.92515813412, 15503.415823389987, 19553.77543613618, 19686.433039478427, 15685.694299423016, -53154.61643393236, 24351.331514278834, 38540.10713578548, 21811.435736588926, 1609.7726356712146, 28308.37259392412, 35954.34557847328, 24299.00608050896, -14601.388824151616, 2486.720977630732, -0.004, 1.022, -0.098, 192.0, 0.0, 0.0, 0.0, 0.0, 0.0, 0.0, 0.0, 0.0, 0.0, 1.696015213456908E9, 0.0, 2023-09-29 14:20:13.456
148.0, 48121.696486675326, 36990.34893397676, 15409.3373309776, 19475.253757864688, 19700.246417551807, 15697.496020495419, -53198.29174259803, 24352.091473590313, 38534.42979269383, 21801.35509983958, 1874.6631592110587, 28303.07523048821, 35965.65556116767, 24308.751441091474, -14597.007882238375, 2482.8317740955085, -0.004, 1.022, -0.098, 192.0, 0.0, 0.0, 0.0, 0.0, 0.0, 0.0, 0.0, 0.0, 0.0, 1.696015213456916E9, 0.0, 2023-09-29 14:20:13.456
150.0, 48193.17736544339, 37015.673460444625, 15500.599503588619, 19560.123331561488, 19697.60891170608, 15688.980005857946, -53184.21014359119, 24345.922392120647, 38540.66592939686, 21806.11602140856, 1598.8202808881142, 28301.37649790961, 35947.461241181045, 24313.780583593918, -14591.866981013654, 2488.687931142799, -0.004, 1.022, -0.098, 192.0, 0.0, 0.0, 0.0, 0.0, 0.0, 0.0, 0.0, 0.0, 0.0, 1.69601521351791E9, 0.0, 2023-09-29 14:20:13.517
152.0, 48158.12983013748, 36996.22744276851, 15436.271183046245, 19491.48112433924, 19692.870341881557, 15691.416346003574, -53148.22383501814, 24346.10120607629, 38524.08093501102, 21794.917797436454, 1894.9361914320223, 28301.756477565348, 35970.30472401437, 24301.24125495449, -14583.529780331824, 2496.645152168888, -0.002, 1.018, -0.094, 192.0, 127.5, 120.0, 15.5, 104.0, 126.5, 8.0, 0.0, 0.0, 0.0, 1.696015213517936E9, 0.0, 2023-09-29 14:20:13.517
154.0, 48165.371795340994, 37019.36149827975, 15487.143753426524, 19548.478072700273, 19703.643882709013, 15694.567941971773, -53204.39376883433, 24353.410226513177, 38535.05564153858, 21807.948864453898, 1630.2915370811866, 28303.432858399494, 35937.31354919834, 24319.547333663384, -14592.60458858068, 2493.5606114340558, -0.002, 1.018, -0.094, 192.0, 0.0, 0.0, 0.0, 0.0, 0.0, 0.0, 0.0, 0.0, 0.0, 1.696015213517947E9, 0.0, 2023-09-29 14:20:13.517
156.0, 48172.34553961105, 37002.86591087173, 15450.464540775365, 19502.38877563343, 19694.61377794907, 15690.38816575863, -53148.8943873518, 24341.496746718498, 38527.679565868326, 21799.209332371873, 1883.0450633817989, 28313.06646025973, 35974.14922406068, 24297.62027235273, -14577.494809328891, 2500.690817915299, -0.002, 1.018, -0.094, 192.0, 0.0, 0.0, 0.0, 0.0, 0.0, 0.0, 0.0, 0.0, 0.0, 1.696015213517961E9, 0.0, 2023-09-29 14:20:13.517
158.0, 48135.35340253752, 37015.1370185777, 15469.307061351188, 19529.121462001975, 19698.368871017563, 15686.409555245586, -53252.09239150195, 24342.234354285523, 38542.25290325319, 21803.523219051745, 1621.4625980213402, 28299.186026952986, 35943.01324403444, 24302.00121426597, -14590.83880076871, 2479.1884397492936, -0.002, 1.018, -0.094, 192.0, 0.0, 0.0, 0.0, 0.0, 0.0, 0.0, 0.0, 0.0, 0.0, 1.69601521351797E9, 0.0, 2023-09-29 14:20:13.517
160.0, 48202.74391207027, 37011.31487027584, 15468.614157273074, 19514.95045601731, 19697.340690772617, 15687.929473868548, -53142.74765762659, 24337.115804805257, 38528.70774611327, 21795.945977681396, 1844.4436007074835, 28313.155867237554, 35981.63705845321, 24296.48033338551, -14576.243111639395, 2487.30212298657, -0.002, 1.018, -0.094, 192.0, 0.0, 0.0, 0.0, 0.0, 0.0, 0.0, 0.0, 0.0, 0.0, 1.69601521351802E9, 0.0, 2023-09-29 14:20:13.518
162.0, 48118.36607675148, 37014.68998368859, 15458.265299590266, 19522.192421220832, 19698.726498928845, 15688.287101779832, -53289.3303977645, 24344.15660430868, 38544.37631897644, 21813.31328312317, 1625.5082637677508, 28305.422163656018, 35936.88886605369, 24319.34616796329, -14592.023443224842, 2476.6179891369334, -0.002, 1.018, -0.094, 192.0, 127.5, 120.0, 15.5, 104.0, 126.5, 8.0, 0.0, 0.0, 0.0, 1.696015213518029E9, 0.0, 2023-09-29 14:20:13.518
164.0, 48247.246235280785, 37020.74730643598, 15505.695701324428, 19537.77158710618, 19691.171609302954, 15682.274482521354, -53111.879898533814, 24330.25381925748, 38530.36177520297, 21803.65732951848, 1813.5311381257939, 28323.236503986896, 35977.323171773336, 24300.704813087563, -14573.31503311575, 2494.6334951679105, -0.002, 1.018, -0.094, 192.0, 0.0, 0.0, 0.0, 0.0, 0.0, 0.0, 0.0, 0.0, 0.0, 1.696015213576564E9, 0.0, 2023-09-29 14:20:13.576
166.0, 48101.60226841, 37009.526730719415, 15443.647258716495, 19499.505400598693, 19692.736231414823, 15690.611683203184, -53292.01260709913, 24342.927258363638, 38544.175153276345, 21809.759355754777, 1681.14175571701, 28305.153942722554, 35934.92191254162, 24299.296653186877, -14597.052585727286, 2471.4994396566676, -0.002, 1.018, -0.094, 192.0, 0.0, 0.0, 0.0, 0.0, 0.0, 0.0, 0.0, 0.0, 0.0, 1.696015213576598E9, 0.0, 2023-09-29 14:20:13.576
168.0, 48248.7885056482, 37023.74244019299, 15509.07081473718, 19550.042694812142, 19702.727461186347, 15690.969311114468, -53126.43088417422, 24343.508403719476, 38536.01676655016, 21802.78561148472, 1781.0317016877773, 28324.734070865405, 35987.58262247832, 24312.35007194878, -14573.136219160107, 2495.1922887792934, -0.002, 1.018, -0.094, 192.0, 0.0, 0.0, 0.0, 0.0, 0.0, 0.0, 0.0, 0.0, 0.0, 1.696015213576608E9, 0.0, 2023-09-29 14:20:13.576
170.0, 48079.675207099346, 37004.65405042816, 15430.236212043312, 19490.028260949643, 19701.94515013041, 15692.377471015154, -53324.60145051497, 24342.614333941263, 38547.30439750009, 21810.31814936616, 1690.529488388239, 28304.50574213335, 35942.6332643787, 24308.304406202365, -14589.69886180149, 2472.3488059459696, -0.002, 1.018, -0.094, 192.0, 0.0, 0.0, 0.0, 0.0, 0.0, 0.0, 0.0, 0.0, 0.0, 1.696015213576618E9, 0.0, 2023-09-29 14:20:13.576
172.0, 48268.92742740243, 37025.86585591625, 15526.639285879051, 19556.502348959726, 19689.271711024252, 15680.396935987108, -53123.52515739503, 24331.751386135984, 38534.27333048265, 21799.432849816425, 1731.6790499304593, 28315.525152149818, 35978.59722120729, 24290.892397271684, -14576.466629083949, 2486.877439841919, -0.01, 1.012, -0.088, 192.0, 127.5, 88.0, 15.5, 80.0, 126.5, 32.0, 0.0, 0.0, 0.0, 1.696015213576628E9, 0.0, 2023-09-29 14:20:13.576
174.0, 48072.16502096236, 37006.37513475122, 15411.013711811747, 19474.583205531027, 19696.692490183414, 15685.448430234008, -53317.02420914462, 24338.00987458347, 38536.1955805058, 21796.102439892584, 1743.9948611253335, 28291.541730349272, 35940.77806958891, 24291.920577516627, -14597.65608282758, 2455.5179423711234, -0.01, 1.012, -0.088, 192.0, 0.0, 0.0, 0.0, 0.0, 0.0, 0.0, 0.0, 0.0, 0.0, 1.696015213576638E9, 0.0, 2023-09-29 14:20:13.576
176.0, 48260.254950553775, 37038.42753630013, 15530.975524303381, 19562.470264729294, 19701.56517047467, 15687.996529101913, -53135.25982323406, 24338.43455772812, 38533.401612448884, 21796.057736403673, 1711.2272037538535, 28310.965396280935, 35983.201680565086, 24297.642624097185, -14570.878692970122, 2481.8706490839304, -0.01, 1.012, -0.088, 192.0, 0.0, 0.0, 0.0, 0.0, 0.0, 0.0, 0.0, 0.0, 0.0, 1.696015213576648E9, 0.0, 2023-09-29 14:20:13.576
178.0, 48063.8948755139, 37008.1856260521, 15411.617208912041, 19469.732876984224, 19700.246417551807, 15694.813811160782, -53326.03196216011, 24349.029284599936, 38542.074089297545, 21801.042175417206, 1765.273721846786, 28299.253082186355, 35940.71101435555, 24300.458943898553, -14581.629882053125, 2467.5431808880785, -0.01, 1.012, -0.088, 192.0, 0.0, 0.0, 0.0, 0.0, 0.0, 0.0, 0.0, 0.0, 0.0, 1.696015213576657E9, 0.0, 2023-09-29 14:20:13.576
180.0, 48265.8428866676, 37038.51694327795, 15535.512928427808, 19564.548976963637, 19687.729440656836, 15681.782744143338, -53138.47847443563, 24332.176069280635, 38533.401612448884, 21795.476591047835, 1673.5421626022057, 28314.005233526856, 35973.188099049104, 24291.674708327617, -14568.040021424296, 2484.306989229559, -0.01, 1.012, -0.088, 192.0, 0.0, 0.0, 0.0, 0.0, 0.0, 0.0, 0.0, 0.0, 0.0, 1.69601521363745E9, 0.0, 2023-09-29 14:20:13.637
182.0, 48068.18641044932, 37007.80564639636, 15401.849496585071, 19460.27808907963, 19709.880019412045, 15703.307474053798, -53321.85218594697, 24352.337342779323, 38537.603740406485, 21800.148105638997, 1815.9674782714224, 28302.337622921186, 35943.66144462364, 24293.2840339284, -14582.479248342426, 2464.5703988755226, -0.006, 1.012, -0.088, 192.0, 127.5, 104.0, 15.5, 80.0, 126.5, 32.0, 0.0, 0.0, 0.0, 1.696015213637513E9, 0.0, 2023-09-29 14:20:13.637
184.0, 48256.812781907654, 37038.87457118923, 15533.970658060392, 19566.44887524234, 19691.104554069585, 15691.125773325655, -53185.32773081395, 24347.263496787968, 38545.60566492149, 21804.417288829958, 1630.7832754592032, 28321.202495241465, 35975.82560489483, 24301.308310187855, -14567.011841179354, 2491.9512858332737, -0.006, 1.012, -0.088, 192.0, 0.0, 0.0, 0.0, 0.0, 0.0, 0.0, 0.0, 0.0, 0.0, 1.696015213637523E9, 0.0, 2023-09-29 14:20:13.637
186.0, 48090.98518979373, 37004.85521612826, 15408.420909454931, 19464.61432750396, 19702.23572280833, 15698.72536644046, -53324.333229581505, 24352.87378464625, 38545.87388585495, 21805.98191094183, 1819.141425984076, 28313.69230910448, 35956.31253198535, 24306.918598046137, -14578.478286084926, 2478.6296461379106, -0.006, 1.012, -0.088, 192.0, 0.0, 0.0, 0.0, 0.0, 0.0, 0.0, 0.0, 0.0, 0.0, 1.696015213637532E9, 0.0, 2023-09-29 14:20:13.637
188.0, 48268.07806111313, 37040.1933241121, 15538.30689648472, 19580.01638412671, 19693.496190726306, 15682.743869154916, -53183.472536024165, 24339.30627576188, 38544.331615487536, 21803.925550451942, 1618.9815543868012, 28320.42018418553, 35953.83148835081, 24308.90790330266, -14567.436524324004, 2485.245762496682, -0.006, 1.012, -0.088, 192.0, 0.0, 0.0, 0.0, 0.0, 0.0, 0.0, 0.0, 0.0, 0.0, 1.696015213637543E9, 0.0, 2023-09-29 14:20:13.637
190.0, 48113.09106506003, 36996.29449800187, 15405.962217564847, 19466.13424612692, 19692.08803082562, 15690.410517503085, -53271.09137428897, 24342.30140951889, 38529.15478100238, 21788.145218866495, 1884.9673134049551, 28299.32013741972, 35935.503057897455, 24286.064420469334, -14584.714422787956, 2467.140849487883, -0.006, 1.012, -0.088, 192.0, 0.0, 0.0, 0.0, 0.0, 0.0, 0.0, 0.0, 0.0, 0.0, 1.696015213637552E9, 0.0, 2023-09-29 14:20:13.637
192.0, 48236.36093573105, 37034.04659438689, 15517.631532863563, 19572.372087522996, 19697.40774600598, 15688.197694802011, -53202.069187410976, 24344.491880475507, 38540.35300497449, 21797.242378859806, 1632.7725807157256, 28307.99261426838, 35950.45637493806, 24304.594016622785, -14573.426791838026, 2477.0873757704944, -0.002, 1.016, -0.09, 192.0, 127.5, 120.0, 15.5, 96.0, 126.5, 24.0, 0.0, 0.0, 0.0, 1.696015213637561E9, 0.0, 2023-09-29 14:20:13.637
194.0, 48121.02593434166, 37004.69875391707, 15408.465612943843, 19475.723144498246, 19709.432984522937, 15703.77686068736, -53281.060252316034, 24355.28777304742, 38541.35883347497, 21796.01303291476, 1888.9459239179998, 28312.150038737065, 35960.961694832054, 24292.412315894642, -14569.157608647063, 2472.7287856017097, -0.002, 1.016, -0.09, 192.0, 0.0, 0.0, 0.0, 0.0, 0.0, 0.0, 0.0, 0.0, 0.0, 1.696015213697144E9, 0.0, 2023-09-29 14:20:13.697
196.0, 48213.02571451971, 37028.07867861732, 15515.038730506747, 19566.29241303115, 19698.90531288449, 15683.01209008838, -53251.95828103522, 24340.222697284546, 38554.524010959154, 21809.826410988142, 1591.4889087067734, 28320.598998141173, 35962.68277915511, 24306.96330153505, -14558.808750964256, 2488.464413698246, -0.002, 1.016, -0.09, 192.0, 0.0, 0.0, 0.0, 0.0, 0.0, 0.0, 0.0, 0.0, 0.0, 1.696015213697172E9, 0.0, 2023-09-29 14:20:13.697
198.0, 48140.44960027333, 37003.5364632054, 15422.10017706158, 19477.220711376754, 19696.156048316487, 15690.29875878081, -53246.90678678832, 24349.699836933596, 38522.58336813252, 21775.427076271426, 1891.3152088302625, 28299.834227542193, 35963.196869277584, 24279.89533899967, -14573.985585449409, 2472.527619901612, -0.002, 1.016, -0.09, 192.0, 0.0, 0.0, 0.0, 0.0, 0.0, 0.0, 0.0, 0.0, 0.0, 1.696015213697182E9, 0.0, 2023-09-29 14:20:13.697
200.0, 48170.4679930768, 37027.60929198376, 15492.239951162333, 19540.878479585466, 19703.487420497826, 15684.263787777876, -53290.40328149835, 24342.10024381879, 38547.50556320019, 21798.404669571482, 1594.5287459526953, 28306.919730534522, 35944.30964521285, 24301.732993332505, -14568.822332480233, 2475.902733314363, -0.002, 1.016, -0.09, 192.0, 0.0, 0.0, 0.0, 0.0, 0.0, 0.0, 0.0, 0.0, 0.0, 1.696015213697191E9, 0.0, 2023-09-29 14:20:13.697
202.0, 48161.192019127855, 37005.682230673105, 15445.837729673116, 19484.66384228037, 19697.921836128455, 15685.783706400838, -53234.09923721543, 24341.67556067414, 38526.60668213447, 21778.60102398408, 1878.0159208793548, 28297.956681007945, 35976.51850897295, 24286.533807102896, -14563.659079511057, 2473.533448402101, -0.002, 1.014, -0.092, 192.0, 127.5, 120.0, 15.5, 88.0, 126.5, 16.0, 0.0, 0.0, 0.0, 1.696015213697205E9, 0.0, 2023-09-29 14:20:13.697
204.0, 48143.556492752614, 37020.25556805797, 15484.506247580797, 19535.402302193917, 19707.66719671097, 15685.157857556089, -53311.12334860842, 24356.561822481373, 38541.515295686164, 21795.16366662546, 1616.8804904080023, 28291.11704720462, 35943.99672079048, 24293.596958350776, -14570.990451692398, 2465.0621372535393, -0.002, 1.014, -0.092, 192.0, 0.0, 0.0, 0.0, 0.0, 0.0, 0.0, 0.0, 0.0, 0.0, 1.696015213697244E9, 0.0, 2023-09-29 14:20:13.697
206.0, 48183.23083916079, 37006.576300451314, 15462.132151381034, 19500.891208754925, 19697.85478089509, 15683.392069744119, -53214.094425927935, 24344.894211875704, 38528.61833913545, 21783.27253857524, 1875.6019324781817, 28299.36484090863, 35983.44754975409, 24283.024583223414, -14558.898157942076, 2474.874553069419, -0.002, 1.014, -0.092, 192.0, 0.0, 0.0, 0.0, 0.0, 0.0, 0.0, 0.0, 0.0, 0.0, 1.696015213697253E9, 0.0, 2023-09-29 14:20:13.697
208.0, 48115.48270171675, 37016.723992434025, 15462.802703714695, 19513.274075183162, 19708.449507766905, 15691.975139614957, -53348.383706615416, 24355.846566658805, 38546.05269981059, 21794.046079402695, 1638.2711098517311, 28293.575739094704, 35945.91897081363, 24284.36568789073, -14577.740678517901, 2462.4469831522683, -0.002, 1.014, -0.092, 192.0, 0.0, 0.0, 0.0, 0.0, 0.0, 0.0, 0.0, 0.0, 0.0, 1.696015213697262E9, 0.0, 2023-09-29 14:20:13.697
210.0, 48210.83524356309, 37009.66084118615, 15485.377965614554, 19518.39262466343, 19701.31930128566, 15686.320148267765, -53212.35098986042, 24349.006932855482, 38532.26167348167, 21782.579634497124, 1833.1783215020087, 28308.32789043521, 35987.00147712249, 24285.57268209132, -14555.143064873584, 2480.0601577830503, -0.002, 1.014, -0.092, 192.0, 0.0, 0.0, 0.0, 0.0, 0.0, 0.0, 0.0, 0.0, 0.0, 1.696015213757432E9, 0.0, 2023-09-29 14:20:13.757
212.0, 48092.102777016495, 37012.745381920984, 15448.184662840924, 19506.568551846573, 19710.70703395689, 15703.754508942904, -53389.01917803517, 24364.988430141024, 38547.93024634484, 21793.397878813492, 1653.1573716589658, 28293.50868386134, 35943.63909287919, 24299.497818886975, -14573.829123238222, 2459.29538718407, -0.002, 1.018, -0.092, 192.0, 127.5, 120.0, 15.5, 104.0, 126.5, 16.0, 0.0, 0.0, 0.0, 1.696015213757466E9, 0.0, 2023-09-29 14:20:13.757
214.0, 48251.04603183819, 37029.19626584009, 15510.635436849052, 19538.017456295187, 19699.397051262506, 15699.731194940949, -53184.21014359119, 24345.497708975996, 38532.82046709305, 21787.40761129947, 1812.5700131142157, 28309.467829402427, 35987.06853235585, 24293.57460660632, -14550.471550282426, 2489.514945687645, -0.002, 1.018, -0.092, 192.0, 0.0, 0.0, 0.0, 0.0, 0.0, 0.0, 0.0, 0.0, 0.0, 1.696015213757475E9, 0.0, 2023-09-29 14:20:13.757
216.0, 48098.249506741704, 37038.2934258334, 15442.10498834908, 19494.543313329617, 19708.09187985562, 15710.2588665794, -53378.08917499652, 24358.506424248986, 38555.68630167083, 21813.827373245644, 1711.1377967760322, 28303.991652010878, 35936.710052098046, 24303.409374166655, -14567.749448746377, 2471.0300530231066, -0.002, 1.018, -0.092, 192.0, 0.0, 0.0, 0.0, 0.0, 0.0, 0.0, 0.0, 0.0, 0.0, 1.696015213757484E9, 0.0, 2023-09-29 14:20:13.757
218.0, 48281.95849441987, 37040.32743457883, 15527.22043123489, 19546.600526166025, 19687.684737167925, 15682.989738343924, -53152.09068680891, 24331.550220435885, 38536.687318883814, 21799.857532961076, 1811.9888677583776, 28321.56012315275, 35982.709942187066, 24305.018699767435, -14546.73880895839, 2492.8900591003967, -0.002, 1.018, -0.092, 192.0, 0.0, 0.0, 0.0, 0.0, 0.0, 0.0, 0.0, 0.0, 0.0, 1.696015213757493E9, 0.0, 2023-09-29 14:20:13.757
220.0, 48070.868619783956, 37013.95237612157, 15414.411176968953, 19467.00596416068, 19712.986911891334, 15701.519334497374, -53382.69363435431, 24356.09243584781, 38541.448240452795, 21800.30456785018, 1779.8023557427355, 28298.381364152596, 35935.19013347508, 24294.3345659178, -14569.112905158152, 2462.4469831522683, -0.002, 1.018, -0.092, 192.0, 0.0, 0.0, 0.0, 0.0, 0.0, 0.0, 0.0, 0.0, 0.0, 1.696015213757502E9, 0.0, 2023-09-29 14:20:13.757
222.0, 48266.6922529569, 37030.40326004067, 15530.729655114372, 19547.24872675523, 19707.220161821864, 15689.114116324678, -53192.86026869539, 24350.370389267253, 38532.842818837504, 21789.173399111438, 1756.6459484870375, 28310.808934069748, 35984.47572999904, 24283.538673345887, -14535.674695453012, 2489.3361317320027, -0.002, 1.018, -0.092, 192.0, 0.0, 0.0, 15.5, 104.0, 126.5, 16.0, 0.0, 0.0, 0.0, 1.696015213757511E9, 0.0, 2023-09-29 14:20:13.757
224.0, 48065.347738903496, 36993.70169564506, 15413.315941490644, 19454.623097732438, 19710.528220001248, 15694.947921627514, -53388.05805302359, 24357.187671326123, 38534.40744094938, 21786.714707221356, 1798.197841429453, 28283.226881411898, 35946.20954349155, 24295.22863569601, -14554.986602662399, 2470.001872778162, -0.002, 1.018, -0.092, 192.0, 0.0, 0.0, 0.0, 0.0, 0.0, 0.0, 0.0, 0.0, 0.0, 1.696015213817832E9, 0.0, 2023-09-29 14:20:13.817
226.0, 48259.830267409125, 37020.07675410232, 15533.188347004456, 19547.092264544044, 19702.28042629724, 15681.469819720964, -53199.78930947654, 24339.798014139895, 38524.885597811415, 21777.17051233894, 1731.3661255080851, 28290.44649487096, 35976.38439850621, 24287.584339092296, -14543.16252984554, 2482.8541258399637, -0.002, 1.018, -0.092, 192.0, 0.0, 0.0, 0.0, 0.0, 0.0, 0.0, 0.0, 0.0, 0.0, 1.696015213817923E9, 0.0, 2023-09-29 14:20:13.817
228.0, 48043.44302933729, 36999.535500947895, 15401.849496585071, 19451.292687808596, 19715.982045648343, 15699.887657152136, -53412.93554460234, 24360.00399112749, 38537.4472781953, 21785.083029876118, 1826.0481150207659, 28281.39403836656, 35946.99185454749, 24289.66305132664, -14557.914681186043, 2459.585959861989, -0.002, 1.018, -0.092, 192.0, 0.0, 0.0, 0.0, 0.0, 0.0, 0.0, 0.0, 0.0, 0.0, 1.696015213817934E9, 0.0, 2023-09-29 14:20:13.817
230.0, 48261.12666858753, 37030.80559144087, 15543.626611665084, 19570.941575877856, 19693.965577359864, 15677.67002316356, -53221.24698415363, 24337.451080972085, 38530.831161836526, 21782.199654841384, 1680.7841278057251, 28299.096619975167, 35973.612782193755, 24289.70775481555, -14546.314125813738, 2483.614085151444, -0.002, 1.018, -0.092, 192.0, 0.0, 0.0, 0.0, 0.0, 0.0, 0.0, 0.0, 0.0, 0.0, 1.696015213817943E9, 0.0, 2023-09-29 14:20:13.817
232.0, 48059.8939132564, 37005.212844039546, 15398.921418061427, 19455.874795421936, 19707.555437988693, 15700.781726930349, -53397.98222756174, 24355.086607347323, 38532.06050778157, 21782.043192630197, 1864.1131358281536, 28284.947965734955, 35950.52343017142, 24278.28601339889, -14568.867035969144, 2458.267206939126, -0.002, 1.018, -0.092, 192.0, 0.0, 0.0, 16.0, 0.0, 126.5, 8.0, 0.0, 0.0, 0.0, 1.696015213817952E9, 0.0, 2023-09-29 14:20:13.817
234.0, 48246.97801434732, 37033.37604205323, 15533.948306315937, 19566.717096175802, 19696.267807038763, 15684.442601733519, -53259.468467172206, 24341.809671140873, 38540.04008055211, 21791.92266367944, 1646.4965518112842, 28304.17046596652, 35976.71967467304, 24285.527978602408, -14556.685335241002, 2479.0319775381063, -0.002, 1.018, -0.092, 192.0, 0.0, 0.0, 0.0, 0.0, 0.0, 0.0, 0.0, 0.0, 0.0, 1.696015213817961E9, 0.0, 2023-09-29 14:20:13.817
236.0, 48073.930808774334, 36993.63464041169, 15391.90297030246, 19454.533690754615, 19705.253208309798, 15693.29389253782, -53396.9540473168, 24345.38595025372, 38536.57556016154, 21783.898387419988, 1868.9634643749553, 28290.915881504523, 35961.14050878769, 24287.89726351467, -14572.063335426252, 2453.1933609477715, -0.002, 1.018, -0.092, 192.0, 0.0, 0.0, 0.0, 0.0, 0.0, 0.0, 0.0, 0.0, 0.0, 1.69601521381797E9, 0.0, 2023-09-29 14:20:13.817
238.0, 48231.577662417614, 37022.20016982558, 15515.910448540504, 19557.39641873794, 19693.451487237395, 15678.966424341968, -53292.34788326596, 24345.18478455362, 38539.66010089637, 21789.642785745, 1620.5908799875833, 28293.955718750447, 35964.806194878365, 24292.680536828106, -14560.753352731866, 2465.9562070317515, -0.002, 1.018, -0.092, 192.0, 0.0, 0.0, 0.0, 0.0, 0.0, 0.0, 0.0, 0.0, 0.0, 1.696015213817979E9, 0.0, 2023-09-29 14:20:13.817
240.0, 48105.71498938978, 36984.67159088512, 15400.66485412894, 19451.717370953247, 19690.65751918048, 15683.704994166494, -53347.31082288156, 24340.602676940285, 38525.511446656164, 21771.895500647486, 1902.3346188467287, 28280.522320332806, 35953.94324707309, 24281.057629711348, -14569.962271447454, 2454.2885964260813, -0.002, 1.018, -0.092, 192.0, 0.0, 0.0, 0.0, 0.0, 0.0, 0.0, 0.0, 0.0, 0.0, 1.696015213877547E9, 0.0, 2023-09-29 14:20:13.877
242.0, 48209.78471157369, 37014.17589356612, 15506.410957146998, 19544.34299997604, 19685.538969700214, 15672.95380508349, -53274.131211534885, 24334.500650703987, 38528.41717343535, 21776.74582919429, 1661.2263514073315, 28281.997535466857, 35945.11430801324, 24271.938117973583, -14565.558977789759, 2457.037860994084, -0.002, 1.018, -0.092, 192.0, 0.0, 0.0, 15.5, 120.0, 126.5, 8.0, 0.0, 0.0, 0.0, 1.69601521387758E9, 0.0, 2023-09-29 14:20:13.877
244.0, 48107.54783243511, 36987.89024208668, 15402.452993685365, 19457.28295532262, 19696.021937849753, 15688.555322713295, -53309.89400266338, 24347.509365976974, 38520.48230415372, 21767.31339303415, 1955.7105846060022, 28277.482483086886, 35961.31932274334, 24273.86036799674, -14566.251881867873, 2451.405221391347, -0.002, 1.018, -0.092, 192.0, 0.0, 0.0, 0.0, 0.0, 0.0, 0.0, 0.0, 0.0, 0.0, 1.69601521387759E9, 0.0, 2023-09-29 14:20:13.877
246.0, 48161.70610925032, 37005.682230673105, 15491.725861039862, 19533.077720770565, 19701.364004774572, 15680.24047377592, -53340.068857678045, 24349.006932855482, 38548.6007986785, 21792.41440205746, 1644.3507843435748, 28290.08886695968, 35955.999607562975, 24301.24125495449, -14558.339364330694, 2456.635529593889, -0.002, 1.018, -0.092, 192.0, 0.0, 0.0, 0.0, 0.0, 0.0, 0.0, 0.0, 0.0, 0.0, 1.696015213877599E9, 0.0, 2023-09-29 14:20:13.877
248.0, 48134.63814671495, 36980.22359373851, 15434.147767322991, 19468.794103717104, 19692.669176181458, 15683.615587188673, -53317.40418880036, 24344.491880475507, 38532.66400488186, 21772.20842506986, 1921.780636522846, 28287.65252681405, 35975.06564558335, 24287.964318748036, -14552.438503794492, 2456.926102271808, -0.002, 1.018, -0.092, 192.0, 0.0, 0.0, 0.0, 0.0, 0.0, 0.0, 0.0, 0.0, 0.0, 1.696015213877636E9, 0.0, 2023-09-29 14:20:13.877
250.0, 48144.830542186566, 37003.82703588332, 15493.670462807473, 19532.228354481264, 19695.32903377164, 15681.782744143338, -53378.647968607904, 24352.762025923974, 38552.53470570263, 21792.324995079638, 1645.244854121787, 28289.619480326117, 35952.848011594775, 24301.218903210032, -14560.373373076127, 2454.2438929371706, -0.002, 1.018, -0.092, 192.0, 0.0, 0.0, 0.0, 0.0, 0.0, 0.0, 0.0, 0.0, 0.0, 1.696015213877644E9, 0.0, 2023-09-29 14:20:13.877
252.0, 48171.89850472195, 36995.73570439049, 15462.847407203604, 19494.789182518623, 19687.12594355654, 15681.648633676605, -53284.904752362345, 24344.313066519866, 38535.7485456167, 21785.261843831762, 1910.3141916172733, 28297.666108330028, 35990.60010797979, 24297.441458397087, -14553.466684039437, 2462.6034453634556, -0.002, 1.024, -0.096, 192.0, 127.5, 120.0, 16.0, 0.0, 126.5, 0.0, 0.0, 0.0, 0.0, 1.696015213877673E9, 0.0, 2023-09-29 14:20:13.877
254.0, 48114.342762749526, 37010.934890620105, 15465.01552641577, 19517.543258374128, 19693.742059915312, 15692.24336054842, -53407.0570358106, 24352.113825334767, 38553.00409233619, 21804.819620230155, 1675.8220405366471, 28290.69236405997, 35953.3844534617, 24313.668824871642, -14566.654213268068, 2448.6559568233442, -0.002, 1.024, -0.096, 192.0, 0.0, 0.0, 0.0, 0.0, 0.0, 0.0, 0.0, 0.0, 0.0, 1.696015213877683E9, 0.0, 2023-09-29 14:20:13.877
0.0, 48190.51750785321, 37001.54715794887, 15473.620948031063, 19511.552990860106, 19685.002527833287, 15688.823543646758, -53294.09131933348, 24353.142005579713, 38540.66592939686, 21802.98677718482, 1880.720481958447, 28299.36484090863, 35987.60497422278, 24307.678557357616, -14551.946765416476, 2466.693814598777, -0.002, 1.024, -0.096, 192.0, 0.0, 0.0, 0.0, 0.0, 0.0, 0.0, 0.0, 0.0, 0.0, 1.696015213937804E9, 0.0, 2023-09-29 14:20:13.937
