%OpenBCI Raw EXG Data
%Number of channels = 16
%Sample Rate = 125 Hz
%Board = OpenBCI_GUI$BoardCytonSerialDaisy
Sample Index, EXG Channel 0, EXG Channel 1, EXG Channel 2, EXG Channel 3, EXG Channel 4, EXG Channel 5, EXG Channel 6, EXG Channel 7, EXG Channel 8, EXG Channel 9, EXG Channel 10, EXG Channel 11, EXG Channel 12, EXG Channel 13, EXG Channel 14, EXG Channel 15, Accel Channel 0, Accel Channel 1, Accel Channel 2, Other, Other, Other, Other, Other, Other, Other, Analog Channel 0, Analog Channel 1, Analog Channel 2, Timestamp, Other, Timestamp (Formatted)
254.0, -187500.02235174447, 10082.626054600007, -19037.785415385417, -43474.098262083324, -15818.329551020808, -35284.17322446981, -187500.02235174447, -39329.10136331336, 9722.003009558084, -2460.1000499844613, -51488.13742257803, -49584.886382208635, -28081.435332469388, -27840.617637707906, -48091.208707238286, -61897.098946225524, 0.02, 0.964, 0.322, 192.0, 0.0, 80.0, 15.0, 16.0, 5.0, 8.0, 0.0, 0.0, 0.0, 1.69567461055128E9, 0.0, 2023-09-25 15:43:30.551
0.0, -187500.02235174447, 10091.767918082229, -19029.20234551458, -43465.3587300013, -15811.847545128769, -35330.307225025565, -187500.02235174447, -39313.76806661702, 9685.256741673558, -2448.566549845523, -51481.76717540827, -49581.77948972935, -28089.817236640127, -27829.754689902627, -48091.61103863848, -61918.78013834717, 0.02, 0.964, 0.322, 192.0, 0.0, 0.0, 0.0, 0.0, 0.0, 0.0, 0.0, 0.0, 0.0, 1.695674610551287E9, 0.0, 2023-09-25 15:43:30.551
2.0, -187500.02235174447, 10087.431679657899, -19031.392816471198, -43468.42091899168, -15820.520021977429, -35306.92730032531, -187500.02235174447, -39353.308302558464, 9713.129367009327, -2452.813381292031, -51482.46007948638, -49589.40143458861, -28078.3284399901, -27844.305675543033, -48105.44676845631, -61913.12514699998, 0.02, 0.964, 0.322, 192.0, 0.0, 0.0, 0.0, 0.0, 0.0, 0.0, 0.0, 0.0, 0.0, 1.695674610551291E9, 0.0, 2023-09-25 15:43:30.551
4.0, -187500.02235174447, 10059.626109555496, -19007.319987692834, -43443.4540204351, -15787.417088439119, -35344.85821066597, -187500.02235174447, -39267.90228699473, 9682.395718383279, -2443.1574276873384, -51469.94310259141, -49575.67746349305, -28084.31870750412, -27819.629349664374, -48081.195125722305, -61939.50020545724, 0.02, 0.964, 0.322, 192.0, 0.0, 0.0, 0.0, 0.0, 0.0, 0.0, 0.0, 0.0, 0.0, 1.695674610551294E9, 0.0, 2023-09-25 15:43:30.551
6.0, -187500.02235174447, 10073.864170773528, -19009.33164469381, -43445.71154662508, -15790.769850107414, -35308.916605581835, -187500.02235174447, -39244.164734383194, 9690.10707022036, -2459.29538718407, -51480.38136725204, -49584.84167871973, -28071.93584107588, -27830.738166658663, -48054.35068063148, -61943.05413282564, 0.02, 0.964, 0.322, 192.0, 0.0, 0.0, 0.0, 0.0, 0.0, 0.0, 0.0, 0.0, 0.0, 1.695674610551297E9, 0.0, 2023-09-25 15:43:30.551
8.0, -187500.02235174447, 10065.728135791795, -19015.590133141297, -43451.09831703881, -15792.870914086214, -35330.91072212586, -187500.02235174447, -39263.05195844793, 9695.87382028983, -2444.0514974655507, -51475.70985266088, -49581.5559722848, -28081.524739447206, -27818.042375808047, -48054.015404464655, -61953.40299050844, 0.014, 0.966, 0.316, 192.0, 0.0, 56.0, 15.0, 24.0, 4.5, 112.0, 0.0, 0.0, 0.0, 1.6956746105513E9, 0.0, 2023-09-25 15:43:30.551
10.0, -187500.02235174447, 10032.580498764575, -19050.95059286959, -43487.263439567505, -15825.437405757595, -35287.50363439365, -187500.02235174447, -39317.05377305195, 9704.412186671756, -2482.988236306696, -51503.51542276328, -49606.29935339682, -28097.059201843644, -27854.810995437027, -48079.63050361044, -61941.48951071376, 0.014, 0.966, 0.316, 192.0, 0.0, 0.0, 0.0, 0.0, 0.0, 0.0, 0.0, 0.0, 0.0, 1.695674610551304E9, 0.0, 2023-09-25 15:43:30.551
12.0, -187500.02235174447, 10051.758295507228, -19042.121653809747, -43474.098262083324, -15821.883478389202, -35325.99333834569, -187500.02235174447, -39315.891482340274, 9725.623992159843, -2485.983370063707, -51510.82444320017, -49616.08941746824, -28107.676280459917, -27860.398931550855, -48097.6013061525, -61903.737414328745, 0.014, 0.966, 0.316, 192.0, 0.0, 0.0, 0.0, 0.0, 0.0, 0.0, 0.0, 0.0, 0.0, 1.695674610551307E9, 0.0, 2023-09-25 15:43:30.551
14.0, -187500.02235174447, 10055.446333342354, -19038.85829911927, -43466.94570385763, -15820.877649888713, -35309.43069570431, -187500.02235174447, -39310.63882239328, 9679.847619515374, -2472.549971646067, -51497.79337618272, -49601.96311497249, -28095.78515240969, -27848.641913967364, -48083.74322459021, -61931.81120536461, 0.014, 0.966, 0.316, 192.0, 0.0, 0.0, 0.0, 0.0, 0.0, 0.0, 0.0, 0.0, 0.0, 1.69567461055131E9, 0.0, 2023-09-25 15:43:30.551
0.0, -93750.01117587223, 5118.169500609577, -9581.589350889844, -21797.488248048812, -8116.186632655458, -17905.580151746293, -93750.01117587223, -19799.801087355743, 4875.8318872251375, -1238.6442707352962, -25750.260144503136, -24802.277958664654, -14049.054866916522, -13928.780130002515, -24045.00085651885, -30940.93870412573, 0.018, 0.966, 0.317, 192.0, 0.0, 88.0, 15.0, 24.0, 4.5, 120.0, 0.0, 0.0, 0.0, 1.695674610707583E9, 0.0, 2023-09-25 15:43:30.707
2.0, -187500.02235174447, 10220.379855678066, -19167.805512881936, -43603.47015899065, -16235.703675234758, -35813.61899538267, -187500.02235174447, -39575.01525581065, 10565.0437551789, -2867.99703454936, -51664.78325900832, -49874.63204558278, -28684.48539787357, -28762.35887555586, -47969.86108659043, -60134.90976511357, 0.018, 0.966, 0.317, 192.0, 0.0, 0.0, 0.0, 0.0, 0.0, 0.0, 0.0, 0.0, 0.0, 1.695674610707593E9, 0.0, 2023-09-25 15:43:30.707
4.0, -187500.02235174447, 10217.295314943232, -19172.90171061775, -43608.99103987111, -16242.856233460456, -35793.79299805081, -187500.02235174447, -39591.4437879853, 10634.043590312433, -2870.8804095840947, -51662.391622351606, -49873.55916184893, -28674.270650657494, -28744.052796846965, -47962.507362664626, -60101.94094204199, 0.018, 0.966, 0.317, 192.0, 0.0, 0.0, 0.0, 0.0, 0.0, 0.0, 0.0, 0.0, 0.0, 1.695674610707596E9, 0.0, 2023-09-25 15:43:30.707
6.0, -187500.02235174447, 10215.350713175621, -19169.59365243836, -43604.699504935685, -16237.827090958011, -35813.104905260196, -187500.02235174447, -39594.86360488697, 10564.060278422867, -2868.1982002494574, -51669.07479394374, -49879.30356017394, -28691.459142143627, -28748.03140736001, -47960.965092297214, -60136.98847734791, 0.018, 0.966, 0.317, 192.0, 0.0, 0.0, 0.0, 0.0, 0.0, 0.0, 0.0, 0.0, 0.0, 1.695674610707599E9, 0.0, 2023-09-25 15:43:30.707
8.0, -187500.02235174447, 10219.754006833316, -19177.237949042075, -43616.85885391937, -16252.31102136505, -35792.541300361314, -187500.02235174447, -39627.69831749181, 10623.96295356309, -2883.196220778969, -51675.579151580234, -49893.0275312695, -28672.884842501266, -28767.87975643632, -47972.16331626932, -60094.56486637174, 0.018000000000000002, 0.962, 0.322, 192.0, 0.0, 72.0, 15.0, 8.0, 5.0, 8.0, 0.0, 0.0, 0.0, 1.695674610707602E9, 0.0, 2023-09-25 15:43:30.707
10.0, -187500.02235174447, 10225.029018524769, -19164.87743435829, -43601.547908967485, -16236.441282801783, -35824.52664667686, -187500.02235174447, -39591.04145658511, 10563.456781322573, -2861.313862957223, -51673.81336376827, -49879.05769098493, -28703.81965682741, -28743.44929974667, -47967.0224150446, -60134.77565464684, 0.018000000000000002, 0.962, 0.322, 192.0, 0.0, 0.0, 0.0, 0.0, 0.0, 0.0, 0.0, 0.0, 0.0, 1.695674610707605E9, 0.0, 2023-09-25 15:43:30.707
12.0, -187500.02235174447, 10226.727751103372, -19169.906576860736, -43609.68394394922, -16243.303268349562, -35805.66177435658, -187500.02235174447, -39613.77318069615, 10614.48581391404, -2873.406156707544, -51671.51113408937, -49886.411414910726, -28680.77500829399, -28780.68730600921, -47957.031185273074, -60101.60566587516, 0.018000000000000002, 0.962, 0.322, 192.0, 0.0, 0.0, 0.0, 0.0, 0.0, 0.0, 0.0, 0.0, 0.0, 1.695674610707609E9, 0.0, 2023-09-25 15:43:30.707
14.0, -187500.02235174447, 10217.809405065706, -19163.737495391073, -43606.57705146993, -16240.710465992746, -35842.408042241106, -187500.02235174447, -39604.34074453601, 10571.883388982224, -2866.4994676708543, -51670.9970439669, -49889.764176579025, -28692.554377621935, -28760.816605188444, -47958.21582772921, -60128.964201088456, 0.018000000000000002, 0.962, 0.322, 192.0, 0.0, 0.0, 0.0, 0.0, 0.0, 0.0, 0.0, 0.0, 0.0, 1.695674610707612E9, 0.0, 2023-09-25 15:43:30.707
16.0, -187500.02235174447, 10233.58973665115, -19164.22923376909, -43604.833615402415, -16245.918422450832, -35824.213722254484, -187500.02235174447, -39620.27753833265, 10607.445014410618, -2874.9707788194155, -51672.47225910095, -49888.40072016725, -28683.72543856209, -28764.281125579015, -47956.31592945051, -60112.669779380536, 0.018000000000000002, 0.962, 0.322, 192.0, 0.0, 0.0, 0.0, 0.0, 0.0, 0.0, 0.0, 0.0, 0.0, 1.695674610767833E9, 0.0, 2023-09-25 15:43:30.767
18.0, -187500.02235174447, 10228.582945893162, -19166.419704725708, -43600.87735663383, -16245.225518372717, -35855.70733019201, -187500.02235174447, -39597.50111073269, 10583.394537376707, -2854.541284387265, -51664.02329969684, -49882.25399044204, -28699.639880614268, -28726.730194894102, -47950.83975205896, -60144.72218092945, 0.014, 0.966, 0.318, 192.0, 0.0, 56.0, 15.0, 24.0, 4.5, 120.0, 0.0, 0.0, 0.0, 1.695674610767846E9, 0.0, 2023-09-25 15:43:30.767
20.0, -187500.02235174447, 10212.713207329894, -19178.243777542564, -43615.9424323967, -16257.83190224551, -35819.810428596786, -187500.02235174447, -39611.11332310597, 10615.804566836901, -2879.977569577404, -51679.46835511546, -49895.50857490404, -28686.362944407818, -28802.390849875315, -47953.94664453824, -60122.48219519642, 0.014, 0.966, 0.318, 192.0, 0.0, 0.0, 0.0, 0.0, 0.0, 0.0, 0.0, 0.0, 0.0, 1.69567461076785E9, 0.0, 2023-09-25 15:43:30.767
22.0, -187500.02235174447, 10219.083454499658, -19177.953204864647, -43614.53427249602, -16256.803722000566, -35842.47509747447, -187500.02235174447, -39601.010334612176, 10612.228287724052, -2871.573313662209, -51681.23414292743, -49900.56006915094, -28702.120924248808, -28770.494910537593, -47965.65895863283, -60117.9894945609, 0.014, 0.966, 0.318, 192.0, 0.0, 0.0, 0.0, 0.0, 0.0, 0.0, 0.0, 0.0, 0.0, 1.695674610767856E9, 0.0, 2023-09-25 15:43:30.767
24.0, -187500.02235174447, 10202.051425224714, -19190.671347459716, -43623.989060400614, -16270.12536169593, -35790.48493987143, -187500.02235174447, -39616.723610964254, 10602.415871908173, -2872.0650520402255, -51683.22344818395, -49890.74765333506, -28697.091781746363, -28767.92445992523, -47957.63468237337, -60107.52887815582, 0.014, 0.966, 0.318, 192.0, 0.0, 0.0, 0.0, 0.0, 0.0, 0.0, 0.0, 0.0, 0.0, 1.695674610767859E9, 0.0, 2023-09-25 15:43:30.767
26.0, -187500.02235174447, 10218.792881821739, -19165.369172736308, -43594.52946120852, -16251.148730653375, -35828.79582986782, -187500.02235174447, -39609.258128316185, 10604.941619031622, -2872.75795611834, -51692.164145966075, -49902.415263940726, -28721.07520354691, -28772.305401838472, -47962.082679519975, -60070.715555037925, 0.014, 0.966, 0.318, 192.0, 0.0, 0.0, 0.0, 0.0, 0.0, 0.0, 0.0, 0.0, 0.0, 1.695674610767862E9, 0.0, 2023-09-25 15:43:30.767
28.0, -187500.02235174447, 10218.770530077283, -19166.598518681352, -43599.312734521955, -16258.703620279268, -35797.70455333049, -187500.02235174447, -39621.350422066505, 10572.889217482712, -2864.5325141587873, -51681.90469526109, -49891.30644694644, -28704.512560905525, -28763.051779633974, -47950.10214449193, -60099.236380962895, 0.018000000000000002, 0.974, 0.316, 192.0, 0.0, 72.0, 15.0, 56.0, 4.5, 112.0, 0.0, 0.0, 0.0, 1.695674610767865E9, 0.0, 2023-09-25 15:43:30.767
30.0, -187500.02235174447, 10206.387663649042, -19178.199074053657, -43607.18054857023, -16265.386791871404, -35826.49360018892, -187500.02235174447, -39619.31641332107, 10602.9523137751, -2852.730793086385, -51684.63160808464, -49889.339493434374, -28722.34925298086, -28753.284067307006, -47951.28678694806, -60073.46481960593, 0.018000000000000002, 0.974, 0.316, 192.0, 0.0, 0.0, 0.0, 0.0, 0.0, 0.0, 0.0, 0.0, 0.0, 1.695674610828202E9, 0.0, 2023-09-25 15:43:30.828
32.0, -187500.02235174447, 10211.237992195844, -19183.965824123123, -43612.00852537257, -16268.493684350693, -35808.88042555814, -187500.02235174447, -39627.02776515815, 10558.695859753592, -2868.220551993913, -51691.96298026598, -49903.91283081923, -28716.068412788918, -28773.333582083415, -47954.70660384972, -60097.31413093974, 0.018000000000000002, 0.974, 0.316, 192.0, 0.0, 0.0, 0.0, 0.0, 0.0, 0.0, 0.0, 0.0, 0.0, 1.695674610828215E9, 0.0, 2023-09-25 15:43:30.828
34.0, -187500.02235174447, 10205.672407826472, -19175.874492630304, -43602.8443101459, -16263.375134870426, -35834.22730377046, -187500.02235174447, -39625.30668083509, 10617.346837204319, -2860.9785867903934, -51694.265209944875, -49902.97405755211, -28717.25305524505, -28756.346256297384, -47959.10989750742, -60052.36477284012, 0.018000000000000002, 0.974, 0.316, 192.0, 0.0, 0.0, 0.0, 0.0, 0.0, 0.0, 0.0, 0.0, 0.0, 1.695674610828219E9, 0.0, 2023-09-25 15:43:30.828
36.0, -187500.02235174447, 10202.744329302828, -19170.822998383403, -43603.291345035, -16261.83286450301, -35823.721983876465, -187500.02235174447, -39610.62158472795, 10557.287699852908, -2865.5830461481864, -51686.151526707596, -49904.1810517527, -28723.55624718145, -28790.522073569548, -47951.89028404836, -60082.98666274389, 0.018000000000000002, 0.974, 0.316, 192.0, 0.0, 0.0, 0.0, 0.0, 0.0, 0.0, 0.0, 0.0, 0.0, 1.695674610828222E9, 0.0, 2023-09-25 15:43:30.828
38.0, -187500.02235174447, 10201.984369991347, -19167.76080939303, -43596.67522867623, -16259.396524357382, -35842.743318407935, -187500.02235174447, -39610.8003986836, 10612.496508657518, -2865.8512670816503, -51684.02811098434, -49902.23644998508, -28715.867247088823, -28750.69126495019, -47956.80766782852, -60046.173339626, 0.024, 0.976, 0.316, 192.0, 0.0, 96.0, 15.0, 64.0, 4.5, 112.0, 0.0, 0.0, 0.0, 1.695674610828225E9, 0.0, 2023-09-25 15:43:30.828
40.0, -187500.02235174447, 10205.605352593107, -19168.56547219342, -43597.81516764345, -16260.782332513612, -35827.8570566007, -187500.02235174447, -39607.69350620431, 10534.51127225295, -2850.5850256186754, -51671.444078856, -49885.20442071014, -28703.037345771474, -28773.959430928164, -47940.5132461206, -60103.0361775203, 0.024, 0.976, 0.316, 192.0, 0.0, 0.0, 0.0, 0.0, 0.0, 0.0, 0.0, 0.0, 0.0, 1.695674610828229E9, 0.0, 2023-09-25 15:43:30.828
42.0, -187500.02235174447, 10218.2117364659, -19167.224367526098, -43599.51390022205, -16255.104989421963, -35830.98630082444, -187500.02235174447, -39617.774142953655, 10616.966857548578, -2873.9873020633822, -51694.62283785616, -49906.97501980961, -28736.25203803206, -28796.445285850205, -47961.74740335315, -60032.60583074163, 0.024, 0.976, 0.316, 192.0, 0.0, 0.0, 0.0, 0.0, 0.0, 0.0, 0.0, 0.0, 0.0, 1.695674610828232E9, 0.0, 2023-09-25 15:43:30.828
44.0, -187500.02235174447, 10197.268151911278, -19181.663594444228, -43611.38267652782, -16263.844521503988, -35833.37793748116, -187500.02235174447, -39616.07541037505, 10527.202251816065, -2853.982490775882, -51683.44696562851, -49892.98282778059, -28715.844895344366, -28760.146052854783, -47949.09631599144, -60089.89335178058, 0.024, 0.976, 0.316, 192.0, 0.0, 0.0, 0.0, 0.0, 0.0, 0.0, 0.0, 0.0, 0.0, 1.695674610828235E9, 0.0, 2023-09-25 15:43:30.828
46.0, -187500.02235174447, 10211.439157895942, -19164.139826791266, -43589.92500185073, -16249.137073652397, -35834.42846947056, -187500.02235174447, -39606.01712537016, 10605.165136476176, -2869.874581083606, -51696.61214311268, -49908.137310521284, -28717.320110478417, -28770.22668960413, -47961.43447893077, -60029.20836558442, 0.024, 0.976, 0.316, 192.0, 0.0, 0.0, 0.0, 0.0, 0.0, 0.0, 0.0, 0.0, 0.0, 1.695674610888501E9, 0.0, 2023-09-25 15:43:30.888
48.0, -187500.02235174447, 10196.910523999992, -19179.294309531964, -43609.25926080457, -16270.751210540679, -35835.8589811157, -187500.02235174447, -39635.052041417606, 10522.553088969362, -2847.9475197729494, -51677.836677770225, -49895.17329873721, -28724.15974428174, -28768.79617795899, -47941.20615019872, -60095.59304661668, 0.014, 0.972, 0.318, 192.0, 0.0, 56.0, 15.0, 48.0, 4.5, 120.0, 0.0, 0.0, 0.0, 1.695674610888511E9, 0.0, 2023-09-25 15:43:30.888
50.0, -187500.02235174447, 10197.245800166822, -19181.976518866602, -43615.405990529776, -16275.534483854115, -35828.99699556792, -187500.02235174447, -39678.2132599608, 10604.33812193133, -2875.9766073199044, -51706.46926241747, -49918.553223437455, -28734.150974053264, -28790.298556124995, -47974.376138970394, -60027.04024637226, 0.014, 0.972, 0.318, 192.0, 0.0, 0.0, 0.0, 0.0, 0.0, 0.0, 0.0, 0.0, 0.0, 1.695674610888514E9, 0.0, 2023-09-25 15:43:30.888
52.0, -187500.02235174447, 10195.904695499505, -19177.37205950881, -43605.79474041399, -16273.187550686307, -35838.74235615043, -187500.02235174447, -39601.39031426791, 10524.497690736973, -2858.6763571114966, -51695.04752100081, -49909.0313802995, -28733.703939164156, -28774.831148961923, -47973.95145582574, -60077.778706285804, 0.014, 0.972, 0.318, 192.0, 0.0, 0.0, 0.0, 0.0, 0.0, 0.0, 0.0, 0.0, 0.0, 1.695674610888517E9, 0.0, 2023-09-25 15:43:30.888
54.0, -187500.02235174447, 10216.915335287493, -19151.332277218375, -43586.8404611159, -16235.390750812383, -35823.23024549845, -187500.02235174447, -39559.27962771412, 10596.783232305435, -2857.312900699723, -51692.18649771053, -49903.64460988577, -28720.784630868988, -28775.725218740135, -47943.15075196633, -60031.62235398559, 0.014, 0.972, 0.318, 192.0, 0.0, 0.0, 0.0, 0.0, 0.0, 0.0, 0.0, 0.0, 0.0, 1.69567461088852E9, 0.0, 2023-09-25 15:43:30.888
56.0, -187500.02235174447, 10229.49936741583, -19161.79289362346, -43595.892917620295, -16252.623945787425, -35842.452745730014, -187500.02235174447, -39571.30486623107, 10547.318821825842, -2851.032060507782, -51681.21179118297, -49897.29671446046, -28714.034404043487, -28752.92643939572, -47925.47052210218, -60072.548398083265, 0.014, 0.972, 0.318, 192.0, 0.0, 0.0, 0.0, 0.0, 0.0, 0.0, 0.0, 0.0, 0.0, 1.695674610888524E9, 0.0, 2023-09-25 15:43:30.888
58.0, -187500.02235174447, 10219.664599855496, -19150.661724884718, -43589.00858032806, -16248.667687018835, -35816.94940530651, -187500.02235174447, -39584.782968137624, 10615.044607525422, -2845.4217726495, -51679.446003371006, -49897.229659227094, -28704.937244050176, -28752.457052762158, -47930.43260937126, -60041.5241767793, 0.01, 0.9580000000000001, 0.322, 192.0, 0.0, 40.0, 14.5, 120.0, 5.0, 8.0, 0.0, 0.0, 0.0, 1.695674610888527E9, 0.0, 2023-09-25 15:43:30.888
60.0, -187500.02235174447, 10195.524715843763, -19153.41098945272, -43598.284554277016, -16253.607422543459, -35842.00571084091, -187500.02235174447, -39596.31646827656, 10572.062202937866, -2851.0991157411477, -51680.8988667606, -49898.280191216494, -28720.717575635623, -28778.519186797046, -47930.63377507136, -60060.38904909958, 0.01, 0.9580000000000001, 0.322, 192.0, 0.0, 0.0, 0.0, 0.0, 0.0, 0.0, 0.0, 0.0, 0.0, 1.695674610948884E9, 0.0, 2023-09-25 15:43:30.948
62.0, -187500.02235174447, 10190.227352407856, -19180.300138032453, -43612.43320851722, -16271.26530066315, -35811.763800592875, -187500.02235174447, -39617.59532899801, 10610.551906889905, -2870.2322089948907, -51692.700587833, -49910.75246462256, -28716.895427333766, -28800.200378918697, -47943.03899324405, -60040.0713133897, 0.01, 0.9580000000000001, 0.322, 192.0, 0.0, 0.0, 0.0, 0.0, 0.0, 0.0, 0.0, 0.0, 0.0, 1.695674610948898E9, 0.0, 2023-09-25 15:43:30.948
64.0, -187500.02235174447, 10200.755024046306, -19168.766637893517, -43607.73934218161, -16267.152579683374, -35847.370129510186, -187500.02235174447, -39625.01610815717, 10583.282778654431, -2856.9105692995277, -51698.98142802494, -49910.68540938919, -28733.502773464057, -28770.919593682243, -47952.9184642933, -60044.78753146977, 0.01, 0.9580000000000001, 0.322, 192.0, 0.0, 0.0, 0.0, 0.0, 0.0, 0.0, 0.0, 0.0, 0.0, 1.695674610948903E9, 0.0, 2023-09-25 15:43:30.948
66.0, -187500.02235174447, 10218.815233566194, -19170.197149538657, -43614.19899632919, -16273.567530342047, -35834.87550435967, -187500.02235174447, -39650.206524158304, 10588.982473490534, -2854.630691365086, -51693.19232621102, -49910.26072624454, -28725.992587327077, -28766.091616879898, -47952.44907765974, -60046.329801837186, 0.01, 0.9580000000000001, 0.322, 192.0, 0.0, 0.0, 0.0, 0.0, 0.0, 0.0, 0.0, 0.0, 0.0, 1.695674610948909E9, 0.0, 2023-09-25 15:43:30.948
68.0, -187500.02235174447, 10193.669521053973, -19178.154370564745, -43622.804417944484, -16269.723030295734, -35852.22045805698, -187500.02235174447, -39636.9072362074, 10581.204066420087, -2855.882389054583, -51693.03586399983, -49910.12661577781, -28732.54164845248, -28782.229576376627, -47960.78627834157, -60057.84095023167, 0.008, 0.9580000000000001, 0.322, 192.0, 0.0, 32.0, 14.5, 120.0, 5.0, 8.0, 0.0, 0.0, 0.0, 1.695674610948922E9, 0.0, 2023-09-25 15:43:30.948
70.0, -187500.02235174447, 10206.96880900488, -19174.89101587427, -43619.295194065, -16262.414009858849, -35823.36435596518, -187500.02235174447, -39586.41464548286, 10580.354700130785, -2874.993130563871, -51698.91437279158, -49920.56488043843, -28728.92066585072, -28797.965204473163, -47942.59195835495, -60037.41145579952, 0.008, 0.9580000000000001, 0.322, 192.0, 0.0, 0.0, 0.0, 0.0, 0.0, 0.0, 0.0, 0.0, 0.0, 1.695674610948925E9, 0.0, 2023-09-25 15:43:30.948
72.0, -187500.02235174447, 10196.329378644155, -19161.256451756533, -43605.682981691716, -16246.656030017857, -35858.63540871566, -187500.02235174447, -39573.875316843434, 10574.431487850128, -2868.019386293815, -51691.873573288154, -49916.8321391144, -28732.675758919213, -28792.578434059436, -47940.423839142786, -60027.75550219483, 0.008, 0.9580000000000001, 0.322, 192.0, 0.0, 0.0, 0.0, 0.0, 0.0, 0.0, 0.0, 0.0, 0.0, 1.695674610948928E9, 0.0, 2023-09-25 15:43:30.948
74.0, -187500.02235174447, 10181.845448237116, -19184.278748545497, -43631.543950026506, -16268.31487039505, -35824.57135016577, -187500.02235174447, -39611.94033765082, 10561.445124321595, -2875.417813708522, -51694.399320411605, -49914.41815071322, -28711.754526109045, -28790.857349736376, -47940.557949609516, -60041.45712154593, 0.008, 0.9580000000000001, 0.322, 192.0, 0.0, 0.0, 0.0, 0.0, 0.0, 0.0, 0.0, 0.0, 0.0, 1.695674610948932E9, 0.0, 2023-09-25 15:43:30.948
76.0, -187500.02235174447, 10196.77641353326, -19170.93475710568, -43620.61394698786, -16257.138998167396, -35859.32831279377, -187500.02235174447, -39615.538968508125, 10588.088403712321, -2874.2778747413013, -51704.77052983887, -49921.79422638348, -28749.01488411604, -28781.93900369871, -47952.650243359836, -60006.43193798446, 0.008, 0.9580000000000001, 0.322, 192.0, 0.0, 0.0, 0.0, 0.0, 0.0, 0.0, 0.0, 0.0, 0.0, 1.695674611007624E9, 0.0, 2023-09-25 15:43:31.007
78.0, -187500.02235174447, 10196.68700655544, -19184.926949134704, -43633.10857213838, -16275.847408276488, -35836.55188519381, -187500.02235174447, -39665.62922783247, 10535.60650773126, -2861.5597321462315, -51686.06211972977, -49903.599906396856, -28733.681587419702, -28789.046858435497, -47942.234330443665, -60052.83415947368, 0.01, 0.96, 0.326, 192.0, 0.0, 40.0, 15.0, 0.0, 5.0, 24.0, 0.0, 0.0, 0.0, 1.695674611007636E9, 0.0, 2023-09-25 15:43:31.007
80.0, -187500.02235174447, 10201.202058935412, -19178.154370564745, -43629.35347906989, -16261.899919736377, -35859.06009186031, -187500.02235174447, -39633.84504721702, 10592.46934562556, -2877.116546287125, -51704.5023089054, -49922.97886883961, -28741.63880844579, -28811.13038195734, -47960.42865043028, -60002.766251893794, 0.01, 0.96, 0.326, 192.0, 0.0, 0.0, 0.0, 0.0, 0.0, 0.0, 0.0, 0.0, 0.0, 1.695674611007639E9, 0.0, 2023-09-25 15:43:31.007
82.0, -187500.02235174447, 10205.001855492814, -19183.965824123123, -43639.67998500824, -16264.40331511537, -35835.27783575986, -187500.02235174447, -39602.37379102395, 10535.360638542252, -2869.47224968341, -51694.01934075586, -49917.4803397036, -28743.605761957857, -28791.41614334776, -47941.25085368763, -60041.34536282365, 0.01, 0.96, 0.326, 192.0, 0.0, 0.0, 0.0, 0.0, 0.0, 0.0, 0.0, 0.0, 0.0, 1.695674611007643E9, 0.0, 2023-09-25 15:43:31.007
84.0, -187500.02235174447, 10221.318628945188, -19172.052344328447, -43619.47400802065, -16253.31684986554, -35851.72871967897, -187500.02235174447, -39587.68869491681, 10604.360473675784, -2871.4615549399323, -51699.920201292065, -49917.05565655895, -28725.83612511589, -28801.765001030566, -47942.83782754395, -59986.8071063527, 0.01, 0.96, 0.326, 192.0, 0.0, 0.0, 0.0, 0.0, 0.0, 0.0, 0.0, 0.0, 0.0, 1.695674611007646E9, 0.0, 2023-09-25 15:43:31.007
86.0, -187500.02235174447, 10216.758873076305, -19181.238911299577, -43634.203807616694, -16253.383905098905, -35842.85507713021, -187500.02235174447, -39591.756712407674, 10537.908737410156, -2844.9076825270276, -51684.966884251466, -49901.63295288479, -28734.329788008905, -28768.192680858694, -47915.792216753034, -60044.362848325116, 0.01, 0.96, 0.326, 192.0, 0.0, 0.0, 0.0, 0.0, 0.0, 0.0, 0.0, 0.0, 0.0, 1.695674611007649E9, 0.0, 2023-09-25 15:43:31.007
88.0, -187500.02235174447, 10199.235105423344, -19175.427457741196, -43630.62752850384, -16249.718219008235, -35849.13591732215, -187500.02235174447, -39600.853872400985, 10605.14278473172, -2879.217610265924, -51695.53925937883, -49913.6805431462, -28732.11696530783, -28789.717410769157, -47928.800932026024, -59995.54663843473, 0.014, 0.9480000000000001, 0.336, 192.0, 0.0, 56.0, 14.5, 80.0, 5.0, 64.0, 0.0, 0.0, 0.0, 1.695674611007653E9, 0.0, 2023-09-25 15:43:31.007
90.0, -187500.02235174447, 10200.01741647928, -19176.03095484149, -43633.645014005306, -16252.69100102079, -35849.962931867, -187500.02235174447, -39589.5438897066, 10514.908792365646, -2873.2049910074466, -51688.18553545303, -49913.79230186848, -28731.31230250744, -28786.45405607868, -47922.83301625646, -60057.438618831475, 0.014, 0.9480000000000001, 0.336, 192.0, 0.0, 0.0, 0.0, 0.0, 0.0, 0.0, 0.0, 0.0, 0.0, 1.695674611069412E9, 0.0, 2023-09-25 15:43:31.069
92.0, -187500.02235174447, 10203.571343847674, -19169.526597204997, -43634.404973316785, -16249.07001841903, -35845.64904518712, -187500.02235174447, -39596.42822699883, 10593.296360170409, -2873.406156707544, -51687.91731451957, -49912.22767975661, -28716.470744189115, -28794.143056171306, -47920.44137959974, -60009.98586535286, 0.014, 0.9480000000000001, 0.336, 192.0, 0.0, 0.0, 0.0, 0.0, 0.0, 0.0, 0.0, 0.0, 0.0, 1.695674611069424E9, 0.0, 2023-09-25 15:43:31.069
94.0, -187500.02235174447, 10178.380927846543, -19192.61594922733, -43664.78099403155, -16266.660841305358, -35837.356547994204, -187500.02235174447, -39592.181395552325, 10520.764949412936, -2883.1068138011474, -51702.66946586007, -49923.89529036228, -28730.708805407146, -28787.70575376818, -47923.19064416774, -60053.43765657397, 0.014, 0.9480000000000001, 0.336, 192.0, 0.0, 0.0, 0.0, 0.0, 0.0, 0.0, 0.0, 0.0, 0.0, 1.695674611069427E9, 0.0, 2023-09-25 15:43:31.069
96.0, -187500.02235174447, 10195.435308865943, -19183.98817586758, -43653.225142148156, -16263.643355803892, -35839.54701895083, -187500.02235174447, -39616.47774177525, 10591.016482235967, -2883.6209039236196, -51705.06110251679, -49923.06827581743, -28720.851686102356, -28809.856332523388, -47929.89616750433, -59990.338681976646, 0.014, 0.9480000000000001, 0.336, 192.0, 0.0, 0.0, 0.0, 0.0, 0.0, 0.0, 0.0, 0.0, 0.0, 1.69567461106943E9, 0.0, 2023-09-25 15:43:31.069
98.0, -187500.02235174447, 10194.943570487925, -19184.144638078767, -43656.577903816455, -16265.83382676051, -35853.85213540222, -187500.02235174447, -39639.07535541956, 10519.245030789976, -2875.015482308326, -51702.26713445987, -49916.608621669846, -28725.54555243797, -28819.780507061543, -47934.813551284504, -60032.58347899717, 0.01, 0.9540000000000001, 0.338, 192.0, 0.0, 40.0, 14.5, 104.0, 5.0, 72.0, 0.0, 0.0, 0.0, 1.695674611069434E9, 0.0, 2023-09-25 15:43:31.069
100.0, -187500.02235174447, 10188.752137273805, -19198.539161507986, -43667.57496208847, -16282.485876379715, -35835.34489099323, -187500.02235174447, -39605.01129686967, 10585.182676933131, -2883.218572523424, -51701.12719549265, -49897.85550807184, -28710.994566797566, -28792.958413715176, -47938.54629260854, -59984.97426330737, 0.01, 0.9540000000000001, 0.338, 192.0, 0.0, 0.0, 0.0, 0.0, 0.0, 0.0, 0.0, 0.0, 0.0, 1.695674611069437E9, 0.0, 2023-09-25 15:43:31.069
102.0, -187500.02235174447, 10191.322587886167, -19182.3788502668, -43657.337863127934, -16268.40427737287, -35858.52364999338, -187500.02235174447, -39595.78002640963, 10520.764949412936, -2885.8113748802393, -51703.13885249363, -49890.97117077961, -28733.83804963089, -28807.107067955385, -47935.84173152944, -60010.030568841765, 0.01, 0.9540000000000001, 0.338, 192.0, 0.0, 0.0, 0.0, 0.0, 0.0, 0.0, 0.0, 0.0, 0.0, 1.69567461106944E9, 0.0, 2023-09-25 15:43:31.069
104.0, -187500.02235174447, 10195.077680954657, -19184.56932122342, -43665.89858125432, -16265.74441978269, -35836.99892008292, -187500.02235174447, -39578.65859015687, 10574.029156449933, -2884.9396568464826, -51696.7015500905, -49880.24233344106, -28705.83131382839, -28799.730992285135, -47932.55602509451, -59978.44755392642, 0.01, 0.9540000000000001, 0.338, 192.0, 0.0, 0.0, 0.0, 0.0, 0.0, 0.0, 0.0, 0.0, 0.0, 1.695674611069443E9, 0.0, 2023-09-25 15:43:31.069
106.0, -187500.02235174447, 10203.2584194253, -19163.4245709687, -43657.09199393893, -16255.194396399786, -35863.57514424028, -187500.02235174447, -39581.0949303025, 10517.143966811176, -2865.4265839369996, -51682.12821270564, -49871.05576646993, -28706.658328373236, -28771.321925082437, -47923.39180986784, -60020.73705443586, 0.01, 0.9540000000000001, 0.338, 192.0, 0.0, 0.0, 0.0, 0.0, 0.0, 0.0, 0.0, 0.0, 0.0, 1.695674611128212E9, 0.0, 2023-09-25 15:43:31.128
108.0, -187500.02235174447, 10201.582038591152, -19172.521730962006, -43664.803345776, -16260.089428435496, -35845.33612076475, -187500.02235174447, -39598.26107004417, 10565.222569134543, -2878.055319554248, -51678.21665742596, -49865.847810011845, -28683.524272861992, -28786.252890378582, -47925.89520524684, -60006.65545542902, 0.008, 0.9480000000000001, 0.34600000000000003, 192.0, 0.0, 32.0, 14.5, 80.0, 5.0, 104.0, 0.0, 0.0, 0.0, 1.695674611128222E9, 0.0, 2023-09-25 15:43:31.128
110.0, -187500.02235174447, 10194.809460021193, -19173.75107690705, -43675.48747962564, -16264.760943026657, -35870.839461188254, -187500.02235174447, -39616.67890747535, 10522.955420369557, -2878.1670782765245, -51676.160296936076, -49862.60680706582, -28704.534912649982, -28776.619288518345, -47928.9126907483, -60046.329801837186, 0.008, 0.9480000000000001, 0.34600000000000003, 192.0, 0.0, 0.0, 0.0, 0.0, 0.0, 0.0, 0.0, 0.0, 0.0, 1.695674611128226E9, 0.0, 2023-09-25 15:43:31.128
112.0, -187500.02235174447, 10197.82694552266, -19182.73647817808, -43691.536032144555, -16285.972748514743, -35835.747222393424, -187500.02235174447, -39629.531160537146, 10567.010708690967, -2898.0154273528374, -51683.60342783969, -49869.44644086915, -28701.91975854871, -28794.344221871404, -47936.981670496665, -60017.69721718994, 0.008, 0.9480000000000001, 0.34600000000000003, 192.0, 0.0, 0.0, 0.0, 0.0, 0.0, 0.0, 0.0, 0.0, 0.0, 1.695674611128229E9, 0.0, 2023-09-25 15:43:31.128
114.0, -187500.02235174447, 10206.454718882409, -19168.56547219342, -43680.136642472346, -16278.261396677663, -35878.55081302534, -187500.02235174447, -39615.87424467495, 10536.545280998384, -2889.432357481999, -51684.74336680691, -49872.26276067052, -28728.272465261518, -28798.03225970653, -47942.1672752103, -60020.938220135955, 0.008, 0.9480000000000001, 0.34600000000000003, 192.0, 0.0, 0.0, 0.0, 0.0, 0.0, 0.0, 0.0, 0.0, 0.0, 1.695674611128232E9, 0.0, 2023-09-25 15:43:31.128
116.0, -187500.02235174447, 10197.849297267116, -19176.902672875247, -43688.13856698735, -16286.978577015232, -35834.562579937294, -187500.02235174447, -39614.980174896744, 10551.208025361066, -2896.897840130072, -51683.066985972764, -49867.792411779454, -28702.187979482173, -28802.41320161977, -47931.8631210164, -60023.28515330377, 0.008, 0.9480000000000001, 0.34600000000000003, 192.0, 0.0, 0.0, 0.0, 0.0, 0.0, 0.0, 0.0, 0.0, 0.0, 1.695674611128235E9, 0.0, 2023-09-25 15:43:31.128
118.0, -187500.02235174447, 10193.356596631598, -19173.773428651504, -43683.489404140644, -16288.230274704729, -35871.264144332905, -187500.02235174447, -39617.61768074246, 10555.968946930045, -2906.8443664126835, -51695.6510181011, -49879.705891574136, -28729.412404228737, -28813.924350014255, -47946.771734568094, -59994.58551342315, 0.006, 0.9480000000000001, 0.35000000000000003, 192.0, 0.0, 24.0, 14.5, 80.0, 5.0, 120.0, 0.0, 0.0, 0.0, 1.695674611128239E9, 0.0, 2023-09-25 15:43:31.128
120.0, -187500.02235174447, 10190.272055896767, -19184.949300879158, -43696.565174646996, -16299.070870765552, -35841.7598416519, -187500.02235174447, -39625.57490176856, 10545.664792736148, -2900.541174476287, -51684.72101506246, -49867.85946701282, -28712.179209253696, -28813.589073847423, -47939.19449319774, -60008.30948451871, 0.006, 0.9480000000000001, 0.35000000000000003, 192.0, 0.0, 0.0, 0.0, 0.0, 0.0, 0.0, 0.0, 0.0, 0.0, 1.695674611188515E9, 0.0, 2023-09-25 15:43:31.188
122.0, -187500.02235174447, 10201.917314757982, -19175.762733908028, -43679.68960758324, -16281.569454857046, -35875.6674379906, -187500.02235174447, -39604.83248291403, 10558.382935331218, -2902.0163896103372, -51692.09709073271, -49877.78364155098, -28731.938151352188, -28813.767887803067, -47943.8660077889, -59976.65941436999, 0.006, 0.9480000000000001, 0.35000000000000003, 192.0, 0.0, 0.0, 0.0, 0.0, 0.0, 0.0, 0.0, 0.0, 0.0, 1.695674611188527E9, 0.0, 2023-09-25 15:43:31.188
124.0, -187500.02235174447, 10220.089283000147, -19165.190358780666, -43665.093918453924, -16269.946547740288, -35857.920152893086, -187500.02235174447, -39606.240642814715, 10522.620144202727, -2890.6840551714963, -51676.83084926973, -49858.42703085268, -28710.703994119645, -28777.759227485567, -47927.50453084762, -60005.560219950705, 0.006, 0.9480000000000001, 0.35000000000000003, 192.0, 0.0, 0.0, 0.0, 0.0, 0.0, 0.0, 0.0, 0.0, 0.0, 1.695674611188531E9, 0.0, 2023-09-25 15:43:31.188
126.0, -187500.02235174447, 10202.789032791738, -19181.70829793314, -43674.88398252535, -16284.430478147326, -35886.217461373504, -187500.02235174447, -39616.857721430984, 10563.032098177922, -2888.8065086372508, -51677.85902951468, -49860.34928087584, -28720.292892490972, -28808.93991100072, -47930.18674018225, -59996.463059957394, 0.006, 0.9480000000000001, 0.35000000000000003, 192.0, 0.0, 0.0, 0.0, 0.0, 0.0, 0.0, 0.0, 0.0, 0.0, 1.695674611188534E9, 0.0, 2023-09-25 15:43:31.188
128.0, -187500.02235174447, 10195.59177107713, -19193.487667261084, -43692.96654378969, -16294.958149785776, -35851.39344351214, -187500.02235174447, -39609.660459716375, 10521.524908724417, -2906.1067588456585, -51687.13500346363, -49874.63204558278, -28730.39588098477, -28812.113858713372, -47935.864083273904, -60028.2695923173, 0.016, 0.9500000000000001, 0.34600000000000003, 192.0, 0.0, 64.0, 14.5, 88.0, 5.0, 104.0, 0.0, 0.0, 0.0, 1.695674611188537E9, 0.0, 2023-09-25 15:43:31.188
130.0, -187500.02235174447, 10209.472204383876, -19172.298213517453, -43670.19011618973, -16269.83478901801, -35885.09987415074, -187500.02235174447, -39605.950070136794, 10567.323633113341, -2907.7831396798065, -51694.37696866715, -49881.583438108384, -28734.44154673118, -28791.9972887036, -47933.427743128275, -59974.98303353585, 0.016, 0.9500000000000001, 0.34600000000000003, 192.0, 0.0, 0.0, 0.0, 0.0, 0.0, 0.0, 0.0, 0.0, 0.0, 1.69567461118854E9, 0.0, 2023-09-25 15:43:31.188
132.0, -187500.02235174447, 10172.614177777074, -19201.80251619846, -43694.59822113493, -16306.51400166917, -35850.87935338967, -187500.02235174447, -39624.03263140114, 10500.871896847713, -2903.022218110826, -51688.27494243085, -49877.671882828705, -28722.25984600304, -28820.18283846174, -47927.32571689197, -60037.00912439932, 0.016, 0.9500000000000001, 0.34600000000000003, 192.0, 0.0, 0.0, 0.0, 0.0, 0.0, 0.0, 0.0, 0.0, 0.0, 1.695674611188543E9, 0.0, 2023-09-25 15:43:31.188
134.0, -187500.02235174447, 10176.25751212329, -19197.868609174326, -43689.90435479931, -16299.94258879931, -35865.94442915254, -187500.02235174447, -39619.539930765626, 10572.397479104697, -2924.658706743563, -51710.47022467497, -49897.31906620492, -28739.627151444813, -28837.952475303708, -47940.08856297595, -59966.22114970937, 0.016, 0.9500000000000001, 0.34600000000000003, 192.0, 0.0, 0.0, 0.0, 0.0, 0.0, 0.0, 0.0, 0.0, 0.0, 1.695674611188547E9, 0.0, 2023-09-25 15:43:31.188
136.0, -187500.02235174447, 10168.389698075021, -19204.976463911113, -43702.37662820538, -16316.773452374156, -35855.461461003004, -187500.02235174447, -39619.6516894879, 10504.738748638481, -2927.8773579451276, -51710.76079735289, -49902.527022663, -28754.60282022987, -28827.827135065454, -47947.44228690175, -60001.60396118212, 0.016, 0.9500000000000001, 0.34600000000000003, 192.0, 0.0, 0.0, 0.0, 0.0, 0.0, 0.0, 0.0, 0.0, 0.0, 1.69567461125018E9, 0.0, 2023-09-25 15:43:31.250
138.0, -187500.02235174447, 10183.991215704826, -19194.873475417313, -43681.50009888412, -16308.771527859155, -35867.062016375305, -187500.02235174447, -39633.82269547256, 10567.636557535716, -2928.3020410897784, -51707.76566359588, -49901.20826974014, -28744.812756158444, -28822.61917860737, -47960.80863008602, -59939.89079474101, 0.018000000000000002, 0.9560000000000001, 0.342, 192.0, 0.0, 72.0, 14.5, 112.0, 5.0, 88.0, 0.0, 0.0, 0.0, 1.695674611250192E9, 0.0, 2023-09-25 15:43:31.250
140.0, -187500.02235174447, 10191.791974519727, -19187.340937535875, -43672.67115982428, -16302.624798133946, -35880.070731648295, -187500.02235174447, -39624.32320407906, 10483.035204772379, -2903.983343122404, -51696.500384390405, -49885.003255010044, -28741.59410495688, -28832.118670000873, -47954.28192070507, -60006.67780717347, 0.018000000000000002, 0.9560000000000001, 0.342, 192.0, 0.0, 0.0, 0.0, 0.0, 0.0, 0.0, 0.0, 0.0, 0.0, 1.695674611250195E9, 0.0, 2023-09-25 15:43:31.250
142.0, -187500.02235174447, 10197.268151911278, -19175.31569901892, -43663.59635157542, -16289.526675883137, -35878.21553685851, -187500.02235174447, -39620.03166914364, 10563.389726089206, -2897.3225232747227, -51684.92218076256, -49874.9226182607, -28729.032424572997, -28805.56479758797, -47940.5132461206, -59973.64192886853, 0.018000000000000002, 0.9560000000000001, 0.342, 192.0, 0.0, 0.0, 0.0, 0.0, 0.0, 0.0, 0.0, 0.0, 0.0, 1.695674611250198E9, 0.0, 2023-09-25 15:43:31.250
144.0, -187500.02235174447, 10196.977579233358, -19184.435210756685, -43669.854840022905, -16300.814306833066, -35877.25441184693, -187500.02235174447, -39625.060811646086, 10500.536620680883, -2908.3866367800997, -51695.718073334465, -49886.43376665518, -28745.237439303095, -28818.975844261153, -47943.262510688604, -60017.808975912216, 0.018000000000000002, 0.9560000000000001, 0.342, 192.0, 0.0, 0.0, 0.0, 0.0, 0.0, 0.0, 0.0, 0.0, 0.0, 1.695674611250201E9, 0.0, 2023-09-25 15:43:31.250
146.0, -187500.02235174447, 10200.68796881294, -19163.625736668797, -43650.006490946595, -16275.154504198374, -35872.940525167054, -187500.02235174447, -39605.27951780314, 10565.401383090184, -2896.562563963242, -51684.94453250701, -49874.14030720476, -28726.104346049353, -28791.5949573034, -47928.465655859196, -59972.94902479041, 0.018000000000000002, 0.9560000000000001, 0.342, 192.0, 0.0, 0.0, 0.0, 0.0, 0.0, 0.0, 0.0, 0.0, 0.0, 1.695674611250205E9, 0.0, 2023-09-25 15:43:31.250
148.0, -187500.02235174447, 10178.671500524462, -19177.55087346445, -43660.06477595148, -16288.632606104924, -35888.20676663003, -187500.02235174447, -39610.576881239045, 10485.046861773357, -2899.960029120449, -51679.26718941536, -49871.234580425575, -28738.263695033038, -28810.638643579325, -47919.32379237697, -60038.23847034437, 0.02, 0.9580000000000001, 0.338, 192.0, 0.0, 80.0, 14.5, 120.0, 5.0, 72.0, 0.0, 0.0, 0.0, 1.695674611250208E9, 0.0, 2023-09-25 15:43:31.250
150.0, -187500.02235174447, 10159.359593315077, -19192.772411438516, -43676.158031959305, -16310.291446482117, -35855.215591814, -187500.02235174447, -39616.7012592198, 10558.89702545369, -2930.2019393684795, -51705.91046880609, -49899.53188890599, -28757.93323015371, -28817.008890749086, -47938.97097575319, -59980.92859756096, 0.02, 0.9580000000000001, 0.338, 192.0, 0.0, 0.0, 0.0, 0.0, 0.0, 0.0, 0.0, 0.0, 0.0, 1.6956746113082E9, 0.0, 2023-09-25 15:43:31.308
152.0, -187500.02235174447, 10146.552043742186, -19189.08437360339, -43669.0054737336, -16309.84441159301, -35884.42932181708, -187500.02235174447, -39626.62543375795, 10480.1741814821, -2941.310756362767, -51710.73844560843, -49911.51242393404, -28776.753398985078, -28842.065196283485, -47947.28582469056, -60004.9120193615, 0.02, 0.9580000000000001, 0.338, 192.0, 0.0, 0.0, 0.0, 0.0, 0.0, 0.0, 0.0, 0.0, 0.0, 1.695674611308213E9, 0.0, 2023-09-25 15:43:31.308
154.0, -187500.02235174447, 10134.459749991865, -19192.526542249507, -43672.00060749061, -16310.716129626768, -35869.14072860965, -187500.02235174447, -39643.6574630329, 10523.670676192127, -2955.794686769806, -51716.92987882256, -49925.43756072969, -28768.013866903053, -28841.975789305663, -47947.64345260185, -59970.69149860043, 0.02, 0.9580000000000001, 0.338, 192.0, 0.0, 0.0, 0.0, 0.0, 0.0, 0.0, 0.0, 0.0, 0.0, 1.695674611308217E9, 0.0, 2023-09-25 15:43:31.308
156.0, -187500.02235174447, 10100.775671097717, -19194.001757383558, -43675.800404048015, -16309.531487170636, -35904.5235400824, -187500.02235174447, -39619.6516894879, 10469.132419721178, -2949.469143088954, -51721.04259980233, -49925.07993281841, -28771.746608227088, -28805.207169676683, -47944.067173489, -59998.20649602491, 0.02, 0.9580000000000001, 0.338, 192.0, 0.0, 0.0, 0.0, 0.0, 0.0, 0.0, 0.0, 0.0, 0.0, 1.69567461130822E9, 0.0, 2023-09-25 15:43:31.308
158.0, -187500.02235174447, 10071.092554461069, -19211.972559925624, -43687.37860767587, -16324.060121066586, -35872.7170077225, -187500.02235174447, -39633.26390186118, 10509.074987062811, -2985.5448586398197, -51745.3165942808, -49956.57354075593, -28766.896279680288, -28890.501426518134, -47957.20999922872, -59970.42327766697, 0.024, 0.96, 0.334, 192.0, 0.0, 96.0, 15.0, 0.0, 5.0, 56.0, 0.0, 0.0, 0.0, 1.695674611308223E9, 0.0, 2023-09-25 15:43:31.308
160.0, -187500.02235174447, 10047.824388483095, -19199.120306863824, -43684.606991363406, -16311.297274982606, -35899.96378421352, -187500.02235174447, -39625.530198279645, 10468.327756920786, -2991.8704023206715, -51750.01046061641, -49965.55894202697, -28783.637736277313, -28855.69976040122, -47956.67355736179, -59986.203609252414, 0.024, 0.96, 0.334, 192.0, 0.0, 0.0, 0.0, 0.0, 0.0, 0.0, 0.0, 0.0, 0.0, 1.695674611308226E9, 0.0, 2023-09-25 15:43:31.308
162.0, -187500.02235174447, 10029.451254540832, -19215.28061810501, -43696.87809906937, -16327.636400179435, -35866.27970531937, -187500.02235174447, -39635.43202107335, 10491.93119906559, -3003.8062338598056, -51760.76164969941, -49971.81743047445, -28783.324811854938, -28853.509289444602, -47948.20224621323, -59968.34456543262, 0.024, 0.96, 0.334, 192.0, 0.0, 0.0, 0.0, 0.0, 0.0, 0.0, 0.0, 0.0, 0.0, 1.695674611308229E9, 0.0, 2023-09-25 15:43:31.308
164.0, -187500.02235174447, 10023.371580048988, -19210.162068624744, -43689.05498851001, -16322.607257676991, -35900.03083944689, -187500.02235174447, -39624.43496280134, 10465.332623163775, -3012.9704490864815, -51776.78785047387, -49987.217782404165, -28804.044878965007, -28856.415016223793, -47964.11668826541, -59960.45439963989, 0.024, 0.96, 0.334, 192.0, 0.0, 0.0, 0.0, 0.0, 0.0, 0.0, 0.0, 0.0, 0.0, 1.695674611308232E9, 0.0, 2023-09-25 15:43:31.308
166.0, -187500.02235174447, 10022.902193415428, -19223.28254262001, -43709.03744805306, -16336.577097961557, -35868.604286742724, -187500.02235174447, -39659.05781496261, 10461.957509751024, -3017.753722399917, -51770.64112074866, -49984.80379400299, -28788.868044479856, -28864.57340294998, -47957.41116492882, -59964.85769329759, 0.024, 0.96, 0.334, 192.0, 0.0, 0.0, 0.0, 0.0, 0.0, 0.0, 0.0, 0.0, 0.0, 1.69567461136794E9, 0.0, 2023-09-25 15:43:31.367
168.0, -187500.02235174447, 10047.600871038541, -19199.701452219662, -43686.03750300855, -16307.296312725106, -35905.171740671605, -187500.02235174447, -39626.06664014657, 10465.332623163775, -3012.076379308269, -51772.65277774964, -49987.57541031545, -28796.17706491674, -28861.958248848707, -47960.473353919195, -59947.24451866681, 0.016, 0.964, 0.334, 192.0, 0.0, 64.0, 15.0, 16.0, 5.0, 56.0, 0.0, 0.0, 0.0, 1.695674611367951E9, 0.0, 2023-09-25 15:43:31.367
170.0, -187500.02235174447, 10055.222815897801, -19198.650920230262, -43683.02001750708, -16308.235085992228, -35876.47210079099, -187500.02235174447, -39618.31058482058, 10456.54838759284, -3002.4204257035767, -51757.78886768685, -49975.01372993156, -28782.31898335445, -28862.159414548805, -47940.5132461206, -59966.37761192055, 0.016, 0.964, 0.334, 192.0, 0.0, 0.0, 0.0, 0.0, 0.0, 0.0, 0.0, 0.0, 0.0, 1.695674611367954E9, 0.0, 2023-09-25 15:43:31.367
172.0, -187500.02235174447, 10063.85058925755, -19183.36232702283, -43667.08322371045, -16294.332300941027, -35916.25820592144, -187500.02235174447, -39616.36598305297, 10471.41229765562, -2992.5856581432413, -51748.781114671365, -49966.095383893895, -28780.620250775846, -28860.57244069248, -47935.12647570688, -59960.70026882891, 0.016, 0.964, 0.334, 192.0, 0.0, 0.0, 0.0, 0.0, 0.0, 0.0, 0.0, 0.0, 0.0, 1.695674611367957E9, 0.0, 2023-09-25 15:43:31.367
174.0, -187500.02235174447, 10056.429810098387, -19200.863742931335, -43689.16674723229, -16317.980446574742, -35885.92688869558, -187500.02235174447, -39626.26780584667, 10441.103332174222, -2988.9646755414815, -51742.1649983126, -49961.200351858184, -28771.366628571348, -28852.6599231553, -47938.188664697256, -60003.68267341646, 0.016, 0.964, 0.334, 192.0, 0.0, 0.0, 0.0, 0.0, 0.0, 0.0, 0.0, 0.0, 0.0, 1.69567461136796E9, 0.0, 2023-09-25 15:43:31.367
176.0, -187500.02235174447, 10064.85641775804, -19198.337995807888, -43683.02001750708, -16315.99114131822, -35913.285423908885, -187500.02235174447, -39634.627358272955, 10480.308291948832, -2994.865536077683, -51745.7636291699, -49962.20618035868, -28787.45988457917, -28858.873708113875, -47950.50447589213, -59972.52434164576, 0.016, 0.964, 0.334, 192.0, 0.0, 0.0, 0.0, 0.0, 0.0, 0.0, 0.0, 0.0, 0.0, 1.695674611367964E9, 0.0, 2023-09-25 15:43:31.367
178.0, -187500.02235174447, 10060.028440955692, -19216.979350683614, -43708.79157886405, -16344.199042820817, -35878.21553685851, -187500.02235174447, -39680.64960010643, 10445.059590942812, -3010.6458676631296, -51761.43220203307, -49976.60070378789, -28795.55121607199, -28877.872690900887, -47978.578266927994, -59987.72352787537, 0.008, 0.96, 0.33, 192.0, 0.0, 32.0, 15.0, 0.0, 5.0, 40.0, 0.0, 0.0, 0.0, 1.695674611367967E9, 0.0, 2023-09-25 15:43:31.367
180.0, -187500.02235174447, 10095.813583828638, -19178.98138510959, -43676.426252892765, -16307.363367958471, -35919.00747048944, -187500.02235174447, -39646.160858411895, 10486.74559435196, -2994.3067424663, -51750.99393737244, -49968.822296717444, -28792.80195150399, -28864.28283027206, -47975.96311282672, -59950.9996117353, 0.008, 0.96, 0.33, 192.0, 0.0, 0.0, 0.0, 0.0, 0.0, 0.0, 0.0, 0.0, 0.0, 1.695674611428194E9, 0.0, 2023-09-25 15:43:31.428
182.0, -187500.02235174447, 10083.341310422578, -19189.777277681504, -43693.86061356791, -16319.634475664436, -35893.72764751049, -187500.02235174447, -39636.929587951854, 10420.271506341876, -2984.919009795071, -51735.370067998185, -49958.764011712556, -28773.601803016878, -28862.114711059894, -47951.35384218143, -60018.077196845676, 0.008, 0.96, 0.33, 192.0, 0.0, 0.0, 0.0, 0.0, 0.0, 0.0, 0.0, 0.0, 0.0, 1.695674611428208E9, 0.0, 2023-09-25 15:43:31.428
184.0, -187500.02235174447, 10099.456918174854, -19182.55766422244, -43684.78580531905, -16317.667522152367, -35906.848121505755, -187500.02235174447, -39664.46693712079, 10505.498707949962, -3005.5496699273194, -51751.88800715066, -49976.578352043434, -28787.12460841234, -28886.72398170519, -47973.01268255862, -59947.95977448938, 0.008, 0.96, 0.33, 192.0, 0.0, 0.0, 0.0, 0.0, 0.0, 0.0, 0.0, 0.0, 0.0, 1.695674611428212E9, 0.0, 2023-09-25 15:43:31.428
186.0, -187500.02235174447, 10080.636749343485, -19188.0785451029, -43691.5136804001, -16322.517850699169, -35897.21451964552, -187500.02235174447, -39628.190055869825, 10429.905108202114, -2978.012320758381, -51730.92207085158, -49958.67460473473, -28776.686343751713, -28865.57923145047, -47949.498647391636, -60009.65058918603, 0.008, 0.96, 0.33, 192.0, 0.0, 0.0, 0.0, 0.0, 0.0, 0.0, 0.0, 0.0, 0.0, 1.695674611428215E9, 0.0, 2023-09-25 15:43:31.428
188.0, -187500.02235174447, 10082.04490924417, -19200.2825975755, -43691.02194202208, -16333.04552233762, -35894.53231031088, -187500.02235174447, -39649.80419275811, 10511.108995808245, -3005.080283293758, -51749.33990828275, -49975.55017179849, -28789.18096890223, -28888.24390032815, -47965.703662121734, -59934.28050688273, 0.012, 0.964, 0.33, 192.0, 0.0, 48.0, 15.0, 16.0, 5.0, 40.0, 0.0, 0.0, 0.0, 1.695674611428218E9, 0.0, 2023-09-25 15:43:31.428
190.0, -187500.02235174447, 10097.109985007046, -19193.487667261084, -43681.947133773225, -16324.618914677969, -35904.545891826856, -187500.02235174447, -39642.07048917657, 10432.140282647644, -2997.1677657565792, -51746.38947801465, -49966.83299146092, -28799.663937051766, -28884.399400281836, -47968.74349936766, -59968.43397241044, 0.012, 0.964, 0.33, 192.0, 0.0, 0.0, 0.0, 0.0, 0.0, 0.0, 0.0, 0.0, 0.0, 1.695674611428221E9, 0.0, 2023-09-25 15:43:31.428
192.0, -187500.02235174447, 10121.629848674518, -19176.56739670842, -43661.182363174245, -16302.647149878401, -35901.21548190302, -187500.02235174447, -39613.013221384674, 10505.275190505408, -2979.822812059261, -51728.41867547258, -49947.297566806985, -28773.64650650579, -28876.978621122675, -47944.64831884484, -59923.059931166164, 0.012, 0.964, 0.33, 192.0, 0.0, 0.0, 0.0, 0.0, 0.0, 0.0, 0.0, 0.0, 0.0, 1.695674611428225E9, 0.0, 2023-09-25 15:43:31.428
194.0, -187500.02235174447, 10128.469482477842, -19185.41868751272, -43665.45154636521, -16310.671426137857, -35914.09008670927, -187500.02235174447, -39620.992794155216, 10427.20054712302, -2968.177553198046, -51720.14853002412, -49940.07795334792, -28787.057553178973, -28868.552013463024, -47935.34999315143, -59983.09671677312, 0.012, 0.964, 0.33, 192.0, 0.0, 0.0, 0.0, 0.0, 0.0, 0.0, 0.0, 0.0, 0.0, 1.695674611428228E9, 0.0, 2023-09-25 15:43:31.428
196.0, -187500.02235174447, 10134.124473825035, -19176.634451941783, -43659.03659570654, -16309.687949381823, -35901.10372318074, -187500.02235174447, -39628.77120122567, 10505.40930097214, -2979.3981289146104, -51730.407980729105, -49950.96325289765, -28783.436570577214, -28875.27988854407, -47948.515170635605, -59935.5992598056, 0.012, 0.964, 0.33, 192.0, 0.0, 0.0, 0.0, 0.0, 0.0, 0.0, 0.0, 0.0, 0.0, 1.695674611489002E9, 0.0, 2023-09-25 15:43:31.489
198.0, -187500.02235174447, 10127.798930144183, -19182.959995622638, -43661.22706666316, -16309.240914492717, -35913.44188612007, -187500.02235174447, -39628.88295994794, 10430.441550069041, -2966.4341171305323, -51724.93180333755, -49944.704764450165, -28786.36464910086, -28866.450949484224, -47939.149789708834, -59993.49027794484, 0.014, 0.96, 0.334, 192.0, 0.0, 56.0, 15.0, 0.0, 5.0, 56.0, 0.0, 0.0, 0.0, 1.695674611489012E9, 0.0, 2023-09-25 15:43:31.489
200.0, -187500.02235174447, 10141.321735539645, -19183.13880957828, -43653.292197381525, -16310.17968775984, -35892.587708543266, -187500.02235174447, -39627.94418668082, 10504.157603282643, -2979.308721936789, -51736.86763487669, -49953.01961338754, -28784.6435647778, -28878.72205719019, -47947.06230724601, -59947.400980877996, 0.014, 0.96, 0.334, 192.0, 0.0, 0.0, 0.0, 0.0, 0.0, 0.0, 0.0, 0.0, 0.0, 1.695674611489016E9, 0.0, 2023-09-25 15:43:31.489
202.0, -187500.02235174447, 10143.646316962995, -19177.819094397913, -43653.4039561038, -16308.235085992228, -35920.03565073438, -187500.02235174447, -39625.954881424295, 10431.49208205844, -2948.4856663329206, -51716.43814044454, -49933.55124396697, -28783.50362581058, -28852.19053652174, -47931.460789616205, -60011.48343223136, 0.014, 0.96, 0.334, 192.0, 0.0, 0.0, 0.0, 0.0, 0.0, 0.0, 0.0, 0.0, 0.0, 1.69567461148902E9, 0.0, 2023-09-25 15:43:31.489
204.0, -187500.02235174447, 10134.683267436418, -19193.711184705637, -43669.586619089445, -16332.196156048318, -35889.860795719724, -187500.02235174447, -39657.73906203974, 10498.256742746442, -2971.6420735886186, -51730.89971910712, -49952.93020640972, -28785.112951411364, -28885.114656104408, -47949.16337122481, -59975.05008876921, 0.014, 0.96, 0.334, 192.0, 0.0, 0.0, 0.0, 0.0, 0.0, 0.0, 0.0, 0.0, 0.0, 1.695674611489023E9, 0.0, 2023-09-25 15:43:31.489
206.0, -187500.02235174447, 10142.841654162605, -19185.821018912917, -43661.29412189652, -16322.763719888178, -35927.07645023781, -187500.02235174447, -39670.479556379265, 10443.986707208956, -2970.859762532683, -51731.927899352064, -49954.80775294397, -28802.27909115304, -28884.04177237055, -47958.43934517376, -60003.77208039428, 0.014, 0.96, 0.334, 192.0, 0.0, 0.0, 0.0, 0.0, 0.0, 0.0, 0.0, 0.0, 0.0, 1.695674611489026E9, 0.0, 2023-09-25 15:43:31.489
208.0, -187500.02235174447, 10144.696848952395, -19186.04453635747, -43660.82473526296, -16326.608219934491, -35892.095970165254, -187500.02235174447, -39638.91889320838, 10483.21401872802, -2982.281503949345, -51734.67716392007, -49956.93116866722, -28786.02937293403, -28893.496560275147, -47950.01273751411, -59983.83432434015, 0.01, 0.962, 0.334, 192.0, 0.0, 40.0, 15.0, 8.0, 5.0, 56.0, 0.0, 0.0, 0.0, 1.695674611489029E9, 0.0, 2023-09-25 15:43:31.489
210.0, -187500.02235174447, 10147.177892586935, -19179.070792087412, -43657.471973594664, -16327.412882734881, -35924.21542694753, -187500.02235174447, -39642.584579299044, 10455.967242237002, -2976.5147538798756, -51727.457550461004, -49953.936034910206, -28798.680460295735, -28906.86290345942, -47943.6648420888, -59989.131687776055, 0.01, 0.962, 0.334, 192.0, 0.0, 0.0, 0.0, 0.0, 0.0, 0.0, 0.0, 0.0, 0.0, 1.695674611548746E9, 0.0, 2023-09-25 15:43:31.548
212.0, -187500.02235174447, 10137.47723549333, -19194.314681805932, -43674.749872058615, -16339.95221137431, -35885.92688869558, -187500.02235174447, -39642.94220721033, 10474.563893623817, -2981.879172549149, -51724.305954492804, -49954.38306979932, -28789.672707280246, -28901.185560367772, -47936.44522862974, -59978.96164404889, 0.01, 0.962, 0.334, 192.0, 0.0, 0.0, 0.0, 0.0, 0.0, 0.0, 0.0, 0.0, 0.0, 1.695674611548756E9, 0.0, 2023-09-25 15:43:31.548
214.0, -187500.02235174447, 10138.505415738275, -19184.926949134704, -43657.74019452813, -16326.675275167856, -35924.70716532555, -187500.02235174447, -39644.64093978894, 10463.477428373984, -2989.21054473049, -51733.15724529711, -49966.520067038546, -28811.08567846843, -28916.96589195322, -47950.8174003145, -59962.376649663056, 0.01, 0.962, 0.334, 192.0, 0.0, 0.0, 0.0, 0.0, 0.0, 0.0, 0.0, 0.0, 0.0, 1.695674611548759E9, 0.0, 2023-09-25 15:43:31.548
216.0, -187500.02235174447, 10141.500549495286, -19181.03774559948, -43656.53320032754, -16329.357484502494, -35894.398199844145, -187500.02235174447, -39647.971349712774, 10457.464809115507, -2987.176535985057, -51729.51391095089, -49959.90395067978, -28799.663937051766, -28910.662700016823, -47944.15658046682, -59973.552521890706, 0.01, 0.962, 0.334, 192.0, 0.0, 0.0, 0.0, 0.0, 0.0, 0.0, 0.0, 0.0, 0.0, 1.695674611548763E9, 0.0, 2023-09-25 15:43:31.548
218.0, -187500.02235174447, 10159.426648548442, -19170.46537047212, -43643.569188543464, -16321.824946621055, -35929.31162468334, -187500.02235174447, -39645.7585270117, 10469.221826698998, -2971.6867770775293, -51716.281678233354, -49948.59396798539, -28795.819437005455, -28894.614147497912, -47940.37913565387, -59966.01998400927, 0.014, 0.964, 0.332, 192.0, 0.0, 56.0, 15.0, 16.0, 5.0, 48.0, 0.0, 0.0, 0.0, 1.695674611548766E9, 0.0, 2023-09-25 15:43:31.548
220.0, -187500.02235174447, 10145.859139664071, -19205.065870888935, -43669.94424700073, -16356.984240649253, -35896.38750510067, -187500.02235174447, -39689.41148393291, 10454.603785825228, -2974.0337102453364, -51722.11548353619, -49950.538569753, -28786.722277012144, -28905.67826100329, -47951.91263579281, -59991.29980698822, 0.014, 0.964, 0.332, 192.0, 0.0, 0.0, 0.0, 0.0, 0.0, 0.0, 0.0, 0.0, 0.0, 1.695674611548769E9, 0.0, 2023-09-25 15:43:31.548
222.0, -187500.02235174447, 10156.073886880147, -19176.522693219507, -43650.36411885788, -16329.156318802396, -35923.567226358326, -187500.02235174447, -39666.94798075533, 10481.559989638328, -2988.025902274359, -51734.69951566452, -49971.12452639634, -28826.195457720216, -28923.134973422882, -47974.64435990386, -59946.708076799885, 0.014, 0.964, 0.332, 192.0, 0.0, 0.0, 0.0, 0.0, 0.0, 0.0, 0.0, 0.0, 0.0, 1.695674611548773E9, 0.0, 2023-09-25 15:43:31.548
224.0, -187500.02235174447, 10152.229386833833, -19194.381737039297, -43667.9549417442, -16343.081455598052, -35885.41279857312, -187500.02235174447, -39648.61955030198, 10440.790407751849, -2974.5701521122637, -51716.66165788909, -49953.17607559873, -28803.664899309268, -28897.76574346611, -47940.64735658734, -59977.64289112603, 0.014, 0.964, 0.332, 192.0, 0.0, 0.0, 0.0, 0.0, 0.0, 0.0, 0.0, 0.0, 0.0, 1.695674611548776E9, 0.0, 2023-09-25 15:43:31.548
226.0, -187500.02235174447, 10160.030145648736, -19176.477989730596, -43649.55945605749, -16327.390530990426, -35915.54295009887, -187500.02235174447, -39649.312454380095, 10496.714472379026, -2986.7742045848618, -51733.22430053047, -49969.17992462873, -28822.485068140635, -28922.15149666685, -47960.09337426345, -59911.70524498287, 0.014, 0.964, 0.332, 192.0, 0.0, 0.0, 0.0, 0.0, 0.0, 0.0, 0.0, 0.0, 0.0, 1.695674611608241E9, 0.0, 2023-09-25 15:43:31.608
228.0, -187500.02235174447, 10155.693907224406, -19177.75203916455, -43649.6041595464, -16326.585868190035, -35904.03180170438, -187500.02235174447, -39644.26096013319, 10422.171404620578, -2967.3505386531997, -51711.63251538665, -49949.8903691638, -28798.16637017326, -28907.19817962625, -47936.981670496665, -59972.211417223385, 0.012, 0.968, 0.328, 192.0, 0.0, 48.0, 15.0, 32.0, 5.0, 32.0, 0.0, 0.0, 0.0, 1.695674611608251E9, 0.0, 2023-09-25 15:43:31.608
230.0, -187500.02235174447, 10152.67642172294, -19181.015393855025, -43655.460316593686, -16328.284600768638, -35926.33884267078, -187500.02235174447, -39680.78371057317, 10488.332568208287, -2980.403957415099, -51726.205852771505, -49956.95352041168, -28802.480256853138, -28918.64227278737, -47950.34801368094, -59920.198907875885, 0.012, 0.968, 0.328, 192.0, 0.0, 0.0, 0.0, 0.0, 0.0, 0.0, 0.0, 0.0, 0.0, 1.695674611608254E9, 0.0, 2023-09-25 15:43:31.608
232.0, -187500.02235174447, 10138.930098882925, -19199.79085919748, -43677.02974999306, -16347.484749255747, -35915.6770605656, -187500.02235174447, -39699.067437537604, 10417.723407473972, -2982.572076627264, -51725.356486482204, -49961.8932559363, -28799.641585307312, -28902.414906312813, -47961.34507195295, -59967.8528270546, 0.012, 0.968, 0.328, 192.0, 0.0, 0.0, 0.0, 0.0, 0.0, 0.0, 0.0, 0.0, 0.0, 1.695674611608257E9, 0.0, 2023-09-25 15:43:31.608
234.0, -187500.02235174447, 10142.551081484686, -19190.26901605952, -43664.333959142445, -16338.007609606697, -35914.98415648749, -187500.02235174447, -39652.82167825958, 10492.378233954696, -2993.4350244325433, -51738.208739544, -49974.276122364536, -28813.052631980496, -28932.366243882927, -47970.77750811309, -59900.93170415542, 0.012, 0.968, 0.328, 192.0, 0.0, 0.0, 0.0, 0.0, 0.0, 0.0, 0.0, 0.0, 0.0, 1.69567461160826E9, 0.0, 2023-09-25 15:43:31.608
236.0, -187500.02235174447, 10152.095276367101, -19178.735515920584, -43658.14252592833, -16330.922106614365, -35922.516694368926, -187500.02235174447, -39634.94028269533, 10404.982913134447, -2981.901524293605, -51726.89875684962, -49962.116773380854, -28818.640568094324, -28895.44116204276, -47947.55404562403, -59945.031695965736, 0.012, 0.968, 0.328, 192.0, 0.0, 0.0, 0.0, 0.0, 0.0, 0.0, 0.0, 0.0, 0.0, 1.695674611608263E9, 0.0, 2023-09-25 15:43:31.608
238.0, -187500.02235174447, 10164.411087561975, -19180.613062454828, -43658.29898813951, -16330.162147302884, -35914.045383220364, -187500.02235174447, -39644.7079950223, 10477.894303547657, -2983.2873324498337, -51726.00468707141, -49961.356814069375, -28804.469562109658, -28916.496505319657, -47951.599711370436, -59900.417614032944, 0.02, 0.968, 0.328, 192.0, 0.0, 80.0, 15.0, 32.0, 5.0, 32.0, 0.0, 0.0, 0.0, 1.695674611608267E9, 0.0, 2023-09-25 15:43:31.608
240.0, -187500.02235174447, 10154.196340345901, -19176.634451941783, -43662.27759865256, -16329.424539735859, -35915.63235707669, -187500.02235174447, -39644.350367111016, 10404.714692200982, -2986.953018540504, -51726.02703881586, -49964.55311352648, -28814.66195758128, -28914.753069252143, -47946.704679334725, -59943.80235002069, 0.02, 0.968, 0.328, 192.0, 0.0, 0.0, 0.0, 0.0, 0.0, 0.0, 0.0, 0.0, 0.0, 1.69567461166801E9, 0.0, 2023-09-25 15:43:31.668
242.0, -187500.02235174447, 10144.2945175522, -19180.03191709899, -43658.29898813951, -16329.513946713681, -35911.743153541465, -187500.02235174447, -39652.62051255948, 10477.760193080925, -2987.8694400631716, -51722.94249808103, -49960.50744778007, -28796.199416661195, -28921.168019910816, -47939.373307153386, -59889.66642494994, 0.02, 0.968, 0.328, 192.0, 0.0, 0.0, 0.0, 0.0, 0.0, 0.0, 0.0, 0.0, 0.0, 1.695674611668024E9, 0.0, 2023-09-25 15:43:31.668
244.0, -187500.02235174447, 10142.886357651516, -19179.674289187704, -43663.12696494186, -16334.90071712741, -35919.0298222339, -187500.02235174447, -39658.20844867331, 10402.278352055353, -2984.248457461412, -51733.35841099721, -49966.98945367211, -28813.767887803067, -28903.085458646474, -47945.229464200675, -59929.69839926939, 0.02, 0.968, 0.328, 192.0, 0.0, 0.0, 0.0, 0.0, 0.0, 0.0, 0.0, 0.0, 0.0, 1.695674611668028E9, 0.0, 2023-09-25 15:43:31.668
246.0, -187500.02235174447, 10150.48595076632, -19179.04844034296, -43659.90831374029, -16342.254441053206, -35904.50118833795, -187500.02235174447, -39682.370684429494, 10480.911789049123, -2995.0890535222356, -51735.48182672046, -49970.87865720733, -28808.55993134498, -28920.20689489924, -47946.95054852373, -59865.191264771376, 0.02, 0.968, 0.328, 192.0, 0.0, 0.0, 0.0, 0.0, 0.0, 0.0, 0.0, 0.0, 0.0, 1.695674611668032E9, 0.0, 2023-09-25 15:43:31.668
248.0, -187500.02235174447, 10158.711392725872, -19181.775353166504, -43653.33690087043, -16341.89681314192, -35939.12404049922, -187500.02235174447, -39708.56692893111, 10400.981950876947, -2973.20669570049, -51726.45172196052, -49959.322805323936, -28815.399565148306, -28903.308976091026, -47953.834885815966, -59916.86849795205, 0.022, 0.968, 0.332, 192.0, 0.0, 88.0, 15.0, 32.0, 5.0, 48.0, 0.0, 0.0, 0.0, 1.695674611668035E9, 0.0, 2023-09-25 15:43:31.668
250.0, -187500.02235174447, 10160.454828793387, -19180.613062454828, -43654.4544880932, -16333.8054816491, -35901.01431620292, -187500.02235174447, -39656.53206783916, 10462.091620217756, -2965.249474674401, -51722.47311144747, -49950.82914243092, -28797.831094006433, -28888.132141605874, -47936.13230420736, -59886.26895979273, 0.022, 0.968, 0.332, 192.0, 0.0, 0.0, 0.0, 0.0, 0.0, 0.0, 0.0, 0.0, 0.0, 1.695674611668039E9, 0.0, 2023-09-25 15:43:31.668
252.0, -187500.02235174447, 10158.331413070133, -19167.671402415206, -43653.47101133716, -16318.583943675036, -35928.372851416214, -187500.02235174447, -39613.728477207245, 10414.795328950326, -2977.8335068027386, -51723.702457392515, -49954.919511666245, -28815.84660003741, -28888.355659050427, -47927.34806863643, -59899.925875654924, 0.022, 0.968, 0.332, 192.0, 0.0, 0.0, 0.0, 0.0, 0.0, 0.0, 0.0, 0.0, 0.0, 1.695674611668042E9, 0.0, 2023-09-25 15:43:31.668
254.0, -187500.02235174447, 10146.306174553178, -19176.12036181931, -43657.06964219447, -16323.501327455204, -35895.56049055582, -187500.02235174447, -39615.114285363474, 10455.386096881164, -2987.8694400631716, -51721.176710269065, -49962.541456525505, -28806.347108643906, -28895.77643820959, -47916.86510048689, -59879.094049822575, 0.022, 0.968, 0.332, 192.0, 0.0, 0.0, 0.0, 0.0, 0.0, 0.0, 0.0, 0.0, 0.0, 1.695674611668046E9, 0.0, 2023-09-25 15:43:31.668
0.0, -187500.02235174447, 10161.035974149225, -19170.264204772022, -43652.308720625486, -16322.920182099366, -35924.39424090317, -187500.02235174447, -39614.421381285356, 10419.355084819208, -2981.2309719599452, -51722.18253876955, -49958.16051461226, -28818.439402394226, -28910.640348272365, -47919.48025458816, -59886.42542200392, 0.022, 0.968, 0.332, 192.0, 0.0, 0.0, 0.0, 0.0, 0.0, 0.0, 0.0, 0.0, 0.0, 1.695674611729555E9, 0.0, 2023-09-25 15:43:31.729
2.0, -187500.02235174447, 10160.34307007111, -19176.477989730596, -43663.05990970849, -16330.206850791796, -35887.96089744102, -187500.02235174447, -39651.52527708117, 10452.323907890786, -2986.6400941181296, -51716.30402997781, -49955.5900639999, -28802.167332430763, -28911.936749450775, -47917.71446677619, -59862.30788973664, 0.022, 0.962, 0.332, 192.0, 0.0, 88.0, 15.0, 8.0, 5.0, 48.0, 0.0, 0.0, 0.0, 1.695674611729566E9, 0.0, 2023-09-25 15:43:31.729
4.0, -187500.02235174447, 10152.050572878192, -19185.1281148348, -43677.45443313771, -16339.080493340552, -35930.697432839566, -187500.02235174447, -39657.828469017564, 10431.82735822527, -2975.061890490281, -51716.52754742236, -49955.92534016673, -28810.012794734575, -28891.373144551893, -47925.89520524684, -59863.872511848516, 0.022, 0.962, 0.332, 192.0, 0.0, 0.0, 0.0, 0.0, 0.0, 0.0, 0.0, 0.0, 0.0, 1.695674611729569E9, 0.0, 2023-09-25 15:43:31.729
6.0, -187500.02235174447, 10131.017581345748, -19215.37002508283, -43711.943174832246, -16366.707249487312, -35890.844272475755, -187500.02235174447, -39689.67970486638, 10440.388076351652, -3008.1871757730455, -51744.48957973595, -49986.52487832605, -28822.17214371826, -28922.95615946724, -47957.880551562375, -59843.64418311646, 0.022, 0.962, 0.332, 192.0, 0.0, 0.0, 0.0, 0.0, 0.0, 0.0, 0.0, 0.0, 0.0, 1.695674611729573E9, 0.0, 2023-09-25 15:43:31.729
8.0, -187500.02235174447, 10145.121532097046, -19193.398260283266, -43681.2095262062, -16341.673295697368, -35931.882075295696, -187500.02235174447, -39685.097597253036, 10436.387114094152, -3009.1930042735344, -51748.98228037146, -49994.45974760768, -28846.7590626191, -28929.616979314924, -47954.326624193985, -59807.568467565594, 0.022, 0.962, 0.332, 192.0, 0.0, 0.0, 0.0, 0.0, 0.0, 0.0, 0.0, 0.0, 0.0, 1.695674611729576E9, 0.0, 2023-09-25 15:43:31.729
10.0, -187500.02235174447, 10160.655994493485, -19179.83075139889, -43673.25230518011, -16326.652923423402, -35922.58374960229, -187500.02235174447, -39659.571905085075, 10408.983875391947, -2986.751852840406, -51727.36814348318, -49968.57642752844, -28816.137172715327, -28912.227322128692, -47930.812589027, -59829.78610155417, 0.022, 0.962, 0.332, 192.0, 0.0, 0.0, 0.0, 0.0, 0.0, 0.0, 0.0, 0.0, 0.0, 1.695674611729579E9, 0.0, 2023-09-25 15:43:31.729
12.0, -187500.02235174447, 10158.510227025776, -19177.819094397913, -43666.12209869887, -16320.930876842844, -35943.66144462364, -187500.02235174447, -39589.56624145106, 10435.940079205046, -2982.9744080274595, -51721.51198643589, -49960.32863382443, -28820.56281811748, -28892.781304452576, -47922.497740089624, -59810.16126992241, 0.024, 0.9580000000000001, 0.338, 192.0, 0.0, 96.0, 14.5, 120.0, 5.0, 72.0, 0.0, 0.0, 0.0, 1.695674611729582E9, 0.0, 2023-09-25 15:43:31.729
14.0, -187500.02235174447, 10163.137038128023, -19184.16698982322, -43679.1084622274, -16333.581964204546, -35898.35445861274, -187500.02235174447, -39611.94033765082, 10406.72634920196, -2986.5506871403086, -51721.601393413715, -49964.217837359654, -28817.008890749086, -28909.925092449797, -47910.96423995069, -59825.15929045192, 0.024, 0.9580000000000001, 0.338, 192.0, 0.0, 0.0, 0.0, 0.0, 0.0, 0.0, 0.0, 0.0, 0.0, 1.695674611788511E9, 0.0, 2023-09-25 15:43:31.788
16.0, -187500.02235174447, 10172.547122543709, -19180.389545010275, -43673.38641564684, -16328.910449613388, -35919.81213328983, -187500.02235174447, -39622.42330580036, 10448.188835166555, -2983.6226086166635, -51721.40022771362, -49965.00014841559, -28825.211980964184, -28902.794885968553, -47916.66393478679, -59783.182714364855, 0.024, 0.9580000000000001, 0.338, 192.0, 0.0, 0.0, 0.0, 0.0, 0.0, 0.0, 0.0, 0.0, 0.0, 1.695674611788527E9, 0.0, 2023-09-25 15:43:31.788
18.0, -187500.02235174447, 10175.385794089532, -19185.08341134589, -43678.84024129394, -16330.050388580608, -35900.65668829164, -187500.02235174447, -39634.202675128305, 10400.311398543286, -2979.0405010033255, -51717.30985847829, -49960.23922684661, -28826.620140864867, -28883.95236539273, -47916.59687955343, -59812.26233390121, 0.024, 0.9580000000000001, 0.338, 192.0, 0.0, 0.0, 0.0, 0.0, 0.0, 0.0, 0.0, 0.0, 0.0, 1.69567461178853E9, 0.0, 2023-09-25 15:43:31.788
20.0, -187500.02235174447, 10180.370233103065, -19176.902672875247, -43666.54678184352, -16326.228240278751, -35917.66636582212, -187500.02235174447, -39632.861570460984, 10449.865216000702, -2971.9773497554484, -51719.634439901645, -49956.037098889006, -28822.149791973807, -28898.413944055315, -47924.0623622015, -59768.13999034643, 0.024, 0.9580000000000001, 0.338, 192.0, 0.0, 0.0, 0.0, 0.0, 0.0, 0.0, 0.0, 0.0, 0.0, 1.695674611788533E9, 0.0, 2023-09-25 15:43:31.788
22.0, -187500.02235174447, 10184.34884361611, -19171.60530943934, -43665.652712065305, -16324.551859444602, -35908.882130251186, -187500.02235174447, -39634.64971001741, 10386.878000125647, -2955.884093747627, -51699.160241980586, -49941.39670627078, -28813.454963380693, -28899.419772555804, -47905.108082903396, -59813.804604268626, 0.024, 0.9580000000000001, 0.34400000000000003, 192.0, 0.0, 96.0, 14.5, 120.0, 5.0, 96.0, 0.0, 0.0, 0.0, 1.695674611788536E9, 0.0, 2023-09-25 15:43:31.788
24.0, -187500.02235174447, 10183.521829071264, -19181.395373510764, -43672.872325524375, -16334.09605432702, -35920.10270596775, -187500.02235174447, -39672.29004768015, 10461.711640562015, -2973.4525648894987, -51708.52562290736, -49954.60658724387, -28818.79703030551, -28899.553883022534, -47914.1605394078, -59761.0544873541, 0.024, 0.9580000000000001, 0.34400000000000003, 192.0, 0.0, 0.0, 0.0, 0.0, 0.0, 0.0, 0.0, 0.0, 0.0, 1.69567461178854E9, 0.0, 2023-09-25 15:43:31.788
26.0, -187500.02235174447, 10182.516000570775, -19182.289443288977, -43676.135680214844, -16343.014400364686, -35909.15035118465, -187500.02235174447, -39642.450468832314, 10398.903238642602, -2968.0881462202246, -51711.47605317546, -49953.01961338754, -28828.408280421292, -28889.875577673385, -47916.976859209164, -59788.435374311855, 0.024, 0.9580000000000001, 0.34400000000000003, 192.0, 0.0, 0.0, 0.0, 0.0, 0.0, 0.0, 0.0, 0.0, 0.0, 1.695674611788543E9, 0.0, 2023-09-25 15:43:31.788
28.0, -187500.02235174447, 10198.54220134523, -19176.925024619704, -43666.703244054705, -16332.062045581586, -35919.81213328983, -187500.02235174447, -39613.5496632516, 10468.797143554348, -2979.532239381342, -51716.03580904434, -49963.07789839243, -28825.435498408737, -28905.63355751438, -47918.78735051004, -59721.29073396811, 0.024, 0.9580000000000001, 0.34400000000000003, 192.0, 0.0, 0.0, 0.0, 0.0, 0.0, 0.0, 0.0, 0.0, 0.0, 1.695674611788546E9, 0.0, 2023-09-25 15:43:31.788
30.0, -187500.02235174447, 10180.638454036529, -19176.03095484149, -43669.363101644885, -16328.977504846753, -35917.24168267747, -187500.02235174447, -39612.4991312622, 10389.068471082268, -2958.9686344824595, -51699.67433210306, -49946.06822086194, -28812.22561743565, -28889.316784062004, -47894.96039092069, -59773.66087122689, 0.024, 0.9580000000000001, 0.34400000000000003, 192.0, 0.0, 0.0, 0.0, 0.0, 0.0, 0.0, 0.0, 0.0, 0.0, 1.695674611848757E9, 0.0, 2023-09-25 15:43:31.848
32.0, -187500.02235174447, 10177.330395857143, -19179.182550809688, -43677.633247093356, -16325.915315856377, -35908.189226173075, -187500.02235174447, -39619.852855188, 10469.422992399097, -2964.958901996482, -51703.87646006065, -49944.61535747234, -28796.914672483766, -28889.026211384084, -47896.2567920991, -59707.63381810592, 0.02, 0.9540000000000001, 0.34800000000000003, 192.0, 0.0, 80.0, 14.5, 104.0, 5.0, 112.0, 0.0, 0.0, 0.0, 1.695674611848768E9, 0.0, 2023-09-25 15:43:31.848
34.0, -187500.02235174447, 10174.692890011418, -19186.312757290932, -43677.901468026816, -16335.772435161167, -35916.34761289926, -187500.02235174447, -39631.98985242723, 10394.63405545164, -2963.975425240448, -51707.31862870677, -49944.74946793908, -28805.78831503252, -28902.057278401528, -47902.42587356876, -59745.60943193549, 0.02, 0.9540000000000001, 0.34800000000000003, 192.0, 0.0, 0.0, 0.0, 0.0, 0.0, 0.0, 0.0, 0.0, 0.0, 1.695674611848771E9, 0.0, 2023-09-25 15:43:31.848
36.0, -187500.02235174447, 10183.834753493638, -19195.164048095234, -43682.48357564015, -16332.129100814951, -35908.90448199564, -187500.02235174447, -39631.11813439347, 10464.505608618929, -2970.0774514767472, -51712.88421307614, -49940.6367469593, -28789.51624506906, -28910.349775594448, -47907.119739904374, -59692.3899283874, 0.02, 0.9540000000000001, 0.34800000000000003, 192.0, 0.0, 0.0, 0.0, 0.0, 0.0, 0.0, 0.0, 0.0, 0.0, 1.695674611848775E9, 0.0, 2023-09-25 15:43:31.848
38.0, -187500.02235174447, 10186.49461108382, -19173.013469340025, -43666.703244054705, -16325.04359782262, -35928.037575249386, -187500.02235174447, -39637.08605016304, 10390.297817027309, -2959.3486141382, -51711.6548671311, -49929.72909566511, -28797.65228005079, -28898.928034177785, -47908.729065505155, -59731.594888162006, 0.02, 0.9540000000000001, 0.34800000000000003, 192.0, 0.0, 0.0, 0.0, 0.0, 0.0, 0.0, 0.0, 0.0, 0.0, 1.695674611848778E9, 0.0, 2023-09-25 15:43:31.848
40.0, -187500.02235174447, 10209.986294506347, -19184.18934156768, -43675.33101741446, -16335.459510738792, -35903.0259732039, -187500.02235174447, -39662.63409407545, 10449.664050300606, -2963.1931141845125, -51704.0552740163, -49915.5804414249, -28782.251928121084, -28886.05342937153, -47912.171234151276, -59689.70771905276, 0.02, 0.9540000000000001, 0.34800000000000003, 192.0, 0.0, 0.0, 0.0, 0.0, 0.0, 0.0, 0.0, 0.0, 0.0, 1.695674611848781E9, 0.0, 2023-09-25 15:43:31.848
42.0, -187500.02235174447, 10204.443061881431, -19170.353611749844, -43658.54485732852, -16318.583943675036, -35929.51279038344, -187500.02235174447, -39620.45635228829, 10385.603950691695, -2943.5235790638426, -51688.878439531145, -49896.67086561571, -28792.712544526166, -28886.031077627074, -47903.58816428044, -59730.410245705876, 0.02, 0.9560000000000001, 0.34800000000000003, 192.0, 0.0, 80.0, 14.5, 112.0, 5.0, 112.0, 0.0, 0.0, 0.0, 1.695674611848784E9, 0.0, 2023-09-25 15:43:31.848
44.0, -187500.02235174447, 10190.942608230425, -19181.03774559948, -43679.846069794425, -16335.370103760972, -35892.9229847101, -187500.02235174447, -39645.043271189126, 10456.92836724858, -2954.2300646579347, -51688.252590686396, -49897.05084527146, -28771.724256482634, -28887.439237527757, -47903.16348113579, -59687.58430332951, 0.02, 0.9560000000000001, 0.34800000000000003, 192.0, 0.0, 0.0, 0.0, 0.0, 0.0, 0.0, 0.0, 0.0, 0.0, 1.695674611908173E9, 0.0, 2023-09-25 15:43:31.908
46.0, -187500.02235174447, 10191.814326264182, -19177.1261903198, -43676.582715103956, -16333.649019437913, -35927.411726404636, -187500.02235174447, -39654.31924513808, 10408.559192247296, -2957.404012370588, -51690.64422734312, -49898.16843249422, -28785.962317700665, -28900.76087722312, -47914.76403650809, -59700.66007383586, 0.02, 0.9560000000000001, 0.34800000000000003, 192.0, 0.0, 0.0, 0.0, 0.0, 0.0, 0.0, 0.0, 0.0, 0.0, 1.695674611908185E9, 0.0, 2023-09-25 15:43:31.908
48.0, -187500.02235174447, 10196.217619921877, -19178.98138510959, -43682.39416866233, -16339.125196829464, -35899.852025491244, -187500.02235174447, -39662.74585279773, 10443.271451386387, -2958.2980821488004, -51687.47027963046, -49895.910906304234, -28775.635811762313, -28911.15443839484, -47912.39475159583, -59664.22673037371, 0.02, 0.9560000000000001, 0.34800000000000003, 192.0, 0.0, 0.0, 0.0, 0.0, 0.0, 0.0, 0.0, 0.0, 0.0, 1.695674611908189E9, 0.0, 2023-09-25 15:43:31.908
50.0, -187500.02235174447, 10204.934800259447, -19166.665573914717, -43674.41459589179, -16323.568382688569, -35924.818924047824, -187500.02235174447, -39593.41074149737, 10406.01109337939, -2952.7995530127946, -51681.32354990525, -49885.718510832616, -28786.31994561195, -28902.034926657074, -47903.14112939133, -59670.23934963219, 0.02, 0.9560000000000001, 0.34800000000000003, 192.0, 0.0, 0.0, 0.0, 0.0, 0.0, 0.0, 0.0, 0.0, 0.0, 1.695674611908192E9, 0.0, 2023-09-25 15:43:31.908
52.0, -187500.02235174447, 10206.722939815872, -19168.476065215596, -43679.1084622274, -16322.450795465804, -35894.97934519999, -187500.02235174447, -39618.265881331674, 10435.917727460592, -2957.3593088816774, -51683.066985972764, -49888.40072016725, -28775.30053559548, -28897.60928125492, -47898.55902177799, -59644.24427083067, 0.012, 0.96, 0.34400000000000003, 192.0, 0.0, 48.0, 15.0, 0.0, 5.0, 96.0, 0.0, 0.0, 0.0, 1.695674611908196E9, 0.0, 2023-09-25 15:43:31.908
54.0, -187500.02235174447, 10198.653960067506, -19167.961975093123, -43683.69056984074, -16325.825908878554, -35931.77031657342, -187500.02235174447, -39622.84798894501, 10415.287067328343, -2943.0318406858255, -51673.36632887916, -49879.549429362945, -28778.943869941697, -28877.984449623164, -47896.994399666124, -59652.51441627913, 0.012, 0.96, 0.34400000000000003, 192.0, 0.0, 0.0, 0.0, 0.0, 0.0, 0.0, 0.0, 0.0, 0.0, 1.695674611908199E9, 0.0, 2023-09-25 15:43:31.908
56.0, -187500.02235174447, 10188.461564595886, -19186.26805380202, -43694.37470369038, -16336.353580517005, -35896.18633940057, -187500.02235174447, -39649.379509613456, 10425.054779655311, -2959.147448438102, -51691.381834910135, -49895.24035397057, -28776.731047240624, -28913.38961284037, -47914.272298130076, -59640.08684636198, 0.012, 0.96, 0.34400000000000003, 192.0, 0.0, 0.0, 0.0, 0.0, 0.0, 0.0, 0.0, 0.0, 0.0, 1.695674611908202E9, 0.0, 2023-09-25 15:43:31.908
58.0, -187500.02235174447, 10193.602465820608, -19164.65391691374, -43680.82954655046, -16320.305027998094, -35939.81694457733, -187500.02235174447, -39642.115192665486, 10430.352143091219, -2946.429305843032, -51682.84346852821, -49892.37933068029, -28789.8962247248, -28894.547092264547, -47901.24123111263, -59620.52906996359, 0.012, 0.96, 0.34400000000000003, 192.0, 0.0, 0.0, 0.0, 0.0, 0.0, 0.0, 0.0, 0.0, 0.0, 1.695674611908205E9, 0.0, 2023-09-25 15:43:31.908
60.0, -187500.02235174447, 10198.721015300873, -19175.427457741196, -43689.74789258813, -16331.749121159211, -35920.03565073438, -187500.02235174447, -39663.930495253866, 10412.336637060242, -2957.851047259694, -51687.447927886, -49899.80010983945, -28779.547367041992, -28915.35656635244, -47907.18679513774, -59637.494044005165, 0.012, 0.96, 0.34400000000000003, 192.0, 0.0, 0.0, 0.0, 0.0, 0.0, 0.0, 0.0, 0.0, 0.0, 1.695674611967942E9, 0.0, 2023-09-25 15:43:31.967
62.0, -187500.02235174447, 10192.708396042395, -19195.07464111741, -43702.153110760824, -16342.120330586475, -35937.984101532, -187500.02235174447, -39638.382451341444, 10439.44930308453, -2965.4729921189537, -51698.444986158014, -49906.2821157315, -28777.111026896364, -28907.756973237632, -47917.73681852064, -59611.007226825626, 0.014, 0.9540000000000001, 0.34, 192.0, 0.0, 56.0, 14.5, 104.0, 5.0, 80.0, 0.0, 0.0, 0.0, 1.695674611967953E9, 0.0, 2023-09-25 15:43:31.967
64.0, -187500.02235174447, 10204.711282814895, -19174.846312385358, -43691.35721818891, -16320.014455320175, -35917.08522046629, -187500.02235174447, -39623.98792791223, 10400.1549363321, -2959.9074077495825, -51695.67336984556, -49905.09747327536, -28794.90301548279, -28893.7200777197, -47900.57067877897, -59624.775901410096, 0.014, 0.9540000000000001, 0.34, 192.0, 0.0, 0.0, 0.0, 0.0, 0.0, 0.0, 0.0, 0.0, 0.0, 1.695674611967957E9, 0.0, 2023-09-25 15:43:31.967
66.0, -187500.02235174447, 10203.079605469657, -19164.810379124927, -43673.52052611358, -16309.263266237173, -35946.008377791455, -187500.02235174447, -39606.374753281445, 10439.15873040661, -2952.3301663792336, -51684.251628428894, -49895.575630137406, -28787.392829345805, -28904.8735982029, -47889.84184144042, -59585.59329337994, 0.014, 0.9540000000000001, 0.34, 192.0, 0.0, 0.0, 0.0, 0.0, 0.0, 0.0, 0.0, 0.0, 0.0, 1.69567461196796E9, 0.0, 2023-09-25 15:43:31.967
68.0, -187500.02235174447, 10171.764811487772, -19191.18543758219, -43699.157977003815, -16338.700513684811, -35914.69358380957, -187500.02235174447, -39636.88488446294, 10384.508715213386, -2962.723727550951, -51693.348788422205, -49906.01389479803, -28787.862215979367, -28908.986319182673, -47899.18487062274, -59622.31720952001, 0.014, 0.9540000000000001, 0.34, 192.0, 0.0, 0.0, 0.0, 0.0, 0.0, 0.0, 0.0, 0.0, 0.0, 1.695674611967963E9, 0.0, 2023-09-25 15:43:31.967
70.0, -187500.02235174447, 10194.295369898722, -19177.08148683089, -43684.338770429946, -16325.42357747836, -35945.851915580264, -187500.02235174447, -39632.63805301643, 10432.296744858832, -2972.8714195336606, -51700.76956758137, -49916.38510422529, -28805.810666776975, -28914.507200063133, -47916.373362108876, -59571.288176928545, 0.014, 0.9540000000000001, 0.34, 192.0, 0.0, 0.0, 0.0, 0.0, 0.0, 0.0, 0.0, 0.0, 0.0, 1.695674611967966E9, 0.0, 2023-09-25 15:43:31.967
72.0, -187500.02235174447, 10182.694814526418, -19183.295271789466, -43693.59239263444, -16341.673295697368, -35929.62454910571, -187500.02235174447, -39657.98493122875, 10370.225950506443, -2977.364120169177, -51703.94351529402, -49918.75438913755, -28804.849541765398, -28917.368223353413, -47919.234385399155, -59604.279351744575, 0.018000000000000002, 0.966, 0.33, 192.0, 0.0, 72.0, 15.0, 24.0, 5.0, 40.0, 0.0, 0.0, 0.0, 1.695674611967969E9, 0.0, 2023-09-25 15:43:31.967
74.0, -187500.02235174447, 10209.293390428233, -19156.473178443095, -43660.757680029594, -16312.951304072298, -35949.11527027074, -187500.02235174447, -39639.41063158639, 10426.999381422924, -2951.592558812208, -51688.36434940867, -49904.80690059745, -28788.68923052421, -28900.000917911642, -47911.05364692851, -59558.637089566844, 0.018000000000000002, 0.966, 0.33, 192.0, 0.0, 0.0, 0.0, 0.0, 0.0, 0.0, 0.0, 0.0, 0.0, 1.695674612028163E9, 0.0, 2023-09-25 15:43:32.028
76.0, -187500.02235174447, 10186.49461108382, -19188.480876503098, -43685.83633730845, -16340.823929408067, -35937.93939804308, -187500.02235174447, -39667.70794006681, 10356.926662555536, -2954.2971198913006, -51687.827907541745, -49906.952668065154, -28787.616346790357, -28909.16513313832, -47904.30342010301, -59617.24336352866, 0.018000000000000002, 0.966, 0.33, 192.0, 0.0, 0.0, 0.0, 0.0, 0.0, 0.0, 0.0, 0.0, 0.0, 1.695674612028176E9, 0.0, 2023-09-25 15:43:32.028
78.0, -187500.02235174447, 10190.182648918944, -19191.006623626545, -43685.05402625252, -16340.063970096586, -35934.184304974595, -187500.02235174447, -39630.76050648219, 10433.30257335932, -2968.3563671536886, -51710.13494850814, -49924.923470607224, -28804.223692920652, -28904.828894713988, -47932.936004750256, -59544.9578219602, 0.018000000000000002, 0.966, 0.33, 192.0, 0.0, 0.0, 0.0, 0.0, 0.0, 0.0, 0.0, 0.0, 0.0, 1.695674612028179E9, 0.0, 2023-09-25 15:43:32.028
80.0, -187500.02235174447, 10192.574285575663, -19161.390562223263, -43667.99964523312, -16325.647094922913, -35939.52637189941, -187500.02235174447, -39615.13663710793, 10356.390220688609, -2956.241721658912, -51699.495518147414, -49916.809787369944, -28810.795105790512, -28925.59366531297, -47912.2606411291, -59580.94413053324, 0.018000000000000002, 0.966, 0.33, 192.0, 0.0, 0.0, 0.0, 0.0, 0.0, 0.0, 0.0, 0.0, 0.0, 1.695674612028183E9, 0.0, 2023-09-25 15:43:32.028
82.0, -187500.02235174447, 10190.316759385678, -19164.966841336114, -43676.24743893712, -16319.880344853444, -35926.94233977108, -187500.02235174447, -39601.88205264593, 10435.627154782673, -2955.3923553696104, -51688.67727383105, -49909.053732043954, -28795.46180909417, -28909.321595349506, -47903.74462649162, -59530.76446423108, 0.018000000000000002, 0.964, 0.328, 192.0, 0.0, 72.0, 15.0, 16.0, 5.0, 32.0, 0.0, 0.0, 0.0, 1.695674612028186E9, 0.0, 2023-09-25 15:43:32.028
84.0, -187500.02235174447, 10182.717166270873, -19185.932777635193, -43691.22310772218, -16339.438121251836, -35925.89180778168, -187500.02235174447, -39617.7517912092, 10383.614645435173, -2962.410803128577, -51699.160241980586, -49918.01678157053, -28808.068192966963, -28923.067918189518, -47899.14016713383, -59555.1055139429, 0.018000000000000002, 0.964, 0.328, 192.0, 0.0, 0.0, 0.0, 0.0, 0.0, 0.0, 0.0, 0.0, 0.0, 1.695674612028189E9, 0.0, 2023-09-25 15:43:32.028
86.0, -187500.02235174447, 10189.601503563108, -19178.310832775933, -43684.89756404133, -16335.057179338597, -35914.06773496482, -187500.02235174447, -39623.026802900655, 10456.950718993035, -2994.1279285106575, -51722.27194574737, -49943.40836327176, -28822.306254184994, -28943.20683994375, -47915.456940586206, -59471.62174840233, 0.018000000000000002, 0.964, 0.328, 192.0, 0.0, 0.0, 0.0, 0.0, 0.0, 0.0, 0.0, 0.0, 0.0, 1.695674612028192E9, 0.0, 2023-09-25 15:43:32.028
88.0, -187500.02235174447, 10195.569419332674, -19163.066943057413, -43668.84901152242, -16320.260324509183, -35947.90827607016, -187500.02235174447, -39616.61185224198, 10363.632185892127, -2960.5779600832416, -51690.01837849837, -49919.201424026665, -28813.387908147328, -28897.832798699477, -47885.55030650501, -59525.154176372795, 0.018000000000000002, 0.964, 0.328, 192.0, 0.0, 0.0, 0.0, 0.0, 0.0, 0.0, 0.0, 0.0, 0.0, 1.695674612028195E9, 0.0, 2023-09-25 15:43:32.028
90.0, -187500.02235174447, 10197.558724589197, -19164.78802738047, -43667.329092899454, -16328.597525191013, -35917.95693850004, -187500.02235174447, -39624.45731454579, 10429.167500635089, -2968.5798845982417, -51692.14179422162, -49919.06731355993, -28799.909806240776, -28927.985301969686, -47889.90889667379, -59486.910341609764, 0.018000000000000002, 0.964, 0.328, 192.0, 0.0, 0.0, 0.0, 0.0, 0.0, 0.0, 0.0, 0.0, 0.0, 1.695674612088603E9, 0.0, 2023-09-25 15:43:32.088
92.0, -187500.02235174447, 10196.888172255538, -19164.385695980276, -43673.31936041348, -16331.61501069248, -35943.482630668004, -187500.02235174447, -39640.66232927589, 10378.049061065802, -2962.433154873032, -51691.94062852152, -49923.40355198426, -28817.813553549477, -28918.575217554, -47897.486138044136, -59513.37480704484, 0.02, 0.962, 0.334, 192.0, 0.0, 80.0, 15.0, 8.0, 5.0, 56.0, 0.0, 0.0, 0.0, 1.695674612088619E9, 0.0, 2023-09-25 15:43:32.088
94.0, -187500.02235174447, 10201.090300213134, -19175.382754252285, -43675.91216277029, -16346.18834807734, -35917.53225535539, -187500.02235174447, -39647.70312877931, 10429.055741912813, -2973.20669570049, -51700.63545711464, -49931.5842904549, -28814.66195758128, -28927.806488014045, -47907.07503641547, -59471.57704491342, 0.02, 0.962, 0.334, 192.0, 0.0, 0.0, 0.0, 0.0, 0.0, 0.0, 0.0, 0.0, 0.0, 1.695674612088625E9, 0.0, 2023-09-25 15:43:32.088
96.0, -187500.02235174447, 10192.842506509127, -19167.31377450392, -43674.749872058615, -16353.050333625119, -35955.77609011842, -187500.02235174447, -39668.28908542265, 10380.597159933706, -2967.3505386531997, -51695.47220414546, -49928.92443286472, -28826.307216442492, -28921.86092398893, -47914.76403650809, -59490.57602770043, 0.02, 0.962, 0.334, 192.0, 0.0, 0.0, 0.0, 0.0, 0.0, 0.0, 0.0, 0.0, 0.0, 1.69567461208863E9, 0.0, 2023-09-25 15:43:32.088
98.0, -187500.02235174447, 10180.124363914058, -19187.005661369047, -43691.670142611285, -16372.898682701432, -35912.34665064176, -187500.02235174447, -39665.80804178811, 10421.120872631178, -2991.088091264736, -51713.063027031785, -49944.50359875007, -28823.51324838558, -28956.46142440575, -47922.96712672319, -59451.34871618137, 0.02, 0.962, 0.334, 192.0, 0.0, 0.0, 0.0, 0.0, 0.0, 0.0, 0.0, 0.0, 0.0, 1.695674612088634E9, 0.0, 2023-09-25 15:43:32.088
100.0, -187500.02235174447, 10196.217619921877, -19153.254527241534, -43660.53416258504, -16338.633458451446, -35955.10553778476, -187500.02235174447, -39613.41555278487, 10383.1005553127, -2978.928742281049, -51702.22243097096, -49940.21206381465, -28838.131289259352, -28944.01150274414, -47919.41319935479, -59443.10092247736, 0.02, 0.962, 0.334, 192.0, 0.0, 0.0, 0.0, 0.0, 0.0, 0.0, 0.0, 0.0, 0.0, 1.69567461208864E9, 0.0, 2023-09-25 15:43:32.088
102.0, -187500.02235174447, 10191.613160564084, -19163.17870177969, -43673.006435991105, -16348.915260900887, -35909.82090351831, -187500.02235174447, -39614.980174896744, 10405.117023601179, -2985.164878984079, -51699.20494546949, -49934.40061025627, -28820.38400416184, -28943.855040532955, -47899.67660900076, -59426.6276868138, 0.012, 0.968, 0.33, 192.0, 0.0, 48.0, 15.0, 32.0, 5.0, 40.0, 0.0, 0.0, 0.0, 1.695674612088644E9, 0.0, 2023-09-25 15:43:32.088
104.0, -187500.02235174447, 10209.06987298368, -19139.262335212512, -43650.4535258357, -16327.815214135077, -35954.54674417338, -187500.02235174447, -39609.83927367202, 10399.81966016527, -2970.412727643577, -51695.47220414546, -49929.01383984254, -28827.13423098734, -28920.85509548844, -47899.922478189765, -59403.158355135725, 0.012, 0.968, 0.33, 192.0, 0.0, 0.0, 0.0, 0.0, 0.0, 0.0, 0.0, 0.0, 0.0, 1.695674612148895E9, 0.0, 2023-09-25 15:43:32.148
106.0, -187500.02235174447, 10198.698663556417, -19159.870643600305, -43665.4068428763, -16348.71409520079, -35922.67315658011, -187500.02235174447, -39633.62152977247, 10392.018901350368, -2958.856875760183, -51678.17195393705, -49911.35596172285, -28804.60367257639, -28930.891028748876, -47888.36662630637, -59421.553840822446, 0.012, 0.968, 0.33, 192.0, 0.0, 0.0, 0.0, 0.0, 0.0, 0.0, 0.0, 0.0, 0.0, 1.695674612148909E9, 0.0, 2023-09-25 15:43:32.148
108.0, -187500.02235174447, 10196.552896088708, -19155.333239475876, -43665.74211904313, -16351.686877213346, -35943.37087194573, -187500.02235174447, -39645.62441654497, 10419.712712730494, -2977.118250980169, -51702.11067224869, -49930.533758465506, -28830.509344400092, -28957.78017732861, -47911.92536496227, -59379.15258159072, 0.012, 0.968, 0.33, 192.0, 0.0, 0.0, 0.0, 0.0, 0.0, 0.0, 0.0, 0.0, 0.0, 1.695674612148913E9, 0.0, 2023-09-25 15:43:32.148
110.0, -187500.02235174447, 10210.50038462882, -19161.211748267622, -43671.7100348127, -16356.403095293415, -35921.26499667943, -187500.02235174447, -39660.84595451903, 10379.993662833413, -2972.6031986001967, -51698.64615185811, -49923.537662450995, -28833.303312457003, -28936.34485439597, -47910.6066120394, -59393.97178816459, 0.012, 0.968, 0.33, 192.0, 0.0, 0.0, 0.0, 0.0, 0.0, 0.0, 0.0, 0.0, 0.0, 1.695674612148916E9, 0.0, 2023-09-25 15:43:32.148
112.0, -187500.02235174447, 10202.766681047284, -19163.379867479787, -43671.24064817913, -16362.303955829617, -35953.5856191618, -187500.02235174447, -39682.75066408523, 10412.046064382323, -2971.01622474387, -51699.60727686969, -49926.108113063354, -28835.247914224616, -28943.698578321768, -47921.64837380032, -59356.3090987574, 0.01, 0.962, 0.332, 192.0, 0.0, 40.0, 15.0, 8.0, 5.0, 48.0, 0.0, 0.0, 0.0, 1.69567461214892E9, 0.0, 2023-09-25 15:43:32.148
114.0, -187500.02235174447, 10188.953302973903, -19166.620870425806, -43680.71778782819, -16361.588700007047, -35933.133772985195, -187500.02235174447, -39677.833280305065, 10369.778915617337, -2971.4185561440654, -51697.90854429109, -49927.1362933083, -28835.35967294689, -28953.77921507111, -47922.31892613399, -59383.95820664862, 0.01, 0.962, 0.332, 192.0, 0.0, 0.0, 0.0, 0.0, 0.0, 0.0, 0.0, 0.0, 0.0, 1.695674612148923E9, 0.0, 2023-09-25 15:43:32.148
116.0, -187500.02235174447, 10196.530544344252, -19166.46440821462, -43676.11332847039, -16363.086266885552, -35950.45637493806, -187500.02235174447, -39626.49132329122, 10425.747683733427, -2971.2620939328785, -51696.94741927951, -49922.7329996506, -28837.907771814796, -28931.405118871346, -47914.741684763634, -59335.87960432525, 0.01, 0.962, 0.332, 192.0, 0.0, 0.0, 0.0, 0.0, 0.0, 0.0, 0.0, 0.0, 0.0, 1.695674612148926E9, 0.0, 2023-09-25 15:43:32.148
118.0, -187500.02235174447, 10189.333282629643, -19170.778294894495, -43679.89077328334, -16360.784037206655, -35932.55262762936, -187500.02235174447, -39631.4534105603, 10378.160819788078, -2985.477803406454, -51713.063027031785, -49940.41322951475, -28843.473356184168, -28967.480834422215, -47929.40442912632, -59358.45486622511, 0.01, 0.962, 0.332, 192.0, 0.0, 0.0, 0.0, 0.0, 0.0, 0.0, 0.0, 0.0, 0.0, 1.695674612148929E9, 0.0, 2023-09-25 15:43:32.148
120.0, -187500.02235174447, 10214.367236419588, -19155.98144006508, -43665.518601598575, -16344.221394565273, -35956.759566874454, -187500.02235174447, -39636.81782922958, 10434.129587904166, -2961.114401950169, -51691.71711107697, -49921.34719149437, -28830.531696144546, -28951.96872377023, -47901.598859023914, -59311.53855461342, 0.01, 0.962, 0.332, 192.0, 0.0, 0.0, 0.0, 0.0, 0.0, 0.0, 0.0, 0.0, 0.0, 1.695674612208035E9, 0.0, 2023-09-25 15:43:32.208
122.0, -187500.02235174447, 10208.1087479721, -19160.898823845248, -43673.431119135756, -16347.194176577828, -35958.07831979732, -187500.02235174447, -39643.32218686607, 10359.452409678986, -2955.7723350253505, -51691.98533201043, -49919.603755426855, -28840.6570363828, -28930.689863048778, -47902.783501480044, -59364.780409905965, 0.014, 0.962, 0.326, 192.0, 0.0, 56.0, 15.0, 8.0, 5.0, 24.0, 0.0, 0.0, 0.0, 1.695674612208044E9, 0.0, 2023-09-25 15:43:32.208
124.0, -187500.02235174447, 10189.310930885189, -19176.075658330403, -43679.46609013869, -16362.035734896153, -35948.69058712609, -187500.02235174447, -39651.257056147704, 10435.761265249404, -2979.01814925887, -51699.495518147414, -49928.45504623116, -28831.068138011473, -28963.658686120354, -47907.03033292655, -59305.68239756613, 0.014, 0.962, 0.326, 192.0, 0.0, 0.0, 0.0, 0.0, 0.0, 0.0, 0.0, 0.0, 0.0, 1.695674612208048E9, 0.0, 2023-09-25 15:43:32.208
126.0, -187500.02235174447, 10193.870686754071, -19153.880376086283, -43661.539991085534, -16347.775321933666, -35959.419424464635, -187500.02235174447, -39635.2085036288, 10350.467008407952, -2983.9802365279484, -51710.22435548596, -49934.46766548964, -28851.117652787885, -28971.97353505773, -47912.238289384644, -59333.84559557982, 0.014, 0.962, 0.326, 192.0, 0.0, 0.0, 0.0, 0.0, 0.0, 0.0, 0.0, 0.0, 0.0, 1.695674612208051E9, 0.0, 2023-09-25 15:43:32.208
128.0, -187500.02235174447, 10199.838602523638, -19147.130149260778, -43657.136697427835, -16341.38272301945, -35955.21729650704, -187500.02235174447, -39637.622492029965, 10408.939171903035, -2968.557532853786, -51695.06987274526, -49921.72717115011, -28826.977768776153, -28947.40896790135, -47893.26165834208, -59292.31605438186, 0.014, 0.962, 0.326, 192.0, 0.0, 0.0, 0.0, 0.0, 0.0, 0.0, 0.0, 0.0, 0.0, 1.695674612208055E9, 0.0, 2023-09-25 15:43:32.208
130.0, -187500.02235174447, 10201.872611269071, -19164.631565169282, -43674.14637495833, -16359.778208706166, -35957.5865814193, -187500.02235174447, -39653.7604515267, 10343.783836815815, -2967.819925286761, -51693.214677955475, -49927.158645052754, -28834.644417124324, -28945.86669753393, -47899.922478189765, -59335.477272925054, 0.014, 0.962, 0.326, 192.0, 0.0, 0.0, 0.0, 0.0, 0.0, 0.0, 0.0, 0.0, 0.0, 1.695674612208058E9, 0.0, 2023-09-25 15:43:32.208
132.0, -187500.02235174447, 10214.702512586417, -19152.51691967451, -43663.35048238641, -16354.23497608125, -35958.525354686426, -187500.02235174447, -39667.43971913335, 10422.998419165424, -2979.532239381342, -51701.64128561512, -49932.21013929965, -28843.316893972984, -28948.280685935104, -47912.88648997385, -59271.528932038425, 0.022, 0.96, 0.324, 192.0, 0.0, 88.0, 15.0, 0.0, 5.0, 16.0, 0.0, 0.0, 0.0, 1.695674612208061E9, 0.0, 2023-09-25 15:43:32.208
134.0, -187500.02235174447, 10188.39450936252, -19166.352649492343, -43681.45539539521, -16372.406944323415, -35969.209488536064, -187500.02235174447, -39667.2609051777, 10348.745924084893, -2962.030823472837, -51697.819137313265, -49929.23735728709, -28844.255667240104, -28945.374959155914, -47912.28299287355, -59319.80870006188, 0.022, 0.96, 0.324, 192.0, 0.0, 0.0, 0.0, 0.0, 0.0, 0.0, 0.0, 0.0, 0.0, 1.695674612268081E9, 0.0, 2023-09-25 15:43:32.268
136.0, -187500.02235174447, 10210.567439862185, -19154.88620458677, -43664.78099403155, -16364.069743641585, -35955.440813951594, -187500.02235174447, -39655.63799806094, 10425.479462799962, -2983.9355330390376, -51713.08537877624, -49939.943842881185, -28843.473356184168, -28975.6392211484, -47928.800932026024, -59256.64267023119, 0.022, 0.96, 0.324, 192.0, 0.0, 0.0, 0.0, 0.0, 0.0, 0.0, 0.0, 0.0, 0.0, 1.695674612268094E9, 0.0, 2023-09-25 15:43:32.268
138.0, -187500.02235174447, 10210.58979160664, -19151.2205184961, -43669.27369466707, -16353.09503711403, -35974.238631038505, -187500.02235174447, -39641.89167522093, 10361.218197490954, -2965.830620030239, -51693.080567488745, -49926.89042411929, -28843.719225373177, -28941.038720731583, -47904.28106835855, -59301.435566119624, 0.022, 0.96, 0.324, 192.0, 0.0, 0.0, 0.0, 0.0, 0.0, 0.0, 0.0, 0.0, 0.0, 1.695674612268098E9, 0.0, 2023-09-25 15:43:32.268
140.0, -187500.02235174447, 10200.285637412744, -19163.670440157704, -43670.63715107884, -16367.333098332061, -35939.995758532976, -187500.02235174447, -39666.4115388884, 10421.813776709292, -2972.692605578018, -51709.03971302983, -49934.89234863429, -28855.923277845777, -28969.760712356656, -47909.42196958327, -59236.79432115488, 0.022, 0.96, 0.324, 192.0, 0.0, 0.0, 0.0, 0.0, 0.0, 0.0, 0.0, 0.0, 0.0, 1.695674612268101E9, 0.0, 2023-09-25 15:43:32.268
142.0, -187500.02235174447, 10214.769567819783, -19134.680227599172, -43643.94916819921, -16347.060066111097, -35987.314401544856, -187500.02235174447, -39615.49426501921, 10345.214348460955, -2954.475933846943, -51693.41584365557, -49921.25778451655, -28858.650190669323, -28949.152403968863, -47899.14016713383, -59268.75731572596, 0.014, 0.962, 0.324, 192.0, 0.0, 56.0, 15.0, 8.0, 5.0, 16.0, 0.0, 0.0, 0.0, 1.695674612268104E9, 0.0, 2023-09-25 15:43:32.268
144.0, -187500.02235174447, 10215.574230620174, -19145.476120171086, -43653.31454912598, -16358.794731950133, -35948.936456315096, -187500.02235174447, -39641.757564754196, 10401.898372399613, -2976.090070735225, -51701.21660247047, -49929.14795030927, -28847.22844925266, -28976.801511860074, -47906.13626314834, -59238.381295011204, 0.014, 0.962, 0.324, 192.0, 0.0, 0.0, 0.0, 0.0, 0.0, 0.0, 0.0, 0.0, 0.0, 1.695674612268109E9, 0.0, 2023-09-25 15:43:32.268
146.0, -187500.02235174447, 10196.910523999992, -19152.047533040946, -43667.306741155, -16370.551749533624, -35973.1433955602, -187500.02235174447, -39668.78082380066, 10374.182209275034, -2960.5109048498757, -51689.68310233153, -49923.515310706534, -28850.201231265215, -28953.06395924854, -47900.23540261214, -59248.64074571619, 0.014, 0.962, 0.324, 192.0, 0.0, 0.0, 0.0, 0.0, 0.0, 0.0, 0.0, 0.0, 0.0, 1.695674612268114E9, 0.0, 2023-09-25 15:43:32.268
148.0, -187500.02235174447, 10201.11265195759, -19156.36141972082, -43665.78682253204, -16375.402078080426, -35949.137622015194, -187500.02235174447, -39672.737082569256, 10394.567000218272, -2977.1853062135347, -51707.31862870677, -49936.188749812696, -28863.90285061632, -28962.11641575294, -47911.56773705098, -59214.01789355492, 0.014, 0.962, 0.324, 192.0, 0.0, 0.0, 0.0, 0.0, 0.0, 0.0, 0.0, 0.0, 0.0, 1.695674612268118E9, 0.0, 2023-09-25 15:43:32.268
150.0, -187500.02235174447, 10206.365311904587, -19148.35949520582, -43660.712976540686, -16368.562444277102, -35984.36397127676, -187500.02235174447, -39657.44848936182, 10366.202636504488, -2972.3126259222777, -51709.5538031523, -49940.77085742603, -28876.084551344462, -28954.047436004574, -47920.709600533206, -59211.84977434275, 0.014, 0.962, 0.324, 192.0, 0.0, 0.0, 0.0, 0.0, 0.0, 0.0, 0.0, 0.0, 0.0, 1.695674612328331E9, 0.0, 2023-09-25 15:43:32.328
152.0, -187500.02235174447, 10192.440175108932, -19157.680172643682, -43668.111403955394, -16371.490522800748, -35934.07254625232, -187500.02235174447, -39640.908198464895, 10376.506790698384, -2975.8665532906716, -51709.084416518745, -49938.893310891784, -28850.51415568759, -28975.952145570773, -47895.92151593227, -59194.75068983444, 0.02, 0.966, 0.316, 192.0, 0.0, 80.0, 15.0, 24.0, 4.5, 112.0, 0.0, 0.0, 0.0, 1.695674612328341E9, 0.0, 2023-09-25 15:43:32.328
154.0, -187500.02235174447, 10201.336169402144, -19144.224422481588, -43659.32716838446, -16364.896758186433, -35974.05981708286, -187500.02235174447, -39639.656500775396, 10383.324072757254, -2977.565285869275, -51714.29237297683, -49942.670755704734, -28877.582118222967, -28967.704351866767, -47901.37534157936, -59156.48450332696, 0.02, 0.966, 0.316, 192.0, 0.0, 0.0, 0.0, 0.0, 0.0, 0.0, 0.0, 0.0, 0.0, 1.695674612328345E9, 0.0, 2023-09-25 15:43:32.328
156.0, -187500.02235174447, 10198.385739134043, -19151.332277218375, -43667.39614813282, -16374.150380390929, -35949.986988304496, -187500.02235174447, -39652.79932651512, 10355.47379916594, -2977.989969013926, -51704.41290192758, -49938.133351580305, -28864.662809927802, -28967.436130933304, -47898.58137352245, -59170.58845407826, 0.02, 0.966, 0.316, 192.0, 0.0, 0.0, 0.0, 0.0, 0.0, 0.0, 0.0, 0.0, 0.0, 1.695674612328348E9, 0.0, 2023-09-25 15:43:32.328
158.0, -187500.02235174447, 10201.514983357785, -19143.911498059213, -43649.04536593502, -16367.914243687897, -35981.54765147539, -187500.02235174447, -39659.12487019597, 10387.794421648316, -2983.890829550127, -51716.46049218899, -49949.21981683014, -28875.458702499713, -28983.484683452214, -47912.10417891791, -59122.196927332516, 0.02, 0.966, 0.316, 192.0, 0.0, 0.0, 0.0, 0.0, 0.0, 0.0, 0.0, 0.0, 0.0, 1.695674612328351E9, 0.0, 2023-09-25 15:43:32.328
160.0, -187500.02235174447, 10196.105861199601, -19157.300192987943, -43662.523467841565, -16378.061935670608, -35959.486479698004, -187500.02235174447, -39668.46789937829, 10337.838272790703, -2966.210599685979, -51701.06014025929, -49936.30050853497, -28862.964077349196, -28966.385598943903, -47901.50945204609, -59162.07243944078, 0.02, 0.966, 0.316, 192.0, 0.0, 0.0, 0.0, 0.0, 0.0, 0.0, 0.0, 0.0, 0.0, 1.695674612328354E9, 0.0, 2023-09-25 15:43:32.328
162.0, -187500.02235174447, 10189.869724496572, -19148.940640561657, -43659.88596199584, -16369.121237888485, -35980.050084596885, -187500.02235174447, -39660.063643463094, 10388.777898404349, -2975.6430358461184, -51712.54893690931, -49948.8398371744, -28870.161339063805, -28970.006581545662, -47913.93702196325, -59108.71882542597, 0.02, 0.972, 0.31, 192.0, 0.0, 80.0, 15.0, 48.0, 4.5, 88.0, 0.0, 0.0, 0.0, 1.695674612328358E9, 0.0, 2023-09-25 15:43:32.328
164.0, -187500.02235174447, 10181.890151726026, -19163.111646546324, -43671.86649702388, -16393.462287600316, -35947.193020247585, -187500.02235174447, -39683.063588507604, 10341.749828070382, -2983.7120155944845, -51711.386646197636, -49948.45985751866, -28891.14962710734, -28973.31463972505, -47907.63383002685, -59128.477767524455, 0.02, 0.972, 0.31, 192.0, 0.0, 0.0, 0.0, 0.0, 0.0, 0.0, 0.0, 0.0, 0.0, 1.69567461238908E9, 0.0, 2023-09-25 15:43:32.389
166.0, -187500.02235174447, 10204.01837873678, -19149.052399283933, -43655.59442706042, -16373.926862946377, -35974.998590349984, -187500.02235174447, -39672.021826746684, 10393.605875206695, -2986.953018540504, -51718.18157651205, -49953.98073839912, -28893.563615508512, -28997.78979990361, -47917.08861793144, -59057.19805445648, 0.02, 0.972, 0.31, 192.0, 0.0, 0.0, 0.0, 0.0, 0.0, 0.0, 0.0, 0.0, 0.0, 1.695674612389091E9, 0.0, 2023-09-25 15:43:32.389
168.0, -187500.02235174447, 10204.666579325984, -19151.399332451743, -43664.31160739799, -16386.935578219363, -35978.48546248501, -187500.02235174447, -39717.19470229086, 10323.533156339307, -2979.4875358924314, -51707.98918104043, -49946.515255751045, -28882.365391536405, -28977.58382291601, -47904.45988231419, -59102.46033697848, 0.02, 0.972, 0.31, 192.0, 0.0, 0.0, 0.0, 0.0, 0.0, 0.0, 0.0, 0.0, 0.0, 1.695674612389095E9, 0.0, 2023-09-25 15:43:32.389
170.0, -187500.02235174447, 10190.92025648597, -19159.334201733374, -43659.573037573464, -16387.38261310847, -35988.40963702317, -187500.02235174447, -39697.838091592566, 10383.033500079335, -2979.599294614708, -51711.23018398645, -49945.39766852828, -28877.85033915643, -28982.992945074195, -47924.77761802407, -59065.423496416035, 0.02, 0.972, 0.31, 192.0, 0.0, 0.0, 0.0, 0.0, 0.0, 0.0, 0.0, 0.0, 0.0, 1.695674612389098E9, 0.0, 2023-09-25 15:43:32.389
172.0, -187500.02235174447, 10189.73561402984, -19146.30313471593, -43651.97344445866, -16365.589662264547, -35978.75368341848, -187500.02235174447, -39634.78382048414, 10311.32910386671, -2993.7032453660067, -51710.62668688616, -49949.01865113004, -28879.77258917959, -28981.428322962325, -47900.14599563432, -59100.76160439988, 0.022, 0.976, 0.312, 192.0, 0.0, 88.0, 15.0, 64.0, 4.5, 96.0, 0.0, 0.0, 0.0, 1.695674612389102E9, 0.0, 2023-09-25 15:43:32.389
174.0, -187500.02235174447, 10183.991215704826, -19152.36045746332, -43667.01616847708, -16373.703345501823, -35969.343599002794, -187500.02235174447, -39638.29304436363, 10382.474706467952, -2990.8198703312723, -51709.5538031523, -49944.39184002779, -28874.452873999224, -28982.992945074195, -47891.51822227457, -59048.860853774655, 0.022, 0.976, 0.312, 192.0, 0.0, 0.0, 0.0, 0.0, 0.0, 0.0, 0.0, 0.0, 0.0, 1.695674612389105E9, 0.0, 2023-09-25 15:43:32.389
176.0, -187500.02235174447, 10184.68411978294, -19158.149559277244, -43670.88302026785, -16376.139685647451, -35963.37568323323, -187500.02235174447, -39636.75077399621, 10313.1842986565, -3005.3261524827662, -51724.55182368182, -49961.066241391454, -28904.38185982488, -28997.5439307146, -47894.71452173168, -59072.01726103035, 0.022, 0.976, 0.312, 192.0, 0.0, 0.0, 0.0, 0.0, 0.0, 0.0, 0.0, 0.0, 0.0, 1.695674612389108E9, 0.0, 2023-09-25 15:43:32.389
178.0, -187500.02235174447, 10216.73652133185, -19139.955239290626, -43656.376738116356, -16368.562444277102, -35962.861593110756, -187500.02235174447, -39635.49907630671, 10384.039328579824, -2997.145414012124, -51709.12912000765, -49946.35879353986, -28874.922260632786, -28972.197052502284, -47884.43271928224, -58999.19527759496, 0.022, 0.976, 0.312, 192.0, 0.0, 0.0, 0.0, 0.0, 0.0, 0.0, 0.0, 0.0, 0.0, 1.695674612389111E9, 0.0, 2023-09-25 15:43:32.389
180.0, -187500.02235174447, 10194.96592223238, -19149.49943417304, -43660.37770037386, -16379.067764171097, -35975.98206710602, -187500.02235174447, -39641.80226824311, 10287.233923343889, -2972.983178255937, -51695.62866635665, -49935.965232368144, -28879.973754879687, -28972.241755991192, -47870.23936155312, -59057.6897928345, 0.022, 0.976, 0.312, 192.0, 0.0, 0.0, 0.0, 0.0, 0.0, 0.0, 0.0, 0.0, 0.0, 1.695674612449037E9, 0.0, 2023-09-25 15:43:32.449
182.0, -187500.02235174447, 10193.602465820608, -19147.443073683153, -43665.809174276495, -16377.391383336948, -35959.37472097573, -187500.02235174447, -39660.08599520755, 10376.350328487199, -2996.899544823116, -51714.56059391029, -49953.4890000211, -28873.04471409854, -28998.639166192912, -47890.914725174276, -58987.125335589095, 0.024, 0.966, 0.316, 192.0, 0.0, 96.0, 15.0, 24.0, 4.5, 112.0, 0.0, 0.0, 0.0, 1.695674612449047E9, 0.0, 2023-09-25 15:43:32.449
184.0, -187500.02235174447, 10193.043672209224, -19151.73460861857, -43662.97050273067, -16381.817028739099, -35988.141416089704, -187500.02235174447, -39680.359027428516, 10304.80239448576, -2994.1279285106575, -51713.487710176436, -49949.8903691638, -28906.348813336946, -28992.02304983414, -47887.60666699489, -59027.470234330925, 0.024, 0.966, 0.316, 192.0, 0.0, 0.0, 0.0, 0.0, 0.0, 0.0, 0.0, 0.0, 0.0, 1.695674612449051E9, 0.0, 2023-09-25 15:43:32.449
186.0, -187500.02235174447, 10182.694814526418, -19164.184530280178, -43678.370854660374, -16393.19406666685, -35963.755662888965, -187500.02235174447, -39693.81477759061, 10367.72255512745, -2996.5195651673753, -51705.5528408948, -49941.19554057068, -28873.961135621208, -28989.49730271069, -47880.09648085791, -58990.43339376848, 0.024, 0.966, 0.316, 192.0, 0.0, 0.0, 0.0, 0.0, 0.0, 0.0, 0.0, 0.0, 0.0, 1.695674612449054E9, 0.0, 2023-09-25 15:43:32.449
188.0, -187500.02235174447, 10188.930951229448, -19157.948393577146, -43673.83345053595, -16388.656662542424, -35999.473750528545, -187500.02235174447, -39668.13262321146, 10314.771272512828, -3012.3222484972775, -51721.98137306945, -49965.08955539341, -28906.594682525956, -28994.92877661333, -47899.27427760056, -58998.167097350015, 0.024, 0.966, 0.316, 192.0, 0.0, 0.0, 0.0, 0.0, 0.0, 0.0, 0.0, 0.0, 0.0, 1.695674612449057E9, 0.0, 2023-09-25 15:43:32.449
190.0, -187500.02235174447, 10199.413919378987, -19152.159291763222, -43663.909275997794, -16391.137706176964, -35973.03163683792, -187500.02235174447, -39688.53976589916, 10361.709935868972, -3004.2979722378223, -51713.37595145416, -49953.64546223229, -28885.628746226877, -28995.97930860273, -47884.969161149165, -58967.94753884644, 0.024, 0.966, 0.316, 192.0, 0.0, 0.0, 0.0, 0.0, 0.0, 0.0, 0.0, 0.0, 0.0, 1.695674612449061E9, 0.0, 2023-09-25 15:43:32.449
192.0, -187500.02235174447, 10184.617064549573, -19144.246774226045, -43655.05798519349, -16369.76943847769, -35988.25317481198, -187500.02235174447, -39610.21925332776, 10318.392255114586, -2991.02103603137, -51705.53048915035, -49943.251901060576, -28893.54126376406, -28988.424418976836, -47870.485230742124, -58992.69091995847, 0.018000000000000002, 0.964, 0.32, 192.0, 0.0, 72.0, 15.0, 16.0, 5.0, 0.0, 0.0, 0.0, 0.0, 1.695674612449064E9, 0.0, 2023-09-25 15:43:32.449
194.0, -187500.02235174447, 10189.534448329741, -19159.08833254437, -43669.296046411524, -16380.118296160495, -35957.83245060831, -187500.02235174447, -39641.265826376184, 10358.0442497783, -3007.248402505923, -51712.41482644258, -49944.66006096126, -28873.827025154478, -29001.50018948319, -47862.70682367168, -58953.57536716168, 0.018000000000000002, 0.964, 0.32, 192.0, 0.0, 0.0, 0.0, 0.0, 0.0, 0.0, 0.0, 0.0, 0.0, 1.695674612508375E9, 0.0, 2023-09-25 15:43:32.508
196.0, -187500.02235174447, 10189.713262285384, -19147.443073683153, -43668.82665977796, -16375.33502284706, -35982.575831720336, -187500.02235174447, -39632.816866972076, 10331.020990731835, -3009.3271147402666, -51718.76272186789, -49953.77957269902, -28900.492656289658, -29002.08133483903, -47866.41721325126, -58945.43933217995, 0.018000000000000002, 0.964, 0.32, 192.0, 0.0, 0.0, 0.0, 0.0, 0.0, 0.0, 0.0, 0.0, 0.0, 1.695674612508388E9, 0.0, 2023-09-25 15:43:32.508
198.0, -187500.02235174447, 10194.183611176446, -19149.03004753948, -43673.431119135756, -16382.264063628205, -35953.16093601715, -187500.02235174447, -39653.022843959676, 10344.722610082938, -3019.5195102118864, -51715.99110555543, -49957.64642448979, -28888.33330730597, -29006.439925007813, -47865.63490219533, -58916.67263706597, 0.018000000000000002, 0.964, 0.32, 192.0, 0.0, 0.0, 0.0, 0.0, 0.0, 0.0, 0.0, 0.0, 0.0, 1.695674612508392E9, 0.0, 2023-09-25 15:43:32.508
200.0, -187500.02235174447, 10195.927047243958, -19149.678248128683, -43670.8606685234, -16381.14647640544, -35993.93051790363, -187500.02235174447, -39669.40667264541, 10332.630316332617, -3002.174556514568, -51704.09997750521, -49944.88357840581, -28896.82697019899, -28988.73734339921, -47864.2490940391, -58916.98556148834, 0.018000000000000002, 0.964, 0.32, 192.0, 0.0, 0.0, 0.0, 0.0, 0.0, 0.0, 0.0, 0.0, 0.0, 1.695674612508395E9, 0.0, 2023-09-25 15:43:32.508
202.0, -187500.02235174447, 10175.63166327854, -19166.620870425806, -43682.64003785134, -16397.753822535735, -35964.06858731134, -187500.02235174447, -39674.27935293667, 10333.144406455089, -3017.038466577347, -51717.62278290067, -49954.5395320105, -28893.183635852773, -29009.189189575816, -47877.92836164575, -58918.23725917784, 0.026000000000000002, 0.9500000000000001, 0.334, 192.0, 0.0, 104.0, 14.5, 88.0, 5.0, 56.0, 0.0, 0.0, 0.0, 1.695674612508398E9, 0.0, 2023-09-25 15:43:32.508
204.0, -187500.02235174447, 10174.737593500327, -19156.719047632105, -43677.610895348895, -16384.163961906906, -35998.154997605685, -187500.02235174447, -39648.28427413515, 10347.80715081777, -3004.923821082571, -51715.38760845514, -49947.990470885095, -28891.48490327417, -28992.425381234334, -47867.73596617413, -58896.62312228956, 0.026000000000000002, 0.9500000000000001, 0.334, 192.0, 0.0, 0.0, 0.0, 0.0, 0.0, 0.0, 0.0, 0.0, 0.0, 1.695674612508401E9, 0.0, 2023-09-25 15:43:32.508
206.0, -187500.02235174447, 10179.364404602577, -19165.100951802844, -43677.58854360444, -16389.90836023192, -35973.344561260295, -187500.02235174447, -39657.11321319499, 10325.611868573651, -3024.50394922542, -51729.066876061785, -49960.015709402054, -28908.069897660007, -29026.578846762044, -47869.322940030455, -58901.629913047545, 0.026000000000000002, 0.9500000000000001, 0.334, 192.0, 0.0, 0.0, 0.0, 0.0, 0.0, 0.0, 0.0, 0.0, 0.0, 1.695674612508405E9, 0.0, 2023-09-25 15:43:32.508
208.0, -187500.02235174447, 10187.58984656213, -19157.367248221308, -43670.30187491201, -16381.817028739099, -36004.3464308198, -187500.02235174447, -39647.99370145723, 10339.402894902576, -2993.658541877096, -51710.78314909735, -49941.910796393255, -28900.51500803411, -28991.39720098939, -47858.88467536982, -58890.2528751198, 0.026000000000000002, 0.9500000000000001, 0.334, 192.0, 0.0, 0.0, 0.0, 0.0, 0.0, 0.0, 0.0, 0.0, 0.0, 1.695674612508408E9, 0.0, 2023-09-25 15:43:32.508
210.0, -187500.02235174447, 10168.233235863834, -19168.878396615793, -43697.816872336494, -16397.01621496871, -35973.45631998257, -187500.02235174447, -39700.5203009272, 10312.357284111653, -3034.003440618925, -51724.37300972617, -49966.43066006072, -28897.832798699477, -29003.02010810615, -47868.115945829864, -58901.138174669526, 0.026000000000000002, 0.9500000000000001, 0.334, 192.0, 0.0, 0.0, 0.0, 0.0, 0.0, 0.0, 0.0, 0.0, 0.0, 1.695674612569358E9, 0.0, 2023-09-25 15:43:32.569
212.0, -187500.02235174447, 10168.68027075294, -19160.0718093004, -43668.804308033505, -16386.846171241545, -35992.99174463651, -187500.02235174447, -39638.62832053046, 10358.75950560087, -3037.624423220685, -51730.56444294029, -49974.65610202028, -28901.14085687886, -29028.344634574016, -47875.670835455756, -58845.75055190928, 0.026000000000000002, 0.9520000000000001, 0.34600000000000003, 192.0, 0.0, 104.0, 14.5, 96.0, 5.0, 104.0, 0.0, 0.0, 0.0, 1.695674612569368E9, 0.0, 2023-09-25 15:43:32.569
214.0, -187500.02235174447, 10171.563645787674, -19143.822091081394, -43669.519563856076, -16380.788848494156, -35972.137567059704, -187500.02235174447, -39608.4981690047, 10288.597379755662, -3023.296955024833, -51712.03484678684, -49953.84662793239, -28893.071877130496, -29019.91802691436, -47841.9420530727, -58896.82428798966, 0.026000000000000002, 0.9520000000000001, 0.34600000000000003, 192.0, 0.0, 0.0, 0.0, 0.0, 0.0, 0.0, 0.0, 0.0, 0.0, 1.695674612569371E9, 0.0, 2023-09-25 15:43:32.569
216.0, -187500.02235174447, 10156.587977002619, -19156.495530187553, -43690.44079666624, -16394.177543422884, -35977.83726189581, -187500.02235174447, -39647.36785261248, 10360.748810857393, -3040.4854465109643, -51727.23403301645, -49967.83881996141, -28903.063106902016, -29028.903428185396, -47860.38224224833, -58831.69130464689, 0.026000000000000002, 0.9520000000000001, 0.34600000000000003, 192.0, 0.0, 0.0, 0.0, 0.0, 0.0, 0.0, 0.0, 0.0, 0.0, 1.695674612569375E9, 0.0, 2023-09-25 15:43:32.569
218.0, -187500.02235174447, 10178.805610991194, -19139.709370101617, -43677.633247093356, -16377.43608682586, -35983.35814277627, -187500.02235174447, -39625.15021862391, 10273.442897014964, -3020.726504412473, -51711.56546015328, -49954.69599422169, -28889.540301506557, -28991.93364285632, -47847.99937582009, -58873.08673537812, 0.026000000000000002, 0.9520000000000001, 0.34600000000000003, 192.0, 0.0, 0.0, 0.0, 0.0, 0.0, 0.0, 0.0, 0.0, 0.0, 1.695674612569378E9, 0.0, 2023-09-25 15:43:32.569
220.0, -187500.02235174447, 10147.826093176138, -19170.04068732747, -43711.60789866542, -16406.314540662115, -35971.95875310407, -187500.02235174447, -39674.055835492116, 10356.703145110983, -3039.144341843646, -51732.28552726335, -49963.27906409253, -28882.544205492046, -29035.11721314397, -47865.85841963988, -58805.96444677883, 0.026000000000000002, 0.9520000000000001, 0.34600000000000003, 192.0, 0.0, 0.0, 0.0, 0.0, 0.0, 0.0, 0.0, 0.0, 0.0, 1.695674612569381E9, 0.0, 2023-09-25 15:43:32.569
222.0, -187500.02235174447, 10153.548139756696, -19166.196187281155, -43714.111294044415, -16404.19112493886, -35987.8955469007, -187500.02235174447, -39687.109254254014, 10265.530379477785, -3037.6691267095957, -51737.538187210346, -49963.167305370254, -28907.466400559715, -29015.89471291241, -47880.208239580184, -58838.26271751675, 0.026000000000000002, 0.9500000000000001, 0.34800000000000003, 192.0, 0.0, 104.0, 14.5, 88.0, 5.0, 112.0, 0.0, 0.0, 0.0, 1.695674612569384E9, 0.0, 2023-09-25 15:43:32.569
224.0, -187500.02235174447, 10157.169122358457, -19162.79872212395, -43707.24930849663, -16403.699386560846, -35994.42225628165, -187500.02235174447, -39701.79435036115, 10333.502034366375, -3041.692440711551, -51734.54305345334, -49953.42194478774, -28887.23807182766, -29049.221163895272, -47886.444376283216, -58782.76333603422, 0.026000000000000002, 0.9500000000000001, 0.34800000000000003, 192.0, 0.0, 0.0, 0.0, 0.0, 0.0, 0.0, 0.0, 0.0, 0.0, 1.695674612629959E9, 0.0, 2023-09-25 15:43:32.629
226.0, -187500.02235174447, 10152.654069978485, -19148.091274272356, -43695.67110486879, -16390.19893290984, -36008.36974482176, -187500.02235174447, -39667.93145751136, 10257.93078636298, -3018.7371991559507, -51721.13200678015, -49929.93026136521, -28882.499502003135, -29011.06673611006, -47882.890448914826, -58842.196624540884, 0.026000000000000002, 0.9500000000000001, 0.34800000000000003, 192.0, 0.0, 0.0, 0.0, 0.0, 0.0, 0.0, 0.0, 0.0, 0.0, 1.695674612629977E9, 0.0, 2023-09-25 15:43:32.629
228.0, -187500.02235174447, 10162.958224172382, -19147.152501005236, -43698.19685199224, -16381.213531638807, -35997.14916910519, -187500.02235174447, -39640.014128686686, 10332.339743654698, -3014.736236898451, -51713.66652413208, -49918.66498215974, -28866.7638739066, -28985.138712541906, -47868.63003595234, -58807.327903190606, 0.026000000000000002, 0.9500000000000001, 0.34800000000000003, 192.0, 0.0, 0.0, 0.0, 0.0, 0.0, 0.0, 0.0, 0.0, 0.0, 1.695674612629982E9, 0.0, 2023-09-25 15:43:32.629
230.0, -187500.02235174447, 10157.213825847368, -19141.58691663586, -43706.757570118614, -16379.470095571292, -36000.79250345141, -187500.02235174447, -39621.328070322044, 10273.398193526053, -3017.731370655462, -51718.20392825651, -49923.671772917725, -28873.402342009824, -29025.170686861362, -47861.43277423773, -58850.2879560337, 0.026000000000000002, 0.9500000000000001, 0.34800000000000003, 192.0, 0.0, 0.0, 0.0, 0.0, 0.0, 0.0, 0.0, 0.0, 0.0, 1.695674612629987E9, 0.0, 2023-09-25 15:43:32.629
232.0, -187500.02235174447, 10167.29446259671, -19147.711294616616, -43704.522395673084, -16385.706232274322, -35967.533107701915, -187500.02235174447, -39627.89948319191, 10342.800360059782, -3024.861577136705, -51719.008591056896, -49920.98956358308, -28870.94365011974, -29018.845143180508, -47871.04402435351, -58797.78370830819, 0.018000000000000002, 0.9480000000000001, 0.35000000000000003, 192.0, 0.0, 72.0, 14.5, 80.0, 5.0, 120.0, 0.0, 0.0, 0.0, 1.695674612629992E9, 0.0, 2023-09-25 15:43:32.629
234.0, -187500.02235174447, 10161.527712527242, -19136.535422388963, -43701.259040982615, -16381.77232525019, -35931.21152296204, -187500.02235174447, -39631.766334982676, 10282.763574452827, -3020.8382631347495, -51711.744274108925, -49914.88753734679, -28881.292507802547, -29020.99091064822, -47868.29475978551, -58824.15876676545, 0.018000000000000002, 0.9480000000000001, 0.35000000000000003, 192.0, 0.0, 0.0, 0.0, 0.0, 0.0, 0.0, 0.0, 0.0, 0.0, 1.695674612629997E9, 0.0, 2023-09-25 15:43:32.629
236.0, -187500.02235174447, 10157.213825847368, -19151.756960363025, -43717.6205179239, -16399.00552022523, -35847.19131555454, -187500.02235174447, -39664.73515805425, 10343.67207809354, -3015.719713654484, -51706.96100079549, -49903.28698197448, -28859.745426147634, -28999.577939460032, -47872.608646465385, -58788.88771401498, 0.018000000000000002, 0.9480000000000001, 0.35000000000000003, 192.0, 0.0, 0.0, 0.0, 0.0, 0.0, 0.0, 0.0, 0.0, 0.0, 1.695674612630002E9, 0.0, 2023-09-25 15:43:32.630
