%OpenBCI Raw EXG Data
%Number of channels = 16
%Sample Rate = 125 Hz
%Board = OpenBCI_GUI$BoardCytonSerialDaisy
Sample Index, EXG Channel 0, EXG Channel 1, EXG Channel 2, EXG Channel 3, EXG Channel 4, EXG Channel 5, EXG Channel 6, EXG Channel 7, EXG Channel 8, EXG Channel 9, EXG Channel 10, EXG Channel 11, EXG Channel 12, EXG Channel 13, EXG Channel 14, EXG Channel 15, Accel Channel 0, Accel Channel 1, Accel Channel 2, Other, Other, Other, Other, Other, Other, Other, Analog Channel 0, Analog Channel 1, Analog Channel 2, Timestamp, Other, Timestamp (Formatted)
0.0, -155640.4269505056, -134971.0535968606, -25657.187480591238, -26990.20081641684, -24115.788831208807, -19894.9971669909, -187500.02235174447, -28835.471431669168, 0.0, 0.0, 0.0, 0.0, 0.0, 0.0, 0.0, 0.0, 0.0, 0.0, 0.0, 192.0, 0.0, 0.0, 0.0, 0.0, 0.0, 0.0, 0.0, 0.0, 0.0, 1.695758228648199E9, 0.0, 2023-09-26 14:57:08.648
240.0, -155708.21979143858, -135052.81627807813, -25653.186518333736, -26980.90249072343, -24109.2397700834, -19882.83781800721, -187500.02235174447, -28825.815478064476, -14563.92730044452, -9233.349172276161, -994.8984974501726, -40084.74678811393, -30028.56284720455, -33537.87613366558, -1153.9311592496824, 9431.452683383546, 0.0, 0.0, 0.0, 192.0, 0.0, 0.0, 0.0, 0.0, 0.0, 0.0, 0.0, 0.0, 0.0, 1.695758228648217E9, 0.0, 2023-09-26 14:57:08.648
242.0, -155645.8807761527, -134978.74259695323, -25645.31870428547, -26978.06381917761, -24106.691671215496, -19888.962195987966, -187500.02235174447, -28824.630835608346, -14555.657154996057, -9226.10720707264, -1036.8303700483286, -40123.303547299336, -30020.493867456185, -33531.952921384924, -1185.6035811428526, 9428.256383926439, 0.0, 0.0, 0.0, 192.0, 0.0, 0.0, 0.0, 0.0, 0.0, 0.0, 0.0, 0.0, 0.0, 1.695758228648227E9, 0.0, 2023-09-26 14:57:08.648
244.0, -155712.93600951863, -135058.20304849185, -25644.111710084882, -26976.67801102138, -24103.271854313836, -19880.490884839404, -187500.02235174447, -28818.46175413868, -14557.31118408575, -9238.333611289694, -987.9694566690275, -40076.05195952082, -30018.303396499563, -33537.898485410034, -1154.8252290278947, 9433.86667178472, 0.0, 0.0, 0.0, 192.0, 0.0, 0.0, 0.0, 0.0, 0.0, 0.0, 0.0, 0.0, 0.0, 1.695758228648236E9, 0.0, 2023-09-26 14:57:08.648
246.0, -155659.18006410362, -134994.76879772768, -25642.5023844841, -26977.90735696642, -24107.00459563787, -19891.912626256064, -187500.02235174447, -28825.591960619924, -14547.230547336407, -9245.799093937767, -1058.3550999587894, -40145.0741463988, -30016.068222054033, -33525.22504630387, -1204.3790464853105, 9418.28750589937, 0.064, 0.976, -0.252, 192.0, 1.0, 0.0, 15.0, 64.0, 124.0, 16.0, 0.0, 0.0, 0.0, 1.695758228648265E9, 0.0, 2023-09-26 14:57:08.648
248.0, -155711.3043321734, -135060.08059502608, -25640.848355394406, -26976.119217409996, -24100.880217657115, -19880.31207088376, -187500.02235174447, -28818.998196005607, -14549.800997948767, -9245.933204404499, -1004.8673754772396, -40088.50188118242, -30009.563864417538, -33530.94709288443, -1168.750365823551, 9429.061046726829, 0.064, 0.976, -0.252, 192.0, 0.0, 0.0, 0.0, 0.0, 0.0, 0.0, 0.0, 0.0, 0.0, 1.695758228648275E9, 0.0, 2023-09-26 14:57:08.648
250.0, -155665.66206999565, -135003.48597806526, -25643.195288562216, -26976.20862438782, -24093.727659431417, -19890.37035588865, -187500.02235174447, -28822.66388209628, -14557.199425363473, -9258.114905132641, -1065.3288442288451, -40152.69609125806, -30022.818448879538, -33534.23279931937, -1209.2740785210226, 9418.131043688183, 0.064, 0.976, -0.252, 192.0, 0.0, 0.0, 0.0, 0.0, 0.0, 0.0, 0.0, 0.0, 0.0, 1.695758228648284E9, 0.0, 2023-09-26 14:57:08.648
252.0, -155698.60854132278, -135051.6763391109, -25641.854183894895, -26971.648868518936, -24099.15913333406, -19879.619166805645, -187500.02235174447, -28819.51228612808, -14551.812654949745, -9238.44537001197, -1001.0005236864715, -40081.908116568105, -30018.571617433026, -33526.94613062694, -1165.464659388621, 9440.035753254384, 0.064, 0.976, -0.252, 192.0, 0.0, 0.0, 0.0, 0.0, 0.0, 0.0, 0.0, 0.0, 0.0, 1.695758228648293E9, 0.0, 2023-09-26 14:57:08.648
254.0, -155686.0915644278, -135032.16326620142, -25633.248762279603, -26960.830624202565, -24100.790810679297, -19883.08368719622, -187500.02235174447, -28816.293634926515, -14553.176111361518, -9265.558036036258, -1076.6835304121412, -40165.861268742236, -30018.929245344312, -33522.76635441379, -1219.2429565480898, 9415.135909931172, 0.064, 0.976, -0.252, 192.0, 0.0, 0.0, 0.0, 0.0, 0.0, 0.0, 0.0, 0.0, 0.0, 1.695758228648302E9, 0.0, 2023-09-26 14:57:08.648
0.0, -77624.25573161313, -67345.20254673989, -12791.456316883126, -13460.265214474824, -12028.635982112406, -9969.235654978234, -93750.01117587223, -14367.075487026632, -7285.126422062686, -4634.5224540856425, -494.2864768846604, -20036.081377992796, -15018.740596621108, -16768.301042115814, -576.4067860134585, 4719.302620804622, 0.06, 0.977, -0.259, 192.0, 0.5, 104.0, 15.0, 80.0, 123.5, 104.0, 0.0, 0.0, 0.0, 1.695758228801399E9, 0.0, 2023-09-26 14:57:08.801
2.0, -155184.54077059517, -134617.31488911092, -25567.065246947437, -26907.9016933324, -24043.86091755163, -19931.60932440869, -187500.02235174447, -28727.11017454984, -14613.011731268374, -9269.40253608257, -1000.5534887973654, -39562.319464960034, -29947.224849131686, -33479.38161842604, -1098.1188533447807, 9352.148694056117, 0.06, 0.977, -0.259, 192.0, 0.0, 0.0, 0.0, 0.0, 0.0, 0.0, 0.0, 0.0, 0.0, 1.695758228801429E9, 0.0, 2023-09-26 14:57:08.801
4.0, -155220.3929687015, -134667.91923855775, -25563.332505623403, -26906.426478198347, -24039.479975638387, -19922.802737093298, -187500.02235174447, -28722.10338379185, -14600.919437518054, -9251.968175407432, -935.8004851103408, -39496.78415021708, -29935.62429375938, -33472.899612534005, -1055.0023382904933, 9375.685080967556, 0.06, 0.977, -0.259, 192.0, 0.0, 0.0, 0.0, 0.0, 0.0, 0.0, 0.0, 0.0, 0.0, 1.69575822880144E9, 0.0, 2023-09-26 14:57:08.801
6.0, -155158.41158132692, -134596.84069118986, -25581.079790720916, -26927.593580197525, -24047.928935042495, -19956.710333432, -187500.02235174447, -28747.092634092885, -14608.407271910582, -9272.800001239777, -998.0500934183709, -39568.73441561871, -29949.750596255137, -33483.74020859483, -1099.9963998790265, 9357.7589819144, 0.06, 0.977, -0.259, 192.0, 0.0, 0.0, 0.0, 0.0, 0.0, 0.0, 0.0, 0.0, 0.0, 1.695758228801452E9, 0.0, 2023-09-26 14:57:08.801
8.0, -155171.86733148902, -134625.8756072373, -25583.940814011195, -26930.14167906543, -24049.560612387733, -19934.515051187882, -187500.02235174447, -28737.280218277006, -14619.60549588269, -9260.484190044903, -894.5168131013886, -39453.66763516279, -29957.752520770136, -33500.12403728057, -1019.016029717449, 9385.676310739078, 0.054, 0.98, -0.258, 192.0, 0.5, 88.0, 15.0, 80.0, 123.5, 120.0, 0.0, 0.0, 0.0, 1.695758228801461E9, 0.0, 2023-09-26 14:57:08.801
10.0, -155190.48633462028, -134632.96111022963, -25567.668744047733, -26908.61694915497, -24027.61119933262, -19923.652103382603, -187500.02235174447, -28718.907084334744, -14595.845591526699, -9286.903951991077, -993.7362067384967, -39564.35347370547, -29936.987750171156, -33475.0006765128, -1099.9740481345711, 9347.164255042584, 0.054, 0.98, -0.258, 192.0, 0.0, 0.0, 0.0, 0.0, 0.0, 0.0, 0.0, 0.0, 0.0, 1.69575822880147E9, 0.0, 2023-09-26 14:57:08.801
12.0, -155170.45917158833, -134616.35376409933, -25588.813494302452, -26927.638283686436, -24048.934763542984, -19925.283780727837, -187500.02235174447, -28730.10530830685, -14589.7435652904, -9238.087742100686, -916.890909301151, -39475.86291740691, -29935.914866437302, -33486.78004584075, -1043.3123759403677, 9382.56941825979, 0.054, 0.98, -0.258, 192.0, 0.0, 0.0, 0.0, 0.0, 0.0, 0.0, 0.0, 0.0, 0.0, 1.695758228801507E9, 0.0, 2023-09-26 14:57:08.801
14.0, -155200.74578532527, -134638.45963936564, -25588.5899768579, -26919.971635338265, -24047.75012108685, -19918.533553902336, -187500.02235174447, -28721.186962269185, -14587.709556544967, -9257.489056287892, -982.2697618329241, -39549.131935731406, -29943.49210780765, -33478.621659114564, -1087.010036350493, 9353.713316167989, 0.054, 0.98, -0.258, 192.0, 0.0, 0.0, 0.0, 0.0, 0.0, 0.0, 0.0, 0.0, 0.0, 1.695758228801516E9, 0.0, 2023-09-26 14:57:08.801
16.0, -155150.70022948986, -134601.57926101438, -25609.824134090442, -26939.44000475884, -24062.52462417181, -19926.580181906247, -187500.02235174447, -28731.5805234409, -14577.986547706909, -9191.730224100378, -919.5954703802432, -39469.5150219816, -29941.97218918469, -33493.9549558109, -1039.9372625276164, 9379.507229269413, 0.054, 0.98, -0.258, 192.0, 0.0, 0.0, 0.0, 0.0, 0.0, 0.0, 0.0, 0.0, 0.0, 1.695758228861514E9, 0.0, 2023-09-26 14:57:08.861
18.0, -155184.33960489507, -134634.70454629714, -25600.324642696934, -26916.551818436605, -24055.081493268193, -19910.308111942784, -187500.02235174447, -28716.135468022287, -14567.704745257468, -9178.609750105114, -972.1444215946701, -39531.831685523, -29934.506706536617, -33482.84613881661, -1077.8905246127279, 9351.858121378198, 0.058, 0.982, -0.258, 192.0, 0.5, 104.0, 15.0, 88.0, 123.5, 120.0, 0.0, 0.0, 0.0, 1.695758228861533E9, 0.0, 2023-09-26 14:57:08.861
20.0, -155139.18908109536, -134597.08656037887, -25609.019471290052, -26916.954149836798, -24058.90364157005, -19904.697824084502, -187500.02235174447, -28716.850723844855, -14560.529835287314, -9087.325225749639, -912.4876156434556, -39453.73469039616, -29930.50574427912, -33487.227080729856, -1033.0529252353817, 9382.94939791553, 0.058, 0.982, -0.258, 192.0, 0.0, 0.0, 0.0, 0.0, 0.0, 0.0, 0.0, 0.0, 0.0, 1.695758228861542E9, 0.0, 2023-09-26 14:57:08.861
22.0, -155205.10437549406, -134659.22440996463, -25599.363517685357, -26895.764696093167, -24046.207850719435, -19892.627882078636, -187500.02235174447, -28700.06456375892, -14542.469625767426, -9076.663443644458, -975.3183693073237, -39529.99884247766, -29916.558255739004, -33463.06484497367, -1082.9420188596273, 9352.349859756216, 0.058, 0.982, -0.258, 192.0, 0.0, 0.0, 0.0, 0.0, 0.0, 0.0, 0.0, 0.0, 0.0, 1.695758228861551E9, 0.0, 2023-09-26 14:57:08.861
24.0, -155143.23474684177, -134599.7240662246, -25608.30421546748, -26901.956129307287, -24044.91144954103, -19889.58804483271, -187500.02235174447, -28704.423153927703, -14539.54154724378, -9001.203954363342, -929.2290722404805, -39470.00676035962, -29915.619482471884, -33468.80924329868, -1047.5815591313315, 9385.296331083338, 0.058, 0.982, -0.258, 192.0, 0.0, 0.0, 0.0, 0.0, 0.0, 0.0, 0.0, 0.0, 0.0, 1.69575822886156E9, 0.0, 2023-09-26 14:57:08.861
26.0, -155223.25399199178, -134683.9007358433, -25597.061288006462, -26883.381829664926, -24037.401263404045, -19883.709536040966, -187500.02235174447, -28691.81677005491, -14531.629029706603, -9008.334160844584, -984.0579013893488, -39536.97258674772, -29902.946043365726, -33447.95506572188, -1092.016827108482, 9356.797856902822, 0.058, 0.982, -0.258, 192.0, 0.0, 0.0, 0.0, 0.0, 0.0, 0.0, 0.0, 0.0, 0.0, 1.695758228861569E9, 0.0, 2023-09-26 14:57:08.861
28.0, -155119.92187737487, -134580.83684215986, -25613.19924750319, -26903.0513647856, -24047.99599027586, -19904.966045017965, -187500.02235174447, -28712.782706353988, -14537.999276876364, -8943.357639713007, -933.8335315982738, -39470.699664437736, -29916.245331316633, -33470.798548555205, -1048.3638701872671, 9394.102918398728, 0.062, 0.982, -0.256, 192.0, 0.5, 120.0, 15.0, 88.0, 124.0, 0.0, 0.0, 0.0, 0.0, 1.695758228861578E9, 0.0, 2023-09-26 14:57:08.861
30.0, -155202.95860802635, -134670.60144789238, -25606.717241611153, -26895.205902481786, -24041.536336128276, -19902.08266998323, -187500.02235174447, -28710.055793530442, -14539.16156758804, -8973.06310809411, -953.5477702078546, -39506.10482765494, -29922.12384010838, -33465.88116477503, -1067.1616872741804, 9360.552949971312, 0.062, 0.982, -0.256, 192.0, 0.0, 0.0, 0.0, 0.0, 0.0, 0.0, 0.0, 0.0, 0.0, 1.695758228920848E9, 0.0, 2023-09-26 14:57:08.920
32.0, -155116.63617093995, -134579.18281307016, -25600.63756711931, -26894.37888793694, -24041.17870821699, -19903.13320197263, -187500.02235174447, -28707.28417721798, -14535.674695453012, -8929.924241295366, -938.1027147892374, -39480.19915583124, -29915.127744093865, -33463.936563007424, -1053.5271231564432, 9382.43530779306, 0.062, 0.982, -0.256, 192.0, 0.0, 0.0, 0.0, 0.0, 0.0, 0.0, 0.0, 0.0, 0.0, 1.695758228920873E9, 0.0, 2023-09-26 14:57:08.920
34.0, -155204.4785266493, -134673.8424508384, -25595.809590316963, -26884.56647212106, -24037.71418782642, -19887.37522213164, -187500.02235174447, -28696.287118945973, -14530.891422139577, -8948.185616515353, -939.5332264343771, -39492.850243192945, -29914.993633627135, -33451.24077215681, -1059.5397424149207, 9366.118534340685, 0.062, 0.982, -0.256, 192.0, 0.0, 0.0, 0.0, 0.0, 0.0, 0.0, 0.0, 0.0, 0.0, 1.695758228920912E9, 0.0, 2023-09-26 14:57:08.920
36.0, -155104.67798765635, -134567.42579548666, -25607.790125345007, -26901.62085314046, -24039.94936227195, -19910.241056709416, -187500.02235174447, -28712.26861623152, -14532.545451229269, -8916.490842877727, -940.2261305124916, -39484.937725655764, -29917.944063895236, -33468.49631887631, -1059.3832802037336, 9384.178743860573, 0.062, 0.982, -0.256, 192.0, 0.0, 0.0, 0.0, 0.0, 0.0, 0.0, 0.0, 0.0, 0.0, 1.695758228920921E9, 0.0, 2023-09-26 14:57:08.920
38.0, -155184.31725315063, -134659.51498264255, -25602.98450028712, -26892.903672802888, -24039.636437849575, -19900.428640893537, -187500.02235174447, -28703.842008571864, -14536.144082086574, -8937.05444777661, -920.4448366695449, -39472.10782433842, -29909.517456235586, -33464.18243219643, -1046.8439515643063, 9370.454772765013, 0.066, 0.98, -0.252, 192.0, 1.0, 8.0, 15.0, 80.0, 124.0, 16.0, 0.0, 0.0, 0.0, 1.695758228920931E9, 0.0, 2023-09-26 14:57:08.920
40.0, -155099.3135689871, -134565.32473150786, -25602.06807876445, -26893.12719024744, -24034.294370924756, -19905.167210718064, -187500.02235174447, -28709.54170340797, -14535.138253586085, -8910.567630597072, -943.601243925243, -39484.37893204438, -29920.58156974096, -33467.646952587005, -1057.9974720475045, 9376.646205979134, 0.066, 0.98, -0.252, 192.0, 0.0, 0.0, 0.0, 0.0, 0.0, 0.0, 0.0, 0.0, 0.0, 1.69575822892094E9, 0.0, 2023-09-26 14:57:08.920
42.0, -155167.2852238757, -134642.32649115642, -25604.146790998795, -26894.691812359313, -24043.927972784993, -19897.098230969696, -187500.02235174447, -28706.34540395086, -14532.478395995904, -8916.401435899907, -904.8880225286512, -39447.74442288213, -29917.54173249504, -33463.15425195149, -1030.951861256583, 9376.020357134385, 0.066, 0.98, -0.252, 192.0, 0.0, 0.0, 0.0, 0.0, 0.0, 0.0, 0.0, 0.0, 0.0, 1.695758228920949E9, 0.0, 2023-09-26 14:57:08.920
44.0, -155107.98604583574, -134573.23724904505, -25597.21775021765, -26889.50620764568, -24036.149565714546, -19904.85428629569, -187500.02235174447, -28705.04900277245, -14526.39872150406, -8907.483089862239, -953.5924736967652, -39493.476092037694, -29912.40083127032, -33460.38263563903, -1068.0334053079373, 9372.354671043715, 0.066, 0.98, -0.252, 192.0, 0.0, 0.0, 0.0, 0.0, 0.0, 0.0, 0.0, 0.0, 0.0, 1.695758228920958E9, 0.0, 2023-09-26 14:57:08.920
46.0, -155170.50387507724, -134646.81919179193, -25595.250796705583, -26890.109704745973, -24038.429443648987, -19888.246940165394, -187500.02235174447, -28695.124828234297, -14537.842814665177, -8901.246953159209, -901.1552812046149, -39437.59673089942, -29915.753592938614, -33470.46327238838, -1033.8128845468623, 9379.753098458421, 0.066, 0.98, -0.252, 192.0, 0.0, 0.0, 0.0, 0.0, 0.0, 0.0, 0.0, 0.0, 0.0, 1.695758228980699E9, 0.0, 2023-09-26 14:57:08.980
48.0, -155120.21245005282, -134585.19543232865, -25592.412125159757, -26888.99211752321, -24023.76669928631, -19901.188600205016, -187500.02235174447, -28698.142313735763, -14520.497860967858, -8881.80093548309, -973.1278983507036, -39512.2292056357, -29904.175389310767, -33449.34087387811, -1088.6417136957305, 9369.38188903116, 0.066, 0.974, -0.252, 192.0, 1.0, 8.0, 15.0, 56.0, 124.0, 16.0, 0.0, 0.0, 0.0, 1.695758228980719E9, 0.0, 2023-09-26 14:57:08.980
50.0, -155169.0733634321, -134646.39450864727, -25589.21582570265, -26885.41583841036, -24026.739481298864, -19886.525855842337, -187500.02235174447, -28687.34642116385, -14526.82340464871, -8853.011888624655, -902.8093102943076, -39436.47914367666, -29907.572854467973, -33456.0463972147, -1035.8468932922951, 9386.726842728478, 0.066, 0.974, -0.252, 192.0, 0.0, 0.0, 0.0, 0.0, 0.0, 0.0, 0.0, 0.0, 0.0, 1.695758228980729E9, 0.0, 2023-09-26 14:57:08.980
52.0, -155125.4651099998, -134591.92330740968, -25593.417953660246, -26892.07665825804, -24032.1709552015, -19901.03213799383, -187500.02235174447, -28699.997508525554, -14519.089701067174, -8848.206263566764, -975.6089419852427, -39512.92210971381, -29895.52526420656, -33457.14163269301, -1089.3569695183003, 9369.359537286704, 0.066, 0.974, -0.252, 192.0, 0.0, 0.0, 0.0, 0.0, 0.0, 0.0, 0.0, 0.0, 0.0, 1.695758228980738E9, 0.0, 2023-09-26 14:57:08.980
54.0, -155137.17742409438, -134613.60449953133, -25605.376136943836, -26902.447867685303, -24043.212716962425, -19900.473344382448, -187500.02235174447, -28704.221988227608, -14532.92543088501, -8836.963336105746, -891.6557898111093, -39419.26830044607, -29914.43484001575, -33467.73635956483, -1028.7390385555075, 9395.086395154762, 0.066, 0.974, -0.252, 192.0, 0.0, 0.0, 0.0, 0.0, 0.0, 0.0, 0.0, 0.0, 0.0, 1.695758228980778E9, 0.0, 2023-09-26 14:57:08.980
56.0, -155144.44174104236, -134610.34114484087, -25587.427686146224, -26880.945489519298, -24027.83471677717, -19890.5938733332, -187500.02235174447, -28690.20744445413, -14527.739826171379, -8864.27716783013, -975.0948518627706, -39507.311821855525, -29911.797334170027, -33459.51091760527, -1092.1062340863032, 9359.23419704845, 0.066, 0.974, -0.252, 192.0, 0.0, 0.0, 0.0, 0.0, 0.0, 0.0, 0.0, 0.0, 0.0, 1.695758228980787E9, 0.0, 2023-09-26 14:57:08.980
58.0, -155107.58371443555, -134587.18473758516, -25607.745421856096, -26906.582940409535, -24042.542164628765, -19907.335329930225, -187500.02235174447, -28708.424116185204, -14532.388989018082, -8830.190757535787, -893.5780398342657, -39416.49668413361, -29916.1112208499, -33464.6965223189, -1033.0529252353817, 9393.588828276257, 0.066, 0.972, -0.258, 192.0, 1.0, 8.0, 15.0, 48.0, 123.5, 120.0, 0.0, 0.0, 0.0, 1.695758228980796E9, 0.0, 2023-09-26 14:57:08.980
60.0, -155131.25421181374, -134601.04281914746, -25594.11085773836, -26891.94254779131, -24032.103899968137, -19902.775574061343, -187500.02235174447, -28700.601005625846, -14536.233489064394, -8858.041031127099, -959.8286103997959, -39492.492615281655, -29917.96641563969, -33462.30488566219, -1077.398786234711, 9360.597653460223, 0.066, 0.972, -0.258, 192.0, 0.0, 0.0, 0.0, 0.0, 0.0, 0.0, 0.0, 0.0, 0.0, 1.695758229042435E9, 0.0, 2023-09-26 14:57:09.042
62.0, -155097.03369105264, -134578.0652258474, -25601.330471197423, -26903.47604793025, -24038.98823726037, -19899.26635018186, -187500.02235174447, -28705.227816728097, -14538.289849554283, -8813.561059661039, -886.894868242129, -39402.9515269937, -29916.759421439103, -33472.20670845589, -1024.335744897812, 9390.504287541424, 0.066, 0.972, -0.258, 192.0, 0.0, 0.0, 0.0, 0.0, 0.0, 0.0, 0.0, 0.0, 0.0, 1.69575822904246E9, 0.0, 2023-09-26 14:57:09.042
64.0, -155173.56606406762, -134652.87651453933, -25570.596822571377, -26871.289535914606, -24014.71424278191, -19876.758143515366, -187500.02235174447, -28677.332839647872, -14517.547430699758, -8836.203376794265, -980.14634610967, -39510.01638293462, -29893.96064209469, -33443.55177206419, -1100.465786512588, 9349.332374254749, 0.066, 0.972, -0.258, 192.0, 0.0, 0.0, 0.0, 0.0, 0.0, 0.0, 0.0, 0.0, 0.0, 1.695758229042473E9, 0.0, 2023-09-26 14:57:09.042
66.0, -155132.79648218115, -134617.4713513221, -25579.78338954251, -26884.27589944314, -24020.32453064019, -19884.178922674528, -187500.02235174447, -28686.005316496532, -14513.233544019884, -8788.348291915452, -927.1280082616817, -39444.63753040285, -29893.11127580539, -33450.927847734434, -1063.2501319945018, 9388.939665429552, 0.066, 0.972, -0.258, 192.0, 0.0, 0.0, 0.0, 0.0, 0.0, 0.0, 0.0, 0.0, 0.0, 1.695758229042488E9, 0.0, 2023-09-26 14:57:09.042
68.0, -155183.1326106945, -134660.72197684314, -25580.230424431615, -26879.716143574256, -24026.80653653223, -19890.571521588747, -187500.02235174447, -28690.341554920862, -14522.040131335276, -8832.470635470228, -991.1881078705917, -39522.48865634068, -29900.889682875837, -33448.37974886653, -1107.8418621828393, 9357.267243536382, 0.06, 0.97, -0.26, 192.0, 0.5, 112.0, 15.0, 40.0, 123.5, 112.0, 0.0, 0.0, 0.0, 1.695758229042504E9, 0.0, 2023-09-26 14:57:09.042
70.0, -155110.82471738156, -134590.58220274237, -25587.7406105686, -26893.03778326962, -24026.13598419857, -19903.78140256183, -187500.02235174447, -28699.505770147538, -14531.561974473236, -8798.384225175885, -927.4856361729666, -39442.69292863523, -29911.506761492106, -33459.95795249438, -1057.5057336694877, 9397.545087044846, 0.06, 0.97, -0.26, 192.0, 0.0, 0.0, 0.0, 0.0, 0.0, 0.0, 0.0, 0.0, 0.0, 1.695758229042526E9, 0.0, 2023-09-26 14:57:09.042
72.0, -155188.04999447466, -134669.2379914806, -25579.49281686459, -26880.878434285933, -24017.776431772287, -19888.917492499055, -187500.02235174447, -28688.754581064535, -14538.647477465569, -8846.865158899445, -975.2960175628684, -39503.06499040902, -29911.909092892303, -33448.60326631108, -1094.0508358539148, 9363.011641861396, 0.06, 0.97, -0.26, 192.0, 0.0, 0.0, 0.0, 0.0, 0.0, 0.0, 0.0, 0.0, 0.0, 1.69575822904254E9, 0.0, 2023-09-26 14:57:09.042
74.0, -155107.04727256863, -134587.1176823518, -25593.77558157153, -26896.681117615834, -24027.499440610343, -19901.32271067175, -187500.02235174447, -28702.25503471554, -14545.755332202356, -8823.84286211048, -929.2737757293911, -39440.6589198898, -29914.412488271297, -33458.19216468241, -1057.3939749472113, 9395.041691665852, 0.06, 0.97, -0.26, 192.0, 0.0, 0.0, 0.0, 0.0, 0.0, 0.0, 0.0, 0.0, 0.0, 1.695758229042555E9, 0.0, 2023-09-26 14:57:09.042
76.0, -155183.08790720557, -134665.9299333012, -25587.762962313052, -26887.0475157556, -24029.354635400134, -19899.60162634869, -187500.02235174447, -28696.175360223697, -14542.380218789605, -8865.752382964181, -968.2999215483572, -39492.40320830384, -29907.841075401437, -33452.60422856858, -1090.2286875520572, 9360.843522649231, 0.06, 0.97, -0.26, 192.0, 0.0, 0.0, 0.0, 0.0, 0.0, 0.0, 0.0, 0.0, 0.0, 1.695758229101202E9, 0.0, 2023-09-26 14:57:09.101
78.0, -155088.2494554817, -134572.00790310002, -25598.670613607243, -26904.437172941827, -24034.04850173575, -19908.832896808733, -187500.02235174447, -28708.8264475854, -14557.221777107929, -8839.198510551276, -924.8034268383298, -39432.94756805272, -29928.717604722693, -33475.29124919072, -1047.7827248314293, 9390.124307885684, 0.054, 0.976, -0.256, 192.0, 0.5, 88.0, 15.0, 64.0, 124.0, 0.0, 0.0, 0.0, 0.0, 1.695758229101225E9, 0.0, 2023-09-26 14:57:09.101
80.0, -155194.48729687778, -134686.62764866682, -25576.87766276332, -26879.760847063168, -24014.33426312617, -19886.95053898699, -187500.02235174447, -28685.468874629605, -14539.943878643977, -8867.629929498426, -966.176505825103, -39485.54122275606, -29897.96160435219, -33441.651873785486, -1086.9653328615825, 9356.909615625098, 0.054, 0.976, -0.256, 192.0, 0.0, 0.0, 0.0, 0.0, 0.0, 0.0, 0.0, 0.0, 0.0, 1.695758229101235E9, 0.0, 2023-09-26 14:57:09.101
82.0, -155060.13096095694, -134548.7173853776, -25609.35474745688, -26915.18836202483, -24047.258382708835, -19926.580181906247, -187500.02235174447, -28721.25401750255, -14560.64159400959, -8840.69607742978, -944.2047410255362, -39452.035957817556, -29923.48729652015, -33468.0492839872, -1062.6019314052978, 9385.43044155007, 0.054, 0.976, -0.256, 192.0, 0.0, 0.0, 0.0, 0.0, 0.0, 0.0, 0.0, 0.0, 0.0, 1.695758229101244E9, 0.0, 2023-09-26 14:57:09.101
84.0, -155162.30078486213, -134659.24676170907, -25593.462657149157, -26891.09318150201, -24030.583981345175, -19890.102134955185, -187500.02235174447, -28694.096647989354, -14565.938957445498, -8878.448173814795, -916.2427087119471, -39426.82319007197, -29927.845886688938, -33469.01040899878, -1037.8138468043621, 9370.767697187388, 0.054, 0.976, -0.256, 192.0, 0.0, 0.0, 0.0, 0.0, 0.0, 0.0, 0.0, 0.0, 0.0, 1.695758229101253E9, 0.0, 2023-09-26 14:57:09.101
86.0, -155089.7023188713, -134577.32761828037, -25591.562758870456, -26893.641280369913, -24024.32549289769, -19902.015614749864, -187500.02235174447, -28697.695278846655, -14546.06825662473, -8850.41908626784, -959.5603894663323, -39461.244876533136, -29910.523284736075, -33458.46038561587, -1075.4988879560099, 9374.723955955978, 0.054, 0.976, -0.256, 192.0, 0.0, 0.0, 0.0, 0.0, 0.0, 0.0, 0.0, 0.0, 0.0, 1.695758229101262E9, 0.0, 2023-09-26 14:57:09.101
88.0, -155151.54959577916, -134648.11559297034, -25601.330471197423, -26901.933777562834, -24024.101975453137, -19902.730870572435, -187500.02235174447, -28698.790514324966, -14551.700896227467, -8873.307272590075, -933.341793220257, -39440.23423674515, -29909.450401002217, -33456.96281873737, -1057.5727889028537, 9371.259435565406, 0.058, 0.978, -0.254, 192.0, 0.5, 104.0, 15.0, 72.0, 124.0, 8.0, 0.0, 0.0, 0.0, 1.695758229101271E9, 0.0, 2023-09-26 14:57:09.101
90.0, -155096.0055108077, -134583.27318230548, -25590.132247225316, -26890.400277423894, -24015.854181749128, -19895.17598094654, -187500.02235174447, -28689.82746479839, -14552.237338094395, -8865.79708645309, -956.9005318761507, -39461.69191142225, -29910.97031962518, -33456.113452448066, -1071.788498376429, 9375.372156545181, 0.058, 0.978, -0.254, 192.0, 0.0, 0.0, 0.0, 0.0, 0.0, 0.0, 0.0, 0.0, 0.0, 1.69575822916161E9, 0.0, 2023-09-26 14:57:09.161
92.0, -155172.3814216115, -134673.3283607159, -25589.908729780764, -26889.7967803236, -24024.14667894205, -19893.812524534766, -187500.02235174447, -28688.911043275722, -14548.482245025903, -8863.383098051918, -933.0735722867934, -39443.698757135724, -29905.00240385561, -33451.10666169008, -1061.6408063937195, 9374.120458855685, 0.058, 0.978, -0.254, 192.0, 0.0, 0.0, 0.0, 0.0, 0.0, 0.0, 0.0, 0.0, 0.0, 1.695758229161638E9, 0.0, 2023-09-26 14:57:09.161
94.0, -155098.79947886462, -134590.15751959773, -25597.530674640024, -26897.28461471613, -24033.087376724172, -19912.252713710393, -187500.02235174447, -28702.14327599326, -14555.947727673976, -8865.126534119432, -989.1764508696141, -39500.315725841014, -29901.560235209494, -33465.07650197465, -1101.6727807131745, 9363.905711639609, 0.058, 0.978, -0.254, 192.0, 0.0, 0.0, 0.0, 0.0, 0.0, 0.0, 0.0, 0.0, 0.0, 1.695758229161647E9, 0.0, 2023-09-26 14:57:09.161
96.0, -155128.63905771245, -134633.3857933743, -25602.224540975636, -26902.090239774017, -24035.635475592077, -19903.78140256183, -187500.02235174447, -28699.215197469617, -14559.680468998013, -8866.154714364377, -909.0901504862488, -39415.42380039976, -29916.98293888366, -33469.01040899878, -1038.3502886712895, 9387.777374717876, 0.058, 0.978, -0.254, 192.0, 0.0, 0.0, 0.0, 0.0, 0.0, 0.0, 0.0, 0.0, 0.0, 1.695758229161656E9, 0.0, 2023-09-26 14:57:09.161
98.0, -155080.0016617777, -134571.58321995536, -25599.564683385455, -26899.497437417205, -24028.549972599743, -19912.319768943762, -187500.02235174447, -28701.740944593068, -14556.26065209635, -8882.985577939222, -973.9996163844605, -39477.539298241056, -29913.518418493084, -33456.15815593698, -1083.724329915563, 9369.158371586605, 0.056, 0.978, -0.252, 192.0, 0.5, 96.0, 15.0, 72.0, 124.0, 16.0, 0.0, 0.0, 0.0, 1.695758229161701E9, 0.0, 2023-09-26 14:57:09.161
100.0, -155120.36891226398, -134622.6346042913, -25596.92717753973, -26894.535350148126, -24025.733652798375, -19891.04090822231, -187500.02235174447, -28692.44261889966, -14566.385992334604, -8876.145944135898, -894.6285718236652, -39390.32279137645, -29920.313348807496, -33459.399158882996, -1025.4756838650328, 9390.057252652317, 0.056, 0.978, -0.252, 192.0, 0.0, 0.0, 0.0, 0.0, 0.0, 0.0, 0.0, 0.0, 0.0, 1.69575822916171E9, 0.0, 2023-09-26 14:57:09.161
102.0, -155118.87134538547, -134609.96116518512, -25579.425761631224, -26876.586899350514, -24016.725899782887, -19896.31591991376, -187500.02235174447, -28684.30658391793, -14544.883614168599, -8889.66874953136, -994.6526282611643, -39498.68404849578, -29899.86150263089, -33444.46819358685, -1105.2267080815684, 9358.56364471479, 0.056, 0.978, -0.252, 192.0, 0.0, 0.0, 0.0, 0.0, 0.0, 0.0, 0.0, 0.0, 0.0, 1.695758229161719E9, 0.0, 2023-09-26 14:57:09.161
104.0, -155102.64397891093, -134605.24494710506, -25598.737668840608, -26899.74330660621, -24036.820118048206, -19908.430565408536, -187500.02235174447, -28701.11509574832, -14558.898157942076, -8864.970071908245, -912.3535051767237, -39406.46075087318, -29915.93240689426, -33460.650856572494, -1039.5125793829657, 9394.594656776746, 0.056, 0.978, -0.252, 192.0, 0.0, 0.0, 0.0, 0.0, 0.0, 0.0, 0.0, 0.0, 0.0, 1.695758229161728E9, 0.0, 2023-09-26 14:57:09.161
106.0, -155118.3125517741, -134611.74930474153, -25582.331488410415, -26883.672402342847, -24017.821135261194, -19903.736699072924, -187500.02235174447, -28688.307546175427, -14553.489035783892, -8896.374272867952, -982.8285554443069, -39484.33422855547, -29907.617557956884, -33450.9949029678, -1088.7311206735517, 9365.224464562472, 0.056, 0.978, -0.252, 192.0, 0.0, 0.0, 0.0, 0.0, 0.0, 0.0, 0.0, 0.0, 0.0, 1.69575822922098E9, 0.0, 2023-09-26 14:57:09.220
108.0, -155095.49142068523, -134596.6618772342, -25596.323680439436, -26901.509094418183, -24027.968827243905, -19908.028234008343, -187500.02235174447, -28697.941148035665, -14559.434599809003, -8869.060441143565, -904.7539120619193, -39391.976820466145, -29914.50189524912, -33459.30975190517, -1032.9858700020159, 9395.131098643673, 0.056, 0.98, -0.256, 192.0, 0.5, 96.0, 15.0, 80.0, 124.0, 0.0, 0.0, 0.0, 0.0, 1.695758229220998E9, 0.0, 2023-09-26 14:57:09.220
110.0, -155106.2202580238, -134599.70171448015, -25591.83097980392, -26898.156332749884, -24026.068928965204, -19915.426661423047, -187500.02235174447, -28698.164665480217, -14568.040021424296, -8908.488918362727, -976.1453838521701, -39474.588867972954, -29911.484409747653, -33455.28643790322, -1084.2160682935796, 9357.200188303017, 0.056, 0.98, -0.256, 192.0, 0.0, 0.0, 0.0, 0.0, 0.0, 0.0, 0.0, 0.0, 0.0, 1.695758229221007E9, 0.0, 2023-09-26 14:57:09.221
112.0, -155053.69365855382, -134555.40055696972, -25601.55398864198, -26910.785068367135, -24040.3740454166, -19914.13026024464, -187500.02235174447, -28704.87018881681, -14581.115791930652, -8879.47635405974, -887.051330453316, -39366.00409340907, -29927.22003784419, -33471.44674914441, -1007.4825295785106, 9398.349749845238, 0.056, 0.98, -0.256, 192.0, 0.0, 0.0, 0.0, 0.0, 0.0, 0.0, 0.0, 0.0, 0.0, 1.695758229221016E9, 0.0, 2023-09-26 14:57:09.221
114.0, -155093.0997840285, -134589.82224343088, -25589.282880936014, -26894.669460614856, -24031.61216159012, -19910.889257298622, -187500.02235174447, -28696.465932901614, -14573.449143582482, -8920.357694668495, -955.6711859311088, -39446.51507693709, -29922.459116275208, -33461.38846413952, -1058.3998034477, 9355.836731891242, 0.056, 0.98, -0.256, 192.0, 0.0, 0.0, 0.0, 0.0, 0.0, 0.0, 0.0, 0.0, 0.0, 1.695758229221025E9, 0.0, 2023-09-26 14:57:09.221
116.0, -155016.9920941582, -134517.17907395115, -25599.050593262982, -26907.588768910024, -24043.86091755163, -19921.32752195925, -187500.02235174447, -28709.698165619156, -14576.578387806225, -8880.012795926667, -880.2340483944474, -39353.46476476965, -29922.68263371976, -33468.51867062076, -997.4018928291671, 9397.321569600294, 0.056, 0.98, -0.256, 192.0, 0.0, 0.0, 0.0, 0.0, 0.0, 0.0, 0.0, 0.0, 0.0, 1.695758229221034E9, 0.0, 2023-09-26 14:57:09.221
118.0, -155122.08999658705, -134615.5714530434, -25573.659011561755, -26874.46348362726, -24022.917332997007, -19888.828085521232, -187500.02235174447, -28677.53400534797, -14571.92922495952, -8928.761950583692, -943.5565404363324, -39427.11376274988, -29907.662261445796, -33448.625618055536, -1048.274463209446, 9355.61321444669, 0.056, 0.978, -0.256, 192.0, 0.5, 96.0, 15.0, 72.0, 124.0, 0.0, 0.0, 0.0, 0.0, 1.695758229221043E9, 0.0, 2023-09-26 14:57:09.221
120.0, -155064.8024755481, -134564.07303381836, -25574.262508662046, -26878.55385286258, -24014.781298015274, -19892.046736722798, -187500.02235174447, -28682.20551993913, -14560.708649242957, -8878.917560448357, -921.5400721478549, -39394.211994911675, -29904.756534666605, -33440.53428656272, -1041.3901259172114, 9383.172915360085, 0.056, 0.978, -0.256, 192.0, 0.0, 0.0, 0.0, 0.0, 0.0, 0.0, 0.0, 0.0, 0.0, 1.695758229280854E9, 0.0, 2023-09-26 14:57:09.280
122.0, -155114.73627266125, -134614.81149373192, -25584.45490413367, -26890.154408234885, -24016.301216638236, -19906.26244619637, -187500.02235174447, -28689.82746479839, -14566.877730712622, -8927.107921493998, -962.0861365897819, -39449.13023103836, -29907.93048237926, -33436.62273128304, -1072.6378646657306, 9357.088429580741, 0.056, 0.978, -0.256, 192.0, 0.0, 0.0, 0.0, 0.0, 0.0, 0.0, 0.0, 0.0, 0.0, 1.695758229280895E9, 0.0, 2023-09-26 14:57:09.280
124.0, -155041.1543299144, -134537.83208582786, -25591.40629665927, -26905.37594620895, -24026.448908620943, -19915.113737000673, -187500.02235174447, -28701.49507540406, -14582.523951831336, -8904.532659594139, -905.9385545180505, -39374.16248013526, -29921.408584285808, -33465.72470256385, -1021.5417768408987, 9384.04463339384, 0.056, 0.978, -0.256, 192.0, 0.0, 0.0, 0.0, 0.0, 0.0, 0.0, 0.0, 0.0, 0.0, 1.695758229280906E9, 0.0, 2023-09-26 14:57:09.280
126.0, -155119.22897329676, -134619.035973434, -25586.06422973445, -26896.636414126926, -24020.637455062566, -19909.145821231108, -187500.02235174447, -28693.73902007807, -14573.940881960498, -8946.464532192294, -943.9588718365279, -39424.52096039307, -29906.365860267386, -33454.16885068046, -1054.6894138681191, 9348.70652541, 0.056, 0.978, -0.256, 192.0, 0.0, 0.0, 0.0, 0.0, 0.0, 0.0, 0.0, 0.0, 0.0, 1.695758229280921E9, 0.0, 2023-09-26 14:57:09.280
128.0, -155041.0425711921, -134535.3063387044, -25583.784351800008, -26895.85410307099, -24016.3682718716, -19906.553018874292, -187500.02235174447, -28693.381392166782, -14580.288777385806, -8929.521909895171, -917.8296825682739, -39381.71736976116, -29921.654453474817, -33463.42247288495, -1026.436808876611, 9379.596636247235, 0.054, 0.98, -0.256, 192.0, 0.5, 88.0, 15.0, 80.0, 124.0, 0.0, 0.0, 0.0, 0.0, 1.695758229280934E9, 0.0, 2023-09-26 14:57:09.280
130.0, -155157.4728080598, -134656.92218028574, -25565.120645179828, -26872.876509770933, -23998.308062351713, -19883.687184296512, -187500.02235174447, -28668.213327910107, -14574.477323827425, -8961.77547714418, -949.8373806282736, -39424.0068702706, -29902.878988132357, -33435.46044057136, -1058.8468383368063, 9352.461618478492, 0.054, 0.98, -0.256, 192.0, 0.0, 0.0, 0.0, 0.0, 0.0, 0.0, 0.0, 0.0, 0.0, 1.695758229280944E9, 0.0, 2023-09-26 14:57:09.280
132.0, -155061.36030690197, -134552.1595540237, -25583.91846226674, -26898.26809147216, -24013.127268925582, -19915.024330022854, -187500.02235174447, -28697.024726513, -14570.40930633656, -8935.892157064935, -972.6138082282315, -39435.04863203152, -29905.538845722538, -33437.516801061254, -1077.398786234711, 9370.298310553826, 0.054, 0.98, -0.256, 192.0, 0.0, 0.0, 0.0, 0.0, 0.0, 0.0, 0.0, 0.0, 0.0, 1.695758229280953E9, 0.0, 2023-09-26 14:57:09.280
134.0, -155126.33682803356, -134628.7366305276, -25585.34897391188, -26896.010565282177, -24012.300254380734, -19904.697824084502, -187500.02235174447, -28690.63212759878, -14589.944730990497, -8974.739488928257, -936.6722031440978, -39401.43160837074, -29915.9100551498, -33457.81218502667, -1044.273500951946, 9363.413973261593, 0.054, 0.98, -0.256, 192.0, 0.0, 0.0, 0.0, 0.0, 0.0, 0.0, 0.0, 0.0, 0.0, 1.695758229280962E9, 0.0, 2023-09-26 14:57:09.280
136.0, -155038.33801011302, -134534.009937526, -25596.569549628442, -26911.45562070079, -24026.359501643125, -19925.149670261108, -187500.02235174447, -28705.786610339477, -14588.961254234464, -8972.101983082532, -956.341738264768, -39411.62400384236, -29924.73899420965, -33469.63625784353, -1051.5378178999208, 9369.203075075517, 0.054, 0.98, -0.256, 192.0, 0.0, 0.0, 0.0, 0.0, 0.0, 0.0, 0.0, 0.0, 0.0, 1.695758229341003E9, 0.0, 2023-09-26 14:57:09.341
138.0, -155126.69445594485, -134631.3741363733, -25580.878625020818, -26890.847312313, -24016.435327104966, -19894.192504190505, -187500.02235174447, -28683.501921117535, -14588.938902490008, -8992.285608325674, -930.7042873745307, -39389.0487419425, -29913.272549304074, -33456.42637687044, -1036.7856665594181, 9361.581130216256, 0.052000000000000005, 0.98, -0.252, 192.0, 0.5, 80.0, 15.0, 80.0, 124.0, 16.0, 0.0, 0.0, 0.0, 1.695758229341018E9, 0.0, 2023-09-26 14:57:09.341
140.0, -155070.16689421737, -134563.33542625135, -25580.20807268716, -26890.310870446072, -24011.026204946782, -19907.245922952407, -187500.02235174447, -28691.05681074343, -14578.858265740666, -8984.01546287721, -985.8907444346839, -39442.26824549058, -29903.750706166116, -33444.781118009225, -1076.728233901052, 9358.585996459246, 0.052000000000000005, 0.98, -0.252, 192.0, 0.0, 0.0, 0.0, 0.0, 0.0, 0.0, 0.0, 0.0, 0.0, 1.695758229341031E9, 0.0, 2023-09-26 14:57:09.341
142.0, -155122.89465938744, -134627.55198807144, -25583.940814011195, -26895.876454815443, -24018.715205039407, -19905.36837641816, -187500.02235174447, -28690.63212759878, -14585.809658266266, -8992.576181003593, -933.2523862424358, -39388.60170705339, -29917.698194706227, -33453.92298149144, -1038.596157860298, 9366.051479107318, 0.052000000000000005, 0.98, -0.252, 192.0, 0.0, 0.0, 0.0, 0.0, 0.0, 0.0, 0.0, 0.0, 0.0, 1.695758229341072E9, 0.0, 2023-09-26 14:57:09.341
144.0, -155058.34282140053, -134549.63380690024, -25589.21582570265, -26905.04067004212, -24022.582056830175, -19921.551039403803, -187500.02235174447, -28703.43967717167, -14593.945693247999, -9004.042625909166, -983.0744246333152, -39439.921312322775, -29924.001386642623, -33454.995865225304, -1071.0955942983144, 9358.116609825684, 0.052000000000000005, 0.98, -0.252, 192.0, 0.0, 0.0, 0.0, 0.0, 0.0, 0.0, 0.0, 0.0, 0.0, 1.69575822934108E9, 0.0, 2023-09-26 14:57:09.341
146.0, -155095.6031794075, -134601.40044705875, -25585.706601823164, -26902.80549559659, -24026.918295254505, -19912.02919626584, -187500.02235174447, -28698.49994164705, -14594.660949070569, -9007.350684088551, -912.8005400658299, -39367.83693645441, -29924.001386642623, -33462.52840310674, -1020.1783204291249, 9372.958168144009, 0.052000000000000005, 0.98, -0.252, 192.0, 0.0, 0.0, 0.0, 0.0, 0.0, 0.0, 0.0, 0.0, 0.0, 1.695758229341089E9, 0.0, 2023-09-26 14:57:09.341
148.0, -155081.76744958968, -134576.14297582424, -25575.693020307186, -26888.343916934005, -24016.860010249617, -19909.79402182031, -187500.02235174447, -28691.48149388808, -14586.368451877648, -9016.559602804136, -988.2823810914018, -39449.68902464974, -29906.72348817867, -33451.88897274601, -1077.1976205346132, 9351.500493466914, 0.058, 0.978, -0.252, 192.0, 0.5, 104.0, 15.0, 72.0, 124.0, 16.0, 0.0, 0.0, 0.0, 1.695758229341098E9, 0.0, 2023-09-26 14:57:09.341
150.0, -155090.5069816717, -134600.8193017029, -25585.125456467325, -26903.163123507875, -24021.37506262959, -19907.044757252308, -187500.02235174447, -28693.448447400147, -14584.759126276867, -8999.281704340185, -922.5011971594331, -39376.308247602974, -29904.734182922148, -33457.67807455994, -1030.5048263674769, 9375.081583867262, 0.058, 0.978, -0.252, 192.0, 0.0, 0.0, 0.0, 0.0, 0.0, 0.0, 0.0, 0.0, 0.0, 1.695758229401409E9, 0.0, 2023-09-26 14:57:09.401
152.0, -155075.91129254238, -134578.62401945877, -25587.651203590776, -26900.41385893987, -24016.658844549518, -19917.281856212838, -187500.02235174447, -28700.35513643684, -14589.520047845846, -9036.765579791734, -999.8158812303402, -39458.89794336533, -29918.63696797335, -33454.32531289164, -1084.7748619049623, 9345.599632930713, 0.058, 0.978, -0.252, 192.0, 0.0, 0.0, 0.0, 0.0, 0.0, 0.0, 0.0, 0.0, 0.0, 1.695758229401432E9, 0.0, 2023-09-26 14:57:09.401
154.0, -155082.52740890117, -134595.45488303364, -25588.411162902255, -26905.152428764395, -24030.4722226229, -19910.08459449823, -187500.02235174447, -28700.377488181293, -14603.914571275065, -9022.371056362517, -914.5439761333438, -39366.07114864244, -29923.219075586687, -33466.86464153107, -1019.6195268177423, 9374.09810711123, 0.058, 0.978, -0.252, 192.0, 0.0, 0.0, 0.0, 0.0, 0.0, 0.0, 0.0, 0.0, 0.0, 1.695758229401443E9, 0.0, 2023-09-26 14:57:09.401
156.0, -155113.30576101612, -134616.28670886598, -25574.128398195317, -26888.47802740074, -24018.98342597287, -19912.587989877225, -187500.02235174447, -28690.29685143195, -14582.591007064702, -9047.31560317464, -1013.0257622034267, -39480.71324595371, -29909.897435891326, -33448.26799014425, -1101.203394079613, 9333.08265603574, 0.058, 0.978, -0.252, 192.0, 0.0, 0.0, 0.0, 0.0, 0.0, 0.0, 0.0, 0.0, 0.0, 1.695758229401452E9, 0.0, 2023-09-26 14:57:09.401
158.0, -155085.76841184718, -134596.14778711175, -25576.564738340945, -26892.546044891602, -24021.576228329686, -19907.916475286063, -187500.02235174447, -28692.91200553322, -14584.245036154394, -9008.8258992226, -941.3884212241676, -39391.44037859922, -29908.623386457373, -33453.18537392442, -1049.526160898943, 9374.52279025588, 0.062, 0.984, -0.254, 192.0, 0.5, 120.0, 15.0, 96.0, 124.0, 8.0, 0.0, 0.0, 0.0, 1.695758229401461E9, 0.0, 2023-09-26 14:57:09.401
160.0, -155117.15026106243, -134618.9689182006, -25572.049685960974, -26887.85217855599, -24021.37506262959, -19908.94465553101, -187500.02235174447, -28695.460104401125, -14592.157553691573, -9056.144542234486, -1004.2191748880357, -39467.77158591409, -29912.19966557022, -33449.07265294465, -1094.6990364431188, 9347.655993420602, 0.062, 0.984, -0.254, 192.0, 0.0, 0.0, 0.0, 0.0, 0.0, 0.0, 0.0, 0.0, 0.0, 1.695758229401471E9, 0.0, 2023-09-26 14:57:09.401
162.0, -155058.78985628963, -134560.22853377205, -25582.242081432592, -26901.151466506897, -24026.6724260655, -19910.41987066506, -187500.02235174447, -28702.16562773772, -14595.778536293334, -9023.935678474389, -923.4176186821006, -39372.21787836765, -29920.939197652246, -33455.88993500351, -1030.169550200647, 9387.062118895306, 0.062, 0.984, -0.254, 192.0, 0.0, 0.0, 0.0, 0.0, 0.0, 0.0, 0.0, 0.0, 0.0, 1.695758229401509E9, 0.0, 2023-09-26 14:57:09.401
164.0, -155137.110368861, -134631.5753020734, -25569.30042139297, -26883.001850009186, -24024.169030686502, -19903.98256826193, -187500.02235174447, -28690.408610154227, -14587.620149567147, -9065.889902817, -1000.7323027530078, -39462.317760267, -29909.673918446773, -33444.915228475955, -1090.9662951190824, 9344.035010818841, 0.062, 0.984, -0.254, 192.0, 0.0, 0.0, 0.0, 0.0, 0.0, 0.0, 0.0, 0.0, 0.0, 1.695758229401519E9, 0.0, 2023-09-26 14:57:09.401
166.0, -155085.58959789152, -134581.30622879343, -25578.4869883641, -26892.61310012497, -24029.95813250043, -19906.374204918648, -187500.02235174447, -28696.935319535176, -14599.824202039743, -9021.901669728955, -954.2853777748797, -39400.17991068124, -29916.848828416925, -33460.2485251723, -1055.8740563242504, 9370.879455909664, 0.062, 0.984, -0.254, 192.0, 0.0, 0.0, 0.0, 0.0, 0.0, 0.0, 0.0, 0.0, 0.0, 1.695758229461695E9, 0.0, 2023-09-26 14:57:09.461
168.0, -155201.97513127033, -134695.2554220266, -25548.759168238543, -26860.292477642593, -24001.906693209017, -19881.78728601781, -187500.02235174447, -28668.638011054758, -14568.397649335582, -9048.813170053145, -1042.1277334842364, -39503.824949720496, -29887.59039492493, -33421.155324119965, -1131.1994351386352, 9332.61326940218, 0.06, 0.98, -0.252, 192.0, 0.5, 112.0, 15.0, 80.0, 124.0, 16.0, 0.0, 0.0, 0.0, 1.695758229461726E9, 0.0, 2023-09-26 14:57:09.461
170.0, -155111.09293831504, -134603.6132697598, -25570.283898149002, -26883.448884898295, -24013.149620670036, -19901.769745560854, -187500.02235174447, -28691.05681074343, -14583.954463476475, -9007.328332344096, -993.3338753383011, -39443.27407399107, -29901.53788346504, -33443.440013341904, -1087.591181706331, 9381.451831037026, 0.06, 0.98, -0.252, 192.0, 0.0, 0.0, 0.0, 0.0, 0.0, 0.0, 0.0, 0.0, 0.0, 1.695758229461737E9, 0.0, 2023-09-26 14:57:09.461
172.0, -155176.27062514672, -134671.89784907078, -25574.329563895415, -26886.019335510653, -24024.3701963866, -19908.408213664083, -187500.02235174447, -28694.9236625342, -14591.576408335735, -9058.960862035854, -1017.3843523722115, -39478.321609296996, -29915.641834216338, -33443.70823427537, -1101.6727807131745, 9358.27307203687, 0.06, 0.98, -0.252, 192.0, 0.0, 0.0, 0.0, 0.0, 0.0, 0.0, 0.0, 0.0, 0.0, 1.695758229461746E9, 0.0, 2023-09-26 14:57:09.461
174.0, -155094.5079439292, -134583.04966486094, -25577.458808119158, -26895.921158304354, -24020.61510331811, -19912.319768943762, -187500.02235174447, -28702.76912483801, -14606.686187587524, -9038.687829814891, -979.2969798203684, -39422.39754466982, -29929.365805311896, -33460.76261529477, -1066.178210518147, 9382.971749659986, 0.06, 0.98, -0.252, 192.0, 0.0, 0.0, 0.0, 0.0, 0.0, 0.0, 0.0, 0.0, 0.0, 1.695758229461755E9, 0.0, 2023-09-26 14:57:09.461
176.0, -155188.98876774177, -134679.45273869668, -25572.519072594532, -26886.287556444116, -24030.89690576755, -19903.624940350644, -187500.02235174447, -28692.68848808867, -14594.348024648194, -9080.820868113145, -1008.6671720346418, -39462.9659608562, -29918.81578192899, -33447.642141299504, -1093.9614288760936, 9351.768714400378, 0.06, 0.98, -0.252, 192.0, 0.0, 0.0, 0.0, 0.0, 0.0, 0.0, 0.0, 0.0, 0.0, 1.695758229461764E9, 0.0, 2023-09-26 14:57:09.461
178.0, -155073.83258030805, -134557.30045524842, -25582.934985510707, -26900.61502463997, -24035.121385469603, -19924.009731293885, -187500.02235174447, -28708.848799329855, -14603.355777663683, -9054.825789311622, -992.8644887047398, -39434.556893653506, -29921.721508708182, -33459.55562109419, -1074.8730391112613, 9374.746307700432, 0.058, 0.98, -0.258, 192.0, 0.5, 104.0, 15.0, 80.0, 123.5, 120.0, 0.0, 0.0, 0.0, 1.695758229461773E9, 0.0, 2023-09-26 14:57:09.461
180.0, -155149.5602905226, -134640.27013066653, -25585.594843100887, -26900.32445196205, -24041.893964039562, -19915.426661423047, -187500.02235174447, -28705.943072550665, -14612.74351033491, -9096.80236539869, -967.2270378145025, -39412.02633524255, -29928.427032044776, -33465.59059209712, -1048.855608565284, 9362.631662205657, 0.058, 0.98, -0.258, 192.0, 0.0, 0.0, 0.0, 0.0, 0.0, 0.0, 0.0, 0.0, 0.0, 1.695758229521319E9, 0.0, 2023-09-26 14:57:09.521
182.0, -155072.4914756407, -134557.0545860594, -25576.900014507773, -26896.27878621564, -24030.785147045273, -19918.13122250214, -187500.02235174447, -28706.166589995217, -14608.407271910582, -9085.470030959848, -987.567125268832, -39419.08948649043, -29934.126726880877, -33463.98126649633, -1059.5844459038312, 9369.180723331061, 0.058, 0.98, -0.258, 192.0, 0.0, 0.0, 0.0, 0.0, 0.0, 0.0, 0.0, 0.0, 0.0, 1.695758229521358E9, 0.0, 2023-09-26 14:57:09.521
184.0, -155170.5262268217, -134669.01447403606, -25566.618212058333, -26883.739457576212, -24018.692853294953, -19903.066146739264, -187500.02235174447, -28689.179264209186, -14599.824202039743, -9104.960752124876, -970.8703721607176, -39412.40631489829, -29914.88187490486, -33447.03864419921, -1052.5436464004097, 9362.162275572095, 0.058, 0.98, -0.258, 192.0, 0.0, 0.0, 0.0, 0.0, 0.0, 0.0, 0.0, 0.0, 0.0, 1.695758229521405E9, 0.0, 2023-09-26 14:57:09.521
186.0, -155088.38356594843, -134578.24403980304, -25578.643450575288, -26899.8997688174, -24030.025187733794, -19932.637504653634, -187500.02235174447, -28715.15199126625, -14604.205143952984, -9097.159993309975, -1013.2045761590691, -39452.88532410686, -29927.421203544287, -33458.706254804885, -1084.8419171383282, 9358.340127270238, 0.058, 0.98, -0.258, 192.0, 0.0, 0.0, 0.0, 0.0, 0.0, 0.0, 0.0, 0.0, 0.0, 1.695758229521415E9, 0.0, 2023-09-26 14:57:09.521
188.0, -155158.83626447158, -134661.77250883254, -25572.697886550177, -26891.584919880024, -24022.872629508096, -19907.13416423013, -187500.02235174447, -28697.24824395755, -14612.587048123723, -9113.23089757334, -950.150305050648, -39392.06622744396, -29932.383290813363, -33469.748016565805, -1035.82454154784, 9367.481990752458, 0.056, 0.978, -0.264, 192.0, 0.5, 96.0, 15.0, 72.0, 123.5, 96.0, 0.0, 0.0, 0.0, 1.695758229521424E9, 0.0, 2023-09-26 14:57:09.521
190.0, -155125.77803442217, -134616.39846758824, -25564.003057957063, -26883.56064362057, -24016.010643960315, -19913.90674280009, -187500.02235174447, -28695.370697423306, -14590.83880076871, -9110.056949860687, -1029.1637217001585, -39474.119481339396, -29912.669052203782, -33441.7412807633, -1098.9235161451718, 9350.025278332863, 0.056, 0.978, -0.264, 192.0, 0.0, 0.0, 0.0, 0.0, 0.0, 0.0, 0.0, 0.0, 0.0, 1.695758229521433E9, 0.0, 2023-09-26 14:57:09.521
192.0, -155154.5223777917, -134657.34686343037, -25575.82713077392, -26894.781219337136, -24036.261324436826, -19913.124431744152, -187500.02235174447, -28700.936281792678, -14607.535553876825, -9110.61574347207, -968.1434593371702, -39411.1546172088, -29927.152982610824, -33456.69459780391, -1053.1918469896134, 9368.934854142053, 0.056, 0.978, -0.264, 192.0, 0.0, 0.0, 0.0, 0.0, 0.0, 0.0, 0.0, 0.0, 0.0, 1.695758229521442E9, 0.0, 2023-09-26 14:57:09.521
194.0, -155104.74504288973, -134596.52776676748, -25570.172139426726, -26889.46150415677, -24030.874554023096, -19918.667664369066, -187500.02235174447, -28698.589348624868, -14616.386844681127, -9126.127854124052, -1013.048113947882, -39460.44021373275, -29926.84005818845, -33456.71694954836, -1077.8011176349066, 9360.016508104385, 0.056, 0.978, -0.264, 192.0, 0.0, 0.0, 0.0, 0.0, 0.0, 0.0, 0.0, 0.0, 0.0, 1.695758229521451E9, 0.0, 2023-09-26 14:57:09.521
196.0, -155121.71001693132, -134628.3790026163, -25577.659973819256, -26894.870626314954, -24039.681141338486, -19911.35864393218, -187500.02235174447, -28701.11509574832, -14627.003923297398, -9118.058874375687, -921.6965343590421, -39357.62218923833, -29944.07325316349, -33470.88795553303, -1004.2638783769463, 9386.726842728478, 0.056, 0.978, -0.264, 192.0, 0.0, 0.0, 0.0, 0.0, 0.0, 0.0, 0.0, 0.0, 0.0, 1.695758229581739E9, 0.0, 2023-09-26 14:57:09.581
198.0, -155111.24940052623, -134607.2119006171, -25569.188662670695, -26887.293384944605, -24032.439176134965, -19918.04181552432, -187500.02235174447, -28699.237549214075, -14609.681321344535, -9142.511682809793, -1013.4280936036222, -39455.14285029684, -29923.666110475795, -33451.66545530146, -1072.7272716435518, 9355.076772579763, 0.064, 0.978, -0.266, 192.0, 1.0, 0.0, 15.0, 72.0, 123.5, 88.0, 0.0, 0.0, 0.0, 1.695758229581764E9, 0.0, 2023-09-26 14:57:09.581
200.0, -155115.42917673936, -134620.01945019, -25577.279994163513, -26899.050402528097, -24026.42655687649, -19913.638521866622, -187500.02235174447, -28703.171456238208, -14623.070016273263, -9131.38051407105, -934.0794007872821, -39365.86998294234, -29944.408529330318, -33469.79272005471, -1012.0199337029379, 9377.741441457443, 0.064, 0.978, -0.266, 192.0, 0.0, 0.0, 0.0, 0.0, 0.0, 0.0, 0.0, 0.0, 0.0, 1.695758229581774E9, 0.0, 2023-09-26 14:57:09.581
202.0, -155127.61087746752, -134619.1253804118, -25561.097331177873, -26884.208844209774, -24015.787126515763, -19913.571466633257, -187500.02235174447, -28691.794418310456, -14612.005902767885, -9153.799313759722, -1015.3950471156893, -39461.110766066406, -29923.643758731338, -33446.882181988025, -1072.0567193098927, 9344.32558349676, 0.064, 0.978, -0.266, 192.0, 0.0, 0.0, 0.0, 0.0, 0.0, 0.0, 0.0, 0.0, 0.0, 1.695758229581783E9, 0.0, 2023-09-26 14:57:09.581
204.0, -155094.4185369514, -134595.767807456, -25582.309136665957, -26909.734536377735, -24039.859955294127, -19925.239077238926, -187500.02235174447, -28710.21225574163, -14623.31588546227, -9132.09576989362, -936.7392583774637, -39366.36172132036, -29932.606808257915, -33468.16104270948, -1006.5437563113876, 9378.501400768924, 0.064, 0.978, -0.266, 192.0, 0.0, 0.0, 0.0, 0.0, 0.0, 0.0, 0.0, 0.0, 0.0, 1.695758229581792E9, 0.0, 2023-09-26 14:57:09.581
206.0, -155122.15705182042, -134616.39846758824, -25570.73093303811, -26892.27782395814, -24031.81332729022, -19919.8523068252, -187500.02235174447, -28699.05873525843, -14628.32267622026, -9181.135497228563, -1002.4757388205218, -39437.820248343975, -29936.004273415125, -33460.85202227259, -1051.6495766221974, 9345.823150375265, 0.064, 0.978, -0.266, 192.0, 0.0, 0.0, 0.0, 0.0, 0.0, 0.0, 0.0, 0.0, 0.0, 1.695758229581837E9, 0.0, 2023-09-26 14:57:09.581
208.0, -155091.64692063892, -134591.18569984267, -25573.882529006307, -26901.822018840554, -24036.171917459003, -19917.93005680204, -187500.02235174447, -28702.38914518227, -14621.952429050498, -9148.323136368172, -935.889892088162, -39351.72132870214, -29929.63402624536, -33463.48952811832, -1001.8051864868626, 9382.345900815237, 0.064, 0.98, -0.264, 192.0, 1.0, 0.0, 15.0, 80.0, 123.5, 96.0, 0.0, 0.0, 0.0, 1.695758229581846E9, 0.0, 2023-09-26 14:57:09.581
210.0, -155145.0675898871, -134637.47616260962, -25568.607517314857, -26888.70154484529, -24031.23218193438, -19915.583123634235, -187500.02235174447, -28693.604909611335, -14624.36641745167, -9190.880857811077, -1006.0743696778262, -39434.199265742216, -29934.707872236715, -33460.60615308359, -1051.984852789027, 9347.141903298128, 0.064, 0.98, -0.264, 192.0, 0.0, 0.0, 0.0, 0.0, 0.0, 0.0, 0.0, 0.0, 0.0, 1.695758229641894E9, 0.0, 2023-09-26 14:57:09.641
212.0, -155096.43019395234, -134590.93983065366, -25570.976802227116, -26894.870626314954, -24024.79487953125, -19915.828992823244, -187500.02235174447, -28696.980023024087, -14621.997132539409, -9156.839151005644, -950.7538021509412, -39363.21012535216, -29930.371633812385, -33454.370016380555, -1010.209442402058, 9382.100031626229, 0.064, 0.98, -0.264, 192.0, 0.0, 0.0, 0.0, 0.0, 0.0, 0.0, 0.0, 0.0, 0.0, 1.695758229641921E9, 0.0, 2023-09-26 14:57:09.641
214.0, -155142.98887765277, -134635.06217420843, -25571.759113283053, -26895.764696093167, -24038.116519226616, -19923.160365004584, -187500.02235174447, -28704.64667137226, -14624.902859318598, -9198.793375348256, -1010.4106081021557, -39433.52871340856, -29928.516439022595, -33455.64406581451, -1053.0577365228817, 9348.505359709903, 0.064, 0.98, -0.264, 192.0, 0.0, 0.0, 0.0, 0.0, 0.0, 0.0, 0.0, 0.0, 0.0, 1.695758229641934E9, 0.0, 2023-09-26 14:57:09.641
216.0, -155062.41083889137, -134556.09346104783, -25581.97386049913, -26913.064946301576, -24046.923106542006, -19938.918344845577, -187500.02235174447, -28720.784630868988, -14628.233269242439, -9159.655470807013, -947.5798544382876, -39354.917628159244, -29945.34730259744, -33469.83742354363, -1002.8333667318067, 9383.485839782457, 0.064, 0.98, -0.264, 192.0, 0.0, 0.0, 0.0, 0.0, 0.0, 0.0, 0.0, 0.0, 0.0, 1.695758229641943E9, 0.0, 2023-09-26 14:57:09.641
218.0, -155139.05497062864, -134635.35274688635, -25573.457845861656, -26903.721917119256, -24041.871612295105, -19925.7531673614, -187500.02235174447, -28706.457162673138, -14642.56073743829, -9221.793320392766, -979.6546077316533, -39401.29749790401, -29945.34730259744, -33481.214461471376, -1025.8109600318624, 9345.890205608632, 0.064, 0.978, -0.266, 192.0, 1.0, 0.0, 15.0, 72.0, 123.5, 88.0, 0.0, 0.0, 0.0, 1.695758229641952E9, 0.0, 2023-09-26 14:57:09.641
220.0, -155064.57895810355, -134558.2168767711, -25574.307212150958, -26905.04067004212, -24032.305065668235, -19924.076786527254, -187500.02235174447, -28705.6748516172, -14633.70944663399, -9180.934331528466, -950.1950085395586, -39358.04687238298, -29938.91000019431, -33470.57503111065, -1001.5146138089435, 9376.154467601118, 0.064, 0.978, -0.266, 192.0, 0.0, 0.0, 0.0, 0.0, 0.0, 0.0, 0.0, 0.0, 0.0, 1.695758229641962E9, 0.0, 2023-09-26 14:57:09.641
222.0, -155166.25704363073, -134665.70641585666, -25563.332505623403, -26890.355573934983, -24022.85027776364, -19905.636597351622, -187500.02235174447, -28688.86633978681, -14631.071940788263, -9221.122768059107, -985.5107647789437, -39406.46075087318, -29933.79145071405, -33450.23494365632, -1034.4163816471555, 9345.80079863081, 0.064, 0.978, -0.266, 192.0, 0.0, 0.0, 0.0, 0.0, 0.0, 0.0, 0.0, 0.0, 0.0, 1.695758229641971E9, 0.0, 2023-09-26 14:57:09.641
224.0, -155065.87535928196, -134561.63669367274, -25571.24502316058, -26904.90655957539, -24033.892039524562, -19927.18367900654, -187500.02235174447, -28710.7263458641, -14628.948525065009, -9181.314311184206, -970.8033169273516, -39383.52786106204, -29929.365805311896, -33449.65379830048, -1019.1948436730914, 9373.919293155586, 0.064, 0.978, -0.266, 192.0, 0.0, 0.0, 0.0, 0.0, 0.0, 0.0, 0.0, 0.0, 0.0, 1.69575822964198E9, 0.0, 2023-09-26 14:57:09.641
226.0, -155157.9645464378, -134660.34199718738, -25566.841729502885, -26894.758867592678, -24036.03780699227, -19920.0534725253, -187500.02235174447, -28705.160761494728, -14640.727894392956, -9227.582422206691, -967.6517209591534, -39392.08857918842, -29941.34634033994, -33458.12510944904, -1019.6195268177423, 9352.148694056117, 0.064, 0.978, -0.266, 192.0, 0.0, 0.0, 0.0, 0.0, 0.0, 0.0, 0.0, 0.0, 0.0, 1.695758229701283E9, 0.0, 2023-09-26 14:57:09.701
228.0, -155071.8432750515, -134566.62113268627, -25574.59778482888, -26908.080507288043, -24043.592696618165, -19942.18169953605, -187500.02235174447, -28719.041194801473, -14632.7036181335, -9208.96341907542, -983.6779217336085, -39397.11772169086, -29938.284151349566, -33464.920039763456, -1030.0577914783707, 9361.536426727347, 0.058, 0.98, -0.26, 192.0, 0.5, 104.0, 15.0, 80.0, 123.5, 112.0, 0.0, 0.0, 0.0, 1.695758229701343E9, 0.0, 2023-09-26 14:57:09.701
230.0, -155149.7614562227, -134654.48584014009, -25576.162406940748, -26905.912388075878, -24045.157318730035, -19931.072882541765, -187500.02235174447, -28710.703994119645, -14652.261394531894, -9249.844759684178, -959.1580580661366, -39377.82816622593, -29943.067424663, -33477.77229282526, -1014.5903843152981, 9346.918385853576, 0.058, 0.98, -0.26, 192.0, 0.0, 0.0, 0.0, 0.0, 0.0, 0.0, 0.0, 0.0, 0.0, 1.695758229701354E9, 0.0, 2023-09-26 14:57:09.701
232.0, -155087.53419965913, -134581.2168218156, -25556.96225845364, -26892.166065235862, -24024.928989997985, -19924.166193505072, -187500.02235174447, -28699.282252702982, -14630.13316752114, -9226.487186728382, -1000.53113705291, -39416.49668413361, -29932.383290813363, -33456.69459780391, -1049.3473469433006, 9348.952394599008, 0.058, 0.98, -0.26, 192.0, 0.0, 0.0, 0.0, 0.0, 0.0, 0.0, 0.0, 0.0, 0.0, 1.695758229701363E9, 0.0, 2023-09-26 14:57:09.701
234.0, -155137.5574037501, -134642.50530511205, -25570.39565687128, -26901.62085314046, -24043.547993129254, -19927.742472617923, -187500.02235174447, -28707.30652896244, -14648.260432274394, -9243.429809025503, -949.56915969481, -39367.38990156531, -29946.286075864566, -33469.54685086571, -1006.72257026703, 9358.049554592319, 0.058, 0.98, -0.26, 192.0, 0.0, 0.0, 0.0, 0.0, 0.0, 0.0, 0.0, 0.0, 0.0, 1.695758229701372E9, 0.0, 2023-09-26 14:57:09.701
236.0, -155062.47789412475, -134556.7640133815, -25567.48993009209, -26901.75496360719, -24043.391530918067, -19941.712312902488, -187500.02235174447, -28709.519351663515, -14649.33331600825, -9234.042076354275, -992.7080264935526, -39406.572509595455, -29944.02854967458, -33465.21061244138, -1035.8692450367505, 9352.528673711859, 0.058, 0.98, -0.26, 192.0, 0.0, 0.0, 0.0, 0.0, 0.0, 0.0, 0.0, 0.0, 0.0, 1.695758229701381E9, 0.0, 2023-09-26 14:57:09.701
238.0, -155106.35436849052, -134615.90672921023, -25568.607517314857, -26901.889074073923, -24045.00085651885, -19926.960161561987, -187500.02235174447, -28705.63014812829, -14658.050496345819, -9227.940050117975, -923.2164529820029, -39332.14120055929, -29948.811822988013, -33473.70427533439, -979.0734623758152, 9367.191418074539, 0.056, 0.98, -0.262, 192.0, 0.5, 96.0, 15.0, 80.0, 123.5, 104.0, 0.0, 0.0, 0.0, 1.69575822970139E9, 0.0, 2023-09-26 14:57:09.701
240.0, -155054.18539693183, -134552.24896100152, -25566.305287635958, -26901.17381825135, -24042.408054162035, -19938.873641356666, -187500.02235174447, -28712.02274704251, -14643.343048494227, -9232.455102497948, -987.1200903797258, -39394.56962282296, -29936.63012225987, -33457.81218502667, -1024.6486693201864, 9353.981537101452, 0.056, 0.98, -0.262, 192.0, 0.0, 0.0, 0.0, 0.0, 0.0, 0.0, 0.0, 0.0, 0.0, 1.695758229761026E9, 0.0, 2023-09-26 14:57:09.761
242.0, -155107.98604583574, -134620.80176124594, -25560.918517222228, -26895.205902481786, -24030.38281564508, -19917.99711203541, -187500.02235174447, -28699.036383513976, -14654.742438166433, -9236.344306033172, -917.0473715123381, -39316.45027595166, -29952.16458465631, -33471.692618333414, -969.7527849379522, 9369.672461709079, 0.056, 0.98, -0.262, 192.0, 0.0, 0.0, 0.0, 0.0, 0.0, 0.0, 0.0, 0.0, 0.0, 1.695758229761052E9, 0.0, 2023-09-26 14:57:09.761
244.0, -155073.8549320525, -134574.37718801227, -25559.86798523283, -26896.122324004453, -24038.51885062681, -19936.213783766485, -187500.02235174447, -28707.775915596, -14640.124397292662, -9244.167416592529, -1001.3805033422117, -39407.95831775168, -29930.25987509011, -33456.85106001509, -1036.852721792784, 9345.599632930713, 0.056, 0.98, -0.262, 192.0, 0.0, 0.0, 0.0, 0.0, 0.0, 0.0, 0.0, 0.0, 0.0, 1.695758229761062E9, 0.0, 2023-09-26 14:57:09.761
246.0, -155115.80915639512, -134626.1885316597, -25557.185775898193, -26894.088315259018, -24035.70253082544, -19917.885353313133, -187500.02235174447, -28698.63405211378, -14651.90376662061, -9233.438579253982, -929.5419966628548, -39326.57561618991, -29948.16362239881, -33465.3000194192, -984.7731572119186, 9367.102011096718, 0.056, 0.98, -0.262, 192.0, 0.0, 0.0, 0.0, 0.0, 0.0, 0.0, 0.0, 0.0, 0.0, 1.695758229761071E9, 0.0, 2023-09-26 14:57:09.761
248.0, -155113.70809241632, -134615.14676989874, -25548.893278705273, -26885.348783176993, -24024.526658597788, -19924.702635372, -187500.02235174447, -28695.929491034687, -14637.7551123804, -9255.320937075727, -1020.2230239180356, -39430.622986629365, -29931.600979757426, -33448.08917618861, -1056.7904778469178, 9339.452903205503, 0.06, 0.97, -0.258, 192.0, 0.5, 112.0, 15.0, 40.0, 123.5, 120.0, 0.0, 0.0, 0.0, 1.695758229761112E9, 0.0, 2023-09-26 14:57:09.761
250.0, -155080.0016617777, -134595.7231039671, -25566.39469461378, -26906.76175436518, -24040.061120994225, -19936.28083899985, -187500.02235174447, -28713.565017409925, -14652.440208487536, -9240.59113747968, -928.893796073651, -39329.50369471356, -29945.97315144219, -33466.730531064335, -983.6555699891533, 9375.57332224528, 0.06, 0.97, -0.258, 192.0, 0.0, 0.0, 0.0, 0.0, 0.0, 0.0, 0.0, 0.0, 0.0, 1.695758229761122E9, 0.0, 2023-09-26 14:57:09.761
252.0, -155099.00064456472, -134609.40237157373, -25552.357799095847, -26888.61213786747, -24029.28758016677, -19927.742472617923, -187500.02235174447, -28700.73511609258, -14644.773560139367, -9280.086669932207, -1003.2804016209128, -39412.49572187611, -29936.093680392943, -33454.88410650303, -1033.7011258245857, 9344.102066052206, 0.06, 0.97, -0.258, 192.0, 0.0, 0.0, 0.0, 0.0, 0.0, 0.0, 0.0, 0.0, 0.0, 1.695758229761131E9, 0.0, 2023-09-26 14:57:09.761
254.0, -155072.96086227428, -134594.3596475553, -25561.76788351153, -26901.84437058501, -24044.95615302994, -19930.827013352755, -187500.02235174447, -28705.473685917103, -14648.819225885776, -9250.112980617641, -927.9550228065281, -39320.40653472025, -29937.188915871255, -33468.80924329868, -974.9383896515834, 9379.037842635851, 0.06, 0.97, -0.258, 192.0, 0.0, 0.0, 0.0, 0.0, 0.0, 0.0, 0.0, 0.0, 0.0, 1.69575822976114E9, 0.0, 2023-09-26 14:57:09.761
0.0, -155110.42238598136, -134627.79785726045, -25551.77665374001, -26889.126227989942, -24042.81038556223, -19927.831879595742, -187500.02235174447, -28698.25407245804, -14653.155464310106, -9294.101213705684, -1005.5826312998095, -39408.09242821842, -29940.631084517372, -33453.78887102471, -1035.399858403189, 9340.883414850643, 0.06, 0.97, -0.258, 192.0, 0.0, 0.0, 0.0, 0.0, 0.0, 0.0, 0.0, 0.0, 0.0, 1.695758229821313E9, 0.0, 2023-09-26 14:57:09.821
2.0, -155046.67521079484, -134573.75133916753, -25567.78050277001, -26908.99692881071, -24054.94738280146, -19941.153519291107, -187500.02235174447, -28713.743831365566, -14658.721048679477, -9257.422001054527, -927.5079879174219, -39314.39391546177, -29939.49114555015, -33468.74218806531, -972.4126425281338, 9380.066022880796, 0.062, 0.974, -0.258, 192.0, 0.5, 120.0, 15.0, 56.0, 123.5, 120.0, 0.0, 0.0, 0.0, 1.69575822982136E9, 0.0, 2023-09-26 14:57:09.821
4.0, -155107.04727256863, -134631.35178462885, -25560.605592799857, -26898.603367638992, -24042.206888461937, -19928.61419065168, -187500.02235174447, -28700.601005625846, -14660.352726024716, -9309.859193546676, -981.7333199659968, -39378.69988425969, -29949.527078810584, -33464.51770836326, -1011.7293610250189, 9339.966993327975, 0.062, 0.974, -0.258, 192.0, 0.0, 0.0, 0.0, 0.0, 0.0, 0.0, 0.0, 0.0, 0.0, 1.695758229821371E9, 0.0, 2023-09-26 14:57:09.821
6.0, -155040.41672234735, -134566.75524315302, -25565.567680068933, -26908.19226601032, -24037.51302212632, -19931.005827308396, -187500.02235174447, -28707.28417721798, -14644.214766527983, -9266.653271514568, -927.3068222173241, -39307.040191535976, -29942.26276186261, -33467.82576654265, -972.5467529948656, 9371.393546032137, 0.062, 0.974, -0.258, 192.0, 0.0, 0.0, 0.0, 0.0, 0.0, 0.0, 0.0, 0.0, 0.0, 1.695758229821381E9, 0.0, 2023-09-26 14:57:09.821
8.0, -155114.13277556095, -134644.51696211303, -25560.62794454431, -26895.719992604256, -24033.087376724172, -19912.632693366133, -187500.02235174447, -28692.263804944017, -14636.682228646545, -9300.94084750901, -970.6021512272539, -39362.42781429623, -29944.140308396854, -33467.401083398, -1007.1472534116809, 9337.396542715614, 0.062, 0.974, -0.258, 192.0, 0.0, 0.0, 0.0, 0.0, 0.0, 0.0, 0.0, 0.0, 0.0, 1.69575822982139E9, 0.0, 2023-09-26 14:57:09.821
10.0, -155044.1941671603, -134572.54434496694, -25566.685267291698, -26898.536312405624, -24037.982408759883, -19907.31297818577, -187500.02235174447, -28692.24145319956, -14611.51416438987, -9226.39777975056, -937.5886246667653, -39316.338517229386, -29925.744822710138, -33451.55369657918, -983.3202938223236, 9366.09618259623, 0.062, 0.974, -0.258, 192.0, 0.0, 0.0, 0.0, 0.0, 0.0, 0.0, 0.0, 0.0, 0.0, 1.695758229821399E9, 0.0, 2023-09-26 14:57:09.821
12.0, -155127.5661739786, -134659.51498264255, -25569.501587093066, -26890.69085010181, -24041.066949494714, -19896.98647224742, -187500.02235174447, -28684.597156595846, -14609.100175988697, -9232.320992031217, -968.8810669041952, -39361.623151495834, -29918.30169180652, -33453.65476055798, -1006.3649423557451, 9340.32462123926, 0.058, 0.974, -0.258, 192.0, 0.5, 104.0, 15.0, 56.0, 123.5, 120.0, 0.0, 0.0, 0.0, 1.695758229821409E9, 0.0, 2023-09-26 14:57:09.821
14.0, -155009.81718418805, -134543.42002194168, -25592.5909391154, -26906.33707122053, -24052.33222870019, -19908.788193319822, -187500.02235174447, -28698.00820326903, -14607.89318178811, -9143.539863054737, -929.5196449183995, -39309.52123517051, -29930.68455823476, -33467.55754560918, -971.2727035609131, 9372.66759546609, 0.058, 0.974, -0.258, 192.0, 0.0, 0.0, 0.0, 0.0, 0.0, 0.0, 0.0, 0.0, 0.0, 1.695758229881617E9, 0.0, 2023-09-26 14:57:09.881
16.0, -155092.4515834393, -134630.21184566163, -25593.887340293808, -26896.79287633811, -24048.890060054073, -19895.265387924363, -187500.02235174447, -28687.257014186027, -14603.802812552789, -9120.450511032404, -925.3175169608018, -39313.11986602782, -29927.86823843339, -33464.16008045198, -970.1551163381478, 9354.607385946201, 0.058, 0.974, -0.258, 192.0, 0.0, 0.0, 0.0, 0.0, 0.0, 0.0, 0.0, 0.0, 0.0, 1.695758229881643E9, 0.0, 2023-09-26 14:57:09.881
18.0, -155007.35849229796, -134537.83208582786, -25598.983538029617, -26898.044574027608, -24039.703493082943, -19904.049623495295, -187500.02235174447, -28687.905214775234, -14581.07108844174, -9022.080483684598, -935.889892088162, -39314.21510150613, -29905.87412188937, -33454.638237314015, -979.7887181983851, 9366.230293062961, 0.058, 0.974, -0.258, 192.0, 0.0, 0.0, 0.0, 0.0, 0.0, 0.0, 0.0, 0.0, 0.0, 1.69575822988167E9, 0.0, 2023-09-26 14:57:09.881
20.0, -155066.03182149315, -134605.35670582732, -25612.26047423607, -26901.933777562834, -24056.690818868974, -19905.927170029543, -187500.02235174447, -28693.068467744408, -14593.610417081169, -9000.712215985324, -907.793749307841, -39294.14323498526, -29930.326930323474, -33469.92683052145, -954.374784752701, 9356.775505158366, 0.058, 0.974, -0.258, 192.0, 0.0, 0.0, 0.0, 0.0, 0.0, 0.0, 0.0, 0.0, 0.0, 1.69575822988168E9, 0.0, 2023-09-26 14:57:09.881
22.0, -155000.831782917, -134531.57359738037, -25600.43640141921, -26889.21563496776, -24046.274905952803, -19900.830972293734, -187500.02235174447, -28683.68073507318, -14577.248940139883, -8928.314915694586, -918.9025663021287, -39298.859453065335, -29918.368747039887, -33469.41274039898, -963.0472616013601, 9363.391621517138, 0.058, 0.978, -0.26, 192.0, 0.5, 104.0, 15.0, 72.0, 123.5, 112.0, 0.0, 0.0, 0.0, 1.695758229881689E9, 0.0, 2023-09-26 14:57:09.881
24.0, -155099.1571067759, -134641.34301440037, -25590.132247225316, -26874.70935281627, -24037.982408759883, -19885.36356513066, -187500.02235174447, -28668.593307565847, -14563.346155088682, -8906.700778806304, -909.2689644418913, -39297.808921075935, -29905.87412188937, -33459.98030423884, -968.6351977151869, 9350.449961477514, 0.058, 0.978, -0.26, 192.0, 0.0, 0.0, 0.0, 0.0, 0.0, 0.0, 0.0, 0.0, 0.0, 1.695758229881699E9, 0.0, 2023-09-26 14:57:09.881
26.0, -155018.4449575478, -134550.48317318954, -25592.143904226294, -26883.001850009186, -24039.055292493736, -19906.977702018943, -187500.02235174447, -28678.808054781923, -14549.935108415499, -8860.790295695102, -960.2756452889021, -39343.3394245314, -29899.168598552777, -33449.98907446731, -1006.9237359671279, 9355.792028402333, 0.058, 0.978, -0.26, 192.0, 0.0, 0.0, 0.0, 0.0, 0.0, 0.0, 0.0, 0.0, 0.0, 1.695758229881708E9, 0.0, 2023-09-26 14:57:09.881
28.0, -155076.26892045367, -134621.36055485733, -25595.78723857251, -26881.928966275333, -24041.2234117059, -19895.533608857826, -187500.02235174447, -28674.404761124228, -14564.419038822538, -8857.728106704726, -892.79572877833, -39272.707912052625, -29901.761400909592, -33463.75774905178, -950.1279533061926, 9368.75604018641, 0.058, 0.978, -0.26, 192.0, 0.0, 0.0, 0.0, 0.0, 0.0, 0.0, 0.0, 0.0, 0.0, 1.695758229881717E9, 0.0, 2023-09-26 14:57:09.881
30.0, -155022.82589946102, -134557.43456571514, -25589.416991402744, -26875.961050505764, -24039.211754704924, -19901.523876371848, -187500.02235174447, -28675.097665202342, -14554.248995095373, -8846.775751921625, -953.1007353187484, -39329.72721215811, -29907.192874812234, -33458.61684782706, -996.4184160731336, 9356.32847026926, 0.058, 0.978, -0.26, 192.0, 0.0, 0.0, 0.0, 0.0, 0.0, 0.0, 0.0, 0.0, 0.0, 1.695758229941812E9, 0.0, 2023-09-26 14:57:09.941
32.0, -155077.18534197635, -134621.94170021318, -25587.986479757605, -26875.402256894384, -24041.022246005803, -19891.957329744975, -187500.02235174447, -28669.73324653307, -14546.582346747202, -8841.903071630368, -896.6849323135534, -39273.400816130736, -29890.58552868194, -33453.76651928026, -961.8626191452288, 9368.510170997402, 0.06, 0.98, -0.26, 192.0, 0.5, 112.0, 15.0, 80.0, 123.5, 112.0, 0.0, 0.0, 0.0, 1.695758229941834E9, 0.0, 2023-09-26 14:57:09.941
34.0, -155027.02802741862, -134562.75428089552, -25595.943700783697, -26886.444018655304, -24046.99016177537, -19908.855248553187, -187500.02235174447, -28678.942165248653, -14549.577480504213, -8843.132417575409, -958.0628225878266, -39337.66208143975, -29907.326985278964, -33458.10275770459, -1006.5214045669323, 9351.880473122654, 0.06, 0.98, -0.26, 192.0, 0.0, 0.0, 0.0, 0.0, 0.0, 0.0, 0.0, 0.0, 0.0, 1.695758229941845E9, 0.0, 2023-09-26 14:57:09.941
36.0, -155056.64408882192, -134607.10014189486, -25593.10502923787, -26883.739457576212, -24041.156356472537, -19887.397573876093, -187500.02235174447, -28668.23567965456, -14552.93024217251, -8823.976972577211, -882.9833129624502, -39254.804164743924, -29906.947005623224, -33462.97543799585, -950.887912617673, 9372.578188488269, 0.06, 0.98, -0.26, 192.0, 0.0, 0.0, 0.0, 0.0, 0.0, 0.0, 0.0, 0.0, 0.0, 1.69575822994189E9, 0.0, 2023-09-26 14:57:09.941
38.0, -155032.48185306572, -134574.0642635899, -25588.031183246516, -26878.531501118126, -24040.597562861152, -19899.51221937087, -187500.02235174447, -28671.275516900485, -14540.815596677732, -8833.543519204082, -963.471944746011, -39343.3394245314, -29899.839150886437, -33445.60813255407, -1014.4115703596557, 9350.449961477514, 0.06, 0.98, -0.26, 192.0, 0.0, 0.0, 0.0, 0.0, 0.0, 0.0, 0.0, 0.0, 0.0, 1.695758229941899E9, 0.0, 2023-09-26 14:57:09.941
40.0, -155043.344800871, -134595.7231039671, -25590.534578625513, -26879.626736596434, -24043.369179173613, -19892.65023382309, -187500.02235174447, -28670.873185500288, -14547.677582225513, -8797.244286208665, -880.1446414166262, -39248.948007696636, -29905.40473525581, -33457.029873970736, -952.1172585627149, 9376.780316445866, 0.06, 0.98, -0.26, 192.0, 0.0, 0.0, 0.0, 0.0, 0.0, 0.0, 0.0, 0.0, 0.0, 1.695758229941908E9, 0.0, 2023-09-26 14:57:09.941
42.0, -155055.50414985468, -134598.7182377241, -25580.54334885399, -26867.489739357203, -24027.43238537698, -19891.398536133594, -187500.02235174447, -28665.39700810874, -14537.060503609242, -8808.17428924731, -965.662415702631, -39344.68052919871, -29887.858615858393, -33448.31269363316, -1015.6409163046976, 9343.967955585475, 0.064, 0.98, -0.256, 192.0, 1.0, 0.0, 15.0, 80.0, 124.0, 0.0, 0.0, 0.0, 0.0, 1.695758229941917E9, 0.0, 2023-09-26 14:57:09.941
44.0, -155049.33506838503, -134605.89314769427, -25588.142941968792, -26876.36338190596, -24026.98535048787, -19890.772687288845, -187500.02235174447, -28671.208461667116, -14534.847680908166, -8764.610739303916, -900.149452704126, -39265.30948463792, -29899.839150886437, -33453.20772566888, -971.2280000720025, 9378.747269957932, 0.064, 0.98, -0.256, 192.0, 0.0, 0.0, 0.0, 0.0, 0.0, 0.0, 0.0, 0.0, 0.0, 1.69575823000132E9, 0.0, 2023-09-26 14:57:10.001
46.0, -155052.17373993085, -134603.54621452646, -25586.53361636801, -26875.826940039035, -24036.08251048118, -19899.534571115324, -187500.02235174447, -28674.82944426888, -14543.386047290094, -8790.471707638706, -977.1512123526588, -39352.4365845247, -29898.475694474662, -33453.47594660234, -1026.4144571321556, 9347.320717253771, 0.064, 0.98, -0.256, 192.0, 0.0, 0.0, 0.0, 0.0, 0.0, 0.0, 0.0, 0.0, 0.0, 1.695758230001347E9, 0.0, 2023-09-26 14:57:10.001
48.0, -155002.1281840954, -134563.87186811827, -25592.702697837674, -26885.728762832736, -24041.04459775026, -19898.618149592658, -187500.02235174447, -28681.892595516754, -14545.934146157999, -8739.979116914168, -884.5926385632323, -39244.030623916464, -29898.766267152583, -33462.57310659565, -951.7372789069748, 9392.180668375573, 0.064, 0.98, -0.256, 192.0, 0.0, 0.0, 0.0, 0.0, 0.0, 0.0, 0.0, 0.0, 0.0, 1.695758230001357E9, 0.0, 2023-09-26 14:57:10.001
50.0, -155043.3000973821, -134601.08752263637, -25583.560834355456, -26873.41295163786, -24036.551897114743, -19892.13614370062, -187500.02235174447, -28673.175415179187, -14546.872919425121, -8769.282253895075, -950.6643951731199, -39320.8312178649, -29904.734182922148, -33452.268952401755, -1000.6205440307313, 9355.434400491047, 0.064, 0.98, -0.256, 192.0, 0.0, 0.0, 0.0, 0.0, 0.0, 0.0, 0.0, 0.0, 0.0, 1.695758230001366E9, 0.0, 2023-09-26 14:57:10.001
52.0, -154983.30801526405, -134546.99630105452, -25591.853331548373, -26883.828864554034, -24032.305065668235, -19897.61232109217, -187500.02235174447, -28678.53983384846, -14542.760198445345, -8707.636142687339, -894.4274061235674, -39244.589417527844, -29899.190950297234, -33455.46525185886, -956.8558283872401, 9395.086395154762, 0.058, 0.976, -0.26, 192.0, 0.5, 104.0, 15.0, 64.0, 123.5, 112.0, 0.0, 0.0, 0.0, 1.695758230001375E9, 0.0, 2023-09-26 14:57:10.001
54.0, -155053.31367889806, -134615.1691216432, -25582.912633766253, -26873.435303382317, -24033.646170335553, -19891.17501868904, -187500.02235174447, -28671.47668260058, -14547.610526992146, -8742.527215782073, -947.0657643158155, -39307.82250259191, -29903.549540466018, -33447.172754665946, -998.6088870297536, 9359.211845303995, 0.058, 0.976, -0.26, 192.0, 0.0, 0.0, 0.0, 0.0, 0.0, 0.0, 0.0, 0.0, 0.0, 1.695758230001385E9, 0.0, 2023-09-26 14:57:10.001
56.0, -154960.59864289744, -134525.82919905536, -25593.797933315986, -26887.829826811532, -24043.816214062717, -19899.668681582058, -187500.02235174447, -28686.519406619, -14544.50363451286, -8691.140555279322, -900.1271009596708, -39245.55054253942, -29906.701136434214, -33455.10762394758, -964.6565872021422, 9390.660749752611, 0.058, 0.976, -0.26, 192.0, 0.0, 0.0, 0.0, 0.0, 0.0, 0.0, 0.0, 0.0, 0.0, 1.695758230001394E9, 0.0, 2023-09-26 14:57:10.001
58.0, -155043.43420784883, -134612.8221884754, -25582.487950621602, -26869.255527169174, -24038.675312837997, -19887.241111664905, -187500.02235174447, -28672.90719424572, -14547.07408512522, -8735.888747678846, -932.2689094864023, -39293.897365796256, -29897.53692120754, -33444.33408312012, -989.4893752919884, 9358.98832785944, 0.058, 0.976, -0.26, 192.0, 0.0, 0.0, 0.0, 0.0, 0.0, 0.0, 0.0, 0.0, 0.0, 1.695758230001435E9, 0.0, 2023-09-26 14:57:10.001
60.0, -154958.6316893854, -134528.2431874565, -25583.15850295526, -26878.17387320684, -24032.729748812886, -19895.488905368915, -187500.02235174447, -28676.170548936196, -14540.97205888892, -8680.724642363148, -913.828720310774, -39258.46985083459, -29903.77305791057, -33445.00463545378, -976.0559768743489, 9384.7151857275, 0.058, 0.976, -0.26, 192.0, 0.0, 0.0, 0.0, 0.0, 0.0, 0.0, 0.0, 0.0, 0.0, 1.695758230061093E9, 0.0, 2023-09-26 14:57:10.061
62.0, -155033.46532982175, -134610.83288321889, -25588.232348946614, -26879.60438485198, -24031.790975545762, -19892.47141986745, -187500.02235174447, -28676.416418125205, -14543.96719264593, -8713.022913101067, -939.1085432897262, -39289.18114771618, -29905.091810833434, -33448.357397122076, -992.9762474270162, 9358.362479014693, 0.048, 0.978, -0.258, 192.0, 0.5, 64.0, 15.0, 72.0, 123.5, 120.0, 0.0, 0.0, 0.0, 1.695758230061116E9, 0.0, 2023-09-26 14:57:10.061
64.0, -154956.59768063994, -134529.31607119038, -25584.991346000596, -26884.9464517768, -24032.41682439051, -19900.674510082546, -187500.02235174447, -28682.227871683583, -14545.397704291072, -8678.24359872861, -928.6479268846425, -39264.75069102654, -29900.599110197916, -33455.95699023688, -984.728453723008, 9378.14377285764, 0.048, 0.978, -0.258, 192.0, 0.0, 0.0, 0.0, 0.0, 0.0, 0.0, 0.0, 0.0, 0.0, 1.695758230061127E9, 0.0, 2023-09-26 14:57:10.061
66.0, -155051.25731840817, -134631.06121195093, -25578.196415686183, -26872.56358534856, -24032.439176134965, -19888.55986458777, -187500.02235174447, -28672.706028545625, -14539.608602477147, -8721.20365157171, -945.0317555703826, -39293.472682651605, -29895.39115373983, -33442.32242611914, -1005.9402592110944, 9356.082601080252, 0.048, 0.978, -0.258, 192.0, 0.0, 0.0, 0.0, 0.0, 0.0, 0.0, 0.0, 0.0, 0.0, 1.695758230061136E9, 0.0, 2023-09-26 14:57:10.061
68.0, -154940.1244449764, -134514.74273380553, -25588.366459413348, -26888.723896589745, -24041.581039617187, -19914.487888155923, -187500.02235174447, -28692.44261889966, -14550.851529938165, -8698.918962349768, -942.3718979802011, -39277.8711650218, -29910.702098691716, -33451.88897274601, -997.6701137626308, 9377.070889123785, 0.048, 0.978, -0.258, 192.0, 0.0, 0.0, 0.0, 0.0, 0.0, 0.0, 0.0, 0.0, 0.0, 1.695758230061145E9, 0.0, 2023-09-26 14:57:10.061
70.0, -155038.42741709083, -134621.6287757908, -25580.945680254186, -26876.788065050612, -24033.75792905783, -19895.73477455792, -187500.02235174447, -28676.639935569758, -14557.087666641197, -8734.212366844698, -922.1659209926034, -39262.18024041417, -29909.383345768852, -33444.021158697746, -984.0131979004382, 9366.967900629987, 0.048, 0.978, -0.258, 192.0, 0.0, 0.0, 0.0, 0.0, 0.0, 0.0, 0.0, 0.0, 0.0, 1.695758230061154E9, 0.0, 2023-09-26 14:57:10.061
72.0, -154958.36346845192, -134531.5959491248, -25586.511264623558, -26885.952280277288, -24030.405167389534, -19909.525800886848, -187500.02235174447, -28688.799284553446, -14552.460855538948, -8722.96943938368, -963.0472616013601, -39295.95372628614, -29905.40473525581, -33446.748071521295, -1017.5184628389434, 9367.817266919288, 0.054, 0.97, -0.258, 192.0, 0.5, 88.0, 15.0, 40.0, 123.5, 120.0, 0.0, 0.0, 0.0, 1.695758230061163E9, 0.0, 2023-09-26 14:57:10.061
74.0, -155039.61205954695, -134626.65791829323, -25587.315927423948, -26881.392524408406, -24037.624780848597, -19898.014652492366, -187500.02235174447, -28679.880938515777, -14559.859282953656, -8755.82650373298, -922.2553279704247, -39254.0665571769, -29907.10346783441, -33452.0454349572, -987.5894770132873, 9366.677327952068, 0.054, 0.97, -0.258, 192.0, 0.0, 0.0, 0.0, 0.0, 0.0, 0.0, 0.0, 0.0, 0.0, 1.695758230121264E9, 0.0, 2023-09-26 14:57:10.121
76.0, -154977.34009949447, -134557.4122139707, -25581.057438976462, -26880.453751141282, -24029.444042377956, -19906.28479794083, -187500.02235174447, -28681.44556062765, -14553.64549799508, -8753.926605454279, -983.5438112668767, -39316.91966258522, -29896.709906662694, -33440.26606562926, -1037.8809020377282, 9358.206016803506, 0.054, 0.97, -0.258, 192.0, 0.0, 0.0, 0.0, 0.0, 0.0, 0.0, 0.0, 0.0, 0.0, 1.6957582301213E9, 0.0, 2023-09-26 14:57:10.121
78.0, -155018.22144010323, -134615.45969432112, -25590.534578625513, -26893.350707691996, -24033.824984291197, -19907.26827469686, -187500.02235174447, -28687.43582814167, -14560.127503887119, -8760.319204368498, -928.893796073651, -39259.58743805736, -29900.755572409103, -33449.407929111476, -997.5136515514436, 9369.694813453534, 0.054, 0.97, -0.258, 192.0, 0.0, 0.0, 0.0, 0.0, 0.0, 0.0, 0.0, 0.0, 0.0, 1.695758230121311E9, 0.0, 2023-09-26 14:57:10.121
80.0, -154955.54714865054, -134542.03421378543, -25595.96605252815, -26903.788972352624, -24039.122347727105, -19928.055397040298, -187500.02235174447, -28697.270595702004, -14570.02932668082, -8784.54849535805, -979.9451804095722, -39307.26370898053, -29919.553389496017, -33464.785929296726, -1028.7837420444182, 9356.462580735992, 0.054, 0.97, -0.258, 192.0, 0.0, 0.0, 0.0, 0.0, 0.0, 0.0, 0.0, 0.0, 0.0, 1.695758230121351E9, 0.0, 2023-09-26 14:57:10.121
82.0, -154952.59671838247, -134553.59006566883, -25620.21769526216, -26926.788917397134, -24065.363295717634, -19933.151594776107, -187500.02235174447, -28710.994566797566, -14593.900989759088, -8788.258884937632, -877.3506733597128, -39199.39419023922, -29943.536811296563, -33494.40199070001, -942.7518776359412, 9382.56941825979, 0.06, 0.976, -0.262, 192.0, 0.5, 112.0, 15.0, 64.0, 123.5, 104.0, 0.0, 0.0, 0.0, 1.69575823012136E9, 0.0, 2023-09-26 14:57:10.121
84.0, -154948.90868054732, -134536.8039055829, -25597.73184034012, -26898.22338798325, -24039.479975638387, -19914.577295133746, -187500.02235174447, -28688.933395020176, -14578.768858762844, -8804.575658390006, -957.727546420997, -39282.90030752424, -29923.420241286785, -33468.831595043135, -1003.4368638321, 9349.198263788017, 0.06, 0.976, -0.262, 192.0, 0.0, 0.0, 0.0, 0.0, 0.0, 0.0, 0.0, 0.0, 0.0, 1.695758230121369E9, 0.0, 2023-09-26 14:57:10.121
86.0, -154991.22053280124, -134592.70561846564, -25588.478218135624, -26887.919233789355, -24029.13111795558, -19898.46168738147, -187500.02235174447, -28677.623412325793, -14572.443315081993, -8775.674852809292, -906.340885918246, -39225.25515857401, -29914.457191760208, -33455.66641755896, -974.8489826737622, 9368.867798908686, 0.06, 0.976, -0.262, 192.0, 0.0, 0.0, 0.0, 0.0, 0.0, 0.0, 0.0, 0.0, 0.0, 1.695758230121378E9, 0.0, 2023-09-26 14:57:10.121
88.0, -154978.77061113963, -134573.72898742306, -25588.232348946614, -26882.308945931072, -24036.015455247816, -19907.983530519432, -187500.02235174447, -28677.779874536976, -14561.401553321071, -8784.324977913497, -987.6341805021979, -39315.04211605097, -29900.420296242275, -33447.41862385495, -1037.0538874928818, 9346.985441086941, 0.06, 0.976, -0.262, 192.0, 0.0, 0.0, 0.0, 0.0, 0.0, 0.0, 0.0, 0.0, 0.0, 1.695758230121387E9, 0.0, 2023-09-26 14:57:10.121
90.0, -154972.02038431412, -134579.9651241261, -25602.06807876445, -26894.55770189258, -24044.240897207368, -19909.41404216457, -187500.02235174447, -28686.184130452173, -14563.346155088682, -8755.245358377142, -911.0124005094052, -39230.261949331994, -29905.650604444818, -33450.41375761196, -982.8285554443069, 9377.204999590516, 0.06, 0.976, -0.262, 192.0, 0.0, 0.0, 0.0, 0.0, 0.0, 0.0, 0.0, 0.0, 0.0, 1.695758230181482E9, 0.0, 2023-09-26 14:57:10.181
92.0, -154984.98439609818, -134585.55306023994, -25595.429610661224, -26886.13109423293, -24038.407091904533, -19908.452917152994, -187500.02235174447, -28679.52331060449, -14569.381126091615, -8794.807946063036, -976.5700669968209, -39308.31424096993, -29912.40083127032, -33458.39333038251, -1030.3930676452003, 9347.007792831397, 0.06, 0.976, -0.262, 192.0, 0.5, 112.0, 15.0, 64.0, 123.5, 104.0, 0.0, 0.0, 0.0, 1.695758230181546E9, 0.0, 2023-09-26 14:57:10.181
94.0, -154956.79884634004, -134567.85047863133, -25604.616177632353, -26904.258358986182, -24042.408054162035, -19912.878562555143, -187500.02235174447, -28690.967403765608, -14576.35487036167, -8773.372623130397, -910.0289237533717, -39224.38344054025, -29924.940159909747, -33465.3000194192, -982.0462443883711, 9379.127249613673, 0.06, 0.976, -0.262, 192.0, 0.0, 0.0, 0.0, 0.0, 0.0, 0.0, 0.0, 0.0, 0.0, 1.695758230181562E9, 0.0, 2023-09-26 14:57:10.181
96.0, -154983.10684956395, -134590.24692657555, -25594.826113560932, -26895.42941992634, -24045.89492629706, -19914.532591644835, -187500.02235174447, -28684.977136251586, -14574.566730805247, -8811.303533471053, -980.7051397210527, -39306.97313630261, -29919.709851707205, -33455.53230709223, -1031.5106548679657, 9345.644336419624, 0.06, 0.976, -0.262, 192.0, 0.0, 0.0, 0.0, 0.0, 0.0, 0.0, 0.0, 0.0, 0.0, 1.695758230181577E9, 0.0, 2023-09-26 14:57:10.181
98.0, -154913.68233128576, -134529.494885146, -25610.248817235093, -26912.50615269019, -24056.176728746505, -19928.86005984069, -187500.02235174447, -28701.807999826433, -14576.779553506321, -8777.373585387897, -902.8316620387628, -39211.24061480053, -29921.00625288561, -33470.32916192164, -969.7974884268629, 9383.6646537381, 0.06, 0.976, -0.262, 192.0, 0.0, 0.0, 0.0, 0.0, 0.0, 0.0, 0.0, 0.0, 0.0, 1.695758230181592E9, 0.0, 2023-09-26 14:57:10.181
100.0, -154974.65789015984, -134590.82807193138, -25597.463619406655, -26897.642242627415, -24051.90754555554, -19918.779423091346, -187500.02235174447, -28691.548549121446, -14576.64544303959, -8829.833129624501, -956.922883620606, -39275.211307431615, -29916.133572594354, -33467.33402816463, -1008.823634245829, 9343.56562418528, 0.06, 0.976, -0.262, 192.0, 0.0, 0.0, 0.0, 0.0, 0.0, 0.0, 0.0, 0.0, 0.0, 1.695758230181656E9, 0.0, 2023-09-26 14:57:10.181
102.0, -154908.38496784985, -134532.3112049474, -25610.02529979054, -26913.71314689078, -24060.065932281726, -19928.793004607323, -187500.02235174447, -28703.909063805233, -14579.595873307691, -8791.611646605927, -901.5129091158998, -39200.71294316208, -29924.314311064998, -33475.49241489082, -970.6468547161645, 9373.38285128866, 0.058, 0.98, -0.262, 192.0, 0.5, 104.0, 15.0, 80.0, 123.5, 104.0, 0.0, 0.0, 0.0, 1.695758230181668E9, 0.0, 2023-09-26 14:57:10.181
104.0, -155015.2933615796, -134641.030089978, -25584.25373843357, -26882.152483719885, -24028.639379577566, -19904.317844428762, -187500.02235174447, -28675.120016946796, -14568.844684224689, -8840.204339051765, -981.5098025214437, -39294.992601274564, -29908.53397947955, -33451.15136517899, -1040.7642770724628, 9320.36451344067, 0.058, 0.98, -0.262, 192.0, 0.0, 0.0, 0.0, 0.0, 0.0, 0.0, 0.0, 0.0, 0.0, 1.695758230241937E9, 0.0, 2023-09-26 14:57:10.241
106.0, -154910.59779055094, -134540.3131294624, -25601.643395619798, -26904.794800853113, -24047.772472831308, -19924.52382141636, -187500.02235174447, -28696.175360223697, -14570.543416803292, -8791.79046056157, -933.4088484536229, -39236.073402890375, -29901.58258695395, -33460.00265598329, -1006.0296661889156, 9361.7599441719, 0.058, 0.98, -0.262, 192.0, 0.0, 0.0, 0.0, 0.0, 0.0, 0.0, 0.0, 0.0, 0.0, 1.695758230241971E9, 0.0, 2023-09-26 14:57:10.241
108.0, -155002.70932945126, -134637.38675563177, -25591.69686933719, -26887.36044017797, -24037.602429104143, -19906.016577007365, -187500.02235174447, -28678.986868737564, -14580.691108786, -8849.793237423091, -960.3650522667233, -39273.467871364104, -29916.58060748346, -33457.05222571519, -1027.1073612102703, 9338.380019471648, 0.058, 0.98, -0.262, 192.0, 0.0, 0.0, 0.0, 0.0, 0.0, 0.0, 0.0, 0.0, 0.0, 1.695758230241989E9, 0.0, 2023-09-26 14:57:10.241
110.0, -154908.83200273896, -134540.49194341802, -25603.386831687312, -26903.967786308265, -24045.09026349667, -19929.03887379633, -187500.02235174447, -28695.527159634494, -14580.758164019368, -8814.902164328358, -950.5079329619329, -39246.66812976219, -29909.49510449113, -33458.92977224944, -1021.9664599855495, 9367.571397730278, 0.058, 0.98, -0.262, 192.0, 0.0, 0.0, 0.0, 0.0, 0.0, 0.0, 0.0, 0.0, 0.0, 1.695758230242005E9, 0.0, 2023-09-26 14:57:10.242
112.0, -154973.74146863716, -134611.59284253037, -25608.192456745204, -26902.939606063323, -24046.52077514181, -19917.93005680204, -187500.02235174447, -28687.72640081959, -14608.764899821866, -8871.295615589097, -936.3369269772681, -39238.08505989135, -29931.958607668712, -33473.234888700834, -1002.6545527761642, 9360.217673804484, 0.058, 0.978, -0.26, 192.0, 0.5, 104.0, 15.0, 72.0, 123.5, 112.0, 0.0, 0.0, 0.0, 1.695758230242021E9, 0.0, 2023-09-26 14:57:10.242
114.0, -154900.74067124614, -134529.56194037938, -25609.55591315698, -26906.784106109633, -24034.4731848804, -19923.540344660323, -187500.02235174447, -28692.084990988376, -14595.689129315511, -8848.630946711415, -944.8305898702848, -39238.263873847, -29923.956683153712, -33462.46134787337, -1007.9072127231614, 9373.42755477757, 0.058, 0.978, -0.26, 192.0, 0.0, 0.0, 0.0, 0.0, 0.0, 0.0, 0.0, 0.0, 0.0, 1.695758230242039E9, 0.0, 2023-09-26 14:57:10.242
116.0, -155005.54800099708, -134638.14671494326, -25596.97188102864, -26895.161198992875, -24038.742368071362, -19905.79305956281, -187500.02235174447, -28677.623412325793, -14600.65121658459, -8887.880609974934, -948.920959105606, -39250.3114641084, -29920.559217996506, -33459.35445539409, -1013.2939831368903, 9354.13799931264, 0.058, 0.978, -0.26, 192.0, 0.0, 0.0, 0.0, 0.0, 0.0, 0.0, 0.0, 0.0, 0.0, 1.695758230242055E9, 0.0, 2023-09-26 14:57:10.242
118.0, -154934.04477048456, -134556.09346104783, -25587.07005823494, -26897.32931820504, -24035.322551169702, -19917.03598702383, -187500.02235174447, -28688.911043275722, -14587.17311467804, -8858.912749160856, -976.2347908299913, -39273.2220021751, -29909.092773090935, -33458.683903060424, -1036.9197770261499, 9362.162275572095, 0.058, 0.978, -0.26, 192.0, 0.0, 0.0, 0.0, 0.0, 0.0, 0.0, 0.0, 0.0, 0.0, 1.695758230242071E9, 0.0, 2023-09-26 14:57:10.242
120.0, -155003.335178296, -134636.42563062022, -25583.02439248853, -26895.451771670792, -24034.98727500287, -19913.45970791098, -187500.02235174447, -28684.977136251586, -14585.273216399339, -8871.832057456024, -956.4534969870446, -39261.733205525066, -29897.089886318434, -33456.53813559272, -1029.789570544907, 9352.461618478492, 0.058, 0.978, -0.26, 192.0, 0.0, 0.0, 0.0, 0.0, 0.0, 0.0, 0.0, 0.0, 0.0, 1.695758230301253E9, 0.0, 2023-09-26 14:57:10.301
122.0, -154918.75617727713, -134540.33548120683, -25591.11572398135, -26900.972652551252, -24038.34003667117, -19928.189507507028, -187500.02235174447, -28695.035421256474, -14592.425774625037, -8865.193589352797, -969.8421919157735, -39270.472737607095, -29909.405697513306, -33459.756786794285, -1031.7788758014294, 9361.7599441719, 0.056, 0.976, -0.254, 192.0, 0.5, 96.0, 15.0, 64.0, 124.0, 8.0, 0.0, 0.0, 0.0, 1.69575823030134E9, 0.0, 2023-09-26 14:57:10.301
124.0, -154982.52570420812, -134614.09623790937, -25597.73184034012, -26901.37498395145, -24042.89979254005, -19914.75610908939, -187500.02235174447, -28691.01210725452, -14606.485021887425, -8893.04386294411, -916.08624650076, -39215.442742758125, -29926.72829946617, -33468.272801431754, -988.5729537693207, 9363.793952917333, 0.056, 0.976, -0.254, 192.0, 0.0, 0.0, 0.0, 0.0, 0.0, 0.0, 0.0, 0.0, 0.0, 1.695758230301358E9, 0.0, 2023-09-26 14:57:10.301
126.0, -154923.04771221254, -134542.19067599662, -25592.188607715205, -26897.239911227218, -24026.918295254505, -19926.289609228326, -187500.02235174447, -28691.05681074343, -14599.198353194995, -8897.67067404636, -981.24158158798, -39280.8215952899, -29920.760383696605, -33454.72764429184, -1038.0820677378258, 9347.700696909511, 0.056, 0.976, -0.254, 192.0, 0.0, 0.0, 0.0, 0.0, 0.0, 0.0, 0.0, 0.0, 0.0, 1.695758230301375E9, 0.0, 2023-09-26 14:57:10.301
128.0, -154954.16134049432, -134587.85528991884, -25600.92813979723, -26905.51005667568, -24041.893964039562, -19921.66279812608, -187500.02235174447, -28693.090819488865, -14610.88831554512, -8902.945685737812, -907.7043423300198, -39203.17163505216, -29925.029566887566, -33464.00361824079, -980.2134013430359, 9364.173932573072, 0.056, 0.976, -0.254, 192.0, 0.0, 0.0, 0.0, 0.0, 0.0, 0.0, 0.0, 0.0, 0.0, 1.695758230301392E9, 0.0, 2023-09-26 14:57:10.301
130.0, -154932.23427918367, -134554.6629494027, -25590.713392581154, -26897.977518794243, -24034.204963946937, -19923.205068493495, -187500.02235174447, -28687.14525546375, -14597.723138060945, -8918.14487196742, -977.6205989862203, -39276.619467332304, -29916.424145272274, -33451.68780704591, -1033.0976287242925, 9342.962127084986, 0.056, 0.976, -0.254, 192.0, 0.0, 0.0, 0.0, 0.0, 0.0, 0.0, 0.0, 0.0, 0.0, 1.695758230301409E9, 0.0, 2023-09-26 14:57:10.301
132.0, -154961.76093360913, -134595.07490337788, -25590.15459896977, -26900.056231028586, -24038.116519226616, -19912.967969532965, -187500.02235174447, -28683.323107161894, -14607.066167243263, -8920.447101646318, -912.8452435547405, -39205.83149264235, -29925.610712243404, -33459.15328969399, -988.9752851695163, 9363.190455817039, 0.054, 0.976, -0.252, 192.0, 0.5, 88.0, 15.0, 64.0, 124.0, 16.0, 0.0, 0.0, 0.0, 1.695758230301426E9, 0.0, 2023-09-26 14:57:10.301
134.0, -154937.39753215286, -134559.73679539404, -25590.44517164769, -26900.883245573434, -24039.547030871756, -19926.490774928425, -187500.02235174447, -28690.743886321055, -14605.233324197929, -8946.509235681206, -985.4213578011224, -39287.61652560432, -29916.178276083265, -33455.01821696976, -1043.9605765295717, 9342.604499173702, 0.054, 0.976, -0.252, 192.0, 0.0, 0.0, 0.0, 0.0, 0.0, 0.0, 0.0, 0.0, 0.0, 1.695758230361017E9, 0.0, 2023-09-26 14:57:10.361
136.0, -154960.084552775, -134592.63856323226, -25584.410200644757, -26897.195207738307, -24037.80359480424, -19914.26437071137, -187500.02235174447, -28683.524272861992, -14606.7979463098, -8940.966003056288, -910.9453452760393, -39208.51370197698, -29917.854656917414, -33459.265048416266, -991.6798462486084, 9368.353708786215, 0.054, 0.976, -0.252, 192.0, 0.0, 0.0, 0.0, 0.0, 0.0, 0.0, 0.0, 0.0, 0.0, 1.695758230361051E9, 0.0, 2023-09-26 14:57:10.361
138.0, -154970.14283777986, -134593.68909522166, -25578.77756104202, -26888.813303567567, -24027.99117898836, -19912.923266044054, -187500.02235174447, -28678.495130359548, -14602.46170788547, -8973.331329027573, -994.6973317500749, -39302.65924962274, -29897.58162469645, -33449.72085353385, -1054.5105999124767, 9338.804702616299, 0.054, 0.976, -0.252, 192.0, 0.0, 0.0, 0.0, 0.0, 0.0, 0.0, 0.0, 0.0, 0.0, 1.695758230361066E9, 0.0, 2023-09-26 14:57:10.361
140.0, -154948.55105263603, -134585.10602535083, -25595.429610661224, -26909.55572242209, -24036.797766303753, -19923.830917338244, -187500.02235174447, -28692.464970644116, -14611.335350434227, -8941.748314112225, -913.18051972157, -39210.39124851123, -29926.705947721715, -33467.55754560918, -993.8703172052285, 9374.053403622318, 0.054, 0.976, -0.252, 192.0, 0.0, 0.0, 0.0, 0.0, 0.0, 0.0, 0.0, 0.0, 0.0, 1.695758230361079E9, 0.0, 2023-09-26 14:57:10.361
142.0, -154981.69868966326, -134611.01169717452, -25584.365497155846, -26898.46925717226, -24033.37794940209, -19921.729853359444, -187500.02235174447, -28685.826502540887, -14603.98162650843, -8973.197218560841, -999.8382329747956, -39310.661174137735, -29910.366822524888, -33456.22521117034, -1064.21125700608, 9334.423760703059, 0.058, 0.976, -0.256, 192.0, 0.5, 104.0, 15.0, 64.0, 124.0, 0.0, 0.0, 0.0, 0.0, 1.695758230361096E9, 0.0, 2023-09-26 14:57:10.361
144.0, -154929.12738670438, -134564.87769661876, -25596.30132869498, -26913.735498635233, -24041.04459775026, -19931.51991743087, -187500.02235174447, -28698.142313735763, -14612.788213823822, -8924.33630518154, -915.4380459115561, -39214.01223111299, -29924.224904087176, -33472.899612534005, -1000.1511573971699, 9371.974691387975, 0.058, 0.976, -0.256, 192.0, 0.0, 0.0, 0.0, 0.0, 0.0, 0.0, 0.0, 0.0, 0.0, 1.695758230361149E9, 0.0, 2023-09-26 14:57:10.361
146.0, -154960.35277370844, -134592.8173771879, -25593.4403054047, -26909.354556721995, -24044.173841974003, -19940.147690790618, -187500.02235174447, -28696.041249756963, -14611.357702178682, -8962.311919011107, -972.4126425281338, -39283.257935435526, -29918.055822617513, -33467.646952587005, -1040.3842974167226, 9341.08458055074, 0.058, 0.976, -0.256, 192.0, 0.0, 0.0, 0.0, 0.0, 0.0, 0.0, 0.0, 0.0, 0.0, 1.695758230361164E9, 0.0, 2023-09-26 14:57:10.361
148.0, -154904.7639852481, -134540.1119637623, -25597.620081617843, -26919.9045801049, -24049.80648157674, -19938.18073727855, -187500.02235174447, -28701.71859284861, -14626.6015918972, -8937.926165810368, -901.7364265604529, -39197.270774515964, -29925.83422968796, -33486.19890048491, -984.4825845339996, 9371.907636154609, 0.058, 0.976, -0.256, 192.0, 0.0, 0.0, 0.0, 0.0, 0.0, 0.0, 0.0, 0.0, 0.0, 1.69575823036118E9, 0.0, 2023-09-26 14:57:10.361
150.0, -154979.26234951764, -134611.70460125263, -25581.035087232005, -26898.51396066117, -24034.383777902578, -19925.686112128034, -187500.02235174447, -28684.552453106935, -14616.878583059142, -8980.506238997727, -970.3115785493349, -39280.97805750109, -29903.862464888392, -33465.0988537191, -1040.2948904389013, 9332.99324905792, 0.058, 0.976, -0.256, 192.0, 0.0, 0.0, 0.0, 0.0, 0.0, 0.0, 0.0, 0.0, 0.0, 1.695758230422212E9, 0.0, 2023-09-26 14:57:10.422
152.0, -154926.44517736975, -134561.39082448374, -25580.431590131713, -26902.827847341043, -24034.80846104723, -19925.261428983384, -187500.02235174447, -28687.01114499702, -14607.066167243263, -8938.77553209967, -925.406923938623, -39222.14826609472, -29914.166619082287, -33468.2504496873, -1008.9800964570161, 9369.001909375418, 0.066, 0.972, -0.25, 192.0, 1.0, 8.0, 15.0, 48.0, 124.0, 24.0, 0.0, 0.0, 0.0, 1.695758230422254E9, 0.0, 2023-09-26 14:57:10.422
154.0, -155023.1835273723, -134659.71614834265, -25564.025409701517, -26882.666573842358, -24016.882361994074, -19914.577295133746, -187500.02235174447, -28670.09087444435, -14589.095364701196, -8981.266198309208, -1000.7323027530078, -39313.09751428336, -29891.546653693516, -33443.97645520884, -1074.9624460890825, 9331.56273741278, 0.066, 0.972, -0.25, 192.0, 0.0, 0.0, 0.0, 0.0, 0.0, 0.0, 0.0, 0.0, 0.0, 1.695758230422271E9, 0.0, 2023-09-26 14:57:10.422
156.0, -154925.52875584707, -134559.33446399384, -25595.898997294786, -26915.881266102944, -24041.6257431061, -19941.779368135856, -187500.02235174447, -28697.337650935373, -14606.999112009897, -8957.327479997573, -946.2387497709692, -39241.97426342658, -29923.196723842233, -33471.37969391104, -1028.8060937888736, 9373.136982099652, 0.066, 0.972, -0.25, 192.0, 0.0, 0.0, 0.0, 0.0, 0.0, 0.0, 0.0, 0.0, 0.0, 1.695758230422287E9, 0.0, 2023-09-26 14:57:10.422
158.0, -155007.7384719537, -134644.44990687966, -25592.45682864867, -26902.98430955223, -24036.820118048206, -19931.162289519583, -187500.02235174447, -28689.38042990928, -14612.631751612635, -9009.16117538943, -974.983093140494, -39284.01789474701, -29915.083040604957, -33466.97640025335, -1058.6680243811636, 9338.536481682835, 0.066, 0.972, -0.25, 192.0, 0.0, 0.0, 0.0, 0.0, 0.0, 0.0, 0.0, 0.0, 0.0, 1.695758230422304E9, 0.0, 2023-09-26 14:57:10.422
160.0, -154892.93991243123, -134525.47157114407, -25611.96990155815, -26922.653844672903, -24060.08828402618, -19955.61509795369, -187500.02235174447, -28712.40272669825, -14628.948525065009, -8980.506238997727, -939.3544124787346, -39230.77603945447, -29935.668997248293, -33482.84613881661, -1018.7031052950747, 9370.767697187388, 0.066, 0.972, -0.25, 192.0, 0.0, 0.0, 0.0, 0.0, 0.0, 0.0, 0.0, 0.0, 0.0, 1.695758230422326E9, 0.0, 2023-09-26 14:57:10.422
162.0, -154995.9814543702, -134637.99025273207, -25596.524846139535, -26904.638338641926, -24047.034865264282, -19928.971818562964, -187500.02235174447, -28687.122903719297, -14626.981571552942, -9018.59361154957, -944.919996848106, -39247.15986814021, -29929.991654156645, -33474.12895847904, -1022.5923088302981, 9344.124417796662, 0.058, 0.968, -0.254, 192.0, 0.5, 104.0, 15.0, 32.0, 124.0, 8.0, 0.0, 0.0, 0.0, 1.695758230422338E9, 0.0, 2023-09-26 14:57:10.422
164.0, -154914.64345629734, -134549.0526615444, -25593.194436215694, -26908.907521832887, -24041.715150083917, -19936.146728533116, -187500.02235174447, -28689.022801998, -14612.855269057187, -8980.126259341987, -955.8947033756618, -39254.58064729937, -29920.045127874033, -33463.377769396044, -1031.622413590242, 9359.61417670419, 0.058, 0.968, -0.254, 192.0, 0.0, 0.0, 0.0, 0.0, 0.0, 0.0, 0.0, 0.0, 0.0, 1.695758230422353E9, 0.0, 2023-09-26 14:57:10.422
166.0, -155006.35266379747, -134647.19917144766, -25583.02439248853, -26899.966824050764, -24035.344902914156, -19922.802737093298, -187500.02235174447, -28678.517482104002, -14611.916495790065, -9002.9250386864, -949.2785870168909, -39254.89357172175, -29908.35516552391, -33457.00752222628, -1032.8741112797393, 9344.906728852598, 0.058, 0.968, -0.254, 192.0, 0.0, 0.0, 0.0, 0.0, 0.0, 0.0, 0.0, 0.0, 0.0, 1.69575823048259E9, 0.0, 2023-09-26 14:57:10.482
168.0, -154936.816386797, -134563.29072276244, -25585.4383808897, -26905.241835742218, -24037.51302212632, -19936.772577377866, -187500.02235174447, -28690.654479343237, -14611.737681834422, -8980.126259341987, -981.308636821346, -39281.89447902376, -29912.378479525865, -33466.86464153107, -1057.7516028584962, 9350.114685310684, 0.058, 0.968, -0.254, 192.0, 0.0, 0.0, 0.0, 0.0, 0.0, 0.0, 0.0, 0.0, 0.0, 1.695758230482619E9, 0.0, 2023-09-26 14:57:10.482
170.0, -155010.71125396626, -134648.31675867044, -25577.749380797075, -26894.915329803865, -24031.723920312397, -19917.17009749056, -187500.02235174447, -28676.192900680653, -14614.218725468962, -8996.174811860898, -948.6080346832317, -39255.921751966685, -29916.178276083265, -33460.4943943613, -1038.6185096047532, 9351.835769633743, 0.058, 0.968, -0.254, 192.0, 0.0, 0.0, 0.0, 0.0, 0.0, 0.0, 0.0, 0.0, 0.0, 1.695758230482636E9, 0.0, 2023-09-26 14:57:10.482
172.0, -154919.98552322216, -134549.9020278337, -25596.658956606265, -26916.976501581255, -24047.39249317557, -19949.37896125066, -187500.02235174447, -28702.63501437128, -14626.065150030274, -8998.789965962169, -975.7430524519746, -39282.78854880197, -29925.945988410236, -33472.92196427846, -1055.5164284129655, 9357.580167958757, 0.062, 0.968, -0.248, 192.0, 0.5, 120.0, 15.0, 32.0, 124.0, 32.0, 0.0, 0.0, 0.0, 1.695758230482653E9, 0.0, 2023-09-26 14:57:10.482
174.0, -155004.45276551877, -134645.38868014677, -25584.030220989018, -26902.827847341043, -24041.402225661546, -19918.153574246597, -187500.02235174447, -28676.05879021392, -14635.430530957048, -9018.683018527392, -924.4234471825895, -39233.10062087782, -29926.72829946617, -33470.507975877284, -1021.0947419517926, 9359.055383092807, 0.062, 0.968, -0.248, 192.0, 0.0, 0.0, 0.0, 0.0, 0.0, 0.0, 0.0, 0.0, 0.0, 1.695758230482666E9, 0.0, 2023-09-26 14:57:10.482
176.0, -154950.8309305705, -134576.74647292454, -25591.808628059465, -26912.52850443465, -24045.783167574784, -19942.18169953605, -187500.02235174447, -28690.05098224294, -14626.981571552942, -9020.02412319471, -1001.5369655533989, -39315.19857826216, -29919.77690694057, -33462.70721706238, -1079.7457194025183, 9341.03987706183, 0.062, 0.968, -0.248, 192.0, 0.0, 0.0, 0.0, 0.0, 0.0, 0.0, 0.0, 0.0, 0.0, 1.695758230482682E9, 0.0, 2023-09-26 14:57:10.482
178.0, -155016.52270752462, -134649.36729065984, -25589.327584424926, -26905.174780508853, -24040.19523146096, -19916.74541434591, -187500.02235174447, -28676.885804758767, -14638.202147269505, -9025.969687219822, -927.9773745509833, -39234.128801122766, -29931.48922103515, -33472.58668811163, -1021.206500674069, 9358.206016803506, 0.062, 0.968, -0.248, 192.0, 0.0, 0.0, 0.0, 0.0, 0.0, 0.0, 0.0, 0.0, 0.0, 1.695758230482699E9, 0.0, 2023-09-26 14:57:10.482
180.0, -154991.22053280124, -134610.78817972998, -25588.232348946614, -26905.532408420135, -24037.37891165959, -19932.99513256492, -187500.02235174447, -28682.898424017243, -14623.986437795931, -9039.60425133756, -1028.2249484330355, -39339.941959374184, -29917.564084239493, -33454.370016380555, -1103.080940613859, 9332.61326940218, 0.062, 0.968, -0.248, 192.0, 0.0, 0.0, 0.0, 0.0, 0.0, 0.0, 0.0, 0.0, 0.0, 1.695758230541912E9, 0.0, 2023-09-26 14:57:10.541
182.0, -154994.95327412526, -134625.7862002595, -25606.292558466503, -26925.961902852287, -24053.203946733945, -19943.99219083693, -187500.02235174447, -28691.839121799367, -14647.969859596475, -9039.716010059836, -941.2543107574357, -39239.917902936686, -29941.860430462413, -33478.554603881195, -1034.5504921138875, 9361.268205793882, 0.058, 0.968, -0.25, 192.0, 0.5, 104.0, 15.0, 32.0, 124.0, 24.0, 0.0, 0.0, 0.0, 1.695758230541945E9, 0.0, 2023-09-26 14:57:10.541
184.0, -154997.74724218217, -134618.2313106336, -25593.35089842688, -26912.930835834843, -24041.648094850552, -19939.27597275686, -187500.02235174447, -28681.087932716364, -14650.450903231014, -9078.161010522963, -1018.7925122728959, -39324.20633127765, -29943.514459552105, -33474.10660673459, -1091.2568677970014, 9328.075865277751, 0.058, 0.968, -0.25, 192.0, 0.0, 0.0, 0.0, 0.0, 0.0, 0.0, 0.0, 0.0, 0.0, 1.695758230541963E9, 0.0, 2023-09-26 14:57:10.541
186.0, -154977.72007915023, -134608.95533668462, -25605.711413110665, -26930.096975576518, -24049.24768796536, -19943.969839092475, -187500.02235174447, -28692.30850843293, -14662.118513836684, -9056.189245723397, -938.1250665336927, -39237.14628662423, -29943.82738397448, -33484.81309232868, -1030.3930676452003, 9359.256548792906, 0.058, 0.968, -0.25, 192.0, 0.0, 0.0, 0.0, 0.0, 0.0, 0.0, 0.0, 0.0, 0.0, 1.69575823054198E9, 0.0, 2023-09-26 14:57:10.541
188.0, -154978.72590765072, -134600.95341216962, -25607.566607900455, -26929.493478476226, -24050.6781996105, -19952.217632796484, -187500.02235174447, -28695.236586956573, -14675.462505276502, -9107.03946435922, -1009.8294627463177, -39321.94880508767, -29946.55429679803, -33486.95885979639, -1081.1315275587474, 9325.103083265196, 0.058, 0.968, -0.25, 192.0, 0.0, 0.0, 0.0, 0.0, 0.0, 0.0, 0.0, 0.0, 0.0, 1.695758230542036E9, 0.0, 2023-09-26 14:57:10.542
190.0, -154933.68714257327, -134562.37430123976, -25631.25945702308, -26954.326266566073, -24071.398266720567, -19964.399333524627, -187500.02235174447, -28712.715651120623, -14695.355557841725, -9089.60510368408, -916.5556331343214, -39209.787751410935, -29953.72920676818, -33508.72945889586, -1004.2862301214017, 9361.46937149398, 0.058, 0.968, -0.25, 192.0, 0.0, 0.0, 0.0, 0.0, 0.0, 0.0, 0.0, 0.0, 0.0, 1.695758230542051E9, 0.0, 2023-09-26 14:57:10.542
192.0, -154994.34977702497, -134618.36542110032, -25603.431535176223, -26925.157240051896, -24048.308914698235, -19943.18752803654, -187500.02235174447, -28689.983927009576, -14693.209790374016, -9140.880005464554, -1002.0734074203262, -39305.6767351242, -29961.842890005457, -33493.97730755536, -1068.7710128749625, 9316.095330249707, 0.06, 0.968, -0.258, 192.0, 0.5, 112.0, 15.0, 32.0, 123.5, 120.0, 0.0, 0.0, 0.0, 1.695758230542067E9, 0.0, 2023-09-26 14:57:10.542
194.0, -154965.583081911, -134594.98549640007, -25599.654090363278, -26926.006606341198, -24032.3721209016, -19940.79589137982, -187500.02235174447, -28686.63116534128, -14675.909540165609, -9096.668254931958, -955.4476684865557, -39249.79737398594, -29946.151965397832, -33487.18237724094, -1034.72930606953, 9347.94656609852, 0.06, 0.968, -0.258, 192.0, 0.0, 0.0, 0.0, 0.0, 0.0, 0.0, 0.0, 0.0, 0.0, 1.695758230542083E9, 0.0, 2023-09-26 14:57:10.542
196.0, -155001.16705908385, -134626.85908399333, -25609.53356141252, -26935.506097734702, -24049.67237111001, -19956.777388665367, -187500.02235174447, -28699.05873525843, -14686.303101337327, -9152.346450370127, -1013.5175005814434, -39323.312261499435, -29953.55039281254, -33498.84998784662, -1073.8001553774066, 9315.692998849512, 0.06, 0.968, -0.258, 192.0, 0.0, 0.0, 0.0, 0.0, 0.0, 0.0, 0.0, 0.0, 0.0, 1.695758230602474E9, 0.0, 2023-09-26 14:57:10.602
198.0, -154953.8260643275, -134578.71342643662, -25607.521904411544, -26935.975484368264, -24048.532432142787, -19952.307039774303, -187500.02235174447, -28700.176322481195, -14681.273958834883, -9120.495214521316, -967.5846657257874, -39261.42028110269, -29955.98673295817, -33491.36215345409, -1037.0985909817923, 9341.576318928757, 0.06, 0.968, -0.258, 192.0, 0.0, 0.0, 0.0, 0.0, 0.0, 0.0, 0.0, 0.0, 0.0, 1.695758230602497E9, 0.0, 2023-09-26 14:57:10.602
200.0, -155012.76761445616, -134638.6831568102, -25615.32266322645, -26939.61881871448, -24062.345810216168, -19958.744342177433, -187500.02235174447, -28704.378450438795, -14695.467316564003, -9172.999462246831, -1013.1375209257033, -39318.774857375014, -29956.254953891632, -33498.51471167978, -1068.9051233416944, 9313.189603470517, 0.06, 0.968, -0.258, 192.0, 0.0, 0.0, 0.0, 0.0, 0.0, 0.0, 0.0, 0.0, 0.0, 1.695758230602507E9, 0.0, 2023-09-26 14:57:10.602
202.0, -154927.7639302926, -134554.6629494027, -25620.46356445117, -26946.726673451267, -24065.184481761993, -19964.064057357795, -187500.02235174447, -28712.26861623152, -14707.157278914128, -9146.400886345016, -956.9452353650613, -39246.66812976219, -29962.53579408357, -33513.80330488722, -1020.7594657849629, 9351.813417889289, 0.056, 0.974, -0.256, 192.0, 0.5, 96.0, 15.0, 56.0, 124.0, 0.0, 0.0, 0.0, 0.0, 1.695758230602516E9, 0.0, 2023-09-26 14:57:10.602
204.0, -155022.42356806083, -134653.70352908416, -25604.30325320998, -26927.794745897623, -24048.1748042315, -19947.166138549583, -187500.02235174447, -28690.363906665316, -14692.628645018178, -9187.43868916496, -1008.5107098234547, -39312.22579624961, -29951.49403232265, -33488.59053714163, -1065.2841407399346, 9317.570545383758, 0.056, 0.974, -0.256, 192.0, 0.0, 0.0, 0.0, 0.0, 0.0, 0.0, 0.0, 0.0, 0.0, 1.695758230602525E9, 0.0, 2023-09-26 14:57:10.602
206.0, -154918.30914238803, -134549.1644202667, -25615.769698115553, -26946.90548740691, -24055.640286879574, -19963.43820851305, -187500.02235174447, -28707.55239815145, -14704.184496901573, -9157.912034739498, -973.4855262619885, -39262.090833436356, -29966.40264587434, -33511.545778697226, -1030.2813089229237, 9352.014583589385, 0.056, 0.974, -0.256, 192.0, 0.0, 0.0, 0.0, 0.0, 0.0, 0.0, 0.0, 0.0, 0.0, 1.695758230602534E9, 0.0, 2023-09-26 14:57:10.602
208.0, -154989.99118685618, -134628.1331334273, -25612.551046913988, -26939.730577436756, -24049.113577498625, -19957.939679377043, -187500.02235174447, -28701.651537615246, -14702.441060834059, -9195.664131124513, -975.6089419852427, -39273.020836475, -29966.64851506335, -33502.98506057085, -1030.527178111932, 9330.914536823575, 0.056, 0.974, -0.256, 192.0, 0.0, 0.0, 0.0, 0.0, 0.0, 0.0, 0.0, 0.0, 0.0, 1.695758230602577E9, 0.0, 2023-09-26 14:57:10.602
210.0, -154906.19449689324, -134535.9992427825, -25610.941721313207, -26944.111519349997, -24057.18255724699, -19965.986307380954, -187500.02235174447, -28709.027613285496, -14698.395395087648, -9167.389174388549, -973.016139628427, -39260.50385958003, -29965.866204007412, -33501.80041811471, -1024.8051315313735, 9341.889243351132, 0.056, 0.974, -0.256, 192.0, 0.0, 0.0, 0.0, 0.0, 0.0, 0.0, 0.0, 0.0, 0.0, 1.69575823066204E9, 0.0, 2023-09-26 14:57:10.662
212.0, -154983.10684956395, -134624.10981942533, -25604.884398565817, -26933.04740584462, -24052.734560100387, -19951.27885952936, -187500.02235174447, -28696.175360223697, -14697.501325309435, -9200.849735838145, -962.3990610121562, -39256.547600811435, -29957.1713754143, -33502.806246615204, -1016.4232273606334, 9326.46653967697, 0.06, 0.98, -0.254, 192.0, 0.5, 112.0, 15.0, 80.0, 124.0, 8.0, 0.0, 0.0, 0.0, 1.695758230662076E9, 0.0, 2023-09-26 14:57:10.662
214.0, -154918.28679064356, -134554.03710055794, -25593.6414711048, -26923.61496968448, -24043.883269296082, -19951.23415604045, -187500.02235174447, -28692.889653788767, -14682.838580946755, -9185.583494375169, -993.4232823161224, -39282.34151391286, -29946.39783458684, -33485.550699895706, -1041.1666084726583, 9334.22259500296, 0.06, 0.98, -0.254, 192.0, 0.0, 0.0, 0.0, 0.0, 0.0, 0.0, 0.0, 0.0, 0.0, 1.695758230662087E9, 0.0, 2023-09-26 14:57:10.662
216.0, -154985.27496877612, -134633.51990384102, -25596.5919013729, -26923.972597595766, -24048.219507720412, -19943.70161815901, -187500.02235174447, -28688.6204705978, -14693.120383396195, -9210.036302809274, -961.7955639118629, -39259.47567933508, -29938.77588972758, -33484.544871395214, -1023.1734541861362, 9331.138054268129, 0.06, 0.98, -0.254, 192.0, 0.0, 0.0, 0.0, 0.0, 0.0, 0.0, 0.0, 0.0, 0.0, 1.695758230662096E9, 0.0, 2023-09-26 14:57:10.662
218.0, -154908.34026436094, -134543.68824287513, -25598.737668840608, -26931.885115132944, -24043.816214062717, -19959.72781893347, -187500.02235174447, -28697.695278846655, -14690.102897894729, -9199.553334659737, -990.6069625147537, -39284.55433661394, -29948.92358171029, -33491.92094706547, -1040.92073928365, 9337.128321782151, 0.06, 0.98, -0.254, 192.0, 0.0, 0.0, 0.0, 0.0, 0.0, 0.0, 0.0, 0.0, 0.0, 1.695758230662105E9, 0.0, 2023-09-26 14:57:10.662
220.0, -154989.32063452253, -134634.70454629714, -25586.377154156824, -26921.8044783836, -24038.965885515918, -19942.740493147434, -187500.02235174447, -28684.798322295945, -14681.631586746167, -9203.91192482852, -961.9967296119606, -39258.67101653469, -29944.92261945279, -33484.43311267294, -1025.6097943317645, 9332.61326940218, 0.06, 0.98, -0.254, 192.0, 0.0, 0.0, 0.0, 0.0, 0.0, 0.0, 0.0, 0.0, 0.0, 1.695758230662114E9, 0.0, 2023-09-26 14:57:10.662
222.0, -154913.90584873033, -134552.5618854239, -25588.321755924437, -26930.722824421267, -24046.967810030917, -19961.359496278703, -187500.02235174447, -28700.39983992575, -14678.725859966979, -9189.070366510197, -1006.0296661889156, -39300.669944366215, -29943.760328741115, -33487.29413596322, -1053.9071028121832, 9332.635621146634, 0.062, 0.98, -0.256, 192.0, 0.5, 120.0, 15.0, 80.0, 124.0, 0.0, 0.0, 0.0, 0.0, 1.695758230662123E9, 0.0, 2023-09-26 14:57:10.662
224.0, -154965.7395441222, -134616.39846758824, -25582.376191899326, -26924.576094696058, -24043.123309984603, -19941.17587103556, -187500.02235174447, -28687.7711043085, -14679.597578000734, -9182.990692018353, -938.505046189433, -39230.686632476645, -29946.889572964858, -33494.8043221002, -1002.0734074203262, 9345.465522463981, 0.062, 0.98, -0.256, 192.0, 0.0, 0.0, 0.0, 0.0, 0.0, 0.0, 0.0, 0.0, 0.0, 1.695758230662132E9, 0.0, 2023-09-26 14:57:10.662
226.0, -154946.24882295716, -134587.05062711844, -25570.283898149002, -26907.856989843487, -24033.579115102188, -19940.19239427953, -187500.02235174447, -28683.30075541744, -14657.37994401216, -9191.372596189094, -1019.3289541398233, -39317.6796218967, -29929.20934310071, -33474.17366196796, -1065.30649248439, 9327.382961199637, 0.062, 0.98, -0.256, 192.0, 0.0, 0.0, 0.0, 0.0, 0.0, 0.0, 0.0, 0.0, 0.0, 1.695758230722367E9, 0.0, 2023-09-26 14:57:10.722
228.0, -154968.06412554553, -134623.6851362807, -25581.6385843323, -26913.71314689078, -24033.579115102188, -19940.013580323885, -187500.02235174447, -28690.118037476306, -14660.688002191544, -9174.228808191874, -960.0968313332596, -39254.312426365905, -29931.891552435347, -33472.78785381173, -1025.0510007203818, 9347.968917842974, 0.062, 0.98, -0.256, 192.0, 0.0, 0.0, 0.0, 0.0, 0.0, 0.0, 0.0, 0.0, 0.0, 1.69575823072239E9, 0.0, 2023-09-26 14:57:10.722
230.0, -154948.43929391378, -134591.49862426505, -25583.113799466348, -26907.74523112121, -24040.284638438778, -19945.176833293062, -187500.02235174447, -28690.9227002767, -14674.635490731656, -9208.695198141957, -1021.9217564966389, -39320.13831378679, -29939.11116589441, -33474.30777243469, -1064.0994982838033, 9327.539423410824, 0.062, 0.98, -0.256, 192.0, 0.0, 0.0, 0.0, 0.0, 0.0, 0.0, 0.0, 0.0, 0.0, 1.69575823072243E9, 0.0, 2023-09-26 14:57:10.722
232.0, -154943.85718630042, -134595.8572144338, -25598.178875229227, -26921.737423150233, -24054.165071745527, -19948.61900193918, -187500.02235174447, -28698.9246247917, -14683.844409447243, -9195.48531716887, -942.2154357690139, -39233.57000751138, -29950.287038122064, -33483.092008005624, -1005.9626109555496, 9353.825074890265, 0.06, 0.984, -0.258, 192.0, 0.5, 112.0, 15.0, 96.0, 123.5, 120.0, 0.0, 0.0, 0.0, 1.69575823072244E9, 0.0, 2023-09-26 14:57:10.722
234.0, -154972.51212269213, -134615.63850827678, -25578.53169185301, -26899.94447230631, -24040.083472738683, -19935.587934921736, -187500.02235174447, -28681.937299005665, -14681.877455935177, -9225.950744861453, -1018.2560704059686, -39320.16066553124, -29945.526116553083, -33469.21157469888, -1064.010091305982, 9321.213879729972, 0.06, 0.984, -0.258, 192.0, 0.0, 0.0, 0.0, 0.0, 0.0, 0.0, 0.0, 0.0, 0.0, 1.69575823072245E9, 0.0, 2023-09-26 14:57:10.722
236.0, -154972.35566048094, -134624.53450257, -25571.647354560777, -26901.486742673726, -24028.773490044296, -19929.776481363355, -187500.02235174447, -28673.62245006829, -14668.153484839617, -9189.00331127683, -962.6896336900752, -39254.044205432445, -29927.68942447775, -33466.328199664145, -1031.0412682344042, 9354.585034201746, 0.06, 0.984, -0.258, 192.0, 0.0, 0.0, 0.0, 0.0, 0.0, 0.0, 0.0, 0.0, 0.0, 1.695758230722459E9, 0.0, 2023-09-26 14:57:10.722
238.0, -154972.62388141442, -134616.532578055, -25580.11866570934, -26915.18836202483, -24040.061120994225, -19950.965935106986, -187500.02235174447, -28689.559243864926, -14676.133057610163, -9217.233564523884, -1024.112227453259, -39327.49203771258, -29935.73605248166, -33473.659571845485, -1070.4697454535658, 9332.456807190993, 0.06, 0.984, -0.258, 192.0, 0.0, 0.0, 0.0, 0.0, 0.0, 0.0, 0.0, 0.0, 0.0, 1.695758230722468E9, 0.0, 2023-09-26 14:57:10.722
240.0, -154935.8105582965, -134587.38590328526, -25579.336354653402, -26921.446850472315, -24041.134004728083, -19943.6569146701, -187500.02235174447, -28687.94991826414, -14678.837618689255, -9183.638892607558, -942.3718979802011, -39230.93250166565, -29945.369654341896, -33482.42145567196, -1007.2143086450469, 9363.972766872976, 0.06, 0.984, -0.258, 192.0, 0.0, 0.0, 0.0, 0.0, 0.0, 0.0, 0.0, 0.0, 0.0, 1.695758230782549E9, 0.0, 2023-09-26 14:57:10.782
242.0, -155001.21176257276, -134649.85902903785, -25563.06428468994, -26901.106763017986, -24032.81915579071, -19931.56462091978, -187500.02235174447, -28676.90815650322, -14662.051458603319, -9211.846794110155, -1026.593271087798, -39332.23060753711, -29924.1131453649, -33460.4943943613, -1078.8963531132167, 9321.03506577433, 0.058, 0.982, -0.256, 192.0, 0.5, 104.0, 15.0, 88.0, 124.0, 0.0, 0.0, 0.0, 0.0, 1.695758230782585E9, 0.0, 2023-09-26 14:57:10.782
244.0, -154941.19732871026, -134589.0622841194, -25575.603613329367, -26914.048423057608, -24045.447891407955, -19941.04176056883, -187500.02235174447, -28689.514540376014, -14671.841522674744, -9166.696270310435, -957.9734156100054, -39250.04324317494, -29933.143250124846, -33474.710103834885, -1028.2249484330355, 9359.815342404288, 0.058, 0.982, -0.256, 192.0, 0.0, 0.0, 0.0, 0.0, 0.0, 0.0, 0.0, 0.0, 0.0, 1.695758230782605E9, 0.0, 2023-09-26 14:57:10.782
246.0, -155000.74237593918, -134646.50626736955, -25561.76788351153, -26888.679193100834, -24041.04459775026, -19927.161327262085, -187500.02235174447, -28673.667153557202, -14658.989269612941, -9197.34051195866, -1018.9266227396278, -39328.81079063544, -29919.44163077374, -33454.66058905847, -1081.8467833813172, 9323.516109408869, 0.058, 0.982, -0.256, 192.0, 0.0, 0.0, 0.0, 0.0, 0.0, 0.0, 0.0, 0.0, 0.0, 1.695758230782622E9, 0.0, 2023-09-26 14:57:10.782
