%OpenBCI Raw EXG Data
%Number of channels = 16
%Sample Rate = 125 Hz
%Board = OpenBCI_GUI$BoardCytonSerialDaisy
Sample Index, EXG Channel 0, EXG Channel 1, EXG Channel 2, EXG Channel 3, EXG Channel 4, EXG Channel 5, EXG Channel 6, EXG Channel 7, EXG Channel 8, EXG Channel 9, EXG Channel 10, EXG Channel 11, EXG Channel 12, EXG Channel 13, EXG Channel 14, EXG Channel 15, Accel Channel 0, Accel Channel 1, Accel Channel 2, Other, Other, Other, Other, Other, Other, Other, Analog Channel 0, Analog Channel 1, Analog Channel 2, Timestamp, Other, Timestamp (Formatted)
102.0, -4901.737559048839, 19633.30294290816, -90022.12018038276, -10694.54976255295, 28783.101294410386, 25897.804009652617, -187500.02235174447, 52413.834919194574, 19326.569953747985, -26764.403493929327, -13239.340572278568, 13425.396493124545, 7898.033606771662, -187500.02235174447, -5859.755678147755, -24469.9745738476, 0.0, 0.0, 0.0, 192.0, 0.0, 0.0, 0.0, 0.0, 0.0, 0.0, 0.0, 0.0, 0.0, 1.6959348335728123E9, 0.0, 2023-09-28 16:00:33.572
104.0, -4821.1818720319125, 19717.054929382197, -90663.07880438314, -10660.06102085841, 28856.057388312507, 25771.024915102116, -187500.02235174447, 51948.82922754637, 19371.675774058793, -26747.304409421016, -13225.147214549448, 13269.336613337591, 7905.432034186368, -187500.02235174447, -5827.926794043397, -24440.380864188777, 0.014, 1.012, 0.14, 192.0, 0.0, 56.0, 15.5, 80.0, 2.0, 48.0, 0.0, 0.0, 0.0, 1.6959348335728347E9, 0.0, 2023-09-28 16:00:33.572
106.0, -4932.515911163797, 19626.17273642692, -90012.66539247816, -10692.49340206306, 28765.801044201977, 25920.33456806357, -187500.02235174447, 52414.14784361695, 19319.61856122238, -26761.229546216673, -13238.535909478178, 13406.978655693372, 7895.4631561593005, -187500.02235174447, -5899.78765246721, -24516.063870914444, 0.014, 1.012, 0.14, 192.0, 0.0, 0.0, 0.0, 0.0, 0.0, 0.0, 0.0, 0.0, 0.0, 1.6959348335728517E9, 0.0, 2023-09-28 16:00:33.572
108.0, -4828.803816891172, 19699.061775095677, -90622.95742308587, -10667.01241338401, 28851.788205121542, 25757.39035098438, -187500.02235174447, 51950.6620705917, 19351.35803834892, -26763.53177589557, -13248.683601460887, 13275.125715151515, 7887.3047694331135, -187500.02235174447, -5776.964816685298, -24387.474285063065, 0.014, 1.012, 0.14, 192.0, 0.0, 0.0, 0.0, 0.0, 0.0, 0.0, 0.0, 0.0, 0.0, 1.6959348335728676E9, 0.0, 2023-09-28 16:00:33.572
110.0, -4934.304050720221, 19602.323425093105, -90031.97729968754, -10680.44581180165, 28776.038143162506, 25938.327722350088, -187500.02235174447, 52398.50162249823, 19318.76919493308, -26749.070197232988, -13242.693333946865, 13396.182763121458, 7891.842173557541, -187500.02235174447, -5960.964377041385, -24573.083171019935, 0.014, 1.012, 0.14, 192.0, 0.0, 0.0, 0.0, 0.0, 0.0, 0.0, 0.0, 0.0, 0.0, 1.695934833572884E9, 0.0, 2023-09-28 16:00:33.572
112.0, -4853.681308469929, 19694.837295393623, -90547.69909950484, -10678.009471656022, 28865.847452383932, 25739.06192053103, -187500.02235174447, 51992.25866702302, 19342.46204405571, -26777.322802224495, -13265.380354569, 13286.614511801543, 7870.518609347178, -187500.02235174447, -5725.84637711601, -24328.37627272323, 0.014, 1.012, 0.14, 192.0, 0.0, 0.0, 0.0, 0.0, 0.0, 0.0, 0.0, 0.0, 0.0, 1.6959348335729015E9, 0.0, 2023-09-28 16:00:33.572
114.0, -4943.110638035612, 19594.746183722757, -90076.23375370905, -10669.404050040728, 28781.447265320694, 25939.914696206415, -187500.02235174447, 52368.75145062822, 19338.751654476127, -26755.708665336213, -13239.04999960065, 13371.528788987254, 7898.994731783239, -187500.02235174447, -5997.978865859373, -24607.080174336457, 0.014, 1.002, 0.138, 192.0, 0.0, 56.0, 15.5, 40.0, 2.0, 40.0, 0.0, 0.0, 0.0, 1.6959348335729172E9, 0.0, 2023-09-28 16:00:33.572
116.0, -4858.084602127624, 19684.980176088833, -90467.38928167692, -10695.44383233116, 28843.205135250704, 25715.27966443058, -187500.02235174447, 52034.14583613227, 19311.77309891857, -26800.121581568907, -13313.458956892367, 13284.938130967395, 7860.393269108924, -187500.02235174447, -5692.922257533343, -24286.958490247547, 0.014, 1.002, 0.138, 192.0, 0.0, 0.0, 0.0, 0.0, 0.0, 0.0, 0.0, 0.0, 0.0, 1.6959348335729332E9, 0.0, 2023-09-28 16:00:33.572
118.0, -4931.465379174398, 19622.17177416942, -90160.3880715833, -10645.979421851567, 28788.421009590747, 25949.57064981111, -187500.02235174447, 52306.12186266445, 19354.934317461768, -26732.01581621359, -13203.153098005427, 13362.096352827115, 7937.171511312904, -187500.02235174447, -6041.609471036133, -24646.843927722446, 0.014, 1.002, 0.138, 192.0, 0.0, 0.0, 0.0, 0.0, 0.0, 0.0, 0.0, 0.0, 0.0, 1.6959348335729487E9, 0.0, 2023-09-28 16:00:33.572
120.0, -4863.2702068412555, 19681.672117909446, -90403.59740300148, -10697.880172476789, 28851.63174291036, 25731.819955327508, -187500.02235174447, 52076.54709536399, 19307.839191894436, -26810.470439251716, -13277.696165763875, 13314.844765048596, 7862.963719721284, -187500.02235174447, -5691.827022055033, -24285.393868135678, 0.014, 1.002, 0.138, 192.0, 0.0, 0.0, 0.0, 0.0, 0.0, 0.0, 0.0, 0.0, 0.0, 1.6959348335729644E9, 0.0, 2023-09-28 16:00:33.572
122.0, -4917.853166801116, 19621.50122183576, -90220.98365080162, -10639.72093340408, 28792.8466549929, 25943.31216136362, -187500.02235174447, 52265.911074389354, 19366.333707133974, -26730.42884235726, -13209.411586452912, 13339.521090927255, 7917.010237814216, -187500.02235174447, -6066.241093425881, -24671.184977434277, 0.014, 1.002, 0.138, 192.0, 0.0, 0.0, 0.0, 0.0, 0.0, 0.0, 0.0, 0.0, 0.0, 1.6959348335729797E9, 0.0, 2023-09-28 16:00:33.572
124.0, -4878.335282604133, 19659.812111832158, -90275.54425901703, -10717.728521553103, 28820.205190206194, 25730.210629726724, -187500.02235174447, 52159.33795682645, 19281.57589215945, -26814.20318057575, -13287.776802513219, 13328.524032655245, 7819.601335477989, -187500.02235174447, -5658.031184438609, -24249.04993165135, 0.008, 1.004, 0.14200000000000002, 192.0, 0.0, 32.0, 15.5, 48.0, 2.0, 56.0, 0.0, 0.0, 0.0, 1.6959348335729969E9, 0.0, 2023-09-28 16:00:33.572
126.0, -4933.49938791983, 19610.280646119198, -90259.92038964276, -10649.801570153424, 28797.384059117325, 25922.726204720286, -187500.02235174447, 52227.24255648167, 19355.627221539882, -26746.58915359845, -13217.70408364583, 13304.764128299252, 7928.789607142164, -187500.02235174447, -6039.307241357236, -24645.92750619978, 0.008, 1.004, 0.14200000000000002, 192.0, 0.0, 0.0, 0.0, 0.0, 0.0, 0.0, 0.0, 0.0, 0.0, 1.6959348335730119E9, 0.0, 2023-09-28 16:00:33.573
128.0, -4882.805631495194, 19639.427320888917, -90167.67474027572, -10719.963695998633, 28823.04386175202, 25747.980266568695, -187500.02235174447, 52225.96850704772, 19285.95683407269, -26843.21574487874, -13293.990587471795, 13335.609535647576, 7835.73929497472, -187500.02235174447, -5633.39956204886, -24223.054852849826, 0.008, 1.004, 0.14200000000000002, 192.0, 0.0, 0.0, 0.0, 0.0, 0.0, 0.0, 0.0, 0.0, 0.0, 1.6959348335730271E9, 0.0, 2023-09-28 16:00:33.573
130.0, -4921.6753151029725, 19614.192201398873, -90331.24480619965, -10642.000811338523, 28819.266416939074, 25902.83315215506, -187500.02235174447, 52163.80830571751, 19383.902178275846, -26749.651342588826, -13209.948028319839, 13292.269503148736, 7930.957726354329, -187500.02235174447, -6026.209119106426, -24622.30171231052, 0.008, 1.004, 0.14200000000000002, 192.0, 0.0, 0.0, 0.0, 0.0, 0.0, 0.0, 0.0, 0.0, 0.0, 1.6959348335730424E9, 0.0, 2023-09-28 16:00:33.573
132.0, -4909.068931230179, 19626.88799224949, -90067.11424197129, -10721.774187299514, 28813.767887803067, 25768.990906356685, -187500.02235174447, 52280.26089432966, 19283.140514271323, -26828.195372604772, -13301.098442208582, 13360.799951648707, 7859.432144097346, -187500.02235174447, -5648.039954667086, -24226.161745329115, 0.008, 1.004, 0.14200000000000002, 192.0, 0.0, 0.0, 0.0, 0.0, 0.0, 0.0, 0.0, 0.0, 0.0, 1.695934833573058E9, 0.0, 2023-09-28 16:00:33.573
134.0, -4899.278867158755, 19623.60228581456, -90379.01048410064, -10640.592651437837, 28828.698853099213, 25878.447398954322, -187500.02235174447, 52110.54409868051, 19378.291890417564, -26756.133348480864, -13207.33287421857, 13271.14710463847, 7929.013124586717, -187500.02235174447, -6006.7183979413985, -24596.418392231273, 0.006, 1.0, 0.14, 192.0, 0.0, 24.0, 15.5, 32.0, 2.0, 48.0, 0.0, 0.0, 0.0, 1.69593483357308E9, 0.0, 2023-09-28 16:00:33.573
136.0, -4909.270096930278, 19618.774309012213, -89960.31760696383, -10723.428216389206, 28812.627948835845, 25781.10555185146, -187500.02235174447, 52340.38708691444, 19264.543862884508, -26834.096233140976, -13301.791346286696, 13361.06817258217, 7834.107617629483, -187500.02235174447, -5638.8310359515, -24214.181210301067, 0.006, 1.0, 0.14, 192.0, 0.0, 0.0, 0.0, 0.0, 0.0, 0.0, 0.0, 0.0, 0.0, 1.6959348335730953E9, 0.0, 2023-09-28 16:00:33.573
138.0, -4881.866858228071, 19649.32914368262, -90439.13667668542, -10634.602383923815, 28845.37325446287, 25857.190889977326, -187500.02235174447, 52044.651156026266, 19408.712614621236, -26747.460871632204, -13229.975191351796, 13258.764238210231, 7896.89366780444, -187500.02235174447, -5977.750537127321, -24561.124987736344, 0.006, 1.0, 0.14, 192.0, 0.0, 0.0, 0.0, 0.0, 0.0, 0.0, 0.0, 0.0, 0.0, 1.6959348335731134E9, 0.0, 2023-09-28 16:00:33.573
140.0, -4935.4663414318975, 19623.155250925454, -89898.87266145619, -10708.78782377098, 28798.903977740287, 25825.943151228807, -187500.02235174447, 52380.95550310081, 19268.90245305329, -26823.45680278025, -13273.248168617269, 13389.36548106259, 7850.156170148393, -187500.02235174447, -5688.4519086422815, -24261.164577146123, 0.006, 1.0, 0.14, 192.0, 0.0, 0.0, 0.0, 0.0, 0.0, 0.0, 0.0, 0.0, 0.0, 1.6959348335731287E9, 0.0, 2023-09-28 16:00:33.573
142.0, -4882.135079161534, 19670.31743172615, -90474.31832245807, -10627.785101864947, 28854.872745856377, 25836.20260193379, -187500.02235174447, 51997.8242513924, 19375.54262584956, -26748.734921066156, -13206.483507929268, 13262.139351622982, 7945.262842805725, -187500.02235174447, -5930.02956271524, -24512.71110924615, 0.006, 1.0, 0.14, 192.0, 0.0, 0.0, 0.0, 0.0, 0.0, 0.0, 0.0, 0.0, 0.0, 1.695934833573145E9, 0.0, 2023-09-28 16:00:33.573
144.0, -4919.484844146353, 19611.912323464432, -89856.09142256873, -10699.221277144108, 28791.058515436474, 25860.07426501206, -187500.02235174447, 52398.92630564288, 19282.224092748653, -26791.337345997974, -13255.210310841836, 13408.900905716528, 7874.206647182304, -187500.02235174447, -5727.5451096946135, -24305.890417801194, 0.006, 1.012, 0.136, 192.0, 0.0, 24.0, 15.5, 80.0, 2.0, 32.0, 0.0, 0.0, 0.0, 1.6959348335731604E9, 0.0, 2023-09-28 16:00:33.573
146.0, -4857.726974216339, 19674.27369049474, -90489.38339822095, -10645.755904407013, 28862.025304082075, 25811.77214524414, -187500.02235174447, 51964.29663470944, 19386.047945743554, -26757.317990936994, -13214.865412100007, 13250.114113106027, 7927.873185619496, -187500.02235174447, -5881.21335282485, -24467.381771490785, 0.006, 1.012, 0.136, 192.0, 0.0, 0.0, 0.0, 0.0, 0.0, 0.0, 0.0, 0.0, 0.0, 1.6959348335731757E9, 0.0, 2023-09-28 16:00:33.573
148.0, -4920.468320902386, 19613.767518254223, -89838.72411712696, -10693.856858474834, 28802.592015575414, 25896.306442774112, -187500.02235174447, 52409.498680770244, 19308.554447717008, -26788.699840152247, -13248.303621805147, 13398.015606166793, 7886.388347910446, -187500.02235174447, -5782.284531865661, -24363.043828373415, 0.006, 1.012, 0.136, 192.0, 0.0, 0.0, 0.0, 0.0, 0.0, 0.0, 0.0, 0.0, 0.0, 1.6959348335731912E9, 0.0, 2023-09-28 16:00:33.573
150.0, -4859.2468928393, 19681.247434764795, -90502.19094779385, -10666.230102328074, 28875.928089133275, 25779.831502417506, -187500.02235174447, 51944.91767226669, 19372.815713026015, -26777.792188858057, -13235.518423976711, 13247.498959004755, 7893.987941025251, -187500.02235174447, -5845.741134374277, -24421.806564546416, 0.006, 1.012, 0.136, 192.0, 0.0, 0.0, 0.0, 0.0, 0.0, 0.0, 0.0, 0.0, 0.0, 1.6959348335732083E9, 0.0, 2023-09-28 16:00:33.573
152.0, -4922.144701736534, 19596.26610234572, -89837.6065299042, -10682.971558925099, 28809.118724956363, 25904.286015544658, -187500.02235174447, 52415.53365177318, 19326.34643630343, -26771.6678108773, -13259.121866121515, 13402.284789357756, 7908.628333643477, -187500.02235174447, -5849.093896042574, -24425.807526803917, 0.006, 1.012, 0.136, 192.0, 0.0, 0.0, 0.0, 0.0, 0.0, 0.0, 0.0, 0.0, 0.0, 1.695934833573224E9, 0.0, 2023-09-28 16:00:33.573
154.0, -4861.660881240473, 19678.27465275224, -90471.56905789007, -10664.151390093732, 28861.779434893066, 25758.77615914061, -187500.02235174447, 51943.04012573244, 19358.041209941057, -26778.44038944726, -13228.5223279622, 13268.420191814923, 7904.001522541228, -187500.02235174447, -5794.95797097182, -24372.029229644446, 0.01, 1.004, 0.14200000000000002, 192.0, 0.0, 40.0, 15.5, 48.0, 2.0, 56.0, 0.0, 0.0, 0.0, 1.6959348335732388E9, 0.0, 2023-09-28 16:00:33.573
156.0, -4932.73942860835, 19612.56052405364, -89831.05746877879, -10682.099840891344, 28783.9953641886, 25932.337454836066, -187500.02235174447, 52409.69984647034, 19315.595247220426, -26772.651287633336, -13240.256993801237, 13399.893152701039, 7914.350380224036, -187500.02235174447, -5891.4951552742905, -24470.734533159084, 0.01, 1.004, 0.14200000000000002, 192.0, 0.0, 0.0, 0.0, 0.0, 0.0, 0.0, 0.0, 0.0, 0.0, 1.6959348335732536E9, 0.0, 2023-09-28 16:00:33.573
158.0, -4851.356727046576, 19680.308661497675, -90436.87915049543, -10670.521637263493, 28872.28475478706, 25758.19501378477, -187500.02235174447, 51943.26364317699, 19352.78854999406, -26785.43648546177, -13244.682639203387, 13282.322976866124, 7899.844098072541, -187500.02235174447, -5738.2292435442505, -24312.75240334897, 0.01, 1.004, 0.14200000000000002, 192.0, 0.0, 0.0, 0.0, 0.0, 0.0, 0.0, 0.0, 0.0, 0.0, 1.6959348335732684E9, 0.0, 2023-09-28 16:00:33.573
160.0, -4917.249669700822, 19602.390480326474, -89910.13794066166, -10662.229140070574, 28790.544425314, 25960.65711506094, -187500.02235174447, 52356.2568254777, 19359.94110821976, -26751.95357226772, -13226.577726194588, 13409.951437705928, 7939.80901715863, -187500.02235174447, -5978.376385972069, -24561.795540070005, 0.01, 1.004, 0.14200000000000002, 192.0, 0.0, 0.0, 0.0, 0.0, 0.0, 0.0, 0.0, 0.0, 0.0, 1.6959348335732834E9, 0.0, 2023-09-28 16:00:33.573
162.0, -4843.734782187317, 19684.443734221906, -90375.83653638799, -10685.87728570429, 28846.781414363555, 25744.985132811682, -187500.02235174447, 51985.6201989198, 19349.122863903387, -26807.184732816786, -13255.120903864015, 13289.386128114002, 7888.288246189148, -187500.02235174447, -5726.22635677175, -24294.24515893998, 0.01, 1.004, 0.14200000000000002, 192.0, 0.0, 0.0, 0.0, 0.0, 0.0, 0.0, 0.0, 0.0, 0.0, 1.6959348335733E9, 0.0, 2023-09-28 16:00:33.573
164.0, -4916.176785966967, 19614.12514616551, -89932.80260953934, -10661.424477270184, 28777.513358296557, 25964.412208129434, -187500.02235174447, 52346.109133494996, 19365.774913522593, -26743.14698495233, -13216.117109789504, 13369.606538964099, 7934.466950233812, -187500.02235174447, -6005.913735141008, -24580.9509850682, 0.012, 1.0, 0.14200000000000002, 192.0, 0.0, 48.0, 15.5, 32.0, 2.0, 56.0, 0.0, 0.0, 0.0, 1.695934833573315E9, 0.0, 2023-09-28 16:00:33.573
166.0, -4856.385869549021, 19677.738210885313, -90287.0554074115, -10691.711091007124, 28841.238181738638, 25740.2242112427, -187500.02235174447, 52036.42571406671, 19331.688503228248, -26798.86988387941, -13265.134485379993, 13297.186886928903, 7872.396155881424, -187500.02235174447, -5684.607408595969, -24244.110196126723, 0.012, 1.0, 0.14200000000000002, 192.0, 0.0, 0.0, 0.0, 0.0, 0.0, 0.0, 0.0, 0.0, 0.0, 1.6959348335733316E9, 0.0, 2023-09-28 16:00:33.573
168.0, -4925.966850038391, 19615.22038164382, -89997.22033705954, -10647.275823029975, 28792.13139917033, 25968.86020527604, -187500.02235174447, 52297.80701372708, 19355.02372443959, -26748.399644899328, -13215.84888885604, 13346.137207286027, 7924.408665228923, -187500.02235174447, -6039.843683224164, -24608.220113303676, 0.012, 1.0, 0.14200000000000002, 192.0, 0.0, 0.0, 0.0, 0.0, 0.0, 0.0, 0.0, 0.0, 0.0, 1.6959348335733464E9, 0.0, 2023-09-28 16:00:33.573
170.0, -4861.951453918392, 19681.917987098455, -90201.64939184778, -10698.170745154708, 28839.695911371222, 25757.94914459576, -187500.02235174447, 52089.46640365916, 19342.774968478083, -26805.709517682735, -13288.91674148044, 13312.810756303163, 7912.673999389887, -187500.02235174447, -5668.69296654379, -24223.07720459428, 0.012, 1.0, 0.14200000000000002, 192.0, 0.0, 0.0, 0.0, 0.0, 0.0, 0.0, 0.0, 0.0, 0.0, 1.695934833573361E9, 0.0, 2023-09-28 16:00:33.573
172.0, -4895.791995023727, 19639.87435577802, -90086.09087301385, -10638.983325837056, 28795.953547472185, 25956.94672548136, -187500.02235174447, 52226.16967274781, 19369.59706182445, -26730.495897590627, -13189.697347843332, 13332.770864101753, 7943.966441627317, -187500.02235174447, -6062.798924779764, -24628.67195948028, 0.012, 1.0, 0.14200000000000002, 192.0, 0.0, 0.0, 0.0, 0.0, 0.0, 0.0, 0.0, 0.0, 0.0, 1.6959348335733764E9, 0.0, 2023-09-28 16:00:33.573
174.0, -4866.578265020641, 19660.102684510075, -90102.51940518849, -10705.54682082496, 28847.071987041472, 25763.939412109783, -187500.02235174447, 52148.519712510075, 19308.39798550582, -26811.185695074284, -13271.4823808053, 13343.477349695844, 7874.854847771508, -187500.02235174447, -5665.2060944087625, -24217.712785925007, 0.016, 0.994, 0.148, 192.0, 0.0, 64.0, 15.5, 8.0, 2.0, 80.0, 0.0, 0.0, 0.0, 1.6959348335733929E9, 0.0, 2023-09-28 16:00:33.573
176.0, -4896.596657824119, 19630.79954752917, -90159.6281122718, -10630.489662944039, 28825.837829808934, 25952.498728334755, -187500.02235174447, 52170.22325637618, 19387.679623088792, -26727.27724638906, -13204.22598173928, 13314.241267948302, 7921.458234960823, -187500.02235174447, -6067.9398260044845, -24634.103433382923, 0.016, 0.994, 0.148, 192.0, 0.0, 0.0, 0.0, 0.0, 0.0, 0.0, 0.0, 0.0, 0.0, 1.6959348335734081E9, 0.0, 2023-09-28 16:00:33.573
178.0, -4875.787183736227, 19661.51084441076, -90014.23001459004, -10702.372873112306, 28836.767832847578, 25787.3863920434, -187500.02235174447, 52202.47682362519, 19307.77213666107, -26791.516159953615, -13259.546549266166, 13367.483123240843, 7908.2036504988255, -187500.02235174447, -5664.624949052924, -24217.064585335804, 0.016, 0.994, 0.148, 192.0, 0.0, 0.0, 0.0, 0.0, 0.0, 0.0, 0.0, 0.0, 0.0, 1.695934833573424E9, 0.0, 2023-09-28 16:00:33.573
180.0, -4894.6744078009615, 19633.392349885984, -90219.5978426454, -10630.62377341077, 28832.051614767508, 25925.117841377003, -187500.02235174447, 52118.389560984324, 19390.40653591234, -26735.8603162599, -13199.889743314952, 13296.896314250984, 7960.864360435529, -187500.02235174447, -6051.019555451818, -24615.73029944066, 0.016, 0.994, 0.148, 192.0, 0.0, 0.0, 0.0, 0.0, 0.0, 0.0, 0.0, 0.0, 0.0, 1.6959348335734396E9, 0.0, 2023-09-28 16:00:33.573
182.0, -4884.191439651423, 19649.664419849447, -89904.214728381, -10714.085187206887, 28815.623082592858, 25809.87224696544, -187500.02235174447, 52273.935350648804, 19281.39707820381, -26822.45097427976, -13280.423078587422, 13370.232387808846, 7854.179484150349, -187500.02235174447, -5649.984556434698, -24202.021861317382, 0.016, 0.994, 0.148, 192.0, 0.0, 0.0, 0.0, 0.0, 0.0, 0.0, 0.0, 0.0, 0.0, 1.6959348335734549E9, 0.0, 2023-09-28 16:00:33.573
184.0, -4871.7191662453615, 19655.230004218818, -90293.80563423701, -10622.934773318146, 28849.37421672037, 25910.41039352541, -187500.02235174447, 52045.85815022685, 19375.54262584956, -26744.175165197274, -13188.13272573146, 13284.491096078289, 7968.039270405683, -187500.02235174447, -6018.318953313703, -24582.87323509136, 0.012, 0.996, 0.14400000000000002, 192.0, 0.0, 48.0, 15.5, 16.0, 2.0, 64.0, 0.0, 0.0, 0.0, 1.6959348335734699E9, 0.0, 2023-09-28 16:00:33.573
186.0, -4896.261381657288, 19631.626562074016, -89838.38884096013, -10712.051178461454, 28797.808742261976, 25832.626322820943, -187500.02235174447, 52321.38810412742, 19304.15115405931, -26789.459799463726, -13257.557244009644, 13398.596751522631, 7883.147344964426, -187500.02235174447, -5698.979580280731, -24253.76614973142, 0.012, 0.996, 0.14400000000000002, 192.0, 0.0, 0.0, 0.0, 0.0, 0.0, 0.0, 0.0, 0.0, 0.0, 1.695934833573485E9, 0.0, 2023-09-28 16:00:33.573
188.0, -4888.438271097931, 19650.446730905383, -90331.1777509663, -10641.017334582488, 28856.23620226815, 25870.64664013942, -187500.02235174447, 52014.8786324118, 19411.484230933696, -26756.423921158785, -13216.452385956334, 13257.132560864993, 7940.680735192387, -187500.02235174447, -5972.3190632246815, -24533.3417693784, 0.012, 0.996, 0.14400000000000002, 192.0, 0.0, 0.0, 0.0, 0.0, 0.0, 0.0, 0.0, 0.0, 0.0, 1.6959348335735013E9, 0.0, 2023-09-28 16:00:33.573
190.0, -4907.616067840585, 19607.061994917633, -89770.21602037144, -10716.45447211915, 28782.475445565637, 25848.719578828764, -187500.02235174447, 52360.68247087985, 19290.315424241475, -26819.58995098948, -13269.314261593136, 13385.811553694195, 7904.336798708057, -187500.02235174447, -5719.029095057142, -24271.938117973583, 0.012, 0.996, 0.14400000000000002, 192.0, 0.0, 0.0, 0.0, 0.0, 0.0, 0.0, 0.0, 0.0, 0.0, 1.695934833573517E9, 0.0, 2023-09-28 16:00:33.573
192.0, -4866.444154553909, 19655.006486774266, -90345.25934997313, -10652.30496553242, 28853.755158633612, 25831.240514664714, -187500.02235174447, 51977.461812193615, 19377.509579361627, -26758.927316537778, -13231.629220441488, 13245.710819448332, 7927.38144724148, -187500.02235174447, -5921.6029550555895, -24480.524597230506, 0.012, 0.996, 0.14400000000000002, 192.0, 0.0, 0.0, 0.0, 0.0, 0.0, 0.0, 0.0, 0.0, 0.0, 1.6959348335735338E9, 0.0, 2023-09-28 16:00:33.573
194.0, -4897.647189813518, 19613.99103569878, -89736.84486589968, -10699.288332377475, 28819.445230894715, 25885.93523334685, -187500.02235174447, 52375.12169779798, 19293.176447531754, -26795.852398377945, -13259.367735310523, 13396.026300910271, 7898.2794759606695, -187500.02235174447, -5761.408002544404, -24317.893304573692, 0.016, 0.996, 0.14400000000000002, 192.0, 0.0, 64.0, 15.5, 16.0, 2.0, 64.0, 0.0, 0.0, 0.0, 1.6959348335735502E9, 0.0, 2023-09-28 16:00:33.573
196.0, -4866.690023742917, 19663.231928733818, -90366.31469325002, -10661.491532503549, 28843.473356184168, 25807.614720775455, -187500.02235174447, 51939.10621870831, 19383.879826531393, -26770.214947487708, -13232.85856638653, 13241.5757467241, 7925.99563908525, -187500.02235174447, -5883.895562159487, -24443.93479155717, 0.016, 0.996, 0.14400000000000002, 192.0, 0.0, 0.0, 0.0, 0.0, 0.0, 0.0, 0.0, 0.0, 0.0, 1.6959348335735655E9, 0.0, 2023-09-28 16:00:33.573
198.0, -4906.565535851185, 19614.460422332337, -89690.66616185501, -10696.78493699848, 28806.458867366182, 25902.78844866615, -187500.02235174447, 52402.94961964484, 19309.225000050665, -26792.946671598755, -13257.62429924301, 13395.288693343246, 7874.0948884600275, -187500.02235174447, -5797.662532050912, -24351.62208695675, 0.016, 0.996, 0.14400000000000002, 192.0, 0.0, 0.0, 0.0, 0.0, 0.0, 0.0, 0.0, 0.0, 0.0, 1.6959348335735831E9, 0.0, 2023-09-28 16:00:33.573
200.0, -4832.469502981842, 19700.648748952004, -90361.88904784789, -10655.165988822699, 28873.75996992111, 25794.516598524642, -187500.02235174447, 51921.738913266534, 19391.99350976867, -26770.25965097662, -13224.297848260147, 13258.71953472132, 7928.85666237553, -187500.02235174447, -5811.118282213007, -24364.139063851722, 0.016, 0.996, 0.14400000000000002, 192.0, 0.0, 0.0, 0.0, 0.0, 0.0, 0.0, 0.0, 0.0, 0.0, 1.6959348335736E9, 0.0, 2023-09-28 16:00:33.573
202.0, -4942.775361868783, 19595.461439545328, -89705.39596145105, -10687.888942705267, 28793.85248349339, 25929.36467282351, -187500.02235174447, 52390.969084616794, 19310.052014595512, -26785.72705813969, -13234.110264076027, 13406.755138248818, 7921.704104149831, -187500.02235174447, -5856.089992057085, -24406.92030273918, 0.016, 0.996, 0.14400000000000002, 192.0, 0.0, 0.0, 0.0, 0.0, 0.0, 0.0, 0.0, 0.0, 0.0, 1.6959348335736156E9, 0.0, 2023-09-28 16:00:33.573
204.0, -4852.451962524887, 19696.60308320559, -90328.316727676, -10666.185398839165, 28872.016533853595, 25762.91123186484, -187500.02235174447, 51923.66116328969, 19360.008163453123, -26783.8718633499, -13228.388217495469, 13270.588311027088, 7920.318295993602, -187500.02235174447, -5762.257368833705, -24309.46669691404, 0.012, 1.006, 0.14, 192.0, 0.0, 48.0, 15.5, 56.0, 2.0, 48.0, 0.0, 0.0, 0.0, 1.6959348335736308E9, 0.0, 2023-09-28 16:00:33.573
206.0, -4912.488748131842, 19621.076538691108, -89741.80695316875, -10670.25341633003, 28813.723184314156, 25944.921486964406, -187500.02235174447, 52360.10132552402, 19340.897421943835, -26733.62514181437, -13217.927601090385, 13408.118594660593, 7931.203595543337, -187500.02235174447, -5915.925611963941, -24467.292364512967, 0.012, 1.006, 0.14, 192.0, 0.0, 0.0, 0.0, 0.0, 0.0, 0.0, 0.0, 0.0, 0.0, 1.6959348335736463E9, 0.0, 2023-09-28 16:00:33.573
208.0, -4838.392715262498, 19687.818847634655, -90282.18272712025, -10686.950169438145, 28862.561745949002, 25739.888935075873, -187500.02235174447, 51937.09456170733, 19353.883785472368, -26793.34900299895, -13241.888671146473, 13279.953691953862, 7892.915057291396, -187500.02235174447, -5728.617993428468, -24271.759304017938, 0.012, 1.006, 0.14, 192.0, 0.0, 0.0, 0.0, 0.0, 0.0, 0.0, 0.0, 0.0, 0.0, 1.695934833573661E9, 0.0, 2023-09-28 16:00:33.573
210.0, -4912.891079532037, 19598.36716632452, -89771.17714538303, -10671.125134363787, 28785.582338044926, 25943.401568341444, -187500.02235174447, 52322.23747041672, 19338.68459924276, -26755.529851380572, -13214.820708611096, 13388.113783373092, 7934.489301978267, -187500.02235174447, -5956.024641516762, -24510.09595514488, 0.012, 1.006, 0.14, 192.0, 0.0, 0.0, 0.0, 0.0, 0.0, 0.0, 0.0, 0.0, 0.0, 1.6959348335736952E9, 0.0, 2023-09-28 16:00:33.573
212.0, -4850.686174712918, 19666.249414235284, -90191.03231323151, -10704.049253946454, 28854.246897011628, 25733.250466972648, -187500.02235174447, 51982.62506516279, 19323.97715139117, -26795.830046633488, -13268.263729603736, 13293.051814204671, 7870.228036669259, -187500.02235174447, -5672.760984034656, -24215.5670184573, 0.012, 1.006, 0.14, 192.0, 0.0, 0.0, 0.0, 0.0, 0.0, 0.0, 0.0, 0.0, 0.0, 1.6959348335737116E9, 0.0, 2023-09-28 16:00:33.573
214.0, -4921.094169747134, 19610.392404841474, -89818.18286397253, -10657.132942334765, 28803.284919653528, 25955.784434769685, -187500.02235174447, 52286.96641766625, 19357.05773318502, -26758.882613048867, -13220.118072047004, 13351.367515488568, 7925.5709559406, -187500.02235174447, -5961.970205541874, -24513.247551113076, 0.01, 1.002, 0.14, 192.0, 0.0, 40.0, 15.5, 40.0, 2.0, 48.0, 0.0, 0.0, 0.0, 1.6959348335737283E9, 0.0, 2023-09-28 16:00:33.573
216.0, -4853.636604981018, 19672.55260617168, -90119.05969608542, -10702.104652178843, 28855.073911556472, 25746.66151364583, -187500.02235174447, 52008.46368175312, 19334.236602096153, -26793.48311346568, -13249.823540428108, 13314.487137137312, 7897.184240482359, -187500.02235174447, -5651.459771568749, -24193.282329235357, 0.01, 1.002, 0.14, 192.0, 0.0, 0.0, 0.0, 0.0, 0.0, 0.0, 0.0, 0.0, 0.0, 1.6959348335737445E9, 0.0, 2023-09-28 16:00:33.573
218.0, -4933.678201875473, 19586.9230731634, -89870.3071320423, -10664.330204049375, 28785.627041533833, 25954.488033591275, -187500.02235174447, 52239.60307116545, 19360.946936720247, -26768.76208409811, -13215.401853966934, 13329.30634371118, 7930.935374609873, -187500.02235174447, -6000.772833916287, -24555.42529290024, 0.01, 1.002, 0.14, 192.0, 0.0, 0.0, 0.0, 0.0, 0.0, 0.0, 0.0, 0.0, 0.0, 1.6959348335737603E9, 0.0, 2023-09-28 16:00:33.573
220.0, -4848.987442134314, 19663.65661187847, -89998.56144172687, -10707.469070848116, 28834.89028631333, 25751.645952659364, -187500.02235174447, 52076.32357791944, 19310.923732629268, -26812.59385497497, -13286.212180401348, 13321.93026804093, 7868.08226920155, -187500.02235174447, -5603.627038434392, -24143.460290844476, 0.01, 1.002, 0.14, 192.0, 0.0, 0.0, 0.0, 0.0, 0.0, 0.0, 0.0, 0.0, 0.0, 1.695934833573776E9, 0.0, 2023-09-28 16:00:33.573
222.0, -4916.445006900431, 19598.523628535706, -89932.04265022787, -10642.269032271986, 28815.89130352632, 25952.722245779307, -187500.02235174447, 52178.33693961346, 19365.05965770002, -26754.85929904691, -13213.814880110607, 13314.755358070775, 7950.135523096982, -187500.02235174447, -5997.9118106260075, -24548.96563875266, 0.01, 1.002, 0.14, 192.0, 0.0, 0.0, 0.0, 0.0, 0.0, 0.0, 0.0, 0.0, 0.0, 1.6959348335738015E9, 0.0, 2023-09-28 16:00:33.573
224.0, -4872.72499474585, 19668.059905536164, -89914.89886223065, -10697.813117243424, 28850.223583009672, 25779.47387450622, -187500.02235174447, 52117.87547086185, 19329.05099738252, -26810.582197973992, -13287.463878090844, 13343.387942718024, 7890.434013656857, -187500.02235174447, -5592.2500005066395, -24131.613866283165, 0.01, 0.998, 0.14400000000000002, 192.0, 0.0, 40.0, 15.5, 24.0, 2.0, 64.0, 0.0, 0.0, 0.0, 1.695934833573828E9, 0.0, 2023-09-28 16:00:33.573
0.0, -2386.987493871152, 9831.99594402265, -41355.97990226506, -5311.802662825902, 14388.46610647036, 12952.187711261238, -93750.01117587223, 25794.67306073583, 9710.424805930234, -13360.710544670887, -6578.58777983043, 6618.440940194242, 3978.4093473445596, -93750.01117587223, -2991.0657395202807, -12267.57613033964, 0.012, 1.004, 0.138, 192.0, 0.0, 48.0, 15.5, 48.0, 2.0, 40.0, 0.0, 0.0, 0.0, 1.6959348341369307E9, 0.0, 2023-09-28 16:00:34.136
2.0, -4742.123751893491, 19691.864513381068, -83286.0643608647, -10566.675432524138, 28812.27032092456, 25912.913788904407, -187500.02235174447, 51222.509291471164, 19385.936187021278, -26786.24114826216, -13190.591417621545, 13341.73391362833, 8004.271448167736, -187500.02235174447, -5647.235291866696, -23413.586427400878, 0.012, 1.004, 0.138, 192.0, 0.0, 0.0, 0.0, 0.0, 0.0, 0.0, 0.0, 0.0, 0.0, 1.6959348341370144E9, 0.0, 2023-09-28 16:00:34.137
4.0, -4813.515223683742, 19639.539079611193, -82599.48582643102, -10624.901726830212, 28747.047930603974, 25992.41894393193, -187500.02235174447, 51694.04169250032, 19264.14153148431, -26829.7823464611, -13223.85081337104, 13478.414830972533, 7957.668060978421, -187500.02235174447, -5545.244281917129, -23309.963740106075, 0.012, 1.004, 0.138, 192.0, 0.0, 0.0, 0.0, 0.0, 0.0, 0.0, 0.0, 0.0, 0.0, 1.6959348341370485E9, 0.0, 2023-09-28 16:00:34.137
6.0, -4757.9040834789375, 19707.175458332953, -83262.08093906414, -10586.747299045002, 28800.93798648572, 25860.945983045815, -187500.02235174447, 51205.61137266295, 19370.334669391475, -26798.556959457037, -13192.5136676447, 13330.558041400676, 8003.86911676754, -187500.02235174447, -5577.4531456772265, -23338.95395266461, 0.012, 1.004, 0.138, 192.0, 0.0, 0.0, 0.0, 0.0, 0.0, 0.0, 0.0, 0.0, 0.0, 1.6959348341370769E9, 0.0, 2023-09-28 16:00:34.137
8.0, -4814.319886484133, 19600.22236111431, -82581.71618958905, -10626.734569875547, 28741.862325890343, 25986.540435140185, -187500.02235174447, 51669.65593929958, 19302.027738336055, -26829.82704995001, -13243.00625836924, 13466.568406411221, 7976.979968187806, -187500.02235174447, -5597.435605220271, -23357.640011029245, 0.014, 1.0, 0.132, 192.0, 0.0, 56.0, 15.5, 32.0, 2.0, 16.0, 0.0, 0.0, 0.0, 1.6959348341371055E9, 0.0, 2023-09-28 16:00:34.137
10.0, -4743.800132727639, 19705.56613273217, -83219.43381064342, -10582.90279899869, 28824.675539097258, 25870.423122694865, -187500.02235174447, 51212.875689610926, 19347.558241791518, -26794.891273366367, -13206.461156184812, 13326.892355310007, 7974.945959442372, -187500.02235174447, -5513.66126700178, -23268.434198908115, 0.014, 1.0, 0.132, 192.0, 0.0, 0.0, 0.0, 0.0, 0.0, 0.0, 0.0, 0.0, 0.0, 1.6959348341371324E9, 0.0, 2023-09-28 16:00:34.137
12.0, -4829.720238413839, 19612.381710097994, -82609.03002131343, -10603.041720752923, 28755.966276641644, 26041.123395100047, -187500.02235174447, 51666.70550903148, 19307.570970960973, -26806.983567116687, -13192.625426366976, 13472.133990780592, 7976.711747254342, -187500.02235174447, -5654.678422770313, -23413.429965189694, 0.014, 1.0, 0.132, 192.0, 0.0, 0.0, 0.0, 0.0, 0.0, 0.0, 0.0, 0.0, 0.0, 1.695934834137157E9, 0.0, 2023-09-28 16:00:34.137
14.0, -4728.3774290534775, 19718.731310216346, -83191.78470275221, -10592.37993864774, 28834.80087933551, 25847.333770672532, -187500.02235174447, 51218.64243968039, 19341.88089869987, -26824.328520814004, -13201.610827638011, 13359.414143492479, 7978.76810774423, -187500.02235174447, -5490.393101023806, -23238.92989622711, 0.014, 1.0, 0.132, 192.0, 0.0, 0.0, 0.0, 0.0, 0.0, 0.0, 0.0, 0.0, 0.0, 1.6959348341371808E9, 0.0, 2023-09-28 16:00:34.137
16.0, -4815.169252773435, 19637.281553421206, -82653.1076613793, -10599.95718001809, 28744.052796846965, 26049.102967870593, -187500.02235174447, 51637.80470345077, 19333.96838116269, -26790.21975877521, -13179.37084190498, 13470.368202968622, 8012.452186638378, -187500.02235174447, -5713.642324643412, -23467.655297238267, 0.014, 1.0, 0.132, 192.0, 0.0, 0.0, 0.0, 0.0, 0.0, 0.0, 0.0, 0.0, 0.0, 1.6959348341372054E9, 0.0, 2023-09-28 16:00:34.137
18.0, -4728.869167431494, 19701.31930128566, -83081.63530607645, -10612.362398190786, 28804.60367257639, 25834.056834466082, -187500.02235174447, 51284.40127186791, 19342.64085801135, -26833.828012207512, -13219.693388902353, 13366.007908106794, 7958.517427267722, -187500.02235174447, -5425.863614781334, -23167.940755837055, 0.018000000000000002, 0.994, 0.13, 192.0, 0.0, 72.0, 15.5, 8.0, 2.0, 8.0, 0.0, 0.0, 0.0, 1.6959348341372292E9, 0.0, 2023-09-28 16:00:34.137
20.0, -4806.139148013491, 19630.46427136234, -82695.30775491093, -10577.985415218523, 28737.056700832454, 26052.232212094335, -187500.02235174447, 51592.49771743986, 19329.520384016083, -26784.184787772276, -13174.095830213528, 13453.626746371598, 7992.916761984439, -187500.02235174447, -5714.379932210438, -23469.912823428254, 0.018000000000000002, 0.994, 0.13, 192.0, 0.0, 0.0, 0.0, 0.0, 0.0, 0.0, 0.0, 0.0, 0.0, 1.6959348341372552E9, 0.0, 2023-09-28 16:00:34.137
22.0, -4726.075199374581, 19718.79836544971, -83039.05523288909, -10598.52666837295, 28824.116745485873, 25847.333770672532, -187500.02235174447, 51283.73071953425, 19310.566104717982, -26815.946616643265, -13204.94123756185, 13403.156507391514, 7966.4299448049005, -187500.02235174447, -5417.347600143862, -23159.715313877503, 0.018000000000000002, 0.994, 0.13, 192.0, 0.0, 0.0, 0.0, 0.0, 0.0, 0.0, 0.0, 0.0, 0.0, 1.6959348341372828E9, 0.0, 2023-09-28 16:00:34.137
24.0, -4814.744569628784, 19635.35930339805, -82766.67687495671, -10572.822162249347, 28749.350160282873, 26048.14184285901, -187500.02235174447, 51533.48911207785, 19353.839081983457, -26765.074046262987, -13161.020059707173, 13440.036885742771, 8014.888526784007, -187500.02235174447, -5779.110584153007, -23532.765928836576, 0.018000000000000002, 0.994, 0.13, 192.0, 0.0, 0.0, 0.0, 0.0, 0.0, 0.0, 0.0, 0.0, 0.0, 1.695934834137319E9, 0.0, 2023-09-28 16:00:34.137
26.0, -4744.828312972583, 19694.52437097125, -82930.31399611403, -10624.991133808033, 28789.35978285787, 25830.614665819965, -187500.02235174447, 51352.97642385679, 19310.364939017887, -26831.369320317426, -13233.283249531181, 13408.386815594056, 7958.897406923463, -187500.02235174447, -5397.3651406008175, -23131.328598419263, 0.018000000000000002, 0.994, 0.13, 192.0, 0.0, 0.0, 0.0, 0.0, 0.0, 0.0, 0.0, 0.0, 0.0, 1.6959348341373503E9, 0.0, 2023-09-28 16:00:34.137
28.0, -4801.042950277681, 19631.090120207085, -82824.34437565142, -10564.842589478802, 28757.821471431434, 26045.325523057643, -187500.02235174447, 51488.22682955585, 19366.26665190061, -26765.945764296743, -13157.488484083235, 13416.478147086877, 8023.672762354942, -187500.02235174447, -5784.832630733566, -23530.731920091144, 0.02, 1.008, 0.136, 192.0, 0.0, 80.0, 15.5, 64.0, 2.0, 32.0, 0.0, 0.0, 0.0, 1.6959348341373773E9, 0.0, 2023-09-28 16:00:34.137
30.0, -4751.064449675614, 19693.384432004026, -82819.11406744887, -10634.177700779164, 28794.523035827046, 25864.388151691932, -187500.02235174447, 51425.396075891986, 19290.8518661084, -26860.89597474289, -13243.520348491711, 13418.959190721416, 7929.303697264636, -187500.02235174447, -5375.192210101153, -23101.801943993803, 0.02, 1.008, 0.136, 192.0, 0.0, 0.0, 0.0, 0.0, 0.0, 0.0, 0.0, 0.0, 0.0, 1.6959348341374028E9, 0.0, 2023-09-28 16:00:34.137
32.0, -4788.391862915977, 19654.201823973875, -82909.30335632603, -10560.260481865464, 28770.472558793135, 26045.01259863527, -187500.02235174447, 51425.19491019189, 19374.06741071551, -26748.131423965864, -13168.88787375544, 13390.036033396249, 8019.805910564174, -187500.02235174447, -5789.794718002644, -23530.687216602233, 0.02, 1.008, 0.136, 192.0, 0.0, 0.0, 0.0, 0.0, 0.0, 0.0, 0.0, 0.0, 0.0, 1.6959348341374304E9, 0.0, 2023-09-28 16:00:34.137
34.0, -4777.931246510893, 19653.285402451205, -82718.88884531127, -10645.510035218005, 28765.26460233505, 25893.80304739512, -187500.02235174447, 51491.71370169088, 19266.689630352215, -26846.50145131367, -13248.124807849505, 13443.23318519988, 7959.232683090292, -187500.02235174447, -5399.332094112885, -23121.516182603384, 0.02, 1.008, 0.136, 192.0, 0.0, 0.0, 0.0, 0.0, 0.0, 0.0, 0.0, 0.0, 0.0, 1.6959348341374605E9, 0.0, 2023-09-28 16:00:34.137
36.0, -4784.055624491647, 19661.756713599767, -82967.5296506321, -10557.444162064096, 28778.921518197243, 26026.684168181917, -187500.02235174447, 51370.25432232074, 19398.721384849716, -26780.809674359523, -13187.4621733978, 13355.301422512703, 8023.002210021283, -187500.02235174447, -5761.564464755591, -23500.713527287666, 0.02, 1.008, 0.136, 192.0, 0.0, 0.0, 0.0, 0.0, 0.0, 0.0, 0.0, 0.0, 0.0, 1.6959348341374972E9, 0.0, 2023-09-28 16:00:34.137
38.0, -4793.778633329705, 19655.811149574656, -82622.64223368673, -10643.140750305743, 28753.485233007104, 25907.057631857115, -187500.02235174447, 51547.727173295876, 19277.373764201853, -26840.60059077747, -13236.546604221656, 13455.101961505648, 7955.634052232987, -187500.02235174447, -5400.002646446544, -23126.701787317015, 0.026000000000000002, 1.008, 0.14, 192.0, 0.0, 104.0, 15.5, 64.0, 2.0, 48.0, 0.0, 0.0, 0.0, 1.695934834137528E9, 0.0, 2023-09-28 16:00:34.137
40.0, -4782.759223313239, 19665.60121364608, -83012.9483953653, -10566.51897031295, 28790.432666591725, 25985.46755140633, -187500.02235174447, 51317.526557150675, 19383.946881764758, -26767.420979430794, -13170.541902845134, 13352.038067822226, 8021.884622798518, -187500.02235174447, -5737.2904702771275, -23480.954585189174, 0.026000000000000002, 1.008, 0.14, 192.0, 0.0, 0.0, 0.0, 0.0, 0.0, 0.0, 0.0, 0.0, 0.0, 1.695934834137554E9, 0.0, 2023-09-28 16:00:34.137
42.0, -4794.516240896731, 19658.627469376024, -82542.17595364762, -10647.879320130269, 28743.292837535482, 25923.732033220775, -187500.02235174447, 51589.56963891621, 19283.319328226964, -26855.50920432916, -13256.014973642228, 13464.512045921332, 7962.652499991954, -187500.02235174447, -5411.647905307759, -23141.96802877999, 0.026000000000000002, 1.008, 0.14, 192.0, 0.0, 0.0, 0.0, 0.0, 0.0, 0.0, 0.0, 0.0, 0.0, 1.6959348341375806E9, 0.0, 2023-09-28 16:00:34.137
44.0, -4742.973118182793, 19704.873228654054, -83076.360294385, -10560.796923732392, 28796.46763759466, 25963.115806951024, -187500.02235174447, 51248.97375690625, 19380.191788696266, -26784.095380794453, -13171.637138323444, 13339.007000804782, 8034.625117138043, -187500.02235174447, -5694.486879645215, -23434.39590148877, 0.026000000000000002, 1.008, 0.14, 192.0, 0.0, 0.0, 0.0, 0.0, 0.0, 0.0, 0.0, 0.0, 0.0, 1.6959348341376083E9, 0.0, 2023-09-28 16:00:34.137
46.0, -4784.167383213924, 19647.83157680411, -82514.5268457564, -10632.948354834123, 28731.468764718626, 25961.461777861332, -187500.02235174447, 51606.40050249106, 19287.186180017732, -26823.903837669353, -13216.497089445245, 13494.642197447087, 7987.686453781897, -187500.02235174447, -5482.078252086431, -23217.44986980556, 0.026000000000000002, 1.008, 0.14, 192.0, 0.0, 0.0, 0.0, 0.0, 0.0, 0.0, 0.0, 0.0, 0.0, 1.6959348341376483E9, 0.0, 2023-09-28 16:00:34.137
48.0, -4766.80007777215, 19672.46319919386, -83071.5546693271, -10579.415926863663, 28793.070172437452, 25933.969132181304, -187500.02235174447, 51241.1953498358, 19363.02564895459, -26801.909721125332, -13188.5127053872, 13338.045875793205, 7991.061567194649, -187500.02235174447, -5654.030222181109, -23398.85662780483, 0.022, 1.004, 0.14, 192.0, 0.0, 88.0, 15.5, 48.0, 2.0, 48.0, 0.0, 0.0, 0.0, 1.6959348341376772E9, 0.0, 2023-09-28 16:00:34.137
50.0, -4808.106101525557, 19647.004562259266, -82430.43958311553, -10631.24962225552, 28736.564962454435, 25985.378144428512, -187500.02235174447, 51666.10201193119, 19280.704174125694, -26833.895067440877, -13231.539813463667, 13480.3817844846, 7954.583520243588, -187500.02235174447, -5473.115202559853, -23212.376023814206, 0.022, 1.004, 0.14, 192.0, 0.0, 0.0, 0.0, 0.0, 0.0, 0.0, 0.0, 0.0, 0.0, 1.6959348341377056E9, 0.0, 2023-09-28 16:00:34.137
52.0, -4760.899217235949, 19679.034612063722, -83073.29810539461, -10591.821145036358, 28792.22080614815, 25897.379326507966, -187500.02235174447, 51221.816387393046, 19376.660213072326, -26792.745505898656, -13200.694406115343, 13333.664933879965, 8000.806927777163, -187500.02235174447, -5581.901142823833, -23321.206667567098, 0.022, 1.004, 0.14, 192.0, 0.0, 0.0, 0.0, 0.0, 0.0, 0.0, 0.0, 0.0, 0.0, 1.6959348341377316E9, 0.0, 2023-09-28 16:00:34.137
54.0, -4824.780502889216, 19625.144556181975, -82398.78951296682, -10640.994982838034, 28721.656348902747, 25986.495731651277, -187500.02235174447, 51684.676311573545, 19295.925712099757, -26832.039872651087, -13238.37944726699, 13472.513970436332, 7962.741906969775, -187500.02235174447, -5513.080121645942, -23245.680123052614, 0.022, 1.004, 0.14, 192.0, 0.0, 0.0, 0.0, 0.0, 0.0, 0.0, 0.0, 0.0, 0.0, 1.6959348341377592E9, 0.0, 2023-09-28 16:00:34.137
56.0, -4739.687411747863, 19724.18513586344, -83057.38366334244, -10584.601531577293, 28816.383041904337, 25871.719523873275, -187500.02235174447, 51213.09920705548, 19352.29681161604, -26800.25569203564, -13195.061766512605, 13337.442378692911, 8016.095520984593, -187500.02235174447, -5515.918793191766, -23245.97069573053, 0.022, 1.004, 0.14, 192.0, 0.0, 0.0, 0.0, 0.0, 0.0, 0.0, 0.0, 0.0, 0.0, 1.695934834137786E9, 0.0, 2023-09-28 16:00:34.137
58.0, -4811.838842849594, 19628.765538783737, -82419.33076612125, -10617.548002904416, 28732.943979852676, 26016.134144799013, -187500.02235174447, 51669.5441805773, 19304.844058137423, -26795.651232677847, -13203.957760805817, 13485.790906642784, 7992.089747439593, -187500.02235174447, -5580.358872456417, -23311.260141284485, 0.026000000000000002, 1.008, 0.13, 192.0, 0.0, 104.0, 15.5, 64.0, 2.0, 8.0, 0.0, 0.0, 0.0, 1.6959348341378148E9, 0.0, 2023-09-28 16:00:34.137
60.0, -4726.835158686061, 19696.692490183414, -83037.91529392186, -10606.327427187853, 28797.540521328512, 25841.432910136333, -187500.02235174447, 51201.90098308337, 19356.07425642899, -26813.867904408922, -13203.264856727703, 13344.505529940789, 7985.406575847456, -187500.02235174447, -5492.740034191613, -23216.60050351626, 0.026000000000000002, 1.008, 0.13, 192.0, 0.0, 0.0, 0.0, 0.0, 0.0, 0.0, 0.0, 0.0, 0.0, 1.6959348341378467E9, 0.0, 2023-09-28 16:00:34.137
62.0, -4826.881566868015, 19606.056166417144, -82422.21414115599, -10620.520784916973, 28728.74185189508, 26024.493697225298, -187500.02235174447, 51664.895017730596, 19313.717700686182, -26831.369320317426, -13219.536926691168, 13451.5256823928, 7997.8341457646075, -187500.02235174447, -5634.338335315983, -23365.127845421775, 0.026000000000000002, 1.008, 0.13, 192.0, 0.0, 0.0, 0.0, 0.0, 0.0, 0.0, 0.0, 0.0, 0.0, 1.6959348341378837E9, 0.0, 2023-09-28 16:00:34.137
64.0, -4749.2763101191895, 19699.24058905132, -82953.76097604763, -10614.932848803146, 28790.522073569548, 25828.26773265216, -187500.02235174447, 51236.56853873355, 19326.0111601366, -26818.852343422455, -13256.126732364504, 13342.225652006347, 7942.759447426731, -187500.02235174447, -5416.677047810203, -23135.642485099135, 0.026000000000000002, 1.008, 0.13, 192.0, 0.0, 0.0, 0.0, 0.0, 0.0, 0.0, 0.0, 0.0, 0.0, 1.6959348341379132E9, 0.0, 2023-09-28 16:00:34.137
66.0, -4816.465653951843, 19634.822861531124, -82479.14403428364, -10591.642331080715, 28743.11402357984, 26047.136014358523, -187500.02235174447, 51608.8815461256, 19333.811918951502, -26774.59588940095, -13171.838304023542, 13459.684069118986, 8018.77773031923, -187500.02235174447, -5695.045673256597, -23421.700110638158, 0.026000000000000002, 1.008, 0.13, 192.0, 0.0, 0.0, 0.0, 0.0, 0.0, 0.0, 0.0, 0.0, 0.0, 1.6959348341379395E9, 0.0, 2023-09-28 16:00:34.137
68.0, -4737.675754746885, 19705.65553970999, -82886.57163221498, -10623.225345996065, 28817.187704704727, 25829.92176174185, -187500.02235174447, 51266.832800726035, 19323.01602637959, -26836.84549770898, -13237.418322255413, 13365.449114495412, 7969.223912861814, -187500.02235174447, -5394.213544632619, -23109.937978975533, 0.024, 1.002, 0.128, 192.0, 0.0, 96.0, 15.5, 40.0, 2.0, 0.0, 0.0, 0.0, 0.0, 1.6959348341379783E9, 0.0, 2023-09-28 16:00:34.137
70.0, -4801.937020055892, 19634.197012686374, -82522.41701154913, -10587.194333934109, 28751.004189372565, 26059.161252875478, -187500.02235174447, 51575.73390909838, 19358.152968663333, -26788.141046540863, -13187.261007697703, 13432.28083041678, 8024.566832133154, -187500.02235174447, -5711.161281008874, -23438.30745676845, 0.024, 1.002, 0.128, 192.0, 0.0, 0.0, 0.0, 0.0, 0.0, 0.0, 0.0, 0.0, 0.0, 1.695934834138013E9, 0.0, 2023-09-28 16:00:34.138
72.0, -4745.252996117234, 19700.26876929626, -82813.63789005732, -10621.81718609538, 28805.341280143417, 25843.82454679305, -187500.02235174447, 51315.3137344496, 19296.52920920005, -26833.53743952959, -13240.10053159005, 13387.063251383694, 7957.3327848115905, -187500.02235174447, -5369.336053053863, -23076.410362292572, 0.024, 1.002, 0.128, 192.0, 0.0, 0.0, 0.0, 0.0, 0.0, 0.0, 0.0, 0.0, 0.0, 1.6959348341380377E9, 0.0, 2023-09-28 16:00:34.138
74.0, -4814.029313806214, 19633.012370230244, -82616.58491093933, -10570.788153503914, 28755.720407452634, 26061.48583429883, -187500.02235174447, 51513.23843160134, 19368.50182634614, -26774.864110334413, -13161.89177774093, 13425.75412103583, 8014.754416317274, -187500.02235174447, -5765.297206079627, -23481.871006711845, 0.024, 1.002, 0.128, 192.0, 0.0, 0.0, 0.0, 0.0, 0.0, 0.0, 0.0, 0.0, 0.0, 1.6959348341380656E9, 0.0, 2023-09-28 16:00:34.138
76.0, -4750.103324664035, 19691.88686512552, -82723.98504304708, -10627.919212331679, 28795.238291649617, 25848.652523595396, -187500.02235174447, 51363.168819328406, 19310.230828551154, -26837.40429132036, -13225.169566293904, 13412.566591807199, 7965.982909915795, -187500.02235174447, -5367.458506519617, -23067.223795321443, 0.024, 1.002, 0.128, 192.0, 0.0, 0.0, 0.0, 0.0, 0.0, 0.0, 0.0, 0.0, 0.0, 1.6959348341380908E9, 0.0, 2023-09-28 16:00:34.138
78.0, -4785.284970436689, 19643.65180059097, -82694.83836827736, -10563.143856900198, 28759.654314476767, 26042.732720700827, -187500.02235174447, 51447.90428255848, 19376.280233416586, -26777.63572664687, -13165.736277787242, 13396.540391032744, 8036.904995072484, -187500.02235174447, -5776.718947496289, -23490.69994577169, 0.016, 1.006, 0.122, 192.0, 0.0, 64.0, 15.5, 56.0, 1.5, 104.0, 0.0, 0.0, 0.0, 1.6959348341381168E9, 0.0, 2023-09-28 16:00:34.138
80.0, -4753.076106676592, 19698.637091951026, -82632.2534838025, -10632.367209478285, 28779.03327691952, 25861.102445257, -187500.02235174447, 51416.589488576596, 19294.875180110357, -26828.59770400497, -13238.021819355705, 13427.095225703148, 7966.698165738365, -187500.02235174447, -5376.689776979659, -23074.242243080407, 0.016, 1.006, 0.122, 192.0, 0.0, 0.0, 0.0, 0.0, 0.0, 0.0, 0.0, 0.0, 0.0, 1.6959348341381423E9, 0.0, 2023-09-28 16:00:34.138
82.0, -4783.854458791549, 19660.259146721262, -82766.85568891236, -10555.410153318662, 28767.186852358205, 26027.2429617933, -187500.02235174447, 51388.67215975191, 19382.27050093061, -26778.932127825276, -13150.715905513276, 13385.36451880509, 8031.764093847763, -187500.02235174447, -5778.931770197364, -23493.60567255088, 0.016, 1.006, 0.122, 192.0, 0.0, 0.0, 0.0, 0.0, 0.0, 0.0, 0.0, 0.0, 0.0, 1.6959348341381693E9, 0.0, 2023-09-28 16:00:34.138
84.0, -4759.982795713281, 19668.28342298072, -82546.26632288293, -10631.093160044333, 28773.8923756948, 25882.157788533903, -187500.02235174447, 51479.8002218962, 19273.484560666628, -26845.89795421338, -13240.972249623806, 13446.4741881459, 7939.674906691898, -187500.02235174447, -5383.708224738625, -23082.177112362042, 0.016, 1.006, 0.122, 192.0, 0.0, 0.0, 0.0, 0.0, 0.0, 0.0, 0.0, 0.0, 0.0, 1.6959348341381977E9, 0.0, 2023-09-28 16:00:34.138
86.0, -4777.081880221592, 19662.382562444516, -82834.29090193401, -10552.683240495115, 28781.246099620595, 26005.80763886066, -187500.02235174447, 51335.38560097046, 19404.89046631938, -26771.10901726592, -13177.51564711519, 13364.331527272645, 8018.330695430124, -187500.02235174447, -5757.339985053538, -23471.723314729134, 0.016, 1.006, 0.122, 192.0, 0.0, 0.0, 0.0, 0.0, 0.0, 0.0, 0.0, 0.0, 0.0, 1.6959348341382344E9, 0.0, 2023-09-28 16:00:34.138
88.0, -4775.539609854175, 19652.011353017253, -82461.9108393086, -10626.354590219808, 28756.234497575108, 25904.64364345594, -187500.02235174447, 51541.9157197375, 19292.90822659829, -26834.722081985725, -13243.632107213987, 13465.71904012192, 7960.976119157805, -187500.02235174447, -5404.9423819711665, -23108.52981907485, 0.024, 1.01, 0.128, 192.0, 0.0, 96.0, 15.5, 72.0, 2.0, 0.0, 0.0, 0.0, 0.0, 1.6959348341382673E9, 0.0, 2023-09-28 16:00:34.138
90.0, -4761.033327702681, 19672.17262651594, -82873.69702740872, -10549.978679416023, 28774.182948372716, 25972.883519277995, -187500.02235174447, 51293.900763261416, 19364.25499489963, -26774.215909745206, -13161.154170173904, 13355.234367279336, 7997.655331808965, -187500.02235174447, -5717.643286900912, -23435.938171856185, 0.024, 1.01, 0.128, 192.0, 0.0, 0.0, 0.0, 0.0, 0.0, 0.0, 0.0, 0.0, 0.0, 1.6959348341383E9, 0.0, 2023-09-28 16:00:34.138
92.0, -4776.076051721103, 19669.021030547745, -82393.17922510854, -10613.122357502265, 28772.148939627285, 25944.630914286485, -187500.02235174447, 51587.78149935979, 19274.222168233653, -26832.777480218112, -13223.873165115496, 13483.309863008246, 7967.793401216674, -187500.02235174447, -5412.989009975077, -23122.61141808169, 0.024, 1.01, 0.128, 192.0, 0.0, 0.0, 0.0, 0.0, 0.0, 0.0, 0.0, 0.0, 0.0, 1.6959348341383283E9, 0.0, 2023-09-28 16:00:34.138
94.0, -4753.3219758656, 19687.818847634655, -82953.44805162527, -10545.262461335953, 28805.676556310245, 25955.538565580675, -187500.02235174447, 51234.869806154944, 19406.56684715353, -26753.24997344613, -13156.728524771754, 13362.096352827115, 8026.690247856409, -187500.02235174447, -5697.750234335689, -23415.195753001663, 0.024, 1.01, 0.128, 192.0, 0.0, 0.0, 0.0, 0.0, 0.0, 0.0, 0.0, 0.0, 0.0, 1.6959348341383572E9, 0.0, 2023-09-28 16:00:34.138
96.0, -4785.597894859064, 19655.632335619015, -82357.12586130212, -10622.465386684584, 28743.471651491127, 25957.460815603834, -187500.02235174447, 51623.67840095501, 19286.895607339815, -26829.22355284972, -13220.14042379146, 13493.703424179963, 7964.552398270655, -187500.02235174447, -5483.732281176124, -23189.73370668098, 0.024, 1.01, 0.128, 192.0, 0.0, 0.0, 0.0, 0.0, 0.0, 0.0, 0.0, 0.0, 0.0, 1.6959348341383867E9, 0.0, 2023-09-28 16:00:34.138
98.0, -4750.840932231061, 19708.248342066807, -82958.76776680563, -10569.737621514514, 28789.583300302424, 25911.170352836893, -187500.02235174447, 51221.16818680384, 19396.329748193, -26786.48701745117, -13186.433993152858, 13338.694076382408, 8025.818529822652, -187500.02235174447, -5643.726067987212, -23352.789682482446, 0.014, 1.008, 0.124, 192.0, 0.0, 56.0, 15.5, 64.0, 1.5, 112.0, 0.0, 0.0, 0.0, 1.6959348341384149E9, 0.0, 2023-09-28 16:00:34.138
100.0, -4802.138185755991, 19632.69944580787, -82299.19013967397, -10621.839537839835, 28742.175250312717, 25977.42092340242, -187500.02235174447, 51664.87266598614, 19283.788714860526, -26825.91549467033, -13205.768252106698, 13493.993996857882, 7977.62816877701, -187500.02235174447, -5510.822595455957, -23213.717128481523, 0.014, 1.008, 0.124, 192.0, 0.0, 0.0, 0.0, 0.0, 0.0, 0.0, 0.0, 0.0, 0.0, 1.6959348341384616E9, 0.0, 2023-09-28 16:00:34.138
102.0, -4732.870129688994, 19709.678853711946, -82962.2322871962, -10565.647252279194, 28803.84371326491, 25896.59701545203, -187500.02235174447, 51197.631799892406, 19391.322957435008, -26792.097305309453, -13165.17748417586, 13348.081809053638, 8008.875907525529, -187500.02235174447, -5593.278180751584, -23296.28447249943, 0.014, 1.008, 0.124, 192.0, 0.0, 0.0, 0.0, 0.0, 0.0, 0.0, 0.0, 0.0, 0.0, 1.6959348341384957E9, 0.0, 2023-09-28 16:00:34.138
104.0, -4805.245078235278, 19623.89285849248, -82297.98314547338, -10614.284648213941, 28737.25786653255, 26011.19440927439, -187500.02235174447, 51659.79881999479, 19318.053939110512, -26803.273177537107, -13206.751728862731, 13497.279703292812, 7984.490154324789, -187500.02235174447, -5574.793288087045, -23280.593547891804, 0.014, 1.008, 0.124, 192.0, 0.0, 0.0, 0.0, 0.0, 0.0, 0.0, 0.0, 0.0, 0.0, 1.6959348341385255E9, 0.0, 2023-09-28 16:00:34.138
106.0, -4728.310373820112, 19688.1988272904, -82936.34896711695, -10593.050490981399, 28802.346146386404, 25874.49114018573, -187500.02235174447, 51195.173108002324, 19370.44642811375, -26804.63663394888, -13202.28137997167, 13343.566756673665, 7996.649503308476, -187500.02235174447, -5548.418229629783, -23254.017323734442, 0.014, 1.008, 0.124, 192.0, 0.0, 0.0, 0.0, 0.0, 0.0, 0.0, 0.0, 0.0, 0.0, 1.6959348341385543E9, 0.0, 2023-09-28 16:00:34.138
108.0, -4802.540517156186, 19630.866602762533, -82322.50300914086, -10597.789060805924, 28740.49886947857, 26042.039816622713, -187500.02235174447, 51636.441247038994, 19302.117145313878, -26799.65219493535, -13187.953911775818, 13490.305959022757, 7997.342407386591, -187500.02235174447, -5632.863120181933, -23345.413606812195, 0.022, 1.006, 0.116, 192.0, 0.0, 88.0, 15.5, 56.0, 1.5, 80.0, 0.0, 0.0, 0.0, 1.695934834138578E9, 0.0, 2023-09-28 16:00:34.138
110.0, -4748.56105429662, 19691.216312791865, -82883.97882985817, -10612.63061912425, 28790.99146020311, 25838.68364556833, -187500.02235174447, 51215.736712901205, 19348.45231156973, -26827.301302826563, -13212.697292887842, 13352.462750966877, 7984.356043858057, -187500.02235174447, -5495.176374337241, -23202.921235909613, 0.022, 1.006, 0.116, 192.0, 0.0, 0.0, 0.0, 0.0, 0.0, 0.0, 0.0, 0.0, 0.0, 1.6959348341386204E9, 0.0, 2023-09-28 16:00:34.138
112.0, -4817.449130707876, 19619.400157856962, -82310.74599155737, -10602.460575397085, 28735.000340342565, 26038.24002006531, -187500.02235174447, 51650.209921623464, 19311.482526240652, -26790.085648308475, -13202.862525327508, 13465.160246510535, 7994.034349207205, -187500.02235174447, -5656.533617560103, -23374.67204030419, 0.022, 1.006, 0.116, 192.0, 0.0, 0.0, 0.0, 0.0, 0.0, 0.0, 0.0, 0.0, 0.0, 1.6959348341386435E9, 0.0, 2023-09-28 16:00:34.138
114.0, -4716.642763214441, 19709.27652231175, -82815.71660229166, -10594.726871815548, 28827.51421064308, 25852.809948064085, -187500.02235174447, 51250.113695873464, 19339.265744598597, -26842.74635824518, -13224.789586638164, 13364.666803439475, 7964.0830116370935, -187500.02235174447, -5422.622611835314, -23134.703711832015, 0.022, 1.006, 0.116, 192.0, 0.0, 0.0, 0.0, 0.0, 0.0, 0.0, 0.0, 0.0, 0.0, 1.6959348341386673E9, 0.0, 2023-09-28 16:00:34.138
116.0, -4816.935040585404, 19631.760672540746, -82369.441672497, -10572.978624460535, 28754.35695104086, 26059.4518255534, -187500.02235174447, 51606.71342691343, 19331.509689272607, -26779.043886547555, -13187.596283864534, 13465.964909310927, 8011.87104128254, -187500.02235174447, -5704.589868139014, -23428.472689208116, 0.022, 1.006, 0.116, 192.0, 0.0, 0.0, 0.0, 0.0, 0.0, 0.0, 0.0, 0.0, 0.0, 1.695934834138692E9, 0.0, 2023-09-28 16:00:34.138
118.0, -4720.5096150052095, 19718.99953114981, -82743.6322264233, -10591.195296191609, 28814.7513645591, 25841.008226991682, -187500.02235174447, 51285.29534164612, 19342.797320222537, -26825.714328970236, -13236.323086777102, 13393.679367742465, 7984.937189213895, -187500.02235174447, -5403.1765941591975, -23118.453993613006, 0.024, 1.008, 0.12, 192.0, 0.0, 96.0, 15.5, 64.0, 1.5, 96.0, 0.0, 0.0, 0.0, 1.6959348341387148E9, 0.0, 2023-09-28 16:00:34.138
120.0, -4810.363627715544, 19634.152309197463, -82408.15489389359, -10562.450952822084, 28735.24620953157, 26058.82597670865, -187500.02235174447, 51582.17121150151, 19365.149064677844, -26756.468624647692, -13161.578853318555, 13461.449856930954, 8032.747570603797, -187500.02235174447, -5739.324479022561, -23469.64460249479, 0.024, 1.008, 0.12, 192.0, 0.0, 0.0, 0.0, 0.0, 0.0, 0.0, 0.0, 0.0, 0.0, 1.6959348346172085E9, 0.0, 2023-09-28 16:00:34.617
122.0, -4747.465818818309, 19706.169629832464, -82617.43427722863, -10618.106796515798, 28784.621213033344, 25832.06752920956, -187500.02235174447, 51361.492438494264, 19290.315424241475, -26836.35375933096, -13225.728359905286, 13406.732786504363, 7951.700145208853, -187500.02235174447, -5343.72095390808, -23052.69516142549, 0.024, 1.008, 0.12, 192.0, 0.0, 0.0, 0.0, 0.0, 0.0, 0.0, 0.0, 0.0, 0.0, 1.6959348346172512E9, 0.0, 2023-09-28 16:00:34.617
124.0, -4794.069206007624, 19633.30294290816, -82471.47738593548, -10561.489827810507, 28746.936171881698, 26050.10879637108, -187500.02235174447, 51524.10137940662, 19366.400762367342, -26780.7202673817, -13156.728524771754, 13425.418844869, 8019.627096608531, -187500.02235174447, -5737.916319121876, -23456.233555821607, 0.024, 1.008, 0.12, 192.0, 0.0, 0.0, 0.0, 0.0, 0.0, 0.0, 0.0, 0.0, 0.0, 1.695934834617267E9, 0.0, 2023-09-28 16:00:34.617
126.0, -4747.108190907024, 19680.308661497675, -82534.88928495518, -10629.707351888102, 28775.255832106574, 25835.129718199936, -187500.02235174447, 51404.02780819271, 19305.894590126823, -26832.218686606728, -13227.292982017158, 13425.240030913357, 7951.543682997666, -187500.02235174447, -5340.122323050777, -23042.793338631793, 0.024, 1.008, 0.12, 192.0, 0.0, 0.0, 0.0, 0.0, 0.0, 0.0, 0.0, 0.0, 0.0, 1.695934834617279E9, 0.0, 2023-09-28 16:00:34.617
128.0, -4784.659121591941, 19648.390370415495, -82554.1788404201, -10565.490790068006, 28774.406465817272, 26028.91934262745, -187500.02235174447, 51451.1452855045, 19393.40166966935, -26766.213985230206, -13159.880120739952, 13398.484992800355, 8017.213108207358, -187500.02235174447, -5764.984281657253, -23485.871968969343, 0.02, 1.0, 0.12, 192.0, 0.0, 80.0, 15.5, 32.0, 1.5, 96.0, 0.0, 0.0, 0.0, 1.6959348346172917E9, 0.0, 2023-09-28 16:00:34.617
130.0, -4764.006109715237, 19664.841254334602, -82430.68545230455, -10644.370096250785, 28769.26556459255, 25853.011113764183, -187500.02235174447, 51473.38527123753, 19273.663374622272, -26852.69288452779, -13245.487302003778, 13430.604449582632, 7928.476682719789, -187500.02235174447, -5351.722878423081, -23055.37737076013, 0.02, 1.0, 0.12, 192.0, 0.0, 0.0, 0.0, 0.0, 0.0, 0.0, 0.0, 0.0, 0.0, 1.6959348346173031E9, 0.0, 2023-09-28 16:00:34.617
132.0, -4782.312188424134, 19647.27278319273, -82616.40609698369, -10562.719173755548, 28761.688323222203, 26008.825124362127, -187500.02235174447, 51403.89369772598, 19383.611605597926, -26778.954479569733, -13166.406830120903, 13369.450076752912, 8034.915689815962, -187500.02235174447, -5749.807447172099, -23462.536747758004, 0.02, 1.0, 0.12, 192.0, 0.0, 0.0, 0.0, 0.0, 0.0, 0.0, 0.0, 0.0, 0.0, 1.6959348346173165E9, 0.0, 2023-09-28 16:00:34.617
134.0, -4766.397746371955, 19667.16583575795, -82343.58070416222, -10627.874508842768, 28776.887509451808, 25889.3103467596, -187500.02235174447, 51531.946841710436, 19277.57492990195, -26849.36247460395, -13237.61948795551, 13446.831816057183, 7962.183113358393, -187500.02235174447, -5361.311776794408, -23061.099417340687, 0.02, 1.0, 0.12, 192.0, 0.0, 0.0, 0.0, 0.0, 0.0, 0.0, 0.0, 0.0, 0.0, 1.6959348346173277E9, 0.0, 2023-09-28 16:00:34.617
136.0, -4751.533836309175, 19673.044344549697, -82714.91023479823, -10539.719228711037, 28799.21690216266, 26006.76876387224, -187500.02235174447, 51329.0153538007, 19400.286006961585, -26762.213022972708, -13151.341754358025, 13367.684288940942, 8048.25968125578, -187500.02235174447, -5747.147589581918, -23462.134416357807, 0.02, 1.0, 0.12, 192.0, 0.0, 0.0, 0.0, 0.0, 0.0, 0.0, 0.0, 0.0, 0.0, 1.695934834617341E9, 0.0, 2023-09-28 16:00:34.617
138.0, -4786.514316381731, 19655.45352166337, -82260.43221478847, -10632.121340289277, 28748.38903527129, 25913.13730634896, -187500.02235174447, 51600.387883232586, 19295.366918488377, -26848.401349592372, -13266.967328425328, 13464.579101154697, 7930.421284487401, -187500.02235174447, -5399.108576668332, -23101.66783352707, 0.014, 1.0, 0.122, 192.0, 0.0, 56.0, 15.5, 32.0, 1.5, 104.0, 0.0, 0.0, 0.0, 1.6959348346173527E9, 0.0, 2023-09-28 16:00:34.617
140.0, -4749.097496163547, 19684.66725166646, -82756.50683122955, -10540.680353722615, 28787.66105027927, 25966.602679086052, -187500.02235174447, 51295.219516184276, 19392.082916746487, -26758.30146769303, -13162.27175739667, 13355.703753912898, 8023.538651888211, -187500.02235174447, -5705.2380687282175, -23421.74481412707, 0.014, 1.0, 0.122, 192.0, 0.0, 0.0, 0.0, 0.0, 0.0, 0.0, 0.0, 0.0, 0.0, 1.6959348346173637E9, 0.0, 2023-09-28 16:00:34.617
142.0, -4796.036159519692, 19644.8364430471, -82213.8511793436, -10614.016427280478, 28751.272410306028, 25945.592039298062, -187500.02235174447, 51634.22842433792, 19273.86454032237, -26822.048642879563, -13224.722531404797, 13493.457554990955, 7954.605871988043, -187500.02235174447, -5438.425295165217, -23149.500566661427, 0.014, 1.0, 0.122, 192.0, 0.0, 0.0, 0.0, 0.0, 0.0, 0.0, 0.0, 0.0, 0.0, 1.6959348346173756E9, 0.0, 2023-09-28 16:00:34.617
144.0, -4755.244225888757, 19680.442771964405, -82759.59137196439, -10555.477208552029, 28798.099314939896, 25937.478356060787, -187500.02235174447, 51274.96883570777, 19368.010087968123, -26768.605621886927, -13188.80327806512, 13353.803855634196, 8019.850614053084, -187500.02235174447, -5652.331489602505, -23372.615679814302, 0.014, 1.0, 0.122, 192.0, 0.0, 0.0, 0.0, 0.0, 0.0, 0.0, 0.0, 0.0, 0.0, 1.6959348346173866E9, 0.0, 2023-09-28 16:00:34.617
146.0, -4789.084766994091, 19656.839329819602, -82120.3314805426, -10622.174814006665, 28737.771956655022, 25963.27226916221, -187500.02235174447, 51687.04559648581, 19277.396115946307, -26830.296436583572, -13238.804130411641, 13480.270025762324, 7945.843988161563, -187500.02235174447, -5431.965641017633, -23146.550136393325, 0.014, 1.0, 0.122, 192.0, 0.0, 0.0, 0.0, 0.0, 0.0, 0.0, 0.0, 0.0, 0.0, 1.6959348346173975E9, 0.0, 2023-09-28 16:00:34.617
148.0, -4742.324917593589, 19695.463144238372, -82759.36785451983, -10558.85232196478, 28787.795160745998, 25908.21992256879, -187500.02235174447, 51238.91547190136, 19391.74764057966, -26784.743581383656, -13185.986958263751, 13343.633811907031, 8007.668913324942, -187500.02235174447, -5578.1013462664305, -23294.94336783211, 0.014, 1.004, 0.136, 192.0, 0.0, 56.0, 15.5, 48.0, 2.0, 32.0, 0.0, 0.0, 0.0, 1.6959348346174088E9, 0.0, 2023-09-28 16:00:34.617
150.0, -4789.464746649832, 19645.12701572502, -82107.16630305843, -10597.163211961177, 28745.6844741922, 25997.17986550091, -187500.02235174447, 51682.26232317237, 19280.279490981044, -26801.194465302764, -13210.864449842507, 13508.097947609182, 7973.515447797233, -187500.02235174447, -5495.131670848331, -23211.616064502727, 0.014, 1.004, 0.136, 192.0, 0.0, 0.0, 0.0, 0.0, 0.0, 0.0, 0.0, 0.0, 0.0, 1.695934834617422E9, 0.0, 2023-09-28 16:00:34.617
152.0, -4710.428978255865, 19724.296894585717, -82779.48442452961, -10550.85039744978, 28839.47239392667, 25889.5115124597, -187500.02235174447, 51208.47239595323, 19383.49984687565, -26789.057468063533, -13179.348490160524, 13365.382059262045, 7989.116965427038, -187500.02235174447, -5540.57276732597, -23257.057160980363, 0.014, 1.004, 0.136, 192.0, 0.0, 0.0, 0.0, 0.0, 0.0, 0.0, 0.0, 0.0, 0.0, 1.6959348346174333E9, 0.0, 2023-09-28 16:00:34.617
154.0, -4804.529822412708, 19622.149422424965, -82114.76589617324, -10606.282723698941, 28740.655331689755, 26018.034043077714, -187500.02235174447, 51676.80849752528, 19309.33675877294, -26803.16141881483, -13199.37565319248, 13503.046453362282, 7976.801154232163, -187500.02235174447, -5566.210218216207, -23285.399172949696, 0.014, 1.004, 0.136, 192.0, 0.0, 0.0, 0.0, 0.0, 0.0, 0.0, 0.0, 0.0, 0.0, 1.6959348346174443E9, 0.0, 2023-09-28 16:00:34.617
156.0, -4732.356039566522, 19722.24053409583, -82745.71093865763, -10584.422717621652, 28807.21882667766, 25853.860480053485, -187500.02235174447, 51206.0360558076, 19384.148047464856, -26795.226549533196, -13228.768197151208, 13357.469541724866, 7975.147125142471, -187500.02235174447, -5487.241505055607, -23204.01647138792, 0.014, 1.004, 0.136, 192.0, 0.0, 0.0, 0.0, 0.0, 0.0, 0.0, 0.0, 0.0, 0.0, 1.6959348346174552E9, 0.0, 2023-09-28 16:00:34.617
158.0, -4805.088616024091, 19636.856870276555, -82119.8844456535, -10607.757938832992, 28732.11696530783, 26025.119546070047, -187500.02235174447, 51667.46546834296, 19309.426165750763, -26797.17115130081, -13183.550618118123, 13486.729679909908, 7998.571753331632, -187500.02235174447, -5606.465709980215, -23327.37574903676, 0.008, 0.998, 0.134, 192.0, 0.0, 32.0, 15.5, 24.0, 2.0, 24.0, 0.0, 0.0, 0.0, 1.6959348346174664E9, 0.0, 2023-09-28 16:00:34.617
160.0, -4710.563088722598, 19724.408653307994, -82698.99579274605, -10580.846438508803, 28822.775640818556, 25847.11025322798, -187500.02235174447, 51220.698800170285, 19342.618506266896, -26806.22360780521, -13198.682749114365, 13362.141056316026, 7992.067395695138, -187500.02235174447, -5431.74212357308, -23146.371322437684, 0.008, 0.998, 0.134, 192.0, 0.0, 0.0, 0.0, 0.0, 0.0, 0.0, 0.0, 0.0, 0.0, 1.6959348346174772E9, 0.0, 2023-09-28 16:00:34.617
162.0, -4794.605647874552, 19620.763614268733, -82169.14769043299, -10578.767726274458, 28742.912857879743, 26053.997999906303, -187500.02235174447, 51636.932985417014, 19339.53396553206, -26768.426807931282, -13170.65366156741, 13492.183505557003, 8017.481329140822, -187500.02235174447, -5671.174010178329, -23398.05196500444, 0.008, 0.998, 0.134, 192.0, 0.0, 0.0, 0.0, 0.0, 0.0, 0.0, 0.0, 0.0, 0.0, 1.69593483461749E9, 0.0, 2023-09-28 16:00:34.617
164.0, -4737.027554157681, 19693.160914559474, -82591.86388157176, -10609.367264433773, 28807.911730755775, 25832.96159898777, -187500.02235174447, 51284.46832710128, 19308.1074128279, -26835.25852385265, -13228.432920984378, 13379.530713502254, 7957.913930167429, -187500.02235174447, -5372.644111233248, -23091.833065966734, 0.008, 0.998, 0.134, 192.0, 0.0, 0.0, 0.0, 0.0, 0.0, 0.0, 0.0, 0.0, 0.0, 1.6959348346175013E9, 0.0, 2023-09-28 16:00:34.617
166.0, -4794.248019963267, 19624.429300359407, -82204.06111527218, -10569.290586625408, 28759.94488715469, 26057.887203441525, -187500.02235174447, 51597.34804598666, 19333.074311384476, -26789.59390993046, -13181.024870994672, 13452.822083571207, 7994.771956774231, -187500.02235174447, -5674.325606146527, -23400.600063872345, 0.008, 0.998, 0.134, 192.0, 0.0, 0.0, 0.0, 0.0, 0.0, 0.0, 0.0, 0.0, 0.0, 1.695934834617512E9, 0.0, 2023-09-28 16:00:34.617
168.0, -4710.406626511411, 19715.445603781416, -82544.56759030433, -10594.838630537824, 28810.9515680017, 25838.25896242368, -187500.02235174447, 51291.7549957937, 19337.142328875343, -26819.388785289382, -13223.85081337104, 13402.642417269042, 7966.117020382527, -187500.02235174447, -5355.120343580287, -23061.7923214188, 0.014, 1.002, 0.13, 192.0, 0.0, 56.0, 15.5, 40.0, 2.0, 8.0, 0.0, 0.0, 0.0, 1.6959348346175232E9, 0.0, 2023-09-28 16:00:34.617
170.0, -4768.23058941729, 19671.12209452654, -82297.13377918408, -10540.680353722615, 28777.22278561864, 26065.307982600687, -187500.02235174447, 51522.424998572475, 19384.013936998123, -26747.326761165474, -13147.005515933695, 13465.339060466178, 8045.041030054216, -187500.02235174447, -5733.669487675368, -23454.64658196528, 0.014, 1.002, 0.13, 192.0, 0.0, 0.0, 0.0, 0.0, 0.0, 0.0, 0.0, 0.0, 0.0, 1.6959348346175342E9, 0.0, 2023-09-28 16:00:34.617
172.0, -4712.150062578924, 19695.060812838175, -82451.53962988134, -10613.681151113648, 28776.12755014033, 25839.287142668625, -187500.02235174447, 51349.601310444035, 19314.701177442217, -26836.934904686797, -13224.543717449156, 13432.884327517073, 7979.1704391444255, -187500.02235174447, -5343.765657396992, -23048.761254401357, 0.014, 1.002, 0.13, 192.0, 0.0, 0.0, 0.0, 0.0, 0.0, 0.0, 0.0, 0.0, 0.0, 1.6959348346175451E9, 0.0, 2023-09-28 16:00:34.617
174.0, -4794.113909496536, 19645.41758840294, -82368.07821608522, -10541.127388611721, 28781.782541487522, 26061.463482554376, -187500.02235174447, 51479.53200096274, 19386.942015521767, -26769.522043409594, -13153.062838681084, 13435.834757785173, 8025.237384466814, -187500.02235174447, -5743.124275579962, -23462.559099502458, 0.014, 1.002, 0.13, 192.0, 0.0, 0.0, 0.0, 0.0, 0.0, 0.0, 0.0, 0.0, 0.0, 1.6959348346175578E9, 0.0, 2023-09-28 16:00:34.617
176.0, -4764.408441115433, 19680.666289408957, -82338.41745119303, -10620.878412828257, 28784.330640355427, 25863.717599358275, -187500.02235174447, 51435.27554694123, 19293.66818590977, -26842.321675100528, -13242.67098220241, 13449.111693991625, 7943.42999976039, -187500.02235174447, -5330.220500257075, -23031.99744605988, 0.014, 1.002, 0.13, 192.0, 0.0, 0.0, 0.0, 0.0, 0.0, 0.0, 0.0, 0.0, 0.0, 1.6959348346175687E9, 0.0, 2023-09-28 16:00:34.617
178.0, -4774.354967398044, 19651.005524516764, -82390.56407100726, -10553.689068995604, 28759.855480176866, 26032.58502871812, -187500.02235174447, 51451.92759656043, 19369.84293101346, -26771.891328321857, -13183.03652799565, 13405.838716726152, 8013.547422116688, -187500.02235174447, -5709.484900174725, -23422.147145527262, 0.016, 1.006, 0.132, 192.0, 0.0, 64.0, 15.5, 56.0, 2.0, 16.0, 0.0, 0.0, 0.0, 1.6959348346175797E9, 0.0, 2023-09-28 16:00:34.617
180.0, -4734.904138434427, 19717.345502060118, -82269.14939512603, -10614.306999958397, 28795.50651258308, 25884.72823914626, -187500.02235174447, 51466.23271301183, 19301.647758680316, -26829.290608083083, -13217.592324923555, 13473.00570881435, 7970.944997184873, -187500.02235174447, -5328.521767678472, -23021.827402332714, 0.016, 1.006, 0.132, 192.0, 0.0, 0.0, 0.0, 0.0, 0.0, 0.0, 0.0, 0.0, 0.0, 1.6959348346175907E9, 0.0, 2023-09-28 16:00:34.617
182.0, -4760.340423624566, 19681.448600464893, -82514.03510737838, -10539.383952544207, 28785.627041533833, 26027.712348426863, -187500.02235174447, 51349.44484823285, 19402.811754085036, -26740.263609917594, -13140.74702748621, 13408.118594660593, 8056.686288915431, -187500.02235174447, -5740.151493567407, -23448.87983189581, 0.016, 1.006, 0.132, 192.0, 0.0, 0.0, 0.0, 0.0, 0.0, 0.0, 0.0, 0.0, 0.0, 1.6959348346176016E9, 0.0, 2023-09-28 16:00:34.617
184.0, -4753.769010754706, 19674.206635261373, -82189.51012963177, -10622.443034940128, 28765.421064546237, 25904.062498100102, -187500.02235174447, 51522.983792183855, 19304.173505803767, -26827.480116782204, -13221.123900547493, 13493.05522359076, 7974.923607697918, -187500.02235174447, -5364.329262295873, -23066.93322264352, 0.016, 1.006, 0.132, 192.0, 0.0, 0.0, 0.0, 0.0, 0.0, 0.0, 0.0, 0.0, 0.0, 1.6959348346176126E9, 0.0, 2023-09-28 16:00:34.617
186.0, -4749.298661863645, 19683.70612665488, -82559.36444513375, -10553.42084806214, 28774.69703849519, 25985.46755140633, -187500.02235174447, 51312.899746048424, 19407.84089658748, -26772.67363937779, -13161.154170173904, 13380.469486769378, 8044.996326565305, -187500.02235174447, -5699.694836103301, -23416.58156115789, 0.016, 1.006, 0.132, 192.0, 0.0, 0.0, 0.0, 0.0, 0.0, 0.0, 0.0, 0.0, 0.0, 1.6959348346176236E9, 0.0, 2023-09-28 16:00:34.617
188.0, -4753.791362499162, 19676.8441411071, -82102.07010532262, -10629.640296654738, 28746.623247459323, 25921.429803541876, -187500.02235174447, 51584.004054546844, 19281.01709854807, -26831.279913339607, -13229.52815646269, 13489.747165411374, 7958.651537734454, -187500.02235174447, -5359.188361071153, -23066.486187754417, 0.016, 1.004, 0.134, 192.0, 0.0, 64.0, 15.5, 48.0, 2.0, 24.0, 0.0, 0.0, 0.0, 1.6959348346176364E9, 0.0, 2023-09-28 16:00:34.617
190.0, -4735.708801234818, 19708.449507766905, -82649.68784447764, -10541.41796128964, 28800.8485795079, 25955.247992902758, -187500.02235174447, 51233.70751544327, 19377.755448550637, -26781.279060993085, -13174.74403080273, 13362.945719116417, 8037.732009617331, -187500.02235174447, -5670.324643889027, -23388.418363144203, 0.016, 1.004, 0.134, 192.0, 0.0, 0.0, 0.0, 0.0, 0.0, 0.0, 0.0, 0.0, 0.0, 1.6959348346176472E9, 0.0, 2023-09-28 16:00:34.617
192.0, -4775.2266854318, 19665.087123523608, -82091.07304705061, -10614.418758680673, 28752.07707310642, 25963.741655795773, -187500.02235174447, 51596.230458763894, 19336.024741652578, -26799.607491446437, -13219.983961580272, 13516.658665735564, 7993.788480018196, -187500.02235174447, -5441.487484155594, -23153.30036321883, 0.016, 1.004, 0.134, 192.0, 0.0, 0.0, 0.0, 0.0, 0.0, 0.0, 0.0, 0.0, 0.0, 1.6959348346176584E9, 0.0, 2023-09-28 16:00:34.617
194.0, -4712.731207934762, 19697.139525072518, -82694.83836827736, -10549.911624182658, 28822.99915826311, 25938.014797927714, -187500.02235174447, 51203.063273795044, 19386.740849821672, -26778.038058047066, -13169.93840574484, 13362.655146438497, 8022.979858276828, -187500.02235174447, -5638.2051871067515, -23356.34360985084, 0.016, 1.004, 0.134, 192.0, 0.0, 0.0, 0.0, 0.0, 0.0, 0.0, 0.0, 0.0, 0.0, 1.6959348346176708E9, 0.0, 2023-09-28 16:00:34.617
196.0, -4786.268447192722, 19627.670303305425, -82044.40260462793, -10613.0553022689, 28750.132471338806, 25990.072010764125, -187500.02235174447, 51647.907691944565, 19283.34167997142, -26810.179866573795, -13216.832365612074, 13510.221363332435, 7975.10242165356, -187500.02235174447, -5476.982054350621, -23192.50532299344, 0.016, 1.004, 0.134, 192.0, 0.0, 0.0, 0.0, 0.0, 0.0, 0.0, 0.0, 0.0, 0.0, 1.695934834617682E9, 0.0, 2023-09-28 16:00:34.617
198.0, -4745.901196706438, 19698.65944369548, -82673.64891453373, -10559.142894642699, 28809.878684267842, 25902.31906203259, -187500.02235174447, 51208.807672120056, 19382.91870151981, -26792.723154154202, -13185.450516396824, 13358.78829464773, 8009.501756370278, -187500.02235174447, -5563.393898414838, -23282.35933570377, 0.022, 1.002, 0.138, 192.0, 0.0, 88.0, 15.5, 40.0, 2.0, 40.0, 0.0, 0.0, 0.0, 1.6959348346176932E9, 0.0, 2023-09-28 16:00:34.617
200.0, -4808.1508050144685, 19630.196050428876, -81995.94402264882, -10603.95814227559, 28750.40069227227, 25996.442257933886, -187500.02235174447, 51673.27692190134, 19301.20072379121, -26811.386860774383, -13214.373673721992, 13507.114470853146, 7993.855535251562, -187500.02235174447, -5495.936333648722, -23219.21565761753, 0.022, 1.002, 0.138, 192.0, 0.0, 0.0, 0.0, 0.0, 0.0, 0.0, 0.0, 0.0, 0.0, 1.695934834617706E9, 0.0, 2023-09-28 16:00:34.617
202.0, -4715.301658547122, 19733.79638597922, -82670.85494647681, -10554.717249240548, 28841.12642301636, 25878.5591576766, -187500.02235174447, 51185.78537533109, 19383.611605597926, -26802.200293803253, -13196.13465024646, 13359.011812092283, 8004.494965612289, -187500.02235174447, -5495.243429570607, -23217.44986980556, 0.022, 1.002, 0.138, 192.0, 0.0, 0.0, 0.0, 0.0, 0.0, 0.0, 0.0, 0.0, 0.0, 1.6959348346177168E9, 0.0, 2023-09-28 16:00:34.617
204.0, -4801.132357255502, 19638.443844132882, -82023.41431658439, -10597.47613638355, 28732.92162810822, 26018.682243666917, -187500.02235174447, 51653.38386933612, 19321.987846134645, -26795.673584422304, -13182.857714040008, 13511.897744166583, 8007.132471458015, -187500.02235174447, -5570.345290940439, -23299.36901323426, 0.022, 1.002, 0.138, 192.0, 0.0, 0.0, 0.0, 0.0, 0.0, 0.0, 0.0, 0.0, 0.0, 1.6959348346177275E9, 0.0, 2023-09-28 16:00:34.617
206.0, -4725.65051622993, 19710.9529031459, -82623.42454474265, -10582.344005387307, 28804.715431298668, 25836.850802522997, -187500.02235174447, 51200.15754701586, 19357.616526796406, -26816.63952072138, -13202.974284049784, 13360.151751059504, 8007.4900993693, -187500.02235174447, -5450.092905770887, -23171.78525588337, 0.022, 1.002, 0.138, 192.0, 0.0, 0.0, 0.0, 0.0, 0.0, 0.0, 0.0, 0.0, 0.0, 1.6959348346177385E9, 0.0, 2023-09-28 16:00:34.617
208.0, -4794.829165319105, 19635.582820842603, -82043.97792148328, -10583.483944354528, 28718.236532001083, 26031.601551962085, -187500.02235174447, 51629.48985451339, 19344.607811523416, -26785.347078483952, -13175.951025003318, 13503.515839995844, 8013.614477350054, -187500.02235174447, -5607.4491867362485, -23337.52344101947, 0.02, 1.0, 0.14200000000000002, 192.0, 0.0, 80.0, 15.5, 32.0, 2.0, 56.0, 0.0, 0.0, 0.0, 1.6959348346177497E9, 0.0, 2023-09-28 16:00:34.617
210.0, -4719.07910336007, 19707.600141477604, -82557.86687825524, -10602.505278885994, 28787.303422367982, 25822.97036921625, -187500.02235174447, 51217.30133501308, 19348.49701505864, -26815.968968387722, -13226.555374450134, 13377.340242545635, 7994.637846307498, -187500.02235174447, -5400.44968133565, -23121.538534347837, 0.02, 1.0, 0.14200000000000002, 192.0, 0.0, 0.0, 0.0, 0.0, 0.0, 0.0, 0.0, 0.0, 0.0, 1.6959348346177607E9, 0.0, 2023-09-28 16:00:34.617
212.0, -4773.952635997848, 19649.79853031618, -82085.82038710361, -10564.283795867419, 28757.419140031237, 26054.668552239964, -187500.02235174447, 51582.260618479326, 19366.333707133974, -26765.364618940905, -13153.5545770591, 13491.557656712253, 8032.278183970236, -187500.02235174447, -5646.229463366207, -23377.130732194273, 0.02, 1.0, 0.14200000000000002, 192.0, 0.0, 0.0, 0.0, 0.0, 0.0, 0.0, 0.0, 0.0, 0.0, 1.695934834617772E9, 0.0, 2023-09-28 16:00:34.617
214.0, -4722.096588861536, 19706.48255425484, -82485.49192970895, -10611.177755734654, 28790.455018336183, 25826.077261695536, -187500.02235174447, 51254.248768597696, 19336.24825909713, -26831.592837761982, -13218.642856912955, 13393.992292164838, 7957.0422121336715, -187500.02235174447, -5366.206808830119, -23082.825312951245, 0.02, 1.0, 0.14200000000000002, 192.0, 0.0, 0.0, 0.0, 0.0, 0.0, 0.0, 0.0, 0.0, 0.0, 1.6959348346177852E9, 0.0, 2023-09-28 16:00:34.617
216.0, -4807.167328258434, 19630.84425101808, -82106.16047455794, -10580.75703153098, 28755.429834774714, 26035.334293286123, -187500.02235174447, 51571.91176079652, 19331.464985783696, -26776.652249890834, -13174.520513358179, 13452.486807404377, 8001.164555688448, -187500.02235174447, -5667.016585709642, -23398.34253768236, 0.02, 1.0, 0.14200000000000002, 192.0, 0.0, 0.0, 0.0, 0.0, 0.0, 0.0, 0.0, 0.0, 0.0, 1.6959348346177964E9, 0.0, 2023-09-28 16:00:34.617
218.0, -4713.625277712975, 19707.28721705523, -82398.40953331107, -10605.567467876372, 28818.193533205216, 25829.318264641555, -187500.02235174447, 51307.26710644569, 19324.066558368988, -26828.664759238334, -13209.456289941823, 13414.198269152435, 7985.361872358546, -187500.02235174447, -5321.726837364058, -23036.981885073412, 0.012, 1.002, 0.14, 192.0, 0.0, 48.0, 15.5, 40.0, 2.0, 48.0, 0.0, 0.0, 0.0, 1.6959348346178076E9, 0.0, 2023-09-28 16:00:34.617
220.0, -4771.471592363309, 19640.433149389406, -82180.65883882748, -10556.907720197169, 28764.281125579015, 26042.375092789545, -187500.02235174447, 51517.82053921468, 19366.98190772318, -26777.948651069244, -13146.558481044589, 13453.649098116053, 8030.266526969258, -187500.02235174447, -5697.392606424404, -23426.617494418326, 0.012, 1.002, 0.14, 192.0, 0.0, 0.0, 0.0, 0.0, 0.0, 0.0, 0.0, 0.0, 0.0, 1.6959348346178186E9, 0.0, 2023-09-28 16:00:34.617
222.0, -4744.180112383379, 19699.70997568488, -82305.426276377, -10613.390578435728, 28814.080812225442, 25837.63311357893, -187500.02235174447, 51367.10272635255, 19291.835342864437, -26818.092384110976, -13223.828461626586, 13434.359542651122, 7959.299738323658, -187500.02235174447, -5310.52861339195, -23021.827402332714, 0.012, 1.002, 0.14, 192.0, 0.0, 0.0, 0.0, 0.0, 0.0, 0.0, 0.0, 0.0, 0.0, 1.6959348346178296E9, 0.0, 2023-09-28 16:00:34.617
224.0, -4801.065302022136, 19652.883071051012, -82241.8132116572, -10556.415981819151, 28770.807834959967, 26032.562676973663, -187500.02235174447, 51474.70402416039, 19372.435733370272, -26767.35392419743, -13160.416562606879, 13421.127309933581, 8042.3811724640345, -187500.02235174447, -5704.053426272086, -23432.317189254427, 0.012, 1.002, 0.14, 192.0, 0.0, 0.0, 0.0, 0.0, 0.0, 0.0, 0.0, 0.0, 0.0, 1.6959348346178403E9, 0.0, 2023-09-28 16:00:34.617
226.0, -4758.507580579231, 19680.599234175592, -82205.64808912852, -10616.452767426106, 28795.528864327534, 25856.475634154755, -187500.02235174447, 51430.916956772446, 19303.860581381392, -26839.415948321337, -13255.277366075203, 13441.355638665635, 7963.121886625516, -187500.02235174447, -5289.942656748612, -22999.27449217731, 0.012, 1.002, 0.14, 192.0, 0.0, 0.0, 0.0, 0.0, 0.0, 0.0, 0.0, 0.0, 0.0, 1.6959348346178756E9, 0.0, 2023-09-28 16:00:34.617
228.0, -4786.223743703812, 19645.439940147393, -82342.26195123934, -10538.914565910645, 28779.346201341894, 26031.48979323981, -187500.02235174447, 51394.148337143466, 19388.55134112255, -26756.9156595368, -13153.688687525831, 13407.202173137925, 8031.428817680934, -187500.02235174447, -5714.312876977072, -23437.659256179246, 0.018000000000000002, 1.01, 0.136, 192.0, 0.0, 72.0, 15.5, 72.0, 2.0, 32.0, 0.0, 0.0, 0.0, 1.6959348346178877E9, 0.0, 2023-09-28 16:00:34.617
230.0, -4771.918627252416, 19664.37186770104, -82111.97192811631, -10628.969744321079, 28768.527957025526, 25881.68840190034, -187500.02235174447, 51490.50670749029, 19272.34462169941, -26843.126337900918, -13245.889633403975, 13469.027098301303, 7957.109267367037, -187500.02235174447, -5310.998000025511, -23020.46394592094, 0.018000000000000002, 1.01, 0.136, 192.0, 0.0, 0.0, 0.0, 0.0, 0.0, 0.0, 0.0, 0.0, 0.0, 1.6959348346178987E9, 0.0, 2023-09-28 16:00:34.617
232.0, -4771.18101968539, 19672.75377187178, -82410.79239973932, -10546.201234603077, 28777.066323407453, 26003.304243481667, -187500.02235174447, 51322.35453395302, 19382.225797441697, -26768.359752697917, -13168.038507466139, 13382.011757136794, 8036.837939839118, -187500.02235174447, -5690.9776557657315, -23413.564075656424, 0.018000000000000002, 1.01, 0.136, 192.0, 0.0, 0.0, 0.0, 0.0, 0.0, 0.0, 0.0, 0.0, 0.0, 1.6959348346179101E9, 0.0, 2023-09-28 16:00:34.617
234.0, -4760.4298306023875, 19664.32716421213, -82045.43078487286, -10627.226308253565, 28768.706770981167, 25903.50370448872, -187500.02235174447, 51519.72043749338, 19277.19495024621, -26836.286704097594, -13232.389179752969, 13485.634444431596, 7958.651537734454, -187500.02235174447, -5350.851160389324, -23058.797187661792, 0.018000000000000002, 1.01, 0.136, 192.0, 0.0, 0.0, 0.0, 0.0, 0.0, 0.0, 0.0, 0.0, 0.0, 1.695934834617921E9, 0.0, 2023-09-28 16:00:34.617
236.0, -4750.550359553142, 19684.309623755173, -82470.98564755746, -10552.504426539474, 28784.55415779998, 25974.023458245214, -187500.02235174447, 51265.29053035862, 19394.586312125484, -26777.613374902416, -13156.952042216308, 13368.466599996878, 8037.173216005947, -187500.02235174447, -5678.483030615214, -23395.168589969708, 0.018000000000000002, 1.01, 0.136, 192.0, 0.0, 0.0, 0.0, 0.0, 0.0, 0.0, 0.0, 0.0, 0.0, 1.695934834617932E9, 0.0, 2023-09-28 16:00:34.617
238.0, -4786.402557659454, 19638.622658088527, -81952.93926631681, -10629.953221077112, 28757.530898753514, 25934.88555370397, -187500.02235174447, 51587.647388893056, 19264.990897773612, -26841.002922177664, -13242.402761268946, 13489.031909588804, 7949.152046340949, -187500.02235174447, -5362.049384361432, -23066.553242987782, 0.018000000000000002, 1.006, 0.128, 192.0, 0.0, 72.0, 15.5, 56.0, 2.0, 0.0, 0.0, 0.0, 0.0, 1.695934834617945E9, 0.0, 2023-09-28 16:00:34.617
240.0, -4747.622281029497, 19668.46223693636, -82513.85629342274, -10559.701688254081, 28805.78831503252, 25955.67267604741, -187500.02235174447, 51218.731846658215, 19391.680585346294, -26787.96223258522, -13172.777077290664, 13359.972937103861, 8005.433738879412, -187500.02235174447, -5622.44720726576, -23335.645894485224, 0.018000000000000002, 1.006, 0.128, 192.0, 0.0, 0.0, 0.0, 0.0, 0.0, 0.0, 0.0, 0.0, 0.0, 1.6959348350971682E9, 0.0, 2023-09-28 16:00:35.097
242.0, -4782.356891913044, 19629.50314635076, -81907.96755647274, -10630.154386777209, 28745.818584658933, 25966.51327210823, -187500.02235174447, 51607.182813547, 19266.33200244093, -26840.824108222023, -13229.572859951599, 13490.842400889684, 7977.963444943839, -187500.02235174447, -5392.9618469431225, -23102.42779283855, 0.018000000000000002, 1.006, 0.128, 192.0, 0.0, 0.0, 0.0, 0.0, 0.0, 0.0, 0.0, 0.0, 0.0, 1.695934835097253E9, 0.0, 2023-09-28 16:00:35.097
244.0, -4744.470685061298, 19687.41651623446, -82546.28867462739, -10559.455819065073, 28816.40539364879, 25926.101318133035, -187500.02235174447, 51179.303369439054, 19403.147030251865, -26791.0244215756, -13190.054975754616, 13347.567718931166, 8028.21016647937, -187500.02235174447, -5565.025575760076, -23279.69947811359, 0.018000000000000002, 1.006, 0.128, 192.0, 0.0, 0.0, 0.0, 0.0, 0.0, 0.0, 0.0, 0.0, 0.0, 1.6959348350972888E9, 0.0, 2023-09-28 16:00:35.097
246.0, -4809.134281770502, 19617.902590978454, -81888.43213181879, -10614.262296469486, 28742.756395668555, 25996.37520270052, -187500.02235174447, 51628.43932252399, 19294.450496965706, -26819.79111668958, -13200.247371226236, 13508.634389476108, 7989.25107589377, -187500.02235174447, -5450.227016237619, -23160.408217955617, 0.018000000000000002, 1.006, 0.128, 192.0, 0.0, 0.0, 0.0, 0.0, 0.0, 0.0, 0.0, 0.0, 0.0, 1.6959348350973184E9, 0.0, 2023-09-28 16:00:35.097
248.0, -4741.162626881913, 19681.98504233182, -82538.37615709021, -10566.116638912754, 28804.648376065303, 25898.11693407499, -187500.02235174447, 51176.48704963768, 19354.196709894743, -26805.061317093532, -13181.784830306153, 13354.16148354548, 7997.968256231339, -187500.02235174447, -5508.654476243792, -23220.243837862476, 0.02, 1.004, 0.126, 192.0, 0.0, 80.0, 15.5, 48.0, 1.5, 120.0, 0.0, 0.0, 0.0, 1.6959348350973468E9, 0.0, 2023-09-28 16:00:35.097
250.0, -4815.61628766254, 19618.193163656375, -81885.74992248416, -10605.500412643005, 28745.572715469923, 26024.0913658251, -187500.02235174447, 51640.352802318674, 19298.742031901125, -26804.860151393434, -13216.653551656433, 13498.866677149139, 7985.495982825278, -187500.02235174447, -5495.958685393177, -23204.150581854654, 0.02, 1.004, 0.126, 192.0, 0.0, 0.0, 0.0, 0.0, 0.0, 0.0, 0.0, 0.0, 0.0, 1.6959348350973704E9, 0.0, 2023-09-28 16:00:35.097
252.0, -4734.4794552897765, 19705.65553970999, -82544.03114843741, -10562.719173755548, 28812.471486624658, 25877.620384409474, -187500.02235174447, 51158.806819773534, 19348.40760808082, -26801.44033449177, -13202.99663579424, 13359.235329536836, 7987.351177615068, -187500.02235174447, -5470.812972880956, -23174.981555340477, 0.02, 1.004, 0.126, 192.0, 0.0, 0.0, 0.0, 0.0, 0.0, 0.0, 0.0, 0.0, 0.0, 1.6959348350973911E9, 0.0, 2023-09-28 16:00:35.097
254.0, -4825.853386623071, 19618.193163656375, -81903.47485583721, -10597.587895105828, 28726.19375302717, 26044.87848816854, -187500.02235174447, 51627.142921345585, 19302.497124969617, -26800.233340291186, -13203.51072591671, 13491.244732289879, 7991.776823017219, -187500.02235174447, -5566.38903217185, -23271.161111731664, 0.02, 1.004, 0.126, 192.0, 0.0, 0.0, 0.0, 0.0, 0.0, 0.0, 0.0, 0.0, 0.0, 1.6959348350974123E9, 0.0, 2023-09-28 16:00:35.097
0.0, -4738.458065802821, 19691.66334768097, -82495.75138041395, -10575.929054728635, 28827.111879242886, 25868.612631393986, -187500.02235174447, 51175.19064845928, 19340.137462632356, -26841.15938438885, -13211.289132987158, 13355.167312045969, 7985.943017714384, -187500.02235174447, -5424.857786280845, -23120.845630269723, 0.02, 1.004, 0.126, 192.0, 0.0, 0.0, 0.0, 0.0, 0.0, 0.0, 0.0, 0.0, 0.0, 1.695934835097432E9, 0.0, 2023-09-28 16:00:35.097
2.0, -4803.836918334594, 19625.882163749, -81959.17540301984, -10575.32555762834, 28757.620305731336, 26066.514976801274, -187500.02235174447, 51575.130411998085, 19320.1102996004, -26787.604604673936, -13189.049147254127, 13484.852133375662, 8004.830241779118, -187500.02235174447, -5622.983649132687, -23326.74990019201, 0.028, 0.998, 0.126, 192.0, 0.0, 112.0, 15.5, 24.0, 1.5, 120.0, 0.0, 0.0, 0.0, 1.6959348350974517E9, 0.0, 2023-09-28 16:00:35.097
4.0, -4742.8166559716055, 19685.203693533385, -82458.78159508486, -10587.95429324559, 28833.88445781284, 25864.87989006995, -187500.02235174447, 51179.97392177271, 19325.318256058486, -26825.53551501459, -13217.5699731791, 13384.001062393316, 8001.656294066464, -187500.02235174447, -5405.836451749379, -23103.299510872308, 0.028, 0.998, 0.126, 192.0, 0.0, 0.0, 0.0, 0.0, 0.0, 0.0, 0.0, 0.0, 0.0, 1.6959348350974724E9, 0.0, 2023-09-28 16:00:35.097
6.0, -4827.507415712764, 19607.39727108446, -82009.33271757755, -10571.771630259947, 28764.057608134462, 26074.53925306073, -187500.02235174447, 51546.58723432866, 19342.68556150026, -26797.707593167735, -13184.578798363067, 13468.624766901108, 8025.349143189091, -187500.02235174447, -5665.720184531234, -23372.235700158562, 0.028, 0.998, 0.126, 192.0, 0.0, 0.0, 0.0, 0.0, 0.0, 0.0, 0.0, 0.0, 0.0, 1.6959348350974915E9, 0.0, 2023-09-28 16:00:35.097
8.0, -4736.7146297353065, 19697.921836128455, -82386.76427444986, -10592.111717714277, 28821.769812318067, 25863.337619702535, -187500.02235174447, 51231.91937588685, 19322.077253112468, -26846.30028561357, -13231.919793119407, 13401.502478301822, 7978.678700766409, -187500.02235174447, -5366.385622785762, -23061.389990018608, 0.028, 0.998, 0.126, 192.0, 0.0, 0.0, 0.0, 0.0, 0.0, 0.0, 0.0, 0.0, 0.0, 1.695934835097512E9, 0.0, 2023-09-28 16:00:35.097
10.0, -4781.03813899018, 19628.8325940171, -82086.15566327045, -10552.727943984026, 28760.950715655177, 26082.54117757573, -187500.02235174447, 51508.09753037662, 19350.620430781895, -26763.129444495375, -13154.091018926028, 13470.85994134664, 8025.438550166911, -187500.02235174447, -5713.977600810243, -23422.12479378281, 0.028, 0.998, 0.126, 192.0, 0.0, 0.0, 0.0, 0.0, 0.0, 0.0, 0.0, 0.0, 0.0, 1.6959348350975308E9, 0.0, 2023-09-28 16:00:35.097
12.0, -4750.192731641857, 19686.231873778328, -82298.56429082922, -10614.798738336414, 28801.094448696906, 25849.703055584796, -187500.02235174447, 51298.4605191303, 19294.115220798878, -26852.40231184987, -13238.893537389462, 13418.065120943204, 7957.757467956241, -187500.02235174447, -5344.3020992639185, -23036.199574017475, 0.022, 1.002, 0.134, 192.0, 0.0, 88.0, 15.5, 40.0, 2.0, 24.0, 0.0, 0.0, 0.0, 1.6959348350975492E9, 0.0, 2023-09-28 16:00:35.097
14.0, -4808.4413776923875, 19633.884088264, -82152.58504779161, -10553.130275384221, 28760.011942388053, 26067.29728785721, -187500.02235174447, 51467.059727556676, 19350.329858103974, -26773.7688748561, -13161.332984129547, 13428.749254792841, 8043.431704453434, -187500.02235174447, -5719.185557268329, -23428.69620665267, 0.022, 1.002, 0.134, 192.0, 0.0, 0.0, 0.0, 0.0, 0.0, 0.0, 0.0, 0.0, 0.0, 1.6959348350975685E9, 0.0, 2023-09-28 16:00:35.097
16.0, -4741.497903048743, 19672.440847449405, -82204.79872283922, -10611.66949411267, 28778.139207141307, 25869.149073260913, -187500.02235174447, 51363.392336772966, 19299.9043226128, -26858.66080029736, -13224.387255237969, 13436.997048496849, 7965.29000583768, -187500.02235174447, -5329.058209545399, -23024.330797711707, 0.022, 1.002, 0.134, 192.0, 0.0, 0.0, 0.0, 0.0, 0.0, 0.0, 0.0, 0.0, 0.0, 1.695934835097587E9, 0.0, 2023-09-28 16:00:35.097
18.0, -4792.079900751102, 19635.336951653597, -82209.71610661938, -10538.869862421736, 28781.246099620595, 26048.655932981485, -187500.02235174447, 51424.837282280605, 19371.22873916969, -26765.34226719645, -13154.113370670482, 13428.011647225816, 8044.281070742735, -187500.02235174447, -5721.331324736038, -23430.77491888701, 0.022, 1.002, 0.134, 192.0, 0.0, 0.0, 0.0, 0.0, 0.0, 0.0, 0.0, 0.0, 0.0, 1.695934835097606E9, 0.0, 2023-09-28 16:00:35.097
20.0, -4758.820505001606, 19676.26299575126, -82110.09438158208, -10608.495546400018, 28794.612442804868, 25871.339544217535, -187500.02235174447, 51423.67499156893, 19286.96266257318, -26853.989285706197, -13247.633069471487, 13466.300185477756, 7953.488284765278, -187500.02235174447, -5311.825014570358, -23006.49410563637, 0.022, 1.002, 0.134, 192.0, 0.0, 0.0, 0.0, 0.0, 0.0, 0.0, 0.0, 0.0, 0.0, 1.695934835097643E9, 0.0, 2023-09-28 16:00:35.097
22.0, -4781.842801790572, 19657.487530408805, -82283.67802902199, -10528.051618105366, 28793.874835237842, 26041.883354411526, -187500.02235174447, 51363.81701991762, 19385.064468987523, -26760.313124694007, -13142.624574020456, 13419.629743055075, 8027.3608001900675, -187500.02235174447, -5719.453778201792, -23427.39980547426, 0.022, 1.002, 0.134, 192.0, 0.0, 88.0, 15.5, 40.0, 2.0, 24.0, 0.0, 0.0, 0.0, 1.6959348350976622E9, 0.0, 2023-09-28 16:00:35.097
24.0, -4757.926435223393, 19665.84708283509, -82014.63008101346, -10604.695749842615, 28791.7961230035, 25911.88560865946, -187500.02235174447, 51493.971227880866, 19274.95977580068, -26846.970837947232, -13233.663229186921, 13482.86282811914, 7941.552453226144, -187500.02235174447, -5314.708389605092, -23007.723451581416, 0.022, 1.002, 0.134, 192.0, 0.0, 0.0, 0.0, 0.0, 0.0, 0.0, 0.0, 0.0, 0.0, 1.6959348350976825E9, 0.0, 2023-09-28 16:00:35.097
26.0, -4760.161609668924, 19657.73339959781, -82379.7458266909, -10514.104129565256, 28811.778582546543, 26024.11371756956, -187500.02235174447, 51293.38667313894, 19401.202428484256, -26756.736845581156, -13153.46517008128, 13401.815402724196, 8050.181931278937, -187500.02235174447, -5700.052464014586, -23408.132601753787, 0.022, 1.002, 0.134, 192.0, 0.0, 0.0, 0.0, 0.0, 0.0, 0.0, 0.0, 0.0, 0.0, 1.69593483509771E9, 0.0, 2023-09-28 16:00:35.097
28.0, -4778.42298488891, 19639.092044722085, -81947.3960336919, -10603.935790531134, 28773.825320461434, 25936.025492671193, -187500.02235174447, 51547.727173295876, 19267.918976297256, -26841.40525357786, -13220.90038310294, 13511.71893021094, 7979.773936244719, -187500.02235174447, -5356.148523825232, -23054.975039359935, 0.022, 1.002, 0.134, 192.0, 0.0, 0.0, 0.0, 0.0, 0.0, 0.0, 0.0, 0.0, 0.0, 1.69593483509773E9, 0.0, 2023-09-28 16:00:35.097
30.0, -4755.89242647796, 19671.636184649014, -82415.30745211929, -10528.699818694571, 28804.536617343023, 25986.451028162366, -187500.02235174447, 51264.26235011368, 19373.195692681755, -26781.502578437638, -13156.348545116014, 13384.26928332678, 8022.510471643266, -187500.02235174447, -5650.833922723999, -23368.324144878883, 0.022, 1.002, 0.134, 192.0, 0.0, 0.0, 0.0, 0.0, 0.0, 0.0, 0.0, 0.0, 0.0, 1.69593483509775E9, 0.0, 2023-09-28 16:00:35.097
32.0, -4756.115943922513, 19650.290268694196, -81889.32620159701, -10595.732700316037, 28759.050817376476, 25969.687219820884, -187500.02235174447, 51591.11190928363, 19295.121049299367, -26828.35183481596, -13212.652589398933, 13523.364189072156, 7968.9556919283505, -187500.02235174447, -5383.68587299417, -23093.19652237851, 0.022, 1.002, 0.136, 192.0, 0.0, 88.0, 15.5, 40.0, 2.0, 32.0, 0.0, 0.0, 0.0, 1.695934835097771E9, 0.0, 2023-09-28 16:00:35.097
34.0, -4749.075144419092, 19681.448600464893, -82461.64261837515, -10538.400475788174, 28814.393736647817, 25955.27034464721, -187500.02235174447, 51218.77655014712, 19387.88078878889, -26797.372317000907, -13152.593452047522, 13378.815457679684, 8024.276259455235, -187500.02235174447, -5611.472500738204, -23329.81208918239, 0.022, 1.002, 0.136, 192.0, 0.0, 0.0, 0.0, 0.0, 0.0, 0.0, 0.0, 0.0, 0.0, 1.6959348350977905E9, 0.0, 2023-09-28 16:00:35.097
36.0, -4795.387958930488, 19639.22615518882, -81835.72671839318, -10599.66660734017, 28760.056645876964, 25986.026345017715, -187500.02235174447, 51628.41697077954, 19273.61867113336, -26825.55786675905, -13219.358112735525, 13517.172755858035, 7972.174343129915, -187500.02235174447, -5421.147396701264, -23131.887392030647, 0.022, 1.002, 0.136, 192.0, 0.0, 0.0, 0.0, 0.0, 0.0, 0.0, 0.0, 0.0, 0.0, 1.69593483509781E9, 0.0, 2023-09-28 16:00:35.097
38.0, -4719.861414416006, 19727.739063231835, -82481.58037442928, -10540.345077555785, 28820.249893695105, 25932.158640880425, -187500.02235174447, 51187.41705267633, 19384.17039920931, -26774.35002021194, -13166.987975476739, 13373.898073899518, 8005.903125512973, -187500.02235174447, -5565.539665882548, -23281.621728136746, 0.022, 1.002, 0.136, 192.0, 0.0, 0.0, 0.0, 0.0, 0.0, 0.0, 0.0, 0.0, 0.0, 1.6959348350978365E9, 0.0, 2023-09-28 16:00:35.097
40.0, -4791.56581062863, 19635.426358631415, -81832.82099161399, -10597.207915450086, 28730.7311571516, 26008.4898481953, -187500.02235174447, 51630.920366158534, 19288.504932940596, -26817.600645732957, -13219.04518831315, 13510.668398221542, 7960.998470902261, -187500.02235174447, -5480.848906141389, -23195.38869802817, 0.022, 1.002, 0.136, 192.0, 0.0, 0.0, 0.0, 0.0, 0.0, 0.0, 0.0, 0.0, 0.0, 1.695934835097857E9, 0.0, 2023-09-28 16:00:35.097
42.0, -4728.824463942583, 19684.644899922, -82476.59593541574, -10548.27994683742, 28845.105033529406, 25907.214094068302, -187500.02235174447, 51181.963227029235, 19361.1704541648, -26799.048697835053, -13171.883007512452, 13369.405373264, 8017.973067518839, -187500.02235174447, -5523.004296184099, -23242.997913717976, 0.02, 1.002, 0.136, 192.0, 0.0, 80.0, 15.5, 40.0, 2.0, 32.0, 0.0, 0.0, 0.0, 1.6959348350978768E9, 0.0, 2023-09-28 16:00:35.097
44.0, -4818.14203478599, 19606.056166417144, -81811.47507565917, -10590.658854324682, 28759.095520865387, 26038.575296232142, -187500.02235174447, 51660.96111070646, 19310.923732629268, -26817.846514921966, -13204.203629994827, 13517.306866324767, 7989.608703805055, -187500.02235174447, -5512.811900712479, -23237.231163648506, 0.02, 1.002, 0.136, 192.0, 0.0, 0.0, 0.0, 0.0, 0.0, 0.0, 0.0, 0.0, 0.0, 1.695934835097908E9, 0.0, 2023-09-28 16:00:35.097
46.0, -4721.537795250153, 19709.32122580066, -82470.22568824598, -10558.673508009137, 28834.30914095749, 25891.29965201612, -187500.02235174447, 51188.109956754444, 19352.006238938124, -26806.40242176085, -13178.94615876033, 13375.328585544657, 8004.427910378923, -187500.02235174447, -5463.03456581051, -23183.274052533397, 0.02, 1.002, 0.136, 192.0, 0.0, 0.0, 0.0, 0.0, 0.0, 0.0, 0.0, 0.0, 0.0, 1.6959348350979276E9, 0.0, 2023-09-28 16:00:35.097
48.0, -4807.860232336549, 19615.7791752552, -81851.77527091208, -10585.585008333328, 28743.605761957857, 26054.623848751053, -187500.02235174447, 51650.96988093494, 19314.388253019843, -26812.59385497497, -13186.702214086321, 13506.421566775032, 8012.318076171646, -187500.02235174447, -5582.392881201849, -23311.394251751215, 0.02, 1.002, 0.136, 192.0, 0.0, 0.0, 0.0, 0.0, 0.0, 0.0, 0.0, 0.0, 0.0, 1.6959348350979583E9, 0.0, 2023-09-28 16:00:35.097
50.0, -4733.741847722751, 19694.14439131551, -82423.8011150123, -10567.994185447, 28826.843658309423, 25880.21318676629, -187500.02235174447, 51214.28384951161, 19333.186070106756, -26831.436375550795, -13197.743975847243, 13389.879571185062, 7988.021729948728, -187500.02235174447, -5417.079379210399, -23137.072996744275, 0.02, 1.002, 0.136, 192.0, 0.0, 0.0, 0.0, 0.0, 0.0, 0.0, 0.0, 0.0, 0.0, 1.6959348350979788E9, 0.0, 2023-09-28 16:00:35.097
52.0, -4825.495758711786, 19612.202896142353, -81871.66832347731, -10574.029156449933, 28739.314227022438, 26069.152482647, -187500.02235174447, 51645.27018609884, 19311.43782275174, -26792.790209387567, -13184.623501851976, 13495.335101525201, 8001.656294066464, -187500.02235174447, -5617.976858374698, -23345.6594760012, 0.02, 1.004, 0.134, 192.0, 0.0, 80.0, 15.5, 48.0, 2.0, 24.0, 0.0, 0.0, 0.0, 1.695934835097999E9, 0.0, 2023-09-28 16:00:35.097
54.0, -4745.409458328421, 19683.259091765773, -82333.00832903486, -10583.52864784344, 28809.208131934185, 25855.715674843275, -187500.02235174447, 51262.921245446356, 19319.68561645575, -26845.294457113083, -13211.713816131809, 13398.484992800355, 7971.14616288497, -187500.02235174447, -5342.2457387740305, -23064.65334470908, 0.02, 1.004, 0.134, 192.0, 0.0, 0.0, 0.0, 0.0, 0.0, 0.0, 0.0, 0.0, 0.0, 1.6959348350980194E9, 0.0, 2023-09-28 16:00:35.098
56.0, -4814.386941717499, 19613.655759531946, -81935.37079517494, -10565.535493556918, 28738.889543877787, 26069.174834391455, -187500.02235174447, 51583.53466791328, 19333.923677673778, -26784.520063939104, -13171.055992967606, 13481.074688562714, 8009.725273814831, -187500.02235174447, -5646.050649410564, -23378.851816517334, 0.02, 1.004, 0.134, 192.0, 0.0, 0.0, 0.0, 0.0, 0.0, 0.0, 0.0, 0.0, 0.0, 1.6959348350980642E9, 0.0, 2023-09-28 16:00:35.098
58.0, -4756.361813111522, 19670.205673003875, -82246.5070779928, -10608.115566744276, 28798.434591106725, 25856.11800624347, -187500.02235174447, 51308.02706575717, 19302.96651160318, -26842.768709989636, -13225.99658083875, 13410.621990039586, 7982.165572901437, -187500.02235174447, -5323.649087387215, -23044.112091554653, 0.02, 1.004, 0.134, 192.0, 0.0, 0.0, 0.0, 0.0, 0.0, 0.0, 0.0, 0.0, 0.0, 1.6959348350980885E9, 0.0, 2023-09-28 16:00:35.098
60.0, -4797.220801975823, 19625.70334979336, -81989.73023769024, -10548.011725903956, 28758.7378929541, 26076.372096106064, -187500.02235174447, 51551.10228670863, 19353.414398838806, -26780.854377848435, -13172.017117979183, 13446.362429423623, 8036.21209099437, -187500.02235174447, -5663.462658341248, -23397.090839992863, 0.02, 1.004, 0.134, 192.0, 0.0, 0.0, 0.0, 0.0, 0.0, 0.0, 0.0, 0.0, 0.0, 1.69593483509811E9, 0.0, 2023-09-28 16:00:35.098
62.0, -4729.4950162762425, 19687.260054023274, -82150.61809427955, -10602.058243996888, 28814.97488200365, 25861.571831890564, -187500.02235174447, 51364.01818561771, 19309.649683195315, -26846.79202399159, -13227.717665161808, 13441.914432277017, 7979.639825777987, -187500.02235174447, -5284.980569479534, -23007.902265537057, 0.014, 1.01, 0.138, 192.0, 0.0, 56.0, 15.5, 72.0, 2.0, 40.0, 0.0, 0.0, 0.0, 1.6959348350981305E9, 0.0, 2023-09-28 16:00:35.098
64.0, -4815.102197540069, 19627.93852423889, -82048.53767735216, -10545.664792736148, 28763.69998022318, 26062.49166279932, -187500.02235174447, 51494.887649403536, 19378.381297395386, -26794.757162899634, -13169.267853411182, 13437.08645547467, 8037.35202996159, -187500.02235174447, -5678.4159753818485, -23416.894485580266, 0.014, 1.01, 0.138, 192.0, 0.0, 0.0, 0.0, 0.0, 0.0, 0.0, 0.0, 0.0, 0.0, 1.6959348350981524E9, 0.0, 2023-09-28 16:00:35.098
66.0, -4739.2403768587565, 19692.557417459182, -82060.27234319119, -10606.260371954486, 28791.058515436474, 25879.989669321738, -187500.02235174447, 51416.8353577656, 19295.81395337748, -26845.24975362417, -13231.964496608318, 13459.013516785326, 7967.413421560935, -187500.02235174447, -5265.489848314506, -22985.17054142601, 0.014, 1.01, 0.138, 192.0, 0.0, 0.0, 0.0, 0.0, 0.0, 0.0, 0.0, 0.0, 0.0, 1.695934835098173E9, 0.0, 2023-09-28 16:00:35.098
68.0, -4777.014824988226, 19636.74511155428, -82125.89706491197, -10546.268289836442, 28754.334599296406, 26056.81431970767, -187500.02235174447, 51437.93540453141, 19376.704916561237, -26755.06046474701, -13136.83547220653, 13427.385798381067, 8032.456997925878, -187500.02235174447, -5683.5792283510245, -23417.25211349155, 0.014, 1.01, 0.138, 192.0, 0.0, 0.0, 0.0, 0.0, 0.0, 0.0, 0.0, 0.0, 0.0, 1.695934835098205E9, 0.0, 2023-09-28 16:00:35.098
70.0, -4766.80007777215, 19665.958841557367, -81951.03936803811, -10620.386674450241, 28769.869061692843, 25892.238425283245, -187500.02235174447, 51497.0557686157, 19274.892720567314, -26843.97570419022, -13240.994601368262, 13473.922130337016, 7974.498924553267, -187500.02235174447, -5255.453915054073, -22973.301765120243, 0.014, 1.01, 0.138, 192.0, 0.0, 0.0, 0.0, 0.0, 0.0, 0.0, 0.0, 0.0, 0.0, 1.695934835098225E9, 0.0, 2023-09-28 16:00:35.098
72.0, -4779.719386067318, 19651.050228005675, -82196.48387390183, -10545.284813080409, 28778.116855396853, 26020.24686577879, -187500.02235174447, 51379.86557243652, 19380.83998928547, -26763.330610195473, -13158.717830028276, 13400.139021890047, 8047.2538527552915, -187500.02235174447, -5647.659975011346, -23377.086028705362, 0.016, 1.0, 0.138, 192.0, 0.0, 64.0, 15.5, 32.0, 2.0, 40.0, 0.0, 0.0, 0.0, 1.6959348350982556E9, 0.0, 2023-09-28 16:00:35.098
74.0, -4761.614473058519, 19668.015202047256, -81882.55362302705, -10618.732645360547, 28773.6912099947, 25910.633910969962, -187500.02235174447, 51535.076085934175, 19271.361144943374, -26842.724006500724, -13238.737075178275, 13486.461458976444, 7973.806020475152, -187500.02235174447, -5280.71138628857, -22995.765268297826, 0.016, 1.0, 0.138, 192.0, 0.0, 0.0, 0.0, 0.0, 0.0, 0.0, 0.0, 0.0, 0.0, 1.6959348350982819E9, 0.0, 2023-09-28 16:00:35.098
76.0, -4768.565865584119, 19661.153216499475, -82285.10854066713, -10543.340211312796, 28786.521111312046, 25998.968005057337, -187500.02235174447, 51304.584897111046, 19407.259751231642, -26769.097360264943, -13153.398114847912, 13398.194420122436, 8057.133323804537, -187500.02235174447, -5653.516132058637, -23375.610813571315, 0.016, 1.0, 0.138, 192.0, 0.0, 0.0, 0.0, 0.0, 0.0, 0.0, 0.0, 0.0, 0.0, 1.6959348350983033E9, 0.0, 2023-09-28 16:00:35.098
78.0, -4778.557095355642, 19645.55169886967, -81796.07472372947, -10632.501319945017, 28734.150974053264, 25927.732995478273, -187500.02235174447, 51599.6279239211, 19285.934482328234, -26849.675399026324, -13246.157854337438, 13496.251523047868, 7939.563147969622, -187500.02235174447, -5321.659782130692, -23026.342454712685, 0.016, 1.0, 0.138, 192.0, 0.0, 0.0, 0.0, 0.0, 0.0, 0.0, 0.0, 0.0, 0.0, 1.695934835098323E9, 0.0, 2023-09-28 16:00:35.098
80.0, -4749.678641519385, 19675.972423073345, -82317.96560501643, -10548.525816026427, 28797.719335284157, 25961.729998794795, -187500.02235174447, 51263.90472220239, 19376.30258516104, -26779.06623829201, -13172.911187757396, 13370.634719209042, 8043.364649220068, -187500.02235174447, -5594.932209841277, -23301.403021979695, 0.016, 1.0, 0.138, 192.0, 0.0, 0.0, 0.0, 0.0, 0.0, 0.0, 0.0, 0.0, 0.0, 1.6959348350983448E9, 0.0, 2023-09-28 16:00:35.098
82.0, -4790.492926894775, 19651.631373361513, -81747.19145860571, -10616.072787770367, 28757.84382317589, 25965.865071519027, -187500.02235174447, 51632.954374903966, 19276.81497059047, -26826.630750492903, -13228.790548895664, 13510.221363332435, 7987.798212504174, -187500.02235174447, -5359.143657582243, -23052.9410306145, 0.022, 1.002, 0.132, 192.0, 0.0, 88.0, 15.5, 40.0, 2.0, 16.0, 0.0, 0.0, 0.0, 1.6959348350983653E9, 0.0, 2023-09-28 16:00:35.098
84.0, -4746.884673462471, 19668.819864847646, -82336.45049768097, -10560.595758032294, 28810.392774390315, 25948.52011782171, -187500.02235174447, 51245.509236515674, 19371.720477547704, -26790.264462264116, -13196.894609557941, 13364.108009828093, 8026.019695522749, -187500.02235174447, -5554.363793654895, -23251.402169633173, 0.022, 1.002, 0.132, 192.0, 0.0, 0.0, 0.0, 0.0, 0.0, 0.0, 0.0, 0.0, 0.0, 1.695934835098385E9, 0.0, 2023-09-28 16:00:35.098
86.0, -4786.022578003714, 19621.97060846932, -81701.75036212806, -10618.933811060646, 28749.43956726069, 26004.891217337994, -187500.02235174447, 51674.126288190644, 19280.882988081335, -26828.083613882496, -13229.975191351796, 13510.467232521443, 7994.906067240962, -187500.02235174447, -5392.939495198667, -23079.986641405423, 0.022, 1.002, 0.132, 192.0, 0.0, 0.0, 0.0, 0.0, 0.0, 0.0, 0.0, 0.0, 0.0, 1.6959348350984056E9, 0.0, 2023-09-28 16:00:35.098
88.0, -4757.144124167457, 19690.18813254692, -82358.8916491141, -10575.794944261903, 28819.37817566135, 25916.758288950718, -187500.02235174447, 51219.62591643643, 19353.704971516727, -26794.399534988348, -13191.686653099854, 13351.725143399854, 8004.696131312387, -187500.02235174447, -5508.721531477157, -23190.784238670378, 0.022, 1.002, 0.132, 192.0, 0.0, 0.0, 0.0, 0.0, 0.0, 0.0, 0.0, 0.0, 0.0, 1.6959348350984263E9, 0.0, 2023-09-28 16:00:35.098
90.0, -4805.736816613295, 19616.248561888762, -81698.17408301521, -10612.451805168606, 28748.65725620476, 26012.66962440844, -187500.02235174447, 51673.0981079457, 19279.653642136294, -26820.864000423433, -13218.6205051685, 13509.327293554223, 7972.643729763477, -187500.02235174447, -5455.591434906893, -23131.66387458609, 0.022, 1.002, 0.132, 192.0, 0.0, 0.0, 0.0, 0.0, 0.0, 0.0, 0.0, 0.0, 0.0, 1.6959348350984535E9, 0.0, 2023-09-28 16:00:35.098
92.0, -4734.211234356312, 19699.799382662703, -82380.21521332445, -10571.592816304305, 28840.835850338444, 25892.149018305427, -187500.02235174447, 51179.52688688361, 19368.054791457034, -26804.7260409267, -13188.624464109476, 13367.17019881847, 7997.342407386591, -187500.02235174447, -5481.206534052674, -23148.517089905392, 0.024, 1.006, 0.134, 192.0, 0.0, 96.0, 15.5, 56.0, 2.0, 24.0, 0.0, 0.0, 0.0, 1.69593483509848E9, 0.0, 2023-09-28 16:00:35.098
94.0, -4813.939906828393, 19619.48956483478, -81737.33433930091, -10603.846383553313, 28748.903125393765, 26036.094252597602, -187500.02235174447, 51636.35184006117, 19285.509799183583, -26806.02244210511, -13209.389234708457, 13508.187354587002, 8010.485233126311, -187500.02235174447, -5542.316203393484, -23209.760869712936, 0.024, 1.006, 0.134, 192.0, 0.0, 0.0, 0.0, 0.0, 0.0, 0.0, 0.0, 0.0, 0.0, 1.6959348350985065E9, 0.0, 2023-09-28 16:00:35.098
96.0, -4735.977022168282, 19691.573940703147, -82344.89945708508, -10582.969854232057, 28813.097335469407, 25871.875986084462, -187500.02235174447, 51175.19064845928, 19373.06158221502, -26817.667700966325, -13214.95481907783, 13367.326661029658, 8002.125680700026, -187500.02235174447, -5433.776132318513, -23096.638691024626, 0.024, 1.006, 0.134, 192.0, 0.0, 0.0, 0.0, 0.0, 0.0, 0.0, 0.0, 0.0, 0.0, 1.695934835098539E9, 0.0, 2023-09-28 16:00:35.098
98.0, -4804.015732290236, 19623.44582360337, -81772.91831647376, -10579.550037330395, 28746.466785248136, 26056.63550575203, -187500.02235174447, 51603.87475536761, 19316.601075720915, -26788.275157007596, -13185.741089074743, 13504.991055129893, 8017.235459951814, -187500.02235174447, -5586.572657414992, -23254.084378967807, 0.024, 1.006, 0.134, 192.0, 0.0, 0.0, 0.0, 0.0, 0.0, 0.0, 0.0, 0.0, 0.0, 1.6959348350985613E9, 0.0, 2023-09-28 16:00:35.098
100.0, -4718.185033581857, 19714.775051447756, -82319.95491027295, -10578.387746618719, 28816.673614582258, 25866.802140093107, -187500.02235174447, 51182.90200029636, 19346.239488868654, -26812.482096252694, -13206.058824784617, 13399.423766067477, 8010.529936615221, -187500.02235174447, -5410.463262851627, -23071.51533025686, 0.024, 1.006, 0.134, 192.0, 0.0, 0.0, 0.0, 0.0, 0.0, 0.0, 0.0, 0.0, 0.0, 1.6959348350985844E9, 0.0, 2023-09-28 16:00:35.098
102.0, -4807.346142214077, 19615.108622921543, -81810.98333728116, -10577.896008240701, 28728.518334450524, 26066.06794191217, -187500.02235174447, 51586.596856903656, 19318.545677488528, -26783.424828460793, -13185.383461163457, 13490.19420030048, 7994.660198051954, -187500.02235174447, -5639.389829562882, -23310.969568606564, 0.024, 1.006, 0.13, 192.0, 0.0, 96.0, 15.5, 56.0, 2.0, 8.0, 0.0, 0.0, 0.0, 1.6959348350986245E9, 0.0, 2023-09-28 16:00:35.098
104.0, -4724.577632496075, 19702.682757697436, -82236.29233077673, -10589.854191524291, 28802.70377429769, 25857.45911091079, -187500.02235174447, 51230.15358807488, 19316.511668743096, -26829.380015060906, -13224.543717449156, 13402.195382379936, 7956.304604566647, -187500.02235174447, -5350.515884222494, -23008.88574229309, 0.024, 1.006, 0.13, 192.0, 0.0, 0.0, 0.0, 0.0, 0.0, 0.0, 0.0, 0.0, 0.0, 1.6959348355774477E9, 0.0, 2023-09-28 16:00:35.577
106.0, -4782.155726212946, 19639.181451699907, -81888.99092543017, -10536.612336231748, 28789.091561924408, 26089.02318346777, -187500.02235174447, 51524.727228251366, 19354.509634317117, -26771.0196102881, -13176.755687803708, 13480.538246695787, 8037.240271239313, -187500.02235174447, -5676.516077103148, -23348.14051963574, 0.024, 1.006, 0.13, 192.0, 0.0, 0.0, 0.0, 0.0, 0.0, 0.0, 0.0, 0.0, 0.0, 1.6959348355775387E9, 0.0, 2023-09-28 16:00:35.577
108.0, -4716.128673091969, 19701.051080352197, -82184.81626329616, -10580.444107108606, 28830.643454866822, 25866.69038137083, -187500.02235174447, 51255.47811454274, 19327.39696829283, -26832.039872651087, -13188.870333298486, 13439.27692643129, 7983.998415946772, -187500.02235174447, -5353.153390068221, -23011.433841160997, 0.024, 1.006, 0.13, 192.0, 0.0, 0.0, 0.0, 0.0, 0.0, 0.0, 0.0, 0.0, 0.0, 1.695934835577575E9, 0.0, 2023-09-28 16:00:35.577
110.0, -4770.175191184901, 19637.41566388794, -81964.98685657822, -10538.892214166191, 28766.136320368805, 26068.079598913147, -187500.02235174447, 51469.652529913496, 19357.571823307495, -26752.512365879105, -13144.546824043611, 13468.580063412199, 8050.4501522124, -187500.02235174447, -5710.691894375312, -23383.590386341857, 0.024, 1.006, 0.13, 192.0, 0.0, 0.0, 0.0, 0.0, 0.0, 0.0, 0.0, 0.0, 0.0, 1.6959348355776021E9, 0.0, 2023-09-28 16:00:35.577
112.0, -4761.212141658323, 19685.56132144467, -82058.88653503497, -10602.885258541735, 28783.771846744043, 25857.16853823287, -187500.02235174447, 51331.54110092415, 19304.553485459506, -26840.9358669443, -13219.581630180077, 13448.776417824796, 7968.709822739342, -187500.02235174447, -5306.393540667718, -22963.17642488199, 0.016, 1.006, 0.134, 192.0, 0.0, 64.0, 15.5, 56.0, 2.0, 24.0, 0.0, 0.0, 0.0, 1.6959348355776296E9, 0.0, 2023-09-28 16:00:35.577
114.0, -4792.079900751102, 19659.052152520675, -82029.04695618713, -10530.555013484362, 28789.06921017995, 26062.96104943288, -187500.02235174447, 51414.42136936443, 19385.332689920986, -26769.656153876324, -13148.368972345468, 13439.99218225386, 8026.690247856409, -187500.02235174447, -5701.371216937449, -23372.682735047667, 0.016, 1.006, 0.134, 192.0, 0.0, 0.0, 0.0, 0.0, 0.0, 0.0, 0.0, 0.0, 0.0, 1.6959348355776565E9, 0.0, 2023-09-28 16:00:35.577
116.0, -4759.580464313086, 19675.83831260661, -81950.86055408246, -10610.86483131228, 28768.058570391964, 25870.80310235061, -187500.02235174447, 51403.156090158955, 19282.894645082313, -26833.7833087186, -13215.066577800106, 13473.340984981178, 7950.1131713525265, -187500.02235174447, -5301.163232465176, -22957.16380562351, 0.016, 1.006, 0.134, 192.0, 0.0, 0.0, 0.0, 0.0, 0.0, 0.0, 0.0, 0.0, 0.0, 1.6959348355776844E9, 0.0, 2023-09-28 16:00:35.577
118.0, -4772.924455752905, 19649.75382682727, -82071.0682357631, -10534.734789697504, 28762.850613933875, 26030.595723461596, -187500.02235174447, 51378.7256334693, 19364.523215833095, -26783.603642416438, -13154.806274748598, 13416.254629642324, 8028.344276946102, -187500.02235174447, -5675.018510224642, -23346.195917868128, 0.016, 1.006, 0.134, 192.0, 0.0, 0.0, 0.0, 0.0, 0.0, 0.0, 0.0, 0.0, 0.0, 1.6959348355777235E9, 0.0, 2023-09-28 16:00:35.577
120.0, -4752.763182254217, 19672.642013149503, -81861.7217971947, -10604.762805075981, 28776.820454218443, 25901.201474809823, -187500.02235174447, 51455.101544273086, 19290.538941686027, -26833.69390174078, -13219.626333668988, 13498.263180048845, 7973.761316986242, -187500.02235174447, -5295.999979496, -22951.844090443148, 0.016, 1.006, 0.134, 192.0, 0.0, 0.0, 0.0, 0.0, 0.0, 0.0, 0.0, 0.0, 0.0, 1.6959348355777564E9, 0.0, 2023-09-28 16:00:35.577
122.0, -4750.5056560642315, 19668.909271825465, -82157.5918385496, -10533.79601643038, 28785.559986300468, 26017.58700818861, -187500.02235174447, 51302.282667432155, 19384.17039920931, -26780.67556389279, -13155.879158482452, 13409.929085961472, 8042.02354455275, -187500.02235174447, -5670.771678778134, -23338.95395266461, 0.018000000000000002, 1.0, 0.132, 192.0, 0.0, 72.0, 15.5, 32.0, 2.0, 16.0, 0.0, 0.0, 0.0, 1.6959348355777817E9, 0.0, 2023-09-28 16:00:35.577
124.0, -4756.048888689147, 19665.243585734795, -81793.41486613928, -10615.67045637017, 28759.251983076574, 25923.284998331666, -187500.02235174447, 51494.93235289244, 19301.558351702493, -26836.107890141953, -13212.250257998736, 13502.755880684363, 7955.81286618863, -187500.02235174447, -5327.180663011153, -22981.795428013258, 0.018000000000000002, 1.0, 0.132, 192.0, 0.0, 0.0, 0.0, 0.0, 0.0, 0.0, 0.0, 0.0, 0.0, 1.6959348355778067E9, 0.0, 2023-09-28 16:00:35.577
126.0, -4767.4706301058095, 19661.913175810954, -82216.39927821151, -10543.921356668634, 28779.41325657526, 25983.99233627228, -187500.02235174447, 51234.64628871039, 19387.679623088792, -26779.267403992108, -13156.12502767146, 13387.487934528344, 8035.250965982791, -187500.02235174447, -5651.146847146374, -23321.407833267192, 0.018000000000000002, 1.0, 0.132, 192.0, 0.0, 0.0, 0.0, 0.0, 0.0, 0.0, 0.0, 0.0, 0.0, 1.6959348355778313E9, 0.0, 2023-09-28 16:00:35.577
128.0, -4774.6902435648735, 19658.247489720285, -81749.80661270698, -10605.187488220632, 28774.13824488381, 25953.19163241287, -187500.02235174447, 51511.83027170066, 19293.981110332144, -26833.40332906286, -13223.13555754847, 13510.400177288078, 7986.993549703783, -187500.02235174447, -5355.746192425036, -23016.150059241067, 0.018000000000000002, 1.0, 0.132, 192.0, 0.0, 0.0, 0.0, 0.0, 0.0, 0.0, 0.0, 0.0, 0.0, 1.6959348355778563E9, 0.0, 2023-09-28 16:00:35.577
130.0, -4741.944937937848, 19666.27176597974, -82285.3767616006, -10539.518063010939, 28797.78639051752, 25975.18574895689, -187500.02235174447, 51178.52105838312, 19392.35113767995, -26798.22168329021, -13175.302824414113, 13370.969995375872, 8039.184873006925, -187500.02235174447, -5629.130378857896, -23300.866580112768, 0.018000000000000002, 1.0, 0.132, 192.0, 0.0, 0.0, 0.0, 0.0, 0.0, 0.0, 0.0, 0.0, 0.0, 1.695934835577882E9, 0.0, 2023-09-28 16:00:35.577
132.0, -4790.448223405865, 19625.278666648708, -81676.69405659367, -10609.233153967041, 28771.120759382342, 25983.746467083274, -187500.02235174447, 51579.80192658924, 19262.643964605806, -26837.717215742734, -13221.481528458778, 13504.208744073958, 7952.86243592053, -187500.02235174447, -5387.239800362564, -23051.644629436094, 0.022, 1.002, 0.134, 192.0, 0.0, 88.0, 15.5, 40.0, 2.0, 24.0, 0.0, 0.0, 0.0, 1.6959348355779073E9, 0.0, 2023-09-28 16:00:35.577
134.0, -4740.4697228037985, 19685.31545225566, -82296.3738198726, -10546.871786936736, 28831.314007200483, 25942.239277629767, -187500.02235174447, 51163.70185180925, 19368.59123332396, -26812.750317186157, -13187.70804258681, 13358.207149291891, 8018.129529730026, -187500.02235174447, -5548.1053052074085, -23218.746270983967, 0.022, 1.002, 0.134, 192.0, 0.0, 0.0, 0.0, 0.0, 0.0, 0.0, 0.0, 0.0, 0.0, 1.6959348355779288E9, 0.0, 2023-09-28 16:00:35.577
136.0, -4804.66393287944, 19630.486623106794, -81653.20237317114, -10604.047549253411, 28755.20631733016, 26012.58021743062, -187500.02235174447, 51595.67166515251, 19288.43787770723, -26834.78913721909, -13214.843060355552, 13510.333122054712, 7998.3035323981685, -187500.02235174447, -5426.936498515189, -23097.443353825016, 0.022, 1.002, 0.134, 192.0, 0.0, 0.0, 0.0, 0.0, 0.0, 0.0, 0.0, 0.0, 0.0, 1.695934835577953E9, 0.0, 2023-09-28 16:00:35.577
138.0, -4734.635917500963, 19692.915045370468, -82306.18623568848, -10550.693935238593, 28810.12455345685, 25923.84379194305, -187500.02235174447, 51141.93125270978, 19359.985811708666, -26787.515197696117, -13181.31544367259, 13362.722201671864, 8017.324866929635, -187500.02235174447, -5499.736130206124, -23171.29351750535, 0.022, 1.002, 0.134, 192.0, 0.0, 0.0, 0.0, 0.0, 0.0, 0.0, 0.0, 0.0, 0.0, 1.6959348355779767E9, 0.0, 2023-09-28 16:00:35.577
140.0, -4805.490947424287, 19619.400157856962, -81652.42006211521, -10583.729813543536, 28750.043064360987, 26036.563639231164, -187500.02235174447, 51599.35970298764, 19309.225000050665, -26812.906779397345, -13207.84696434104, 13522.112491382659, 8012.5639453606545, -187500.02235174447, -5474.121031060342, -23145.566659637294, 0.022, 1.002, 0.134, 192.0, 0.0, 0.0, 0.0, 0.0, 0.0, 0.0, 0.0, 0.0, 0.0, 1.6959348355780003E9, 0.0, 2023-09-28 16:00:35.578
142.0, -4740.60383327053, 19683.32614699914, -82281.64402027655, -10569.402345347686, 28811.46565812417, 25899.279224786667, -187500.02235174447, 51142.244177132154, 19366.423114111796, -26815.946616643265, -13199.956798548317, 13368.243082552324, 8014.888526784007, -187500.02235174447, -5439.654641110259, -23114.922417989066, 0.024, 0.996, 0.136, 192.0, 0.0, 96.0, 15.5, 16.0, 2.0, 32.0, 0.0, 0.0, 0.0, 1.6959348355780284E9, 0.0, 2023-09-28 16:00:35.578
