%OpenBCI Raw EXG Data
%Number of channels = 16
%Sample Rate = 125 Hz
%Board = OpenBCI_GUI$BoardCytonSerialDaisy
Sample Index, EXG Channel 0, EXG Channel 1, EXG Channel 2, EXG Channel 3, EXG Channel 4, EXG Channel 5, EXG Channel 6, EXG Channel 7, EXG Channel 8, EXG Channel 9, EXG Channel 10, EXG Channel 11, EXG Channel 12, EXG Channel 13, EXG Channel 14, EXG Channel 15, Accel Channel 0, Accel Channel 1, Accel Channel 2, Other, Other, Other, Other, Other, Other, Other, Analog Channel 0, Analog Channel 1, Analog Channel 2, Timestamp, Other, Timestamp (Formatted)
0.0, 24057.026095035806, 15862.697763764592, -35276.59598309946, -63695.14032544379, -187500.02235174447, 3247.931986800669, -187500.02235174447, -187500.02235174447, 0.0, 0.0, 0.0, 0.0, 0.0, 0.0, 0.0, 0.0, -0.024, 0.481, 0.15, 192.0, 127.0, 64.0, 15.0, 8.0, 4.5, 48.0, 0.0, 0.0, 0.0, 1.695418303246158E9, 0.0, 2023-09-22 16:31:43.246
238.0, 24051.99695253336, 15857.221586373042, -35294.00799203014, -63703.902209270265, -187500.02235174447, 3235.0797337388676, -187500.02235174447, -187500.02235174447, -44092.92865907296, 9485.54390496539, -60196.08648968775, -69377.1772834274, -9404.474127825992, -34317.46027677778, -7014.379741475552, 10509.969056841024, -0.024, 0.481, 0.15, 192.0, 0.0, 0.0, 0.0, 0.0, 0.0, 0.0, 0.0, 0.0, 0.0, 1.695418303246168E9, 0.0, 2023-09-22 16:31:43.246
240.0, 24051.840490322174, 15858.741504996004, -35285.13434948139, -63699.11893595683, -187500.02235174447, 3266.036899809468, -187500.02235174447, -187500.02235174447, -44107.88197611356, 9455.816084839831, -60209.072853216276, -69389.67190857792, -9414.599468064245, -34327.0044716602, -7017.218413021375, 10500.022530558412, -0.024, 0.481, 0.15, 192.0, 0.0, 0.0, 0.0, 0.0, 0.0, 0.0, 0.0, 0.0, 0.0, 1.695418303246171E9, 0.0, 2023-09-22 16:31:43.246
242.0, 24072.649964410062, 15881.115601195766, -35274.673733076306, -63674.04027867798, -187500.02235174447, 3233.9844982605578, -187500.02235174447, -187500.02235174447, -44079.62937112205, 9490.193067812093, -60179.926178446556, -69360.90521346394, -9389.00672066292, -34304.8985963939, -7000.298142468709, 10521.614315702238, -0.024, 0.481, 0.15, 192.0, 0.0, 0.0, 0.0, 0.0, 0.0, 0.0, 0.0, 0.0, 0.0, 1.695418303246175E9, 0.0, 2023-09-22 16:31:43.246
244.0, 24038.496498882356, 15843.542318766395, -35288.42005591632, -63709.0878139839, -187500.02235174447, 3256.939739816158, -187500.02235174447, -187500.02235174447, -44104.126883045064, 9469.696518146577, -60229.52469939288, -69384.95569049784, -9404.585886548268, -34314.33103255404, -7001.572191902661, 10479.54833263735, -0.024, 0.481, 0.15, 192.0, 0.0, 0.0, 0.0, 0.0, 0.0, 0.0, 0.0, 0.0, 0.0, 1.695418303246178E9, 0.0, 2023-09-22 16:31:43.246
246.0, 24040.888135539073, 15843.85524318877, -35302.25578573415, -63712.015892507545, -187500.02235174447, 3259.7560596175267, -187500.02235174447, -187500.02235174447, -44112.55349070472, 9464.756782621955, -60161.19541659301, -69403.59704537356, -9414.800633764344, -34311.40295403039, -7010.356427473596, 10541.41796128964, -0.035, 0.7235, 0.22599999999999998, 192.0, 127.0, 72.0, 15.0, 24.0, 4.5, 56.0, 0.0, 0.0, 0.0, 1.695418303246185E9, 0.0, 2023-09-22 16:31:43.246
248.0, 24053.18159498949, 15856.528682294927, -35279.43465464529, -63697.24138942259, -187500.02235174447, 3250.971824046591, -187500.02235174447, -187500.02235174447, -44103.12105454458, 9466.410811711647, -60192.845486741724, -69392.08589697909, -9410.419691851102, -34324.00933790318, -7011.116386785077, 10499.9778270695, -0.035, 0.7235, 0.22599999999999998, 192.0, 0.0, 0.0, 0.0, 0.0, 0.0, 0.0, 0.0, 0.0, 0.0, 1.695418303246188E9, 0.0, 2023-09-22 16:31:43.246
250.0, 24066.369124218123, 15865.558787054872, -35282.45214014675, -63690.55821783045, -187500.02235174447, 3246.2779577109764, -187500.02235174447, -187500.02235174447, -44087.25131598131, 9487.577913710824, -60161.262471826376, -69370.09178043506, -9397.14275564465, -34303.31162253757, -6989.077566752144, 10530.197385573076, -0.035, 0.7235, 0.22599999999999998, 192.0, 0.0, 0.0, 0.0, 0.0, 0.0, 0.0, 0.0, 0.0, 0.0, 1.695418303246191E9, 0.0, 2023-09-22 16:31:43.246
252.0, 24051.214641477425, 15846.604507756772, -35290.20819547274, -63713.692273341694, -187500.02235174447, 3244.7580390880157, -187500.02235174447, -187500.02235174447, -44096.795510863725, 9478.771326395432, -60184.128306404156, -69379.16658868392, -9411.559630818323, -34316.29798606611, -7005.506098926795, 10488.801954841847, -0.035, 0.7235, 0.22599999999999998, 192.0, 0.0, 0.0, 0.0, 0.0, 0.0, 0.0, 0.0, 0.0, 0.0, 1.695418303246194E9, 0.0, 2023-09-22 16:31:43.246
0.0, 12016.878964528914, 7946.872168406507, -17637.44862526043, -31839.791755651448, -93750.01117587223, 1740.6420994570376, -93750.01117587223, -93750.01117587223, -22043.536251012833, 4737.899272191438, -30053.507394016673, -34689.54976672528, -4703.097606074525, -17151.700514757697, -3504.6864753587815, 5276.75512751998, -0.042, 0.964, 0.302, 192.0, 127.0, 88.0, 15.0, 16.0, 4.5, 56.0, 0.0, 0.0, 0.0, 1.695418303379973E9, 0.0, 2023-09-22 16:31:43.379
2.0, 24031.679216823486, 15890.883313522734, -35269.01874172911, -63685.0820404389, -187500.02235174447, 3497.8468415554576, -187500.02235174447, -187500.02235174447, -44184.16847993952, 9820.261278183614, -56347.16079797278, -69359.1170739075, -9484.471021231535, -34721.177485129534, -6872.4014606954415, 10710.039521460476, -0.042, 0.964, 0.302, 192.0, 0.0, 0.0, 0.0, 0.0, 0.0, 0.0, 0.0, 0.0, 0.0, 1.695418303379986E9, 0.0, 2023-09-22 16:31:43.379
4.0, 24040.061120994225, 15892.023252489955, -35275.59015459897, -63682.35512761535, -187500.02235174447, 3503.7253503472034, -187500.02235174447, -187500.02235174447, -44183.69909330596, 9823.167004962803, -56295.260047347554, -69366.94018446686, -9482.392308997192, -34701.4408947755, -6878.279969487187, 10759.928615084722, -0.042, 0.964, 0.302, 192.0, 0.0, 0.0, 0.0, 0.0, 0.0, 0.0, 0.0, 0.0, 0.0, 1.69541830337999E9, 0.0, 2023-09-22 16:31:43.379
6.0, 24045.023208263305, 15897.052394992399, -35253.126651421386, -63678.08594442439, -187500.02235174447, 3485.1734024492985, -187500.02235174447, -187500.02235174447, -44166.44354658646, 9830.967763777706, -56339.605908346886, -69350.8692802035, -9467.707212890055, -34713.73435422592, -6868.109925760023, 10708.78782377098, -0.042, 0.964, 0.302, 192.0, 0.0, 0.0, 0.0, 0.0, 0.0, 0.0, 0.0, 0.0, 0.0, 1.695418303379993E9, 0.0, 2023-09-22 16:31:43.379
8.0, 24047.3254379422, 15904.875505551758, -35267.45411961724, -63681.46105783714, -187500.02235174447, 3498.964428778223, -187500.02235174447, -187500.02235174447, -44164.7224622634, 9828.553775376533, -56306.70414050867, -69353.97617268279, -9461.15815176465, -34695.09299935019, -6850.943786018346, 10745.578795144414, -0.038, 0.968, 0.304, 192.0, 127.0, 104.0, 15.0, 32.0, 4.5, 64.0, 0.0, 0.0, 0.0, 1.695418303379996E9, 0.0, 2023-09-22 16:31:43.379
10.0, 24043.972676273905, 15905.970741030067, -35254.98184621118, -63681.4834095816, -187500.02235174447, 3484.614608837916, -187500.02235174447, -187500.02235174447, -44168.70107277645, 9850.749057620653, -56322.260954649566, -69352.03157091518, -9474.166867037638, -34707.67703147853, -6870.859190328025, 10711.626495316803, -0.038, 0.968, 0.304, 192.0, 0.0, 0.0, 0.0, 0.0, 0.0, 0.0, 0.0, 0.0, 0.0, 1.69541830338E9, 0.0, 2023-09-22 16:31:43.380
12.0, 24052.555746144742, 15909.926999798656, -35252.5231543211, -63674.53201705599, -187500.02235174447, 3496.997475266156, -187500.02235174447, -187500.02235174447, -44170.10923267713, 9845.250528484647, -56278.071555861425, -69355.85371921703, -9469.294186746381, -34699.83156917472, -6856.799943065637, 10764.17544653123, -0.038, 0.968, 0.304, 192.0, 0.0, 0.0, 0.0, 0.0, 0.0, 0.0, 0.0, 0.0, 0.0, 1.695418303380003E9, 0.0, 2023-09-22 16:31:43.380
14.0, 24039.167051216013, 15895.890104280723, -35249.05863393052, -63687.048993950964, -187500.02235174447, 3473.215219165709, -187500.02235174447, -187500.02235174447, -44154.91004644753, 9845.384638951378, -56315.48837607961, -69352.41155057092, -9464.5332651774, -34704.279566321326, -6861.314995445609, 10708.474899348605, -0.038, 0.968, 0.304, 192.0, 0.0, 0.0, 0.0, 0.0, 0.0, 0.0, 0.0, 0.0, 0.0, 1.695418303380006E9, 0.0, 2023-09-22 16:31:43.380
16.0, 24043.436234406978, 15902.52857238395, -35249.19274439725, -63677.41539209073, -187500.02235174447, 3501.8478038129574, -187500.02235174447, -187500.02235174447, -44165.7729942528, 9842.523615661099, -56272.46126800314, -69360.27936461919, -9467.34958497877, -34708.41463904556, -6847.076934227578, 10766.589434932404, -0.038, 0.968, 0.304, 192.0, 0.0, 0.0, 0.0, 0.0, 0.0, 0.0, 0.0, 0.0, 0.0, 1.695418303441014E9, 0.0, 2023-09-22 16:31:43.441
18.0, 24045.4255396635, 15906.842459063824, -35241.816668727006, -63670.50870305404, -187500.02235174447, 3469.0130912081113, -187500.02235174447, -187500.02235174447, -44149.45622080043, 9858.885092602384, -56277.35630003885, -69336.09477711855, -9463.125105276717, -34712.97439491444, -6844.372373148486, 10733.330039182907, -0.032, 0.964, 0.304, 192.0, 127.5, 0.0, 15.0, 16.0, 4.5, 64.0, 0.0, 0.0, 0.0, 1.695418303441026E9, 0.0, 2023-09-22 16:31:43.441
20.0, 24050.65584786604, 15912.117470755276, -35247.2704943741, -63667.44651406366, -187500.02235174447, 3491.45424264124, -187500.02235174447, -187500.02235174447, -44159.223933127396, 9867.155238050847, -56258.782000396495, -69344.94606792285, -9465.606148911256, -34702.871406420636, -6833.598832321029, 10768.310519255463, -0.032, 0.964, 0.304, 192.0, 0.0, 0.0, 0.0, 0.0, 0.0, 0.0, 0.0, 0.0, 0.0, 1.69541830344103E9, 0.0, 2023-09-22 16:31:43.441
22.0, 24048.33126644269, 15911.62573237726, -35248.45513683023, -63670.24048212058, -187500.02235174447, 3453.791553234047, -187500.02235174447, -187500.02235174447, -44138.92854916198, 9885.19309582628, -56266.85098014486, -69328.89751540394, -9462.387497709691, -34702.647888976084, -6841.086666713556, 10732.726542082613, -0.032, 0.964, 0.304, 192.0, 0.0, 0.0, 0.0, 0.0, 0.0, 0.0, 0.0, 0.0, 0.0, 1.695418303441033E9, 0.0, 2023-09-22 16:31:43.441
24.0, 24070.683010897996, 15937.844328623336, -35236.1169738909, -63653.431970290185, -187500.02235174447, 3476.635036067371, -187500.02235174447, -187500.02235174447, -44136.02282238279, 9887.67413946082, -56254.40105848325, -69323.01900661219, -9459.839398841787, -34676.85397587466, -6823.071160682579, 10759.88391159581, -0.032, 0.964, 0.304, 192.0, 0.0, 0.0, 0.0, 0.0, 0.0, 0.0, 0.0, 0.0, 0.0, 1.695418303441036E9, 0.0, 2023-09-22 16:31:43.441
26.0, 24059.10480727015, 15923.941543572135, -35250.26562813111, -63675.00140368956, -187500.02235174447, 3440.4699135386845, -187500.02235174447, -187500.02235174447, -44113.7604849053, 9915.09972990748, -56256.99386084007, -69306.67988141536, -9455.905491817653, -34688.36512426915, -6832.481245098263, 10729.709056581147, -0.032, 0.964, 0.304, 192.0, 0.0, 0.0, 0.0, 0.0, 0.0, 0.0, 0.0, 0.0, 0.0, 1.69541830344104E9, 0.0, 2023-09-22 16:31:43.441
28.0, 24055.19325199047, 15919.247677236519, -35258.580477068484, -63683.98680496059, -187500.02235174447, 3471.9188179873013, -187500.02235174447, -187500.02235174447, -44138.57092125069, 9891.406880784856, -56247.56142467993, -69332.65260847242, -9471.775230380921, -34716.30480483828, -6842.763047547704, 10757.358164472362, -0.032, 0.962, 0.306, 192.0, 127.5, 0.0, 15.0, 8.0, 4.5, 72.0, 0.0, 0.0, 0.0, 1.695418303441043E9, 0.0, 2023-09-22 16:31:43.441
30.0, 24056.132025257593, 15926.802566862414, -35256.412357856316, -63672.83328447739, -187500.02235174447, 3436.178378603265, -187500.02235174447, -187500.02235174447, -44130.6137002246, 9898.715901221742, -56232.65281112824, -69320.85088740003, -9474.390384482193, -34712.97439491444, -6858.476323899785, 10747.45634167866, -0.032, 0.962, 0.306, 192.0, 0.0, 0.0, 0.0, 0.0, 0.0, 0.0, 0.0, 0.0, 0.0, 1.695418303499763E9, 0.0, 2023-09-22 16:31:43.499
32.0, 24060.110635770638, 15932.457558209606, -35246.51053506262, -63672.721525755114, -187500.02235174447, 3464.2745213835865, -187500.02235174447, -187500.02235174447, -44127.08212460067, 9901.509869278654, -56254.78103813899, -69316.89462863143, -9464.35445122176, -34702.871406420636, -6838.1809399343665, 10746.852844578367, -0.032, 0.962, 0.306, 192.0, 0.0, 0.0, 0.0, 0.0, 0.0, 0.0, 0.0, 0.0, 0.0, 1.695418303499776E9, 0.0, 2023-09-22 16:31:43.499
34.0, 24054.52269965681, 15927.093139540333, -35263.475509104195, -63681.03637469249, -187500.02235174447, 3441.2745763390753, -187500.02235174447, -187500.02235174447, -44125.71866818889, 9906.091976891992, -56225.924936047195, -69320.80618391112, -9469.964739080042, -34690.04150510329, -6855.190617464855, 10749.669164379737, -0.032, 0.962, 0.306, 192.0, 0.0, 0.0, 0.0, 0.0, 0.0, 0.0, 0.0, 0.0, 0.0, 1.695418303499779E9, 0.0, 2023-09-22 16:31:43.499
36.0, 24063.105769527647, 15939.811282135403, -35251.673788031796, -63679.874083980816, -187500.02235174447, 3469.705995286226, -187500.02235174447, -187500.02235174447, -44126.94801413394, 9907.47778504822, -56242.80050311095, -69324.74009093524, -9468.087192545796, -34692.50019699338, -6851.144951718445, 10748.79744634598, -0.032, 0.962, 0.306, 192.0, 0.0, 0.0, 0.0, 0.0, 0.0, 0.0, 0.0, 0.0, 0.0, 1.695418303499783E9, 0.0, 2023-09-22 16:31:43.499
38.0, 24049.560612387733, 15921.0581685374, -35257.1723171678, -63681.23754039258, -187500.02235174447, 3447.264843853098, -187500.02235174447, -187500.02235174447, -44125.42809551097, 9905.689645491797, -56200.68981655715, -69331.4679660163, -9466.388459967191, -34690.421484759034, -6849.580329606572, 10767.952891344177, -0.034, 0.962, 0.308, 192.0, 127.0, 120.0, 15.0, 8.0, 4.5, 80.0, 0.0, 0.0, 0.0, 1.695418303499786E9, 0.0, 2023-09-22 16:31:43.499
40.0, 24061.630554393596, 15927.115491284787, -35230.551389521526, -63654.16957785721, -187500.02235174447, 3458.9101027143124, -187500.02235174447, -187500.02235174447, -44120.62247045308, 9897.128927365415, -56231.2222994831, -69319.08509958805, -9456.06195402884, -34697.30582205127, -6826.915660728891, 10753.647774892781, -0.034, 0.962, 0.308, 192.0, 0.0, 0.0, 0.0, 0.0, 0.0, 0.0, 0.0, 0.0, 0.0, 1.695418303499789E9, 0.0, 2023-09-22 16:31:43.499
42.0, 24052.3769321891, 15919.38178770325, -35255.428881100284, -63663.51260703953, -187500.02235174447, 3452.092820655444, -187500.02235174447, -187500.02235174447, -44128.78085717927, 9889.372872039423, -56194.185458920656, -69314.30182627462, -9472.177561781116, -34687.426351002025, -6838.762085290205, 10775.8430571369, -0.034, 0.962, 0.308, 192.0, 0.0, 0.0, 0.0, 0.0, 0.0, 0.0, 0.0, 0.0, 0.0, 1.695418303499793E9, 0.0, 2023-09-22 16:31:43.499
44.0, 24054.85797582364, 15916.029026034956, -35250.13151766438, -63670.016964676026, -187500.02235174447, 3460.988814948656, -187500.02235174447, -187500.02235174447, -44122.90234838752, 9885.595427226475, -56226.59548838085, -69321.72260543378, -9466.25434950046, -34698.401057529576, -6837.666849811894, 10749.13272251281, -0.034, 0.962, 0.308, 192.0, 0.0, 0.0, 0.0, 0.0, 0.0, 0.0, 0.0, 0.0, 0.0, 1.695418303499796E9, 0.0, 2023-09-22 16:31:43.499
46.0, 24063.329286972203, 15928.702465141114, -35256.18884041176, -63666.91007219673, -187500.02235174447, 3446.929567686268, -187500.02235174447, -187500.02235174447, -44114.94512736143, 9893.10561336346, -56191.033862952456, -69315.53117221966, -9459.30295697486, -34685.124121323126, -6839.320878901587, 10774.524304214037, -0.034, 0.962, 0.308, 192.0, 0.0, 0.0, 0.0, 0.0, 0.0, 0.0, 0.0, 0.0, 0.0, 1.695418303560111E9, 0.0, 2023-09-22 16:31:43.560
48.0, 24033.512059868823, 15902.86384855078, -35275.500747621154, -63704.058671481456, -187500.02235174447, 3469.9742162196894, -187500.02235174447, -187500.02235174447, -44138.10153461713, 9877.437040500288, -56215.33020917538, -69344.85666094502, -9480.715928163043, -34697.842263918195, -6862.432582668374, 10744.014173032543, -0.032, 0.9580000000000001, 0.31, 192.0, 127.5, 0.0, 14.5, 120.0, 4.5, 88.0, 0.0, 0.0, 0.0, 1.695418303560122E9, 0.0, 2023-09-22 16:31:43.560
50.0, 24066.302068984758, 15937.10672105631, -35255.45123284474, -63670.10637165384, -187500.02235174447, 3467.739041774159, -187500.02235174447, -187500.02235174447, -44128.959671134915, 9886.467145260232, -56144.02814436295, -69333.65843697291, -9476.87142811673, -34712.68382223652, -6867.998167037746, 10799.37944404834, -0.032, 0.9580000000000001, 0.31, 192.0, 0.0, 0.0, 0.0, 0.0, 0.0, 0.0, 0.0, 0.0, 0.0, 1.695418303560125E9, 0.0, 2023-09-22 16:31:43.560
52.0, 24061.98818230488, 15931.138805286742, -35246.44347982925, -63673.61559553333, -187500.02235174447, 3451.5563787885167, -187500.02235174447, -187500.02235174447, -44113.782836649756, 9893.463241274743, -56199.12519444528, -69311.86548612898, -9458.49829417447, -34704.748952954884, -6853.603643608528, 10742.293088709484, -0.032, 0.9580000000000001, 0.31, 192.0, 0.0, 0.0, 0.0, 0.0, 0.0, 0.0, 0.0, 0.0, 0.0, 1.695418303560129E9, 0.0, 2023-09-22 16:31:43.560
54.0, 24051.058179266238, 15918.778290602959, -35270.98569524118, -63690.73703178609, -187500.02235174447, 3454.73032650117, -187500.02235174447, -187500.02235174447, -44118.02966809627, 9893.61970348593, -56174.337109844346, -69324.82949791307, -9467.72956463451, -34682.754836410866, -6850.78732380716, 10772.84792337989, -0.032, 0.9580000000000001, 0.31, 192.0, 0.0, 0.0, 0.0, 0.0, 0.0, 0.0, 0.0, 0.0, 0.0, 1.695418303560132E9, 0.0, 2023-09-22 16:31:43.560
56.0, 24047.19132747547, 15917.77246210247, -35257.35113112344, -63686.73606952859, -187500.02235174447, 3432.669154723782, -187500.02235174447, -187500.02235174447, -44126.41157226701, 9879.76162192364, -56201.04744446844, -69336.117128863, -9477.519628705935, -34692.00845861536, -6875.351890963542, 10734.335867683396, -0.032, 0.9580000000000001, 0.31, 192.0, 0.0, 0.0, 0.0, 0.0, 0.0, 0.0, 0.0, 0.0, 0.0, 1.695418303560135E9, 0.0, 2023-09-22 16:31:43.560
58.0, 24048.219507720412, 15918.331255713852, -35263.45315735974, -63688.591264318384, -187500.02235174447, 3450.572902032483, -187500.02235174447, -187500.02235174447, -44126.54568273374, 9884.723709192718, -56165.374060317765, -69340.60982949851, -9469.674166402123, -34685.615859701145, -6866.83587632607, 10776.178333303731, -0.036000000000000004, 0.962, 0.312, 192.0, 127.0, 112.0, 15.0, 8.0, 4.5, 96.0, 0.0, 0.0, 0.0, 1.695418303560139E9, 0.0, 2023-09-22 16:31:43.560
60.0, 24047.034865264282, 15919.158270258698, -35251.18204965378, -63681.43870609268, -187500.02235174447, 3416.665305693782, -187500.02235174447, -187500.02235174447, -44122.321203031686, 9895.854877931462, -56196.89001999975, -69338.44171028635, -9471.64111991419, -34694.80242667227, -6869.607492638528, 10726.557460612948, -0.036000000000000004, 0.962, 0.312, 192.0, 0.0, 0.0, 0.0, 0.0, 0.0, 0.0, 0.0, 0.0, 0.0, 1.695418303620424E9, 0.0, 2023-09-22 16:31:43.620
62.0, 24050.208812976936, 15919.873526081268, -35254.33364562198, -63673.19091238868, -187500.02235174447, 3443.4650472956955, -187500.02235174447, -187500.02235174447, -44130.703107202426, 9883.71788069223, -56181.13204015876, -69336.22888758527, -9471.01527106944, -34683.023057344326, -6858.901007044436, 10759.727449384625, -0.036000000000000004, 0.962, 0.312, 192.0, 0.0, 0.0, 0.0, 0.0, 0.0, 0.0, 0.0, 0.0, 0.0, 1.695418303620436E9, 0.0, 2023-09-22 16:31:43.620
64.0, 24038.80942330473, 15905.367243929773, -35253.84190724396, -63680.4328775922, -187500.02235174447, 3427.2153290766873, -187500.02235174447, -187500.02235174447, -44130.72545894688, 9877.973482367217, -56193.894886242735, -69336.60886724101, -9473.988053081996, -34687.24753704638, -6862.209065223821, 10727.898565280268, -0.036000000000000004, 0.962, 0.312, 192.0, 0.0, 0.0, 0.0, 0.0, 0.0, 0.0, 0.0, 0.0, 0.0, 1.69541830362044E9, 0.0, 2023-09-22 16:31:43.620
66.0, 24050.320571699212, 15920.34291271483, -35255.071253189, -63672.386249588286, -187500.02235174447, 3452.0481171665333, -187500.02235174447, -187500.02235174447, -44132.804171181226, 9876.252398044158, -56168.950339430616, -69338.75463470872, -9475.865599616242, -34705.26304307736, -6853.670698841894, 10771.819743134945, -0.036000000000000004, 0.962, 0.312, 192.0, 0.0, 0.0, 0.0, 0.0, 0.0, 0.0, 0.0, 0.0, 0.0, 1.695418303620443E9, 0.0, 2023-09-22 16:31:43.620
68.0, 24043.14566172906, 15913.01154053349, -35252.23258164318, -63678.15299965775, -187500.02235174447, 3416.5311952270504, -187500.02235174447, -187500.02235174447, -44123.32703153218, 9888.858781916952, -56180.21561863609, -69332.49614626124, -9477.027890327918, -34697.976374384925, -6857.559902377117, 10737.040428762488, -0.032, 0.966, 0.31, 192.0, 127.5, 0.0, 15.0, 24.0, 4.5, 88.0, 0.0, 0.0, 0.0, 1.695418303620446E9, 0.0, 2023-09-22 16:31:43.620
70.0, 24045.71611234142, 15913.749148100515, -35253.41722409931, -63681.61752004833, -187500.02235174447, 3442.7497914731257, -187500.02235174447, -187500.02235174447, -44137.16276135001, 9860.360307736435, -56175.54410404493, -69341.23567834326, -9474.055108315362, -34689.75093242538, -6849.289756928654, 10760.59916741838, -0.032, 0.966, 0.31, 192.0, 0.0, 0.0, 0.0, 0.0, 0.0, 0.0, 0.0, 0.0, 0.0, 1.695418303620449E9, 0.0, 2023-09-22 16:31:43.620
72.0, 24037.602429104143, 15905.881334052247, -35258.49107009066, -63688.255988151555, -187500.02235174447, 3416.7994161605143, -187500.02235174447, -187500.02235174447, -44137.766258450305, 9842.14363600536, -56167.475124296565, -69344.85666094502, -9483.196971797583, -34699.63040347462, -6880.895123588458, 10739.74498984158, -0.032, 0.966, 0.31, 192.0, 0.0, 0.0, 0.0, 0.0, 0.0, 0.0, 0.0, 0.0, 0.0, 1.695418303620453E9, 0.0, 2023-09-22 16:31:43.620
74.0, 24038.56355411572, 15905.702520096604, -35266.18007018329, -63697.42020337823, -187500.02235174447, 3466.1967714067428, -187500.02235174447, -187500.02235174447, -44144.896464931546, 9833.158234734325, -56151.337164799836, -69350.98103892578, -9476.200875783072, -34710.51570302436, -6867.104097259534, 10775.373670503339, -0.032, 0.966, 0.31, 192.0, 0.0, 0.0, 0.0, 0.0, 0.0, 0.0, 0.0, 0.0, 0.0, 1.695418303620456E9, 0.0, 2023-09-22 16:31:43.620
76.0, 24049.024170520803, 15918.331255713852, -35264.9730759827, -63692.14519168677, -187500.02235174447, 3429.696372711226, -187500.02235174447, -187500.02235174447, -44135.75460144933, 9843.842368583963, -56120.491757451506, -69340.9227539209, -9479.285416517903, -34708.99578440139, -6891.556905693639, 10774.70311816968, -0.032, 0.966, 0.31, 192.0, 0.0, 0.0, 0.0, 0.0, 0.0, 0.0, 0.0, 0.0, 0.0, 1.695418303679926E9, 0.0, 2023-09-22 16:31:43.679
78.0, 24046.878403053095, 15913.950313800611, -35266.001256227646, -63699.23069467911, -187500.02235174447, 3465.347405117441, -187500.02235174447, -187500.02235174447, -44154.753584236336, 9827.346781175946, -56122.1457865412, -69358.9159082074, -9486.683843932611, -34724.37378458664, -6894.060301072634, 10789.119993343353, -0.036000000000000004, 0.968, 0.31, 192.0, 127.0, 112.0, 15.0, 32.0, 4.5, 88.0, 0.0, 0.0, 0.0, 1.695418303679942E9, 0.0, 2023-09-22 16:31:43.679
80.0, 24061.027057293304, 15932.77048263198, -35250.10916591992, -63673.05680192194, -187500.02235174447, 3427.6623639657932, -187500.02235174447, -187500.02235174447, -44136.35809854962, 9833.582917878975, -56099.12348975224, -69339.0228556422, -9481.319425263337, -34719.098772895195, -6890.439318470874, 10781.855676395378, -0.036000000000000004, 0.968, 0.31, 192.0, 0.0, 0.0, 0.0, 0.0, 0.0, 0.0, 0.0, 0.0, 0.0, 1.695418303679945E9, 0.0, 2023-09-22 16:31:43.679
82.0, 24058.14368225857, 15929.931811086157, -35245.92938970678, -63674.04027867798, -187500.02235174447, 3449.544721787539, -187500.02235174447, -187500.02235174447, -44127.93149088997, 9851.576072165499, -56138.037876848924, -69325.611808969, -9463.460381443547, -34703.229034331926, -6859.392745422452, 10765.427144220728, -0.036000000000000004, 0.968, 0.31, 192.0, 0.0, 0.0, 0.0, 0.0, 0.0, 0.0, 0.0, 0.0, 0.0, 1.695418303679948E9, 0.0, 2023-09-22 16:31:43.679
84.0, 24041.961019272927, 15911.089290510332, -35265.017779471615, -63684.09856368286, -187500.02235174447, 3432.356230301408, -187500.02235174447, -187500.02235174447, -44136.82748518318, 9851.509016932132, -56115.61907716025, -69338.70993121981, -9475.329157749315, -34688.72275218043, -6879.196391009855, 10764.488370953604, -0.036000000000000004, 0.968, 0.31, 192.0, 0.0, 0.0, 0.0, 0.0, 0.0, 0.0, 0.0, 0.0, 0.0, 1.695418303679952E9, 0.0, 2023-09-22 16:31:43.679
86.0, 24050.119405999114, 15919.784119103448, -35256.99350321216, -63673.59324378887, -187500.02235174447, 3454.5515125455277, -187500.02235174447, -187500.02235174447, -44145.49996203184, 9841.383676693878, -56133.67928668014, -69342.50972777721, -9477.944311850586, -34699.89862440808, -6873.854324085036, 10759.258062751063, -0.036000000000000004, 0.968, 0.31, 192.0, 0.0, 0.0, 0.0, 0.0, 0.0, 0.0, 0.0, 0.0, 0.0, 1.695418303679955E9, 0.0, 2023-09-22 16:31:43.679
88.0, 24056.489653168876, 15924.72385462807, -35262.715549792716, -63673.05680192194, -187500.02235174447, 3425.717762198182, -187500.02235174447, -187500.02235174447, -44129.47376125739, 9848.04449654156, -56103.81735608785, -69325.74591943574, -9474.770364137932, -34693.88600514961, -6885.812507368625, 10765.382440731817, -0.04, 0.966, 0.306, 192.0, 127.0, 96.0, 15.0, 24.0, 4.5, 72.0, 0.0, 0.0, 0.0, 1.695418303679958E9, 0.0, 2023-09-22 16:31:43.679
90.0, 24048.510080398333, 15913.480927167051, -35261.08387244748, -63686.020813706025, -187500.02235174447, 3445.230835107665, -187500.02235174447, -187500.02235174447, -44136.62631948308, 9845.049362784548, -56138.753132671496, -69340.45336728732, -9477.944311850586, -34700.233900574916, -6877.050623542145, 10741.26490846454, -0.04, 0.966, 0.306, 192.0, 0.0, 0.0, 0.0, 0.0, 0.0, 0.0, 0.0, 0.0, 0.0, 1.695418303739751E9, 0.0, 2023-09-22 16:31:43.739
92.0, 24041.581039617187, 15909.904648054202, -35279.009971500636, -63693.50864809855, -187500.02235174447, 3444.381468818363, -187500.02235174447, -187500.02235174447, -44144.40472655353, 9834.901670801839, -56085.15364946767, -69351.98686742627, -9490.416585256648, -34696.12117959514, -6888.897048103458, 10773.89845536929, -0.04, 0.966, 0.306, 192.0, 0.0, 0.0, 0.0, 0.0, 0.0, 0.0, 0.0, 0.0, 0.0, 1.695418303739766E9, 0.0, 2023-09-22 16:31:43.739
94.0, 24047.683065853485, 15907.177735230654, -35255.54063982256, -63692.50281959806, -187500.02235174447, 3437.7877042040473, -187500.02235174447, -187500.02235174447, -44134.8158281822, 9826.385656164368, -56121.2964202519, -69345.59426851205, -9476.40204148317, -34726.18427588753, -6877.944693320357, 10738.269774707529, -0.04, 0.966, 0.306, 192.0, 0.0, 0.0, 0.0, 0.0, 0.0, 0.0, 0.0, 0.0, 0.0, 1.695418303739769E9, 0.0, 2023-09-22 16:31:43.739
96.0, 24044.062083251727, 15903.847325306813, -35273.3773318979, -63700.0353574795, -187500.02235174447, 3433.674983224271, -187500.02235174447, -187500.02235174447, -44136.96159564991, 9820.529499117078, -56084.72896632302, -69357.4183413289, -9479.084250817807, -34716.5953775162, -6878.302321231642, 10765.896530854288, -0.04, 0.966, 0.306, 192.0, 0.0, 0.0, 0.0, 0.0, 0.0, 0.0, 0.0, 0.0, 0.0, 1.695418303739772E9, 0.0, 2023-09-22 16:31:43.739
98.0, 24029.399338889045, 15890.883313522734, -35274.29375342056, -63713.066424496945, -187500.02235174447, 3449.3882595763516, -187500.02235174447, -187500.02235174447, -44143.2200840974, 9826.22919395318, -56116.49079519401, -69360.07819891909, -9484.292207275892, -34712.661470492065, -6881.319806733109, 10729.865518792334, -0.042, 0.964, 0.308, 192.0, 127.0, 88.0, 15.0, 16.0, 4.5, 80.0, 0.0, 0.0, 0.0, 1.695418303739776E9, 0.0, 2023-09-22 16:31:43.739
100.0, 24043.70445534044, 15905.031967762945, -35271.298619663554, -63700.482392368605, -187500.02235174447, 3451.6010822774274, -187500.02235174447, -187500.02235174447, -44146.863418443616, 9823.23406019617, -56050.62020428422, -69361.48635881978, -9488.762556166954, -34711.119200124645, -6886.773632380204, 10784.739051430113, -0.042, 0.964, 0.308, 192.0, 0.0, 0.0, 0.0, 0.0, 0.0, 0.0, 0.0, 0.0, 0.0, 1.695418303739779E9, 0.0, 2023-09-22 16:31:43.739
102.0, 24038.13887097107, 15897.38767115923, -35269.130500451385, -63710.02658725102, -187500.02235174447, 3445.4096490633074, -187500.02235174447, -187500.02235174447, -44151.467877801406, 9806.98434197716, -56084.46074538955, -69370.60587055754, -9491.802393412876, -34737.471906837454, -6889.321731248108, 10741.823702075924, -0.042, 0.964, 0.308, 192.0, 0.0, 0.0, 0.0, 0.0, 0.0, 0.0, 0.0, 0.0, 0.0, 1.695418303739782E9, 0.0, 2023-09-22 16:31:43.739
104.0, 24037.89300178206, 15896.873581036758, -35284.91083203683, -63717.17914547672, -187500.02235174447, 3460.87705622638, -187500.02235174447, -187500.02235174447, -44144.98587190937, 9822.876432284884, -56052.833026985296, -69366.85077748905, -9483.97928285352, -34712.41560130306, -6883.823202112103, 10774.725469914136, -0.042, 0.964, 0.308, 192.0, 0.0, 0.0, 0.0, 0.0, 0.0, 0.0, 0.0, 0.0, 0.0, 1.695418303739785E9, 0.0, 2023-09-22 16:31:43.739
106.0, 24022.2691324078, 15881.495580851506, -35290.99050652868, -63729.96434330515, -187500.02235174447, 3465.6603295398154, -187500.02235174447, -187500.02235174447, -44164.90127621905, 9796.657836038808, -56054.75527700845, -69377.80313227215, -9503.559410996368, -34741.71873828396, -6902.688074432383, 10748.752742857068, -0.042, 0.964, 0.308, 192.0, 0.0, 0.0, 0.0, 0.0, 0.0, 0.0, 0.0, 0.0, 0.0, 1.695418303799881E9, 0.0, 2023-09-22 16:31:43.799
108.0, 24053.114539756127, 15914.039720778434, -35277.870032533414, -63694.08979345439, -187500.02235174447, 3464.4309835947734, -187500.02235174447, -187500.02235174447, -44158.84395347166, 9796.814298249996, -56002.65336068313, -69367.61073680052, -9492.964684124552, -34739.7517847719, -6901.838708143081, 10800.049996381998, -0.036000000000000004, 0.966, 0.304, 192.0, 127.0, 112.0, 15.0, 24.0, 4.5, 64.0, 0.0, 0.0, 0.0, 1.695418303799892E9, 0.0, 2023-09-22 16:31:43.799
110.0, 24039.5246791273, 15898.661720593182, -35273.15381445334, -63702.20347669166, -187500.02235174447, 3437.117151870388, -187500.02235174447, -187500.02235174447, -44141.09666837414, 9826.050379997538, -56059.29268113288, -69354.98200118328, -9483.375785753226, -34719.791676973306, -6897.815394141126, 10727.272716435518, -0.036000000000000004, 0.966, 0.304, 192.0, 0.0, 0.0, 0.0, 0.0, 0.0, 0.0, 0.0, 0.0, 0.0, 1.695418303799896E9, 0.0, 2023-09-22 16:31:43.799
112.0, 24038.921182027007, 15896.627711847748, -35290.677582106306, -63708.77488956152, -187500.02235174447, 3473.192867421254, -187500.02235174447, -187500.02235174447, -44160.140354650066, 9803.788042520053, -56025.31802956081, -69372.14814092495, -9497.189163826604, -34707.49821752289, -6893.41210048343, 10773.60788269137, -0.036000000000000004, 0.966, 0.304, 192.0, 0.0, 0.0, 0.0, 0.0, 0.0, 0.0, 0.0, 0.0, 0.0, 1.695418303799899E9, 0.0, 2023-09-22 16:31:43.799
114.0, 24038.027112248794, 15897.834706048336, -35282.98858201368, -63709.13251747281, -187500.02235174447, 3445.7672769745923, -187500.02235174447, -187500.02235174447, -44156.96640693741, 9813.689865313752, -56024.781587693884, -69363.60977454303, -9505.682826719622, -34717.22122636095, -6908.588934968583, 10741.711943353646, -0.036000000000000004, 0.966, 0.304, 192.0, 0.0, 0.0, 0.0, 0.0, 0.0, 0.0, 0.0, 0.0, 0.0, 1.695418303799902E9, 0.0, 2023-09-22 16:31:43.799
116.0, 24045.33613268568, 15906.060148007888, -35282.40743665784, -63702.18112494721, -187500.02235174447, 3473.7740127770917, -187500.02235174447, -187500.02235174447, -44162.46493607342, 9800.234115151658, -56001.40166299363, -69373.39983861445, -9502.307713306871, -34731.034604434324, -6895.3567022510415, 10778.458211238172, -0.036000000000000004, 0.966, 0.304, 192.0, 0.0, 0.0, 0.0, 0.0, 0.0, 0.0, 0.0, 0.0, 0.0, 1.695418303799905E9, 0.0, 2023-09-22 16:31:43.799
118.0, 24047.61601062012, 15909.077633509354, -35276.10424472144, -63696.637892322295, -187500.02235174447, 3440.8275414499694, -187500.02235174447, -187500.02235174447, -44144.56118876472, 9829.80547306603, -56017.114939345716, -69343.87318418898, -9494.059919602862, -34730.9451974565, -6897.5248214632065, 10734.40292291676, -0.036000000000000004, 0.964, 0.302, 192.0, 127.0, 112.0, 15.0, 16.0, 4.5, 56.0, 0.0, 0.0, 0.0, 1.695418303799908E9, 0.0, 2023-09-22 16:31:43.799
120.0, 24048.823004820708, 15906.596589874816, -35275.768968554614, -63700.72826155761, -187500.02235174447, 3465.570922561994, -187500.02235174447, -187500.02235174447, -44156.40761332603, 9810.98530423466, -56005.357921762225, -69361.39695184195, -9493.344663780292, -34725.15609564258, -6893.546210950161, 10761.917920341244, -0.036000000000000004, 0.964, 0.302, 192.0, 0.0, 0.0, 0.0, 0.0, 0.0, 0.0, 0.0, 0.0, 0.0, 1.69541830386013E9, 0.0, 2023-09-22 16:31:43.860
122.0, 24045.269077452314, 15907.58006663085, -35262.73790153717, -63697.10727895585, -187500.02235174447, 3434.3902390468406, -187500.02235174447, -187500.02235174447, -44141.811924196714, 9819.076635727482, -56008.59892470824, -69347.87414644648, -9486.437974743601, -34730.78873524532, -6897.547173207662, 10732.815949060434, -0.036000000000000004, 0.964, 0.302, 192.0, 0.0, 0.0, 0.0, 0.0, 0.0, 0.0, 0.0, 0.0, 0.0, 1.695418303860149E9, 0.0, 2023-09-22 16:31:43.860
124.0, 24050.320571699212, 15908.675302109159, -35250.4220903423, -63693.17337193172, -187500.02235174447, 3454.149181145332, -187500.02235174447, -187500.02235174447, -44149.299758589244, 9818.674304327287, -56009.73886367546, -69355.25022211674, -9483.77811715342, -34719.97049092895, -6883.689091645371, 10753.021926048032, -0.036000000000000004, 0.964, 0.302, 192.0, 0.0, 0.0, 0.0, 0.0, 0.0, 0.0, 0.0, 0.0, 0.0, 1.695418303860154E9, 0.0, 2023-09-22 16:31:43.860
126.0, 24051.393455433066, 15916.29724696842, -35253.55133456604, -63689.574741074415, -187500.02235174447, 3414.67600043726, -187500.02235174447, -187500.02235174447, -44135.57578749368, 9821.781196806574, -56011.504651487434, -69340.78864345416, -9482.72758516402, -34723.47971480843, -6895.960199351335, 10727.451530391161, -0.036000000000000004, 0.964, 0.302, 192.0, 0.0, 0.0, 0.0, 0.0, 0.0, 0.0, 0.0, 0.0, 0.0, 1.69541830386016E9, 0.0, 2023-09-22 16:31:43.860
128.0, 24043.011551262327, 15903.534400884439, -35267.78939578407, -63708.68548258371, -187500.02235174447, 3451.802247977525, -187500.02235174447, -187500.02235174447, -44148.964482422416, 9813.421644380289, -56027.08381737278, -69352.00921917072, -9483.554599708868, -34724.686709009016, -6891.579257438095, 10734.60408861686, -0.038, 0.9580000000000001, 0.304, 192.0, 127.0, 104.0, 14.5, 120.0, 4.5, 64.0, 0.0, 0.0, 0.0, 1.695418303860175E9, 0.0, 2023-09-22 16:31:43.860
130.0, 24038.697664582454, 15905.590761374327, -35279.30054417855, -63704.72922381511, -187500.02235174447, 3436.49130302564, -187500.02235174447, -187500.02235174447, -44161.526162806294, 9800.859963996407, -55983.09558428474, -69363.7215332653, -9499.804317927876, -34741.53992432832, -6916.3673420390305, 10749.624460890826, -0.038, 0.9580000000000001, 0.304, 192.0, 0.0, 0.0, 0.0, 0.0, 0.0, 0.0, 0.0, 0.0, 0.0, 1.695418303860181E9, 0.0, 2023-09-22 16:31:43.860
132.0, 24042.296295439755, 15909.792889331924, -35266.336532394474, -63697.17433418922, -187500.02235174447, 3446.7954572195363, -187500.02235174447, -187500.02235174447, -44158.48632556037, 9811.588801334954, -56007.235468296465, -69349.81874821411, -9486.482678232513, -34733.78386900233, -6900.408196497941, 10742.248385220575, -0.038, 0.9580000000000001, 0.304, 192.0, 0.0, 0.0, 0.0, 0.0, 0.0, 0.0, 0.0, 0.0, 0.0, 1.695418303860186E9, 0.0, 2023-09-22 16:31:43.860
134.0, 24031.410995890023, 15897.700595581604, -35293.113922251934, -63709.154869217266, -187500.02235174447, 3425.829520920458, -187500.02235174447, -187500.02235174447, -44170.44450884396, 9806.134975687859, -55975.20541849201, -69367.02959144469, -9498.217344071549, -34730.25229337839, -6918.691923462382, 10751.725524869624, -0.038, 0.9580000000000001, 0.304, 192.0, 0.0, 0.0, 0.0, 0.0, 0.0, 0.0, 0.0, 0.0, 0.0, 1.695418303860192E9, 0.0, 2023-09-22 16:31:43.860
136.0, 24030.583981345175, 15899.198162460109, -35280.395779656865, -63709.9371802732, -187500.02235174447, 3453.791553234047, -187500.02235174447, -187500.02235174447, -44165.437718085974, 9802.759862275108, -56008.06248284131, -69363.4756640763, -9491.556524223868, -34738.187162660026, -6908.052493101656, 10731.810120559945, -0.038, 0.9580000000000001, 0.304, 192.0, 0.0, 0.0, 0.0, 0.0, 0.0, 0.0, 0.0, 0.0, 0.0, 1.695418303920416E9, 0.0, 2023-09-22 16:31:43.920
138.0, 24039.882307038584, 15912.408043433195, -35279.88168953439, -63693.17337193172, -187500.02235174447, 3435.2619570805978, -187500.02235174447, -187500.02235174447, -44169.5280873213, 9810.314751901002, -55955.40177290461, -69360.48053031928, -9498.910248149663, -34723.837342719715, -6911.069978603123, 10762.901397097277, -0.034, 0.962, 0.298, 192.0, 127.0, 120.0, 15.0, 8.0, 4.5, 40.0, 0.0, 0.0, 0.0, 1.695418303920429E9, 0.0, 2023-09-22 16:31:43.920
140.0, 24033.646170335553, 15905.993092774523, -35269.778701040595, -63697.263741167044, -187500.02235174447, 3439.642898993838, -187500.02235174447, -187500.02235174447, -44162.21906688441, 9817.80258629353, -56005.4696804845, -69352.09862614854, -9487.801431155376, -34720.77515372934, -6889.187620781377, 10725.216355945631, -0.034, 0.962, 0.298, 192.0, 0.0, 0.0, 0.0, 0.0, 0.0, 0.0, 0.0, 0.0, 0.0, 1.695418303920434E9, 0.0, 2023-09-22 16:31:43.920
142.0, 24029.444042377956, 15898.706424082093, -35284.03911400308, -63703.94691275918, -187500.02235174447, 3420.062770850989, -187500.02235174447, -187500.02235174447, -44168.20933439843, 9806.17967917677, -55968.589302133245, -69360.1676058969, -9494.797527169887, -34717.40004031659, -6897.569524952117, 10754.161865015252, -0.034, 0.962, 0.298, 192.0, 0.0, 0.0, 0.0, 0.0, 0.0, 0.0, 0.0, 0.0, 0.0, 1.695418303920439E9, 0.0, 2023-09-22 16:31:43.920
144.0, 24033.37794940209, 15897.767650814969, -35269.24225917367, -63704.84098253739, -187500.02235174447, 3427.7517709436147, -187500.02235174447, -187500.02235174447, -44172.143241422564, 9796.009635449605, -56001.647532182644, -69368.5271583232, -9496.02687311493, -34739.28239813833, -6901.615190698528, 10724.657562334247, -0.034, 0.962, 0.298, 192.0, 0.0, 0.0, 0.0, 0.0, 0.0, 0.0, 0.0, 0.0, 0.0, 1.695418303920444E9, 0.0, 2023-09-22 16:31:43.920
146.0, 24021.442117862956, 15884.624825075249, -35283.189747713775, -63712.306465185466, -187500.02235174447, 3448.4271345647735, -187500.02235174447, -187500.02235174447, -44175.04896820176, 9789.170001646282, -55951.110237969195, -69371.94697522486, -9494.574009725335, -34733.068613179756, -6892.898010360958, 10765.98593783211, -0.034, 0.962, 0.298, 192.0, 0.0, 0.0, 0.0, 0.0, 0.0, 0.0, 0.0, 0.0, 0.0, 1.695418303920449E9, 0.0, 2023-09-22 16:31:43.920
148.0, 24015.429498604477, 15883.283720407931, -35275.61250634343, -63715.61452336485, -187500.02235174447, 3451.6681375107933, -187500.02235174447, -187500.02235174447, -44182.53680259428, 9785.481963811155, -55966.331775943254, -69374.94210898186, -9501.950085395585, -34752.73814830043, -6895.691978417872, 10744.282393966007, -0.032, 0.966, 0.302, 192.0, 127.5, 0.0, 15.0, 24.0, 4.5, 56.0, 0.0, 0.0, 0.0, 1.695418303920454E9, 0.0, 2023-09-22 16:31:43.920
150.0, 24032.282713923778, 15898.90758978219, -35275.299581921056, -63694.89445625478, -187500.02235174447, 3454.8197334789916, -187500.02235174447, -187500.02235174447, -44185.62134332912, 9792.232190636658, -55920.1977753875, -69376.08204794908, -9501.279533061926, -34747.261970908876, -6894.149708050455, 10788.85177240989, -0.032, 0.966, 0.302, 192.0, 0.0, 0.0, 0.0, 0.0, 0.0, 0.0, 0.0, 0.0, 0.0, 1.695418303979844E9, 0.0, 2023-09-22 16:31:43.979
152.0, 24024.169030686502, 15893.230246690542, -35262.492032348164, -63692.90515099826, -187500.02235174447, 3440.514617027595, -187500.02235174447, -187500.02235174447, -44174.62428505711, 9812.304057157524, -55964.43187766455, -69355.80901572813, -9490.751861423476, -34740.64585455011, -6886.214838768821, 10733.374742671818, -0.032, 0.966, 0.302, 192.0, 0.0, 0.0, 0.0, 0.0, 0.0, 0.0, 0.0, 0.0, 0.0, 1.695418303979862E9, 0.0, 2023-09-22 16:31:43.979
154.0, 24028.929952255483, 15898.14763047071, -35269.21990742921, -63690.80408701946, -187500.02235174447, 3443.8450269514356, -187500.02235174447, -187500.02235174447, -44170.891543733065, 9814.583935091965, -55929.94313597002, -69355.89842270594, -9483.822820642332, -34731.615749790166, -6882.88442884498, 10771.03743207901, -0.032, 0.966, 0.302, 192.0, 0.0, 0.0, 0.0, 0.0, 0.0, 0.0, 0.0, 0.0, 0.0, 1.695418303979868E9, 0.0, 2023-09-22 16:31:43.979
156.0, 24019.02812946178, 15889.698671066604, -35265.777738783094, -63698.78365979, -187500.02235174447, 3426.34361104293, -187500.02235174447, -187500.02235174447, -44176.99356996937, 9796.121394171882, -55962.37551717467, -69367.5213298227, -9487.868486388741, -34744.93738948553, -6893.434452227885, 10718.577887842404, -0.032, 0.966, 0.302, 192.0, 0.0, 0.0, 0.0, 0.0, 0.0, 0.0, 0.0, 0.0, 0.0, 1.695418303979873E9, 0.0, 2023-09-22 16:31:43.979
158.0, 24012.85904799212, 15886.658833820682, -35283.99441051417, -63708.70783432816, -187500.02235174447, 3453.545684045039, -187500.02235174447, -187500.02235174447, -44182.60385782765, 9807.766653033097, -55934.3017261388, -69374.58448107057, -9484.40396599817, -34723.88204620863, -6885.6113416685275, 10761.31442324095, -0.038, 0.968, 0.308, 192.0, 127.0, 104.0, 15.0, 32.0, 4.5, 80.0, 0.0, 0.0, 0.0, 1.695418303979879E9, 0.0, 2023-09-22 16:31:43.979
160.0, 24014.51307708181, 15886.502371609495, -35276.21600344372, -63704.34924415938, -187500.02235174447, 3414.8101109039917, -187500.02235174447, -187500.02235174447, -44178.78170952579, 9792.053376681015, -55947.71277281199, -69366.24728038875, -9488.11435557775, -34754.7051018125, -6903.850365144059, 10723.897603022768, -0.038, 0.968, 0.308, 192.0, 0.0, 0.0, 0.0, 0.0, 0.0, 0.0, 0.0, 0.0, 0.0, 1.695418303979885E9, 0.0, 2023-09-22 16:31:43.979
162.0, 24025.867763265105, 15897.253560692498, -35274.941954009766, -63695.65441556626, -187500.02235174447, 3433.183244846254, -187500.02235174447, -187500.02235174447, -44182.73796829438, 9783.157382387804, -55934.949926728004, -69376.21615841582, -9484.40396599817, -34747.485488353435, -6893.233286527788, 10751.636117891803, -0.038, 0.968, 0.308, 192.0, 0.0, 0.0, 0.0, 0.0, 0.0, 0.0, 0.0, 0.0, 0.0, 1.695418303979891E9, 0.0, 2023-09-22 16:31:43.979
164.0, 24025.107803953626, 15899.779307815947, -35267.252953917145, -63695.07327021042, -187500.02235174447, 3409.378637001352, -187500.02235174447, -187500.02235174447, -44177.41825311402, 9810.314751901002, -55949.52326411287, -69359.18412914088, -9485.20862879856, -34728.82178173325, -6890.640484170972, 10711.894716250268, -0.038, 0.968, 0.308, 192.0, 0.0, 0.0, 0.0, 0.0, 0.0, 0.0, 0.0, 0.0, 0.0, 1.695418303979896E9, 0.0, 2023-09-22 16:31:43.979
166.0, 24022.89498125255, 15892.470287379061, -35276.10424472144, -63704.393947648285, -187500.02235174447, 3433.451465779718, -187500.02235174447, -187500.02235174447, -44175.78657576878, 9804.570353575988, -55942.52716809836, -69357.50774830673, -9478.905436862164, -34729.358223600175, -6876.491829930763, 10738.560347385448, -0.038, 0.968, 0.308, 192.0, 0.0, 0.0, 0.0, 0.0, 0.0, 0.0, 0.0, 0.0, 0.0, 1.695418304039602E9, 0.0, 2023-09-22 16:31:44.039
168.0, 24011.115611924604, 15879.640386061716, -35278.67469533381, -63715.61452336485, -187500.02235174447, 3414.005448103601, -187500.02235174447, -187500.02235174447, -44188.39295964158, 9796.993112205639, -55928.177348158046, -69374.40566711494, -9494.55165798088, -34735.102621925194, -6903.313923277131, 10722.26592567753, -0.032, 0.964, 0.306, 192.0, 127.5, 0.0, 15.0, 16.0, 4.5, 72.0, 0.0, 0.0, 0.0, 1.695418304039634E9, 0.0, 2023-09-22 16:31:44.039
170.0, 24015.56360907121, 15886.412964631674, -35271.49978536365, -63706.11503197134, -187500.02235174447, 3454.998547434634, -187500.02235174447, -187500.02235174447, -44192.930363766005, 9789.237056879647, -55911.57000202775, -69383.92751025289, -9484.739242164998, -34733.917979469064, -6885.276065501698, 10756.575853416427, -0.032, 0.964, 0.306, 192.0, 0.0, 0.0, 0.0, 0.0, 0.0, 0.0, 0.0, 0.0, 0.0, 1.695418304039639E9, 0.0, 2023-09-22 16:31:44.039
172.0, 24014.244856148347, 15892.269121678964, -35273.73495980918, -63701.667034824735, -187500.02235174447, 3426.2318523206536, -187500.02235174447, -187500.02235174447, -44187.677703819005, 9821.289458428557, -55896.52727800933, -69368.88478623447, -9484.694538676089, -34726.720717754455, -6885.6113416685275, 10743.053048020965, -0.032, 0.964, 0.306, 192.0, 0.0, 0.0, 0.0, 0.0, 0.0, 0.0, 0.0, 0.0, 0.0, 1.695418304039644E9, 0.0, 2023-09-22 16:31:44.039
174.0, 24019.363405628614, 15892.894970523712, -35273.35498015344, -63701.0858894689, -187500.02235174447, 3443.375640317874, -187500.02235174447, -187500.02235174447, -44194.78555855579, 9822.161176462314, -55907.345522325704, -69375.81382701562, -9485.320387520836, -34730.47581082294, -6878.279969487187, 10752.50783592556, -0.032, 0.964, 0.306, 192.0, 0.0, 0.0, 0.0, 0.0, 0.0, 0.0, 0.0, 0.0, 0.0, 1.69541830403965E9, 0.0, 2023-09-22 16:31:44.039
176.0, 24015.69771953794, 15890.771554800458, -35272.88559351988, -63703.54458135898, -187500.02235174447, 3413.1113783253886, -187500.02235174447, -187500.02235174447, -44179.496965348364, 9827.704409087231, -55901.399958300586, -69358.98296344078, -9479.218361284538, -34735.90728472558, -6891.199277782354, 10731.139568226286, -0.032, 0.964, 0.306, 192.0, 0.0, 0.0, 0.0, 0.0, 0.0, 0.0, 0.0, 0.0, 0.0, 1.695418304039656E9, 0.0, 2023-09-22 16:31:44.039
178.0, 24007.539332811753, 15884.535418097428, -35275.38898889888, -63711.99354076309, -187500.02235174447, 3456.8760939688796, -187500.02235174447, -187500.02235174447, -44198.33948592419, 9814.293362414046, -55899.00832164387, -69378.09370495006, -9488.44963174458, -34740.80231676129, -6885.007844568235, 10749.959737057656, -0.038, 0.962, 0.31, 192.0, 127.0, 104.0, 15.0, 8.0, 4.5, 88.0, 0.0, 0.0, 0.0, 1.695418304039662E9, 0.0, 2023-09-22 16:31:44.039
180.0, 24006.64526303354, 15888.04464197691, -35283.01093375813, -63707.92552327222, -187500.02235174447, 3409.132767812344, -187500.02235174447, -187500.02235174447, -44185.42017762902, 9832.420627167301, -55876.500114977374, -69364.8167687436, -9487.332044521814, -34733.35918585768, -6890.372263237508, 10743.187158487697, -0.038, 0.962, 0.31, 192.0, 0.0, 0.0, 0.0, 0.0, 0.0, 0.0, 0.0, 0.0, 0.0, 1.695418304099816E9, 0.0, 2023-09-22 16:31:44.099
182.0, 23986.238120345846, 15870.923205724146, -35290.2305472172, -63721.42597692323, -187500.02235174447, 3452.763372989103, -187500.02235174447, -187500.02235174447, -44212.421084931026, 9815.880336270373, -55903.9480571685, -69389.58250160009, -9500.988960384007, -34736.82370624825, -6890.372263237508, 10732.503024638061, -0.038, 0.962, 0.31, 192.0, 0.0, 0.0, 0.0, 0.0, 0.0, 0.0, 0.0, 0.0, 0.0, 1.695418304099832E9, 0.0, 2023-09-22 16:31:44.099
184.0, 24016.5694375717, 15901.9027235392, -35272.215041186224, -63686.713717784136, -187500.02235174447, 3422.029724363056, -187500.02235174447, -187500.02235174447, -44192.773901554814, 9844.758790106629, -55856.11532403414, -69362.33572510908, -9490.595399212289, -34732.509819568375, -6888.181792280888, 10758.922786584233, -0.038, 0.962, 0.31, 192.0, 0.0, 0.0, 0.0, 0.0, 0.0, 0.0, 0.0, 0.0, 0.0, 1.695418304099838E9, 0.0, 2023-09-22 16:31:44.099
186.0, 24013.66371079251, 15899.779307815947, -35272.639724330875, -63698.1354592008, -187500.02235174447, 3434.837273935947, -187500.02235174447, -187500.02235174447, -44184.928439251, 9848.156255263837, -55909.96067642697, -69359.9217367079, -9474.837419371297, -34730.36405210067, -6867.327614704087, 10721.97535299961, -0.038, 0.962, 0.31, 192.0, 0.0, 0.0, 0.0, 0.0, 0.0, 0.0, 0.0, 0.0, 0.0, 1.695418304099843E9, 0.0, 2023-09-22 16:31:44.099
188.0, 24026.4712603654, 15915.000845790011, -35279.971096512214, -63684.83617124989, -187500.02235174447, 3425.5612999869945, -187500.02235174447, -187500.02235174447, -44182.26858166082, 9864.51773220512, -55868.744059651384, -69351.62923951498, -9482.906399119664, -34718.36116532817, -6875.195428752355, 10752.731353370113, -0.038, 0.962, 0.306, 192.0, 127.0, 104.0, 15.0, 8.0, 4.5, 72.0, 0.0, 0.0, 0.0, 1.69541830409985E9, 0.0, 2023-09-22 16:31:44.099
190.0, 24010.4674113354, 15896.29243568092, -35277.13242496639, -63700.72826155761, -187500.02235174447, 3422.186186574243, -187500.02235174447, -187500.02235174447, -44187.811814285735, 9853.967708822216, -55913.17932762854, -69355.80901572813, -9483.398137497681, -34717.48944729441, -6877.2741409866985, 10718.734350053592, -0.038, 0.962, 0.306, 192.0, 0.0, 0.0, 0.0, 0.0, 0.0, 0.0, 0.0, 0.0, 0.0, 1.695418304099867E9, 0.0, 2023-09-22 16:31:44.099
192.0, 23997.27988210677, 15874.231263903532, -35294.49973040816, -63717.335607687906, -187500.02235174447, 3408.14929105631, -187500.02235174447, -187500.02235174447, -44203.480387148906, 9834.007601023628, -55872.05211783077, -69384.26278641973, -9498.507916749468, -34722.85386596368, -6896.340179007075, 10745.690553866692, -0.038, 0.962, 0.306, 192.0, 0.0, 0.0, 0.0, 0.0, 0.0, 0.0, 0.0, 0.0, 0.0, 1.695418304099879E9, 0.0, 2023-09-22 16:31:44.099
194.0, 23997.682213506963, 15872.733697025025, -35277.91473602232, -63709.42309015073, -187500.02235174447, 3408.86454687888, -187500.02235174447, -187500.02235174447, -44205.89437555008, 9804.168022175792, -55911.07826364974, -69389.76131555573, -9498.485565005012, -34753.96749424547, -6898.731815663793, 10701.9258382232, -0.038, 0.962, 0.306, 192.0, 0.0, 0.0, 0.0, 0.0, 0.0, 0.0, 0.0, 0.0, 0.0, 1.695418304099884E9, 0.0, 2023-09-22 16:31:44.099
196.0, 24012.27790263628, 15890.570389100361, -35281.6251256019, -63695.81087777745, -187500.02235174447, 3402.9189828537683, -187500.02235174447, -187500.02235174447, -44198.94298302448, 9830.23015621068, -55872.20858004196, -69371.11996068001, -9490.863620145754, -34728.039470677315, -6880.738661377271, 10736.36987642883, -0.038, 0.962, 0.306, 192.0, 0.0, 0.0, 0.0, 0.0, 0.0, 0.0, 0.0, 0.0, 0.0, 1.695418304160206E9, 0.0, 2023-09-22 16:31:44.160
198.0, 23997.391640829046, 15873.091324936311, -35282.54154712457, -63714.09460474189, -187500.02235174447, 3399.029779318545, -187500.02235174447, -187500.02235174447, -44204.82149181623, 9828.46436839871, -55917.51556605287, -69377.42315261641, -9496.943294637596, -34739.12593592715, -6884.180830023388, 10688.291274105462, -0.038, 0.96, 0.304, 192.0, 127.0, 104.0, 15.0, 0.0, 4.5, 64.0, 0.0, 0.0, 0.0, 1.695418304160218E9, 0.0, 2023-09-22 16:31:44.160
200.0, 23990.395544814535, 15863.591833542805, -35301.719343867226, -63725.449290925186, -187500.02235174447, 3418.833424905947, -187500.02235174447, -187500.02235174447, -44214.36568669864, 9819.41191189431, -55867.40295498407, -69392.91291152393, -9501.860678417765, -34732.82274399075, -6887.399481224952, 10739.588527630392, -0.038, 0.96, 0.304, 192.0, 0.0, 0.0, 0.0, 0.0, 0.0, 0.0, 0.0, 0.0, 0.0, 1.695418304160223E9, 0.0, 2023-09-22 16:31:44.160
202.0, 23978.862044675596, 15854.85230146078, -35304.5356636686, -63734.23352649612, -187500.02235174447, 3414.5195382260727, -187500.02235174447, -187500.02235174447, -44226.45798044896, 9799.384748862356, -55888.57005698324, -69407.3297866976, -9518.132748381227, -34758.661360581085, -6910.622943714016, 10706.329131880895, -0.038, 0.96, 0.304, 192.0, 0.0, 0.0, 0.0, 0.0, 0.0, 0.0, 0.0, 0.0, 0.0, 1.695418304160228E9, 0.0, 2023-09-22 16:31:44.160
204.0, 24000.297367608237, 15878.791019772414, -35297.450160676264, -63710.94300877369, -187500.02235174447, 3420.2639365510868, -187500.02235174447, -187500.02235174447, -44217.45022743347, 9812.237001924159, -55845.36413495114, -69392.68939407938, -9507.828594187331, -34748.200744176, -6903.805661655148, 10754.02775454852, -0.038, 0.96, 0.304, 192.0, 0.0, 0.0, 0.0, 0.0, 0.0, 0.0, 0.0, 0.0, 0.0, 1.695418304160233E9, 0.0, 2023-09-22 16:31:44.160
206.0, 23991.244911103837, 15873.0466214474, -35296.198462986766, -63714.5863431199, -187500.02235174447, 3402.024913075556, -187500.02235174447, -187500.02235174447, -44214.8350733322, 9819.389560149857, -55882.40097551358, -69389.96248125583, -9510.063768632863, -34739.863543494175, -6907.1584233234435, 10700.897657978256, -0.038, 0.96, 0.304, 192.0, 0.0, 0.0, 0.0, 0.0, 0.0, 0.0, 0.0, 0.0, 0.0, 1.695418304160239E9, 0.0, 2023-09-22 16:31:44.160
208.0, 23990.931986681462, 15868.598624300794, -35297.13723625389, -63719.8390030669, -187500.02235174447, 3428.0423436215337, -187500.02235174447, -187500.02235174447, -44210.00709652986, 9828.911403287817, -55857.14350427908, -69387.66025157693, -9494.104623091773, -34715.880121693626, -6882.526800933695, 10737.666277607237, -0.034, 0.9540000000000001, 0.306, 192.0, 127.0, 120.0, 14.5, 104.0, 4.5, 72.0, 0.0, 0.0, 0.0, 1.695418304160244E9, 0.0, 2023-09-22 16:31:44.160
210.0, 23982.79595169973, 15859.166188140654, -35297.49486416517, -63725.315180458456, -187500.02235174447, 3422.387352274341, -187500.02235174447, -187500.02235174447, -44222.52407342483, 9798.110699428404, -55854.90832983355, -69404.1334872405, -9512.83538494532, -34740.623502805654, -6907.806623912647, 10712.07353020591, -0.034, 0.9540000000000001, 0.306, 192.0, 0.0, 0.0, 0.0, 0.0, 0.0, 0.0, 0.0, 0.0, 0.0, 1.695418304220454E9, 0.0, 2023-09-22 16:31:44.220
212.0, 23997.168123384494, 15872.66664179166, -35289.492939650176, -63712.52998263002, -187500.02235174447, 3446.840160708447, -187500.02235174447, -187500.02235174447, -44213.538672153794, 9810.672379812286, -55836.177567980005, -69395.63982434748, -9499.983131883519, -34735.57200855875, -6886.013673068724, 10750.205606246664, -0.034, 0.9540000000000001, 0.306, 192.0, 0.0, 0.0, 0.0, 0.0, 0.0, 0.0, 0.0, 0.0, 0.0, 1.695418304220484E9, 0.0, 2023-09-22 16:31:44.220
214.0, 23987.333355824157, 15860.909624208169, -35288.17418672731, -63720.01781702255, -187500.02235174447, 3420.7556749291034, -187500.02235174447, -187500.02235174447, -44207.74957033987, 9814.5168798586, -55842.07842851621, -69390.23070218929, -9503.179431340628, -34738.72360452695, -6895.446109228863, 10716.74504479707, -0.034, 0.9540000000000001, 0.306, 192.0, 0.0, 0.0, 0.0, 0.0, 0.0, 0.0, 0.0, 0.0, 0.0, 1.69541830422049E9, 0.0, 2023-09-22 16:31:44.220
216.0, 24002.063155420205, 15878.299281394397, -35278.80880580054, -63706.71852907164, -187500.02235174447, 3462.508733571617, -187500.02235174447, -187500.02235174447, -44218.590166400696, 9817.869641526895, -55813.445843868954, -69400.95953952784, -9502.419472029147, -34743.73039528494, -6888.360606236531, 10762.65552790827, -0.034, 0.9540000000000001, 0.306, 192.0, 0.0, 0.0, 0.0, 0.0, 0.0, 0.0, 0.0, 0.0, 0.0, 1.695418304220495E9, 0.0, 2023-09-22 16:31:44.220
218.0, 24005.684138021963, 15879.170999428154, -35278.786454056084, -63712.08294774091, -187500.02235174447, 3421.470930751673, -187500.02235174447, -187500.02235174447, -44207.19077672849, 9812.907554257818, -55800.32536987369, -69385.02274573121, -9491.958855624063, -34741.53992432832, -6894.820260384115, 10739.946155541678, -0.032, 0.9580000000000001, 0.304, 192.0, 127.5, 0.0, 14.5, 120.0, 4.5, 64.0, 0.0, 0.0, 0.0, 1.695418304220501E9, 0.0, 2023-09-22 16:31:44.220
220.0, 24011.920274724995, 15884.75893554198, -35278.38412265589, -63715.70393034267, -187500.02235174447, 3437.0053931481116, -187500.02235174447, -187500.02235174447, -44193.824433544214, 9815.925039759284, -55821.24660268386, -69382.51935035222, -9478.860733373253, -34745.384424374635, -6879.576370665595, 10738.985030530099, -0.032, 0.9580000000000001, 0.304, 192.0, 0.0, 0.0, 0.0, 0.0, 0.0, 0.0, 0.0, 0.0, 0.0, 1.695418304220506E9, 0.0, 2023-09-22 16:31:44.220
222.0, 24002.08550716466, 15881.450877362595, -35288.710628594235, -63715.8380408094, -187500.02235174447, 3414.7207039261707, -187500.02235174447, -187500.02235174447, -44214.186872743, 9810.694731556741, -55800.54888731825, -69388.28610042168, -9501.279533061926, -34733.4485928355, -6903.9844756107905, 10733.374742671818, -0.032, 0.9580000000000001, 0.304, 192.0, 0.0, 0.0, 0.0, 0.0, 0.0, 0.0, 0.0, 0.0, 0.0, 1.695418304220512E9, 0.0, 2023-09-22 16:31:44.220
224.0, 24013.2166759034, 15891.263293178476, -35274.18199469829, -63710.898305284776, -187500.02235174447, 3438.413553048796, -187500.02235174447, -187500.02235174447, -44206.36376218364, 9818.719007816197, -55811.05420721224, -69381.15589394043, -9488.606093955766, -34744.043319707314, -6885.812507368625, 10742.024867776021, -0.032, 0.9580000000000001, 0.304, 192.0, 0.0, 0.0, 0.0, 0.0, 0.0, 0.0, 0.0, 0.0, 0.0, 1.695418304220518E9, 0.0, 2023-09-22 16:31:44.220
226.0, 24016.636492805064, 15898.728775826548, -35276.10424472144, -63709.7360145731, -187500.02235174447, 3397.1969362732098, -187500.02235174447, -187500.02235174447, -44199.30061093577, 9831.727723089185, -55795.072709926695, -69369.73415252379, -9490.997730612486, -34737.6507207931, -6897.144841807466, 10731.40778915975, -0.032, 0.9580000000000001, 0.304, 192.0, 0.0, 0.0, 0.0, 0.0, 0.0, 0.0, 0.0, 0.0, 0.0, 1.695418304280825E9, 0.0, 2023-09-22 16:31:44.280
228.0, 24000.94556819744, 15883.551941341395, -35287.14600648237, -63723.86231706886, -187500.02235174447, 3433.3620588018966, -187500.02235174447, -187500.02235174447, -44221.20532050196, 9820.931830517273, -55811.5235938458, -69391.19182720088, -9507.962704654063, -34737.203685903994, -6894.753205150749, 10729.485539136595, -0.034, 0.96, 0.302, 192.0, 127.0, 120.0, 15.0, 0.0, 4.5, 56.0, 0.0, 0.0, 0.0, 1.695418304280843E9, 0.0, 2023-09-22 16:31:44.280
230.0, 24006.488800822353, 15888.469325121561, -35296.667849620324, -63717.00033152108, -187500.02235174447, 3403.634238676338, -187500.02235174447, -187500.02235174447, -44213.203395986966, 9832.08535100047, -55772.72096547139, -69379.54656833966, -9508.275629076437, -34722.18331363003, -6900.2293825422985, 10740.437893919694, -0.034, 0.96, 0.302, 192.0, 0.0, 0.0, 0.0, 0.0, 0.0, 0.0, 0.0, 0.0, 0.0, 1.695418304280847E9, 0.0, 2023-09-22 16:31:44.280
232.0, 24019.698681795442, 15905.411947418685, -35273.57849759799, -63700.16946794623, -187500.02235174447, 3406.607020688894, -187500.02235174447, -187500.02235174447, -44205.67085810553, 9832.71119984522, -55803.387558864066, -69374.91975723741, -9500.541925494901, -34745.63029356364, -6890.1934492818655, 10722.534146610993, -0.034, 0.96, 0.302, 192.0, 0.0, 0.0, 0.0, 0.0, 0.0, 0.0, 0.0, 0.0, 0.0, 1.695418304280852E9, 0.0, 2023-09-22 16:31:44.280
234.0, 24015.451850348934, 15905.657816607692, -35287.14600648237, -63698.69425281218, -187500.02235174447, 3383.6070756443833, -187500.02235174447, -187500.02235174447, -44199.81470105823, 9852.067810543514, -55783.15923013201, -69365.10734142154, -9499.983131883519, -34728.48650556642, -6886.773632380204, 10729.217318203131, -0.034, 0.96, 0.302, 192.0, 0.0, 0.0, 0.0, 0.0, 0.0, 0.0, 0.0, 0.0, 0.0, 1.695418304280875E9, 0.0, 2023-09-22 16:31:44.280
236.0, 23997.391640829046, 15884.24484541951, -35284.95553552575, -63711.90413378527, -187500.02235174447, 3410.0044858461006, -187500.02235174447, -187500.02235174447, -44201.08875049219, 9853.297156488557, -55824.19703295196, -69366.6719635334, -9497.569143482346, -34738.25421789339, -6875.5754084080945, 10701.009416700534, -0.034, 0.96, 0.302, 192.0, 0.0, 0.0, 0.0, 0.0, 0.0, 0.0, 0.0, 0.0, 0.0, 1.695418304280879E9, 0.0, 2023-09-22 16:31:44.280
238.0, 24002.890169965052, 15897.655892092693, -35290.096436750464, -63689.41827886323, -187500.02235174447, 3411.5020527246065, -187500.02235174447, -187500.02235174447, -44217.1373030111, 9853.185397766281, -55755.89010189654, -69378.4289811169, -9513.036550645418, -34735.236732391924, -6891.333388249086, 10752.351373714373, -0.034, 0.96, 0.308, 192.0, 127.0, 120.0, 15.0, 0.0, 4.5, 80.0, 0.0, 0.0, 0.0, 1.695418304280883E9, 0.0, 2023-09-22 16:31:44.280
240.0, 23996.072887906183, 15890.19040944462, -35277.98179125569, -63690.15588643026, -187500.02235174447, 3404.707122410193, -187500.02235174447, -187500.02235174447, -44196.774863812316, 9877.682909689298, -55810.160137434024, -69348.74586448024, -9494.842230658798, -34734.16384865807, -6875.955388063835, 10703.535163823983, -0.034, 0.96, 0.308, 192.0, 0.0, 0.0, 0.0, 0.0, 0.0, 0.0, 0.0, 0.0, 0.0, 1.695418304340367E9, 0.0, 2023-09-22 16:31:44.340
242.0, 23981.65601273251, 15873.985394714522, -35304.04392529058, -63711.74767157408, -187500.02235174447, 3416.352381271408, -187500.02235174447, -187500.02235174447, -44210.20826222996, 9853.095990788459, -55766.261311323804, -69365.8225972441, -9508.901477921187, -34731.50399106789, -6884.113774790022, 10741.622536375826, -0.034, 0.96, 0.308, 192.0, 0.0, 0.0, 0.0, 0.0, 0.0, 0.0, 0.0, 0.0, 0.0, 1.695418304340394E9, 0.0, 2023-09-22 16:31:44.340
244.0, 23978.75028595332, 15876.488790093517, -35297.00312578716, -63712.97701751912, -187500.02235174447, 3443.7556199736146, -187500.02235174447, -187500.02235174447, -44217.316116966744, 9843.66355462832, -55770.888122426055, -69381.42411487391, -9523.586574028323, -34753.632218078645, -6900.743472664771, 10729.217318203131, -0.034, 0.96, 0.308, 192.0, 0.0, 0.0, 0.0, 0.0, 0.0, 0.0, 0.0, 0.0, 0.0, 1.695418304340398E9, 0.0, 2023-09-22 16:31:44.340
246.0, 24003.00192868733, 15900.516915382972, -35286.56486112653, -63691.69815679767, -187500.02235174447, 3453.9703671896896, -187500.02235174447, -187500.02235174447, -44194.942020766975, 9878.733441678696, -55714.98640954333, -69358.24535587375, -9505.816937186353, -34735.035566691826, -6884.73962363477, 10780.380461261328, -0.034, 0.96, 0.308, 192.0, 0.0, 0.0, 0.0, 0.0, 0.0, 0.0, 0.0, 0.0, 0.0, 1.695418304340404E9, 0.0, 2023-09-22 16:31:44.340
248.0, 23995.22352161688, 15891.375051900752, -35276.52892786609, -63700.32593015742, -187500.02235174447, 3439.39702980483, -187500.02235174447, -187500.02235174447, -44179.2287444149, 9887.629435971909, -55752.38087801706, -69345.66132374541, -9494.484602747512, -34741.6516830506, -6876.491829930763, 10731.31838218193, -0.038, 0.962, 0.306, 192.0, 127.0, 104.0, 15.0, 8.0, 4.5, 72.0, 0.0, 0.0, 0.0, 1.695418304340426E9, 0.0, 2023-09-22 16:31:44.340
250.0, 24019.206943417426, 15919.247677236519, -35263.967247482215, -63683.629177049304, -187500.02235174447, 3441.743962972637, -187500.02235174447, -187500.02235174447, -44168.70107277645, 9888.970540639228, -55711.47718566385, -69338.75463470872, -9490.416585256648, -34733.60505504669, -6861.493809401251, 10771.640929179302, -0.038, 0.962, 0.306, 192.0, 0.0, 0.0, 0.0, 0.0, 0.0, 0.0, 0.0, 0.0, 0.0, 1.695418304340431E9, 0.0, 2023-09-22 16:31:44.340
252.0, 24014.93776022646, 15912.430395177651, -35257.68640729027, -63688.70302304066, -187500.02235174447, 3421.6497447073157, -187500.02235174447, -187500.02235174447, -44159.64861627205, 9909.780014727117, -55754.05725885121, -69329.79158518215, -9485.722718921032, -34731.07930792324, -6859.88448380047, 10710.821832516413, -0.038, 0.962, 0.306, 192.0, 0.0, 0.0, 0.0, 0.0, 0.0, 0.0, 0.0, 0.0, 0.0, 1.695418304340436E9, 0.0, 2023-09-22 16:31:44.340
254.0, 24028.997007488848, 15924.366226716786, -35256.07708168949, -63680.81285724793, -187500.02235174447, 3430.769256445081, -187500.02235174447, -187500.02235174447, -44154.30654934723, 9900.369930311434, -55735.706476653395, -69326.30471304712, -9476.200875783072, -34733.33683411322, -6848.552149361629, 10738.962678785645, -0.038, 0.962, 0.306, 192.0, 0.0, 0.0, 0.0, 0.0, 0.0, 0.0, 0.0, 0.0, 0.0, 1.695418304340449E9, 0.0, 2023-09-22 16:31:44.340
0.0, 24008.969844456893, 15904.696691596115, -35262.80495677054, -63698.56014234545, -187500.02235174447, 3414.4748347371624, -187500.02235174447, -187500.02235174447, -44155.13356389208, 9900.48168903371, -55768.94352065844, -69327.22113456979, -9480.358300251759, -34743.484526095934, -6865.204198980832, 10684.223256614598, -0.038, 0.962, 0.306, 192.0, 0.0, 0.0, 0.0, 0.0, 0.0, 0.0, 0.0, 0.0, 0.0, 1.695418304399835E9, 0.0, 2023-09-22 16:31:44.399
2.0, 24006.064117677703, 15904.786098573935, -35278.33941916697, -63700.214171435146, -187500.02235174447, 3459.021861436589, -187500.02235174447, -187500.02235174447, -44180.9274769935, 9878.554627723053, -55716.5510316552, -69356.41251282842, -9501.234829573015, -34745.2503139079, -6874.904856074436, 10746.852844578367, -0.034, 0.972, 0.304, 192.0, 127.0, 120.0, 15.0, 48.0, 4.5, 64.0, 0.0, 0.0, 0.0, 1.695418304399858E9, 0.0, 2023-09-22 16:31:44.399
4.0, 24004.678309521474, 15904.316711940375, -35261.441500358764, -63687.80895326244, -187500.02235174447, 3427.930584899257, -187500.02235174447, -187500.02235174447, -44158.75454649384, 9902.694511734786, -55738.03105807675, -69335.89361141845, -9485.521553220935, -34739.03652894933, -6877.497658431252, 10704.78686151348, -0.034, 0.972, 0.304, 192.0, 0.0, 0.0, 0.0, 0.0, 0.0, 0.0, 0.0, 0.0, 0.0, 1.695418304399863E9, 0.0, 2023-09-22 16:31:44.399
6.0, 23994.105934394116, 15894.683110080137, -35273.55614585354, -63697.57666558942, -187500.02235174447, 3466.1073644289213, -187500.02235174447, -187500.02235174447, -44176.85945950264, 9896.301912820569, -55719.076778778646, -69345.92954467887, -9487.108527077262, -34734.0967934247, -6857.582254121573, 10749.445646935183, -0.034, 0.972, 0.304, 192.0, 0.0, 0.0, 0.0, 0.0, 0.0, 0.0, 0.0, 0.0, 0.0, 1.695418304399868E9, 0.0, 2023-09-22 16:31:44.399
8.0, 23993.010698915805, 15895.018386246968, -35271.96917199721, -63688.65831955175, -187500.02235174447, 3441.118114127888, -187500.02235174447, -187500.02235174447, -44189.75641605335, 9891.317473807034, -55698.513173879765, -69357.12776865099, -9506.845117431298, -34744.4009476186, -6883.957312578835, 10737.353353184862, -0.034, 0.972, 0.304, 192.0, 0.0, 0.0, 0.0, 0.0, 0.0, 0.0, 0.0, 0.0, 0.0, 1.695418304399873E9, 0.0, 2023-09-22 16:31:44.399
10.0, 23999.045669918738, 15900.136935727232, -35266.69416030576, -63678.667089780225, -187500.02235174447, 3470.9129894868124, -187500.02235174447, -187500.02235174447, -44180.50279384885, 9897.754776210162, -55698.043787246206, -69345.30369583413, -9487.086175332806, -34739.505915582886, -6858.878655299981, 10755.726487127124, -0.034, 0.972, 0.304, 192.0, 0.0, 0.0, 0.0, 0.0, 0.0, 0.0, 0.0, 0.0, 0.0, 1.695418304399881E9, 0.0, 2023-09-22 16:31:44.399
12.0, 24000.31971935269, 15896.873581036758, -35267.11884345041, -63679.51645606953, -187500.02235174447, 3426.2989075540195, -187500.02235174447, -187500.02235174447, -44173.43964260098, 9908.617724015443, -55692.88053427703, -69336.18418409636, -9485.052166587373, -34727.63713927712, -6867.349966448542, 10733.821777560923, -0.038, 0.964, 0.296, 192.0, 127.0, 104.0, 15.0, 16.0, 4.5, 32.0, 0.0, 0.0, 0.0, 1.695418304399886E9, 0.0, 2023-09-22 16:31:44.399
14.0, 24007.449925833935, 15903.735566584537, -35263.45315735974, -63680.634043292295, -187500.02235174447, 3444.15795137381, -187500.02235174447, -187500.02235174447, -44171.45033734445, 9904.72852048022, -55712.84064207562, -69337.27941957467, -9479.44187872909, -34745.20561041899, -6860.935015789869, 10735.36404792834, -0.038, 0.964, 0.296, 192.0, 0.0, 0.0, 0.0, 0.0, 0.0, 0.0, 0.0, 0.0, 0.0, 1.695418304460241E9, 0.0, 2023-09-22 16:31:44.460
16.0, 24002.018451931293, 15901.09806073881, -35272.19268944176, -63686.51255208404, -187500.02235174447, 3406.204689288699, -187500.02235174447, -187500.02235174447, -44170.84684024416, 9910.405863571867, -55704.10110999359, -69336.05007362964, -9482.615826441745, -34744.87033425216, -6873.921379318403, 10717.326190152908, -0.038, 0.964, 0.296, 192.0, 0.0, 0.0, 0.0, 0.0, 0.0, 0.0, 0.0, 0.0, 0.0, 1.69541830446026E9, 0.0, 2023-09-22 16:31:44.460
18.0, 23985.813437201195, 15884.37895588624, -35286.050771004055, -63710.898305284776, -187500.02235174447, 3452.830428222469, -187500.02235174447, -187500.02235174447, -44185.21901192892, 9898.15710761036, -55714.114691509574, -69355.45138781684, -9489.187239311605, -34747.261970908876, -6867.439373426363, 10726.445701890672, -0.038, 0.964, 0.296, 192.0, 0.0, 0.0, 0.0, 0.0, 0.0, 0.0, 0.0, 0.0, 0.0, 1.695418304460266E9, 0.0, 2023-09-22 16:31:44.460
20.0, 24000.878512964075, 15901.701557839104, -35277.98179125569, -63693.75451728756, -187500.02235174447, 3407.1434625558213, -187500.02235174447, -187500.02235174447, -44171.875020489104, 9910.741139738697, -55680.92235099344, -69341.68271323237, -9489.008425355963, -34741.048185950305, -6887.555943436139, 10732.279507193507, -0.038, 0.964, 0.296, 192.0, 0.0, 0.0, 0.0, 0.0, 0.0, 0.0, 0.0, 0.0, 0.0, 1.695418304460271E9, 0.0, 2023-09-22 16:31:44.460
22.0, 23975.866910918583, 15869.76091501247, -35295.10322750846, -63727.14802350379, -187500.02235174447, 3439.285271082553, -187500.02235174447, -187500.02235174447, -44192.080997476696, 9887.160049338347, -55708.63851411802, -69367.65544028944, -9500.20664932807, -34747.59724707571, -6887.622998669505, 10719.717826809625, -0.042, 0.964, 0.3, 192.0, 127.0, 88.0, 15.0, 16.0, 4.5, 48.0, 0.0, 0.0, 0.0, 1.695418304460277E9, 0.0, 2023-09-22 16:31:44.460
24.0, 23988.875626191573, 15886.278854164942, -35289.202366972255, -63711.79237506299, -187500.02235174447, 3418.1405208278325, -187500.02235174447, -187500.02235174447, -44185.80015728476, 9900.057005889059, -55662.102182162074, -69363.94505070985, -9501.614809228757, -34750.16769768807, -6897.569524952117, 10736.280469451007, -0.042, 0.964, 0.3, 192.0, 0.0, 0.0, 0.0, 0.0, 0.0, 0.0, 0.0, 0.0, 0.0, 1.695418304460288E9, 0.0, 2023-09-22 16:31:44.460
26.0, 23985.99225115684, 15882.210836674076, -35285.916660537325, -63713.759328575055, -187500.02235174447, 3448.091858397944, -187500.02235174447, -187500.02235174447, -44193.824433544214, 9872.564360209031, -55676.89903699148, -69373.39983861445, -9503.224134829537, -34750.21240117698, -6886.125431791, 10733.285335693996, -0.042, 0.964, 0.3, 192.0, 0.0, 0.0, 0.0, 0.0, 0.0, 0.0, 0.0, 0.0, 0.0, 1.695418304460294E9, 0.0, 2023-09-22 16:31:44.460
28.0, 24001.526713553278, 15900.0028252605, -35281.46866339072, -63696.280264411005, -187500.02235174447, 3419.861605150891, -187500.02235174447, -187500.02235174447, -44175.27248564631, 9898.760604710651, -55641.5832807521, -69356.63603027297, -9496.965646382052, -34740.46704059446, -6885.946617835358, 10749.803274846468, -0.042, 0.964, 0.3, 192.0, 0.0, 0.0, 0.0, 0.0, 0.0, 0.0, 0.0, 0.0, 0.0, 1.6954183044603E9, 0.0, 2023-09-22 16:31:44.460
30.0, 23983.108876122104, 15880.914435495668, -35285.22375645921, -63709.646607595285, -187500.02235174447, 3436.223082092176, -187500.02235174447, -187500.02235174447, -44187.43183463, 9889.439927272788, -55682.84460101659, -69367.23075714479, -9503.246486573993, -34745.98792147492, -6880.850420099548, 10713.034655217489, -0.042, 0.964, 0.3, 192.0, 0.0, 0.0, 0.0, 0.0, 0.0, 0.0, 0.0, 0.0, 0.0, 1.695418304520455E9, 0.0, 2023-09-22 16:31:44.520
32.0, 23988.585053513652, 15887.061165220877, -35291.63870711788, -63701.287055169, -187500.02235174447, 3434.3455355579304, -187500.02235174447, -187500.02235174447, -44190.15874745354, 9888.434098772299, -55626.33939103358, -69370.13648392397, -9507.627428487234, -34748.22309592046, -6889.0758620591005, 10756.441742949693, -0.034, 0.9580000000000001, 0.306, 192.0, 127.0, 120.0, 14.5, 120.0, 4.5, 72.0, 0.0, 0.0, 0.0, 1.695418304520469E9, 0.0, 2023-09-22 16:31:44.520
34.0, 23984.47233253388, 15881.607339573782, -35282.206270957744, -63702.918732514234, -187500.02235174447, 3438.9723466601786, -187500.02235174447, -187500.02235174447, -44189.9799334979, 9896.570133754032, -55659.084696660604, -69367.0742949336, -9505.191088341606, -34748.98305523194, -6879.419908454408, 10722.400036144261, -0.034, 0.9580000000000001, 0.306, 192.0, 0.0, 0.0, 0.0, 0.0, 0.0, 0.0, 0.0, 0.0, 0.0, 1.695418304520475E9, 0.0, 2023-09-22 16:31:44.520
36.0, 24000.386774586055, 15897.790002559424, -35280.88751803488, -63694.335662643396, -187500.02235174447, 3427.4611982656957, -187500.02235174447, -187500.02235174447, -44175.49600309086, 9900.39228205589, -55623.8806991435, -69356.27840236168, -9490.438937001103, -34743.81980226276, -6873.876675829491, 10752.261966736552, -0.034, 0.9580000000000001, 0.306, 192.0, 0.0, 0.0, 0.0, 0.0, 0.0, 0.0, 0.0, 0.0, 0.0, 1.69541830452048E9, 0.0, 2023-09-22 16:31:44.520
38.0, 23986.618100001586, 15882.568464585362, -35280.48518663469, -63707.679654083215, -187500.02235174447, 3446.191960119243, -187500.02235174447, -187500.02235174447, -44186.917744507526, 9893.61970348593, -55653.18383612441, -69364.50384432124, -9498.574971982835, -34751.77702328885, -6883.510277689729, 10714.666332562725, -0.034, 0.9580000000000001, 0.306, 192.0, 0.0, 0.0, 0.0, 0.0, 0.0, 0.0, 0.0, 0.0, 0.0, 1.695418304520486E9, 0.0, 2023-09-22 16:31:44.520
40.0, 23993.591844271643, 15886.18944718712, -35284.307334936544, -63705.310369170955, -187500.02235174447, 3450.34938458793, -187500.02235174447, -187500.02235174447, -44189.73406430889, 9883.404956269856, -55593.52703017319, -69369.04124844566, -9498.418509771647, -34755.88974426863, -6887.354777736042, 10767.572911688438, -0.034, 0.9580000000000001, 0.306, 192.0, 0.0, 0.0, 0.0, 0.0, 0.0, 0.0, 0.0, 0.0, 0.0, 1.695418304520491E9, 0.0, 2023-09-22 16:31:44.520
42.0, 23995.268225105792, 15887.195275687609, -35266.15771843883, -63702.56110460295, -187500.02235174447, 3426.2989075540195, -187500.02235174447, -187500.02235174447, -44176.45712810244, 9881.370947524423, -55634.698943459865, -69361.3746000975, -9487.041471843895, -34770.038398508834, -6886.863039358025, 10711.60414357235, -0.038, 0.96, 0.312, 192.0, 127.0, 104.0, 15.0, 0.0, 4.5, 96.0, 0.0, 0.0, 0.0, 1.695418304520497E9, 0.0, 2023-09-22 16:31:44.520
44.0, 23998.911559452004, 15887.195275687609, -35283.41326515833, -63713.13347973031, -187500.02235174447, 3438.2123873486985, -187500.02235174447, -187500.02235174447, -44178.55819208124, 9879.649863201364, -55610.06732107012, -69368.63891704546, -9484.49337297599, -34756.06855822427, -6880.872771844002, 10745.779960844513, -0.038, 0.96, 0.312, 192.0, 0.0, 0.0, 0.0, 0.0, 0.0, 0.0, 0.0, 0.0, 0.0, 1.695418304580653E9, 0.0, 2023-09-22 16:31:44.580
46.0, 23992.183684370957, 15885.295377408907, -35273.42203538681, -63711.099470984875, -187500.02235174447, 3425.1813203312545, -187500.02235174447, -187500.02235174447, -44183.72144505042, 9878.778145167607, -55639.303402817655, -69371.90227173595, -9495.222210314538, -34766.12684322916, -6901.995170354267, 10697.701358521148, -0.038, 0.96, 0.312, 192.0, 0.0, 0.0, 0.0, 0.0, 0.0, 0.0, 0.0, 0.0, 0.0, 1.69541830458067E9, 0.0, 2023-09-22 16:31:44.580
48.0, 24000.14090539705, 15891.57621760085, -35273.42203538681, -63703.276360425516, -187500.02235174447, 3448.181265375765, -187500.02235174447, -187500.02235174447, -44184.0790729617, 9890.66927321783, -55605.32875124559, -69364.39208559896, -9483.711061920056, -34745.36207263018, -6879.397556709952, 10740.572004386426, -0.038, 0.96, 0.312, 192.0, 0.0, 0.0, 0.0, 0.0, 0.0, 0.0, 0.0, 0.0, 0.0, 1.695418304580676E9, 0.0, 2023-09-22 16:31:44.580
50.0, 23992.206036115414, 15888.022290232455, -35271.723302808205, -63707.053805238465, -187500.02235174447, 3423.9519743862124, -187500.02235174447, -187500.02235174447, -44183.92261075051, 9893.977331397216, -55618.829204896596, -69366.44844608885, -9490.058957345362, -34763.98107576145, -6891.646312671461, 10700.584733555883, -0.038, 0.96, 0.312, 192.0, 0.0, 0.0, 0.0, 0.0, 0.0, 0.0, 0.0, 0.0, 0.0, 1.695418304580682E9, 0.0, 2023-09-22 16:31:44.580
52.0, 23998.352765840624, 15896.135973469733, -35268.16937543981, -63692.54752308697, -187500.02235174447, 3445.4767042966732, -187500.02235174447, -187500.02235174447, -44185.375474140106, 9891.250418573669, -55600.925457587895, -69359.9217367079, -9480.49241071849, -34759.39896814811, -6876.26831248621, 10734.69349559468, -0.036000000000000004, 0.962, 0.314, 192.0, 127.0, 112.0, 15.0, 8.0, 4.5, 104.0, 0.0, 0.0, 0.0, 1.695418304580688E9, 0.0, 2023-09-22 16:31:44.580
54.0, 23985.433457545456, 15888.715194310571, -35272.81853828651, -63690.64762480827, -187500.02235174447, 3418.6546109503047, -187500.02235174447, -187500.02235174447, -44190.71754106493, 9898.782956455107, -55618.20335605185, -69356.81484422862, -9487.309692777359, -34753.6545698231, -6885.209010268332, 10690.727614251091, -0.036000000000000004, 0.962, 0.314, 192.0, 0.0, 0.0, 0.0, 0.0, 0.0, 0.0, 0.0, 0.0, 0.0, 1.695418304580694E9, 0.0, 2023-09-22 16:31:44.580
56.0, 23983.332393566656, 15888.692842566115, -35270.98569524118, -63685.55142707246, -187500.02235174447, 3447.6671752532934, -187500.02235174447, -187500.02235174447, -44199.45707314695, 9912.506927550665, -55612.05662632664, -69355.67490526139, -9484.538076464902, -34740.064709194274, -6867.439373426363, 10718.108501208842, -0.036000000000000004, 0.962, 0.314, 192.0, 0.0, 0.0, 0.0, 0.0, 0.0, 0.0, 0.0, 0.0, 0.0, 1.6954183045807E9, 0.0, 2023-09-22 16:31:44.580
58.0, 23976.09042836314, 15883.551941341395, -35279.25584068964, -63690.42410736372, -187500.02235174447, 3420.9791923736566, -187500.02235174447, -187500.02235174447, -44203.25686970435, 9900.81696520054, -55604.43468146738, -69356.05488491713, -9495.6915969481, -34749.02775872085, -6882.236228255776, 10698.774242255002, -0.036000000000000004, 0.962, 0.314, 192.0, 0.0, 0.0, 0.0, 0.0, 0.0, 0.0, 0.0, 0.0, 0.0, 1.695418304580705E9, 0.0, 2023-09-22 16:31:44.580
60.0, 23961.74060842283, 15869.85032199029, -35293.58330888549, -63705.60094184887, -187500.02235174447, 3463.6710242832933, -187500.02235174447, -187500.02235174447, -44215.66208787705, 9894.983159897705, -55595.337521474066, -69366.89548097795, -9498.507916749468, -34750.614732577174, -6874.100193274045, 10728.479710636106, -0.036000000000000004, 0.962, 0.314, 192.0, 0.0, 0.0, 0.0, 0.0, 0.0, 0.0, 0.0, 0.0, 0.0, 1.695418304640247E9, 0.0, 2023-09-22 16:31:44.640
62.0, 23962.612326456587, 15871.370240613252, -35296.55609089805, -63701.80114529147, -187500.02235174447, 3429.294041311031, -187500.02235174447, -187500.02235174447, -44220.75828561286, 9887.517677249632, -55570.862361295505, -69373.66805954791, -9517.417492558658, -34754.41452913458, -6904.1632895664325, 10724.411693145239, -0.03, 0.964, 0.314, 192.0, 127.5, 8.0, 15.0, 16.0, 4.5, 104.0, 0.0, 0.0, 0.0, 1.695418304640273E9, 0.0, 2023-09-22 16:31:44.640
64.0, 23962.589974712133, 15874.56654007036, -35290.49876815066, -63699.05188072347, -187500.02235174447, 3465.7273847731813, -187500.02235174447, -187500.02235174447, -44215.706791365956, 9888.970540639228, -55582.93230330137, -69372.03638220267, -9509.54967851039, -34758.34843615871, -6880.828068355092, 10735.207585717153, -0.03, 0.964, 0.314, 192.0, 0.0, 0.0, 0.0, 0.0, 0.0, 0.0, 0.0, 0.0, 0.0, 1.695418304640279E9, 0.0, 2023-09-22 16:31:44.640
66.0, 23973.22940507286, 15887.128220454244, -35281.289849435074, -63689.95472073016, -187500.02235174447, 3420.9568406292015, -187500.02235174447, -187500.02235174447, -44203.45803540445, 9904.795575713584, -55570.77295431769, -69359.38529484098, -9507.582724998323, -34747.619598820165, -6882.727966633794, 10721.081283221398, -0.03, 0.964, 0.314, 192.0, 0.0, 0.0, 0.0, 0.0, 0.0, 0.0, 0.0, 0.0, 0.0, 1.695418304640284E9, 0.0, 2023-09-22 16:31:44.640
68.0, 23957.471425231866, 15868.688031278614, -35285.98371577069, -63712.574686118925, -187500.02235174447, 3454.6185677788935, -187500.02235174447, -187500.02235174447, -44211.52701515282, 9892.72563370772, -55607.80979488013, -69368.90713797894, -9502.754748195977, -34765.88097404015, -6873.5190479182065, 10708.050216203954, -0.03, 0.964, 0.314, 192.0, 0.0, 0.0, 0.0, 0.0, 0.0, 0.0, 0.0, 0.0, 0.0, 1.69541830464029E9, 0.0, 2023-09-22 16:31:44.640
70.0, 23965.450998002412, 15874.14185692571, -35288.9788495277, -63708.61842735034, -187500.02235174447, 3426.7235906986703, -187500.02235174447, -187500.02235174447, -44216.39969544407, 9885.215447570736, -55557.9654047448, -69378.27251890571, -9518.155100125683, -34755.88974426863, -6905.41498725593, 10728.189137958187, -0.03, 0.964, 0.314, 192.0, 0.0, 0.0, 0.0, 0.0, 0.0, 0.0, 0.0, 0.0, 0.0, 1.695418304640295E9, 0.0, 2023-09-22 16:31:44.640
72.0, 23971.530672494257, 15884.356604141785, -35275.94778251026, -63699.789488290495, -187500.02235174447, 3444.4038205628185, -187500.02235174447, -187500.02235174447, -44207.526052895315, 9893.776165697118, -55597.17036451941, -69367.49897807825, -9503.492355763, -34762.572915860765, -6885.588989924073, 10704.384530113284, -0.042, 0.96, 0.316, 192.0, 127.0, 88.0, 15.0, 0.0, 4.5, 112.0, 0.0, 0.0, 0.0, 1.695418304640301E9, 0.0, 2023-09-22 16:31:44.640
74.0, 23973.676439961964, 15888.446973377106, -35287.05659950455, -63699.45421212366, -187500.02235174447, 3431.3727535453745, -187500.02235174447, -187500.02235174447, -44205.80496857226, 9905.24261060269, -55554.76910528769, -69356.85954771753, -9507.605076742779, -34748.58072383174, -6892.026292327201, 10724.948135012166, -0.042, 0.96, 0.316, 192.0, 0.0, 0.0, 0.0, 0.0, 0.0, 0.0, 0.0, 0.0, 0.0, 1.695418304699897E9, 0.0, 2023-09-22 16:31:44.699
76.0, 23963.79696891272, 15874.14185692571, -35285.3802186704, -63711.21122970715, -187500.02235174447, 3447.0636781529997, -187500.02235174447, -187500.02235174447, -44212.979878542414, 9896.793651198584, -55587.514410914715, -69372.90810023643, -9515.674056491143, -34763.69050308353, -6894.283818517187, 10701.657617289737, -0.042, 0.96, 0.316, 192.0, 0.0, 0.0, 0.0, 0.0, 0.0, 0.0, 0.0, 0.0, 0.0, 1.695418304699918E9, 0.0, 2023-09-22 16:31:44.699
78.0, 23960.757131666796, 15871.23613014652, -35300.9817363002, -63711.47945064062, -187500.02235174447, 3451.489323555151, -187500.02235174447, -187500.02235174447, -44222.56877691374, 9894.558476753054, -55523.186090372335, -69377.08787644957, -9524.324181595348, -34753.98984598993, -6897.5248214632065, 10747.188120745197, -0.042, 0.96, 0.316, 192.0, 0.0, 0.0, 0.0, 0.0, 0.0, 0.0, 0.0, 0.0, 0.0, 1.695418304699923E9, 0.0, 2023-09-22 16:31:44.699
80.0, 23976.403352785514, 15886.43531637613, -35272.438558630776, -63694.51447659904, -187500.02235174447, 3445.96844267469, -187500.02235174447, -187500.02235174447, -44208.64364011808, 9891.138659851393, -55555.082029710065, -69362.82746348709, -9512.075425633839, -34773.81584332178, -6889.2546760147425, 10718.510832609038, -0.042, 0.96, 0.316, 192.0, 0.0, 0.0, 0.0, 0.0, 0.0, 0.0, 0.0, 0.0, 0.0, 1.695418304699927E9, 0.0, 2023-09-22 16:31:44.699
82.0, 23973.341163795136, 15881.920263996157, -35296.84666357597, -63708.8866482838, -187500.02235174447, 3440.313451327497, -187500.02235174447, -187500.02235174447, -44206.98961102839, 9901.62162800093, -55519.87803219295, -69364.88382397698, -9509.281457576926, -34757.36495940268, -6882.929132333891, 10746.495216667083, -0.036000000000000004, 0.96, 0.31, 192.0, 127.0, 112.0, 15.0, 0.0, 4.5, 88.0, 0.0, 0.0, 0.0, 1.695418304699932E9, 0.0, 2023-09-22 16:31:44.699
84.0, 23973.631736473053, 15882.881389007734, -35282.16156746883, -63703.72339531463, -187500.02235174447, 3449.5894252764497, -187500.02235174447, -187500.02235174447, -44221.20532050196, 9884.522543492621, -55536.77595100117, -69370.06942869061, -9519.496204793002, -34775.67103811158, -6893.1885830388765, 10718.220259931119, -0.036000000000000004, 0.96, 0.31, 192.0, 0.0, 0.0, 0.0, 0.0, 0.0, 0.0, 0.0, 0.0, 0.0, 1.695418304699936E9, 0.0, 2023-09-22 16:31:44.699
86.0, 23979.018506886783, 15890.52568561145, -35288.80003557206, -63697.9342935007, -187500.02235174447, 3447.3989543198295, -187500.02235174447, -187500.02235174447, -44213.80689308726, 9897.508907021154, -55492.45244174629, -69358.31241110712, -9508.968533154552, -34772.74295958793, -6889.41113822593, 10754.139513270798, -0.036000000000000004, 0.96, 0.31, 192.0, 0.0, 0.0, 0.0, 0.0, 0.0, 0.0, 0.0, 0.0, 0.0, 1.695418304699942E9, 0.0, 2023-09-22 16:31:44.699
88.0, 23975.41987602948, 15888.715194310571, -35277.75827381114, -63702.69521506968, -187500.02235174447, 3428.9140616552904, -187500.02235174447, -187500.02235174447, -44217.20435824447, 9894.558476753054, -55526.58355552955, -69359.22883262979, -9511.695445978099, -34781.54954690332, -6894.484984217284, 10707.223201659108, -0.036000000000000004, 0.96, 0.31, 192.0, 0.0, 0.0, 0.0, 0.0, 0.0, 0.0, 0.0, 0.0, 0.0, 1.695418304699948E9, 0.0, 2023-09-22 16:31:44.699
90.0, 23983.26533833329, 15894.414889146674, -35279.74757906766, -63697.97899698961, -187500.02235174447, 3429.361096544397, -187500.02235174447, -187500.02235174447, -44206.27435520582, 9910.830546716517, -55500.052034861095, -69357.2171756288, -9500.139594094706, -34778.62146837967, -6881.588027666572, 10737.643925862782, -0.036000000000000004, 0.96, 0.31, 192.0, 0.0, 0.0, 0.0, 0.0, 0.0, 0.0, 0.0, 0.0, 0.0, 1.695418304760222E9, 0.0, 2023-09-22 16:31:44.760
92.0, 23970.30132654921, 15880.534455839928, -35276.28305867709, -63706.40560464926, -187500.02235174447, 3403.298962509509, -187500.02235174447, -187500.02235174447, -44206.85550056166, 9899.72172972223, -55538.65349753541, -69353.90911744942, -9499.446690016592, -34782.443616681536, -6884.65021665695, 10684.983215926077, -0.042, 0.96, 0.308, 192.0, 127.0, 88.0, 15.0, 0.0, 4.5, 80.0, 0.0, 0.0, 0.0, 1.695418304760237E9, 0.0, 2023-09-22 16:31:44.760
94.0, 23961.204166555905, 15874.588891814816, -35293.42684667431, -63716.061558253954, -187500.02235174447, 3437.832407692958, -187500.02235174447, -187500.02235174447, -44231.576529929225, 9880.365119023934, -55488.40677599988, -69378.20546367233, -9515.02585590194, -34771.40185492061, -6887.690053902871, 10741.063742764443, -0.042, 0.96, 0.308, 192.0, 0.0, 0.0, 0.0, 0.0, 0.0, 0.0, 0.0, 0.0, 0.0, 1.695418304760242E9, 0.0, 2023-09-22 16:31:44.760
96.0, 23963.998134612815, 15880.087420950822, -35278.80880580054, -63708.01493025004, -187500.02235174447, 3424.4660645086847, -187500.02235174447, -187500.02235174447, -44228.7378583834, 9887.025938871615, -55495.089947592016, -69372.9304519809, -9523.11718739476, -34788.6126981512, -6905.593801211572, 10706.038559202976, -0.042, 0.96, 0.308, 192.0, 0.0, 0.0, 0.0, 0.0, 0.0, 0.0, 0.0, 0.0, 0.0, 1.695418304760248E9, 0.0, 2023-09-22 16:31:44.760
98.0, 23974.54815799572, 15889.966892000068, -35281.245145946166, -63703.16460170324, -187500.02235174447, 3446.6613467528045, -187500.02235174447, -187500.02235174447, -44224.55808217026, 9892.613874985442, -55463.01519429865, -69368.92948972339, -9513.684751234621, -34784.388218449145, -6882.392690466963, 10746.696382367181, -0.042, 0.96, 0.308, 192.0, 0.0, 0.0, 0.0, 0.0, 0.0, 0.0, 0.0, 0.0, 0.0, 1.695418304760253E9, 0.0, 2023-09-22 16:31:44.760
100.0, 23970.480140504857, 15889.273987921953, -35271.4774336192, -63699.3871568903, -187500.02235174447, 3412.038494591534, -187500.02235174447, -187500.02235174447, -44215.52797741032, 9900.995779156183, -55479.577836940036, -69362.0228006867, -9512.187184356117, -34782.957706804, -6888.047681814156, 10703.35634986834, -0.042, 0.96, 0.308, 192.0, 0.0, 0.0, 0.0, 0.0, 0.0, 0.0, 0.0, 0.0, 0.0, 1.695418304760259E9, 0.0, 2023-09-22 16:31:44.760
102.0, 23976.06807661868, 15892.738508312525, -35277.60181159995, -63696.928465000216, -187500.02235174447, 3437.8547594374136, -187500.02235174447, -187500.02235174447, -44217.89726232258, 9910.67408450533, -55466.45736294477, -69358.2677076182, -9505.794585441898, -34773.50291889941, -6871.93207406188, 10731.005457759555, -0.038, 0.966, 0.304, 192.0, 127.0, 104.0, 15.0, 24.0, 4.5, 64.0, 0.0, 0.0, 0.0, 1.695418304760264E9, 0.0, 2023-09-22 16:31:44.760
104.0, 23970.278974804758, 15883.95427274159, -35281.89334653537, -63702.40464239176, -187500.02235174447, 3409.6021544459054, -187500.02235174447, -187500.02235174447, -44222.009983302356, 9911.657561261363, -55463.909264076865, -69368.19188215636, -9514.154137868183, -34771.60302062071, -6900.609362198039, 10708.094919692865, -0.038, 0.966, 0.304, 192.0, 0.0, 0.0, 0.0, 0.0, 0.0, 0.0, 0.0, 0.0, 0.0, 1.695418304820435E9, 0.0, 2023-09-22 16:31:44.820
106.0, 23967.149730581015, 15878.18752267212, -35288.30829719404, -63712.08294774091, -187500.02235174447, 3438.0782768819663, -187500.02235174447, -187500.02235174447, -44228.82726536122, 9895.34078780899, -55457.02492678463, -69374.65153630395, -9512.678922734132, -34787.87509058417, -6886.483059702285, 10734.22410896112, -0.038, 0.966, 0.304, 192.0, 0.0, 0.0, 0.0, 0.0, 0.0, 0.0, 0.0, 0.0, 0.0, 1.695418304820451E9, 0.0, 2023-09-22 16:31:44.820
108.0, 23975.55398649621, 15889.609264088782, -35285.67079134832, -63702.851677280865, -187500.02235174447, 3406.2717445220646, -187500.02235174447, -187500.02235174447, -44230.21307351745, 9898.045348888081, -55437.690667830786, -69369.5776903126, -9521.329047838337, -34795.49703544343, -6899.268257530721, 10724.277582678507, -0.038, 0.966, 0.304, 192.0, 0.0, 0.0, 0.0, 0.0, 0.0, 0.0, 0.0, 0.0, 0.0, 1.695418304820457E9, 0.0, 2023-09-22 16:31:44.820
110.0, 23976.984498141348, 15887.485848365528, -35277.64651508886, -63703.65634008126, -187500.02235174447, 3427.8411779214357, -187500.02235174447, -187500.02235174447, -44222.88170133611, 9900.593447755988, -55448.93359529181, -69364.48149257679, -9502.955913896074, -34797.2628232554, -6875.061318285623, 10726.937440268688, -0.038, 0.966, 0.304, 192.0, 0.0, 0.0, 0.0, 0.0, 0.0, 0.0, 0.0, 0.0, 0.0, 1.695418304820462E9, 0.0, 2023-09-22 16:31:44.820
112.0, 23982.550082510723, 15896.068918236366, -35274.62902958739, -63696.45907836665, -187500.02235174447, 3393.128918782344, -187500.02235174447, -187500.02235174447, -44222.904053080565, 9891.451584273766, -55431.901566016866, -69367.45427458934, -9505.191088341606, -34792.79247436434, -6890.260504515231, 10712.542916839471, -0.036000000000000004, 0.97, 0.308, 192.0, 127.0, 112.0, 15.0, 40.0, 4.5, 80.0, 0.0, 0.0, 0.0, 1.695418304820467E9, 0.0, 2023-09-22 16:31:44.820
114.0, 23972.067114361183, 15879.640386061716, -35281.96040176874, -63713.66992159724, -187500.02235174447, 3435.6195849918827, -187500.02235174447, -187500.02235174447, -44223.50755018086, 9894.022034886126, -55449.11240924745, -69373.55630082564, -9500.07253886134, -34782.35420970371, -6873.139068262466, 10716.186251185687, -0.036000000000000004, 0.97, 0.308, 192.0, 0.0, 0.0, 0.0, 0.0, 0.0, 0.0, 0.0, 0.0, 0.0, 1.695418304820472E9, 0.0, 2023-09-22 16:31:44.820
116.0, 23957.98551535434, 15869.246824889999, -35301.20525374475, -63726.18689849221, -187500.02235174447, 3415.905346382302, -187500.02235174447, -187500.02235174447, -44232.04591656279, 9880.499229490666, -55411.606182051444, -69384.28513816418, -9512.589515756312, -34804.37067799219, -6892.965065594324, 10724.098768722864, -0.036000000000000004, 0.97, 0.308, 192.0, 0.0, 0.0, 0.0, 0.0, 0.0, 0.0, 0.0, 0.0, 0.0, 1.695418304820477E9, 0.0, 2023-09-22 16:31:44.820
118.0, 23959.013695599282, 15871.90668248018, -35296.1314077534, -63721.02364552303, -187500.02235174447, 3438.413553048796, -187500.02235174447, -187500.02235174447, -44243.735878912914, 9873.413726498333, -55423.11733044593, -69392.89055977948, -9517.283382091926, -34820.55334097783, -6893.0097690832345, 10723.40586464475, -0.036000000000000004, 0.97, 0.308, 192.0, 0.0, 0.0, 0.0, 0.0, 0.0, 0.0, 0.0, 0.0, 0.0, 1.695418304820482E9, 0.0, 2023-09-22 16:31:44.820
120.0, 23961.405332256, 15873.694822036603, -35306.122637524924, -63718.296732699484, -187500.02235174447, 3413.0443230920228, -187500.02235174447, -187500.02235174447, -44243.400602746085, 9874.397203254366, -55394.66355975432, -69392.75644931274, -9522.781911227932, -34808.59515769424, -6907.136071578989, 10721.058931476944, -0.036000000000000004, 0.97, 0.308, 192.0, 0.0, 0.0, 0.0, 0.0, 0.0, 0.0, 0.0, 0.0, 0.0, 1.695418304880735E9, 0.0, 2023-09-22 16:31:44.880
122.0, 23969.541367237733, 15884.624825075249, -35284.64261110337, -63707.27732268302, -187500.02235174447, 3437.474779781673, -187500.02235174447, -187500.02235174447, -44240.383117244615, 9884.790764426085, -55421.66446705633, -69380.61945207352, -9515.204669857583, -34798.38041047817, -6895.960199351335, 10705.300951635953, -0.036000000000000004, 0.964, 0.31, 192.0, 127.0, 112.0, 15.0, 16.0, 4.5, 88.0, 0.0, 0.0, 0.0, 1.695418304880748E9, 0.0, 2023-09-22 16:31:44.880
124.0, 23983.93589066695, 15900.76278457198, -35282.98858201368, -63693.910979498745, -187500.02235174447, 3417.7158376831817, -187500.02235174447, -187500.02235174447, -44232.87293110764, 9896.90540992086, -55372.98236763268, -69366.56020481113, -9512.902440178686, -34785.77402660537, -6896.943676107368, 10735.766379328536, -0.036000000000000004, 0.964, 0.31, 192.0, 0.0, 0.0, 0.0, 0.0, 0.0, 0.0, 0.0, 0.0, 0.0, 1.695418304880753E9, 0.0, 2023-09-22 16:31:44.880
126.0, 23970.726009693863, 15883.484886108028, -35280.99927675715, -63708.0372819945, -187500.02235174447, 3429.7634279445924, -187500.02235174447, -187500.02235174447, -44229.87779735062, 9904.639113502397, -55420.45747285575, -69363.3192018651, -9509.661437232666, -34788.791512106836, -6888.092385303067, 10695.77910849799, -0.036000000000000004, 0.964, 0.31, 192.0, 0.0, 0.0, 0.0, 0.0, 0.0, 0.0, 0.0, 0.0, 0.0, 1.695418304880758E9, 0.0, 2023-09-22 16:31:44.880
128.0, 23952.799910640708, 15867.123409166743, -35310.57063467153, -63724.666979869246, -187500.02235174447, 3446.929567686268, -187500.02235174447, -187500.02235174447, -44255.984634874425, 9877.414688755833, -55356.15150405783, -69393.73992606878, -9533.019010188462, -34791.42901795256, -6900.408196497941, 10744.863539321845, -0.036000000000000004, 0.964, 0.31, 192.0, 0.0, 0.0, 0.0, 0.0, 0.0, 0.0, 0.0, 0.0, 0.0, 1.695418304880763E9, 0.0, 2023-09-22 16:31:44.880
130.0, 23962.098236334114, 15880.24388316201, -35280.79811105706, -63710.473622140125, -187500.02235174447, 3449.768239232092, -187500.02235174447, -187500.02235174447, -44247.55802721477, 9881.058023102049, -55370.858951909424, -69384.75452479774, -9526.000562429495, -34808.68456467206, -6894.88731561748, 10722.176518699709, -0.036000000000000004, 0.964, 0.31, 192.0, 0.0, 0.0, 0.0, 0.0, 0.0, 0.0, 0.0, 0.0, 0.0, 1.695418304880767E9, 0.0, 2023-09-22 16:31:44.880
132.0, 23967.01562011428, 15884.580121586338, -35300.601756644464, -63711.121822729336, -187500.02235174447, 3443.7779717180697, -187500.02235174447, -187500.02235174447, -44250.48610573842, 9884.544895237077, -55320.14284374033, -69388.3755073995, -9530.672077020656, -34803.85658786972, -6892.920362105413, 10762.02967906352, -0.034, 0.962, 0.306, 192.0, 127.0, 120.0, 15.0, 8.0, 4.5, 72.0, 0.0, 0.0, 0.0, 1.695418304880772E9, 0.0, 2023-09-22 16:31:44.880
134.0, 23958.678419432454, 15874.454781348084, -35280.954573268245, -63712.12765122982, -187500.02235174447, 3444.672041496282, -187500.02235174447, -187500.02235174447, -44234.95164334198, 9897.464203532243, -55368.981405375176, -69368.5718618121, -9516.858698947275, -34813.84781764124, -6887.622998669505, 10708.698416793159, -0.034, 0.962, 0.306, 192.0, 0.0, 0.0, 0.0, 0.0, 0.0, 0.0, 0.0, 0.0, 0.0, 1.695418304940107E9, 0.0, 2023-09-22 16:31:44.940
136.0, 23968.759056181796, 15883.306072152385, -35281.513366879626, -63701.041185979986, -187500.02235174447, 3443.9120821848014, -187500.02235174447, -187500.02235174447, -44247.312158025765, 9884.276674303614, -55309.7045790797, -69385.93916725388, -9521.686675749621, -34810.740925161954, -6886.214838768821, 10764.734240142614, -0.034, 0.962, 0.306, 192.0, 0.0, 0.0, 0.0, 0.0, 0.0, 0.0, 0.0, 0.0, 0.0, 1.695418304940126E9, 0.0, 2023-09-22 16:31:44.940
138.0, 23953.805739141197, 15866.56461555536, -35279.009971500636, -63714.407529164266, -187500.02235174447, 3416.4417882492294, -187500.02235174447, -187500.02235174447, -44230.458942706464, 9891.183363340302, -55366.29919604054, -69370.29294613516, -9504.229963330026, -34822.25207355643, -6874.949559563346, 10698.371910854807, -0.034, 0.962, 0.306, 192.0, 0.0, 0.0, 0.0, 0.0, 0.0, 0.0, 0.0, 0.0, 0.0, 1.695418304940132E9, 0.0, 2023-09-22 16:31:44.940
140.0, 23958.253736287803, 15871.303185379886, -35298.433637432296, -63716.50859314306, -187500.02235174447, 3440.089933882944, -187500.02235174447, -187500.02235174447, -44252.22954180593, 9863.690717660274, -55317.88531755035, -69396.15391446995, -9521.731379238532, -34814.63012869717, -6887.712405647327, 10750.473827180127, -0.034, 0.962, 0.306, 192.0, 0.0, 0.0, 0.0, 0.0, 0.0, 0.0, 0.0, 0.0, 0.0, 1.695418304940137E9, 0.0, 2023-09-22 16:31:44.940
142.0, 23954.051608330206, 15869.157417912176, -35292.979811785204, -63720.77777633403, -187500.02235174447, 3424.9354511422457, -187500.02235174447, -187500.02235174447, -44244.74170741341, 9881.929741135806, -55343.880396351866, -69382.00526022974, -9520.054998404385, -34814.160742063614, -6890.171097537411, 10706.239724903075, -0.032, 0.966, 0.306, 192.0, 127.5, 0.0, 15.0, 24.0, 4.5, 72.0, 0.0, 0.0, 0.0, 1.695418304940143E9, 0.0, 2023-09-22 16:31:44.940
144.0, 23970.07780910466, 15883.32842389684, -35296.690201364785, -63710.29480818449, -187500.02235174447, 3443.3979920623296, -187500.02235174447, -187500.02235174447, -44249.43557374902, 9876.699432933263, -55297.9028580073, -69388.80019054415, -9523.899498450697, -34788.8138638513, -6892.026292327201, 10760.241539507097, -0.032, 0.966, 0.306, 192.0, 0.0, 0.0, 0.0, 0.0, 0.0, 0.0, 0.0, 0.0, 0.0, 1.695418304940148E9, 0.0, 2023-09-22 16:31:44.940
146.0, 23977.386829541545, 15891.106830967288, -35286.56486112653, -63702.784622047504, -187500.02235174447, 3422.499110996617, -187500.02235174447, -187500.02235174447, -44238.72908815493, 9899.229991344213, -55318.287648950536, -69380.03830671767, -9515.495242535502, -34800.392067479144, -6901.257562787243, 10715.091015707376, -0.032, 0.966, 0.306, 192.0, 0.0, 0.0, 0.0, 0.0, 0.0, 0.0, 0.0, 0.0, 0.0, 1.695418304940154E9, 0.0, 2023-09-22 16:31:44.940
148.0, 23986.036954645748, 15901.947427028112, -35290.63287861739, -63699.565970845935, -187500.02235174447, 3438.5700152599834, -187500.02235174447, -187500.02235174447, -44225.11687578164, 9920.888831721406, -55311.93975352523, -69364.5708995546, -9495.825707414831, -34780.56607014729, -6885.36547247952, 10736.325172939918, -0.032, 0.966, 0.306, 192.0, 0.0, 0.0, 0.0, 0.0, 0.0, 0.0, 0.0, 0.0, 0.0, 1.695418304940159E9, 0.0, 2023-09-22 16:31:44.940
150.0, 23955.5044717198, 15867.61514754476, -35313.47636145072, -63733.47356718464, -187500.02235174447, 3414.050151592511, -187500.02235174447, -187500.02235174447, -44245.211094046965, 9898.15710761036, -55310.77746281355, -69384.06162071963, -9521.88784144972, -34793.753599375916, -6913.685132704393, 10706.485594092082, -0.032, 0.966, 0.306, 192.0, 0.0, 0.0, 0.0, 0.0, 0.0, 0.0, 0.0, 0.0, 0.0, 1.695418304999928E9, 0.0, 2023-09-22 16:31:44.999
152.0, 23964.020486357273, 15877.785191271925, -35312.761105628146, -63726.85745082587, -187500.02235174447, 3439.799361205025, -187500.02235174447, -187500.02235174447, -44259.538562242815, 9865.14358104987, -55291.82318351546, -69405.40753667445, -9533.868376477763, -34826.051870113835, -6916.523804250218, 10735.967545028632, -0.032, 0.962, 0.304, 192.0, 127.5, 0.0, 15.0, 8.0, 4.5, 64.0, 0.0, 0.0, 0.0, 1.695418304999943E9, 0.0, 2023-09-22 16:31:44.999
154.0, 23953.336352507635, 15864.374144598742, -35315.66683240734, -63735.23935499661, -187500.02235174447, 3405.265916021576, -187500.02235174447, -187500.02235174447, -44253.9953296179, 9876.162991066336, -55301.300323164505, -69394.38812665798, -9533.890728222219, -34821.648576456144, -6921.999981641768, 10695.488535820072, -0.032, 0.962, 0.304, 192.0, 0.0, 0.0, 0.0, 0.0, 0.0, 0.0, 0.0, 0.0, 0.0, 1.695418304999949E9, 0.0, 2023-09-22 16:31:44.999
156.0, 23950.676494917454, 15863.94946145409, -35308.04488754808, -63732.355979961874, -187500.02235174447, 3443.1297711288657, -187500.02235174447, -187500.02235174447, -44262.399585533094, 9863.847179871462, -55302.350855153905, -69406.14514424147, -9538.852815491296, -34845.497887789956, -6907.493699490274, 10711.000646472055, -0.032, 0.962, 0.304, 192.0, 0.0, 0.0, 0.0, 0.0, 0.0, 0.0, 0.0, 0.0, 0.0, 1.695418304999954E9, 0.0, 2023-09-22 16:31:44.999
158.0, 23955.392712997524, 15871.459647591073, -35293.65036411886, -63720.040168767, -187500.02235174447, 3412.440825991729, -187500.02235174447, -187500.02235174447, -44251.51428598336, 9887.71884294973, -55290.70559629269, -69382.42994337439, -9530.806187487387, -34823.48141950148, -6903.3362750215865, 10693.275713118997, -0.032, 0.962, 0.304, 192.0, 0.0, 0.0, 0.0, 0.0, 0.0, 0.0, 0.0, 0.0, 0.0, 1.69541830499996E9, 0.0, 2023-09-22 16:31:44.999
160.0, 23943.389826225022, 15856.595737528294, -35304.55801541305, -63735.932259074725, -187500.02235174447, 3454.2162363786983, -187500.02235174447, -187500.02235174447, -44260.030300620834, 9880.409822512845, -55298.12637545185, -69395.43865864738, -9529.442731075613, -34836.13250686318, -6888.517068447718, 10708.139623181776, -0.032, 0.962, 0.304, 192.0, 0.0, 0.0, 0.0, 0.0, 0.0, 0.0, 0.0, 0.0, 0.0, 1.695418304999965E9, 0.0, 2023-09-22 16:31:44.999
162.0, 23952.17406179596, 15869.716211523559, -35302.52400666762, -63724.75638684707, -187500.02235174447, 3425.002506375612, -187500.02235174447, -187500.02235174447, -44266.62406523515, 9872.67611893131, -55254.00403189708, -69402.59121687309, -9548.687583051633, -34843.06154764433, -6906.934905878891, 10723.830547789401, -0.032, 0.9580000000000001, 0.308, 192.0, 127.5, 0.0, 14.5, 120.0, 4.5, 80.0, 0.0, 0.0, 0.0, 1.695418304999975E9, 0.0, 2023-09-22 16:31:44.999
164.0, 23963.908727634996, 15883.015499474466, -35287.32482043801, -63712.26176169655, -187500.02235174447, 3445.1414281298435, -187500.02235174447, -187500.02235174447, -44258.063347108764, 9899.520564022132, -55288.82804975844, -69388.42021088842, -9528.97334444205, -34817.22293105399, -6881.185696266377, 10711.894716250268, -0.032, 0.9580000000000001, 0.308, 192.0, 0.0, 0.0, 0.0, 0.0, 0.0, 0.0, 0.0, 0.0, 0.0, 1.695418305060142E9, 0.0, 2023-09-22 16:31:45.060
166.0, 23975.486931262843, 15890.838610033825, -35281.826291302, -63702.650511580774, -187500.02235174447, 3389.5079361805842, -187500.02235174447, -187500.02235174447, -44240.51722771135, 9915.055026418571, -55277.27219787505, -69371.58934731357, -9518.93741118162, -34815.278329286375, -6882.973835822801, 10702.372873112306, -0.032, 0.9580000000000001, 0.308, 192.0, 0.0, 0.0, 0.0, 0.0, 0.0, 0.0, 0.0, 0.0, 0.0, 1.695418305060159E9, 0.0, 2023-09-22 16:31:45.060
168.0, 23948.530727449743, 15858.540339295905, -35309.43069570431, -63736.26753524155, -187500.02235174447, 3418.542852228028, -187500.02235174447, -187500.02235174447, -44257.77277443085, 9891.540991251588, -55322.400369930314, -69387.28027192119, -9521.351399582793, -34828.37645153719, -6878.637597398472, 10679.73055597908, -0.032, 0.9580000000000001, 0.308, 192.0, 0.0, 0.0, 0.0, 0.0, 0.0, 0.0, 0.0, 0.0, 0.0, 1.695418305060163E9, 0.0, 2023-09-22 16:31:45.060
170.0, 23955.571526953165, 15866.18463589962, -35318.349041741974, -63729.0926252714, -187500.02235174447, 3399.454462463196, -187500.02235174447, -187500.02235174447, -44263.49482101141, 9882.399127769368, -55262.564750023455, -69398.9255307824, -9537.824635246354, -34835.88663767417, -6917.551984495161, 10713.504041851049, -0.032, 0.9580000000000001, 0.308, 192.0, 0.0, 0.0, 0.0, 0.0, 0.0, 0.0, 0.0, 0.0, 0.0, 1.695418305060168E9, 0.0, 2023-09-22 16:31:45.060
172.0, 23946.943753593416, 15853.690010749104, -35311.66587014984, -63741.63195391083, -187500.02235174447, 3405.9141166107797, -187500.02235174447, -187500.02235174447, -44262.623102977646, 9883.874342903417, -55302.37320689836, -69404.49111515179, -9527.922812452653, -34843.30741683333, -6904.632676199994, 10683.932683936679, -0.034, 0.962, 0.306, 192.0, 127.0, 120.0, 15.0, 8.0, 4.5, 72.0, 0.0, 0.0, 0.0, 1.695418305060173E9, 0.0, 2023-09-22 16:31:45.060
174.0, 23952.956372851895, 15864.061220176367, -35316.35973648545, -63736.11107303036, -187500.02235174447, 3379.7625755980703, -187500.02235174447, -187500.02235174447, -44259.51621049836, 9874.777182910108, -55267.41507857026, -69411.62132163302, -9525.441768818113, -34841.362815065724, -6914.668609460427, 10702.618742301314, -0.034, 0.962, 0.306, 192.0, 0.0, 0.0, 0.0, 0.0, 0.0, 0.0, 0.0, 0.0, 0.0, 1.695418305060179E9, 0.0, 2023-09-22 16:31:45.060
176.0, 23943.59099192512, 15857.400400328685, -35315.82329461852, -63749.767988892556, -187500.02235174447, 3381.8859913213246, -187500.02235174447, -187500.02235174447, -44260.05265236529, 9879.560456223542, -55325.17198624277, -69410.34727219907, -9522.848966461297, -34852.98572218248, -6905.906725633947, 10653.936642877656, -0.034, 0.962, 0.306, 192.0, 0.0, 0.0, 0.0, 0.0, 0.0, 0.0, 0.0, 0.0, 0.0, 1.695418305060184E9, 0.0, 2023-09-22 16:31:45.060
178.0, 23942.205183768892, 15856.908661950669, -35324.40636448936, -63752.67371567175, -187500.02235174447, 3373.8617150618693, -187500.02235174447, -187500.02235174447, -44269.86506818117, 9884.611950470442, -55288.13514568033, -69411.62132163302, -9533.93543171113, -34844.82733545629, -6915.629734472005, 10684.670291503704, -0.034, 0.962, 0.306, 192.0, 0.0, 0.0, 0.0, 0.0, 0.0, 0.0, 0.0, 0.0, 0.0, 1.69541830506019E9, 0.0, 2023-09-22 16:31:45.060
180.0, 23938.74066337832, 15853.33238283782, -35304.155684012854, -63747.71162840267, -187500.02235174447, 3396.5710874284614, -187500.02235174447, -187500.02235174447, -44276.01179790638, 9876.05123234406, -55316.0077710161, -69410.28021696571, -9537.891690479719, -34860.40650134164, -6912.276972803709, 10658.58580572436, -0.034, 0.962, 0.306, 192.0, 0.0, 0.0, 0.0, 0.0, 0.0, 0.0, 0.0, 0.0, 0.0, 1.695418305120486E9, 0.0, 2023-09-22 16:31:45.120
182.0, 23953.44811122991, 15865.536435310416, -35308.96130907074, -63735.932259074725, -187500.02235174447, 3401.220250275165, -187500.02235174447, -187500.02235174447, -44271.072062381754, 9881.10272659096, -55257.06622088745, -69406.39101343049, -9532.951954955097, -34850.54938203685, -6907.069016345623, 10714.129890695798, -0.036000000000000004, 0.964, 0.306, 192.0, 127.0, 112.0, 15.0, 16.0, 4.5, 72.0, 0.0, 0.0, 0.0, 1.695418305120499E9, 0.0, 2023-09-22 16:31:45.120
184.0, 23961.047704344717, 15870.677336535138, -35290.677582106306, -63724.28700021351, -187500.02235174447, 3379.4272994312405, -187500.02235174447, -187500.02235174447, -44253.63770170662, 9889.283465061602, -55304.49662262161, -69392.89055977948, -9525.195899629105, -34859.19950714106, -6901.79400465417, 10664.10668660482, -0.036000000000000004, 0.964, 0.306, 192.0, 0.0, 0.0, 0.0, 0.0, 0.0, 0.0, 0.0, 0.0, 0.0, 1.695418305120504E9, 0.0, 2023-09-22 16:31:45.120
186.0, 23962.94760262342, 15870.878502235235, -35303.19455900128, -63723.39293043529, -187500.02235174447, 3398.426282218252, -187500.02235174447, -187500.02235174447, -44252.207190061476, 9897.419500043334, -55277.115735663865, -69387.16851319892, -9521.97724842754, -34829.15876259312, -6889.321731248108, 10701.277637633997, -0.036000000000000004, 0.964, 0.306, 192.0, 0.0, 0.0, 0.0, 0.0, 0.0, 0.0, 0.0, 0.0, 0.0, 1.695418305120509E9, 0.0, 2023-09-22 16:31:45.120
188.0, 23960.69007643343, 15870.833798746324, -35288.86709080543, -63716.2403722096, -187500.02235174447, 3399.745035141115, -187500.02235174447, -187500.02235174447, -44254.777640673834, 9893.95497965276, -55297.098195206905, -69382.94403349687, -9524.748864739999, -34830.56692249381, -6888.517068447718, 10669.180532596176, -0.036000000000000004, 0.964, 0.306, 192.0, 0.0, 0.0, 0.0, 0.0, 0.0, 0.0, 0.0, 0.0, 0.0, 1.695418305120514E9, 0.0, 2023-09-22 16:31:45.120
190.0, 23962.36645726758, 15875.326499381841, -35297.092532764975, -63713.9381425307, -187500.02235174447, 3428.958765144201, -187500.02235174447, -187500.02235174447, -44261.55021924379, 9893.10561336346, -55255.61335749786, -69386.38620214298, -9527.922812452653, -34818.295814787845, -6885.767803879715, 10724.523451867515, -0.036000000000000004, 0.964, 0.306, 192.0, 0.0, 0.0, 0.0, 0.0, 0.0, 0.0, 0.0, 0.0, 0.0, 1.695418305120519E9, 0.0, 2023-09-22 16:31:45.120
192.0, 23963.841672401628, 15879.52862733944, -35282.45214014675, -63704.885686026304, -187500.02235174447, 3406.0258753330563, -187500.02235174447, -187500.02235174447, -44252.43070750603, 9907.455433303767, -55273.897084462296, -69376.7749520272, -9523.854794961786, -34811.63499494016, -6886.907742846935, 10687.576018282893, -0.032, 0.96, 0.308, 192.0, 127.5, 0.0, 15.0, 0.0, 4.5, 80.0, 0.0, 0.0, 0.0, 1.695418305120524E9, 0.0, 2023-09-22 16:31:45.120
194.0, 23969.004925370806, 15886.122391953755, -35287.79420707157, -63699.45421212366, -187500.02235174447, 3427.5953087324274, -187500.02235174447, -187500.02235174447, -44256.02933836333, 9912.10459615047, -55250.07012487294, -69380.26182416223, -9514.757634968477, -34803.58836693625, -6873.429640940385, 10728.323248424918, -0.032, 0.96, 0.308, 192.0, 0.0, 0.0, 0.0, 0.0, 0.0, 0.0, 0.0, 0.0, 0.0, 1.695418305180749E9, 0.0, 2023-09-22 16:31:45.180
196.0, 23954.766864152774, 15871.996089458, -35291.97398328471, -63712.70879658566, -187500.02235174447, 3387.093947779411, -187500.02235174447, -187500.02235174447, -44239.980785844426, 9917.558421797565, -55279.26150313157, -69373.33278338108, -9510.175527355139, -34808.48339897196, -6885.79015562417, 10679.64114900126, -0.032, 0.96, 0.308, 192.0, 0.0, 0.0, 0.0, 0.0, 0.0, 0.0, 0.0, 0.0, 0.0, 1.695418305180762E9, 0.0, 2023-09-22 16:31:45.180
198.0, 23950.385922239533, 15867.458685333573, -35307.82137010353, -63723.52704090203, -187500.02235174447, 3416.419436504774, -187500.02235174447, -187500.02235174447, -44258.085698853225, 9902.62745650142, -55269.38203208233, -69392.55528361264, -9518.356265825782, -34820.06160259982, -6892.808603383137, 10709.592486571371, -0.032, 0.96, 0.308, 192.0, 0.0, 0.0, 0.0, 0.0, 0.0, 0.0, 0.0, 0.0, 0.0, 1.695418305180765E9, 0.0, 2023-09-22 16:31:45.180
200.0, 23938.62890465604, 15855.969888683545, -35313.61047191745, -63735.66403814126, -187500.02235174447, 3394.3135612384754, -187500.02235174447, -187500.02235174447, -44258.13040234213, 9897.419500043334, -55271.34898559439, -69395.0810307361, -9530.627373531745, -34826.27538755839, -6907.2701820457205, 10679.529390278984, -0.032, 0.96, 0.308, 192.0, 0.0, 0.0, 0.0, 0.0, 0.0, 0.0, 0.0, 0.0, 0.0, 1.695418305180768E9, 0.0, 2023-09-22 16:31:45.180
202.0, 23948.12839604955, 15865.42467658814, -35303.70864912375, -63728.310314215465, -187500.02235174447, 3420.8227301624693, -187500.02235174447, -187500.02235174447, -44256.543428485806, 9900.19111635579, -55254.808694697465, -69395.79628655867, -9525.26295486247, -34825.82835266928, -6884.963141079324, 10713.88402150679, -0.028, 0.96, 0.306, 192.0, 127.5, 16.0, 15.0, 0.0, 4.5, 72.0, 0.0, 0.0, 0.0, 1.695418305180772E9, 0.0, 2023-09-22 16:31:45.180
204.0, 23943.54628843621, 15859.546167796394, -35302.79222760108, -63732.84771833989, -187500.02235174447, 3396.325218239453, -187500.02235174447, -187500.02235174447, -44244.49583822439, 9912.4398723173, -55243.1857875807, -69390.58833010058, -9527.162853141172, -34835.350195807245, -6895.803737140148, 10693.298064863451, -0.028, 0.96, 0.306, 192.0, 0.0, 0.0, 0.0, 0.0, 0.0, 0.0, 0.0, 0.0, 0.0, 1.695418305180775E9, 0.0, 2023-09-22 16:31:45.180
206.0, 23939.567677923165, 15848.750275224482, -35308.51427418164, -63744.56003243447, -187500.02235174447, 3435.798398947525, -187500.02235174447, -187500.02235174447, -44246.37338475864, 9905.890811191895, -55233.66394444275, -69394.70105108035, -9526.201728129594, -34835.640768485166, -6877.497658431252, 10718.957867498144, -0.028, 0.96, 0.306, 192.0, 0.0, 0.0, 0.0, 0.0, 0.0, 0.0, 0.0, 0.0, 0.0, 1.695418305180778E9, 0.0, 2023-09-22 16:31:45.180
208.0, 23961.49473923382, 15877.38285987173, -35291.862224562436, -63715.88274429831, -187500.02235174447, 3399.8791456078466, -187500.02235174447, -187500.02235174447, -44234.41520147505, 9921.000590443682, -55209.8816883423, -69381.51352185172, -9528.682771764132, -34837.80888769733, -6890.416966726419, 10708.810175515435, -0.028, 0.96, 0.306, 192.0, 0.0, 0.0, 0.0, 0.0, 0.0, 0.0, 0.0, 0.0, 0.0, 1.695418305180781E9, 0.0, 2023-09-22 16:31:45.180
210.0, 23968.244966059327, 15884.110734952777, -35283.99441051417, -63709.780718062015, -187500.02235174447, 3417.224099305165, -187500.02235174447, -187500.02235174447, -44215.4832739214, 9952.315384425567, -55243.72222944764, -69358.0665419181, -9511.002541899985, -34819.45810549952, -6857.6716610993935, 10700.629437044792, -0.028, 0.96, 0.306, 192.0, 0.0, 0.0, 0.0, 0.0, 0.0, 0.0, 0.0, 0.0, 0.0, 1.695418305240074E9, 0.0, 2023-09-22 16:31:45.240
212.0, 23975.196358584926, 15896.359490914285, -35289.80586407255, -63698.64954932327, -187500.02235174447, 3376.4098139297744, -187500.02235174447, -187500.02235174447, -44211.39290468609, 9954.25998619318, -55234.26744154304, -69351.42807381488, -9517.909230936675, -34811.07620132878, -6876.894161330958, 10688.827715972391, -0.03, 0.9560000000000001, 0.314, 192.0, 127.5, 8.0, 14.5, 112.0, 4.5, 104.0, 0.0, 0.0, 0.0, 1.695418305240084E9, 0.0, 2023-09-22 16:31:45.240
214.0, 23952.531689707244, 15872.443124347106, -35300.95938455575, -63719.637837366805, -187500.02235174447, 3422.163834829788, -187500.02235174447, -187500.02235174447, -44219.417180945544, 9964.92176829836, -55274.43352632922, -69357.68656226237, -9516.143443124705, -34801.95668959102, -6866.187675736866, 10675.260207088018, -0.03, 0.9560000000000001, 0.314, 192.0, 0.0, 0.0, 0.0, 0.0, 0.0, 0.0, 0.0, 0.0, 0.0, 1.695418305240088E9, 0.0, 2023-09-22 16:31:45.240
216.0, 23952.576393196156, 15870.610281301771, -35315.2868527516, -63720.10722400036, -187500.02235174447, 3417.6264307053607, -187500.02235174447, -187500.02235174447, -44236.22569277593, 9940.379552886434, -55211.11103428734, -69374.4280188594, -9543.79255101592, -34804.14716054763, -6897.323655763109, 10717.192079686176, -0.03, 0.9560000000000001, 0.314, 192.0, 0.0, 0.0, 0.0, 0.0, 0.0, 0.0, 0.0, 0.0, 0.0, 1.695418305240091E9, 0.0, 2023-09-22 16:31:45.240
218.0, 23949.447148972413, 15868.106885922776, -35310.861207349444, -63729.60671539387, -187500.02235174447, 3435.284308825053, -187500.02235174447, -187500.02235174447, -44230.05661130627, 9949.767285557662, -55237.687258444705, -69369.51063507922, -9534.561280555878, -34814.67483218609, -6884.65021665695, 10705.032730702487, -0.03, 0.9560000000000001, 0.314, 192.0, 0.0, 0.0, 0.0, 0.0, 0.0, 0.0, 0.0, 0.0, 0.0, 1.695418305240095E9, 0.0, 2023-09-22 16:31:45.240
220.0, 23962.88054739005, 15885.742412298014, -35312.202312016765, -63718.11791874385, -187500.02235174447, 3408.6633811787824, -187500.02235174447, -187500.02235174447, -44230.391887473095, 9953.522378626154, -55191.79912707795, -69372.7739897697, -9541.199748659104, -34816.686489187065, -6895.535516206684, 10732.190100215686, -0.03, 0.9560000000000001, 0.314, 192.0, 0.0, 0.0, 0.0, 0.0, 0.0, 0.0, 0.0, 0.0, 0.0, 1.695418305240098E9, 0.0, 2023-09-22 16:31:45.240
222.0, 23949.201279783403, 15872.152551669187, -35308.67073639283, -63731.3948549503, -187500.02235174447, 3423.7284569416593, -187500.02235174447, -187500.02235174447, -44227.866140349644, 9961.434896163333, -55238.670735200736, -69370.51646357971, -9528.615716530767, -34815.65830894212, -6880.246922999254, 10699.109518421832, -0.032, 0.9580000000000001, 0.312, 192.0, 127.5, 0.0, 14.5, 120.0, 4.5, 96.0, 0.0, 0.0, 0.0, 1.695418305240102E9, 0.0, 2023-09-22 16:31:45.240
224.0, 23957.382018254044, 15881.13795294022, -35313.20814051726, -63723.817613579944, -187500.02235174447, 3405.221212532665, -187500.02235174447, -187500.02235174447, -44224.33456472571, 9969.839152078528, -55195.35305444635, -69368.19188215636, -9530.359152598281, -34803.00722158042, -6886.773632380204, 10731.921879282223, -0.032, 0.9580000000000001, 0.312, 192.0, 0.0, 0.0, 0.0, 0.0, 0.0, 0.0, 0.0, 0.0, 0.0, 1.695418305301112E9, 0.0, 2023-09-22 16:31:45.301
226.0, 23956.957335109393, 15878.232226161032, -35298.2324717322, -63723.616447879846, -187500.02235174447, 3399.901497352302, -187500.02235174447, -187500.02235174447, -44227.21793976044, 9961.010213018682, -55240.615336968345, -69367.87895773399, -9526.537004296422, -34831.1704195941, -6877.318844475609, 10694.907390464234, -0.032, 0.9580000000000001, 0.312, 192.0, 0.0, 0.0, 0.0, 0.0, 0.0, 0.0, 0.0, 0.0, 0.0, 1.695418305301125E9, 0.0, 2023-09-22 16:31:45.301
228.0, 23962.2546985453, 15882.52376109645, -35306.77083811413, -63722.45415716818, -187500.02235174447, 3376.543924396506, -187500.02235174447, -187500.02235174447, -44221.67470713553, 9964.787657831628, -55214.10616804435, -69365.77789375519, -9515.763463468966, -34822.766163678905, -6870.479210672285, 10723.830547789401, -0.032, 0.9580000000000001, 0.312, 192.0, 0.0, 0.0, 0.0, 0.0, 0.0, 0.0, 0.0, 0.0, 0.0, 1.695418305301129E9, 0.0, 2023-09-22 16:31:45.301
230.0, 23940.26058200128, 15857.243938117497, -35319.958367342755, -63751.176148793245, -187500.02235174447, 3388.8820873358354, -187500.02235174447, -187500.02235174447, -44231.82239911824, 9960.049088007103, -55257.55795926547, -69379.50186485075, -9526.492300807513, -34829.11405910421, -6883.97966432329, 10682.30100659144, -0.032, 0.9580000000000001, 0.312, 192.0, 0.0, 0.0, 0.0, 0.0, 0.0, 0.0, 0.0, 0.0, 0.0, 1.695418305301133E9, 0.0, 2023-09-22 16:31:45.301
232.0, 23948.5530791942, 15867.726906267037, -35327.60266394647, -63743.42009346725, -187500.02235174447, 3400.057959563489, -187500.02235174447, -187500.02235174447, -44243.691175424006, 9935.261003406167, -55197.2306009806, -69395.50571388075, -9543.189053915627, -34845.766108723416, -6900.207030797843, 10736.191062473186, -0.036000000000000004, 0.96, 0.316, 192.0, 127.0, 112.0, 15.0, 0.0, 4.5, 112.0, 0.0, 0.0, 0.0, 1.695418305301137E9, 0.0, 2023-09-22 16:31:45.301
234.0, 23944.574468681156, 15864.508255065473, -35313.49871319517, -63736.80397710848, -187500.02235174447, 3387.1610030127767, -187500.02235174447, -187500.02235174447, -44231.75534388487, 9952.136570469926, -55239.20717706766, -69377.69137354987, -9536.036495689928, -34847.442489557565, -6897.2342487852875, 10686.480782804583, -0.036000000000000004, 0.96, 0.316, 192.0, 0.0, 0.0, 0.0, 0.0, 0.0, 0.0, 0.0, 0.0, 0.0, 1.69541830530114E9, 0.0, 2023-09-22 16:31:45.301
236.0, 23959.39367525502, 15882.233188418531, -35321.70180341027, -63719.10139549988, -187500.02235174447, 3406.0482270775115, -187500.02235174447, -187500.02235174447, -44241.634814934114, 9951.443666391811, -55190.65918811074, -69382.78757128568, -9544.820731260865, -34824.95663463553, -6902.375150010008, 10741.041391019988, -0.036000000000000004, 0.96, 0.316, 192.0, 0.0, 0.0, 0.0, 0.0, 0.0, 0.0, 0.0, 0.0, 0.0, 1.695418305301143E9, 0.0, 2023-09-22 16:31:45.301
238.0, 23958.96899211037, 15882.322595396352, -35307.50844568115, -63715.860392553855, -187500.02235174447, 3385.9093053232796, -187500.02235174447, -187500.02235174447, -44221.07121003523, 9981.5067626842, -55229.573575207425, -69358.62533552949, -9529.018047930962, -34818.5193322324, -6888.092385303067, 10686.100803148844, -0.036000000000000004, 0.96, 0.316, 192.0, 0.0, 0.0, 0.0, 0.0, 0.0, 0.0, 0.0, 0.0, 0.0, 1.695418305301146E9, 0.0, 2023-09-22 16:31:45.301
240.0, 23967.909689892494, 15887.597607087804, -35313.07403005052, -63712.150002974275, -187500.02235174447, 3416.933526627246, -187500.02235174447, -187500.02235174447, -44233.63289041912, 9968.945082300315, -55192.73790034508, -69373.46689384781, -9535.991792201017, -34814.89834963064, -6882.370338722509, 10734.425274661216, -0.036000000000000004, 0.96, 0.316, 192.0, 0.0, 0.0, 0.0, 0.0, 0.0, 0.0, 0.0, 0.0, 0.0, 1.695418305361202E9, 0.0, 2023-09-22 16:31:45.361
242.0, 23965.048666602215, 15888.648139077204, -35297.89719556537, -63710.94300877369, -187500.02235174447, 3384.121165766855, -187500.02235174447, -187500.02235174447, -44217.65139313357, 9978.64573939392, -55224.6338396828, -69358.58063204058, -9522.536042038922, -34819.99454736645, -6887.645350413961, 10683.418593814205, -0.04, 0.966, 0.31, 192.0, 127.0, 96.0, 15.0, 24.0, 4.5, 88.0, 0.0, 0.0, 0.0, 1.695418305361215E9, 0.0, 2023-09-22 16:31:45.361
244.0, 23959.483082232844, 15888.066993721366, -35306.61437590294, -63715.234543709106, -187500.02235174447, 3418.542852228028, -187500.02235174447, -187500.02235174447, -44236.22569277593, 9975.136515514436, -55192.939066045175, -69373.06456244762, -9528.481606064035, -34809.93626236156, -6878.8611148430255, 10730.536071125993, -0.04, 0.966, 0.31, 192.0, 0.0, 0.0, 0.0, 0.0, 0.0, 0.0, 0.0, 0.0, 0.0, 1.695418305361219E9, 0.0, 2023-09-22 16:31:45.361
246.0, 23963.148768323514, 15889.743374555514, -35288.73298033869, -63707.85846803886, -187500.02235174447, 3379.4049476867854, -187500.02235174447, -187500.02235174447, -44220.42300944603, 9990.134536043946, -55208.808804608445, -69360.52523380819, -9524.83827171782, -34823.392012523655, -6880.515143932717, 10691.532277051483, -0.04, 0.966, 0.31, 192.0, 0.0, 0.0, 0.0, 0.0, 0.0, 0.0, 0.0, 0.0, 0.0, 1.695418305361222E9, 0.0, 2023-09-22 16:31:45.361
