%OpenBCI Raw EXG Data
%Number of channels = 16
%Sample Rate = 125 Hz
%Board = OpenBCI_GUI$BoardCytonSerialDaisy
Sample Index, EXG Channel 0, EXG Channel 1, EXG Channel 2, EXG Channel 3, EXG Channel 4, EXG Channel 5, EXG Channel 6, EXG Channel 7, EXG Channel 8, EXG Channel 9, EXG Channel 10, EXG Channel 11, EXG Channel 12, EXG Channel 13, EXG Channel 14, EXG Channel 15, Accel Channel 0, Accel Channel 1, Accel Channel 2, Other, Other, Other, Other, Other, Other, Other, Analog Channel 0, Analog Channel 1, Analog Channel 2, Timestamp, Other, Timestamp (Formatted)
0.0, 25565.14299692428, 14880.830333331864, -1004.2191748880357, -12250.991135953802, 10267.340870778666, -11758.604557347842, -187500.02235174447, 31346.220534589356, 0.0, 0.0, 0.0, 0.0, 0.0, 0.0, 0.0, 0.0, 0.0, 0.0, 0.0, 192.0, 0.0, 0.0, 0.0, 0.0, 0.0, 0.0, 0.0, 0.0, 0.0, 1.696023604290974E9, 0.0, 2023-09-29 16:40:04.290
224.0, 26053.90859292848, 15456.477160033843, -1125.0303536689703, -12362.705154741425, 10243.223338511389, -11865.624709799851, -187500.02235174447, 31731.810478187857, -26614.490343867583, 23034.344379227685, 1141.3694788658, -454.4333165208479, 14474.81089530121, -2185.9782559845753, -120495.46039050346, -15882.412002374174, 0.068, 0.5, -0.1, 192.0, 2.0, 32.0, 15.5, 32.0, 124.5, 96.0, 0.0, 0.0, 0.0, 1.696023604290983E9, 0.0, 2023-09-29 16:40:04.290
226.0, 25548.513299049533, 14864.424152901669, -1013.6069075592646, -12261.116476192055, 10238.909451831514, -11775.256606967045, -187500.02235174447, 31345.035892133226, -26649.51552742905, 22803.249693304264, 969.7751366824075, -641.584472845134, 14449.62047930008, -2214.1414539982625, -120456.79187259579, -15871.772572013448, 0.068, 0.5, -0.1, 192.0, 0.0, 0.0, 0.0, 0.0, 0.0, 0.0, 0.0, 0.0, 0.0, 1.696023604290987E9, 0.0, 2023-09-29 16:40:04.290
228.0, 26046.376055047043, 15441.456787759877, -1153.0147377270148, -12402.603018594149, 10238.64123089805, -11896.78304157055, -187500.02235174447, 31739.678292236127, -26628.974274274624, 22950.793558453748, 1111.1499203622247, -495.0687879405961, 14485.562084384213, -2196.8412037898547, -120457.39536969607, -15899.913418282678, 0.068, 0.5, -0.1, 192.0, 0.0, 0.0, 0.0, 0.0, 0.0, 0.0, 0.0, 0.0, 0.0, 1.696023604290991E9, 0.0, 2023-09-29 16:40:04.290
230.0, 25545.451110059155, 14869.810923315397, -993.758558482952, -12245.514958562251, 10225.207832480412, -11763.365478916821, -187500.02235174447, 31351.00380790279, -26673.543652718505, 22851.551813072183, 972.0997181057595, -626.1170656820615, 14432.18611862494, -2239.7118496551334, -120313.78541157073, -15898.281740937442, 0.068, 0.5, -0.1, 192.0, 0.0, 0.0, 0.0, 0.0, 0.0, 0.0, 0.0, 0.0, 0.0, 1.696023604290994E9, 0.0, 2023-09-29 16:40:04.290
232.0, 26019.732775656317, 15411.728967634317, -1136.4744468300876, -12390.287207399275, 10261.708231175928, -11883.64021583083, -187500.02235174447, 31723.003890872467, -26607.203675175155, 22900.47978168485, 1097.5153562444873, -520.9521080198417, 14496.022700789297, -2189.308665908416, -120446.71123584644, -15873.493656336506, 0.068, 0.5, -0.1, 192.0, 0.0, 0.0, 0.0, 0.0, 0.0, 0.0, 0.0, 0.0, 0.0, 1.696023604290998E9, 0.0, 2023-09-29 16:40:04.290
234.0, 25569.278069648513, 14900.052833563428, -993.1550613826587, -12242.229252127321, 10212.1097102296, -11760.951490515648, -187500.02235174447, 31371.857985479593, -26678.95277487669, 22916.573037692673, 1010.8352912468066, -583.358178539059, 14447.161787409996, -2233.6768786522007, -120199.76916310421, -15899.131107226744, 0.1, 0.749, -0.14800000000000002, 192.0, 2.0, 16.0, 15.5, 24.0, 124.5, 112.0, 0.0, 0.0, 0.0, 1.696023604291001E9, 0.0, 2023-09-29 16:40:04.291
236.0, 25986.406324673455, 15368.52304560221, -1130.8641589718056, -12387.940274231467, 10269.754859179839, -11871.078535446946, -187500.02235174447, 31696.36061148174, -26612.501038611063, 22849.71897002685, 1070.268579753468, -553.7868206246878, 14490.904151309032, -2168.0745086758743, -120414.74824127535, -15858.607394529272, 0.1, 0.749, -0.14800000000000002, 192.0, 0.0, 0.0, 0.0, 0.0, 0.0, 0.0, 0.0, 0.0, 0.0, 1.696023604291004E9, 0.0, 2023-09-29 16:40:04.291
238.0, 25609.98059630163, 14944.443398051668, -1028.560224599865, -12279.981348512334, 10180.124363914058, -11784.24200823808, -187500.02235174447, 31419.02016628029, -26692.050897127498, 22973.234709886874, 1031.309489167868, -550.6575764009448, 14407.465089257372, -2250.7089079271445, -120049.43132989781, -15923.963895316589, 0.1, 0.749, -0.14800000000000002, 192.0, 0.0, 0.0, 0.0, 0.0, 0.0, 0.0, 0.0, 0.0, 0.0, 1.696023604291008E9, 0.0, 2023-09-29 16:40:04.291
0.0, 13518.692674480997, 7059.552617019727, 5827.368000432015, -6062.10602070165, 5155.318099894297, -5593.568753429503, -93750.01117587223, 17010.638655500254, -13328.076997766138, 11466.534312550344, 556.4466782148693, -250.11602045488604, 7234.969107504977, -1110.5017197730208, -60101.02452051932, -7955.455238277345, 0.156, 0.99, -0.202, 192.0, 2.0, 112.0, 15.0, 120.0, 124.5, 88.0, 0.0, 0.0, 0.0, 1.696023604429459E9, 0.0, 2023-09-29 16:40:04.429
2.0, 27349.236887602437, 14471.882816777566, 11568.257101566447, -12227.70061823137, 10380.798325633803, -11251.354068679104, -187500.02235174447, 34287.330125252025, -26610.712899054637, 23041.139309542097, 1543.2761959166762, -795.8338613312079, 14491.932331553977, -1983.2032302860298, -118311.89612292006, -15427.106967819569, 0.156, 0.99, -0.202, 192.0, 0.0, 0.0, 0.0, 0.0, 0.0, 0.0, 0.0, 0.0, 0.0, 1.696023604429469E9, 0.0, 2023-09-29 16:40:04.429
4.0, 27313.295282518302, 14454.560214824704, 11601.449442082578, -12186.059318311134, 10279.23199882889, -11238.144187706017, -187500.02235174447, 34276.62363965793, -26689.882777915333, 23441.995494603576, 1664.2214851643428, -585.4592425178579, 14411.600161981603, -2062.708385313557, -117946.42274933134, -15523.778262588772, 0.156, 0.99, -0.202, 192.0, 0.0, 0.0, 0.0, 0.0, 0.0, 0.0, 0.0, 0.0, 0.0, 1.696023604429473E9, 0.0, 2023-09-29 16:40:04.429
6.0, 27281.82402632523, 14395.149278062498, 11580.43880229459, -12215.809490181147, 10370.695337140005, -11233.115045203573, -187500.02235174447, 34235.29526416007, -26624.50392538356, 23006.11412598063, 1516.6776200148608, -824.6229081896435, 14481.62817736008, -2000.4587770055268, -118378.12434174113, -15431.756130666272, 0.156, 0.99, -0.202, 192.0, 0.0, 0.0, 0.0, 0.0, 0.0, 0.0, 0.0, 0.0, 0.0, 1.696023604429476E9, 0.0, 2023-09-29 16:40:04.429
8.0, 27377.84712050523, 14530.35498027265, 11590.34062508829, -12196.341120760575, 10286.406908799043, -11237.071303972161, -187500.02235174447, 34342.11425091198, -26697.683536730237, 23463.45316928067, 1673.4304038799291, -569.1871725543944, 14414.729406205346, -2050.616091563236, -118023.67037816887, -15513.049425250225, 0.17, 0.994, -0.198, 192.0, 2.5, 40.0, 15.5, 8.0, 124.5, 104.0, 0.0, 0.0, 0.0, 1.69602360442948E9, 0.0, 2023-09-29 16:40:04.429
10.0, 27233.14192690157, 14331.64797206497, 11600.935351960106, -12197.123431816512, 10371.455296451486, -11220.821585753154, -187500.02235174447, 34192.62578399489, -26635.344521444385, 23005.84590504717, 1500.1820326068441, -838.7939141743082, 14471.927520266478, -1999.229431060485, -118409.05915606728, -15429.699770176385, 0.17, 0.994, -0.198, 192.0, 0.0, 0.0, 0.0, 0.0, 0.0, 0.0, 0.0, 0.0, 0.0, 1.696023604429483E9, 0.0, 2023-09-29 16:40:04.429
12.0, 27439.359121246234, 14598.639559583613, 11588.999520420972, -12201.951408618857, 10289.223228600411, -11247.46486514388, -187500.02235174447, 34386.43776016686, -26665.9440596037, 23472.282108340518, 1698.8443373256132, -554.5020764472577, 14431.292048846728, -2036.4450855785713, -118092.75962028022, -15507.662654836495, 0.17, 0.994, -0.198, 192.0, 0.0, 0.0, 0.0, 0.0, 0.0, 0.0, 0.0, 0.0, 0.0, 1.696023604429486E9, 0.0, 2023-09-29 16:40:04.429
14.0, 27175.60853667361, 14260.97175609729, 11614.301695144379, -12186.953388089347, 10369.644805150605, -11221.22391715335, -187500.02235174447, 34133.684233866246, -26629.84599230838, 23014.31721619573, 1496.2481255827101, -839.6879839525204, 14471.324023166184, -1999.7658729274124, -118446.69949373002, -15439.422779014443, 0.17, 0.994, -0.198, 192.0, 0.0, 0.0, 0.0, 0.0, 0.0, 0.0, 0.0, 0.0, 0.0, 1.696023604429489E9, 0.0, 2023-09-29 16:40:04.429
16.0, 27479.34639207678, 14646.092313062229, 11552.610880447732, -12252.689868532405, 10273.845228415159, -11300.751423925332, -187500.02235174447, 34436.99740612476, -26687.871120914355, 23454.914802898744, 1688.6519418539933, -564.4709544743246, 14415.176441094452, -2058.2380364224955, -118166.00628686027, -15533.568326660195, 0.17, 0.994, -0.198, 192.0, 0.0, 0.0, 0.0, 0.0, 0.0, 0.0, 0.0, 0.0, 0.0, 1.696023604489689E9, 0.0, 2023-09-29 16:40:04.489
18.0, 27127.686396561432, 14204.645360069915, 11629.724398818542, -12185.500524699752, 10370.985909817924, -11226.610687567078, -187500.02235174447, 34097.22853865964, -26658.165652533255, 23019.860448820647, 1476.444479995308, -854.797763204308, 14456.303650892218, -2031.5053500539484, -118448.19706060852, -15463.540311281718, 0.176, 0.992, -0.202, 192.0, 2.5, 64.0, 15.5, 0.0, 124.5, 88.0, 0.0, 0.0, 0.0, 1.696023604489698E9, 0.0, 2023-09-29 16:40:04.489
20.0, 27516.271473916946, 14684.626720503178, 11558.534092728389, -12255.75205752278, 10297.51572579333, -11297.666883190499, -187500.02235174447, 34458.455080801854, -26669.296821271997, 23421.834221104888, 1689.8365843101246, -578.5078499922574, 14441.976182696366, -2046.4363153500935, -118263.1693200075, -15517.765643330295, 0.176, 0.992, -0.202, 192.0, 0.0, 0.0, 0.0, 0.0, 0.0, 0.0, 0.0, 0.0, 0.0, 1.696023604489702E9, 0.0, 2023-09-29 16:40:04.489
22.0, 27093.242358355805, 14165.306289828575, 11603.818726994841, -12210.333312789597, 10324.22606041742, -11253.23161521335, -187500.02235174447, 34082.69990476369, -26681.009135366578, 23040.84873686418, 1480.8477736530035, -842.8842834096293, 14429.347447079117, -2058.059222466853, -118442.22914483896, -15489.803611016705, 0.176, 0.992, -0.202, 192.0, 0.0, 0.0, 0.0, 0.0, 0.0, 0.0, 0.0, 0.0, 0.0, 1.696023604489705E9, 0.0, 2023-09-29 16:40:04.489
24.0, 27536.835078815828, 14706.062043435819, 11522.078397521782, -12284.0493660032, 10269.12901033509, -11317.090549122162, -187500.02235174447, 34493.12263645204, -26687.75936219208, 23356.09774066183, 1653.2914821256975, -618.5174725672571, 14412.404824781994, -2068.832763294311, -118327.25177136085, -15543.425445964987, 0.176, 0.992, -0.202, 192.0, 0.0, 0.0, 0.0, 0.0, 0.0, 0.0, 0.0, 0.0, 0.0, 1.696023604489708E9, 0.0, 2023-09-29 16:40:04.489
26.0, 27073.952802890875, 14147.581356475515, 11629.120901718248, -12173.341175716065, 10319.398083615075, -11216.999437451297, -187500.02235174447, 34067.43366330071, -26698.264682086075, 23089.1508566321, 1478.0985090850008, -828.5568152137776, 14414.952923649898, -2054.147667187174, -118435.72478720246, -15490.362404628087, 0.176, 0.992, -0.202, 192.0, 0.0, 0.0, 0.0, 0.0, 0.0, 0.0, 0.0, 0.0, 0.0, 1.696023604489711E9, 0.0, 2023-09-29 16:40:04.489
28.0, 27547.139233009726, 14718.19904067505, 11520.983162043472, -12287.692700349415, 10275.23103657139, -11320.689179979467, -187500.02235174447, 34510.8475698051, -26687.714658703168, 23317.540981476424, 1643.8143424766472, -636.2200541758602, 14417.47867077335, -2048.895007240177, -118419.02803409434, -15517.318608441188, 0.178, 0.994, -0.20600000000000002, 192.0, 2.5, 72.0, 15.5, 8.0, 124.5, 72.0, 0.0, 0.0, 0.0, 1.696023604489714E9, 0.0, 2023-09-29 16:40:04.489
30.0, 27076.433846525415, 14153.191644333798, 11648.030477527438, -12155.191559218354, 10309.876240477115, -11208.192850135905, -187500.02235174447, 34068.998285412585, -26715.497877061116, 23138.168232222586, 1494.705855215294, -800.6841898780096, 14402.637112455024, -2068.0057487494646, -118415.02707183684, -15502.2088291894, 0.178, 0.994, -0.20600000000000002, 192.0, 0.0, 0.0, 0.0, 0.0, 0.0, 0.0, 0.0, 0.0, 0.0, 1.696023604549229E9, 0.0, 2023-09-29 16:40:04.549
32.0, 27548.703855121596, 14712.812270261322, 11559.450514251055, -12251.728743520825, 10317.297019636277, -11290.916656364996, -187500.02235174447, 34486.10418869307, -26648.80027160648, 23273.619803621747, 1644.5295982992172, -648.8264380486534, 14457.711810792902, -2010.293544565862, -118535.5253261954, -15476.01258468778, 0.178, 0.994, -0.20600000000000002, 192.0, 0.0, 0.0, 0.0, 0.0, 0.0, 0.0, 0.0, 0.0, 0.0, 1.696023604549253E9, 0.0, 2023-09-29 16:40:04.549
34.0, 27100.93135844843, 14181.354842347484, 11669.465800460077, -12133.286849652153, 10316.492356835884, -11196.614646508056, -187500.02235174447, 34075.03325641552, -26702.556217021494, 23227.88813446619, 1546.5619023516062, -733.740715234365, 14420.630266741548, -2051.197236919074, -118438.13877560363, -15490.83179126165, 0.178, 0.994, -0.20600000000000002, 192.0, 0.0, 0.0, 0.0, 0.0, 0.0, 0.0, 0.0, 0.0, 0.0, 1.696023604549257E9, 0.0, 2023-09-29 16:40:04.549
36.0, 27532.700006091596, 14686.817191459799, 11549.213415290526, -12266.883226261525, 10322.124996438622, -11299.276208791282, -187500.02235174447, 34464.44534831588, -26632.729367343112, 23236.44885259257, 1638.4499238073736, -668.7641941027873, 14472.016927244298, -1987.6065239437253, -118644.28891471493, -15461.394543814009, 0.178, 0.994, -0.20600000000000002, 192.0, 0.0, 0.0, 0.0, 0.0, 0.0, 0.0, 0.0, 0.0, 0.0, 1.69602360454926E9, 0.0, 2023-09-29 16:40:04.549
38.0, 27130.972102996362, 14217.072929987065, 11656.859416587284, -12147.92724227038, 10292.128955379601, -11207.254076868783, -187500.02235174447, 34098.5472915825, -26710.37932758085, 23284.013364793464, 1561.604626370028, -706.5162904878009, 14400.692510687413, -2065.3011876703727, -118437.40116803661, -15524.1135387556, 0.184, 0.998, -0.20800000000000002, 192.0, 2.5, 96.0, 15.5, 24.0, 124.5, 64.0, 0.0, 0.0, 0.0, 1.696023604549263E9, 0.0, 2023-09-29 16:40:04.549
40.0, 27493.807970739363, 14638.42566471406, 11574.917921414128, -12239.457635814862, 10346.33193568372, -11270.017775299284, -187500.02235174447, 34411.33760349007, -26609.103573453853, 23170.891186105157, 1614.7570746847482, -704.9740201203848, 14487.931369296477, -1974.553105181826, -118751.57728810041, -15447.335296551622, 0.184, 0.998, -0.20800000000000002, 192.0, 0.0, 0.0, 0.0, 0.0, 0.0, 0.0, 0.0, 0.0, 0.0, 1.696023604549266E9, 0.0, 2023-09-29 16:40:04.549
42.0, 27174.312135495205, 14275.232169059775, 11660.346288722312, -12140.573518344585, 10291.234885601389, -11207.589353035612, -187500.02235174447, 34135.8076495895, -26703.159714121786, 23356.76829299549, 1604.922307124413, -649.8322665491422, 14411.443699770416, -2046.2127979055404, -118479.46715110149, -15515.463413651398, 0.184, 0.998, -0.20800000000000002, 192.0, 0.0, 0.0, 0.0, 0.0, 0.0, 0.0, 0.0, 0.0, 0.0, 1.69602360454927E9, 0.0, 2023-09-29 16:40:04.549
44.0, 27448.500984728456, 14587.597797822691, 11553.348488014757, -12251.572281309638, 10333.300868666276, -11293.397699999536, -187500.02235174447, 34389.07526601258, -26619.519486370027, 23125.427737883063, 1578.860173089525, -737.160532136027, 14472.016927244298, -1990.6016577007365, -118821.73941394562, -15454.689020477417, 0.184, 0.998, -0.20800000000000002, 192.0, 0.0, 0.0, 0.0, 0.0, 0.0, 0.0, 0.0, 0.0, 0.0, 1.696023604549273E9, 0.0, 2023-09-29 16:40:04.549
46.0, 27228.67157801051, 14342.153291958964, 11637.614564611265, -12150.363582416008, 10280.707213962938, -11222.185042164927, -187500.02235174447, 34196.76085671912, -26708.702946746704, 23409.40665118774, 1611.8960513944687, -627.5699290716564, 14393.271731528252, -2055.578178832314, -118482.28347090287, -15534.194175504945, 0.184, 0.998, -0.20800000000000002, 192.0, 0.0, 0.0, 0.0, 0.0, 0.0, 0.0, 0.0, 0.0, 0.0, 1.696023604608879E9, 0.0, 2023-09-29 16:40:04.608
48.0, 27393.694507324042, 14515.401663232049, 11577.15309585966, -12225.174871107922, 10367.05200279379, -11262.75345835131, -187500.02235174447, 34325.775125715154, -26613.283349666995, 23082.981775162432, 1550.3169954200978, -774.9573320099512, 14483.908055294522, -1975.4024714711277, -118896.52835089307, -15437.031142357726, 0.186, 0.99, -0.20400000000000001, 192.0, 2.5, 104.0, 15.0, 120.0, 124.5, 80.0, 0.0, 0.0, 0.0, 1.696023604608888E9, 0.0, 2023-09-29 16:40:04.608
50.0, 27294.139837520106, 14413.343598049118, 11611.664189298654, -12183.757088632237, 10275.968644138413, -11248.336583177637, -187500.02235174447, 34258.02698827112, -26703.22676935515, 23448.477500495614, 1640.6850982529043, -599.518489780246, 14392.578827450137, -2060.964949246043, -118524.05888128983, -15532.584849904162, 0.186, 0.99, -0.20400000000000001, 192.0, 0.0, 0.0, 0.0, 0.0, 0.0, 0.0, 0.0, 0.0, 0.0, 1.696023604608892E9, 0.0, 2023-09-29 16:40:04.608
52.0, 27338.306884563794, 14442.356162352105, 11581.288168583891, -12225.04076064119, 10373.399898219097, -11260.965318794886, -187500.02235174447, 34278.523537936635, -26608.70124205366, 23043.910925854558, 1521.4385415838412, -812.2623935058587, 14473.045107489243, -1981.39273898515, -118942.70705493774, -15431.800834155183, 0.186, 0.99, -0.20400000000000001, 192.0, 0.0, 0.0, 0.0, 0.0, 0.0, 0.0, 0.0, 0.0, 0.0, 1.696023604608895E9, 0.0, 2023-09-29 16:40:04.608
54.0, 27360.099835407716, 14491.708814109423, 11588.463078554045, -12206.712330187838, 10275.163981338022, -11269.414278198992, -187500.02235174447, 34320.611872745976, -26687.826417425447, 23471.25392809557, 1651.3915838469964, -581.3912250269921, 14389.695452415403, -2055.220550921029, -118564.56024224285, -15529.187384746956, 0.186, 0.99, -0.20400000000000001, 192.0, 0.0, 0.0, 0.0, 0.0, 0.0, 0.0, 0.0, 0.0, 0.0, 1.696023604608898E9, 0.0, 2023-09-29 16:40:04.608
56.0, 27285.087381015706, 14374.719783630346, 11588.731299487508, -12223.029103640212, 10374.919816842059, -11257.61255712659, -187500.02235174447, 34234.200028681764, -26615.786745045993, 23022.98969304439, 1487.508593500685, -839.0397833633165, 14462.696249806435, -1996.3460560257504, -118958.01799988962, -15434.885374890016, 0.186, 0.99, -0.20400000000000001, 192.0, 0.0, 0.0, 0.0, 0.0, 0.0, 0.0, 0.0, 0.0, 0.0, 1.696023604608902E9, 0.0, 2023-09-29 16:40:04.608
58.0, 27426.7750891179, 14565.067239411741, 11575.834342936796, -12228.482929287307, 10280.237827329378, -11284.077022561672, -187500.02235174447, 34383.397922920936, -26657.875079855334, 23484.620271279844, 1663.1933049193985, -571.4670504888356, 14403.955865377888, -2047.5315508284034, -118611.498905599, -15504.01932049028, 0.186, 0.998, -0.20600000000000002, 192.0, 2.5, 104.0, 15.5, 24.0, 124.5, 72.0, 0.0, 0.0, 0.0, 1.696023604608905E9, 0.0, 2023-09-29 16:40:04.608
60.0, 27234.95241820245, 14312.201954388853, 11581.645796495175, -12228.32646707612, 10353.886825309613, -11261.94879555092, -187500.02235174447, 34195.50915902962, -26613.59627408937, 23024.62137038963, 1467.2132095352663, -858.1728766170594, 14449.754589766811, -2009.712399210024, -118967.71865698323, -15422.10017706158, 0.186, 0.998, -0.20600000000000002, 192.0, 0.0, 0.0, 0.0, 0.0, 0.0, 0.0, 0.0, 0.0, 0.0, 1.696023604669132E9, 0.0, 2023-09-29 16:40:04.669
62.0, 27481.603918266766, 14631.094292532718, 11556.321270027312, -12248.353630108075, 10263.675184687994, -11295.47641223388, -187500.02235174447, 34438.740842192274, -26657.80802462197, 23477.110085142864, 1653.0903164255997, -586.9568093963635, 14390.7459844048, -2059.5344376009034, -118647.48521417203, -15499.794840788227, 0.186, 0.998, -0.20600000000000002, 192.0, 0.0, 0.0, 0.0, 0.0, 0.0, 0.0, 0.0, 0.0, 0.0, 1.696023604669152E9, 0.0, 2023-09-29 16:40:04.669
64.0, 27184.99626934484, 14251.852244359523, 11613.854660255272, -12196.408175993942, 10360.681755624028, -11228.51058584578, -187500.02235174447, 34143.47429793767, -26607.427192619707, 23032.288018737796, 1459.2559885091769, -865.2583796093917, 14452.90618573501, -2005.420864274605, -118984.59422404697, -15397.446202927376, 0.186, 0.998, -0.20600000000000002, 192.0, 0.0, 0.0, 0.0, 0.0, 0.0, 0.0, 0.0, 0.0, 0.0, 1.696023604669156E9, 0.0, 2023-09-29 16:40:04.669
66.0, 27517.38906113971, 14674.389621542648, 11566.804238176852, -12240.396409081986, 10301.628446773106, -11277.684423647455, -187500.02235174447, 34459.14798487997, -26620.055928236954, 23471.924480429232, 1670.6140840785604, -570.8635533885424, 14428.766301723279, -2019.3907045591718, -118778.35467795786, -15453.169101854457, 0.186, 0.998, -0.20600000000000002, 192.0, 0.0, 0.0, 0.0, 0.0, 0.0, 0.0, 0.0, 0.0, 0.0, 1.696023604669159E9, 0.0, 2023-09-29 16:40:04.669
68.0, 27146.79713807072, 14203.1030897025, 11619.643762069198, -12193.256580025743, 10371.030613306835, -11218.541707818713, -187500.02235174447, 34106.973899242155, -26592.116247667822, 23066.419132521052, 1471.6835584263276, -838.92802464104, 14455.320174136183, -2002.8951171511553, -119033.92452405984, -15395.345138948578, 0.182, 1.002, -0.20400000000000001, 192.0, 2.5, 88.0, 15.5, 40.0, 124.5, 80.0, 0.0, 0.0, 0.0, 1.696023604669162E9, 0.0, 2023-09-29 16:40:04.669
70.0, 27550.134366766735, 14705.346787613249, 11521.072569021293, -12285.256360203786, 10294.051205402757, -11306.898153650542, -187500.02235174447, 34494.195520185895, -26617.440774135684, 23433.859459621843, 1662.500400841284, -586.6215332295338, 14425.234726099341, -2024.4645505505266, -118870.77914128055, -15455.605442000086, 0.182, 1.002, -0.20400000000000001, 192.0, 0.0, 0.0, 0.0, 0.0, 0.0, 0.0, 0.0, 0.0, 0.0, 1.696023604669165E9, 0.0, 2023-09-29 16:40:04.669
72.0, 27122.880771503544, 14172.838827710013, 11618.570878335344, -12184.964082832825, 10371.567055173762, -11208.773995491743, -187500.02235174447, 34085.67268677625, -26623.45339339416, 23105.869961484666, 1457.065517552557, -836.5810914732327, 14433.147243636518, -2019.2342423479847, -119019.37353841944, -15413.919438590938, 0.182, 1.002, -0.20400000000000001, 192.0, 0.0, 0.0, 0.0, 0.0, 0.0, 0.0, 0.0, 0.0, 0.0, 1.696023604669169E9, 0.0, 2023-09-29 16:40:04.669
74.0, 27571.770855399474, 14723.786976788877, 11527.755740613431, -12277.410897899974, 10328.517595352841, -11296.862220390109, -187500.02235174447, 34499.984621999814, -26594.284366879987, 23399.52718013849, 1648.1058774120663, -606.5145857947572, 14449.843996744634, -2000.615239216714, -118965.81875870452, -15433.790139411705, 0.182, 1.002, -0.20400000000000001, 192.0, 0.0, 0.0, 0.0, 0.0, 0.0, 0.0, 0.0, 0.0, 0.0, 1.696023604669172E9, 0.0, 2023-09-29 16:40:04.669
76.0, 27114.36475686607, 14162.937004916312, 11617.073311456837, -12191.826068380604, 10355.76437184386, -11225.180175921938, -187500.02235174447, 34076.10614014937, -26613.909198511745, 23159.40238945513, 1484.446404510308, -801.6006114006772, 14436.56706053818, -2024.8445302062669, -119030.70587285828, -15417.3392554926, 0.182, 1.002, -0.20400000000000001, 192.0, 0.0, 0.0, 0.0, 0.0, 0.0, 0.0, 0.0, 0.0, 0.0, 1.696023604729434E9, 0.0, 2023-09-29 16:40:04.729
78.0, 27581.49386423753, 14728.883174524686, 11510.544897382844, -12294.353520197097, 10318.459310347953, -11316.53175551078, -187500.02235174447, 34508.67945059293, -26589.83636973338, 23342.39612131073, 1628.2575283357537, -639.483408866335, 14443.518453063782, -2008.1701288426077, -119049.77191087866, -15434.259526045267, 0.186, 0.996, -0.20400000000000001, 192.0, 2.5, 104.0, 15.5, 16.0, 124.5, 80.0, 0.0, 0.0, 0.0, 1.696023604729443E9, 0.0, 2023-09-29 16:40:04.729
80.0, 27125.808850027188, 14176.504513800683, 11618.325009146334, -12177.319786229109, 10340.207557702966, -11224.55432707719, -187500.02235174447, 34079.92828845123, -26623.721614327624, 23206.095183622263, 1490.7495964467046, -775.5384773657892, 14414.99762713881, -2033.2487861214622, -119016.91484652935, -15428.045741086691, 0.186, 0.996, -0.20400000000000001, 192.0, 0.0, 0.0, 0.0, 0.0, 0.0, 0.0, 0.0, 0.0, 0.0, 1.696023604729447E9, 0.0, 2023-09-29 16:40:04.729
82.0, 27572.5084629665, 14712.00760746093, 11515.46228116301, -12282.462392146874, 10340.073447236235, -11311.614371730611, -187500.02235174447, 34487.08766544911, -26569.0715991344, 23275.56440538936, 1610.2867257936866, -665.8808190680527, 14458.874101504578, -1993.9767711134878, -119145.41502540291, -15411.594857167585, 0.186, 0.996, -0.20400000000000001, 192.0, 0.0, 0.0, 0.0, 0.0, 0.0, 0.0, 0.0, 0.0, 0.0, 1.69602360472945E9, 0.0, 2023-09-29 16:40:04.729
84.0, 27151.446300917425, 14205.986464737232, 11615.419282367146, -12166.479190168286, 10332.85383377717, -11222.74383577631, -187500.02235174447, 34100.89422475031, -26614.155067700754, 23268.590661119302, 1528.2558236427099, -728.9797936653846, 14418.350388807106, -2036.1545129006522, -119020.60288436447, -15425.00590384077, 0.186, 0.996, -0.20400000000000001, 192.0, 0.0, 0.0, 0.0, 0.0, 0.0, 0.0, 0.0, 0.0, 0.0, 1.696023604729453E9, 0.0, 2023-09-29 16:40:04.729
86.0, 27553.107148779294, 14676.691851221545, 11510.433138660568, -12270.906540263479, 10349.885863052114, -11296.95162736793, -187500.02235174447, 34455.594057511575, -26552.53130823747, 23220.06502390683, 1592.986475585279, -696.6815229274658, 14462.517435850792, -1982.8903058636554, -119238.08535791462, -15395.2333802263, 0.186, 0.996, -0.20400000000000001, 192.0, 0.0, 0.0, 0.0, 0.0, 0.0, 0.0, 0.0, 0.0, 0.0, 1.696023604729456E9, 0.0, 2023-09-29 16:40:04.729
88.0, 27188.818417646697, 14248.164206524398, 11600.309503115357, -12174.16819026091, 10320.314505137743, -11228.018847467763, -187500.02235174447, 34138.26634147958, -26623.45339339416, 23324.984112380043, 1547.6571378299163, -693.70874091491, 14401.363063021072, -2038.188521646085, -119031.91286705887, -15436.449997001888, 0.188, 0.988, -0.20400000000000001, 192.0, 2.5, 112.0, 15.0, 112.0, 124.5, 80.0, 0.0, 0.0, 0.0, 1.69602360472946E9, 0.0, 2023-09-29 16:40:04.729
90.0, 27514.52803784943, 14625.618115141167, 11515.015246273906, -12267.464371617363, 10372.48347669643, -11288.390909241547, -187500.02235174447, 34427.6767286869, -26557.851023417836, 23167.225500014487, 1560.5540943806286, -736.7805524802867, 14464.171464940486, -1984.2761140198845, -119316.65173967503, -15383.543417876175, 0.188, 0.988, -0.20400000000000001, 192.0, 0.0, 0.0, 0.0, 0.0, 0.0, 0.0, 0.0, 0.0, 0.0, 1.696023604790374E9, 0.0, 2023-09-29 16:40:04.790
92.0, 27234.237162379883, 14300.959026927832, 11596.509706557956, -12182.79596362066, 10321.90147899407, -11230.07520795765, -187500.02235174447, 34177.31483904301, -26630.60595161986, 23383.165703197206, 1567.1702107393994, -664.9196940564746, 14407.398034024005, -2044.4693618380263, -119047.0449980551, -15440.272145303745, 0.188, 0.988, -0.20400000000000001, 192.0, 0.0, 0.0, 0.0, 0.0, 0.0, 0.0, 0.0, 0.0, 0.0, 1.696023604790408E9, 0.0, 2023-09-29 16:40:04.790
94.0, 27465.44360702558, 14553.35492531716, 11523.441853933557, -12272.113534464066, 10379.077241310744, -11285.552237695723, -187500.02235174447, 34372.02088499319, -26554.02887511598, 23111.48024934295, 1526.9147189753915, -782.6686838470321, 14468.57475859818, -1986.9136198656108, -119397.34153715867, -15384.57159812112, 0.188, 0.988, -0.20400000000000001, 192.0, 0.0, 0.0, 0.0, 0.0, 0.0, 0.0, 0.0, 0.0, 0.0, 1.696023604790413E9, 0.0, 2023-09-29 16:40:04.790
96.0, 27289.937709562506, 14360.951109045876, 11582.025776150916, -12206.086481343089, 10311.552621311263, -11248.448341899913, -187500.02235174447, 34221.615996553424, -26631.611780120347, 23424.628189161802, 1585.7221586373043, -639.3940018885138, 14403.061795599675, -2054.0135567204425, -119079.34326879303, -15461.483950791831, 0.188, 0.988, -0.20400000000000001, 192.0, 0.0, 0.0, 0.0, 0.0, 0.0, 0.0, 0.0, 0.0, 0.0, 1.696023604790419E9, 0.0, 2023-09-29 16:40:04.790
98.0, 27414.124001756194, 14478.29776743624, 11523.911240567119, -12274.505171120783, 10379.948959344501, -11285.976920840374, -187500.02235174447, 34312.431134275335, -26553.02304661549, 23063.491053997404, 1495.7116837157828, -821.3372017547133, 14476.19670345744, -1992.903887379633, -119468.53184324883, -15385.37626092151, 0.178, 0.986, -0.202, 192.0, 2.5, 72.0, 15.0, 104.0, 124.5, 88.0, 0.0, 0.0, 0.0, 1.69602360479044E9, 0.0, 2023-09-29 16:40:04.790
100.0, 27357.21646037298, 14432.074359902665, 11556.254214793948, -12233.735589234304, 10290.363167567632, -11270.151885766016, -187500.02235174447, 34284.84908161749, -26651.817757107947, 23443.090730081884, 1590.4160249729186, -626.7876180157207, 14381.09003080011, -2073.8172023078446, -119099.03515565816, -15489.088355194135, 0.178, 0.986, -0.202, 192.0, 0.0, 0.0, 0.0, 0.0, 0.0, 0.0, 0.0, 0.0, 0.0, 1.696023604790447E9, 0.0, 2023-09-29 16:40:04.790
102.0, 27360.524518552367, 14404.827583411645, 11540.585641930777, -12262.211711670365, 10369.287177239321, -11272.074135789173, -187500.02235174447, 34263.771386596134, -26572.200843358143, 23024.37550120062, 1462.318177499554, -855.602426004699, 14460.215206171895, -2000.8164049168117, -119500.38307909765, -15392.595874380575, 0.178, 0.986, -0.202, 192.0, 0.0, 0.0, 0.0, 0.0, 0.0, 0.0, 0.0, 0.0, 0.0, 1.696023604790469E9, 0.0, 2023-09-29 16:40:04.790
104.0, 27427.915028085117, 14510.752500385344, 11546.374743744702, -12250.09706617559, 10267.519684734307, -11284.56876093969, -187500.02235174447, 34348.32803587056, -26662.65835316877, 23464.280183825518, 1610.309077538142, -608.2356701178157, 14372.350498718084, -2077.5052401429703, -119130.57346708458, -15496.665596564484, 0.178, 0.986, -0.202, 192.0, 0.0, 0.0, 0.0, 0.0, 0.0, 0.0, 0.0, 0.0, 0.0, 1.696023604790474E9, 0.0, 2023-09-29 16:40:04.790
106.0, 27313.31763426276, 14338.733475057303, 11563.183255575092, -12237.781254980715, 10367.856665594181, -11248.783618066744, -187500.02235174447, 34210.73069700369, -26589.523445311006, 23015.188934229485, 1445.4426104357972, -867.3147400992799, 14448.726409521869, -2001.9786956284877, -119518.59975082873, -15394.115793003535, 0.178, 0.986, -0.202, 192.0, 0.0, 0.0, 0.0, 0.0, 0.0, 0.0, 0.0, 0.0, 0.0, 1.696023604849345E9, 0.0, 2023-09-29 16:40:04.849
108.0, 27495.841979484798, 14578.03125119582, 11550.688630424576, -12246.319621362642, 10276.08040286069, -11277.952644580919, -187500.02235174447, 34391.08692301356, -26641.200678491674, 23474.718448486146, 1630.17977835891, -586.8450506740869, 14390.053080326687, -2050.236111907496, -119191.92900561441, -15479.477105078353, 0.18, 0.996, -0.2, 192.0, 2.5, 80.0, 15.5, 16.0, 124.5, 96.0, 0.0, 0.0, 0.0, 1.696023604849355E9, 0.0, 2023-09-29 16:40:04.849
110.0, 27279.901776302075, 14275.768610926702, 11573.24154057998, -12235.724894490826, 10353.372735187142, -11251.935214034942, -187500.02235174447, 34166.89892612683, -26599.738192527082, 23014.183105728996, 1444.8167615910486, -867.828830221752, 14446.58064205416, -2013.5121957674262, -119532.18961145755, -15406.878639087516, 0.18, 0.996, -0.2, 192.0, 0.0, 0.0, 0.0, 0.0, 0.0, 0.0, 0.0, 0.0, 0.0, 1.696023604849359E9, 0.0, 2023-09-29 16:40:04.849
112.0, 27574.184843800645, 14638.04568505832, 11524.671199878598, -12278.90846477848, 10258.690745674461, -11310.42972927448, -187500.02235174447, 34451.682502231895, -26650.677818140724, 23457.44055002219, 1635.8124179616473, -590.3095710646595, 14390.388356493517, -2058.640367822691, -119237.90654395898, -15495.927988997459, 0.18, 0.996, -0.2, 192.0, 0.0, 0.0, 0.0, 0.0, 0.0, 0.0, 0.0, 0.0, 0.0, 1.696023604849362E9, 0.0, 2023-09-29 16:40:04.849
114.0, 27267.764779062843, 14222.236182956241, 11601.807069993863, -12206.354702276552, 10355.2949852103, -11228.689399801422, -187500.02235174447, 34127.67161460777, -26626.515582384538, 23019.592227887184, 1430.5339968841074, -873.6849872690425, 14428.341618578628, -2021.1341406266858, -119511.00015771392, -15426.637581186007, 0.18, 0.996, -0.2, 192.0, 0.0, 0.0, 0.0, 0.0, 0.0, 0.0, 0.0, 0.0, 0.0, 1.696023604849365E9, 0.0, 2023-09-29 16:40:04.849
116.0, 27645.3751498908, 14676.423630288082, 11543.67018266561, -12262.658746559471, 10292.017196657323, -11286.938045851952, -187500.02235174447, 34465.13825239399, -26621.21821894863, 23441.50375622556, 1649.759906501759, -587.5379547522015, 14427.246383100319, -2022.0282104048981, -119337.79648992974, -15464.277918848744, 0.18, 0.996, -0.2, 192.0, 0.0, 0.0, 0.0, 0.0, 0.0, 0.0, 0.0, 0.0, 0.0, 1.696023604849368E9, 0.0, 2023-09-29 16:40:04.849
118.0, 27267.92124127403, 14176.973900434245, 11612.647666054687, -12191.803716636148, 10352.612775875661, -11213.22199263835, -187500.02235174447, 34088.8466344889, -26620.41355614824, 23069.9954116339, 1452.57281691704, -846.9970043894058, 14434.935383192944, -2017.0214196469094, -119544.57247788578, -15419.216802026845, 0.176, 0.99, -0.20400000000000001, 192.0, 2.5, 64.0, 15.0, 120.0, 124.5, 80.0, 0.0, 0.0, 0.0, 1.696023604849371E9, 0.0, 2023-09-29 16:40:04.849
120.0, 27715.224351313635, 14702.508116067424, 11532.449606949045, -12270.615967585562, 10303.170717140523, -11291.386042998558, -187500.02235174447, 34489.70281955037, -26609.528256598504, 23406.567979641914, 1643.4120110764518, -606.7604549837655, 14429.749778479312, -2015.5238527684037, -119431.2938369863, -15457.170064111957, 0.176, 0.99, -0.20400000000000001, 192.0, 0.0, 0.0, 0.0, 0.0, 0.0, 0.0, 0.0, 0.0, 0.0, 1.696023604909522E9, 0.0, 2023-09-29 16:40:04.909
122.0, 27295.525645676335, 14156.253833324176, 11616.872145756739, -12183.98060607679, 10345.437865905507, -11214.607800794578, -187500.02235174447, 34084.15276815328, -26629.0860329969, 23115.52591508936, 1458.9654158312578, -831.2613762928696, 14423.491290031827, -2033.807579732845, -119539.1633557276, -15430.1915085544, 0.176, 0.99, -0.20400000000000001, 192.0, 0.0, 0.0, 0.0, 0.0, 0.0, 0.0, 0.0, 0.0, 0.0, 1.696023604909548E9, 0.0, 2023-09-29 16:40:04.909
124.0, 27780.826721289963, 14719.316627897815, 11517.831566075274, -12282.618854358061, 10306.434071830998, -11313.603676987133, -187500.02235174447, 34513.30626169518, -26609.640015320783, 23352.76733073799, 1627.564624257639, -633.7390105413211, 14431.783787224746, -2015.6356114906803, -119505.94866346702, -15452.230328587333, 0.176, 0.99, -0.20400000000000001, 192.0, 0.0, 0.0, 0.0, 0.0, 0.0, 0.0, 0.0, 0.0, 0.0, 1.696023604909552E9, 0.0, 2023-09-29 16:40:04.909
126.0, 27349.84038470273, 14156.186778090809, 11626.550451105888, -12171.08364952608, 10339.984040258412, -11215.144242661507, -187500.02235174447, 34087.97491645514, -26645.31339947145, 23155.28966847535, 1473.0693665825568, -810.3401434827023, 14406.61572296807, -2045.9445769720767, -119515.40345137162, -15446.44122677341, 0.176, 0.99, -0.20400000000000001, 192.0, 0.0, 0.0, 0.0, 0.0, 0.0, 0.0, 0.0, 0.0, 0.0, 1.696023604909556E9, 0.0, 2023-09-29 16:40:04.909
128.0, 27846.853774410938, 14715.71799704051, 11520.156147498627, -12277.232083944331, 10324.42722611752, -11305.020607116296, -187500.02235174447, 34510.132313982525, -26592.563282556926, 23309.494353472513, 1616.925193896913, -662.7515748443097, 14440.500967562315, -1997.3071810373285, -119587.73369642899, -15440.115683092557, 0.182, 0.998, -0.20800000000000002, 192.0, 2.5, 88.0, 15.5, 24.0, 124.5, 64.0, 0.0, 0.0, 0.0, 1.696023604909559E9, 0.0, 2023-09-29 16:40:04.909
130.0, 27427.57975191829, 14172.078868398532, 11631.601945352788, -12164.087553511567, 10322.70614179446, -11214.78661475022, -187500.02235174447, 34095.306288636486, -26644.46403318215, 23238.527564826916, 1494.705855215294, -773.9962069983729, 14398.457336241883, -2049.029117706909, -119499.86898897517, -15462.690944992417, 0.182, 0.998, -0.20800000000000002, 192.0, 0.0, 0.0, 0.0, 0.0, 0.0, 0.0, 0.0, 0.0, 0.0, 1.696023604909564E9, 0.0, 2023-09-29 16:40:04.909
132.0, 27891.445504599276, 14682.52565652438, 11536.808197117829, -12265.00567972728, 10339.089970480201, -11295.431708744969, -187500.02235174447, 34478.4375403449, -26578.951070183644, 23258.666486581147, 1598.1720802989103, -695.8098048937088, 14458.516473593292, -1986.7571576544235, -119686.90838657718, -15423.754206151272, 0.182, 0.998, -0.20800000000000002, 192.0, 0.0, 0.0, 0.0, 0.0, 0.0, 0.0, 0.0, 0.0, 0.0, 1.696023604909582E9, 0.0, 2023-09-29 16:40:04.909
134.0, 27520.607712341276, 14202.924275746856, 11624.695256316098, -12172.64827163795, 10308.713949765439, -11226.476577100346, -187500.02235174447, 34125.212922717685, -26645.916896571744, 23293.132876531232, 1527.764085264693, -730.8126367107197, 14407.688606701924, -2047.5315508284034, -119524.8582392762, -15459.137017624023, 0.182, 0.998, -0.20800000000000002, 192.0, 0.0, 0.0, 0.0, 0.0, 0.0, 0.0, 0.0, 0.0, 0.0, 1.696023604909585E9, 0.0, 2023-09-29 16:40:04.909
136.0, 27932.125679507935, 14645.84644387322, 11530.817929603807, -12273.633453087026, 10335.737208811905, -11297.555124468223, -187500.02235174447, 34464.84767971608, -26585.88011096479, 23188.21378805802, 1569.1818677403771, -732.6454797560549, 14449.084037433153, -1998.5588787268257, -119746.78870997296, -15429.565659709653, 0.182, 0.998, -0.20800000000000002, 192.0, 0.0, 0.0, 0.0, 0.0, 0.0, 0.0, 0.0, 0.0, 0.0, 1.696023604969808E9, 0.0, 2023-09-29 16:40:04.969
138.0, 27635.674492797196, 14261.195273541842, 11617.877974257228, -12178.057393796134, 10292.575990268706, -11232.869176014565, -187500.02235174447, 34178.119501843394, -26649.85080359588, 23340.85385094331, 1552.4851146322626, -697.4414822389463, 14389.270769270752, -2053.6335770647024, -119498.9525674525, -15475.319680609666, 0.182, 0.998, -0.21, 192.0, 2.5, 88.0, 15.5, 24.0, 124.5, 56.0, 0.0, 0.0, 0.0, 1.696023604969818E9, 0.0, 2023-09-29 16:40:04.969
140.0, 27964.66981943486, 14591.062318213264, 11533.097807538248, -12273.365232153563, 10339.715819324949, -11297.33160702367, -187500.02235174447, 34433.19760956736, -26585.097799908854, 23134.659008343104, 1544.0138034837012, -766.9107040060406, 14452.280336890262, -1994.2449920469514, -119803.58449263389, -15421.876659617026, 0.182, 0.998, -0.21, 192.0, 0.0, 0.0, 0.0, 0.0, 0.0, 0.0, 0.0, 0.0, 0.0, 1.696023604969822E9, 0.0, 2023-09-29 16:40:04.969
142.0, 27761.000723958103, 14321.522631826716, 11606.366825862746, -12190.484963713285, 10277.376804039099, -11243.642716842023, -187500.02235174447, 34231.29430190257, -26672.783693407026, 23393.089877735365, 1570.6794346188826, -668.5630284026895, 14374.451562696882, -2067.223437693529, -119486.9049771911, -15499.660730321495, 0.182, 0.998, -0.21, 192.0, 0.0, 0.0, 0.0, 0.0, 0.0, 0.0, 0.0, 0.0, 0.0, 1.696023604969825E9, 0.0, 2023-09-29 16:40:04.969
144.0, 27984.62992723345, 14523.694160424968, 11561.640985207676, -12249.828845242126, 10360.480589923929, -11272.699984633922, -187500.02235174447, 34377.98880076275, -26573.854872447835, 23097.689223014026, 1522.377314850964, -801.9582393119621, 14462.316270150695, -1981.258628518418, -119861.31904856194, -15412.734796134806, 0.182, 0.998, -0.21, 192.0, 0.0, 0.0, 0.0, 0.0, 0.0, 0.0, 0.0, 0.0, 0.0, 1.696023604969828E9, 0.0, 2023-09-29 16:40:04.969
146.0, 27889.81382725404, 14393.763469906267, 11612.759424776963, -12192.966007347824, 10284.1270308646, -11244.626193598056, -187500.02235174447, 34283.46327346126, -26656.645733910293, 23446.085863838896, 1610.0632083491337, -630.676821550944, 14387.37087099205, -2058.5286091004145, -119519.82909677377, -15494.095145952124, 0.182, 0.998, -0.21, 192.0, 0.0, 0.0, 0.0, 0.0, 0.0, 0.0, 0.0, 0.0, 0.0, 1.696023604969831E9, 0.0, 2023-09-29 16:40:04.969
148.0, 27987.91563366838, 14453.219110157384, 11583.72450872952, -12232.841519456091, 10370.091840039711, -11257.254929215303, -187500.02235174447, 34321.237721590725, -26579.48751205057, 23063.46870225295, 1505.412340809386, -826.8804343796295, 14464.23852017385, -1984.6337419311694, -119910.87286601936, -15405.805755353662, 0.184, 0.998, -0.20800000000000002, 192.0, 2.5, 96.0, 15.5, 24.0, 124.5, 64.0, 0.0, 0.0, 0.0, 1.696023604969834E9, 0.0, 2023-09-29 16:40:04.969
150.0, 28002.578378031063, 14464.886720763056, 11602.142346160692, -12208.634580210994, 10286.988054154881, -11262.149961251016, -187500.02235174447, 34335.18521013084, -26656.958658332667, 23478.719410743644, 1637.667612751438, -599.6973037358885, 14393.383490250528, -2046.6821845391019, -119559.03405654838, -15493.201076173911, 0.184, 0.998, -0.20800000000000002, 192.0, 0.0, 0.0, 0.0, 0.0, 0.0, 0.0, 0.0, 0.0, 0.0, 1.696023605029152E9, 0.0, 2023-09-29 16:40:05.029
152.0, 27976.33743004053, 14373.26692024075, 11597.403776336167, -12229.04172289869, 10375.143334286611, -11253.432780913447, -187500.02235174447, 34267.2359069867, -26593.345593612863, 23026.633027390602, 1480.5572009750845, -852.6519957365986, 14452.570909568181, -2003.3645037847168, -119940.13129951135, -15420.177927038423, 0.184, 0.998, -0.20800000000000002, 192.0, 0.0, 0.0, 0.0, 0.0, 0.0, 0.0, 0.0, 0.0, 0.0, 1.696023605029164E9, 0.0, 2023-09-29 16:40:05.029
154.0, 28108.61505372704, 14530.73495992839, 11587.367843075734, -12233.489720045296, 10279.74608895136, -11279.003176570319, -187500.02235174447, 34393.65737362592, -26652.957696075166, 23472.6397362518, 1645.9377581999015, -593.1705943549389, 14396.266865285263, -2056.5616555883475, -119593.32163254281, -15505.762756557795, 0.184, 0.998, -0.20800000000000002, 192.0, 0.0, 0.0, 0.0, 0.0, 0.0, 0.0, 0.0, 0.0, 0.0, 1.696023605029167E9, 0.0, 2023-09-29 16:40:05.029
156.0, 27964.736874668226, 14303.194201373364, 11598.856639725762, -12230.204013610366, 10358.781857345326, -11255.355030936604, -187500.02235174447, 34224.25350239915, -26607.717765297624, 23001.80023930076, 1462.0052530771798, -873.7743942468637, 14450.58160431166, -2017.7366754694792, -119948.40144495982, -15431.130281821524, 0.184, 0.998, -0.20800000000000002, 192.0, 0.0, 0.0, 0.0, 0.0, 0.0, 0.0, 0.0, 0.0, 0.0, 1.696023605029171E9, 0.0, 2023-09-29 16:40:05.029
158.0, 28204.124057784567, 14593.811582781265, 11572.325119057312, -12244.822054484137, 10264.815123655215, -11289.977883097874, -187500.02235174447, 34448.7320719638, -26667.531033460025, 23468.661125738756, 1644.820170977136, -600.6360770030113, 14385.18040003543, -2062.1719434466295, -119621.75305148997, -15519.911410798004, 0.18, 0.996, -0.20400000000000001, 192.0, 2.5, 80.0, 15.5, 16.0, 124.5, 80.0, 0.0, 0.0, 0.0, 1.696023605029174E9, 0.0, 2023-09-29 16:40:05.029
160.0, 27954.030389074134, 14243.49269193324, 11636.273459943946, -12193.41304223693, 10372.617587163162, -11224.733141032833, -187500.02235174447, 34175.750216931134, -26608.25420716455, 23022.60971338865, 1451.3881744609089, -880.4799175834559, 14451.296860134229, -2001.419902017105, -119957.43154971977, -15423.374226495533, 0.18, 0.996, -0.20400000000000001, 192.0, 0.0, 0.0, 0.0, 0.0, 0.0, 0.0, 0.0, 0.0, 0.0, 1.696023605029177E9, 0.0, 2023-09-29 16:40:05.029
162.0, 28288.993631481368, 14647.455769474003, 11586.227904108513, -12239.457635814862, 10290.698443734462, -11282.221827771882, -187500.02235174447, 34479.30925837866, -26632.908181298757, 23467.230614093616, 1664.176781675432, -585.7945186846875, 14418.99858939631, -2033.2487861214622, -119713.52931422346, -15486.92023598197, 0.18, 0.996, -0.20400000000000001, 192.0, 0.0, 0.0, 0.0, 0.0, 0.0, 0.0, 0.0, 0.0, 0.0, 1.69602360502918E9, 0.0, 2023-09-29 16:40:05.029
164.0, 27946.408444214874, 14192.508362830684, 11645.504730403987, -12183.891199098969, 10362.961633558469, -11214.831318239132, -187500.02235174447, 34136.679367623256, -26620.994701504078, 23052.292830025297, 1461.4688112102524, -867.2700366103693, 14441.730313507356, -2018.7201522255127, -119973.7706749166, -15430.459729487864, 0.18, 0.996, -0.20400000000000001, 192.0, 0.0, 0.0, 0.0, 0.0, 0.0, 0.0, 0.0, 0.0, 0.0, 1.696023605029183E9, 0.0, 2023-09-29 16:40:05.029
166.0, 28359.423978260038, 14687.800668215832, 11559.361107273235, -12264.066906460155, 10281.109545363135, -11296.348130267635, -187500.02235174447, 34517.486037908326, -26640.46307092465, 23435.938171856185, 1661.1369444295103, -599.1161583800505, 14414.774109694257, -2031.1253703982081, -119790.84399829437, -15488.06017494919, 0.18, 0.996, -0.20400000000000001, 192.0, 0.0, 0.0, 0.0, 0.0, 0.0, 0.0, 0.0, 0.0, 0.0, 1.696023605089047E9, 0.0, 2023-09-29 16:40:05.089
168.0, 27953.96333384077, 14164.859254939469, 11646.82348332685, -12178.526780429696, 10346.644860106095, -11211.567963548656, -187500.02235174447, 34119.08854473693, -26647.302704727976, 23084.032307151832, 1460.5970931764953, -851.6014637471991, 14422.150185364508, -2030.3654110867276, -119950.63661940536, -15449.458712274876, 0.186, 0.992, -0.20600000000000002, 192.0, 2.5, 104.0, 15.5, 0.0, 124.5, 72.0, 0.0, 0.0, 0.0, 1.696023605089063E9, 0.0, 2023-09-29 16:40:05.089
170.0, 28422.500601112915, 14716.43325286308, 11546.598261189254, -12285.256360203786, 10287.233923343889, -11311.681426963976, -187500.02235174447, 34549.47138422386, -26642.094748269887, 23393.58161611338, 1644.1272668990216, -623.9712982143519, 14410.393167781016, -2034.254614621951, -119843.90703963126, -15494.564532585686, 0.186, 0.992, -0.20600000000000002, 192.0, 0.0, 0.0, 0.0, 0.0, 0.0, 0.0, 0.0, 0.0, 0.0, 1.696023605089069E9, 0.0, 2023-09-29 16:40:05.089
172.0, 27972.269412549667, 14149.280089054118, 11664.570768424364, -12167.619129135506, 10334.99960124488, -11209.668065269956, -187500.02235174447, 34115.69107957972, -26663.664181669257, 23132.133261219653, 1463.1898955333108, -835.9105391395735, 14407.599199724104, -2045.7881147608896, -119908.79415378501, -15467.988308428325, 0.186, 0.992, -0.20600000000000002, 192.0, 0.0, 0.0, 0.0, 0.0, 0.0, 0.0, 0.0, 0.0, 0.0, 1.696023605089074E9, 0.0, 2023-09-29 16:40:05.089
174.0, 28457.078749785276, 14718.53431684188, 11563.38442127519, -12273.901674020492, 10309.56331605474, -11304.484165249369, -187500.02235174447, 34545.89510511102, -26625.040367250487, 23344.273667844973, 1636.0359354062005, -647.5747403591562, 14437.7069995054, -2004.2138700740184, -119931.10119475142, -15470.91638695197, 0.186, 0.992, -0.20600000000000002, 192.0, 0.0, 0.0, 0.0, 0.0, 0.0, 0.0, 0.0, 0.0, 0.0, 1.696023605089077E9, 0.0, 2023-09-29 16:40:05.089
176.0, 28002.3101570976, 14158.868987425447, 11653.663117130174, -12177.208027506833, 10306.881106720104, -11222.78853926522, -187500.02235174447, 34122.93304478324, -26678.595146965403, 23181.39650599915, 1489.8108231795816, -802.5170329233448, 14395.596312951604, -2060.0708794678308, -119885.83891222942, -15486.54025632623, 0.186, 0.992, -0.20600000000000002, 192.0, 0.0, 0.0, 0.0, 0.0, 0.0, 0.0, 0.0, 0.0, 0.0, 1.69602360508908E9, 0.0, 2023-09-29 16:40:05.089
178.0, 28477.44118898406, 14712.856973750231, 11541.926746598096, -12289.950226539402, 10295.437013558987, -11319.884517179074, -187500.02235174447, 34541.871791109064, -26631.388262675795, 23275.251480966985, 1610.823167660614, -688.7466536458319, 14425.726464477357, -2023.9504604280546, -119982.1749308318, -15482.338128368632, 0.18, 0.99, -0.202, 192.0, 2.5, 80.0, 15.0, 120.0, 124.5, 88.0, 0.0, 0.0, 0.0, 1.696023605089084E9, 0.0, 2023-09-29 16:40:05.089
180.0, 28041.55982036112, 14190.250836640696, 11663.11790503477, -12160.846550565548, 10298.678016505006, -11215.725388017343, -187500.02235174447, 34135.45002167821, -26683.33371678993, 23244.11550094074, 1508.9439164333246, -772.2751226753144, 14375.278577241728, -2067.066975482342, -119845.65047569877, -15504.421651890476, 0.18, 0.99, -0.202, 192.0, 0.0, 0.0, 0.0, 0.0, 0.0, 0.0, 0.0, 0.0, 0.0, 1.696023605149306E9, 0.0, 2023-09-29 16:40:05.149
182.0, 28474.8707383717, 14682.704470480023, 11565.060802109338, -12273.834618787125, 10326.148310440578, -11302.919543137497, -187500.02235174447, 34510.8475698051, -26607.36013738634, 23225.16122164264, 1597.9932663432678, -713.6241452245886, 14447.497063576826, -2000.2129078165185, -120065.70339986128, -15457.482988534332, 0.18, 0.99, -0.202, 192.0, 0.0, 0.0, 0.0, 0.0, 0.0, 0.0, 0.0, 0.0, 0.0, 1.696023605149318E9, 0.0, 2023-09-29 16:40:05.149
184.0, 28095.539283220685, 14229.411092926395, 11678.764126153485, -12150.74356207175, 10301.248467117366, -11209.93628620342, -187500.02235174447, 34164.06025458101, -26685.792408680012, 23310.500181973002, 1543.2985476611314, -725.1352936190717, 14388.533161703726, -2056.5616555883475, -119851.17135657923, -15500.06306172169, 0.18, 0.99, -0.202, 192.0, 0.0, 0.0, 0.0, 0.0, 0.0, 0.0, 0.0, 0.0, 0.0, 1.696023605149321E9, 0.0, 2023-09-29 16:40:05.149
186.0, 28454.195374750543, 14628.99322855392, 11576.460191781545, -12264.648051815993, 10337.637107090606, -11290.76019415381, -187500.02235174447, 34468.51336580674, -26603.247416406564, 23168.1195697927, 1576.736757366271, -745.0506979287503, 14461.24338641684, -1990.2440297894514, -120146.68377002285, -15445.055418617181, 0.18, 0.99, -0.202, 192.0, 0.0, 0.0, 0.0, 0.0, 0.0, 0.0, 0.0, 0.0, 0.0, 1.696023605149325E9, 0.0, 2023-09-29 16:40:05.149
188.0, 28159.442920618407, 14286.609206987527, 11647.963422294071, -12181.566617675617, 10271.788867925272, -11240.871100529565, -187500.02235174447, 34215.96100520623, -26691.849731427403, 23360.65749653071, 1574.4568794318295, -689.8642408685972, 14379.078373799131, -2072.02906275142, -119846.25397279907, -15520.783128831761, 0.182, 0.992, -0.198, 192.0, 2.5, 88.0, 15.5, 0.0, 124.5, 104.0, 0.0, 0.0, 0.0, 1.696023605149328E9, 0.0, 2023-09-29 16:40:05.149
190.0, 28422.075917968265, 14568.64351852459, 11582.00342440646, -12257.249624401287, 10339.224080946933, -11286.625121429577, -187500.02235174447, 34423.295786773655, -26614.624454334316, 23103.880656228146, 1539.6775650593718, -791.7658438403421, 14444.636040286547, -2001.7551781839345, -120185.91108154191, -15460.00873565778, 0.182, 0.992, -0.198, 192.0, 0.0, 0.0, 0.0, 0.0, 0.0, 0.0, 0.0, 0.0, 0.0, 1.696023605149331E9, 0.0, 2023-09-29 16:40:05.149
192.0, 28228.800383663227, 14351.228100207818, 11652.25495722949, -12174.615225150017, 10270.715984191416, -11238.144187706017, -187500.02235174447, 34257.15527023736, -26685.32302204645, 23399.68364234968, 1598.082673321089, -654.5037811403014, 14380.866513355555, -2068.2963214273836, -119847.39391176628, -15523.666503866496, 0.182, 0.992, -0.198, 192.0, 0.0, 0.0, 0.0, 0.0, 0.0, 0.0, 0.0, 0.0, 0.0, 1.696023605149334E9, 0.0, 2023-09-29 16:40:05.149
194.0, 28250.995665907347, 14440.255098373307, 11634.105340731781, -12189.635597423983, 10301.56139153974, -11223.704960787889, -187500.02235174447, 34302.23873880372, -26601.973366972612, 23052.292830025297, 1516.9234892038692, -817.9173848530513, 14458.024735215276, -1994.4908612359598, -120252.8322044411, -15435.332409779121, 0.182, 0.992, -0.198, 192.0, 0.0, 0.0, 0.0, 0.0, 0.0, 0.0, 0.0, 0.0, 0.0, 1.696023605149337E9, 0.0, 2023-09-29 16:40:05.149
196.0, 27808.74405011464, 14175.52103704465, 11754.4247811347, -12066.812761642072, 10279.36610929562, -11132.733360854789, -187500.02235174447, 34072.17223312524, -26636.41740517824, 23387.881921277276, 1539.409344125908, -636.0188884757624, 14401.51952523226, -1967.3334917227617, -120423.6218838241, -15427.91163061996, 0.182, 0.992, -0.198, 192.0, 0.0, 0.0, 0.0, 0.0, 0.0, 0.0, 0.0, 0.0, 0.0, 1.696023605209419E9, 0.0, 2023-09-29 16:40:05.209
198.0, 27876.29102185858, 14159.114856614455, 11685.581408212354, -12159.147817986945, 10413.923610916569, -11197.396957563991, -187500.02235174447, 34085.426817587235, -26522.557618922907, 23009.73510858239, 1510.1732623783664, -803.3663992126465, 14534.713570441434, -1905.9332497040332, -121125.28784576511, -15346.84185348056, 0.184, 0.994, -0.2, 192.0, 2.5, 96.0, 15.5, 8.0, 124.5, 96.0, 0.0, 0.0, 0.0, 1.696023605209428E9, 0.0, 2023-09-29 16:40:05.209
200.0, 27963.216956045268, 14239.9611163093, 11683.592102955832, -12144.105093968523, 10290.810202456738, -11205.488289056813, -187500.02235174447, 34158.24880102263, -26632.79642257648, 23461.39680879078, 1672.3575201460744, -566.5496667086682, 14433.124891892063, -2011.0088003884318, -120711.15472449717, -15478.046593433213, 0.184, 0.994, -0.2, 192.0, 0.0, 0.0, 0.0, 0.0, 0.0, 0.0, 0.0, 0.0, 0.0, 1.696023605209432E9, 0.0, 2023-09-29 16:40:05.209
202.0, 27889.52325457612, 14094.585370371982, 11657.574672409854, -12179.21968450781, 10384.396956491108, -11213.914896716464, -187500.02235174447, 34063.36564580985, -26576.44767480465, 23009.22101845992, 1493.4988610147072, -830.3002512812915, 14489.071308263698, -1947.9321775355552, -121153.6969129678, -15385.398612665966, 0.184, 0.994, -0.2, 192.0, 0.0, 0.0, 0.0, 0.0, 0.0, 0.0, 0.0, 0.0, 0.0, 1.696023605209435E9, 0.0, 2023-09-29 16:40:05.209
204.0, 28096.388649509987, 14327.669361551925, 11638.68744834512, -12182.952425831847, 10268.525513234796, -11245.766132565277, -187500.02235174447, 34246.06880498753, -26660.914917101258, 23472.818550207445, 1669.6306073225269, -565.3203207636262, 14400.156068820486, -2036.422733834116, -120738.87088762176, -15506.187439702446, 0.184, 0.994, -0.2, 192.0, 0.0, 0.0, 0.0, 0.0, 0.0, 0.0, 0.0, 0.0, 0.0, 1.696023605209438E9, 0.0, 2023-09-29 16:40:05.209
206.0, 27891.84783599947, 14043.735151736159, 11657.507617176489, -12180.896065341958, 10358.692450367505, -11220.709827030878, -187500.02235174447, 34030.39682273827, -26609.416497876227, 23002.426088145505, 1463.122840299945, -853.8589899371851, 14453.174406668473, -1982.8456023747449, -121133.53563946912, -15416.802813625673, 0.184, 0.994, -0.2, 192.0, 0.0, 0.0, 0.0, 0.0, 0.0, 0.0, 0.0, 0.0, 0.0, 1.696023605209441E9, 0.0, 2023-09-29 16:40:05.209
208.0, 28201.24068274983, 14403.397071766505, 11612.20063116558, -12219.475176271819, 10256.924957862491, -11273.974034067875, -187500.02235174447, 34315.62743373244, -26665.385265992318, 23456.367666288337, 1671.4187468789514, -573.4116522564474, 14392.489420472315, -2045.6540042941576, -120780.55689103091, -15522.392454432542, 0.188, 0.994, -0.20600000000000002, 192.0, 2.5, 112.0, 15.5, 8.0, 124.5, 72.0, 0.0, 0.0, 0.0, 1.696023605209444E9, 0.0, 2023-09-29 16:40:05.209
210.0, 27880.13552190489, 13996.081232557444, 11668.92935859315, -12175.241073994765, 10348.589461873706, -11218.899335729997, -187500.02235174447, 34011.040212039974, -26631.790594075992, 23007.678748092505, 1448.8624273374592, -870.1981151340145, 14429.392150568028, -2005.0632363633201, -121106.333566467, -15439.713351692362, 0.188, 0.994, -0.20600000000000002, 192.0, 0.0, 0.0, 0.0, 0.0, 0.0, 0.0, 0.0, 0.0, 0.0, 1.69602360526989E9, 0.0, 2023-09-29 16:40:05.269
212.0, 28284.411523868028, 14460.23755791635, 11611.06069219836, -12229.555813021161, 10274.806353426738, -11282.244179516338, -187500.02235174447, 34364.98008548976, -26661.429007223727, 23441.21318354764, 1665.7190520428483, -586.8674024185423, 14401.497173487804, -2041.4071728476492, -120842.80649933893, -15516.759814829806, 0.188, 0.994, -0.20600000000000002, 192.0, 0.0, 0.0, 0.0, 0.0, 0.0, 0.0, 0.0, 0.0, 0.0, 1.696023605269902E9, 0.0, 2023-09-29 16:40:05.269
214.0, 27879.308507360045, 13964.498217642096, 11704.938018910649, -12136.416093875898, 10358.401877689586, -11190.266751082749, -187500.02235174447, 33973.19870867714, -26635.74685284458, 23045.27438226633, 1456.1714477743444, -852.607292247688, 14432.521394791771, -2006.1808235860854, -121101.37147919793, -15444.407218027976, 0.188, 0.994, -0.20600000000000002, 192.0, 0.0, 0.0, 0.0, 0.0, 0.0, 0.0, 0.0, 0.0, 0.0, 1.696023605269906E9, 0.0, 2023-09-29 16:40:05.269
216.0, 28349.879783377623, 14506.01393056082, 11609.652532297676, -12231.70158048887, 10289.647911745062, -11283.764098139298, -187500.02235174447, 34389.3658386905, -26626.850858551366, 23420.560171670935, 1689.4119011654736, -576.5632482246457, 14431.04617965772, -2003.006875873432, -120956.57687861644, -15489.960073227892, 0.188, 0.994, -0.20600000000000002, 192.0, 0.0, 0.0, 0.0, 0.0, 0.0, 0.0, 0.0, 0.0, 0.0, 1.696023605269909E9, 0.0, 2023-09-29 16:40:05.269
218.0, 27885.678754529807, 13947.756761045071, 11700.311207808401, -12143.658059079416, 10332.719723310438, -11197.486364541814, -187500.02235174447, 33973.712798799614, -26651.102501285375, 23090.983699677432, 1475.0139683501684, -823.862948878163, 14411.957789892887, -2019.3907045591718, -121081.52313012161, -15458.980555412836, 0.186, 0.992, -0.2, 192.0, 2.5, 104.0, 15.5, 0.0, 124.5, 96.0, 0.0, 0.0, 0.0, 1.696023605269912E9, 0.0, 2023-09-29 16:40:05.269
220.0, 28392.079876909243, 14528.522137227314, 11601.717663016041, -12243.99503993929, 10299.862658961138, -11290.961359853907, -187500.02235174447, 34419.607748938535, -26635.433928422204, 23358.645839529734, 1659.9970054622897, -613.0636469201621, 14428.09574938962, -2006.9854863864764, -121024.39207129384, -15489.982424972348, 0.186, 0.992, -0.2, 192.0, 0.0, 0.0, 0.0, 0.0, 0.0, 0.0, 0.0, 0.0, 0.0, 1.696023605269916E9, 0.0, 2023-09-29 16:40:05.269
222.0, 27900.609719825952, 13947.62265057834, 11711.397673058233, -12136.661963064906, 10317.297019636277, -11197.888695942009, -187500.02235174447, 33977.80316803493, -26670.816739894955, 23141.38688342415, 1478.7243579297494, -806.4732916919342, 14399.865496142567, -2034.6345942776913, -121048.86723147241, -15475.476142820853, 0.186, 0.992, -0.2, 192.0, 0.0, 0.0, 0.0, 0.0, 0.0, 0.0, 0.0, 0.0, 0.0, 1.696023605269919E9, 0.0, 2023-09-29 16:40:05.269
224.0, 28419.661929567093, 14534.02066636332, 11597.649645525176, -12253.71804877735, 10305.383539841598, -11289.441441230947, -187500.02235174447, 34433.89051364548, -26628.147259729776, 23302.386498735726, 1638.4499238073736, -647.9994235038071, 14438.355200094606, -2010.3158963103172, -121109.12753452391, -15481.68992777943, 0.186, 0.992, -0.2, 192.0, 0.0, 0.0, 0.0, 0.0, 0.0, 0.0, 0.0, 0.0, 0.0, 1.696023605269922E9, 0.0, 2023-09-29 16:40:05.269
226.0, 27942.027502301637, 13977.797505593004, 11730.530766311977, -12111.896230208426, 10316.76057776935, -11166.395088004481, -187500.02235174447, 34002.34538344686, -26667.70984741567, 23202.742421953968, 1509.502710044707, -767.5365528507892, 14402.748871177302, -2024.0398674058758, -121025.73317596117, -15470.268186362766, 0.186, 0.992, -0.2, 192.0, 0.0, 0.0, 0.0, 0.0, 0.0, 0.0, 0.0, 0.0, 0.0, 1.696023605329249E9, 0.0, 2023-09-29 16:40:05.329
228.0, 28432.33536867325, 14525.25878253684, 11603.125822916725, -12249.47121733084, 10317.65464754756, -11279.919598092985, -187500.02235174447, 34436.75153693576, -26606.108439696844, 23259.672315081636, 1633.8454644495803, -665.7467086013208, 14452.414447356994, -1981.4821459629711, -121189.32559362956, -15452.364439054065, 0.188, 0.996, -0.196, 192.0, 2.5, 112.0, 15.5, 16.0, 124.5, 112.0, 0.0, 0.0, 0.0, 1.69602360532926E9, 0.0, 2023-09-29 16:40:05.329
230.0, 27990.59784300302, 14022.031607870056, 11702.233457831557, -12141.668753822894, 10268.570216723707, -11201.152050632483, -187500.02235174447, 34055.76605269504, -26685.56889123546, 23260.655791837667, 1537.7106115473048, -731.416133811013, 14381.335899989117, -2044.8940449826773, -120984.1589312743, -15493.201076173911, 0.188, 0.996, -0.196, 192.0, 0.0, 0.0, 0.0, 0.0, 0.0, 0.0, 0.0, 0.0, 0.0, 1.696023605329263E9, 0.0, 2023-09-29 16:40:05.329
232.0, 28419.77368828937, 14491.39588968705, 11587.05491865336, -12271.063002474666, 10306.031740430803, -11308.216906573405, -187500.02235174447, 34425.64271994147, -26636.327998200417, 23176.903805363632, 1579.4413184453629, -728.0410203982616, 14422.351351064606, -2009.1312538541858, -121218.3158061881, -15481.332299868143, 0.188, 0.996, -0.196, 192.0, 0.0, 0.0, 0.0, 0.0, 0.0, 0.0, 0.0, 0.0, 0.0, 1.696023605329267E9, 0.0, 2023-09-29 16:40:05.329
234.0, 28048.667675097906, 14072.59125382796, 11722.998228430537, -12128.369465871987, 10281.064841874224, -11199.02863490923, -187500.02235174447, 34087.7961024995, -26700.589263509424, 23306.834495882333, 1547.053640729623, -712.6853719574657, 14374.473914441338, -2057.1428009441856, -120941.48945110911, -15521.45368116542, 0.188, 0.996, -0.196, 192.0, 0.0, 0.0, 0.0, 0.0, 0.0, 0.0, 0.0, 0.0, 0.0, 1.69602360532927E9, 0.0, 2023-09-29 16:40:05.329
236.0, 28388.257728607387, 14436.90233670501, 11624.87407027174, -12243.212728883354, 10346.935432784014, -11277.483257947357, -187500.02235174447, 34370.92564951487, -26602.398050117263, 23130.523935618872, 1570.1429927519553, -751.6444625430659, 14462.629194573068, -1978.9787505839768, -121307.58867354259, -15448.855215174583, 0.188, 0.996, -0.196, 192.0, 0.0, 0.0, 0.0, 0.0, 0.0, 0.0, 0.0, 0.0, 0.0, 1.696023605329276E9, 0.0, 2023-09-29 16:40:05.329
238.0, 28118.695690476383, 14140.69701918328, 11705.496812522033, -12144.060390479612, 10263.071687587702, -11214.943076961408, -187500.02235174447, 34144.25660899361, -26692.453228527695, 23375.09672344884, 1592.8076616296366, -663.3327202001477, 14375.502094686282, -2057.545132344381, -120949.73724481312, -15524.873498067082, 0.188, 0.996, -0.20600000000000002, 192.0, 2.5, 112.0, 15.5, 16.0, 124.5, 72.0, 0.0, 0.0, 0.0, 1.696023605329279E9, 0.0, 2023-09-29 16:40:05.329
240.0, 28349.142175810597, 14376.88790284251, 11636.228756455035, -12227.834728698102, 10346.153121728077, -11270.75538286631, -187500.02235174447, 34326.35627107099, -26603.649747806758, 23078.8467024382, 1541.599815082528, -787.7425298383868, 14452.325040379172, -1981.39273898515, -121359.55647940117, -15440.518014492753, 0.188, 0.996, -0.20600000000000002, 192.0, 0.0, 0.0, 0.0, 0.0, 0.0, 0.0, 0.0, 0.0, 0.0, 1.696023605388964E9, 0.0, 2023-09-29 16:40:05.388
242.0, 28197.753810614802, 14220.58215386655, 11715.912725438206, -12136.840777020549, 10264.993937610858, -11207.991684435807, -187500.02235174447, 34192.894004928356, -26690.75449594909, 23419.755508870545, 1623.2507375777648, -629.1121994390726, 14376.485571442316, -2056.382841632705, -120956.68863733872, -15523.197117232934, 0.188, 0.996, -0.20600000000000002, 192.0, 0.0, 0.0, 0.0, 0.0, 0.0, 0.0, 0.0, 0.0, 0.0, 1.696023605388975E9, 0.0, 2023-09-29 16:40:05.388
244.0, 28296.280300173796, 14305.83170721909, 11645.124750748248, -12220.995094894779, 10351.875168308636, -11259.981842038851, -187500.02235174447, 34273.11441577845, -26605.16966642972, 23048.314219512253, 1518.5998700380171, -812.061227805761, 14457.711810792902, -1970.4403842020495, -121403.58941597813, -15425.430586985422, 0.188, 0.996, -0.20600000000000002, 192.0, 0.0, 0.0, 0.0, 0.0, 0.0, 0.0, 0.0, 0.0, 0.0, 1.696023605388979E9, 0.0, 2023-09-29 16:40:05.388
246.0, 28272.40863709553, 14297.405099559439, 11690.431736759156, -12160.891254054459, 10249.012440325314, -11227.236536411827, -187500.02235174447, 34264.30782846306, -26712.30157760401, 23449.416273762738, 1628.0340108912005, -616.1705393994498, 14356.436056665905, -2068.609245849758, -120953.80526230398, -15550.354486746131, 0.188, 0.996, -0.20600000000000002, 192.0, 0.0, 0.0, 0.0, 0.0, 0.0, 0.0, 0.0, 0.0, 0.0, 1.696023605388982E9, 0.0, 2023-09-29 16:40:05.388
248.0, 28243.26196232581, 14232.160357494398, 11673.176190039658, -12193.994187592769, 10360.011203290369, -11230.142263191017, -187500.02235174447, 34213.41290633832, -26604.18618967369, 23023.16850700003, 1491.286038313632, -841.2526060643919, 14460.885758505556, -1965.0536137883205, -121425.89645694452, -15424.536517207209, 0.188, 0.99, -0.202, 192.0, 2.5, 112.0, 15.0, 120.0, 124.5, 88.0, 0.0, 0.0, 0.0, 1.696023605388986E9, 0.0, 2023-09-29 16:40:05.388
250.0, 28347.778719398826, 14372.931644073922, 11655.630070642243, -12202.286684785688, 10235.444931440941, -11265.547426408224, -187500.02235174447, 34337.77801248765, -26691.067420371466, 23476.528939787026, 1663.6403398085047, -584.0510826171735, 14379.32424298814, -2050.4596293520485, -121006.89065538534, -15539.424483707488, 0.188, 0.99, -0.202, 192.0, 0.0, 0.0, 0.0, 0.0, 0.0, 0.0, 0.0, 0.0, 0.0, 1.696023605388989E9, 0.0, 2023-09-29 16:40:05.388
252.0, 28193.417572190476, 14166.51328402916, 11665.800114369407, -12203.851306897559, 10333.010295988357, -11243.195681952917, -187500.02235174447, 34183.036885623565, -26642.474727925626, 22995.854675275645, 1458.607787919973, -872.6568070240984, 14417.389263795527, -2008.8853846651775, -121393.24055829532, -15465.619023516063, 0.188, 0.99, -0.202, 192.0, 0.0, 0.0, 0.0, 0.0, 0.0, 0.0, 0.0, 0.0, 0.0, 1.696023605388992E9, 0.0, 2023-09-29 16:40:05.388
254.0, 28424.758127302903, 14450.358086867105, 11646.01882052646, -12213.239039568787, 10235.243765740845, -11270.889493333041, -187500.02235174447, 34398.083019028076, -26690.687440715727, 23467.92351817173, 1662.075717696633, -587.9849896413076, 14368.483646927316, -2064.809449292356, -121016.59131247895, -15547.98520183387, 0.188, 0.99, -0.202, 192.0, 0.0, 0.0, 0.0, 0.0, 0.0, 0.0, 0.0, 0.0, 0.0, 1.696023605388995E9, 0.0, 2023-09-29 16:40:05.388
0.0, 28153.542060082207, 14109.963370557234, 11692.912780393694, -12174.101135027544, 10332.496205865886, -11225.068417199662, -187500.02235174447, 34137.014643790084, -26636.0374255225, 22997.419297387518, 1457.8478286084926, -870.9133709565843, 14425.771167966268, -2007.8348526757782, -121389.53016871575, -15451.515072764763, 0.188, 0.99, -0.202, 192.0, 0.0, 0.0, 0.0, 0.0, 0.0, 0.0, 0.0, 0.0, 0.0, 1.696023605449139E9, 0.0, 2023-09-29 16:40:05.449
2.0, 28486.40423851064, 14510.908962596532, 11655.920643320162, -12205.348873776064, 10256.74614390685, -11271.716507877887, -187500.02235174447, 34436.77388868021, -26671.353181761886, 23452.92549764222, 1683.8016133071917, -577.3902627694921, 14397.51856297476, -2039.9543094580545, -121076.4269323858, -15528.941515557948, 0.192, 0.988, -0.20600000000000002, 192.0, 3.0, 0.0, 15.0, 112.0, 124.5, 72.0, 0.0, 0.0, 0.0, 1.696023605449147E9, 0.0, 2023-09-29 16:40:05.449
4.0, 28112.66071947345, 14056.654460031326, 11705.474460777577, -12166.970928546301, 10330.037513975802, -11222.855594498587, -187500.02235174447, 34093.4957973356, -26644.307570970963, 23022.252085477365, 1464.9333316008249, -861.3915278186236, 14428.207508111896, -2009.6006404877473, -121368.78774986122, -15453.124398365546, 0.192, 0.988, -0.20600000000000002, 192.0, 0.0, 0.0, 0.0, 0.0, 0.0, 0.0, 0.0, 0.0, 0.0, 1.696023605449151E9, 0.0, 2023-09-29 16:40:05.449
6.0, 28534.818117000836, 14554.673678240024, 11629.63499184072, -12234.227327612321, 10261.596472453652, -11295.454060489425, -187500.02235174447, 34471.10616816356, -26668.380399749327, 23414.324034967904, 1671.821078279147, -596.8809839345198, 14399.70903393138, -2042.0553734368532, -121137.60365695998, -15530.59554464764, 0.192, 0.988, -0.20600000000000002, 192.0, 0.0, 0.0, 0.0, 0.0, 0.0, 0.0, 0.0, 0.0, 0.0, 1.696023605449154E9, 0.0, 2023-09-29 16:40:05.449
8.0, 28092.74531516377, 14029.742959707137, 11708.335484067857, -12154.163378973411, 10321.834423760703, -11214.98778045032, -187500.02235174447, 34070.69701799119, -26656.84689961039, 23051.93520211401, 1456.3502617299869, -855.0212806488611, 14406.213391567873, -2027.0797046517976, -121328.53225809721, -15471.58693928563, 0.192, 0.988, -0.20600000000000002, 192.0, 0.0, 0.0, 0.0, 0.0, 0.0, 0.0, 0.0, 0.0, 0.0, 1.696023605449157E9, 0.0, 2023-09-29 16:40:05.449
10.0, 28574.023076775444, 14589.274178656839, 11613.675846299631, -12246.766656251748, 10272.437068514475, -11300.818479158697, -187500.02235174447, 34500.16343595546, -26653.27062049754, 23387.18901719916, 1660.75696477377, -610.4261410744359, 14406.414557267972, -2028.4431610635713, -121195.85230301051, -15516.73746308535, 0.192, 0.988, -0.20600000000000002, 192.0, 0.0, 0.0, 0.0, 0.0, 0.0, 0.0, 0.0, 0.0, 0.0, 1.69602360544916E9, 0.0, 2023-09-29 16:40:05.449
12.0, 28081.23416676929, 14014.789642666537, 11717.253830105523, -12144.038038735156, 10318.012275458846, -11207.321132102148, -187500.02235174447, 34058.13533760731, -26656.37751297683, 23103.992414950422, 1467.2579130241768, -831.3507832706908, 14403.553533977692, -2032.511178554437, -121293.26120534673, -15469.284709606733, 0.186, 0.99, -0.20400000000000001, 192.0, 2.5, 104.0, 15.0, 120.0, 124.5, 80.0, 0.0, 0.0, 0.0, 1.696023605449164E9, 0.0, 2023-09-29 16:40:05.449
14.0, 28587.009440303977, 14600.31594041776, 11599.795412992886, -12265.206845427376, 10288.88795243358, -11309.848583918641, -187500.02235174447, 34505.863130791564, -26625.532105628507, 23337.746958464024, 1637.8687784515357, -638.3211181546591, 14415.846993428111, -2017.9378411695768, -121277.25735631674, -15490.697680794918, 0.186, 0.99, -0.20400000000000001, 192.0, 0.0, 0.0, 0.0, 0.0, 0.0, 0.0, 0.0, 0.0, 0.0, 1.696023605509648E9, 0.0, 2023-09-29 16:40:05.509
16.0, 28086.777399394203, 14024.289134060042, 11707.709635223107, -12152.397591161442, 10297.493374048874, -11209.98098969233, -187500.02235174447, 34068.21597435665, -26670.1461875613, 23156.429607442573, 1470.4989159701963, -808.2614312483587, 14377.826676109635, -2046.995108961476, -121243.19329776685, -15474.716183509372, 0.186, 0.99, -0.20400000000000001, 192.0, 0.0, 0.0, 0.0, 0.0, 0.0, 0.0, 0.0, 0.0, 0.0, 1.696023605509679E9, 0.0, 2023-09-29 16:40:05.509
18.0, 28589.646946149704, 14595.309149659772, 11582.830438951307, -12284.250531703297, 10289.334987322687, -11324.33251432568, -187500.02235174447, 34510.288776193716, -26615.630282834805, 23266.623707607236, 1608.7221036818153, -678.8671825965861, 14419.959714407887, -2015.5238527684037, -121328.39814763048, -15464.166160126468, 0.186, 0.99, -0.20400000000000001, 192.0, 0.0, 0.0, 0.0, 0.0, 0.0, 0.0, 0.0, 0.0, 0.0, 1.696023605509683E9, 0.0, 2023-09-29 16:40:05.509
20.0, 28115.298225319177, 14052.005297184623, 11690.118812336781, -12168.669661124904, 10271.051260358247, -11230.991629480319, -187500.02235174447, 34096.78150377053, -26674.884757385822, 23205.916369666622, 1485.0722533550565, -783.8086228142528, 14361.107571257064, -2069.749184816979, -121171.1983288763, -15481.377003357054, 0.186, 0.99, -0.20400000000000001, 192.0, 0.0, 0.0, 0.0, 0.0, 0.0, 0.0, 0.0, 0.0, 0.0, 1.696023605509686E9, 0.0, 2023-09-29 16:40:05.509
22.0, 28576.951155299088, 14569.604643536168, 11578.76242146044, -12294.420575430462, 10305.651760775061, -11322.700836980443, -187500.02235174447, 34495.42486613093, -26597.21244540363, 23198.652052718648, 1573.7416236092597, -726.0070116528287, 14417.881002173544, -2020.1953673595629, -121366.08318878213, -15444.697790705895, 0.182, 1.0, -0.20400000000000001, 192.0, 2.5, 88.0, 15.5, 32.0, 124.5, 80.0, 0.0, 0.0, 0.0, 1.69602360550969E9, 0.0, 2023-09-29 16:40:05.509
24.0, 28157.341856639607, 14098.184001229287, 11694.142126338736, -12165.808637834625, 10270.626577213596, -11223.012056709775, -187500.02235174447, 34124.27414945056, -26669.0956555719, 23263.293297683394, 1507.7592739771933, -752.0691456877167, 14351.898652541478, -2077.907571543166, -121116.30244449407, -15483.00868070229, 0.182, 1.0, -0.20400000000000001, 192.0, 0.0, 0.0, 0.0, 0.0, 0.0, 0.0, 0.0, 0.0, 0.0, 1.696023605509693E9, 0.0, 2023-09-29 16:40:05.509
26.0, 28544.786995027902, 14525.951686614953, 11604.466927584044, -12268.112572206566, 10344.789665316304, -11292.257761032315, -187500.02235174447, 34440.03724337069, -26566.277631077486, 23149.612325383703, 1553.4238878993856, -752.8291049991972, 14444.613688542091, -1987.1371373101638, -121430.27739885777, -15401.558923907152, 0.182, 1.0, -0.20400000000000001, 192.0, 0.0, 0.0, 0.0, 0.0, 0.0, 0.0, 0.0, 0.0, 0.0, 1.696023605509696E9, 0.0, 2023-09-29 16:40:05.509
28.0, 28208.10266829761, 14153.549272245084, 11681.64750118822, -12178.258559496231, 10269.821914413204, -11229.784635279731, -187500.02235174447, 34164.10495806992, -26651.638943152302, 23330.0579583714, 1544.9302250063688, -702.2918107857479, 14360.593481134592, -2063.4906963694925, -121108.12170602343, -15464.032049659736, 0.182, 1.0, -0.20400000000000001, 192.0, 0.0, 0.0, 0.0, 0.0, 0.0, 0.0, 0.0, 0.0, 0.0, 1.6960236055097E9, 0.0, 2023-09-29 16:40:05.509
30.0, 28499.54706425036, 14467.121895208586, 11577.57777900431, -12296.611046387083, 10338.218252446444, -11312.19551708645, -187500.02235174447, 34413.90805410243, -26572.267898591508, 23092.213045622477, 1517.2364136262433, -798.381960199113, 14432.230822113852, -1996.5695734703033, -121457.25595441532, -15398.608493639053, 0.182, 1.0, -0.20400000000000001, 192.0, 0.0, 0.0, 0.0, 0.0, 0.0, 0.0, 0.0, 0.0, 0.0, 1.696023605569902E9, 0.0, 2023-09-29 16:40:05.569
32.0, 28268.988820193867, 14222.593810867527, 11662.000317812004, -12192.004882336245, 10265.619786455607, -11236.780731294242, -187500.02235174447, 34211.84828422646, -26664.088864813908, 23360.277516874972, 1553.088611732556, -690.355979246614, 14347.60711760606, -2077.907571543166, -121056.22095539821, -15487.009642959792, 0.186, 0.992, -0.20800000000000002, 192.0, 2.5, 104.0, 15.5, 0.0, 124.5, 64.0, 0.0, 0.0, 0.0, 1.696023605569911E9, 0.0, 2023-09-29 16:40:05.569
34.0, 28445.411139179607, 14398.390281008516, 11598.141383903192, -12269.163104195966, 10367.543741171807, -11284.457002217414, -187500.02235174447, 34341.019015433674, -26543.814127899903, 23048.157757301065, 1493.7223784592604, -832.4013152600903, 14456.370706125583, -1975.804802871323, -121501.24418750337, -15377.46374338433, 0.186, 0.992, -0.20800000000000002, 192.0, 0.0, 0.0, 0.0, 0.0, 0.0, 0.0, 0.0, 0.0, 0.0, 1.696023605569915E9, 0.0, 2023-09-29 16:40:05.569
36.0, 28342.593114685194, 14302.523649039704, 11638.48628264502, -12211.495603501273, 10258.780152652282, -11258.216054226883, -187500.02235174447, 34266.7888720976, -26647.07918728342, 23413.54172391197, 1590.9301150953909, -649.7875630602316, 14360.213501478853, -2079.4721936550372, -121063.48527234618, -15488.507209838297, 0.186, 0.992, -0.20800000000000002, 192.0, 0.0, 0.0, 0.0, 0.0, 0.0, 0.0, 0.0, 0.0, 0.0, 1.696023605569918E9, 0.0, 2023-09-29 16:40:05.569
38.0, 28393.06335366528, 14330.888012753489, 11598.409604836655, -12255.774409267236, 10363.00633704738, -11279.986653326352, -187500.02235174447, 34285.07259906204, -26538.047377830433, 23009.60099811566, 1470.8341921370259, -856.9435306720175, 14453.397924113027, -1976.743576138446, -121516.935112111, -15370.959385747838, 0.186, 0.992, -0.20800000000000002, 192.0, 0.0, 0.0, 0.0, 0.0, 0.0, 0.0, 0.0, 0.0, 0.0, 1.696023605569921E9, 0.0, 2023-09-29 16:40:05.569
40.0, 28414.99041497593, 14379.815981366157, 11635.804073310384, -12199.023330095211, 10266.960891122924, -11253.70100184691, -187500.02235174447, 34315.56037849908, -26630.337730686395, 23440.20735504715, 1614.242984562276, -627.5252255827457, 14359.498245656283, -2063.26717892494, -121068.64852531535, -15483.679233035951, 0.186, 0.992, -0.20800000000000002, 192.0, 0.0, 0.0, 0.0, 0.0, 0.0, 0.0, 0.0, 0.0, 0.0, 1.696023605569925E9, 0.0, 2023-09-29 16:40:05.569
42.0, 28332.51247793585, 14257.618994428993, 11631.132558719226, -12215.89889715897, 10385.58159894724, -11245.833187798642, -187500.02235174447, 34222.733583776186, -26524.524572434973, 23004.996538757867, 1464.732165900727, -867.4935540549224, 14460.014040471799, -1970.9991778134322, -121524.42294650352, -15348.361772103523, 0.192, 0.99, -0.20600000000000002, 192.0, 3.0, 0.0, 15.0, 120.0, 124.5, 72.0, 0.0, 0.0, 0.0, 1.696023605569928E9, 0.0, 2023-09-29 16:40:05.569
44.0, 28486.515997232917, 14454.895490991532, 11619.420244624645, -12211.450900012363, 10276.348623794154, -11268.475504931868, -187500.02235174447, 34379.37460891898, -26613.46216362264, 23464.481349525613, 1645.5130750552507, -597.7527019682768, 14374.60802490807, -2050.5043328409593, -121094.59890062797, -15455.694848977906, 0.192, 0.99, -0.20600000000000002, 192.0, 0.0, 0.0, 0.0, 0.0, 0.0, 0.0, 0.0, 0.0, 0.0, 1.696023605629314E9, 0.0, 2023-09-29 16:40:05.629
46.0, 28273.950907462946, 14185.199342393798, 11642.219023969057, -12202.398443507964, 10384.776936146849, -11237.518338861268, -187500.02235174447, 34172.08453084046, -26547.703331435125, 22990.490256606372, 1441.5981103894844, -884.279714140858, 14441.082112918153, -1987.003026843432, -121494.44925718896, -15353.212100650324, 0.192, 0.99, -0.20600000000000002, 192.0, 0.0, 0.0, 0.0, 0.0, 0.0, 0.0, 0.0, 0.0, 0.0, 1.696023605629325E9, 0.0, 2023-09-29 16:40:05.629
48.0, 28546.35161713977, 14519.894363867566, 11602.857601983262, -12229.04172289869, 10285.959873909937, -11283.674691161477, -187500.02235174447, 34429.19664730986, -26605.192018174177, 23456.054741865963, 1651.0339559357114, -600.6137252585561, 14388.443754725904, -2037.8085419903448, -121129.89230512289, -15452.073866376146, 0.192, 0.99, -0.20600000000000002, 192.0, 0.0, 0.0, 0.0, 0.0, 0.0, 0.0, 0.0, 0.0, 0.0, 1.696023605629328E9, 0.0, 2023-09-29 16:40:05.629
50.0, 28228.979197618868, 14131.644562678883, 11653.64076538572, -12185.522876444207, 10380.977139589446, -11227.191832922916, -187500.02235174447, 34129.415050675285, -26555.526441994483, 23008.773983570813, 1436.6136713759508, -887.1630891755926, 14431.090883146631, -1994.222640302496, -121461.34632365065, -15368.031307224192, 0.192, 0.99, -0.20600000000000002, 192.0, 0.0, 0.0, 0.0, 0.0, 0.0, 0.0, 0.0, 0.0, 0.0, 1.696023605629332E9, 0.0, 2023-09-29 16:40:05.629
52.0, 28610.47877198205, 14579.12648667413, 11565.664299209631, -12268.403144884485, 10284.194086097967, -11318.632819489578, -187500.02235174447, 34485.813616015155, -26594.016145946523, 23440.520279469525, 1656.9795199608232, -599.6526002469778, 14388.08612681462, -2035.5733675448141, -121162.77172121666, -15455.851311189093, 0.19, 0.992, -0.20400000000000001, 192.0, 2.5, 120.0, 15.5, 0.0, 124.5, 80.0, 0.0, 0.0, 0.0, 1.696023605629335E9, 0.0, 2023-09-29 16:40:05.629
54.0, 28255.756587476324, 14118.479385194707, 11641.392009424211, -12197.123431816512, 10353.86447356516, -11237.875966772554, -187500.02235174447, 34127.64926286331, -26598.128866926298, 23028.354111713663, 1429.3940579168866, -887.7889380203412, 14394.612836195569, -2035.483960566993, -121323.05608070566, -15410.365511222544, 0.19, 0.992, -0.20400000000000001, 192.0, 0.0, 0.0, 0.0, 0.0, 0.0, 0.0, 0.0, 0.0, 0.0, 1.696023605629338E9, 0.0, 2023-09-29 16:40:05.629
56.0, 28672.19193842315, 14633.03889430033, 11567.564197488333, -12274.438115887418, 10282.718870963916, -11313.067235120207, -187500.02235174447, 34508.56769187065, -26600.006413460545, 23400.73417433908, 1629.7550952142592, -629.2463099058044, 14385.649786668992, -2037.026230934409, -121120.90690385186, -15455.650145488997, 0.19, 0.992, -0.20400000000000001, 192.0, 0.0, 0.0, 0.0, 0.0, 0.0, 0.0, 0.0, 0.0, 0.0, 1.696023605629341E9, 0.0, 2023-09-29 16:40:05.629
58.0, 28238.45633726792, 14101.402652430852, 11669.845780115817, -12183.60062642105, 10351.070505508245, -11223.16851892096, -187500.02235174447, 34096.692096792714, -26599.492323338072, 23071.448275023497, 1432.344488184987, -870.0193011783721, 14401.340711276616, -2030.5889285312808, -121260.6723619309, -15407.750357121273, 0.19, 0.992, -0.20400000000000001, 192.0, 0.0, 0.0, 0.0, 0.0, 0.0, 0.0, 0.0, 0.0, 0.0, 1.696023605629345E9, 0.0, 2023-09-29 16:40:05.629
60.0, 28694.431924156183, 14661.090333591741, 11570.916959156628, -12286.48570614883, 10292.955969924447, -11317.224659588894, -187500.02235174447, 34517.01665127476, -26583.868453963812, 23364.18907215465, 1619.8756241650135, -642.7467635568099, 14401.810097910178, -2030.2983558533617, -121163.75519797268, -15448.162311096468, 0.19, 0.992, -0.20400000000000001, 192.0, 0.0, 0.0, 0.0, 0.0, 0.0, 0.0, 0.0, 0.0, 0.0, 1.696023605689091E9, 0.0, 2023-09-29 16:40:05.689
62.0, 28234.276561054776, 14098.631036118393, 11667.4541434591, -12190.395556735464, 10322.437920860997, -11233.830301026142, -187500.02235174447, 34087.37141935485, -26617.75369855806, 23119.124545946666, 1446.962529058758, -840.7385159419199, 14388.555513448182, -2048.5597310733474, -121185.9057767279, -15439.311020292167, 0.192, 0.992, -0.2, 192.0, 3.0, 0.0, 15.5, 0.0, 124.5, 96.0, 0.0, 0.0, 0.0, 1.6960236056891E9, 0.0, 2023-09-29 16:40:05.689
64.0, 28699.461066658627, 14662.498493492425, 11571.185180090091, -12285.681043348437, 10303.237772373888, -11315.861203177119, -187500.02235174447, 34511.316956438655, -26578.660497505727, 23300.017213823467, 1602.1730425564103, -677.32491222917, 14418.953885907398, -2014.585079501281, -121193.55007333161, -15442.887299405016, 0.192, 0.992, -0.2, 192.0, 0.0, 0.0, 0.0, 0.0, 0.0, 0.0, 0.0, 0.0, 0.0, 1.696023605689104E9, 0.0, 2023-09-29 16:40:05.689
66.0, 28245.139508860055, 14114.009036303645, 11670.493980705021, -12182.393632220464, 10304.556525296752, -11225.850728255598, -187500.02235174447, 34103.889358507324, -26634.629265621814, 23160.43056970007, 1466.7661746461602, -813.6482016620877, 14375.233873752819, -2052.158361930652, -121109.0381275461, -15449.548119252697, 0.192, 0.992, -0.2, 192.0, 0.0, 0.0, 0.0, 0.0, 0.0, 0.0, 0.0, 0.0, 0.0, 1.696023605689107E9, 0.0, 2023-09-29 16:40:05.689
68.0, 28697.896444546754, 14653.982478854952, 11572.839209179785, -12288.564418383172, 10301.181411884, -11304.953551882929, -187500.02235174447, 34504.03028774623, -26580.56039578443, 23240.315704383338, 1580.3577399680305, -711.9477643904405, 14415.399958539005, -2011.455835277538, -121208.74925956123, -15431.286744032712, 0.192, 0.992, -0.2, 192.0, 0.0, 0.0, 0.0, 0.0, 0.0, 0.0, 0.0, 0.0, 0.0, 1.69602360568911E9, 0.0, 2023-09-29 16:40:05.689
70.0, 28272.945078962457, 14148.788350676103, 11676.886579619239, -12178.303262985142, 10288.485621033386, -11218.653466540989, -187500.02235174447, 34121.502533138104, -26634.472803410627, 23239.198117160573, 1496.5163465161738, -774.1303174651048, 14370.69646962839, -2051.510161341448, -121056.48917633167, -15458.086485634625, 0.192, 0.992, -0.2, 192.0, 0.0, 0.0, 0.0, 0.0, 0.0, 0.0, 0.0, 0.0, 0.0, 1.696023605689113E9, 0.0, 2023-09-29 16:40:05.689
72.0, 28680.082104215875, 14626.51218491938, 11572.593339990777, -12289.257322461286, 10306.411720086542, -11304.640627460556, -187500.02235174447, 34485.21011891486, -26571.55264276894, 23194.695793950057, 1567.3266729505865, -736.0429449132615, 14419.535031263236, -2002.3810270286833, -121240.93577157686, -15430.169156809945, 0.182, 0.992, -0.20600000000000002, 192.0, 2.5, 88.0, 15.5, 0.0, 124.5, 72.0, 0.0, 0.0, 0.0, 1.696023605689116E9, 0.0, 2023-09-29 16:40:05.689
74.0, 28321.247198730376, 14203.080737958044, 11676.014861585481, -12174.347004216554, 10277.51091450583, -11230.186966679927, -187500.02235174447, 34164.350827258924, -26650.901335585277, 23293.736373631524, 1525.148931163422, -733.4724943009013, 14352.50214964177, -2069.6150743502467, -120979.44271319422, -15481.48876207933, 0.182, 0.992, -0.20600000000000002, 192.0, 0.0, 0.0, 0.0, 0.0, 0.0, 0.0, 0.0, 0.0, 0.0, 1.696023605749316E9, 0.0, 2023-09-29 16:40:05.749
76.0, 28648.186164878152, 14579.618225052147, 11580.81878195033, -12280.160162467977, 10318.258144647854, -11310.921467652497, -187500.02235174447, 34462.388987825994, -26572.40200905824, 23131.19448795253, 1545.4219633843857, -771.3363494081914, 14426.732292977846, -2005.4655677635155, -121239.12528027598, -15422.368397995044, 0.182, 0.992, -0.20600000000000002, 192.0, 0.0, 0.0, 0.0, 0.0, 0.0, 0.0, 0.0, 0.0, 0.0, 1.696023605749327E9, 0.0, 2023-09-29 16:40:05.749
78.0, 28369.392856287108, 14262.424619486883, 11658.871073588261, -12191.803716636148, 10258.690745674461, -11252.024621012763, -187500.02235174447, 34225.81812451102, -26666.9945915931, 23334.863583429287, 1545.824294784581, -704.9963718648401, 14343.472044881826, -2086.378882691727, -120901.79275295649, -15500.577151844163, 0.182, 0.992, -0.20600000000000002, 192.0, 0.0, 0.0, 0.0, 0.0, 0.0, 0.0, 0.0, 0.0, 0.0, 1.696023605749331E9, 0.0, 2023-09-29 16:40:05.749
80.0, 28598.36412648727, 14514.68640740948, 11601.941180460595, -12258.970708724346, 10340.743999569893, -11284.501705706323, -187500.02235174447, 34409.14713253345, -26567.931660167178, 23071.314164556763, 1511.447311812319, -818.3867714866128, 14437.081150660653, -2001.7328264394794, -121221.66856785638, -15417.227496770323, 0.182, 0.992, -0.20600000000000002, 192.0, 0.0, 0.0, 0.0, 0.0, 0.0, 0.0, 0.0, 0.0, 0.0, 1.696023605749334E9, 0.0, 2023-09-29 16:40:05.749
82.0, 28423.260560424398, 14323.802509761157, 11665.822466113863, -12186.215780522321, 10284.03762388678, -11238.166539450473, -187500.02235174447, 34256.93175279281, -26641.535954658506, 23396.666156848212, 1580.1342225234775, -665.8361155791421, 14371.679946384425, -2063.31188241385, -120862.0737030594, -15489.334224383143, 0.18, 0.992, -0.20800000000000002, 192.0, 2.5, 80.0, 15.5, 0.0, 124.5, 64.0, 0.0, 0.0, 0.0, 1.696023605749337E9, 0.0, 2023-09-29 16:40:05.749
84.0, 28535.98040771251, 14433.393112825528, 11598.789584492397, -12262.368173881552, 10352.255147964377, -11281.886551605052, -187500.02235174447, 34348.81977424858, -26555.548793738937, 23037.026588562323, 1496.0469598826123, -844.2700915658584, 14454.29199389124, -1995.384931014172, -121226.72006210328, -15401.603627396064, 0.18, 0.992, -0.20800000000000002, 192.0, 0.0, 0.0, 0.0, 0.0, 0.0, 0.0, 0.0, 0.0, 0.0, 1.696023605749341E9, 0.0, 2023-09-29 16:40:05.749
86.0, 28482.58209020878, 14396.244513540807, 11609.451366597577, -12240.552871293172, 10251.64994617104, -11292.593037199145, -187500.02235174447, 34337.82271597657, -26654.008228064566, 23417.430927447193, 1594.5734494416058, -655.196685218416, 14352.010411263755, -2088.5246501594365, -120819.44892638313, -15511.328340927166, 0.18, 0.992, -0.20800000000000002, 192.0, 0.0, 0.0, 0.0, 0.0, 0.0, 0.0, 0.0, 0.0, 0.0, 1.696023605749344E9, 0.0, 2023-09-29 16:40:05.749
88.0, 28481.933889619577, 14368.707164371868, 11591.860543711251, -12263.955147737879, 10329.098740708678, -11288.592074941645, -187500.02235174447, 34315.292157565615, -26592.943262212666, 22986.55634958224, 1448.0801162815233, -898.0930922142378, 14402.704167688391, -2040.7366205139901, -121146.11967159745, -15437.545232480197, 0.18, 0.992, -0.20800000000000002, 192.0, 0.0, 0.0, 0.0, 0.0, 0.0, 0.0, 0.0, 0.0, 0.0, 1.696023605749347E9, 0.0, 2023-09-29 16:40:05.749
90.0, 28552.185422442606, 14480.644700604047, 11599.77306124843, -12243.100970161078, 10245.056181556723, -11296.146964567539, -187500.02235174447, 34404.18504526437, -26648.643809395293, 23437.145166056773, 1605.3469902690638, -639.8186850331647, 14341.21451869184, -2085.3283507023275, -120754.76297792948, -15513.496460139331, 0.18, 0.992, -0.20800000000000002, 192.0, 0.0, 0.0, 0.0, 0.0, 0.0, 0.0, 0.0, 0.0, 0.0, 1.69602360580959E9, 0.0, 2023-09-29 16:40:05.809
92.0, 28436.00105476392, 14314.817108490124, 11614.145232933191, -12236.0378189132, 10327.869394763637, -11268.296690976225, -187500.02235174447, 34270.275744232626, -26598.531198326495, 22997.776925298804, 1438.0665347655458, -899.5459556038327, 14397.630321697035, -2031.4159430761272, -121075.1305312074, -15427.95633410887, 0.178, 0.988, -0.20400000000000001, 192.0, 2.5, 72.0, 15.0, 112.0, 124.5, 80.0, 0.0, 0.0, 0.0, 1.696023605809599E9, 0.0, 2023-09-29 16:40:05.809
94.0, 28612.535132471938, 14554.69602998448, 11618.816747524352, -12225.84542344158, 10252.544015949252, -11276.589188169144, -187500.02235174447, 34444.10526086155, -26636.976198789624, 23464.235480336607, 1630.336240570097, -614.6059172875783, 14349.194091462386, -2064.541228358892, -120716.09446002179, -15495.97269248637, 0.178, 0.988, -0.20400000000000001, 192.0, 0.0, 0.0, 0.0, 0.0, 0.0, 0.0, 0.0, 0.0, 0.0, 1.696023605809603E9, 0.0, 2023-09-29 16:40:05.809
96.0, 28385.62022276166, 14251.114636792498, 11633.032456997928, -12224.191394351888, 10332.362095399154, -11257.858426315597, -187500.02235174447, 34227.04747045606, -26580.98507892908, 23009.55629462675, 1451.1199535274452, -888.861821754196, 14415.288199816729, -2014.450969034549, -121026.85076318393, -15408.555019921663, 0.178, 0.988, -0.20400000000000001, 192.0, 0.0, 0.0, 0.0, 0.0, 0.0, 0.0, 0.0, 0.0, 0.0, 1.696023605809606E9, 0.0, 2023-09-29 16:40:05.809
98.0, 28668.25803139902, 14615.358664436182, 11592.15111638917, -12250.18647315341, 10246.531396690774, -11297.353958768124, -187500.02235174447, 34504.052639490685, -26638.94315230169, 23441.63786669229, 1635.4547900503624, -620.1267981680392, 14354.334992687107, -2063.937731258599, -120678.07414270332, -15499.2583989213, 0.178, 0.988, -0.20400000000000001, 192.0, 0.0, 0.0, 0.0, 0.0, 0.0, 0.0, 0.0, 0.0, 0.0, 1.696023605809609E9, 0.0, 2023-09-29 16:40:05.809
100.0, 28345.11886180864, 14200.66674955687, 11657.999355554504, -12192.451917225351, 10334.843139033692, -11230.969277735863, -187500.02235174447, 34181.00287687813, -26596.49718958106, 23018.385233686597, 1440.9052063113697, -897.7801677918635, 14407.174516579453, -2022.4975970384596, -120925.28443637902, -15420.043816571691, 0.178, 0.988, -0.20400000000000001, 192.0, 0.0, 0.0, 0.0, 0.0, 0.0, 0.0, 0.0, 0.0, 0.0, 1.696023605809613E9, 0.0, 2023-09-29 16:40:05.809
102.0, 28707.86532257382, 14659.793932413333, 11595.548581546376, -12254.656822044471, 10260.83651314217, -11291.766022654298, -187500.02235174447, 34524.37037520056, -26613.819791533922, 23432.898334610265, 1650.989252446801, -614.7847312432208, 14387.974368092344, -2031.840626220778, -120689.51823586444, -15481.019375445769, 0.18, 0.99, -0.21, 192.0, 2.5, 80.0, 15.0, 120.0, 124.5, 56.0, 0.0, 0.0, 0.0, 1.696023605809616E9, 0.0, 2023-09-29 16:40:05.809
104.0, 28310.540713136284, 14160.746533959691, 11676.104268563304, -12178.929111829892, 10337.10066522368, -11217.535879318224, -187500.02235174447, 34145.5083066831, -26599.045288448968, 23060.36180977366, 1453.28807273961, -869.8404872227296, 14417.635132984537, -2016.3732190577055, -120861.64901991475, -15428.023389342236, 0.18, 0.99, -0.21, 192.0, 0.0, 0.0, 0.0, 0.0, 0.0, 0.0, 0.0, 0.0, 0.0, 1.696023605869905E9, 0.0, 2023-09-29 16:40:05.869
106.0, 28730.17236354022, 14684.447906547537, 11566.111334098738, -12292.990063785322, 10262.378783509586, -11322.43261604698, -187500.02235174447, 34560.62490470707, -26609.46120136514, 23397.224950459597, 1644.7084122548597, -625.4465133484023, 14401.899504888, -2032.935861699088, -120694.50267487796, -15479.231235889345, 0.18, 0.99, -0.21, 192.0, 0.0, 0.0, 0.0, 0.0, 0.0, 0.0, 0.0, 0.0, 0.0, 1.696023605869917E9, 0.0, 2023-09-29 16:40:05.869
108.0, 28284.83620701268, 14133.186833046298, 11649.282175216935, -12209.975684878313, 10300.063824661234, -11248.314231433182, -187500.02235174447, 34151.006835819106, -26639.99368429109, 23082.043001895312, 1439.7876190886045, -871.5615715457883, 14386.029766324731, -2064.02713823642, -120742.33540801232, -15467.362459583577, 0.18, 0.99, -0.21, 192.0, 0.0, 0.0, 0.0, 0.0, 0.0, 0.0, 0.0, 0.0, 0.0, 1.696023605869921E9, 0.0, 2023-09-29 16:40:05.869
110.0, 28743.136375324295, 14694.997929930441, 11539.289240752369, -12321.063854821188, 10246.710210646417, -11346.371334358613, -187500.02235174447, 34585.30123058573, -26636.775033089525, 23315.216400053072, 1599.1108535660333, -679.9177145859856, 14380.419478466449, -2066.5975888487806, -120651.6767325016, -15498.476087865363, 0.18, 0.99, -0.21, 192.0, 0.0, 0.0, 0.0, 0.0, 0.0, 0.0, 0.0, 0.0, 0.0, 1.696023605869924E9, 0.0, 2023-09-29 16:40:05.869
112.0, 28285.59616632416, 14136.785463903603, 11655.339497964324, -12199.895048128968, 10276.683899960983, -11239.574699351157, -187500.02235174447, 34165.37900750387, -26687.021754625053, 23104.99824345091, 1434.8478835639817, -863.3361295862353, 14345.349591416072, -2101.7568828769786, -120593.47278993999, -15496.822058775671, 0.184, 0.99, -0.21, 192.0, 2.5, 96.0, 15.0, 120.0, 124.5, 56.0, 0.0, 0.0, 0.0, 1.696023605869928E9, 0.0, 2023-09-29 16:40:05.869
114.0, 28740.811793900943, 14688.270054849394, 11588.820706465329, -12270.504208863284, 10292.240714101878, -11292.525981965779, -187500.02235174447, 34563.955314630904, -26602.375698372805, 23260.11934997074, 1588.9184580944132, -706.9856771213624, 14415.399958539005, -2020.6647539931244, -120648.16750862212, -15454.264337332766, 0.184, 0.99, -0.21, 192.0, 0.0, 0.0, 0.0, 0.0, 0.0, 0.0, 0.0, 0.0, 0.0, 1.696023605869931E9, 0.0, 2023-09-29 16:40:05.869
116.0, 28294.760381550837, 14152.431685022317, 11692.823373415873, -12163.394649433452, 10297.649836260061, -11208.036387924718, -187500.02235174447, 34155.36542598789, -26654.432911209216, 23196.416878273118, 1483.9770178767465, -797.219669487437, 14378.22900750983, -2058.036870722398, -120535.33590261173, -15462.892110692515, 0.184, 0.99, -0.21, 192.0, 0.0, 0.0, 0.0, 0.0, 0.0, 0.0, 0.0, 0.0, 0.0, 1.696023605869942E9, 0.0, 2023-09-29 16:40:05.869
118.0, 28729.59121818438, 14665.85125516072, 11588.664244254142, -12280.584845612628, 10304.735339252395, -11303.165412326505, -187500.02235174447, 34546.02921557775, -26598.151218670755, 23227.150526899164, 1583.7775568696925, -718.1168458601053, 14427.313438333684, -2002.7610066844234, -120663.6796192741, -15436.539403979708, 0.184, 0.99, -0.21, 192.0, 0.0, 0.0, 0.0, 0.0, 0.0, 0.0, 0.0, 0.0, 0.0, 1.696023605869946E9, 0.0, 2023-09-29 16:40:05.869
120.0, 28331.573704668728, 14194.944702976312, 11693.940960638638, -12172.178885004389, 10280.304882562743, -11221.000399708797, -187500.02235174447, 34183.32745830148, -26673.074266084943, 23264.88027153972, 1511.2908496011316, -758.931131235496, 14365.98025154832, -2073.0795947408196, -120435.73652931888, -15487.166105170978, 0.184, 0.99, -0.21, 192.0, 0.0, 0.0, 0.0, 0.0, 0.0, 0.0, 0.0, 0.0, 0.0, 1.696023605930155E9, 0.0, 2023-09-29 16:40:05.930
122.0, 28703.372621938306, 14631.831900099744, 11604.466927584044, -12269.744249551804, 10318.101682436667, -11289.575551697679, -187500.02235174447, 34509.75233432679, -26585.16485514222, 23175.093314062753, 1565.8514578165364, -753.4773055884011, 14437.23761287184, -1997.3071810373285, -120645.17237486511, -15432.24786904429, 0.18, 0.99, -0.20800000000000002, 192.0, 2.5, 80.0, 15.0, 120.0, 124.5, 64.0, 0.0, 0.0, 0.0, 1.696023605930163E9, 0.0, 2023-09-29 16:40:05.930
124.0, 28373.013838888866, 14252.72396239328, 11684.128544822759, -12175.93397807288, 10265.284510288777, -11225.98483872233, -187500.02235174447, 34224.52172333261, -26672.42606549574, 23330.28147581595, 1541.6445185714388, -714.9876016363623, 14361.532254401714, -2067.134030715708, -120347.98358058734, -15494.072794207668, 0.18, 0.99, -0.20800000000000002, 192.0, 0.0, 0.0, 0.0, 0.0, 0.0, 0.0, 0.0, 0.0, 0.0, 1.696023605930166E9, 0.0, 2023-09-29 16:40:05.930
126.0, 28658.736188261057, 14576.511332572858, 11620.694294058598, -12252.555758065673, 10333.189109944, -11269.347222965625, -187500.02235174447, 34464.19947912687, -26583.957860941635, 23126.76884255038, 1535.6542510574163, -787.8542885606633, 14438.154034394507, -1984.8796111201777, -120632.8789154147, -15421.563735194653, 0.18, 0.99, -0.20800000000000002, 192.0, 0.0, 0.0, 0.0, 0.0, 0.0, 0.0, 0.0, 0.0, 0.0, 1.69602360593017E9, 0.0, 2023-09-29 16:40:05.930
128.0, 28423.372319146674, 14312.11254741103, 11678.02651858646, -12182.348928731553, 10255.114466561612, -11233.003286481297, -187500.02235174447, 34270.901593077375, -26673.05191434049, 23388.418363144203, 1570.411213685419, -682.5328686872565, 14361.688716612902, -2060.2720451679284, -120287.61151881356, -15494.676291307962, 0.18, 0.99, -0.20800000000000002, 192.0, 0.0, 0.0, 0.0, 0.0, 0.0, 0.0, 0.0, 0.0, 0.0, 1.696023605930173E9, 0.0, 2023-09-29 16:40:05.930
130.0, 28609.67410918166, 14510.797203874256, 11618.615581824253, -12254.142731922, 10323.175528428023, -11269.973071810375, -187500.02235174447, 34424.39102225197, -26592.228006390098, 23077.930280915534, 1507.0663698990786, -828.1991873024926, 14430.465034301882, -1991.3839687566722, -120602.54759818883, -15423.396578239988, 0.18, 0.99, -0.20800000000000002, 192.0, 0.0, 0.0, 0.0, 0.0, 0.0, 0.0, 0.0, 0.0, 0.0, 1.696023605930176E9, 0.0, 2023-09-29 16:40:05.930
132.0, 28482.537386719872, 14382.140562789507, 11661.39682071171, -12202.644312696972, 10241.301088488233, -11249.27535644476, -187500.02235174447, 34331.96655892927, -26686.306498802485, 23423.555305427948, 1583.2187632583098, -661.9916155328293, 14348.635297851002, -2066.195257448585, -120202.60783465003, -15514.479936895365, 0.178, 0.996, -0.21, 192.0, 2.5, 72.0, 15.5, 16.0, 124.5, 56.0, 0.0, 0.0, 0.0, 1.696023605930179E9, 0.0, 2023-09-29 16:40:05.930
134.0, 28546.262210161953, 14435.024790170764, 11611.15009917618, -12264.558644838173, 10316.693522535983, -11281.819496371687, -187500.02235174447, 34380.06751299709, -26615.45146887916, 23027.303579724263, 1469.7166049142606, -870.1310599006487, 14418.015112640276, -2011.3664282997167, -120542.89079223762, -15438.14872958049, 0.178, 0.996, -0.21, 192.0, 0.0, 0.0, 0.0, 0.0, 0.0, 0.0, 0.0, 0.0, 0.0, 1.696023605989082E9, 0.0, 2023-09-29 16:40:05.989
136.0, 28533.745233266978, 14443.987839697344, 11649.103361261292, -12218.692865215882, 10239.200024509433, -11267.290862475737, -187500.02235174447, 34388.360010190016, -26697.70588847469, 23420.001378059555, 1585.2080685148321, -657.677728852955, 14340.02987623571, -2074.8006790638783, -120124.77906045665, -15528.405073691021, 0.178, 0.996, -0.21, 192.0, 0.0, 0.0, 0.0, 0.0, 0.0, 0.0, 0.0, 0.0, 0.0, 1.696023605989093E9, 0.0, 2023-09-29 16:40:05.989
138.0, 28481.39744775265, 14351.898652541478, 11617.319180645845, -12263.016374470757, 10314.145423668078, -11282.288883005249, -187500.02235174447, 34330.44664030631, -26633.064643509944, 22980.87900649059, 1441.8886830674032, -901.4235021380786, 14411.778975937246, -2031.6394605206801, -120468.6382971571, -15446.977668640337, 0.178, 0.996, -0.21, 192.0, 0.0, 0.0, 0.0, 0.0, 0.0, 0.0, 0.0, 0.0, 0.0, 1.696023605989097E9, 0.0, 2023-09-29 16:40:05.989
140.0, 28585.66833563666, 14503.666997393013, 11614.189936422103, -12256.824941256637, 10220.424559166975, -11300.080871591672, -187500.02235174447, 34456.95751392335, -26710.446382814218, 23415.9780640576, 1589.7007691503488, -655.2637404517818, 14338.577012846115, -2096.101891529786, -120057.23208871271, -15543.090169798157, 0.178, 0.996, -0.21, 192.0, 0.0, 0.0, 0.0, 0.0, 0.0, 0.0, 0.0, 0.0, 0.0, 1.6960236059891E9, 0.0, 2023-09-29 16:40:05.989
142.0, 28441.186659477553, 14283.144686596954, 11636.094645988303, -12249.784141753214, 10324.717798795438, -11274.398717212525, -187500.02235174447, 34292.67219217685, -26654.835242609413, 22951.464110787405, 1412.2279181752108, -935.956947321528, 14399.396109509005, -2054.54999858737, -120354.97967660186, -15465.171988626957, 0.182, 0.996, -0.20800000000000002, 192.0, 2.5, 88.0, 15.5, 16.0, 124.5, 64.0, 0.0, 0.0, 0.0, 1.696023605989103E9, 0.0, 2023-09-29 16:40:05.989
144.0, 28666.02285695349, 14572.018631937342, 11605.651570040176, -12269.587787340617, 10226.638344125551, -11310.094453107651, -187500.02235174447, 34520.905854809986, -26719.409432340795, 23405.360985441326, 1601.4130832449298, -659.1305922425499, 14339.828710535612, -2108.194185280107, -119946.63565714785, -15549.974507090392, 0.182, 0.996, -0.20800000000000002, 192.0, 0.0, 0.0, 0.0, 0.0, 0.0, 0.0, 0.0, 0.0, 0.0, 1.696023605989106E9, 0.0, 2023-09-29 16:40:05.989
146.0, 28389.822350719256, 14211.90967701789, 11653.439599685622, -12230.248717099275, 10318.839290003692, -11254.013926269285, -187500.02235174447, 34248.54984862207, -26675.823530652946, 22941.003494382323, 1398.0122087016355, -944.7188311480083, 14392.265903027763, -2061.5013911129704, -120218.29875925765, -15464.099104893103, 0.182, 0.996, -0.20800000000000002, 192.0, 0.0, 0.0, 0.0, 0.0, 0.0, 0.0, 0.0, 0.0, 0.0, 1.69602360598911E9, 0.0, 2023-09-29 16:40:05.989
148.0, 28702.63501437128, 14606.976760265443, 11608.11026193026, -12273.834618787125, 10249.079495558679, -11308.57453448469, -187500.02235174447, 34543.01173007629, -26697.370612307863, 23372.39216236975, 1603.5364989681839, -662.3268916996589, 14358.89474855599, -2086.714158858557, -119921.04290974652, -15527.041617279247, 0.182, 0.996, -0.20800000000000002, 192.0, 0.0, 0.0, 0.0, 0.0, 0.0, 0.0, 0.0, 0.0, 0.0, 1.696023605989113E9, 0.0, 2023-09-29 16:40:05.989
150.0, 28341.676693162524, 14148.967164631746, 11657.239396243025, -12235.635487513006, 10311.016179444336, -11257.210225726394, -187500.02235174447, 34199.53247303158, -26680.2491760551, 22949.78772995326, 1400.1356244248898, -944.7411828924636, 14383.593426179103, -2082.132051245219, -120124.68965347882, -15478.851256233605, 0.182, 0.996, -0.20800000000000002, 192.0, 0.0, 0.0, 0.0, 0.0, 0.0, 0.0, 0.0, 0.0, 0.0, 1.696023606049418E9, 0.0, 2023-09-29 16:40:06.049
152.0, 28734.486250220092, 14638.112740291685, 11589.088927398792, -12299.539124910729, 10247.179597279977, -11325.00306665934, -187500.02235174447, 34572.337218801644, -26692.38617329433, 23325.94523739162, 1597.7026936653488, -689.193688534938, 14362.18045499092, -2098.6276386532354, -119898.89233099132, -15541.749065130838, 0.18, 0.996, -0.21, 192.0, 2.5, 80.0, 15.5, 16.0, 124.5, 56.0, 0.0, 0.0, 0.0, 1.696023606049432E9, 0.0, 2023-09-29 16:40:06.049
154.0, 28306.048012500767, 14110.566867657528, 11667.990585326026, -12223.163214106944, 10295.727586236904, -11254.41625766948, -187500.02235174447, 34180.55584198902, -26693.168484350263, 22988.612710072128, 1402.2590401481439, -936.3816304661788, 14372.685774884912, -2083.4061006791712, -120020.9775592062, -15495.905637253003, 0.18, 0.996, -0.21, 192.0, 0.0, 0.0, 0.0, 0.0, 0.0, 0.0, 0.0, 0.0, 0.0, 1.696023606049436E9, 0.0, 2023-09-29 16:40:06.049
156.0, 28751.004189372565, 14655.502397477914, 11574.113258613737, -12315.632380918549, 10242.195158266444, -11341.275136622804, -187500.02235174447, 34598.622870281084, -26692.050897127498, 23283.163998504162, 1582.928190580391, -710.5396044897562, 14362.51573115775, -2088.122318759241, -119884.36369709537, -15537.45753019542, 0.18, 0.996, -0.21, 192.0, 0.0, 0.0, 0.0, 0.0, 0.0, 0.0, 0.0, 0.0, 0.0, 1.696023606049439E9, 0.0, 2023-09-29 16:40:06.049
158.0, 28293.061648972234, 14094.853591305446, 11669.376393482256, -12218.625809982517, 10282.473001774908, -11252.158731479494, -187500.02235174447, 34176.107844842416, -26711.027528170056, 23033.718530382936, 1408.0704937065236, -917.472054656989, 14357.196015977386, -2109.51293820297, -119913.84564803191, -15507.014454247292, 0.18, 0.996, -0.21, 192.0, 0.0, 0.0, 0.0, 0.0, 0.0, 0.0, 0.0, 0.0, 0.0, 1.696023606049442E9, 0.0, 2023-09-29 16:40:06.049
160.0, 28760.30251506597, 14657.223481800973, 11571.363994045734, -12318.694569908926, 10242.64219315555, -11338.637630777077, -187500.02235174447, 34606.401277351535, -26692.14030410532, 23232.917276968634, 1562.8563240595252, -743.2402066278704, 14359.632356123015, -2095.4313391961264, -119854.01002812506, -15533.054236537724, 0.18, 0.996, -0.21, 192.0, 0.0, 0.0, 0.0, 0.0, 0.0, 0.0, 0.0, 0.0, 0.0, 1.696023606049455E9, 0.0, 2023-09-29 16:40:06.049
162.0, 28302.874064788113, 14099.569809385517, 11677.02069008597, -12213.864888413536, 10265.642138200063, -11248.001307010807, -187500.02235174447, 34185.13794960236, -26723.835077742944, 23073.23641457992, 1425.5272061261185, -893.8015572788188, 14345.282536182707, -2119.1465400632073, -119781.79154178996, -15522.191288732445, 0.184, 0.992, -0.21, 192.0, 2.5, 96.0, 15.5, 0.0, 124.5, 56.0, 0.0, 0.0, 0.0, 1.696023606049458E9, 0.0, 2023-09-29 16:40:06.049
164.0, 28796.17706491674, 14665.13599933815, 11559.4281625066, -12335.838357906146, 10257.46139972942, -11351.400476861058, -187500.02235174447, 34627.94835900645, -26681.99261212261, 23170.44415121605, 1554.6755855888828, -775.1361459655936, 14377.133772031519, -2086.1777169916295, -119805.9761292906, -15522.88419281056, 0.184, 0.992, -0.21, 192.0, 0.0, 0.0, 0.0, 0.0, 0.0, 0.0, 0.0, 0.0, 0.0, 1.696023606109425E9, 0.0, 2023-09-29 16:40:06.109
166.0, 28397.77957174535, 14163.22757759423, 11653.037268285427, -12237.0883509026, 10242.373972222087, -11275.046917801728, -187500.02235174447, 34256.19414522578, -26750.232487944664, 23131.73092981946, 1452.7739826171378, -862.0173766633721, 14322.59551556057, -2136.0221071269643, -119549.69102736605, -15555.60714669313, 0.184, 0.992, -0.21, 192.0, 0.0, 0.0, 0.0, 0.0, 0.0, 0.0, 0.0, 0.0, 0.0, 1.696023606109436E9, 0.0, 2023-09-29 16:40:06.109
168.0, 28842.13225151685, 14670.858045918709, 11546.866482122718, -12349.58468074616, 10256.612033440118, -11361.570520588222, -187500.02235174447, 34648.981350538896, -26693.168484350263, 23096.77280149136, 1517.5269863041624, -824.5335012118222, 14369.042440538698, -2092.3020949723837, -119627.31863585934, -15533.098940026635, 0.184, 0.992, -0.21, 192.0, 0.0, 0.0, 0.0, 0.0, 0.0, 0.0, 0.0, 0.0, 0.0, 1.69602360610944E9, 0.0, 2023-09-29 16:40:06.109
170.0, 28466.555889434327, 14227.466491158784, 11664.526064935455, -12222.090330373088, 10235.422579696487, -11262.105257762107, -187500.02235174447, 34302.97634637074, -26758.502633393127, 23187.051497346343, 1461.9381978438137, -832.4236670045457, 14318.840422492078, -2138.2349298280396, -119320.7644606548, -15564.100809586145, 0.184, 0.992, -0.21, 192.0, 0.0, 0.0, 0.0, 0.0, 0.0, 0.0, 0.0, 0.0, 0.0, 1.696023606109443E9, 0.0, 2023-09-29 16:40:06.109
172.0, 28812.091506968918, 14626.266315730372, 11569.933482400595, -12330.473939236874, 10279.097888362157, -11338.704686010444, -187500.02235174447, 34608.05530644122, -26674.303612029984, 23052.0916643252, 1494.0129511371795, -854.0825073817382, 14397.429155996939, -2067.290492926895, -119551.8144430893, -15502.2088291894, 0.184, 0.998, -0.21, 192.0, 2.5, 96.0, 15.5, 24.0, 124.5, 56.0, 0.0, 0.0, 0.0, 1.696023606109447E9, 0.0, 2023-09-29 16:40:06.109
174.0, 28516.757907480947, 14293.225323346296, 11652.277308973946, -12240.37405733753, 10213.11553873009, -11282.333586494158, -187500.02235174447, 34354.83239350705, -26760.804863072022, 23248.116463198243, 1490.77194819116, -792.4363961740013, 14315.465309079327, -2151.6683282456793, -119196.46640973883, -15575.902530658548, 0.184, 0.998, -0.21, 192.0, 0.0, 0.0, 0.0, 0.0, 0.0, 0.0, 0.0, 0.0, 0.0, 1.69602360610945E9, 0.0, 2023-09-29 16:40:06.109
176.0, 28769.243212848094, 14580.534646574813, 11586.20555236406, -12315.095939051622, 10278.539094750775, -11332.6250115186, -187500.02235174447, 34575.68998046994, -26683.13255108983, 23001.911998023035, 1463.48046821123, -890.8511270107183, 14382.252321511785, -2079.9192285441436, -119477.67370673106, -15503.304064667711, 0.184, 0.998, -0.21, 192.0, 0.0, 0.0, 0.0, 0.0, 0.0, 0.0, 0.0, 0.0, 0.0, 1.696023606109454E9, 0.0, 2023-09-29 16:40:06.109
178.0, 28578.09109426631, 14374.406859207971, 11662.804980612396, -12223.006751895757, 10213.026131752269, -11272.767039867287, -187500.02235174447, 34410.91292034542, -26763.218851473197, 23318.792679165923, 1524.478378829763, -745.8553607291414, 14311.441995077372, -2137.9220054056655, -119077.59983272551, -15569.241710810866, 0.184, 0.998, -0.21, 192.0, 0.0, 0.0, 0.0, 0.0, 0.0, 0.0, 0.0, 0.0, 0.0, 1.696023606109458E9, 0.0, 2023-09-29 16:40:06.109
180.0, 28717.230703500594, 14522.889497624577, 11633.144215720204, -12261.697621547894, 10303.0813101627, -11277.527961436268, -187500.02235174447, 34514.58031112913, -26653.605896664372, 22992.97130024091, 1457.2666832526545, -898.2048509365143, 14399.127888575542, -2046.1233909277191, -119423.5824851492, -15469.374116584555, 0.184, 0.998, -0.21, 192.0, 0.0, 0.0, 0.0, 0.0, 0.0, 0.0, 0.0, 0.0, 0.0, 1.696023606169744E9, 0.0, 2023-09-29 16:40:06.169
182.0, 28636.652664739213, 14458.091790448641, 11671.656271416698, -12213.730777946805, 10213.719035830383, -11260.719449605876, -187500.02235174447, 34457.47160404582, -26727.187839411243, 23388.172493955197, 1576.6920538773602, -690.0207030797843, 14328.183451674397, -2103.4332637111265, -119020.37936691992, -15545.012419821314, 0.19, 1.0, -0.20600000000000002, 192.0, 2.5, 120.0, 15.5, 32.0, 124.5, 72.0, 0.0, 0.0, 0.0, 1.696023606169753E9, 0.0, 2023-09-29 16:40:06.169
184.0, 28650.28722885695, 14452.19092991244, 11641.392009424211, -12260.892958747501, 10304.914153208036, -11283.004138827819, -187500.02235174447, 34449.447327786365, -26646.118062271842, 22981.326041379696, 1446.8507703364814, -909.9171650310952, 14403.195906066407, -2042.256539136951, -119390.12192369961, -15459.449942046398, 0.19, 1.0, -0.20600000000000002, 192.0, 0.0, 0.0, 0.0, 0.0, 0.0, 0.0, 0.0, 0.0, 0.0, 1.696023606169757E9, 0.0, 2023-09-29 16:40:06.169
186.0, 28690.028630498487, 14525.348189514661, 11650.288003717424, -12243.525653305729, 10203.906620014504, -11291.095470320639, -187500.02235174447, 34511.33930818312, -26741.314141906994, 23405.740965097066, 1584.1351847809774, -677.1237465290722, 14311.553753799648, -2125.2709180439615, -118961.05783713554, -15569.50993174433, 0.19, 1.0, -0.20600000000000002, 192.0, 0.0, 0.0, 0.0, 0.0, 0.0, 0.0, 0.0, 0.0, 0.0, 1.69602360616976E9, 0.0, 2023-09-29 16:40:06.169
188.0, 28586.718867626056, 14379.972443577344, 11656.144160764714, -12246.073752173634, 10303.349531096164, -11273.079964289662, -187500.02235174447, 34394.95377480433, -26661.33960024591, 22949.988895653358, 1424.5884328589957, -939.2873572453686, 14395.506905973782, -2048.4926758399815, -119325.50303047932, -15461.81922695866, 0.19, 1.0, -0.20600000000000002, 192.0, 0.0, 0.0, 0.0, 0.0, 0.0, 0.0, 0.0, 0.0, 0.0, 1.696023606169764E9, 0.0, 2023-09-29 16:40:06.169
190.0, 28746.332674781406, 14596.046757226797, 11648.812788583373, -12246.431380084918, 10206.78999504924, -11296.66105469001, -187500.02235174447, 34553.628808692556, -26727.165487666785, 23414.68166287919, 1603.5588507126392, -663.1315545000499, 14321.768501015724, -2115.7937783949114, -118922.70224365023, -15565.017231108814, 0.19, 1.0, -0.20600000000000002, 192.0, 0.0, 0.0, 0.0, 0.0, 0.0, 0.0, 0.0, 0.0, 0.0, 1.696023606169767E9, 0.0, 2023-09-29 16:40:06.169
192.0, 28522.949340695068, 14308.603323531548, 11689.291797791935, -12215.384807036497, 10311.262048633344, -11249.051839000207, -187500.02235174447, 34319.78485820113, -26650.297838484985, 22955.196852111443, 1421.3027264240654, -939.1308950341815, 14396.378624007539, -2048.269158395429, -119269.89189027452, -15464.456732804387, 0.192, 0.998, -0.20800000000000002, 192.0, 3.0, 0.0, 15.5, 24.0, 124.5, 64.0, 0.0, 0.0, 0.0, 1.69602360616977E9, 0.0, 2023-09-29 16:40:06.169
194.0, 28787.348125856894, 14651.367324753683, 11646.3988001822, -12247.839539985604, 10226.414826680997, -11294.023548844285, -187500.02235174447, 34579.757997960805, -26690.95566164919, 23418.749680370056, 1628.6375079914937, -641.8526937785977, 14349.864643796045, -2081.4614989115594, -118944.71871193871, -15542.620783164595, 0.192, 0.998, -0.20800000000000002, 192.0, 0.0, 0.0, 0.0, 0.0, 0.0, 0.0, 0.0, 0.0, 0.0, 1.696023606230137E9, 0.0, 2023-09-29 16:40:06.230
196.0, 28466.48883420096, 14249.43825595835, 11696.422004273178, -12204.723024931316, 10305.092967163679, -11239.261774928782, -187500.02235174447, 34274.88020359042, -26667.598088693394, 22970.12781740759, 1417.2123571887444, -928.9832030514722, 14382.677004656436, -2055.9581584880543, -119211.6879477129, -15471.698698007905, 0.192, 0.998, -0.20800000000000002, 192.0, 0.0, 0.0, 0.0, 0.0, 0.0, 0.0, 0.0, 0.0, 0.0, 1.696023606230154E9, 0.0, 2023-09-29 16:40:06.230
198.0, 28825.055518752997, 14698.015415431908, 11631.423131397145, -12264.513941349262, 10230.415788938499, -11307.769871684299, -187500.02235174447, 34615.36432687811, -26690.10629535989, 23390.184150956175, 1625.441208534385, -648.5135136262791, 14357.911271799956, -2073.727795330023, -118958.50973826763, -15531.869594081592, 0.192, 0.998, -0.20800000000000002, 192.0, 0.0, 0.0, 0.0, 0.0, 0.0, 0.0, 0.0, 0.0, 0.0, 1.696023606230161E9, 0.0, 2023-09-29 16:40:06.230
200.0, 28431.709519828502, 14206.634665326437, 11698.165440340692, -12206.198240065365, 10284.507010520341, -11242.994516252818, -187500.02235174447, 34253.44488065778, -26685.680649957736, 23006.27058819182, 1418.0393717335908, -920.9589267920169, 14370.338841717106, -2067.1116789712523, -119133.94858049734, -15488.462506349386, 0.192, 0.998, -0.20800000000000002, 192.0, 0.0, 0.0, 0.0, 0.0, 0.0, 0.0, 0.0, 0.0, 0.0, 1.696023606230167E9, 0.0, 2023-09-29 16:40:06.230
202.0, 28856.6608854128, 14729.10669196924, 11611.664189298654, -12290.598427128605, 10219.105806244113, -11326.321819582203, -187500.02235174447, 34652.736443607384, -26689.346336048406, 23356.365961595293, 1615.114702596033, -673.4804121828571, 14354.245585709285, -2079.7180628440456, -118944.00345611614, -15545.101826799135, 0.188, 0.99, -0.216, 192.0, 2.5, 112.0, 15.0, 120.0, 124.5, 32.0, 0.0, 0.0, 0.0, 1.696023606230173E9, 0.0, 2023-09-29 16:40:06.230
204.0, 28410.8553422517, 14186.831019739035, 11710.347141068834, -12194.932960859891, 10271.922978392004, -11235.394923138014, -187500.02235174447, 34233.216551925725, -26696.09656287391, 23038.94883858548, 1420.6768775793169, -909.6489440976316, 14360.347611945585, -2081.796775078389, -119037.76902410615, -15509.428442648465, 0.188, 0.99, -0.216, 192.0, 0.0, 0.0, 0.0, 0.0, 0.0, 0.0, 0.0, 0.0, 0.0, 1.696023606230179E9, 0.0, 2023-09-29 16:40:06.230
206.0, 28871.614202453402, 14747.882157311698, 11595.705043757564, -12309.798575615714, 10220.558669633707, -11341.833930234186, -187500.02235174447, 34666.77333912532, -26663.105388057877, 23316.46809774257, 1605.9951908582677, -691.093586813639, 14379.36894647705, -2060.652024823669, -118976.79346523208, -15530.126158014078, 0.188, 0.99, -0.216, 192.0, 0.0, 0.0, 0.0, 0.0, 0.0, 0.0, 0.0, 0.0, 0.0, 1.696023606230185E9, 0.0, 2023-09-29 16:40:06.230
208.0, 28406.094420682723, 14185.042880182611, 11704.088652621347, -12195.759975404737, 10242.306916988722, -11251.666993101477, -187500.02235174447, 34236.59166533848, -26714.067365415976, 23090.603720021692, 1431.2045492177665, -883.4303478515563, 14335.894803511477, -2107.523632946448, -118939.57781071399, -15544.654791910029, 0.188, 0.99, -0.216, 192.0, 0.0, 0.0, 0.0, 0.0, 0.0, 0.0, 0.0, 0.0, 0.0, 1.696023606230192E9, 0.0, 2023-09-29 16:40:06.230
210.0, 28875.23518505516, 14752.10663701375, 11629.009142995972, -12270.683022818926, 10252.007574082325, -11315.034188632273, -187500.02235174447, 34654.88221107509, -26646.56509716095, 23259.11352147025, 1598.2838390211869, -712.126578346083, 14386.879132614033, -2049.163228173641, -118972.077247152, -15521.811309076706, 0.188, 0.99, -0.216, 192.0, 0.0, 0.0, 0.0, 0.0, 0.0, 0.0, 0.0, 0.0, 0.0, 1.696023606289549E9, 0.0, 2023-09-29 16:40:06.289
212.0, 28405.75914451589, 14199.683272800838, 11735.17992915868, -12156.130332485478, 10259.093077074656, -11219.726350274845, -187500.02235174447, 34224.92405473281, -26678.505739987584, 23162.017543556398, 1486.413358022375, -817.2468325193921, 14367.455466682371, -2067.9386935160987, -118896.8636270599, -15507.193268202935, 0.188, 0.986, -0.21, 192.0, 2.5, 112.0, 15.0, 104.0, 124.5, 56.0, 0.0, 0.0, 0.0, 1.696023606289559E9, 0.0, 2023-09-29 16:40:06.289
214.0, 28850.022417309574, 14728.34673265776, 11627.533927861921, -12273.05230773119, 10265.820952155704, -11311.659075219522, -187500.02235174447, 34628.685966573474, -26624.95096027267, 23213.001872658955, 1588.6949406498602, -727.0351918977728, 14404.581714222637, -2029.4042860751495, -119026.07906175603, -15494.139849441035, 0.188, 0.986, -0.21, 192.0, 0.0, 0.0, 0.0, 0.0, 0.0, 0.0, 0.0, 0.0, 0.0, 1.696023606289562E9, 0.0, 2023-09-29 16:40:06.289
216.0, 28427.060356981798, 14227.377084180962, 11746.579318830887, -12151.101189983034, 10256.343812506653, -11216.239478139816, -187500.02235174447, 34236.90458976085, -26688.541673248015, 23232.69375952408, 1503.445387297319, -781.7746140688198, 14351.7868938192, -2083.3390454458054, -118830.61305649437, -15524.64998062253, 0.188, 0.986, -0.21, 192.0, 0.0, 0.0, 0.0, 0.0, 0.0, 0.0, 0.0, 0.0, 0.0, 1.696023606289566E9, 0.0, 2023-09-29 16:40:06.289
218.0, 28818.9534925167, 14683.24091234695, 11657.775838109952, -12251.147598164987, 10297.1804496265, -11287.18391504096, -187500.02235174447, 34571.018465878784, -26596.810114003434, 23163.35864822372, 1572.4452224308518, -757.1653434235268, 14432.47669130286, -2008.3042393093397, -119071.31899253358, -15463.093276392614, 0.188, 0.986, -0.21, 192.0, 0.0, 0.0, 0.0, 0.0, 0.0, 0.0, 0.0, 0.0, 0.0, 1.696023606289569E9, 0.0, 2023-09-29 16:40:06.289
220.0, 28465.862985356212, 14275.500389993238, 11736.722199526097, -12162.232358721776, 10243.625669911584, -11233.919708003963, -187500.02235174447, 34265.60422964147, -26666.726370659635, 23306.18629529313, 1543.9690999947907, -727.7280959758873, 14365.756734103768, -2068.0728039828305, -118811.50231498509, -15512.870611294582, 0.188, 0.986, -0.21, 192.0, 0.0, 0.0, 0.0, 0.0, 0.0, 0.0, 0.0, 0.0, 0.0, 1.696023606289572E9, 0.0, 2023-09-29 16:40:06.289
222.0, 28780.486140309113, 14635.341123979226, 11630.283192429924, -12279.757831067782, 10277.823838928205, -11320.063331134717, -187500.02235174447, 34552.86884938108, -26605.16966642972, 23113.13427843264, 1536.4142103688969, -790.0000560283728, 14410.19200208092, -2028.3314023412947, -119071.98954486723, -15473.509189308787, 0.184, 0.994, -0.21, 192.0, 2.5, 96.0, 15.5, 8.0, 124.5, 56.0, 0.0, 0.0, 0.0, 1.696023606289575E9, 0.0, 2023-09-29 16:40:06.289
224.0, 28521.94351219458, 14342.242698936785, 11722.618248774797, -12176.336309473076, 10229.231146482367, -11248.850673300109, -187500.02235174447, 34322.44471579132, -26669.587393949914, 23345.592420767836, 1554.1614954664108, -700.9730578628848, 14343.025009992722, -2091.0727490273416, -118726.49863082154, -15533.344809215643, 0.184, 0.994, -0.21, 192.0, 0.0, 0.0, 0.0, 0.0, 0.0, 0.0, 0.0, 0.0, 0.0, 1.696023606349258E9, 0.0, 2023-09-29 16:40:06.349
226.0, 28730.194715284673, 14571.54924530378, 11653.998393297004, -12253.114551677056, 10306.769347997826, -11289.530848208768, -187500.02235174447, 34495.44721787539, -26565.383561299273, 23068.31903079975, 1514.0177624246792, -822.991230844406, 14428.274563345261, -2005.8902509081663, -119078.87388215946, -15436.76292142426, 0.184, 0.994, -0.21, 192.0, 0.0, 0.0, 0.0, 0.0, 0.0, 0.0, 0.0, 0.0, 0.0, 1.696023606349269E9, 0.0, 2023-09-29 16:40:06.349
228.0, 28572.257288963472, 14406.727481690346, 11702.099347364825, -12191.669606169417, 10229.007629037813, -11253.097504746618, -187500.02235174447, 34366.58941109054, -26644.79930934898, 23403.885770307275, 1585.7445103817595, -665.3220254566701, 14352.010411263755, -2076.0970802422858, -118706.56087476741, -15506.053329235714, 0.184, 0.994, -0.21, 192.0, 0.0, 0.0, 0.0, 0.0, 0.0, 0.0, 0.0, 0.0, 0.0, 1.696023606349273E9, 0.0, 2023-09-29 16:40:06.349
230.0, 28664.748807519532, 14496.894418823054, 11663.386125968234, -12244.062095172656, 10324.740150539894, -11272.878798589563, -187500.02235174447, 34432.57176072261, -26562.701351964635, 23034.143213527586, 1479.86429689697, -859.2234086064587, 14424.966505165876, -2004.5938497297586, -119081.17611183836, -15418.278028759722, 0.184, 0.994, -0.21, 192.0, 0.0, 0.0, 0.0, 0.0, 0.0, 0.0, 0.0, 0.0, 0.0, 1.696023606349276E9, 0.0, 2023-09-29 16:40:06.349
232.0, 28628.20370533511, 14482.477543649382, 11682.966254111083, -12210.668588956427, 10235.713152374406, -11257.724315848865, -187500.02235174447, 34424.79335365217, -26631.790594075992, 23439.425043991214, 1607.1574815699437, -639.0587257216843, 14358.358306689062, -2070.151516217174, -118692.25575831602, -15491.055308706202, 0.184, 0.994, -0.20600000000000002, 192.0, 2.5, 96.0, 15.5, 8.0, 124.5, 72.0, 0.0, 0.0, 0.0, 1.696023606349279E9, 0.0, 2023-09-29 16:40:06.349
234.0, 28598.051202064897, 14423.491290031827, 11649.975079295049, -12249.761790008759, 10321.14151968259, -11267.670842131478, -187500.02235174447, 34382.01211476471, -26561.047322874943, 23011.2326754609, 1458.250160008688, -880.6587315390983, 14421.166708608474, -2008.9971433874541, -119071.60956521149, -15398.541438405686, 0.184, 0.994, -0.20600000000000002, 192.0, 0.0, 0.0, 0.0, 0.0, 0.0, 0.0, 0.0, 0.0, 0.0, 1.696023606349282E9, 0.0, 2023-09-29 16:40:06.349
236.0, 28682.29492691695, 14549.64453573758, 11667.990585326026, -12221.553888506161, 10251.538187448763, -11267.380269453559, -187500.02235174447, 34469.385083840505, -26615.205599690154, 23463.050837880473, 1615.5840892295944, -625.066533692662, 14364.12505675853, -2061.5237428574255, -118691.1158193488, -15480.885264979037, 0.184, 0.994, -0.20600000000000002, 192.0, 0.0, 0.0, 0.0, 0.0, 0.0, 0.0, 0.0, 0.0, 0.0, 1.696023606349286E9, 0.0, 2023-09-29 16:40:06.349
238.0, 28532.940570466588, 14350.870472296534, 11668.83995161533, -12228.438225798396, 10337.413589646052, -11253.119856491072, -187500.02235174447, 34319.18136110084, -26551.10079659233, 23001.911998023035, 1444.7720581021379, -892.1475281891261, 14423.781862709746, -2011.0088003884318, -119060.65721042838, -15394.451069170365, 0.184, 0.994, -0.20600000000000002, 192.0, 0.0, 0.0, 0.0, 0.0, 0.0, 0.0, 0.0, 0.0, 0.0, 1.696023606349289E9, 0.0, 2023-09-29 16:40:06.349
240.0, 28740.051834589463, 14622.690036617523, 11653.037268285427, -12233.690885745393, 10259.294242774755, -11273.974034067875, -187500.02235174447, 34524.9962240453, -26586.483608065082, 23470.918651928743, 1643.1214383985327, -603.3182863376483, 14381.000623822287, -2042.7929810038784, -118715.41216557172, -15461.77452346975, 0.184, 0.994, -0.20600000000000002, 192.0, 0.0, 0.0, 0.0, 0.0, 0.0, 0.0, 0.0, 0.0, 0.0, 1.69602360641046E9, 0.0, 2023-09-29 16:40:06.410
242.0, 28483.185587309075, 14290.856038434034, 11670.941015594128, -12219.385769293996, 10334.798435544782, -11242.860405786087, -187500.02235174447, 34280.40108447088, -26544.30586627792, 23010.1821434715, 1445.7555348581714, -889.375911876668, 14424.072435387665, -2009.868861421211, -119035.15387000488, -15380.347118419066, 0.184, 0.988, -0.21, 192.0, 2.5, 96.0, 15.0, 112.0, 124.5, 56.0, 0.0, 0.0, 0.0, 1.696023606410474E9, 0.0, 2023-09-29 16:40:06.410
