%OpenBCI Raw EXG Data
%Number of channels = 16
%Sample Rate = 125 Hz
%Board = OpenBCI_GUI$BoardCytonSerialDaisy
Sample Index, EXG Channel 0, EXG Channel 1, EXG Channel 2, EXG Channel 3, EXG Channel 4, EXG Channel 5, EXG Channel 6, EXG Channel 7, EXG Channel 8, EXG Channel 9, EXG Channel 10, EXG Channel 11, EXG Channel 12, EXG Channel 13, EXG Channel 14, EXG Channel 15, Accel Channel 0, Accel Channel 1, Accel Channel 2, Other, Other, Other, Other, Other, Other, Other, Analog Channel 0, Analog Channel 1, Analog Channel 2, Timestamp, Other, Timestamp (Formatted)
0.0, 36505.830169419074, 51505.10239661961, -20491.81109569205, -28325.628140643614, 7006.847203594113, 5918.406655598481, -187500.02235174447, -26825.848439436966, 0.0, 0.0, 0.0, 0.0, 0.0, 0.0, 0.0, 0.0, 0.0, 0.0, 0.0, 192.0, 0.0, 0.0, 0.0, 0.0, 0.0, 0.0, 0.0, 0.0, 0.0, 1.695766650945615E9, 0.0, 2023-09-26 17:17:30.945
194.0, 36503.84086416255, 51512.25495484531, -20495.230912593714, -28323.594131898182, 6997.817098834169, 5940.020792486763, -187500.02235174447, -26818.472363766716, 13693.840944032783, -31365.733607498838, 49060.04507065357, -29963.0722359505, 3902.100491774141, -26069.867738469573, -33419.56835026364, -25600.346994441392, 0.032, 0.9480000000000001, 0.358, 192.0, 0.5, 0.0, 14.5, 80.0, 5.5, 24.0, 0.0, 0.0, 0.0, 1.695766650945627E9, 0.0, 2023-09-26 17:17:30.945
196.0, 36495.347201269535, 51495.73701569284, -20502.182305119313, -28322.834172586703, 7003.181517503443, 5935.103408706595, -187500.02235174447, -26817.287721310586, 13697.908961523648, -31361.77734873025, 48979.5117353811, -29961.97700047219, 3888.041244511753, -26060.278840098246, -33418.56252176315, -25673.526605788065, 0.032, 0.9480000000000001, 0.358, 192.0, 0.0, 0.0, 0.0, 0.0, 0.0, 0.0, 0.0, 0.0, 0.0, 1.695766650945631E9, 0.0, 2023-09-26 17:17:30.945
198.0, 36495.32484952508, 51508.0081233988, -20508.887828455907, -28326.209285999452, 6999.627590135049, 5973.347243469625, -187500.02235174447, -26805.7765729161, 13683.670900305618, -31370.293363367724, 49063.7331084887, -29968.88368950888, 3892.9586282919204, -26064.950354689405, -33429.71604224635, -25585.125456467325, 0.032, 0.9480000000000001, 0.358, 192.0, 0.0, 0.0, 0.0, 0.0, 0.0, 0.0, 0.0, 0.0, 0.0, 1.695766650945635E9, 0.0, 2023-09-26 17:17:30.945
200.0, 36489.267526777694, 51488.4056435115, -20507.47966855522, -28325.583437154706, 7001.751005858303, 5941.071324476162, -187500.02235174447, -26813.82320092001, 13693.773888799416, -31360.771520229762, 48995.67204662228, -29971.096512209955, 3884.3979101655377, -26053.90859292848, -33426.63150151152, -25641.563611216978, 0.032, 0.9480000000000001, 0.358, 192.0, 0.0, 0.0, 0.0, 0.0, 0.0, 0.0, 0.0, 0.0, 0.0, 1.695766650945638E9, 0.0, 2023-09-26 17:17:30.945
202.0, 36489.37928549997, 51506.44350128693, -20510.228933123224, -28331.149021524077, 7008.367122217074, 5996.146022814039, -187500.02235174447, -26788.029287818586, 13680.385193870688, -31372.930869213447, 49025.57868070349, -29977.22089019071, 3892.131613747074, -26061.329372087643, -33429.35841433507, -25607.49955266709, 0.032, 0.9480000000000001, 0.358, 192.0, 0.0, 0.0, 0.0, 0.0, 0.0, 0.0, 0.0, 0.0, 0.0, 1.695766650945641E9, 0.0, 2023-09-26 17:17:30.945
204.0, 36490.49687272273, 51490.752576679304, -20500.52827602962, -28328.444460444985, 7002.153337258499, 5939.305536664193, -187500.02235174447, -26821.735718457192, 13690.689348064585, -31360.92798244095, 49014.8721951094, -29967.006142974635, 3884.53202063227, -26058.311886586176, -33423.56931252114, -25612.931026569728, 0.03, 0.9420000000000001, 0.352, 192.0, 0.0, 120.0, 14.5, 56.0, 5.5, 0.0, 0.0, 0.0, 0.0, 1.695766650945644E9, 0.0, 2023-09-26 17:17:30.945
206.0, 36487.68055292137, 51503.8059954412, -20511.3912238349, -28341.27436176233, 7011.6975321409145, 5989.015816332796, -187500.02235174447, -26789.750372141647, 13682.821534016317, -31367.342933099622, 48993.2133547322, -29971.700009310247, 3894.679712614979, -26067.364343090576, -33425.96094917786, -25633.137003557327, 0.03, 0.9420000000000001, 0.352, 192.0, 0.0, 0.0, 0.0, 0.0, 0.0, 0.0, 0.0, 0.0, 0.0, 1.695766650945647E9, 0.0, 2023-09-26 17:17:30.945
208.0, 36480.79621562913, 51478.21324803987, -20509.848953467485, -28345.051806575277, 6988.831697563136, 5903.878021702531, -187500.02235174447, -26856.626791551924, 13679.826400259304, -31375.143691914524, 49020.05779982302, -29987.21211996223, 3878.787622307256, -26076.215633894877, -33437.18152489442, -25609.06417477896, 0.03, 0.9420000000000001, 0.352, 192.0, 0.0, 0.0, 0.0, 0.0, 0.0, 0.0, 0.0, 0.0, 0.0, 1.695766650945651E9, 0.0, 2023-09-26 17:17:30.945
210.0, 36489.78161690016, 51497.5028035048, -20504.4398313093, -28341.252010017874, 7014.782072875747, 5962.216074730883, -187500.02235174447, -26815.276064309608, 13683.961472983538, -31377.06594193768, 48955.5059618361, -29982.406494904342, 3894.5008986593366, -26078.719029273874, -33430.9900916803, -25670.777341220062, 0.03, 0.9420000000000001, 0.352, 192.0, 0.0, 0.0, 0.0, 0.0, 0.0, 0.0, 0.0, 0.0, 0.0, 1.695766650945654E9, 0.0, 2023-09-26 17:17:30.945
0.0, 18199.729108778134, 25703.813219525007, -10259.406001497031, -14144.250946551676, 3523.149016278865, 2997.6818558790515, -93750.01117587223, -13403.60354228062, 6844.841759782048, -15686.364851756676, 24537.275676402533, -14988.543389861989, 1945.6522996011138, -13040.253584415148, -16717.27200952435, -12780.950996989131, 0.028999999999999998, 0.9420000000000001, 0.348, 192.0, 0.0, 112.0, 14.5, 56.0, 5.0, 96.0, 0.0, 0.0, 0.0, 1.69576665104939E9, 0.0, 2023-09-26 17:17:31.049
2.0, 36397.96065067776, 51426.40190439247, -20518.320264616046, -28291.27350941581, 7069.92382644699, 6073.81833479623, -187500.02235174447, -26755.775720569578, 13623.879983887671, -31320.76189765476, 48986.99956977362, -29896.15111305131, 4038.6249469071568, -26043.649142223498, -33382.59856493456, -25476.51833015899, 0.028999999999999998, 0.9420000000000001, 0.348, 192.0, 0.0, 0.0, 0.0, 0.0, 0.0, 0.0, 0.0, 0.0, 0.0, 1.695766651109055E9, 0.0, 2023-09-26 17:17:31.109
4.0, 36398.16181637786, 51406.441796593885, -20510.363043589958, -28293.55338735025, 7048.667317469993, 6004.706740940421, -187500.02235174447, -26804.63663394888, 13627.880946145171, -31321.566560455154, 49100.7923007956, -29894.474732217164, 4038.6249469071568, -26040.810470677672, -33373.56846017462, -25372.292145763895, 0.028999999999999998, 0.9420000000000001, 0.348, 192.0, 0.0, 0.0, 0.0, 0.0, 0.0, 0.0, 0.0, 0.0, 0.0, 1.695766651109067E9, 0.0, 2023-09-26 17:17:31.109
6.0, 36386.5389092611, 51406.95588671636, -20512.352348846478, -28302.73995432138, 7080.4291463409845, 6070.800849294764, -187500.02235174447, -26756.893307792343, 13624.103501332225, -31334.038833861214, 48956.10945893639, -29908.44457250173, 4041.9553568309975, -26046.71133121387, -33371.42269270691, -25511.85643814283, 0.028999999999999998, 0.9420000000000001, 0.348, 192.0, 0.0, 0.0, 0.0, 0.0, 0.0, 0.0, 0.0, 0.0, 0.0, 1.695766651109071E9, 0.0, 2023-09-26 17:17:31.109
8.0, 36393.289136086605, 51394.46126156584, -20509.021938922637, -28297.397887396564, 7056.669241984992, 6004.930258384974, -187500.02235174447, -26818.047680622065, 13623.634114698663, -31340.699653708896, 49117.42199867034, -29913.29490104853, 4044.123476043162, -26051.047569638202, -33373.65786715244, -25360.713942136044, 0.028, 0.9480000000000001, 0.34400000000000003, 192.0, 0.0, 112.0, 14.5, 80.0, 5.0, 96.0, 0.0, 0.0, 0.0, 1.695766651109075E9, 0.0, 2023-09-26 17:17:31.109
10.0, 36393.08797038651, 51412.812043763646, -20517.82852623803, -28291.787599538282, 7073.298939859741, 6063.290663157781, -187500.02235174447, -26759.262592704607, 13622.40476875362, -31327.467420991354, 48985.144374983836, -29903.683650932748, 4037.41795270657, -26043.20210733439, -33377.16709103192, -25491.292833243948, 0.028, 0.9480000000000001, 0.34400000000000003, 192.0, 0.0, 0.0, 0.0, 0.0, 0.0, 0.0, 0.0, 0.0, 0.0, 1.695766651109078E9, 0.0, 2023-09-26 17:17:31.109
12.0, 36400.17347337884, 51408.78872976169, -20516.040386681605, -28291.899358260558, 7050.097829115132, 6013.669790466999, -187500.02235174447, -26810.649253207357, 13623.432948998565, -31314.972795840837, 49136.82331285755, -29894.474732217164, 4040.6366039081345, -26039.067034610158, -33377.14473928747, -25346.989971040486, 0.028, 0.9480000000000001, 0.34400000000000003, 192.0, 0.0, 0.0, 0.0, 0.0, 0.0, 0.0, 0.0, 0.0, 0.0, 1.695766651109081E9, 0.0, 2023-09-26 17:17:31.109
14.0, 36395.41255180986, 51410.12983442901, -20513.53699130261, -28293.59809083916, 7073.254236370831, 6056.182808420994, -187500.02235174447, -26767.644496875346, 13620.259001285911, -31324.96402561236, 48984.04913950553, -29899.660336930792, 4032.9029003265982, -26050.131148115535, -33380.29633525566, -25490.197597765637, 0.028, 0.9480000000000001, 0.34400000000000003, 192.0, 0.0, 0.0, 0.0, 0.0, 0.0, 0.0, 0.0, 0.0, 0.0, 1.695766651109085E9, 0.0, 2023-09-26 17:17:31.109
16.0, 36404.84498797, 51405.72654077131, -20510.3406918455, -28292.50285536085, 7050.701326215426, 6020.017685892307, -187500.02235174447, -26806.20125606075, 13624.416425754598, -31329.747298925795, 49152.15660955389, -29896.128761306856, 4048.3703074896707, -26051.42754929394, -33378.150567787954, -25329.980293509998, 0.028, 0.9480000000000001, 0.34400000000000003, 192.0, 0.0, 0.0, 0.0, 0.0, 0.0, 0.0, 0.0, 0.0, 0.0, 1.695766651168436E9, 0.0, 2023-09-26 17:17:31.168
18.0, 36407.43779032681, 51410.26394489574, -20508.329034844523, -28283.11512268962, 7070.549675291739, 6040.29071811327, -187500.02235174447, -26777.568671413504, 13642.141359107658, -31322.974720355836, 48986.038444762045, -29884.349391978907, 4041.3295079862487, -26043.559735245675, -33377.59177417657, -25496.52314144649, 0.03, 0.9500000000000001, 0.34, 192.0, 0.0, 120.0, 14.5, 88.0, 5.0, 80.0, 0.0, 0.0, 0.0, 1.695766651168449E9, 0.0, 2023-09-26 17:17:31.168
20.0, 36402.855682713474, 51411.24742165177, -20523.595276307497, -28292.234634427386, 7046.186273835454, 6023.705723727432, -187500.02235174447, -26805.486000238183, 13627.657428700619, -31326.372185513042, 49116.12559749193, -29890.87610135986, 4044.168179532073, -26049.550002759697, -33388.90175687096, -25373.096808564285, 0.03, 0.9500000000000001, 0.34, 192.0, 0.0, 0.0, 0.0, 0.0, 0.0, 0.0, 0.0, 0.0, 0.0, 1.695766651168453E9, 0.0, 2023-09-26 17:17:31.168
22.0, 36393.17737736432, 51405.324209371116, -20514.63222678092, -28288.680707058993, 7069.521495046794, 6034.278098854792, -187500.02235174447, -26778.954479569733, 13627.03157985587, -31320.44897323239, 48992.14047099835, -29893.178331038755, 4029.259565980383, -26046.95720040288, -33386.15249230296, -25492.52217918899, 0.03, 0.9500000000000001, 0.34, 192.0, 0.0, 0.0, 0.0, 0.0, 0.0, 0.0, 0.0, 0.0, 0.0, 1.695766651168456E9, 0.0, 2023-09-26 17:17:31.168
24.0, 36389.4893395292, 51398.10459591205, -20504.886866198405, -28286.423180869006, 7067.465134556906, 6041.743581502865, -187500.02235174447, -26791.180883786787, 13623.03061759837, -31329.456726247878, 49115.9914870252, -29892.68659266074, 4050.89605461312, -26046.264296324767, -33372.83085260759, -25381.054029590374, 0.03, 0.9500000000000001, 0.34, 192.0, 0.0, 0.0, 0.0, 0.0, 0.0, 0.0, 0.0, 0.0, 0.0, 1.695766651168459E9, 0.0, 2023-09-26 17:17:31.168
26.0, 36374.37956027741, 51367.66151996393, -20502.227008608224, -28291.31821290472, 7069.745012491348, 6023.772778960798, -187500.02235174447, -26800.21098854673, 13632.395998525144, -31331.513086737763, 49026.316288270515, -29893.401848483307, 4043.3188132427713, -26044.63261897953, -33367.01939904921, -25475.244280725037, 0.03, 0.9500000000000001, 0.34, 192.0, 0.0, 0.0, 0.0, 0.0, 0.0, 0.0, 0.0, 0.0, 0.0, 1.695766651168462E9, 0.0, 2023-09-26 17:17:31.168
28.0, 36362.868411882926, 51364.46522050682, -20511.927665701827, -28299.856579286647, 7062.30188158773, 6040.223662879904, -187500.02235174447, -26788.453970963237, 13622.65063794263, -31345.035892133226, 49114.0915887465, -29902.811932898992, 4052.997118591919, -26051.695770227405, -33374.01549506372, -25393.54865474089, 0.032, 0.9480000000000001, 0.342, 192.0, 0.5, 0.0, 14.5, 80.0, 5.0, 88.0, 0.0, 0.0, 0.0, 1.695766651168466E9, 0.0, 2023-09-26 17:17:31.168
30.0, 36323.88696955287, 51295.688902817834, -20520.086052428014, -28308.32789043521, 7059.574968764183, 5987.674711665477, -187500.02235174447, -26818.472363766716, 13613.128794804668, -31370.2039563899, 49042.096619855954, -29929.231694845166, 4029.2372142359277, -26064.503319800297, -33383.29146901268, -25458.212251450095, 0.032, 0.9480000000000001, 0.342, 192.0, 0.0, 0.0, 0.0, 0.0, 0.0, 0.0, 0.0, 0.0, 0.0, 1.695766651168469E9, 0.0, 2023-09-26 17:17:31.168
32.0, 36285.352562111926, 51262.228341368245, -20528.222087409747, -28315.50280040536, 7061.564274020705, 6030.14302613056, -187500.02235174447, -26793.460761721228, 13588.340710203733, -31397.137808458545, 49063.7331084887, -29946.956628198222, 4037.7532288733996, -26076.282689128246, -33385.05725682464, -25430.339626114324, 0.032, 0.9480000000000001, 0.342, 192.0, 0.0, 0.0, 0.0, 0.0, 0.0, 0.0, 0.0, 0.0, 0.0, 1.695766651228137E9, 0.0, 2023-09-26 17:17:31.228
34.0, 36251.422614028765, 51201.47629993872, -20531.15016593339, -28314.228750971408, 7056.088096629155, 5992.055653578717, -187500.02235174447, -26809.621072962414, 13585.457335168998, -31413.11930574409, 49013.48638695316, -29959.652419048838, 4026.286783967827, -26074.382790849544, -33378.7764166327, -25471.824463823377, 0.032, 0.9480000000000001, 0.342, 192.0, 0.0, 0.0, 0.0, 0.0, 0.0, 0.0, 0.0, 0.0, 0.0, 1.695766651228147E9, 0.0, 2023-09-26 17:17:31.228
36.0, 36227.796820139505, 51183.930180541305, -20539.91204975987, -28321.358957452652, 7059.686727486459, 6043.554072803745, -187500.02235174447, -26785.570595928504, 13567.665346582575, -31433.101765287134, 49020.39307598986, -29972.527023855095, 4033.8640253381764, -26080.46246534139, -33387.31478301463, -25454.546565359422, 0.032, 0.9480000000000001, 0.342, 192.0, 0.0, 0.0, 0.0, 0.0, 0.0, 0.0, 0.0, 0.0, 0.0, 1.69576665122815E9, 0.0, 2023-09-26 17:17:31.228
38.0, 36200.90767155978, 51143.2723573771, -20542.281334672134, -28322.297730719776, 7049.069648870189, 5988.233505276859, -187500.02235174447, -26811.72213694121, 13573.230930951946, -31431.827715853182, 49006.22207000519, -29975.723323312202, 4023.671629866556, -26072.326430359655, -33385.70545741385, -25460.04509449543, 0.028, 0.9420000000000001, 0.34400000000000003, 192.0, 0.0, 112.0, 14.5, 56.0, 5.0, 96.0, 0.0, 0.0, 0.0, 1.695766651228153E9, 0.0, 2023-09-26 17:17:31.228
40.0, 36168.519993844035, 51122.35112456693, -20554.5524423781, -28337.027530315823, 7056.892759429546, 6049.320822873214, -187500.02235174447, -26768.851491075933, 13546.766465516863, -31461.84610865666, 48968.760546298094, -29996.532797400094, 4023.5375193998243, -26086.16216017749, -33397.14955057497, -25486.107228530316, 0.028, 0.9420000000000001, 0.34400000000000003, 192.0, 0.0, 0.0, 0.0, 0.0, 0.0, 0.0, 0.0, 0.0, 0.0, 1.695766651228157E9, 0.0, 2023-09-26 17:17:31.228
42.0, 36148.805755234454, 51080.12867929086, -20555.267698200667, -28342.056672818268, 7037.022058608778, 5972.564932413689, -187500.02235174447, -26821.959235901744, 13546.25237539439, -31476.330039063698, 49019.83428237847, -30015.397669720373, 4014.0827314952294, -26094.2087881814, -33399.51883548723, -25429.64672203621, 0.028, 0.9420000000000001, 0.34400000000000003, 192.0, 0.0, 0.0, 0.0, 0.0, 0.0, 0.0, 0.0, 0.0, 0.0, 1.69576665122816E9, 0.0, 2023-09-26 17:17:31.228
44.0, 36131.66196723723, 51083.794365381524, -20555.558270878588, -28343.643646674594, 7064.358242077618, 6039.8213314797085, -187500.02235174447, -26778.23922374716, 13547.906404484083, -31480.621573999117, 48941.98315644064, -30011.195541762776, 4031.2935747258157, -26092.15242769151, -33390.60048944956, -25499.607682181322, 0.028, 0.9420000000000001, 0.34400000000000003, 192.0, 0.0, 0.0, 0.0, 0.0, 0.0, 0.0, 0.0, 0.0, 0.0, 1.695766651228163E9, 0.0, 2023-09-26 17:17:31.228
46.0, 36124.84468517837, 51055.60881562338, -20557.01113426818, -28347.868126376645, 7036.977355119867, 5961.500818908313, -187500.02235174447, -26842.321675100528, 13541.603212547687, -31486.07539964621, 49043.5271315011, -30020.80679187856, 4019.447150164503, -26099.752020806318, -33398.82593140911, -25398.421335032148, 0.028, 0.9420000000000001, 0.34400000000000003, 192.0, 0.0, 0.0, 0.0, 0.0, 0.0, 0.0, 0.0, 0.0, 0.0, 1.695766651288425E9, 0.0, 2023-09-26 17:17:31.288
48.0, 36117.692126952665, 51072.283216987045, -20570.243366985724, -28352.98667585691, 7058.457381541417, 6036.937956444974, -187500.02235174447, -26783.64834590535, 13540.865604980661, -31493.965565438935, 48925.91225217727, -30024.40542273586, 4025.929156056542, -26103.797686552727, -33398.96004187585, -25508.79424915245, 0.03, 0.9480000000000001, 0.34600000000000003, 192.0, 0.0, 120.0, 14.5, 80.0, 5.0, 104.0, 0.0, 0.0, 0.0, 1.695766651288439E9, 0.0, 2023-09-26 17:17:31.288
50.0, 36108.05852509243, 51055.6535191123, -20568.656393129397, -28349.388044999607, 7031.34471551713, 5968.072231778173, -187500.02235174447, -26841.248791366674, 13530.494395553398, -31492.959736938446, 49053.54071301708, -30033.70374842927, 4009.902955282087, -26105.719936575882, -33406.29141405719, -25383.043334846894, 0.03, 0.9480000000000001, 0.34600000000000003, 192.0, 0.0, 0.0, 0.0, 0.0, 0.0, 0.0, 0.0, 0.0, 0.0, 1.695766651288442E9, 0.0, 2023-09-26 17:17:31.288
52.0, 36108.72907742609, 51075.32305423296, -20556.40763716789, -28334.345320981185, 7069.029756668778, 6047.733849016888, -187500.02235174447, -26770.818444588, 13532.751921743384, -31490.433989815, 48914.11053110487, -30029.523972216128, 4016.072036751752, -26094.342898648134, -33396.16607381893, -25508.458972985623, 0.03, 0.9480000000000001, 0.34600000000000003, 192.0, 0.0, 0.0, 0.0, 0.0, 0.0, 0.0, 0.0, 0.0, 0.0, 1.695766651288446E9, 0.0, 2023-09-26 17:17:31.288
54.0, 36122.6765659662, 51069.24337974112, -20549.25507894219, -28333.22773375842, 7040.307765043708, 5976.632949904555, -187500.02235174447, -26835.683206997302, 13546.386485861121, -31476.24063208588, 49036.46398025322, -30017.90106509937, 4024.543347900313, -26087.056229955702, -33386.44306498087, -25391.984032629018, 0.03, 0.9480000000000001, 0.34600000000000003, 192.0, 0.0, 0.0, 0.0, 0.0, 0.0, 0.0, 0.0, 0.0, 0.0, 1.695766651288449E9, 0.0, 2023-09-26 17:17:31.288
56.0, 36132.28781608198, 51092.35508350791, -20553.16663422187, -28340.961437339956, 7066.883989201068, 6038.927261701497, -187500.02235174447, -26775.244089990152, 13548.755770773385, -31484.84605370117, 48898.95604836417, -30021.633806423404, 4021.771731587855, -26095.63929982654, -33395.8307976521, -25520.19363882466, 0.03, 0.9480000000000001, 0.34600000000000003, 192.0, 0.0, 0.0, 0.0, 0.0, 0.0, 0.0, 0.0, 0.0, 0.0, 1.695766651288452E9, 0.0, 2023-09-26 17:17:31.288
58.0, 36145.34123484388, 51090.2093160402, -20554.17246272236, -28342.45900421846, 7040.017192365789, 5979.672787150477, -187500.02235174447, -26830.184677861296, 13547.839349250717, -31481.94032692198, 49046.924596658304, -30017.834009866, 4025.7056386119893, -26097.49449461633, -33390.3322685161, -25381.143436568196, 0.03, 0.9500000000000001, 0.34400000000000003, 192.0, 0.0, 120.0, 14.5, 88.0, 5.0, 96.0, 0.0, 0.0, 0.0, 1.695766651288455E9, 0.0, 2023-09-26 17:17:31.288
60.0, 36141.76495573103, 51108.33658079345, -20563.73900934923, -28342.88368736311, 7057.429201296473, 6032.378200576091, -187500.02235174447, -26784.542415683558, 13543.145482915103, -31480.93449842149, 48901.34768502089, -30019.778611633614, 4015.803815818288, -26102.4118783965, -33397.35071627506, -25509.66596718621, 0.03, 0.9500000000000001, 0.34400000000000003, 192.0, 0.0, 0.0, 0.0, 0.0, 0.0, 0.0, 0.0, 0.0, 0.0, 1.695766651288458E9, 0.0, 2023-09-26 17:17:31.288
62.0, 36164.02729320852, 51126.821473457996, -20546.282296929636, -28325.40462319906, 7043.504064500817, 5989.976941344374, -187500.02235174447, -26816.170134087817, 13546.051209694293, -31463.768358679816, 49062.459059054745, -30009.765030117636, 4024.588051389224, -26092.845331769626, -33394.444989495874, -25347.995799540975, 0.03, 0.9500000000000001, 0.34400000000000003, 192.0, 0.0, 0.0, 0.0, 0.0, 0.0, 0.0, 0.0, 0.0, 0.0, 1.695766651348865E9, 0.0, 2023-09-26 17:17:31.348
64.0, 36176.74543580359, 51146.46865683421, -20541.58843059402, -28327.908018578055, 7065.878160700579, 6023.839834194164, -187500.02235174447, -26779.021534803098, 13564.44669538101, -31434.68873914346, 48891.35645524937, -29988.866149051926, 4031.4053334480923, -26076.394447850522, -33383.64909692396, -25513.75633642153, 0.03, 0.9500000000000001, 0.34400000000000003, 192.0, 0.0, 0.0, 0.0, 0.0, 0.0, 0.0, 0.0, 0.0, 0.0, 1.695766651348876E9, 0.0, 2023-09-26 17:17:31.348
66.0, 36198.62779362533, 51162.807782031035, -20541.141395704915, -28337.027530315823, 7044.755762190314, 5996.213078047404, -187500.02235174447, -26811.140991585376, 13566.234834937435, -31439.82964036818, 49033.155922073835, -29998.61150963444, 4035.316888727771, -26083.412895609486, -33397.663640697436, -25380.02584934543, 0.03, 0.9500000000000001, 0.34400000000000003, 192.0, 0.0, 0.0, 0.0, 0.0, 0.0, 0.0, 0.0, 0.0, 0.0, 1.695766651348879E9, 0.0, 2023-09-26 17:17:31.348
68.0, 36206.272090229046, 51175.2800554371, -20537.25219216969, -28331.774870368823, 7066.481657800872, 6019.5706510032005, -187500.02235174447, -26783.715401138714, 13578.55064613231, -31423.35640470462, 48904.521632733544, -29993.671774109815, 4030.9135950700756, -26076.081523428147, -33389.617012693525, -25500.971138593097, 0.022, 0.9580000000000001, 0.34800000000000003, 192.0, 0.0, 88.0, 14.5, 120.0, 5.0, 112.0, 0.0, 0.0, 0.0, 1.695766651348883E9, 0.0, 2023-09-26 17:17:31.348
70.0, 36224.64522417131, 51202.0350935501, -20530.09963394399, -28320.353128952163, 7049.159055848009, 6015.726150956888, -187500.02235174447, -26798.19933154575, 13570.816942550773, -31412.985195277357, 49048.08688736998, -29990.14019848588, 4038.960223073986, -26076.036819939236, -33392.29922202817, -25359.35048572427, 0.022, 0.9580000000000001, 0.34800000000000003, 192.0, 0.0, 0.0, 0.0, 0.0, 0.0, 0.0, 0.0, 0.0, 0.0, 1.695766651348886E9, 0.0, 2023-09-26 17:17:31.348
72.0, 36238.011567355585, 51222.442236237795, -20517.11327041546, -28305.422163656018, 7061.452515298429, 6024.800959205742, -187500.02235174447, -26783.089552293965, 13580.763468833384, -31375.568375059174, 48926.6498597443, -29967.386122630374, 4030.9806503034415, -26048.119491114558, -33385.70545741385, -25470.975097534072, 0.022, 0.9580000000000001, 0.34800000000000003, 192.0, 0.0, 0.0, 0.0, 0.0, 0.0, 0.0, 0.0, 0.0, 0.0, 1.695766651348889E9, 0.0, 2023-09-26 17:17:31.348
74.0, 36259.11161412139, 51251.20893135178, -20503.948092931285, -28309.84780905817, 7064.134724633065, 6033.764008732321, -187500.02235174447, -26791.382049486885, 13585.278521213357, -31362.090273152626, 49030.294898783555, -29955.897325980346, 4048.4597144674917, -26046.085482369126, -33384.83373938009, -25370.21343352955, 0.022, 0.9580000000000001, 0.34800000000000003, 192.0, 0.0, 0.0, 0.0, 0.0, 0.0, 0.0, 0.0, 0.0, 0.0, 1.695766651348892E9, 0.0, 2023-09-26 17:17:31.348
76.0, 36275.78601548505, 51249.59960575099, -20501.66821499684, -28319.45905917395, 7063.6429862550485, 6008.350075286637, -187500.02235174447, -26803.183770559284, 13604.679835400562, -31350.959104413883, 48945.000641942104, -29953.34922711244, 4044.3693452321704, -26044.453805023888, -33381.34686724506, -25459.441597395136, 0.022, 0.9580000000000001, 0.34800000000000003, 192.0, 0.0, 0.0, 0.0, 0.0, 0.0, 0.0, 0.0, 0.0, 0.0, 1.695766651409081E9, 0.0, 2023-09-26 17:17:31.409
78.0, 36295.94728898374, 51280.78028926615, -20501.020014407637, -28312.194742225976, 7060.089058886655, 6041.430657080491, -187500.02235174447, -26778.06040979152, 13603.606951666708, -31363.386674331032, 49033.06651509601, -29966.961439485724, 4051.7230691579666, -26056.367284818567, -33390.75695166075, -25380.718753423545, 0.02, 0.9560000000000001, 0.34800000000000003, 192.0, 0.0, 80.0, 14.5, 112.0, 5.0, 112.0, 0.0, 0.0, 0.0, 1.695766651409097E9, 0.0, 2023-09-26 17:17:31.409
80.0, 36306.69847806674, 51287.64227481393, -20500.66238649635, -28292.70402106095, 7057.138628618554, 6016.821386435197, -187500.02235174447, -26788.990412830164, 13609.17253603608, -31342.308979309677, 48989.99470353064, -29950.64466603335, 4036.7697521173664, -26034.931961885926, -33378.932878843894, -25430.51844006997, 0.02, 0.9560000000000001, 0.34800000000000003, 192.0, 0.0, 0.0, 0.0, 0.0, 0.0, 0.0, 0.0, 0.0, 0.0, 1.695766651409101E9, 0.0, 2023-09-26 17:17:31.409
82.0, 36330.03369927808, 51336.10085679303, -20491.587578247498, -28280.142340677066, 7065.58758802266, 6068.856247527153, -187500.02235174447, -26768.650325375835, 13604.411614467099, -31327.86975239155, 49051.193779849265, -29933.679691991772, 4049.018508078874, -26026.05831933717, -33378.865823610526, -25376.114294065752, 0.02, 0.9560000000000001, 0.34800000000000003, 192.0, 0.0, 0.0, 0.0, 0.0, 0.0, 0.0, 0.0, 0.0, 0.0, 1.695766651409105E9, 0.0, 2023-09-26 17:17:31.409
84.0, 36354.553562945555, 51338.73836263876, -20470.643993692876, -28273.88385222958, 7065.565236278205, 6014.832081178675, -187500.02235174447, -26791.762029142625, 13633.960620637015, -31298.47720843282, 49028.350297015946, -29909.763325424592, 4052.907711614098, -26005.29354873819, -33359.53156465668, -25413.911093939674, 0.02, 0.9560000000000001, 0.34800000000000003, 192.0, 0.0, 0.0, 0.0, 0.0, 0.0, 0.0, 0.0, 0.0, 0.0, 1.695766651409108E9, 0.0, 2023-09-26 17:17:31.409
86.0, 36369.41747300833, 51371.72953745479, -20479.71880194173, -28291.787599538282, 7069.253274113331, 6069.77266904982, -187500.02235174447, -26754.546374624537, 13635.614649726707, -31313.38582198451, 49030.69723018375, -29912.981976626157, 4068.8221536662763, -26024.448993736387, -33369.12046302801, -25422.047128921407, 0.02, 0.9560000000000001, 0.34800000000000003, 192.0, 0.0, 0.0, 0.0, 0.0, 0.0, 0.0, 0.0, 0.0, 0.0, 1.695766651409112E9, 0.0, 2023-09-26 17:17:31.409
88.0, 36389.66815348484, 51373.092993866565, -20471.739229171184, -28280.052933699244, 7064.537056033261, 6007.344246786148, -187500.02235174447, -26791.091476808964, 13651.350277823243, -31305.518007936244, 49057.966358419224, -29913.11608709289, 4062.317796029782, -26017.51995295524, -33364.56070715913, -25411.944140427608, 0.026000000000000002, 0.9580000000000001, 0.342, 192.0, 0.0, 104.0, 14.5, 120.0, 5.0, 88.0, 0.0, 0.0, 0.0, 1.695766651409115E9, 0.0, 2023-09-26 17:17:31.409
90.0, 36401.62633676843, 51415.7848257762, -20484.636185721898, -28278.868291243114, 7073.6789195154815, 6079.62978835461, -187500.02235174447, -26757.407397914816, 13644.018905641904, -31298.25369098827, 49016.81679687701, -29902.253139287608, 4068.9562641330085, -26015.508295954263, -33366.79588160466, -25462.637896852244, 0.026000000000000002, 0.9580000000000001, 0.342, 192.0, 0.0, 0.0, 0.0, 0.0, 0.0, 0.0, 0.0, 0.0, 0.0, 1.695766651409118E9, 0.0, 2023-09-26 17:17:31.409
92.0, 36408.35421184948, 51409.34752337307, -20480.59051997549, -28274.77792200779, 7057.026869896277, 6002.76213917281, -187500.02235174447, -26811.29745379656, 13635.88287066017, -31289.357696695057, 49126.36269645247, -29892.396019982818, 4048.1467900451175, -26016.223551776835, -33376.00480032025, -25360.64688690268, 0.026000000000000002, 0.9580000000000001, 0.342, 192.0, 0.0, 0.0, 0.0, 0.0, 0.0, 0.0, 0.0, 0.0, 0.0, 1.695766651469385E9, 0.0, 2023-09-26 17:17:31.469
94.0, 36413.02572644064, 51431.9898405063, -20475.360211772946, -28280.142340677066, 7085.9723789659, 6074.86886678563, -187500.02235174447, -26756.24510720314, 13647.46107428802, -31285.021458270727, 49052.62429149441, -29888.57387168096, 4067.4363455100474, -26013.317824997644, -33365.61123914853, -25437.112204684283, 0.026000000000000002, 0.9580000000000001, 0.342, 192.0, 0.0, 0.0, 0.0, 0.0, 0.0, 0.0, 0.0, 0.0, 0.0, 1.695766651469395E9, 0.0, 2023-09-26 17:17:31.469
96.0, 36430.750659793695, 51421.30570665666, -20466.799493646562, -28277.795407509257, 7062.815971710203, 5999.543487971246, -187500.02235174447, -26807.430602005792, 13661.922652950605, -31285.557900137654, 49158.236284045735, -29894.452380472707, 4065.894075142631, -26014.65892966496, -33368.62872464999, -25342.72078784952, 0.026000000000000002, 0.9580000000000001, 0.342, 192.0, 0.0, 0.0, 0.0, 0.0, 0.0, 0.0, 0.0, 0.0, 0.0, 1.695766651469399E9, 0.0, 2023-09-26 17:17:31.469
98.0, 36436.2491889297, 51454.9450820619, -20473.75088617216, -28275.604936552638, 7088.833402256179, 6072.3431196621805, -187500.02235174447, -26752.512365879105, 13665.65539427464, -31285.267327459733, 49026.56215745952, -29888.01507806958, 4072.353729290215, -26013.161362786457, -33364.96303855933, -25470.773931833977, 0.03, 0.96, 0.342, 192.0, 0.0, 120.0, 15.0, 0.0, 5.0, 88.0, 0.0, 0.0, 0.0, 1.695766651469402E9, 0.0, 2023-09-26 17:17:31.469
100.0, 36444.11700297797, 51453.33575646112, -20469.392296003378, -28259.981067178378, 7062.435992054462, 6000.929296127474, -187500.02235174447, -26807.967043872723, 13658.927519193592, -31274.13615872099, 49162.080784092046, -29879.230842498644, 4063.4353832525476, -26011.39557497449, -33364.65011413695, -25342.318456449328, 0.03, 0.96, 0.342, 192.0, 0.0, 0.0, 0.0, 0.0, 0.0, 0.0, 0.0, 0.0, 0.0, 1.695766651469406E9, 0.0, 2023-09-26 17:17:31.469
102.0, 36440.16074420938, 51470.01015782478, -20473.884996638895, -28259.44462531145, 7091.560315079727, 6083.809564567753, -187500.02235174447, -26734.09452844793, 13662.36968783971, -31258.020550968715, 49006.04325604955, -29863.986952780124, 4068.0398426103407, -25997.135162012, -33352.088433753066, -25492.879807100275, 0.03, 0.96, 0.342, 192.0, 0.0, 0.0, 0.0, 0.0, 0.0, 0.0, 0.0, 0.0, 0.0, 1.695766651469409E9, 0.0, 2023-09-26 17:17:31.469
104.0, 36441.59125585452, 51454.56510240616, -20478.422400763324, -28277.817759253714, 7056.043393140244, 6010.7640636878095, -187500.02235174447, -26802.759087414634, 13659.709830249529, -31270.22460344131, 49147.619205429466, -29876.86155758638, 4063.8377146527428, -26007.349909228076, -33364.6277623925, -25353.5837356548, 0.03, 0.96, 0.342, 192.0, 0.0, 0.0, 0.0, 0.0, 0.0, 0.0, 0.0, 0.0, 0.0, 1.695766651469412E9, 0.0, 2023-09-26 17:17:31.469
106.0, 36436.562113352076, 51460.51066643127, -20480.90344439786, -28288.054858214244, 7081.949064963945, 6057.479209599401, -187500.02235174447, -26760.96132528321, 13660.983879683481, -31281.19930996887, 49010.22303226269, -29889.602051925907, 4062.5189617298797, -26017.989339588803, -33368.98635256128, -25484.229681996072, 0.03, 0.96, 0.342, 192.0, 0.0, 0.0, 0.0, 0.0, 0.0, 0.0, 0.0, 0.0, 0.0, 1.695766651528322E9, 0.0, 2023-09-26 17:17:31.528
108.0, 36438.12673546395, 51456.55440766268, -20482.557473487555, -28283.986840723377, 7058.435029796962, 6005.4890519963565, -187500.02235174447, -26816.7289276992, 13655.887681947672, -31284.775589081717, 49158.61626370147, -29892.127799049355, 4065.8493716537205, -26024.448993736387, -33375.06602705312, -25343.34663669427, 0.032, 0.9460000000000001, 0.34, 192.0, 0.5, 0.0, 14.5, 72.0, 5.0, 80.0, 0.0, 0.0, 0.0, 1.695766651528338E9, 0.0, 2023-09-26 17:17:31.528
110.0, 36433.63403482843, 51463.081117043635, -20486.133752600403, -28277.661297042527, 7078.64100678456, 6052.114790930127, -187500.02235174447, -26762.369485183895, 13655.105370891735, -31269.37523715201, 48998.93540131276, -29881.37660996635, 4060.708470429, -26011.350871485578, -33370.28275373969, -25490.51052218801, 0.032, 0.9460000000000001, 0.34, 192.0, 0.0, 0.0, 0.0, 0.0, 0.0, 0.0, 0.0, 0.0, 0.0, 1.695766651528342E9, 0.0, 2023-09-26 17:17:31.528
112.0, 36445.77103206766, 51462.008233309774, -20476.924833884816, -28276.811930753225, 7057.228035596376, 6016.150834101539, -187500.02235174447, -26802.93790137028, 13649.629193500185, -31273.063274987137, 49162.34900502551, -29879.052028543, 4063.61419720819, -26015.217723276346, -33376.09420729807, -25327.34278766427, 0.032, 0.9460000000000001, 0.34, 192.0, 0.0, 0.0, 0.0, 0.0, 0.0, 0.0, 0.0, 0.0, 0.0, 1.695766651528345E9, 0.0, 2023-09-26 17:17:31.528
114.0, 36439.87017153146, 51452.95577680538, -20474.82376990602, -28283.27158490081, 7073.053070670733, 6044.559901304234, -187500.02235174447, -26774.95351731223, 13666.862388475227, -31273.95734476535, 49002.13170076987, -29876.25806048609, 4064.284749541849, -26013.518990697743, -33370.9756578178, -25483.670888384688, 0.032, 0.9460000000000001, 0.34, 192.0, 0.0, 0.0, 0.0, 0.0, 0.0, 0.0, 0.0, 0.0, 0.0, 1.695766651528348E9, 0.0, 2023-09-26 17:17:31.528
116.0, 36451.53778213713, 51452.66520412746, -20470.085200081492, -28283.8750820011, 7057.764477463303, 6012.082816610672, -187500.02235174447, -26812.30328229705, 13659.08398140478, -31295.549129909174, 49157.00693810069, -29889.62440367036, 4069.3809472776593, -26029.43343274992, -33379.782245133196, -25334.49534588997, 0.032, 0.9460000000000001, 0.34, 192.0, 0.0, 0.0, 0.0, 0.0, 0.0, 0.0, 0.0, 0.0, 0.0, 1.695766651528352E9, 0.0, 2023-09-26 17:17:31.528
118.0, 36437.389127896924, 51450.765305848756, -20471.068676837527, -28277.102503431142, 7079.1998003959425, 6028.33253482968, -187500.02235174447, -26783.044848805053, 13672.003289699947, -31279.969964023825, 49000.96941005819, -29882.114217533377, 4068.062194354796, -26011.552037185676, -33364.20307924785, -25492.209254766614, 0.032, 0.9520000000000001, 0.34, 192.0, 0.5, 0.0, 14.5, 96.0, 5.0, 80.0, 0.0, 0.0, 0.0, 1.695766651528355E9, 0.0, 2023-09-26 17:17:31.528
120.0, 36434.05871797308, 51463.10346878809, -20478.422400763324, -28276.521358075304, 7069.767364235803, 6032.847587209652, -187500.02235174447, -26792.097305309453, 13653.093713890757, -31278.382990167498, 49121.937051050314, -29880.303726232498, 4076.2429328254384, -26011.99907207478, -33367.08645428258, -25381.389305757202, 0.032, 0.9520000000000001, 0.34, 192.0, 0.0, 0.0, 0.0, 0.0, 0.0, 0.0, 0.0, 0.0, 0.0, 1.695766651528358E9, 0.0, 2023-09-26 17:17:31.528
122.0, 36425.20742716878, 51452.017003538254, -20479.33882228599, -28276.051971441746, 7081.859657986124, 6026.343229573158, -187500.02235174447, -26780.474398192695, 13646.723466720996, -31275.94665002187, 49048.73508795918, -29885.601089668406, 4056.0593075822962, -26015.687109909908, -33367.80171010515, -25444.600039076813, 0.032, 0.9520000000000001, 0.34, 192.0, 0.0, 0.0, 0.0, 0.0, 0.0, 0.0, 0.0, 0.0, 0.0, 1.695766651588554E9, 0.0, 2023-09-26 17:17:31.588
124.0, 36430.482438860236, 51460.10833503107, -20480.858740908952, -28279.427084854495, 7073.701271259937, 6044.761067004331, -187500.02235174447, -26780.072066792498, 13652.199644112545, -31280.685219846397, 49142.79122862712, -29883.142397778323, 4072.845467668232, -26018.235208777813, -33364.180727503386, -25352.466148432035, 0.032, 0.9520000000000001, 0.34, 192.0, 0.0, 0.0, 0.0, 0.0, 0.0, 0.0, 0.0, 0.0, 0.0, 1.695766651588569E9, 0.0, 2023-09-26 17:17:31.588
126.0, 36434.818677284566, 51449.73712560382, -20476.142522828883, -28269.391151594064, 7072.538980548261, 6015.23441257887, -187500.02235174447, -26786.330555239983, 13664.537807051875, -31274.113806976537, 49060.916788687326, -29887.433932713742, 4060.3731942621703, -26013.60839767556, -33367.01939904921, -25434.698216283112, 0.032, 0.9520000000000001, 0.34, 192.0, 0.0, 0.0, 0.0, 0.0, 0.0, 0.0, 0.0, 0.0, 0.0, 1.695766651588572E9, 0.0, 2023-09-26 17:17:31.588
128.0, 36427.01791846966, 51464.86925660005, -20487.363098545444, -28273.727390018394, 7078.283378873275, 6063.5365323467895, -187500.02235174447, -26766.95159279723, 13647.997516154948, -31288.016592027736, 49099.83117578401, -29885.355220479396, 4068.1516013326172, -26017.1399732995, -33366.81823334911, -25395.18033208613, 0.028, 0.9500000000000001, 0.34, 192.0, 0.0, 112.0, 14.5, 88.0, 5.0, 80.0, 0.0, 0.0, 0.0, 1.695766651588576E9, 0.0, 2023-09-26 17:17:31.588
130.0, 36426.23560741373, 51453.93925356141, -20476.947185629273, -28262.439759068464, 7078.5515998067385, 6024.778607461287, -187500.02235174447, -26782.843683104955, 13653.451341802043, -31280.32759193511, 49070.59509403647, -29877.420351197765, 4053.645319181123, -26009.16040052896, -33360.805614090634, -25421.354224843293, 0.028, 0.9500000000000001, 0.34, 192.0, 0.0, 0.0, 0.0, 0.0, 0.0, 0.0, 0.0, 0.0, 0.0, 1.695766651588579E9, 0.0, 2023-09-26 17:17:31.588
132.0, 36427.755526036686, 51471.93240784793, -20476.276633295613, -28268.0723986712, 7093.773137780802, 6076.969930764429, -187500.02235174447, -26747.527926865572, 13653.518397035408, -31277.935955278394, 49093.30446640307, -29863.785787080025, 4076.1088223587067, -26007.305205739165, -33352.40135817544, -25401.818800189354, 0.028, 0.9500000000000001, 0.34, 192.0, 0.0, 0.0, 0.0, 0.0, 0.0, 0.0, 0.0, 0.0, 0.0, 1.695766651588582E9, 0.0, 2023-09-26 17:17:31.588
134.0, 36435.48922961822, 51450.273567470744, -20471.158083815346, -28270.55344230574, 7077.389309095062, 6005.71256944091, -187500.02235174447, -26796.522950711606, 13663.04024017337, -31283.501539647765, 49112.661077101366, -29875.319287218965, 4067.1234210876733, -26012.20023777488, -33356.71524485532, -25388.96654712755, 0.028, 0.9500000000000001, 0.34, 192.0, 0.0, 0.0, 0.0, 0.0, 0.0, 0.0, 0.0, 0.0, 0.0, 1.695766651588585E9, 0.0, 2023-09-26 17:17:31.588
136.0, 36441.524200621156, 51473.56408519317, -20474.44379025028, -28272.02865743979, 7092.052053457744, 6073.2818929293035, -187500.02235174447, -26750.992447256143, 13668.427010587098, -31285.42378967092, 49064.60482652245, -29870.066627271968, 4085.451851541025, -26008.53455168421, -33355.240029721266, -25441.85077450881, 0.028, 0.9500000000000001, 0.34, 192.0, 0.0, 0.0, 0.0, 0.0, 0.0, 0.0, 0.0, 0.0, 0.0, 1.695766651648845E9, 0.0, 2023-09-26 17:17:31.648
138.0, 36425.67681380234, 51447.479599413826, -20485.95493864476, -28278.35420112064, 7061.832494954168, 6008.148909586538, -187500.02235174447, -26803.139067070373, 13659.486312804976, -31287.52485364972, 49109.10714973297, -29876.168653508266, 4069.6491682111227, -26012.96019708636, -33365.924163570904, -25401.7964484449, 0.03, 0.9480000000000001, 0.336, 192.0, 0.0, 120.0, 14.5, 80.0, 5.0, 64.0, 0.0, 0.0, 0.0, 1.695766651648859E9, 0.0, 2023-09-26 17:17:31.648
140.0, 36428.13550569242, 51478.63793118452, -20479.29411879708, -28264.764340491813, 7095.829498270691, 6079.830954054708, -187500.02235174447, -26747.81849954349, 13647.975164410493, -31281.445179157876, 49054.81476245103, -29869.61959238286, 4078.053424126318, -26012.557865686165, -33362.996085047256, -25445.784681532943, 0.03, 0.9480000000000001, 0.336, 192.0, 0.0, 0.0, 0.0, 0.0, 0.0, 0.0, 0.0, 0.0, 0.0, 1.695766651648862E9, 0.0, 2023-09-26 17:17:31.648
142.0, 36434.57280809555, 51463.70696588838, -20471.850987893464, -28258.41644506651, 7081.122050419099, 6013.870956167097, -187500.02235174447, -26789.7727238861, 13658.949870938048, -31259.56282133613, 49117.66786785935, -29859.56130737797, 4075.5947322362344, -25993.514179410242, -33348.0204162622, -25386.73137268202, 0.03, 0.9480000000000001, 0.336, 192.0, 0.0, 0.0, 0.0, 0.0, 0.0, 0.0, 0.0, 0.0, 0.0, 1.695766651648865E9, 0.0, 2023-09-26 17:17:31.648
144.0, 36432.561151094575, 51473.58643693763, -20474.5331972281, -28273.41446559602, 7102.31150416273, 6085.307131446259, -187500.02235174447, -26743.884592519356, 13656.446475559054, -31274.359676165543, 49023.99170684716, -29869.329019704943, 4083.6190084956897, -26002.34311847009, -33351.64139886396, -25474.774894091475, 0.03, 0.9480000000000001, 0.336, 192.0, 0.0, 0.0, 0.0, 0.0, 0.0, 0.0, 0.0, 0.0, 0.0, 1.695766651648869E9, 0.0, 2023-09-26 17:17:31.648
146.0, 36447.4027094129, 51452.68755587191, -20462.306793011045, -28275.135549919076, 7074.193009637954, 6003.209174061915, -187500.02235174447, -26811.58802647448, 13665.029545429892, -31288.15070249447, 49162.5054672367, -29883.365915222876, 4081.316778816793, -26016.312958754657, -33357.341093700066, -25344.307761705848, 0.03, 0.9480000000000001, 0.336, 192.0, 0.0, 0.0, 0.0, 0.0, 0.0, 0.0, 0.0, 0.0, 0.0, 1.695766651648872E9, 0.0, 2023-09-26 17:17:31.648
148.0, 36444.07229948906, 51463.81872461065, -20473.661479194343, -28277.527186575793, 7099.226963427897, 6067.4704393709235, -187500.02235174447, -26763.151796239832, 13670.259853632433, -31288.77655133922, 49030.94309937276, -29879.610822154384, 4084.4683747849913, -26014.077784309124, -33357.7210733558, -25475.691315614145, 0.03, 0.9480000000000001, 0.332, 192.0, 0.0, 120.0, 14.5, 80.0, 5.0, 48.0, 0.0, 0.0, 0.0, 1.695766651648884E9, 0.0, 2023-09-26 17:17:31.648
150.0, 36447.13448847944, 51457.694346629905, -20471.09102858198, -28266.239555625863, 7082.3737481085955, 6008.819461920198, -187500.02235174447, -26800.21098854673, 13660.067458160813, -31281.109902991047, 49164.517124237675, -29875.85572908589, 4080.065081127296, -26012.356699986067, -33361.31970421311, -25351.21445074254, 0.03, 0.9480000000000001, 0.332, 192.0, 0.0, 0.0, 0.0, 0.0, 0.0, 0.0, 0.0, 0.0, 0.0, 1.695766651648887E9, 0.0, 2023-09-26 17:17:31.648
152.0, 36434.12577320645, 51467.529114190234, -20478.690621696787, -28270.374628350095, 7107.631219343093, 6078.825125554219, -187500.02235174447, -26734.653322059316, 13658.480484304488, -31268.14589120697, 49013.35227648643, -29867.026790026044, 4085.47420328548, -26001.76197311425, -33349.83090756308, -25488.968251820595, 0.03, 0.9480000000000001, 0.332, 192.0, 0.0, 0.0, 0.0, 0.0, 0.0, 0.0, 0.0, 0.0, 0.0, 1.695766651709115E9, 0.0, 2023-09-26 17:17:31.709
154.0, 36432.851723772495, 51451.16763724895, -20478.802380419063, -28278.577718565193, 7077.255198628331, 6018.207194591427, -187500.02235174447, -26786.822293618, 13650.925594678592, -31278.405341911955, 49172.38493828594, -29879.990801810123, 4082.7025869730223, -26015.86592386555, -33358.03399777818, -25333.06483424483, 0.03, 0.9480000000000001, 0.332, 192.0, 0.0, 0.0, 0.0, 0.0, 0.0, 0.0, 0.0, 0.0, 0.0, 1.695766651709126E9, 0.0, 2023-09-26 17:17:31.709
156.0, 36439.26667443117, 51463.01406181027, -20472.275671038115, -28275.49317783036, 7097.63998957157, 6067.515142859834, -187500.02235174447, -26744.979827997668, 13661.788542483871, -31287.70366760536, 49013.866366608905, -29880.72840937715, 4081.1379648611505, -26017.76582214425, -33355.55295414364, -25486.84483609734, 0.03, 0.9480000000000001, 0.332, 192.0, 0.0, 0.0, 0.0, 0.0, 0.0, 0.0, 0.0, 0.0, 0.0, 1.695766651709129E9, 0.0, 2023-09-26 17:17:31.709
158.0, 36447.045081501616, 51459.7954106087, -20476.924833884816, -28284.053895956746, 7072.293111359252, 6014.653267223033, -187500.02235174447, -26800.59096820247, 13660.961527939025, -31297.404324698968, 49176.65412147691, -29884.505854190094, 4085.2730375853826, -26027.511182726765, -33362.37023620251, -25334.562401123334, 0.024, 0.9500000000000001, 0.332, 192.0, 0.0, 96.0, 14.5, 88.0, 5.0, 48.0, 0.0, 0.0, 0.0, 1.695766651709132E9, 0.0, 2023-09-26 17:17:31.709
160.0, 36447.26859894617, 51471.55242819219, -20477.90831064085, -28274.532052818784, 7097.55058259375, 6052.762991519331, -187500.02235174447, -26755.887479291854, 13670.818647243816, -31285.3343826931, 49021.26479402361, -29875.34163896342, 4077.8075549373098, -26018.659891922463, -33359.53156465668, -25484.967289563097, 0.024, 0.9500000000000001, 0.332, 192.0, 0.0, 0.0, 0.0, 0.0, 0.0, 0.0, 0.0, 0.0, 0.0, 1.695766651709136E9, 0.0, 2023-09-26 17:17:31.709
162.0, 36450.28608444764, 51475.12870730504, -20477.05894435155, -28266.306610859232, 7078.328082362185, 6032.3111453427255, -187500.02235174447, -26780.049715048044, 13662.861426217727, -31276.41603665543, 49171.04383361863, -29862.467034157162, 4083.417842795592, -26014.346005242587, -33359.017474534216, -25342.072587260318, 0.024, 0.9500000000000001, 0.332, 192.0, 0.0, 0.0, 0.0, 0.0, 0.0, 0.0, 0.0, 0.0, 0.0, 1.695766651709139E9, 0.0, 2023-09-26 17:17:31.709
164.0, 36431.28710166062, 51463.5952071661, -20478.221235063225, -28264.563174791718, 7092.7002540469475, 6057.121581688116, -187500.02235174447, -26752.892345534845, 13661.050934916848, -31269.84462378557, 49022.02475333509, -29855.828566053937, 4073.359557790704, -26005.20414176037, -33357.251686722244, -25481.748638361532, 0.024, 0.9500000000000001, 0.332, 192.0, 0.0, 0.0, 0.0, 0.0, 0.0, 0.0, 0.0, 0.0, 0.0, 1.695766651709142E9, 0.0, 2023-09-26 17:17:31.709
166.0, 36442.5523808661, 51465.62921591154, -20476.656612951352, -28261.433930567975, 7077.434012583973, 6041.855340225142, -187500.02235174447, -26781.72609588219, 13649.539786522364, -31284.775589081717, 49172.74256619723, -29869.06079877148, 4078.1651828485947, -26010.635615663006, -33362.19142224687, -25325.934627763585, 0.024, 0.9500000000000001, 0.332, 192.0, 0.0, 0.0, 0.0, 0.0, 0.0, 0.0, 0.0, 0.0, 0.0, 1.695766651769464E9, 0.0, 2023-09-26 17:17:31.769
168.0, 36435.31041566258, 51450.45238142638, -20478.71297344124, -28264.11613990261, 7089.794527267758, 6053.947633975463, -187500.02235174447, -26750.701874578226, 13662.548501795352, -31279.27705994571, 49037.84978840945, -29867.33971444842, 4070.7220519449775, -26004.15360977097, -33354.61418087652, -25459.88863228424, 0.03, 0.9500000000000001, 0.338, 192.0, 0.0, 120.0, 14.5, 88.0, 5.0, 72.0, 0.0, 0.0, 0.0, 1.695766651769478E9, 0.0, 2023-09-26 17:17:31.769
170.0, 36442.26180818818, 51459.39307920851, -20482.512769998644, -28270.17346265, 7079.870352729601, 6064.855285269652, -187500.02235174447, -26765.006991029622, 13654.747742980451, -31294.47624617532, 49166.417022516376, -29872.301801717498, 4079.8862671716533, -26014.591874431597, -33360.537393157174, -25335.076491245807, 0.03, 0.9500000000000001, 0.338, 192.0, 0.0, 0.0, 0.0, 0.0, 0.0, 0.0, 0.0, 0.0, 0.0, 1.695766651769481E9, 0.0, 2023-09-26 17:17:31.769
172.0, 36441.88182853244, 51450.40767793747, -20473.19209256078, -28261.433930567975, 7097.55058259375, 6041.743581502865, -187500.02235174447, -26761.58717412796, 13667.354126853244, -31278.248879700768, 49075.02073943862, -29864.81396732497, 4073.672482213078, -26009.38391797351, -33350.09912849654, -25419.879009709242, 0.03, 0.9500000000000001, 0.338, 192.0, 0.0, 0.0, 0.0, 0.0, 0.0, 0.0, 0.0, 0.0, 0.0, 1.695766651769484E9, 0.0, 2023-09-26 17:17:31.769
174.0, 36433.25405517269, 51457.42612569644, -20481.95397638726, -28268.810006238225, 7098.176431438498, 6063.7153463024315, -187500.02235174447, -26757.653267103826, 13656.625289514695, -31287.077818760616, 49132.3976674554, -29863.226993468645, 4090.5704010212903, -26016.46942096584, -33347.70749183983, -25361.87623284772, 0.03, 0.9500000000000001, 0.338, 192.0, 0.0, 0.0, 0.0, 0.0, 0.0, 0.0, 0.0, 0.0, 0.0, 1.695766651769488E9, 0.0, 2023-09-26 17:17:31.769
176.0, 36428.090802203515, 51442.91984354494, -20483.071563610025, -28264.11613990261, 7096.656512815537, 6031.1935581199605, -187500.02235174447, -26767.622145130892, 13660.268623860911, -31288.24010947229, 49059.82155320902, -29868.18908073772, 4078.299293315327, -26011.216761018844, -33347.23810520626, -25430.540791814423, 0.03, 0.9500000000000001, 0.338, 192.0, 0.0, 0.0, 0.0, 0.0, 0.0, 0.0, 0.0, 0.0, 0.0, 1.695766651769491E9, 0.0, 2023-09-26 17:17:31.769
178.0, 36429.58836908202, 51455.81680009566, -20492.325185814523, -28267.155977148534, 7097.930562249489, 6081.686148844498, -187500.02235174447, -26741.738825051645, 13647.058742887824, -31301.76291486775, 49094.35499839247, -29875.609859896882, 4085.47420328548, -26013.988377331305, -33352.89309655346, -25389.145361083196, 0.03, 0.9440000000000001, 0.336, 192.0, 0.0, 120.0, 14.5, 64.0, 5.0, 64.0, 0.0, 0.0, 0.0, 1.695766651769494E9, 0.0, 2023-09-26 17:17:31.769
180.0, 36434.9974912402, 51443.52334064524, -20482.490418254187, -28254.50488978683, 7090.979169723889, 6028.086665640672, -187500.02235174447, -26770.25965097662, 13655.932385436581, -31292.06225777415, 49073.567876049034, -29870.513662161073, 4073.1807438350615, -26004.846513849083, -33349.22741046279, -25404.5457130129, 0.03, 0.9440000000000001, 0.336, 192.0, 0.0, 0.0, 0.0, 0.0, 0.0, 0.0, 0.0, 0.0, 0.0, 1.695766651769497E9, 0.0, 2023-09-26 17:17:31.769
182.0, 36436.83033428554, 51465.42805021144, -20477.371868773924, -28255.48836654286, 7106.088948975676, 6091.677378616021, -187500.02235174447, -26719.945874207722, 13654.121894135702, -31287.05546701616, 49063.75546023315, -29855.96267652067, 4085.965941663497, -26005.941749327394, -33339.54910511364, -25412.525285783446, 0.03, 0.9440000000000001, 0.336, 192.0, 0.0, 0.0, 0.0, 0.0, 0.0, 0.0, 0.0, 0.0, 0.0, 1.695766651828252E9, 0.0, 2023-09-26 17:17:31.828
184.0, 36430.907122004886, 51442.38340167802, -20475.717839684232, -28261.903317201533, 7088.922809234001, 6021.358790559625, -187500.02235174447, -26774.30531672303, 13655.530054036386, -31287.994240283282, 49093.25976291415, -29857.77316782155, 4076.6899677145448, -26006.835819105607, -33333.84941027754, -25382.819817402342, 0.03, 0.9440000000000001, 0.336, 192.0, 0.0, 0.0, 0.0, 0.0, 0.0, 0.0, 0.0, 0.0, 0.0, 1.695766651828263E9, 0.0, 2023-09-26 17:17:31.828
186.0, 36433.9469592508, 51463.93048333294, -20476.589557717987, -28270.017000438813, 7110.961629266933, 6080.099174988172, -187500.02235174447, -26735.748557537623, 13648.064571388313, -31302.43346720141, 49058.055765397046, -29867.071493514955, 4088.2458195979384, -26018.279912266724, -33340.64434059195, -25411.810029960878, 0.03, 0.9440000000000001, 0.336, 192.0, 0.0, 0.0, 0.0, 0.0, 0.0, 0.0, 0.0, 0.0, 0.0, 1.695766651828267E9, 0.0, 2023-09-26 17:17:31.828
188.0, 36429.633072570934, 51440.215282465855, -20478.265938552137, -28272.810968495724, 7093.840193014168, 6007.456005508424, -187500.02235174447, -26787.71636339621, 13661.475618061499, -31298.320746221634, 49102.781606052115, -29873.10646451789, 4089.8774969431756, -26018.972816344838, -33340.71139582532, -25373.92382310913, 0.03, 0.9500000000000001, 0.338, 192.0, 0.0, 120.0, 14.5, 88.0, 5.0, 72.0, 0.0, 0.0, 0.0, 1.695766651828271E9, 0.0, 2023-09-26 17:17:31.828
190.0, 36432.69526156131, 51461.33768097612, -20476.746019929175, -28269.480558571882, 7124.730303851403, 6080.657968599555, -187500.02235174447, -26731.121746435376, 13654.658336002629, -31308.602548671075, 49024.841073136464, -29877.53210992004, 4098.259401113916, -26023.420813491444, -33342.90186678194, -25444.08594895434, 0.03, 0.9500000000000001, 0.338, 192.0, 0.0, 0.0, 0.0, 0.0, 0.0, 0.0, 0.0, 0.0, 0.0, 1.695766651828274E9, 0.0, 2023-09-26 17:17:31.828
192.0, 36441.94888376581, 51447.50195115828, -20470.48753148169, -28264.16084339152, 7091.7614807798245, 6002.918601383996, -187500.02235174447, -26790.242110519663, 13663.777847740395, -31298.164284010447, 49121.467664416756, -29863.651676613295, 4095.7113022460107, -26018.1905052889, -33338.945608013346, -25353.896660077175, 0.03, 0.9500000000000001, 0.338, 192.0, 0.0, 0.0, 0.0, 0.0, 0.0, 0.0, 0.0, 0.0, 0.0, 1.695766651828277E9, 0.0, 2023-09-26 17:17:31.828
194.0, 36437.72440406375, 51466.210361267375, -20473.169740816324, -28264.74198874736, 7121.779873583302, 6070.15264870556, -187500.02235174447, -26736.933199993757, 13669.678708276595, -31290.38587694, 48996.49906116713, -29849.95005726219, 4103.199136638539, -26016.62588317703, -33334.050575977635, -25479.692277871643, 0.03, 0.9500000000000001, 0.338, 192.0, 0.0, 0.0, 0.0, 0.0, 0.0, 0.0, 0.0, 0.0, 0.0, 1.69576665182828E9, 0.0, 2023-09-26 17:17:31.828
196.0, 36431.935302249825, 51445.62440462404, -20482.512769998644, -28270.866366728114, 7081.390271352562, 5995.8554501361195, -187500.02235174447, -26810.470439251716, 13660.425086072099, -31294.610356642053, 49120.66300161636, -29861.036522512022, 4088.7822614648658, -26024.493697225298, -33342.74540457075, -25362.6361921592, 0.03, 0.9500000000000001, 0.338, 192.0, 0.0, 0.0, 0.0, 0.0, 0.0, 0.0, 0.0, 0.0, 0.0, 1.695766651888581E9, 0.0, 2023-09-26 17:17:31.888
198.0, 36426.548531836095, 51458.61076815257, -20484.636185721898, -28267.670067271003, 7115.07435024671, 6081.172058722027, -187500.02235174447, -26728.595999311925, 13657.787580226372, -31304.221606757834, 48972.02390098857, -29871.988877295124, 4084.4683747849913, -26020.82801113463, -33340.93491326987, -25497.10428680233, 0.032, 0.9500000000000001, 0.338, 192.0, 0.5, 0.0, 14.5, 88.0, 5.0, 72.0, 0.0, 0.0, 0.0, 1.695766651888594E9, 0.0, 2023-09-26 17:17:31.888
200.0, 36428.090802203515, 51449.290090714705, -20483.540950243587, -28271.268698128308, 7084.318349876207, 6025.5609185172225, -187500.02235174447, -26775.53466266807, 13649.919766178104, -31306.43442945891, 49135.5492634236, -29879.72258087666, 4079.573342749279, -26020.38097624552, -33343.3712534155, -25336.551706379858, 0.032, 0.9500000000000001, 0.338, 192.0, 0.0, 0.0, 0.0, 0.0, 0.0, 0.0, 0.0, 0.0, 0.0, 1.695766651888598E9, 0.0, 2023-09-26 17:17:31.888
202.0, 36423.57574982354, 51455.01213729526, -20483.317432799035, -28271.514567317317, 7116.2366409583865, 6073.527762118311, -187500.02235174447, -26738.542525594537, 13658.36872558221, -31297.069048532136, 48992.45339542072, -29867.831452826438, 4082.52377301738, -26016.15649654347, -33334.89994226694, -25480.80986509441, 0.032, 0.9500000000000001, 0.338, 192.0, 0.0, 0.0, 0.0, 0.0, 0.0, 0.0, 0.0, 0.0, 0.0, 1.695766651888606E9, 0.0, 2023-09-26 17:17:31.888
204.0, 36417.317261376054, 51437.0413347532, -20496.728479472218, -28282.84690175616, 7088.095794689155, 6017.737807957865, -187500.02235174447, -26794.93597685528, 13643.013077141415, -31312.022365572735, 49143.59589142751, -29877.979144809146, 4082.836697439754, -26031.176868817434, -33351.08260525258, -25338.183383725096, 0.032, 0.9500000000000001, 0.338, 192.0, 0.0, 0.0, 0.0, 0.0, 0.0, 0.0, 0.0, 0.0, 0.0, 1.69576665188861E9, 0.0, 2023-09-26 17:17:31.888
206.0, 36406.3425548485, 51435.63317485251, -20497.846066694983, -28281.46109359993, 7111.274553689308, 6064.497657358367, -187500.02235174447, -26749.316066421994, 13645.65058298714, -31310.43539171641, 48981.72455808218, -29879.38730470983, 4080.5344677608573, -26028.181735060425, -33350.38970117446, -25493.505655945024, 0.032, 0.9500000000000001, 0.338, 192.0, 0.0, 0.0, 0.0, 0.0, 0.0, 0.0, 0.0, 0.0, 0.0, 1.695766651888613E9, 0.0, 2023-09-26 17:17:31.888
208.0, 36414.29977587459, 51441.22111096634, -20494.850932937974, -28278.10833193163, 7087.291131888764, 6031.305316842237, -187500.02235174447, -26784.743581383656, 13642.498987018942, -31313.43052547342, 49133.58230991153, -29883.991764067625, 4089.1845928650614, -26031.802717662184, -33351.373177930494, -25353.091997276784, 0.034, 0.9480000000000001, 0.34400000000000003, 192.0, 0.5, 8.0, 14.5, 80.0, 5.0, 96.0, 0.0, 0.0, 0.0, 1.695766651888616E9, 0.0, 2023-09-26 17:17:31.888
210.0, 36413.204540396284, 51446.27260521324, -20487.184284589803, -28266.284259114775, 7103.294980918763, 6070.4655731279345, -187500.02235174447, -26739.458947117204, 13652.870196446205, -31298.499560177275, 48993.63803787685, -29869.86546157187, 4078.4781072709693, -26019.308092511666, -33348.13217498448, -25489.90702508772, 0.034, 0.9480000000000001, 0.34400000000000003, 192.0, 0.0, 0.0, 0.0, 0.0, 0.0, 0.0, 0.0, 0.0, 0.0, 1.695766651888619E9, 0.0, 2023-09-26 17:17:31.888
212.0, 36426.05679345808, 51451.122933760045, -20486.871360167428, -28270.575794050194, 7082.865486486613, 6043.934052459485, -187500.02235174447, -26782.128427282387, 13649.159806866624, -31307.68612714841, 49165.59000797153, -29861.90824054578, 4086.6811974860666, -26026.304188526177, -33352.24489596426, -25321.710148061535, 0.034, 0.9480000000000001, 0.34400000000000003, 192.0, 0.0, 0.0, 0.0, 0.0, 0.0, 0.0, 0.0, 0.0, 0.0, 1.695766651948688E9, 0.0, 2023-09-26 17:17:31.948
214.0, 36429.54366559311, 51448.21720698085, -20482.490418254187, -28263.244421868854, 7099.137556450076, 6049.7455060178645, -187500.02235174447, -26749.986618755654, 13662.056763417337, -31297.58313865461, 49044.53296000158, -29857.3484846769, 4075.8629531696984, -26020.738604156806, -33348.2215819623, -25440.777890774953, 0.034, 0.9480000000000001, 0.34400000000000003, 192.0, 0.0, 0.0, 0.0, 0.0, 0.0, 0.0, 0.0, 0.0, 0.0, 1.695766651948699E9, 0.0, 2023-09-26 17:17:31.948
216.0, 36419.843008499505, 51451.03352678222, -20494.3368428155, -28273.436817340473, 7093.393158125063, 6053.6794130419985, -187500.02235174447, -26767.39862768634, 13650.165635367113, -31303.059316046158, 49148.87090311896, -29867.38441793733, 4087.3741015641813, -26023.174944302435, -33349.20505871833, -25340.977351782007, 0.034, 0.9480000000000001, 0.34400000000000003, 192.0, 0.0, 0.0, 0.0, 0.0, 0.0, 0.0, 0.0, 0.0, 0.0, 1.695766651948703E9, 0.0, 2023-09-26 17:17:31.948
218.0, 36416.80317125359, 51443.702154600884, -20494.068621882037, -28264.518471302807, 7101.663303573526, 6053.299433386259, -187500.02235174447, -26755.328685680473, 13653.317231335312, -31293.42571418592, 49037.626270964895, -29866.512699903575, 4074.164220591095, -26012.133182541515, -33346.7240150838, -25439.32502738536, 0.032, 0.9460000000000001, 0.342, 192.0, 0.5, 0.0, 14.5, 72.0, 5.0, 88.0, 0.0, 0.0, 0.0, 1.695766651948706E9, 0.0, 2023-09-26 17:17:31.948
220.0, 36426.32501439154, 51456.88968382951, -20490.358232302457, -28264.630230025083, 7099.115204705621, 6068.543323104778, -187500.02235174447, -26757.29563919254, 13645.762341709416, -31298.588967155098, 49124.395742940396, -29866.423292925752, 4087.195287608539, -26013.87661860903, -33348.2215819623, -25351.34856120927, 0.032, 0.9460000000000001, 0.342, 192.0, 0.0, 0.0, 0.0, 0.0, 0.0, 0.0, 0.0, 0.0, 0.0, 1.695766651948709E9, 0.0, 2023-09-26 17:17:31.948
222.0, 36431.532970849636, 51450.87706457103, -20482.80334267656, -28258.304686344232, 7091.7614807798245, 6042.235319880881, -187500.02235174447, -26767.82331083099, 13659.374554082699, -31291.05642927366, 49043.66124196783, -29857.86257479937, 4079.2157148379943, -26012.177886030422, -33344.0194540047, -25437.179259917648, 0.032, 0.9460000000000001, 0.342, 192.0, 0.0, 0.0, 0.0, 0.0, 0.0, 0.0, 0.0, 0.0, 0.0, 1.695766651948719E9, 0.0, 2023-09-26 17:17:31.948
224.0, 36434.72927030674, 51467.529114190234, -20479.29411879708, -28253.409654308518, 7098.779928538791, 6080.367395921636, -187500.02235174447, -26744.555144853013, 13653.630155757684, -31291.61522288504, 49109.39772241089, -29846.23966768261, 4091.3080085883153, -26018.57048494464, -33346.54520112815, -25371.398075985682, 0.032, 0.9460000000000001, 0.342, 192.0, 0.0, 0.0, 0.0, 0.0, 0.0, 0.0, 0.0, 0.0, 0.0, 1.695766651948722E9, 0.0, 2023-09-26 17:17:31.948
226.0, 36420.759430022175, 51442.78573307821, -20483.496246754676, -28252.359122319118, 7093.750786036348, 6040.581290791189, -187500.02235174447, -26763.6658863623, 13664.89543496316, -31285.155568737457, 49062.526114288106, -29844.898563015293, 4082.8143456952985, -26004.287720237702, -33338.56562835761, -25425.93633245663, 0.032, 0.9460000000000001, 0.342, 192.0, 0.0, 0.0, 0.0, 0.0, 0.0, 0.0, 0.0, 0.0, 0.0, 1.695766652008468E9, 0.0, 2023-09-26 17:17:32.008
228.0, 36410.00824093917, 51453.559273905674, -20497.77901146162, -28268.005343437835, 7101.5068413623385, 6091.789137338297, -187500.02235174447, -26741.04592097353, 13640.755550951428, -31300.04183054469, 49081.01100695265, -29869.261964471578, 4083.7307672179663, -26016.871752366038, -33348.89213429596, -25404.478657779535, 0.026000000000000002, 0.9460000000000001, 0.34600000000000003, 192.0, 0.0, 104.0, 14.5, 72.0, 5.0, 104.0, 0.0, 0.0, 0.0, 1.69576665200849E9, 0.0, 2023-09-26 17:17:32.008
230.0, 36417.07139218705, 51437.17544521993, -20488.301871812568, -28262.439759068464, 7095.829498270691, 6033.227566865393, -187500.02235174447, -26773.612412644914, 13649.808007455827, -31293.157493252456, 49094.86908851494, -29874.87225232986, 4077.159354348106, -26008.936883084403, -33346.03111100568, -25389.704154694577, 0.026000000000000002, 0.9460000000000001, 0.34600000000000003, 192.0, 0.0, 0.0, 0.0, 0.0, 0.0, 0.0, 0.0, 0.0, 0.0, 1.695766652008494E9, 0.0, 2023-09-26 17:17:32.008
232.0, 36430.21421792677, 51467.1491345345, -20486.781953189606, -28260.69632300095, 7110.268725188819, 6093.510221661356, -187500.02235174447, -26732.038167958042, 13652.959603424026, -31296.443199687386, 49070.639797525386, -29865.708037103184, 4093.587886522757, -26012.714327897353, -33349.96501802981, -25414.6487015067, 0.026000000000000002, 0.9460000000000001, 0.34600000000000003, 192.0, 0.0, 0.0, 0.0, 0.0, 0.0, 0.0, 0.0, 0.0, 0.0, 1.695766652008497E9, 0.0, 2023-09-26 17:17:32.008
234.0, 36439.132563964435, 51458.40960245247, -20471.873339637918, -28249.073415884188, 7094.667207559015, 6024.085703383173, -187500.02235174447, -26780.697915637247, 13665.565987296819, -31284.373257681524, 49136.1974640128, -29847.84899328339, 4088.9387236760526, -26006.701708638873, -33344.13121272698, -25362.278564247914, 0.026000000000000002, 0.9460000000000001, 0.34600000000000003, 192.0, 0.0, 0.0, 0.0, 0.0, 0.0, 0.0, 0.0, 0.0, 0.0, 1.695766652008501E9, 0.0, 2023-09-26 17:17:32.008
236.0, 36432.0470609721, 51475.866314872066, -20478.5341594856, -28257.902354944035, 7114.269687446319, 6092.526744905323, -187500.02235174447, -26733.736900536645, 13657.586414526275, -31290.43058042891, 49075.57953305001, -29847.87134502785, 4096.158337135117, -26016.648234921486, -33343.281846437676, -25431.054881936896, 0.026000000000000002, 0.9460000000000001, 0.34600000000000003, 192.0, 0.0, 0.0, 0.0, 0.0, 0.0, 0.0, 0.0, 0.0, 0.0, 1.695766652008504E9, 0.0, 2023-09-26 17:17:32.008
238.0, 36418.83717999902, 51447.30078545819, -20485.686717711298, -28265.434892825473, 7093.549620336249, 6027.058485395728, -187500.02235174447, -26771.220775988197, 13654.635984258173, -31287.591908883085, 49143.417077471866, -29857.72846433264, 4085.6306654966675, -26016.33531049911, -33341.873686536994, -25370.660468418657, 0.026000000000000002, 0.9400000000000001, 0.35000000000000003, 192.0, 0.0, 104.0, 14.5, 48.0, 5.0, 120.0, 0.0, 0.0, 0.0, 1.695766652008507E9, 0.0, 2023-09-26 17:17:32.008
240.0, 36413.204540396284, 51457.671994885444, -20490.02295613563, -28274.509701074327, 7121.109321249643, 6093.957256550462, -187500.02235174447, -26728.126612678363, 13642.74485620795, -31301.00295555627, 49059.06159389754, -29873.978182551647, 4088.9834271649634, -26019.4422029784, -33340.957265014324, -25439.593248318823, 0.026000000000000002, 0.9400000000000001, 0.35000000000000003, 192.0, 0.0, 0.0, 0.0, 0.0, 0.0, 0.0, 0.0, 0.0, 0.0, 1.69576665200851E9, 0.0, 2023-09-26 17:17:32.008
242.0, 36418.43484859882, 51439.03064000972, -20493.95686315976, -28279.382381365584, 7088.878105745091, 6010.4734910098905, -187500.02235174447, -26791.24793902015, 13649.025696399893, -31297.650193887974, 49162.37135676997, -29879.610822154384, 4088.7152062315, -26020.693900667895, -33346.7240150838, -25338.54101163638, 0.026000000000000002, 0.9400000000000001, 0.35000000000000003, 192.0, 0.0, 0.0, 0.0, 0.0, 0.0, 0.0, 0.0, 0.0, 0.0, 1.695766652069316E9, 0.0, 2023-09-26 17:17:32.069
244.0, 36423.486342845725, 51463.349337977095, -20492.414592792346, -28271.15693940603, 7114.001466512856, 6084.927151790518, -187500.02235174447, -26728.73010977866, 13654.658336002629, -31296.063220031647, 49021.93534635727, -29868.23378422663, 4090.726863232477, -26020.224514034333, -33354.07773900959, -25468.002315521517, 0.026000000000000002, 0.9400000000000001, 0.35000000000000003, 192.0, 0.0, 0.0, 0.0, 0.0, 0.0, 0.0, 0.0, 0.0, 0.0, 1.695766652069326E9, 0.0, 2023-09-26 17:17:32.069
246.0, 36430.57184583805, 51451.9946517938, -20487.072525867527, -28263.870270713604, 7087.40289061104, 6021.939935915463, -187500.02235174447, -26779.043886547555, 13658.167559882113, -31294.632708386507, 49152.51423746518, -29855.515641631562, 4089.363406820704, -26017.452897721876, -33353.831869820584, -25340.664427359632, 0.026000000000000002, 0.9400000000000001, 0.35000000000000003, 192.0, 0.0, 0.0, 0.0, 0.0, 0.0, 0.0, 0.0, 0.0, 0.0, 1.69576665206933E9, 0.0, 2023-09-26 17:17:32.069
248.0, 36427.599063825495, 51469.205495024384, -20483.116267098936, -28257.9694101774, 7112.995638012367, 6092.34793094968, -187500.02235174447, -26727.23254290015, 13655.373591825199, -31293.09043801909, 49003.22693624818, -29855.11331023137, 4088.223467853483, -26010.702670896375, -33352.13313724198, -25483.33561221786, 0.028, 0.9480000000000001, 0.34400000000000003, 192.0, 0.0, 112.0, 14.5, 80.0, 5.0, 96.0, 0.0, 0.0, 0.0, 1.695766652069333E9, 0.0, 2023-09-26 17:17:32.069
250.0, 36423.7992672681, 51456.487352429314, -20485.217331077736, -28256.024808409788, 7085.055957443233, 6040.357773346636, -187500.02235174447, -26781.904909837835, 13650.523263278397, -31291.078781018114, 49167.48990625023, -29856.67793234324, 4092.358540577715, -26006.277025494222, -33349.04859650715, -25322.850087028753, 0.028, 0.9480000000000001, 0.34400000000000003, 192.0, 0.0, 0.0, 0.0, 0.0, 0.0, 0.0, 0.0, 0.0, 0.0, 1.695766652069336E9, 0.0, 2023-09-26 17:17:32.069
252.0, 36415.797342753096, 51459.97422456434, -20486.15610434486, -28257.34356133265, 7112.682713589992, 6088.771651836831, -187500.02235174447, -26731.837002257944, 13648.735123721974, -31286.183748982403, 49021.01892483461, -29860.67889460074, 4091.7773952218768, -26004.488885937797, -33348.26628545121, -25453.786606047943, 0.028, 0.9480000000000001, 0.34400000000000003, 192.0, 0.0, 0.0, 0.0, 0.0, 0.0, 0.0, 0.0, 0.0, 0.0, 1.695766652069339E9, 0.0, 2023-09-26 17:17:32.069
254.0, 36415.03738344162, 51451.3464512046, -20491.63228173641, -28273.146244662556, 7085.324178376696, 6029.137197630072, -187500.02235174447, -26790.286814008574, 13644.376533553188, -31304.065144546646, 49179.09046162254, -29874.045237785012, 4099.913430203608, -26023.53257221372, -33358.19045998937, -25295.737421004465, 0.028, 0.9480000000000001, 0.34400000000000003, 192.0, 0.0, 0.0, 0.0, 0.0, 0.0, 0.0, 0.0, 0.0, 0.0, 1.695766652069343E9, 0.0, 2023-09-26 17:17:32.069
0.0, 36413.405706096375, 51450.56414014866, -20487.117229356438, -28273.34741036265, 7112.995638012367, 6060.608453823144, -187500.02235174447, -26752.892345534845, 13657.631118015184, -31297.650193887974, 49018.44847422224, -29864.657505113784, 4097.879421458176, -26025.208953047866, -33350.814384319114, -25449.875050768263, 0.028, 0.9480000000000001, 0.34400000000000003, 192.0, 0.0, 0.0, 0.0, 0.0, 0.0, 0.0, 0.0, 0.0, 0.0, 1.695766652129065E9, 0.0, 2023-09-26 17:17:32.129
2.0, 36423.77691552364, 51451.83818958261, -20482.736287443196, -28276.0743231862, 7097.59528608266, 6036.379162833591, -187500.02235174447, -26783.49188369416, 13650.523263278397, -31310.368336483043, 49173.07784236406, -29872.9500023067, 4106.060159928818, -26038.217668320856, -33353.071910509105, -25308.120287432706, 0.026000000000000002, 0.9520000000000001, 0.34, 192.0, 0.0, 104.0, 14.5, 96.0, 5.0, 80.0, 0.0, 0.0, 0.0, 1.695766652129077E9, 0.0, 2023-09-26 17:17:32.129
4.0, 36421.36292712247, 51453.693384372404, -20478.601214718965, -28269.771131249803, 7119.365885182129, 6057.345099132669, -187500.02235174447, -26749.450176888728, 13661.18504538358, -31302.031135801215, 49020.84011087896, -29864.612801624873, 4102.014494182407, -26029.00874960527, -33336.64337833445, -25456.669981082676, 0.026000000000000002, 0.9520000000000001, 0.34, 192.0, 0.0, 0.0, 0.0, 0.0, 0.0, 0.0, 0.0, 0.0, 0.0, 1.695766652129081E9, 0.0, 2023-09-26 17:17:32.129
6.0, 36434.25988367318, 51468.579646179634, -20484.837351421997, -28263.91497420251, 7100.903344262046, 6051.399535107557, -187500.02235174447, -26764.336438695962, 13651.41733305661, -31302.34406022359, 49161.030252102646, -29862.802310323994, 4105.85899422872, -26028.941694371904, -33338.878552779985, -25319.11734570472, 0.026000000000000002, 0.9520000000000001, 0.34, 192.0, 0.0, 0.0, 0.0, 0.0, 0.0, 0.0, 0.0, 0.0, 0.0, 1.695766652129084E9, 0.0, 2023-09-26 17:17:32.129
8.0, 36426.99556672521, 51458.878989086035, -20495.119153871437, -28267.960639948924, 7103.809071041235, 6059.915549745029, -187500.02235174447, -26752.467662390194, 13660.358030838732, -31288.798903083672, 49034.04999185205, -29856.2979526875, 4090.0116074099074, -26012.714327897353, -33341.42665164789, -25446.634047822245, 0.026000000000000002, 0.9520000000000001, 0.34, 192.0, 0.0, 0.0, 0.0, 0.0, 0.0, 0.0, 0.0, 0.0, 0.0, 1.695766652129087E9, 0.0, 2023-09-26 17:17:32.129
10.0, 36431.085935960524, 51463.908131588476, -20496.683775983307, -28274.666163285514, 7090.979169723889, 6064.385898636091, -187500.02235174447, -26764.67171486279, 13650.27739408939, -31299.86301658905, 49144.042926316615, -29867.38441793733, 4097.14181389115, -26026.035967592714, -33355.59765763255, -25330.561438865836, 0.026000000000000002, 0.9520000000000001, 0.34, 192.0, 0.0, 0.0, 0.0, 0.0, 0.0, 0.0, 0.0, 0.0, 0.0, 1.69576665212909E9, 0.0, 2023-09-26 17:17:32.129
12.0, 36418.27838638763, 51445.13266624602, -20495.16385736035, -28276.968392964412, 7104.233754185886, 6054.4393723534795, -187500.02235174447, -26749.226659444175, 13660.84976921675, -31293.068086274638, 49039.235596565675, -29869.776054594047, 4093.7890522228545, -26020.135107056514, -33346.94753252835, -25426.74099525702, 0.024, 0.9500000000000001, 0.332, 192.0, 0.0, 96.0, 14.5, 88.0, 5.0, 48.0, 0.0, 0.0, 0.0, 1.695766652129094E9, 0.0, 2023-09-26 17:17:32.129
14.0, 36426.05679345808, 51460.01892805326, -20498.561322517555, -28273.235651640374, 7097.863507016124, 6072.164305706538, -187500.02235174447, -26753.272325190585, 13648.623364999696, -31306.702650392373, 49127.52498716414, -29879.879043087847, 4102.439177327058, -26025.477173981333, -33357.519907655704, -25336.328188935306, 0.024, 0.9500000000000001, 0.332, 192.0, 0.0, 0.0, 0.0, 0.0, 0.0, 0.0, 0.0, 0.0, 0.0, 1.695766652129097E9, 0.0, 2023-09-26 17:17:32.129
16.0, 36423.10636318998, 51451.23469248232, -20498.114287628447, -28259.578735778185, 7093.147288936054, 6051.600700807656, -187500.02235174447, -26757.809729315013, 13665.65539427464, -31287.256632716257, 49053.25014033916, -29869.06079877148, 4093.7890522228545, -26008.46749645084, -33358.45868092283, -25415.341605584814, 0.024, 0.9500000000000001, 0.332, 192.0, 0.0, 0.0, 0.0, 0.0, 0.0, 0.0, 0.0, 0.0, 0.0, 1.695766652189353E9, 0.0, 2023-09-26 17:17:32.189
18.0, 36439.95957850928, 51480.42607074095, -20492.25813058116, -28253.83433745317, 7097.997617482855, 6093.7113873614535, -187500.02235174447, -26748.53375536606, 13654.546577280353, -31288.798903083672, 49118.13725449291, -29860.231859711632, 4103.556764549824, -26012.62492091953, -33359.620971634504, -25347.01232278494, 0.024, 0.9500000000000001, 0.332, 192.0, 0.0, 0.0, 0.0, 0.0, 0.0, 0.0, 0.0, 0.0, 0.0, 1.695766652189365E9, 0.0, 2023-09-26 17:17:32.189
20.0, 36443.55820936659, 51466.16565777847, -20486.91606365634, -28247.620552494594, 7092.87906800259, 6042.369430347613, -187500.02235174447, -26769.34322945395, 13667.443533831065, -31267.76591155123, 49095.85256527097, -29843.266885670055, 4098.639380769656, -26001.784324858705, -33351.30612269713, -25373.722657409035, 0.024, 0.9500000000000001, 0.332, 192.0, 0.0, 0.0, 0.0, 0.0, 0.0, 0.0, 0.0, 0.0, 0.0, 1.695766652189369E9, 0.0, 2023-09-26 17:17:32.189
22.0, 36439.53489536463, 51477.72150966186, -20495.834409694005, -28265.21137538092, 7104.569030352715, 6085.329483190713, -187500.02235174447, -26742.43172912976, 13652.579623768286, -31282.473359402822, 49092.164527435845, -29847.67017932775, 4102.4168255826025, -26016.96115934386, -33352.26724770871, -25380.91991912364, 0.028, 0.9460000000000001, 0.34, 192.0, 0.0, 112.0, 14.5, 72.0, 5.0, 80.0, 0.0, 0.0, 0.0, 1.695766652189372E9, 0.0, 2023-09-26 17:17:32.189
24.0, 36433.902255761896, 51450.67589887093, -20493.979214904215, -28272.073360928698, 7087.916980733512, 6017.022552135295, -187500.02235174447, -26790.57738668649, 13654.457170302532, -31288.553033894663, 49096.47841411572, -29858.37666492184, 4087.8211364532876, -26022.86201988006, -33352.49076515326, -25383.490369736002, 0.028, 0.9460000000000001, 0.34, 192.0, 0.0, 0.0, 0.0, 0.0, 0.0, 0.0, 0.0, 0.0, 0.0, 1.695766652189375E9, 0.0, 2023-09-26 17:17:32.189
26.0, 36435.578636596045, 51469.76428863577, -20496.661424238853, -28278.35420112064, 7105.619562342115, 6088.615189625644, -187500.02235174447, -26737.112013949398, 13649.584490011275, -31297.784304354707, 49060.31329158703, -29863.629324868838, 4100.360465092715, -26030.573371717142, -33352.26724770871, -25415.989806174017, 0.028, 0.9460000000000001, 0.34, 192.0, 0.0, 0.0, 0.0, 0.0, 0.0, 0.0, 0.0, 0.0, 0.0, 1.695766652189378E9, 0.0, 2023-09-26 17:17:32.189
28.0, 36436.472706374254, 51455.436820439914, -20494.605063748964, -28274.621459796606, 7083.4242800979955, 6012.909831155519, -187500.02235174447, -26796.813523389523, 13657.809931970827, -31298.76778111074, 49126.16153075237, -29867.093845259413, 4092.671465000089, -26031.825069406637, -33359.710378612326, -25356.10948277825, 0.028, 0.9460000000000001, 0.34, 192.0, 0.0, 0.0, 0.0, 0.0, 0.0, 0.0, 0.0, 0.0, 0.0, 1.695766652189382E9, 0.0, 2023-09-26 17:17:32.189
30.0, 36435.35511915149, 51477.65445442849, -20496.907293427863, -28272.11806441761, 7110.089911233176, 6088.011692525351, -187500.02235174447, -26740.353016895417, 13659.240443615967, -31291.883443818504, 49047.014003636126, -29853.81690905296, 4106.708360518022, -26027.39942400449, -33353.18366923138, -25429.71377726958, 0.028, 0.9460000000000001, 0.34, 192.0, 0.0, 0.0, 0.0, 0.0, 0.0, 0.0, 0.0, 0.0, 0.0, 1.695766652189386E9, 0.0, 2023-09-26 17:17:32.189
32.0, 36438.998453497705, 51457.962567563365, -20496.706127727764, -28264.429064324984, 7076.763460250314, 6017.268421324304, -187500.02235174447, -26795.405363488837, 13654.568929024808, -31290.408228684453, 49148.580330441044, -29857.504946888086, 4095.7560057349215, -26026.10302282608, -33359.911544312425, -25332.461337144538, 0.034, 0.9520000000000001, 0.34400000000000003, 192.0, 0.5, 8.0, 14.5, 96.0, 5.0, 96.0, 0.0, 0.0, 0.0, 1.695766652250596E9, 0.0, 2023-09-26 17:17:32.250
34.0, 36438.864343030975, 51477.408585239486, -20501.601159763475, -28257.567078777207, 7099.897515761557, 6101.758015365364, -187500.02235174447, -26738.00608372761, 13652.378458068188, -31282.607469869552, 49027.81385514902, -29851.42527239624, 4098.304104602827, -26011.127354041026, -33358.88336406748, -25445.94114374413, 0.034, 0.9520000000000001, 0.34400000000000003, 192.0, 0.0, 0.0, 0.0, 0.0, 0.0, 0.0, 0.0, 0.0, 0.0, 1.695766652250607E9, 0.0, 2023-09-26 17:17:32.250
36.0, 36448.095613491016, 51469.429012468936, -20494.001566648672, -28250.123947873588, 7079.892704474057, 6031.953517431441, -187500.02235174447, -26790.711497153225, 13653.250176101945, -31282.5851181251, 49169.00982487319, -29846.91022001627, 4093.4537760560247, -26012.87079010854, -33360.29152396817, -25311.897732245652, 0.034, 0.9520000000000001, 0.34400000000000003, 192.0, 0.0, 0.0, 0.0, 0.0, 0.0, 0.0, 0.0, 0.0, 0.0, 1.695766652250611E9, 0.0, 2023-09-26 17:17:32.250
38.0, 36445.726328578756, 51487.153945822, -20491.3864125474, -28250.995665907347, 7116.8848415475895, 6105.311942733758, -187500.02235174447, -26727.791336511535, 13658.480484304488, -31278.91943203443, 49034.09469534096, -29836.449603611185, 4099.444043570047, -26008.601606917575, -33346.9698842728, -25441.85077450881, 0.034, 0.9520000000000001, 0.34400000000000003, 192.0, 0.0, 0.0, 0.0, 0.0, 0.0, 0.0, 0.0, 0.0, 0.0, 1.695766652250614E9, 0.0, 2023-09-26 17:17:32.250
40.0, 36441.97123551026, 51459.97422456434, -20494.314491071047, -28260.226936367388, 7087.5370010777715, 6028.891328441064, -187500.02235174447, -26804.010785104132, 13654.814798213816, -31286.742542593784, 49180.16334535639, -29849.368911906353, 4100.114595903707, -26013.742508142295, -33350.3226459411, -25302.800572252345, 0.034, 0.9520000000000001, 0.34400000000000003, 192.0, 0.0, 0.0, 0.0, 0.0, 0.0, 0.0, 0.0, 0.0, 0.0, 1.695766652250617E9, 0.0, 2023-09-26 17:17:32.250
42.0, 36433.0975929615, 51458.99074780831, -20501.24353185219, -28270.084055672178, 7116.8848415475895, 6094.5384019063, -187500.02235174447, -26736.173240682274, 13654.27835634689, -31287.614260627543, 49007.33965722795, -29859.58365912243, 4100.293409859349, -26019.084575067114, -33345.584076116575, -25461.90028928522, 0.034, 0.9520000000000001, 0.342, 192.0, 0.5, 8.0, 14.5, 96.0, 5.0, 88.0, 0.0, 0.0, 0.0, 1.69576665225062E9, 0.0, 2023-09-26 17:17:32.250
44.0, 36434.72927030674, 51443.61274762306, -20506.49619179919, -28279.717657532416, 7087.3581871221295, 6041.4083053360355, -187500.02235174447, -26784.184787772276, 13643.951850408537, -31303.10401953507, 49166.52878123865, -29877.19683375321, 4099.153470892128, -26030.394557761498, -33357.09522451105, -25301.01243269592, 0.034, 0.9520000000000001, 0.342, 192.0, 0.0, 0.0, 0.0, 0.0, 0.0, 0.0, 0.0, 0.0, 0.0, 1.695766652250624E9, 0.0, 2023-09-26 17:17:32.250
46.0, 36433.20935168378, 51450.00534653728, -20499.85772369596, -28268.966468449413, 7116.951896780956, 6091.610323382655, -187500.02235174447, -26728.66305454529, 13655.932385436581, -31291.302298462666, 48986.17255522878, -29867.831452826438, 4100.628686026178, -26016.424717476933, -33350.635570363476, -25475.5125016585, 0.034, 0.9520000000000001, 0.342, 192.0, 0.0, 0.0, 0.0, 0.0, 0.0, 0.0, 0.0, 0.0, 0.0, 1.695766652309341E9, 0.0, 2023-09-26 17:17:32.309
48.0, 36427.956691736785, 51444.395058678994, -20514.25224712518, -28281.438741855472, 7084.184239409476, 6064.922340503018, -187500.02235174447, -26765.744598596648, 13642.834263185772, -31301.986432312304, 49136.24216750171, -29876.369819208365, 4101.232183126472, -26024.314883269657, -33360.537393157174, -25331.567267366325, 0.034, 0.9520000000000001, 0.342, 192.0, 0.0, 0.0, 0.0, 0.0, 0.0, 0.0, 0.0, 0.0, 0.0, 1.695766652309356E9, 0.0, 2023-09-26 17:17:32.309
50.0, 36434.595159840006, 51450.13945700401, -20505.691528998796, -28271.626326039594, 7104.993713497367, 6079.20510520996, -187500.02235174447, -26744.309275664007, 13647.438722543566, -31296.890234576495, 49012.972296830696, -29867.20560398169, 4092.1797266220724, -26024.024310591736, -33362.5266984137, -25444.22005942107, 0.034, 0.9520000000000001, 0.342, 192.0, 0.0, 0.0, 0.0, 0.0, 0.0, 0.0, 0.0, 0.0, 0.0, 1.695766652309362E9, 0.0, 2023-09-26 17:17:32.309
52.0, 36446.10630823449, 51458.67782338594, -20501.4894010412, -28264.764340491813, 7085.637102799071, 6057.792134021775, -187500.02235174447, -26780.317935981508, 13644.756513208928, -31293.783342097206, 49157.99041485672, -29854.688627086718, 4103.71322676101, -26024.828973392126, -33360.2244687348, -25307.025051954395, 0.036000000000000004, 0.9500000000000001, 0.338, 192.0, 0.5, 16.0, 14.5, 88.0, 5.0, 72.0, 0.0, 0.0, 0.0, 1.695766652309367E9, 0.0, 2023-09-26 17:17:32.309
54.0, 36442.19475295481, 51458.029622796734, -20495.745002716187, -28260.338695089664, 7102.780890796291, 6061.815448023731, -187500.02235174447, -26764.515252651603, 13653.138417379669, -31284.954403037358, 49033.49119824066, -29849.57007760645, 4093.2079068670164, -26019.4422029784, -33354.949457043345, -25429.154983658194, 0.036000000000000004, 0.9500000000000001, 0.338, 192.0, 0.0, 0.0, 0.0, 0.0, 0.0, 0.0, 0.0, 0.0, 0.0, 1.695766652309372E9, 0.0, 2023-09-26 17:17:32.309
56.0, 36453.66119786038, 51469.205495024384, -20488.10070611247, -28261.411578823518, 7102.803242540746, 6059.7814392782975, -187500.02235174447, -26777.926299324787, 13650.478559789486, -31280.685219846397, 49159.73385092424, -29842.66338856976, 4112.430407098581, -26024.71721466985, -33347.79689881765, -25307.516790332415, 0.036000000000000004, 0.9500000000000001, 0.338, 192.0, 0.0, 0.0, 0.0, 0.0, 0.0, 0.0, 0.0, 0.0, 0.0, 1.695766652309377E9, 0.0, 2023-09-26 17:17:32.309
58.0, 36444.63109310044, 51451.86054132707, -20484.211502577247, -28261.590392779162, 7113.465024645928, 6053.299433386259, -187500.02235174447, -26769.477339920682, 13661.676783761595, -31273.57736510961, 49048.399811792355, -29847.781938050026, 4103.892040716653, -26018.749298900286, -33344.198267960346, -25417.75559398599, 0.036000000000000004, 0.9500000000000001, 0.338, 192.0, 0.0, 0.0, 0.0, 0.0, 0.0, 0.0, 0.0, 0.0, 0.0, 1.695766652309383E9, 0.0, 2023-09-26 17:17:32.309
60.0, 36445.078127989545, 51459.013099552765, -20479.76350543064, -28264.049084669245, 7107.094777476165, 6079.138049976594, -187500.02235174447, -26758.368522926394, 13655.686516247573, -31272.124501720013, 49137.27034774666, -29851.648789840794, 4117.638363556667, -26017.09526981059, -33344.466488893806, -25326.471069630512, 0.036000000000000004, 0.9500000000000001, 0.338, 192.0, 0.0, 0.0, 0.0, 0.0, 0.0, 0.0, 0.0, 0.0, 0.0, 1.695766652309388E9, 0.0, 2023-09-26 17:17:32.309
62.0, 36438.46201163078, 51443.009250522766, -20471.11338032644, -28260.316343345206, 7101.417434384518, 6064.363546891635, -187500.02235174447, -26752.065330989997, 13664.828379729794, -31257.819385268616, 49055.865294440424, -29852.654618341283, 4110.329343119782, -26004.265368493245, -33343.773584815695, -25406.8479426918, 0.034, 0.9520000000000001, 0.342, 192.0, 0.5, 8.0, 14.5, 96.0, 5.0, 88.0, 0.0, 0.0, 0.0, 1.695766652369699E9, 0.0, 2023-09-26 17:17:32.369
64.0, 36439.95957850928, 51461.22592225384, -20472.029801849105, -28262.283296857277, 7094.622504070104, 6097.019445540839, -187500.02235174447, -26739.414243628293, 13654.658336002629, -31263.85435627155, 49108.54835612159, -29860.61183936737, 4117.191328667561, -26008.33338598411, -33354.21184947632, -25346.49823266247, 0.034, 0.9520000000000001, 0.342, 192.0, 0.0, 0.0, 0.0, 0.0, 0.0, 0.0, 0.0, 0.0, 0.0, 1.695766652369716E9, 0.0, 2023-09-26 17:17:32.369
66.0, 36435.89156101842, 51448.15015174749, -20465.99483084617, -28256.024808409788, 7090.621541812604, 6052.271253141314, -187500.02235174447, -26761.542470639048, 13663.75549599594, -31249.66099854243, 49059.37451831991, -29854.375702664343, 4102.57328779379, -25992.508350909753, -33353.474241909295, -25396.96847164255, 0.034, 0.9520000000000001, 0.342, 192.0, 0.0, 0.0, 0.0, 0.0, 0.0, 0.0, 0.0, 0.0, 0.0, 1.695766652369722E9, 0.0, 2023-09-26 17:17:32.369
68.0, 36433.0975929615, 51462.67878564344, -20476.947185629273, -28266.865404470613, 7100.053977972744, 6101.422739198535, -187500.02235174447, -26737.223772671674, 13655.641812758662, -31253.885478244483, 49072.942027204284, -29850.978237507134, 4112.475110587491, -25995.928167811417, -33352.62487561999, -25387.4913319935, 0.034, 0.9520000000000001, 0.342, 192.0, 0.0, 0.0, 0.0, 0.0, 0.0, 0.0, 0.0, 0.0, 0.0, 1.695766652369726E9, 0.0, 2023-09-26 17:17:32.369
70.0, 36439.22197094226, 51449.53595990372, -20469.369944258924, -28259.042293911254, 7092.610847069126, 6044.492846070868, -187500.02235174447, -26778.26157549162, 13655.954737181037, -31255.695969545362, 49102.66984732984, -29859.896583544803, 4091.2409533549494, -25999.61620564654, -33359.73273035678, -25363.463206704047, 0.034, 0.9520000000000001, 0.342, 192.0, 0.0, 0.0, 0.0, 0.0, 0.0, 0.0, 0.0, 0.0, 0.0, 1.695766652369731E9, 0.0, 2023-09-26 17:17:32.369
72.0, 36441.90418027689, 51464.98101532233, -20470.599290203965, -28260.897488701044, 7109.6652280885255, 6104.663742144554, -187500.02235174447, -26739.05661571701, 13658.145208137657, -31247.09054793007, 49082.016835453134, -29849.27950492853, 4108.921183219098, -25991.971909042826, -33347.28280869518, -25378.461227233558, 0.028, 0.9520000000000001, 0.35000000000000003, 192.0, 0.0, 112.0, 14.5, 96.0, 5.0, 120.0, 0.0, 0.0, 0.0, 1.695766652369736E9, 0.0, 2023-09-26 17:17:32.369
74.0, 36443.11117447748, 51444.79739007919, -20460.026915076603, -28255.0189799093, 7091.917942991012, 6028.399590063047, -187500.02235174447, -26794.198369288253, 13664.716621007517, -31250.93504797638, 49134.454027945285, -29855.448586398197, 4101.276886615382, -25995.414077688944, -33351.64139886396, -25326.96280800853, 0.028, 0.9520000000000001, 0.35000000000000003, 192.0, 0.0, 0.0, 0.0, 0.0, 0.0, 0.0, 0.0, 0.0, 0.0, 1.695766652369741E9, 0.0, 2023-09-26 17:17:32.369
76.0, 36442.93236052184, 51460.689480386915, -20466.844197135473, -28266.954811448435, 7108.972324010411, 6097.39942519658, -187500.02235174447, -26752.020627501086, 13666.102429163746, -31257.95349573535, 49062.23554161019, -29858.421368410753, 4119.2029856685385, -25997.24692073428, -33344.2206197048, -25396.342622797805, 0.028, 0.9520000000000001, 0.35000000000000003, 192.0, 0.0, 0.0, 0.0, 0.0, 0.0, 0.0, 0.0, 0.0, 0.0, 1.695766652431356E9, 0.0, 2023-09-26 17:17:32.431
78.0, 36444.49698263371, 51439.65648885447, -20462.552662200054, -28268.810006238225, 7080.026814940788, 6018.922450413997, -187500.02235174447, -26805.620110704913, 13666.348298352756, -31266.201289439356, 49161.54434222512, -29873.53114766254, 4108.317686118804, -26006.657005149962, -33349.33916918506, -25302.06296468532, 0.028, 0.9520000000000001, 0.35000000000000003, 192.0, 0.0, 0.0, 0.0, 0.0, 0.0, 0.0, 0.0, 0.0, 0.0, 1.695766652431372E9, 0.0, 2023-09-26 17:17:32.431
80.0, 36446.77686056815, 51462.723489132346, -20463.066752322527, -28270.084055672178, 7105.507803619838, 6094.7619193508535, -187500.02235174447, -26748.66786583279, 13670.505722821443, -31263.2285074268, 49057.65343399685, -29866.62445862585, 4118.778302523888, -26004.37712721552, -33341.873686536994, -25403.048146134395, 0.028, 0.9520000000000001, 0.35000000000000003, 192.0, 0.0, 0.0, 0.0, 0.0, 0.0, 0.0, 0.0, 0.0, 0.0, 1.695766652431378E9, 0.0, 2023-09-26 17:17:32.431
82.0, 36449.21320071378, 51446.96550929135, -20461.747999399664, -28263.579698035683, 7080.943236463456, 6020.6211829926, -187500.02235174447, -26795.830046633488, 13673.70202227855, -31259.80869052514, 49171.937903396836, -29863.875194057848, 4113.704456532533, -26002.365470214543, -33345.20409646083, -25296.49738031595, 0.026000000000000002, 0.9460000000000001, 0.34600000000000003, 192.0, 0.0, 104.0, 14.5, 72.0, 5.0, 104.0, 0.0, 0.0, 0.0, 1.695766652431383E9, 0.0, 2023-09-26 17:17:32.431
84.0, 36442.39591865491, 51459.75070711979, -20474.82376990602, -28268.69824751595, 7105.5525071087495, 6095.745396106887, -187500.02235174447, -26737.648455816325, 13670.729240265995, -31257.595867824064, 49028.50675922713, -29859.00251376659, 4115.29143038886, -26000.06324053565, -33347.66278835091, -25434.921733727664, 0.026000000000000002, 0.9460000000000001, 0.34600000000000003, 192.0, 0.0, 0.0, 0.0, 0.0, 0.0, 0.0, 0.0, 0.0, 0.0, 1.695766652431389E9, 0.0, 2023-09-26 17:17:32.431
86.0, 36448.6544071024, 51444.41741042345, -20474.62260420592, -28268.228860882387, 7077.366957350607, 6028.041962151762, -187500.02235174447, -26799.898064124354, 13663.308461106833, -31266.96124875084, 49172.899028408414, -29868.703170860193, 4105.926049462086, -26005.38295571601, -33357.810480333625, -25290.663575013114, 0.026000000000000002, 0.9460000000000001, 0.34600000000000003, 192.0, 0.0, 0.0, 0.0, 0.0, 0.0, 0.0, 0.0, 0.0, 0.0, 1.695766652431394E9, 0.0, 2023-09-26 17:17:32.431
88.0, 36442.53002912164, 51458.49900943029, -20480.121133341927, -28268.228860882387, 7105.507803619838, 6092.303227460769, -187500.02235174447, -26742.364673896394, 13664.64956577415, -31265.486033616788, 49023.9693551027, -29866.37858943684, 4104.674351772589, -26002.991319059292, -33355.709416354824, -25425.93633245663, 0.026000000000000002, 0.9460000000000001, 0.34600000000000003, 192.0, 0.0, 0.0, 0.0, 0.0, 0.0, 0.0, 0.0, 0.0, 0.0, 1.6957666524314E9, 0.0, 2023-09-26 17:17:32.431
90.0, 36453.52708739365, 51455.95091056239, -20468.76644715863, -28256.15891887652, 7083.156059164532, 6043.91170071503, -187500.02235174447, -26784.944747083755, 13663.84490297376, -31263.943763249372, 49178.55401975561, -29859.58365912243, 4108.76472100791, -25998.923301568426, -33351.373177930494, -25271.44107478155, 0.026000000000000002, 0.9460000000000001, 0.34600000000000003, 192.0, 0.0, 0.0, 0.0, 0.0, 0.0, 0.0, 0.0, 0.0, 0.0, 1.695766652431405E9, 0.0, 2023-09-26 17:17:32.431
92.0, 36442.12769772145, 51464.77984962224, -20465.14546455687, -28252.806157208226, 7117.488338647883, 6104.529631677822, -187500.02235174447, -26712.323929348462, 13674.797257756862, -31253.974885222306, 49006.02090430509, -29855.381531164832, 4113.1009594322395, -25985.311089195144, -33334.542314355655, -25437.738053529032, 0.03, 0.9460000000000001, 0.35000000000000003, 192.0, 0.0, 120.0, 14.5, 72.0, 5.0, 120.0, 0.0, 0.0, 0.0, 1.695766652490267E9, 0.0, 2023-09-26 17:17:32.490
94.0, 36446.03925300112, 51457.403773951984, -20462.753827900153, -28257.902354944035, 7090.487431345872, 6047.890311228074, -187500.02235174447, -26775.467607434704, 13664.873083218705, -31263.161452193435, 49173.92720865336, -29864.52339464705, 4113.659753043622, -25995.615243389042, -33341.42665164789, -25271.306964314816, 0.03, 0.9460000000000001, 0.35000000000000003, 192.0, 0.0, 0.0, 0.0, 0.0, 0.0, 0.0, 0.0, 0.0, 0.0, 1.69576665249028E9, 0.0, 2023-09-26 17:17:32.490
96.0, 36439.04315698661, 51461.47179144285, -20457.679981908797, -28256.762415976813, 7115.677847347003, 6077.841648798186, -187500.02235174447, -26739.77187153958, 13674.730202523495, -31255.830080012096, 49019.96839284521, -29859.96363877817, 4116.230203655983, -25991.837798576093, -33333.02239573269, -25419.119050397763, 0.03, 0.9460000000000001, 0.35000000000000003, 192.0, 0.0, 0.0, 0.0, 0.0, 0.0, 0.0, 0.0, 0.0, 0.0, 1.695766652490286E9, 0.0, 2023-09-26 17:17:32.490
98.0, 36443.893485533416, 51464.1987042664, -20457.09883655296, -28259.332866589175, 7097.170602938009, 6041.296546613758, -187500.02235174447, -26779.53562492557, 13666.08007741929, -31265.15075744996, 49182.86790643548, -29860.56713587846, 4125.237956671472, -26002.231359747813, -33332.374195143486, -25259.214670564495, 0.03, 0.9460000000000001, 0.35000000000000003, 192.0, 0.0, 0.0, 0.0, 0.0, 0.0, 0.0, 0.0, 0.0, 0.0, 1.695766652490292E9, 0.0, 2023-09-26 17:17:32.490
100.0, 36440.11604072047, 51463.215227510365, -20454.751903385153, -28252.49323278585, 7115.364922924629, 6055.6687182985215, -187500.02235174447, -26756.178051969775, 13681.011042715436, -31254.66778930042, 49027.322116771, -29850.464147384664, 4119.6723723021, -25994.497656166277, -33328.14971544143, -25414.93927418462, 0.03, 0.9460000000000001, 0.35000000000000003, 192.0, 0.0, 0.0, 0.0, 0.0, 0.0, 0.0, 0.0, 0.0, 0.0, 1.695766652490298E9, 0.0, 2023-09-26 17:17:32.490
102.0, 36439.423136642356, 51465.27158800025, -20460.161025543337, -28255.242497353855, 7100.456309372939, 6057.658023555044, -187500.02235174447, -26759.888441549356, 13670.215150143524, -31259.831042269594, 49143.52883619414, -29850.240629940112, 4128.4789596174915, -25995.972871300328, -33331.70364280983, -25305.72865077599, 0.024, 0.9480000000000001, 0.34800000000000003, 192.0, 0.0, 96.0, 14.5, 80.0, 5.0, 112.0, 0.0, 0.0, 0.0, 1.695766652490303E9, 0.0, 2023-09-26 17:17:32.490
104.0, 36427.84493301451, 51455.883855329026, -20467.42534249131, -28259.958715433924, 7106.357169909141, 6062.86598001313, -187500.02235174447, -26754.367560668896, 13675.55721706834, -31250.845640998563, 49015.85567186543, -29848.00545549458, 4115.649058300145, -25987.076877007115, -33333.35767189952, -25436.50870758399, 0.024, 0.9480000000000001, 0.34800000000000003, 192.0, 0.0, 0.0, 0.0, 0.0, 0.0, 0.0, 0.0, 0.0, 0.0, 1.695766652490309E9, 0.0, 2023-09-26 17:17:32.490
106.0, 36436.338595907524, 51467.48441070133, -20469.459351236743, -28254.370779320096, 7099.003445983344, 6078.601608109666, -187500.02235174447, -26756.848604303435, 13659.106333149235, -31266.71537956183, 49150.5025804642, -29864.52339464705, 4118.219508912505, -25998.208045745858, -33346.16522147241, -25302.8229239968, 0.024, 0.9480000000000001, 0.34800000000000003, 192.0, 0.0, 0.0, 0.0, 0.0, 0.0, 0.0, 0.0, 0.0, 0.0, 1.695766652549213E9, 0.0, 2023-09-26 17:17:32.549
108.0, 36436.763279052175, 51459.19191350841, -20465.57014770152, -28242.010264636312, 7107.6088675986375, 6068.565674849234, -187500.02235174447, -26754.21109845771, 13670.952757710547, -31250.89034448747, 49046.2763960691, -29855.42623465374, 4110.217584397506, -25975.096341979068, -33333.424727132886, -25408.099640381297, 0.024, 0.9480000000000001, 0.34800000000000003, 192.0, 0.0, 0.0, 0.0, 0.0, 0.0, 0.0, 0.0, 0.0, 0.0, 1.695766652549227E9, 0.0, 2023-09-26 17:17:32.549
110.0, 36440.183095953835, 51475.68750091643, -20467.939432613784, -28246.793537949747, 7106.603039098149, 6093.309055961258, -187500.02235174447, -26747.81849954349, 13659.218091871511, -31255.763024778727, 49128.508463920174, -29851.112347973867, 4119.29239264636, -25978.449103647366, -33339.146773713444, -25323.095956217763, 0.024, 0.9480000000000001, 0.34800000000000003, 192.0, 0.0, 0.0, 0.0, 0.0, 0.0, 0.0, 0.0, 0.0, 0.0, 1.695766652549233E9, 0.0, 2023-09-26 17:17:32.549
112.0, 36434.57280809555, 51459.46013444187, -20462.776179644607, -28246.704130971928, 7108.815861799224, 6052.584177563689, -187500.02235174447, -26764.828177073978, 13668.427010587098, -31251.605600310042, 49084.65434129886, -29853.66044684177, 4107.334209362771, -25977.66679259143, -33335.81636378961, -25367.6876864061, 0.024, 0.9460000000000001, 0.34400000000000003, 192.0, 0.0, 96.0, 14.5, 72.0, 5.0, 96.0, 0.0, 0.0, 0.0, 1.695766652549238E9, 0.0, 2023-09-26 17:17:32.549
114.0, 36432.33763365002, 51470.32308224715, -20469.034668092092, -28254.50488978683, 7111.945106022967, 6101.355683965169, -187500.02235174447, -26729.132441178852, 13660.961527939025, -31258.780510280194, 49120.283021960626, -29857.3484846769, 4120.655849058134, -25980.863092048538, -33334.87759052248, -25327.275732430906, 0.024, 0.9460000000000001, 0.34400000000000003, 192.0, 0.0, 0.0, 0.0, 0.0, 0.0, 0.0, 0.0, 0.0, 0.0, 1.695766652549243E9, 0.0, 2023-09-26 17:17:32.549
116.0, 36422.68168004533, 51446.40671567997, -20467.939432613784, -28260.964543934413, 7104.971361752911, 6042.011802436328, -187500.02235174447, -26760.15666248282, 13664.381344840687, -31256.813556768127, 49098.601829838975, -29865.059836513978, 4107.691837274056, -25982.76299032724, -33337.69391032385, -25343.078415760807, 0.024, 0.9460000000000001, 0.34400000000000003, 192.0, 0.0, 0.0, 0.0, 0.0, 0.0, 0.0, 0.0, 0.0, 0.0, 1.695766652549248E9, 0.0, 2023-09-26 17:17:32.549
118.0, 36417.808999754074, 51456.1967797514, -20473.77323791662, -28270.955773705933, 7120.952859038456, 6103.926134577529, -187500.02235174447, -26721.309330619497, 13656.714696492518, -31267.229469684302, 49068.15875389084, -29868.658467371282, 4119.180633924083, -25991.413115431442, -33331.70364280983, -25367.73238989501, 0.024, 0.9460000000000001, 0.34400000000000003, 192.0, 0.0, 0.0, 0.0, 0.0, 0.0, 0.0, 0.0, 0.0, 0.0, 1.695766652549254E9, 0.0, 2023-09-26 17:17:32.549
120.0, 36420.893540488905, 51437.39896266448, -20469.347592514467, -28269.145282405054, 7103.563201852227, 6033.562843032222, -187500.02235174447, -26761.855395061422, 13657.340545337267, -31273.353847665054, 49092.70096930277, -29876.1015982749, 4107.982409951975, -25996.084630022604, -33337.9174277684, -25343.659561116645, 0.024, 0.9460000000000001, 0.34400000000000003, 192.0, 0.0, 0.0, 0.0, 0.0, 0.0, 0.0, 0.0, 0.0, 0.0, 1.695766652549259E9, 0.0, 2023-09-26 17:17:32.549
122.0, 36423.35223237899, 51459.72835537534, -20471.29219428208, -28268.11710216011, 7125.3338009516965, 6093.621980383633, -187500.02235174447, -26719.67765327426, 13659.32985059379, -31279.76879832373, 49041.537826244574, -29871.09480751691, 4122.175767681095, -26003.058374292657, -33332.03891897666, -25394.420372774646, 0.028, 0.9520000000000001, 0.34400000000000003, 192.0, 0.0, 112.0, 14.5, 96.0, 5.0, 96.0, 0.0, 0.0, 0.0, 1.695766652609555E9, 0.0, 2023-09-26 17:17:32.609
124.0, 36424.15689517938, 51439.56708187665, -20475.29315653958, -28263.847918969146, 7096.88003026009, 6027.416113307013, -187500.02235174447, -26774.238261489663, 13660.536844794375, -31283.792112325686, 49108.21307995476, -29867.496176659606, 4110.284639630871, -26005.494714438286, -33334.83288703357, -25337.266962202426, 0.028, 0.9520000000000001, 0.34400000000000003, 192.0, 0.0, 0.0, 0.0, 0.0, 0.0, 0.0, 0.0, 0.0, 0.0, 1.695766652609572E9, 0.0, 2023-09-26 17:17:32.609
126.0, 36425.386241124426, 51458.47665768584, -20477.550682729565, -28261.25511661233, 7119.142367737576, 6098.226439741426, -187500.02235174447, -26728.126612678363, 13651.998478412448, -31289.849435073073, 49042.23073032269, -29867.563231892975, 4114.5091193329245, -26002.47722893682, -33340.97961675878, -25395.917939653154, 0.028, 0.9520000000000001, 0.34400000000000003, 192.0, 0.0, 0.0, 0.0, 0.0, 0.0, 0.0, 0.0, 0.0, 0.0, 1.695766652609577E9, 0.0, 2023-09-26 17:17:32.609
128.0, 36424.71568879076, 51437.51072138676, -20477.953014129762, -28259.82460496719, 7095.181297681487, 6023.549261516245, -187500.02235174447, -26786.598776173447, 13656.51353079242, -31285.513196648742, 49123.09934176199, -29866.691513859216, 4111.312819875815, -25995.011746288747, -33345.517020883206, -25320.54785734986, 0.028, 0.9520000000000001, 0.34400000000000003, 192.0, 0.0, 0.0, 0.0, 0.0, 0.0, 0.0, 0.0, 0.0, 0.0, 1.695766652609581E9, 0.0, 2023-09-26 17:17:32.609
130.0, 36419.999470710696, 51455.883855329026, -20478.422400763324, -28258.01411366631, 7120.617582871626, 6102.205050254471, -187500.02235174447, -26727.634874300347, 13653.876024946694, -31285.87082456003, 49006.78086361657, -29865.417464425263, 4115.984334466974, -25992.016612531737, -33344.91352378291, -25429.669073780668, 0.028, 0.9520000000000001, 0.34400000000000003, 192.0, 0.0, 0.0, 0.0, 0.0, 0.0, 0.0, 0.0, 0.0, 0.0, 1.695766652609587E9, 0.0, 2023-09-26 17:17:32.609
132.0, 36422.145238178404, 51436.03550625271, -20470.95691811525, -28253.186136863966, 7092.387329624574, 6037.139122145071, -187500.02235174447, -26782.01666856011, 13654.211301113522, -31281.28871694669, 49143.32767049404, -29863.96460103567, 4113.413883854614, -25988.060353763147, -33345.94170402786, -25299.045479183853, 0.028, 0.9520000000000001, 0.342, 192.0, 0.0, 112.0, 14.5, 96.0, 5.0, 88.0, 0.0, 0.0, 0.0, 1.695766652609594E9, 0.0, 2023-09-26 17:17:32.609
134.0, 36404.97909843673, 51442.78573307821, -20478.198883318768, -28264.83139572518, 7118.874146804113, 6112.442149215001, -187500.02235174447, -26721.24227538613, 13653.428990057588, -31282.607469869552, 48989.97235178618, -29866.892679559314, 4116.632535056178, -25991.301356709166, -33342.857163293025, -25444.868260010277, 0.028, 0.9520000000000001, 0.342, 192.0, 0.0, 0.0, 0.0, 0.0, 0.0, 0.0, 0.0, 0.0, 0.0, 1.695766652609603E9, 0.0, 2023-09-26 17:17:32.609
136.0, 36419.10540093248, 51436.303727186176, -20464.452560478756, -28254.92957293148, 7106.513632120327, 6057.993299721873, -187500.02235174447, -26751.886517034356, 13644.980030653482, -31285.960231537847, 49172.004958630205, -29882.2036245112, 4117.459549601024, -25993.24595847678, -33338.18564870187, -25260.555775231813, 0.028, 0.9520000000000001, 0.342, 192.0, 0.0, 0.0, 0.0, 0.0, 0.0, 0.0, 0.0, 0.0, 0.0, 1.695766652671179E9, 0.0, 2023-09-26 17:17:32.671
138.0, 36416.981985209226, 51447.814875580654, -20466.19599654627, -28254.817814209204, 7133.827463844713, 6111.749245136887, -187500.02235174447, -26701.32687107645, 13657.921690693103, -31270.179899952404, 49004.3668752154, -29868.747874349105, 4124.142721193161, -25982.226548460312, -33323.54525608364, -25425.958684201087, 0.028, 0.9520000000000001, 0.342, 192.0, 0.0, 0.0, 0.0, 0.0, 0.0, 0.0, 0.0, 0.0, 0.0, 1.695766652671194E9, 0.0, 2023-09-26 17:17:32.671
140.0, 36407.37073509344, 51442.36104993356, -20480.031726364105, -28266.664238770514, 7093.92959999199, 6060.653157312055, -187500.02235174447, -26754.367560668896, 13648.198681855045, -31282.09337974708, 49152.223664787256, -29877.68857213123, 4121.505215347435, -25995.034098033204, -33336.39750914544, -25284.62860401018, 0.028, 0.9520000000000001, 0.342, 192.0, 0.0, 0.0, 0.0, 0.0, 0.0, 0.0, 0.0, 0.0, 0.0, 1.6957666526712E9, 0.0, 2023-09-26 17:17:32.671
142.0, 36410.052944428084, 51449.40184943698, -20474.667307694832, -28261.05395091223, 7119.7011613489585, 6094.918381562041, -187500.02235174447, -26711.29574910352, 13647.684591732574, -31282.383952425, 49023.3211545135, -29879.789636110025, 4110.731674519977, -25992.441295676388, -33340.55493361413, -25403.584588001322, 0.03, 0.9520000000000001, 0.338, 192.0, 0.0, 120.0, 14.5, 96.0, 5.0, 72.0, 0.0, 0.0, 0.0, 1.695766652671205E9, 0.0, 2023-09-26 17:17:32.671
144.0, 36414.79151425261, 51442.89749180049, -20475.67313619532, -28264.876099214092, 7099.696350061459, 6054.975814220406, -187500.02235174447, -26760.15666248282, 13651.327926078788, -31285.982583282304, 49161.723156180764, -29882.181272766746, 4119.180633924083, -25994.14002825499, -33346.45579415033, -25273.47508352698, 0.03, 0.9520000000000001, 0.338, 192.0, 0.0, 0.0, 0.0, 0.0, 0.0, 0.0, 0.0, 0.0, 0.0, 1.69576665267121E9, 0.0, 2023-09-26 17:17:32.671
146.0, 36409.13652290541, 51442.718677844845, -20479.987022875193, -28267.35714284863, 7119.187071226486, 6072.074898728717, -187500.02235174447, -26740.308313406505, 13651.394981312154, -31283.18861522539, 49010.53595668507, -29885.31051699049, 4111.804558253832, -25995.078801522115, -33346.65695985043, -25423.678806266646, 0.03, 0.9520000000000001, 0.338, 192.0, 0.0, 0.0, 0.0, 0.0, 0.0, 0.0, 0.0, 0.0, 0.0, 1.695766652671215E9, 0.0, 2023-09-26 17:17:32.671
148.0, 36409.15887464987, 51448.6418901255, -20484.2338543217, -28266.060741670222, 7097.997617482855, 6055.691070042976, -187500.02235174447, -26764.224679973686, 13646.254080087434, -31284.261498959244, 49163.84657190402, -29874.268755229565, 4119.471206602002, -25997.872769579026, -33349.60739011853, -25273.698600971533, 0.03, 0.9520000000000001, 0.338, 192.0, 0.0, 0.0, 0.0, 0.0, 0.0, 0.0, 0.0, 0.0, 0.0, 1.69576665267122E9, 0.0, 2023-09-26 17:17:32.671
150.0, 36409.87413047244, 51446.3396604466, -20475.516673984133, -28255.398959565042, 7117.421283414517, 6060.116715445128, -187500.02235174447, -26752.244144945642, 13648.779827210883, -31277.645382600473, 49055.99940490716, -29874.425217440752, 4110.061122186318, -25993.96121429935, -33346.74636682825, -25373.74500915349, 0.03, 0.9520000000000001, 0.338, 192.0, 0.0, 0.0, 0.0, 0.0, 0.0, 0.0, 0.0, 0.0, 0.0, 1.695766652671225E9, 0.0, 2023-09-26 17:17:32.671
152.0, 36412.17636015134, 51449.6924221149, -20471.783932660095, -28256.270677598797, 7114.917888035523, 6072.834858040197, -187500.02235174447, -26756.759197325613, 13649.763303966916, -31278.830025056606, 49144.02057457216, -29867.540880148517, 4128.031924728385, -25987.38980142949, -33338.85620103552, -25292.63052852518, 0.028, 0.9540000000000001, 0.342, 192.0, 0.0, 112.0, 14.5, 104.0, 5.0, 88.0, 0.0, 0.0, 0.0, 1.69576665273002E9, 0.0, 2023-09-26 17:17:32.730
154.0, 36405.98492693721, 51437.39896266448, -20466.017182590625, -28253.25319209733, 7121.310486949741, 6069.213875438438, -187500.02235174447, -26740.889458762344, 13655.79827496985, -31274.896118032473, 49028.50675922713, -29868.971391793657, 4118.778302523888, -25987.456856662855, -33329.6696340644, -25409.016061903963, 0.028, 0.9540000000000001, 0.342, 192.0, 0.0, 0.0, 0.0, 0.0, 0.0, 0.0, 0.0, 0.0, 0.0, 1.69576665273004E9, 0.0, 2023-09-26 17:17:32.730
156.0, 36411.55051130659, 51448.8430558256, -20469.079371581003, -28256.11421538761, 7115.610792113637, 6095.544230406789, -187500.02235174447, -26720.817592241478, 13647.394019054655, -31286.80959782715, 49119.03132427113, -29872.592374395415, 4129.931823007086, -25995.77170560023, -33328.2167706748, -25321.620741083712, 0.028, 0.9540000000000001, 0.342, 192.0, 0.0, 0.0, 0.0, 0.0, 0.0, 0.0, 0.0, 0.0, 0.0, 1.695766652730046E9, 0.0, 2023-09-26 17:17:32.730
158.0, 36404.68852575881, 51428.8382445381, -20474.309679783546, -28255.801290965235, 7112.570954867716, 6066.799887037264, -187500.02235174447, -26734.943894737233, 13654.3230598358, -31286.071990260127, 49052.75840196114, -29872.659429628784, 4116.431369356081, -25992.41894393193, -33328.90967475291, -25387.6924976936, 0.028, 0.9540000000000001, 0.342, 192.0, 0.0, 0.0, 0.0, 0.0, 0.0, 0.0, 0.0, 0.0, 0.0, 1.695766652730052E9, 0.0, 2023-09-26 17:17:32.730
160.0, 36406.23079612623, 51445.80321857968, -20481.43988626479, -28256.11421538761, 7113.845004301668, 6107.524765434834, -187500.02235174447, -26711.407507825796, 13639.123873606191, -31298.454856688364, 49126.96619355276, -29876.950964564203, 4121.86284325872, -25999.325632968623, -33336.19634344534, -25310.28840664487, 0.028, 0.9540000000000001, 0.342, 192.0, 0.0, 0.0, 0.0, 0.0, 0.0, 0.0, 0.0, 0.0, 0.0, 1.695766652730056E9, 0.0, 2023-09-26 17:17:32.730
162.0, 36408.10834266047, 51430.15699746097, -20474.913176883838, -28245.430081537972, 7111.475719389406, 6065.637596325588, -187500.02235174447, -26734.72037729268, 13652.959603424026, -31283.836815814593, 49095.29377165959, -29865.32805744744, 4112.877441987686, -25985.89223455098, -33332.12832595448, -25332.997779011464, 0.026000000000000002, 0.9520000000000001, 0.342, 192.0, 0.0, 104.0, 14.5, 96.0, 5.0, 88.0, 0.0, 0.0, 0.0, 1.69576665273006E9, 0.0, 2023-09-26 17:17:32.730
164.0, 36411.12582816194, 51448.463076169865, -20478.08712459649, -28248.224049594886, 7120.103492749155, 6121.4722539749455, -187500.02235174447, -26701.32687107645, 13647.684591732574, -31284.99910652627, 49089.05763495656, -29860.500080645095, 4130.311802662826, -25982.070086249125, -33329.80374453113, -25335.72469183501, 0.026000000000000002, 0.9520000000000001, 0.342, 192.0, 0.0, 0.0, 0.0, 0.0, 0.0, 0.0, 0.0, 0.0, 0.0, 1.695766652730065E9, 0.0, 2023-09-26 17:17:32.730
166.0, 36409.225929883236, 51433.33094517362, -20480.612871719943, -28251.44270079645, 7107.027722242799, 6057.680375299499, -187500.02235174447, -26747.751444310124, 13652.959603424026, -31281.311068691146, 49087.3365506335, -29861.57296437895, 4116.654886800634, -25980.080780992605, -33334.13998295546, -25342.139642493683, 0.026000000000000002, 0.9520000000000001, 0.342, 192.0, 0.0, 0.0, 0.0, 0.0, 0.0, 0.0, 0.0, 0.0, 0.0, 1.69576665279028E9, 0.0, 2023-09-26 17:17:32.790
168.0, 36407.95188044928, 51451.257044226775, -20491.788743947596, -28261.791558479257, 7116.50486189185, 6118.320658006747, -187500.02235174447, -26708.278263602053, 13647.349315565743, -31288.53068215021, 49047.81866643651, -29862.019999268057, 4125.461474116025, -25988.261519463245, -33339.705567324825, -25373.49913996448, 0.026000000000000002, 0.9520000000000001, 0.342, 192.0, 0.0, 0.0, 0.0, 0.0, 0.0, 0.0, 0.0, 0.0, 0.0, 1.695766652790295E9, 0.0, 2023-09-26 17:17:32.790
170.0, 36407.23662462671, 51430.89460502799, -20487.72072645673, -28264.227898624886, 7098.757576794336, 6032.221738364904, -187500.02235174447, -26763.48707240666, 13648.399847555143, -31284.730885592806, 49098.311257161055, -29864.545746391508, 4110.709322775522, -25995.10115326657, -33344.868820294, -25326.04638648586, 0.026000000000000002, 0.9520000000000001, 0.342, 192.0, 0.0, 0.0, 0.0, 0.0, 0.0, 0.0, 0.0, 0.0, 0.0, 1.695766652790301E9, 0.0, 2023-09-26 17:17:32.790
172.0, 36400.687563501306, 51448.731297103324, -20489.039479379593, -28271.760436506327, 7122.428074172506, 6096.103024018172, -187500.02235174447, -26720.549371308014, 13641.94019340756, -31289.827083328615, 49026.584509203974, -29862.91406904627, 4121.058180458329, -26002.09724928108, -33338.096241724044, -25392.65458496268, 0.03, 0.9560000000000001, 0.34400000000000003, 192.0, 0.0, 120.0, 14.5, 112.0, 5.0, 96.0, 0.0, 0.0, 0.0, 1.695766652790306E9, 0.0, 2023-09-26 17:17:32.790
174.0, 36408.309508360566, 51428.50296837127, -20478.780028674606, -28264.384360836073, 7103.0267599853, 6013.267459066804, -187500.02235174447, -26793.103133809942, 13642.230766085479, -31294.27508047522, 49124.61926038495, -29867.026790026044, 4112.966848965508, -26006.09821153858, -33334.58701784456, -25297.637319283167, 0.03, 0.9560000000000001, 0.34400000000000003, 192.0, 0.0, 0.0, 0.0, 0.0, 0.0, 0.0, 0.0, 0.0, 0.0, 1.695766652790311E9, 0.0, 2023-09-26 17:17:32.790
176.0, 36410.56703455056, 51451.100582015584, -20479.115304841438, -28248.425215294985, 7128.016010286333, 6098.986399052907, -187500.02235174447, -26729.28890339004, 13639.593260239752, -31293.179844996914, 49024.52814871409, -29857.370836421353, 4120.00764846893, -25998.699784123874, -33329.96020674231, -25391.44759076209, 0.03, 0.9560000000000001, 0.34400000000000003, 192.0, 0.0, 0.0, 0.0, 0.0, 0.0, 0.0, 0.0, 0.0, 0.0, 1.695766652790316E9, 0.0, 2023-09-26 17:17:32.790
178.0, 36414.83621774152, 51436.99663126429, -20474.488493739187, -28238.746909945836, 7114.157928724043, 6037.0050116783395, -187500.02235174447, -26771.48899692166, 13649.740952222463, -31283.210966969848, 49134.43167620083, -29853.772205564048, 4121.393456625158, -25988.082705507604, -33323.58995957255, -25287.131999389174, 0.03, 0.9560000000000001, 0.34400000000000003, 192.0, 0.0, 0.0, 0.0, 0.0, 0.0, 0.0, 0.0, 0.0, 0.0, 1.695766652790322E9, 0.0, 2023-09-26 17:17:32.790
180.0, 36404.37560133643, 51449.446552925896, -20483.406839776857, -28247.709959472413, 7133.536891166794, 6115.526689949834, -187500.02235174447, -26705.90897868979, 13648.422199299599, -31285.222623970825, 48991.93930529825, -29855.783862565026, 4125.796750282854, -25985.556958384153, -33321.13126768247, -25431.814841248375, 0.03, 0.9560000000000001, 0.34400000000000003, 192.0, 0.0, 0.0, 0.0, 0.0, 0.0, 0.0, 0.0, 0.0, 0.0, 1.695766652790327E9, 0.0, 2023-09-26 17:17:32.790
182.0, 36404.35324959198, 51432.48157888432, -20487.407802034355, -28253.856689197626, 7100.724530306403, 6056.33927063218, -187500.02235174447, -26746.499746620626, 13639.861481173217, -31293.805693841663, 49146.5016182067, -29864.411635924775, 4116.8560525007315, -25993.71534511034, -33328.99908173073, -25284.29332784335, 0.034, 0.9540000000000001, 0.34600000000000003, 192.0, 0.5, 8.0, 14.5, 104.0, 5.0, 104.0, 0.0, 0.0, 0.0, 1.69576665284978E9, 0.0, 2023-09-26 17:17:32.849
184.0, 36408.510674060664, 51443.74685808979, -20482.02103162063, -28251.308590329718, 7136.107341779154, 6120.578184196733, -187500.02235174447, -26693.280243072542, 13637.961582894515, -31293.693935119383, 49022.114160312914, -29862.847013812905, 4113.458587343524, -25992.977737543315, -33325.40045087343, -25398.108410609773, 0.034, 0.9540000000000001, 0.34600000000000003, 192.0, 0.0, 0.0, 0.0, 0.0, 0.0, 0.0, 0.0, 0.0, 0.0, 1.695766652849795E9, 0.0, 2023-09-26 17:17:32.849
186.0, 36417.116095675956, 51439.008288265264, -20478.601214718965, -28249.20752635092, 7108.860565288135, 6068.72213706042, -187500.02235174447, -26741.224734929176, 13646.321135320799, -31288.664792616943, 49159.66679569087, -29853.772205564048, 4127.786055539376, -25989.781438086207, -33319.65605254842, -25264.892013656143, 0.034, 0.9540000000000001, 0.34600000000000003, 192.0, 0.0, 0.0, 0.0, 0.0, 0.0, 0.0, 0.0, 0.0, 0.0, 1.695766652849801E9, 0.0, 2023-09-26 17:17:32.849
188.0, 36404.48736005871, 51440.215282465855, -20487.72072645673, -28254.862517698115, 7125.557318396249, 6120.309963263269, -187500.02235174447, -26692.028545383044, 13648.93628942207, -31287.927185049917, 49006.55734617202, -29851.76054856307, 4121.751084536443, -25994.028269532715, -33324.50638109522, -25407.07146013635, 0.034, 0.9540000000000001, 0.34600000000000003, 192.0, 0.0, 0.0, 0.0, 0.0, 0.0, 0.0, 0.0, 0.0, 0.0, 1.695766652849806E9, 0.0, 2023-09-26 17:17:32.849
190.0, 36410.32116536154, 51431.833378295116, -20487.184284589803, -28262.283296857277, 7101.037454728777, 6061.167247434527, -187500.02235174447, -26760.715456094204, 13639.593260239752, -31304.176903268923, 49185.32659832556, -29863.204641724187, 4121.035828713873, -26006.63465340551, -33337.98448300177, -25227.56460041578, 0.034, 0.9540000000000001, 0.34600000000000003, 192.0, 0.0, 0.0, 0.0, 0.0, 0.0, 0.0, 0.0, 0.0, 0.0, 1.695766652849812E9, 0.0, 2023-09-26 17:17:32.849
192.0, 36401.045191412595, 51425.37372414753, -20482.19984557627, -28261.948020690445, 7134.565071411738, 6107.167137523549, -187500.02235174447, -26700.633966998335, 13646.455245787532, -31302.835798601605, 49022.44943647974, -29869.016095282568, 4124.165072937617, -26005.58412141611, -33328.037956719156, -25386.06082034836, 0.028, 0.9500000000000001, 0.352, 192.0, 0.0, 112.0, 14.5, 88.0, 5.5, 0.0, 0.0, 0.0, 0.0, 1.695766652849818E9, 0.0, 2023-09-26 17:17:32.849
194.0, 36404.4426565698, 51426.20073869237, -20481.75281068716, -28264.943154447457, 7114.135576979587, 6074.667701085532, -187500.02235174447, -26735.927371493268, 13642.588393996764, -31309.071935304637, 49159.46562999077, -29874.067589529466, 4136.793808554865, -26006.277025494222, -33318.82903800357, -25253.313810028292, 0.028, 0.9500000000000001, 0.352, 192.0, 0.0, 0.0, 0.0, 0.0, 0.0, 0.0, 0.0, 0.0, 0.0, 1.695766652849823E9, 0.0, 2023-09-26 17:17:32.849
196.0, 36398.87707220043, 51424.36789564704, -20483.965633388238, -28260.137529389565, 7124.752655595858, 6085.731814590909, -187500.02235174447, -26728.372481867373, 13642.342524807755, -31306.523836436732, 49029.71375342772, -29872.838243584425, 4121.795788025354, -26007.19344701689, -33322.3159101386, -25381.41165750166, 0.028, 0.9500000000000001, 0.352, 192.0, 0.0, 0.0, 0.0, 0.0, 0.0, 0.0, 0.0, 0.0, 0.0, 1.695766652909451E9, 0.0, 2023-09-26 17:17:32.909
198.0, 36412.82456074054, 51437.57777662013, -20476.343688528978, -28250.436872295963, 7122.428074172506, 6076.031157497306, -187500.02235174447, -26742.05174947402, 13643.482463774975, -31306.300318992176, 49158.81742940157, -29866.53505164803, 4133.955137009041, -26009.16040052896, -33322.651186305426, -25257.515937985892, 0.028, 0.9500000000000001, 0.352, 192.0, 0.0, 0.0, 0.0, 0.0, 0.0, 0.0, 0.0, 0.0, 0.0, 1.695766652909467E9, 0.0, 2023-09-26 17:17:32.909
200.0, 36411.30464211758, 51429.6876108274, -20480.165836830838, -28253.07437814169, 7124.193861984475, 6061.524875345812, -187500.02235174447, -26750.701874578226, 13657.318193592811, -31294.230376986314, 49039.14618958786, -29855.29212418701, 4127.048447972351, -25997.984528301306, -33319.52194208169, -25378.036544088907, 0.028, 0.9500000000000001, 0.352, 192.0, 0.0, 0.0, 0.0, 0.0, 0.0, 0.0, 0.0, 0.0, 0.0, 1.695766652909473E9, 0.0, 2023-09-26 17:17:32.909
202.0, 36416.266729386654, 51437.823645809134, -20482.713935698743, -28256.270677598797, 7126.160815496542, 6073.214837695938, -187500.02235174447, -26749.1149007219, 13643.907146919626, -31302.43346720141, 49142.567711182564, -29859.2483829556, 4134.446875387058, -26010.032118562714, -33330.831924776074, -25274.682077727568, 0.032, 0.9460000000000001, 0.34800000000000003, 192.0, 0.5, 0.0, 14.5, 72.0, 5.0, 112.0, 0.0, 0.0, 0.0, 1.695766652909479E9, 0.0, 2023-09-26 17:17:32.909
204.0, 36407.28132811563, 51425.55253810317, -20485.932586900304, -28256.650657254537, 7123.724475350914, 6063.760049791343, -187500.02235174447, -26739.973037239677, 13653.540748779864, -31296.264385731745, 49047.61750073642, -29858.063740499467, 4124.276831659893, -26001.136124269502, -33318.82903800357, -25371.152206796673, 0.032, 0.9460000000000001, 0.34800000000000003, 192.0, 0.0, 0.0, 0.0, 0.0, 0.0, 0.0, 0.0, 0.0, 0.0, 1.695766652909484E9, 0.0, 2023-09-26 17:17:32.909
206.0, 36411.90813921787, 51439.65648885447, -20495.610892249453, -28264.36200909162, 7121.5787078832045, 6095.097195517683, -187500.02235174447, -26734.273342403572, 13641.2696410739, -31304.802752113672, 49121.62412662794, -29863.8975458023, 4131.094113718762, -26008.825124362127, -33329.11084045301, -25294.19515063705, 0.032, 0.9460000000000001, 0.34800000000000003, 192.0, 0.0, 0.0, 0.0, 0.0, 0.0, 0.0, 0.0, 0.0, 0.0, 1.695766652909489E9, 0.0, 2023-09-26 17:17:32.909
208.0, 36400.687563501306, 51417.26004091025, -20504.462183053754, -28268.854709727137, 7109.799338555257, 6053.366488619625, -187500.02235174447, -26759.419054915794, 13647.058742887824, -31302.835798601605, 49060.3803468204, -29864.210470224676, 4118.778302523888, -26007.0369848057, -33332.03891897666, -25351.54972690937, 0.032, 0.9460000000000001, 0.34800000000000003, 192.0, 0.0, 0.0, 0.0, 0.0, 0.0, 0.0, 0.0, 0.0, 0.0, 1.695766652909494E9, 0.0, 2023-09-26 17:17:32.909
210.0, 36410.29881361709, 51442.13753248901, -20497.220217850234, -28260.852785212137, 7125.60202188516, 6111.101044547683, -187500.02235174447, -26710.04405141402, 13636.441664271553, -31312.178827783922, 49108.168376465845, -29867.987915037625, 4126.690820061066, -26013.586045931108, -33340.89020978096, -25297.86083672772, 0.032, 0.9460000000000001, 0.34800000000000003, 192.0, 0.0, 0.0, 0.0, 0.0, 0.0, 0.0, 0.0, 0.0, 0.0, 1.6957666529095E9, 0.0, 2023-09-26 17:17:32.909
212.0, 36399.88290070092, 51417.908241499455, -20495.63324399391, -28260.83043346768, 7111.833347300691, 6068.00688123785, -187500.02235174447, -26737.38023488286, 13647.215205099012, -31296.15262700947, 49080.40750985235, -29864.38928418032, 4121.661677558623, -25997.38103120101, -33331.390718387454, -25327.745119064468, 0.03, 0.9480000000000001, 0.35000000000000003, 192.0, 0.0, 120.0, 14.5, 80.0, 5.0, 120.0, 0.0, 0.0, 0.0, 1.695766652969724E9, 0.0, 2023-09-26 17:17:32.969
214.0, 36397.64772625539, 51432.03454399521, -20495.76735446064, -28260.11517764511, 7123.500957906361, 6133.810416914274, -187500.02235174447, -26701.304519331996, 13630.3172862908, -31306.166208525447, 49080.74278601918, -29878.426179698254, 4127.517834605913, -26000.376164958023, -33334.20703818882, -25318.24562767096, 0.03, 0.9480000000000001, 0.35000000000000003, 192.0, 0.0, 0.0, 0.0, 0.0, 0.0, 0.0, 0.0, 0.0, 0.0, 1.695766652969739E9, 0.0, 2023-09-26 17:17:32.969
216.0, 36403.839159469506, 51422.82562527963, -20491.833447436507, -28253.789633964258, 7113.845004301668, 6073.594817351677, -187500.02235174447, -26729.512420834595, 13638.36391429471, -31298.030173543713, 49109.80005381109, -29871.653601128295, 4119.314744390815, -25992.262481720743, -33329.13319219747, -25284.695659243545, 0.03, 0.9480000000000001, 0.35000000000000003, 192.0, 0.0, 0.0, 0.0, 0.0, 0.0, 0.0, 0.0, 0.0, 0.0, 1.695766652969745E9, 0.0, 2023-09-26 17:17:32.969
218.0, 36409.31533686106, 51446.67493661344, -20492.4369445368, -28253.744930475346, 7132.531062666305, 6135.375039026147, -187500.02235174447, -26697.32590881895, 13636.620478227196, -31294.990336297793, 49056.89347468537, -29863.495214402108, 4132.412866641625, -25996.643423633985, -33329.6696340644, -25329.73442432099, 0.03, 0.9480000000000001, 0.35000000000000003, 192.0, 0.0, 0.0, 0.0, 0.0, 0.0, 0.0, 0.0, 0.0, 0.0, 1.69576665296975E9, 0.0, 2023-09-26 17:17:32.969
220.0, 36412.93631946282, 51429.12881721602, -20489.084182868504, -28252.962619419413, 7107.698274576459, 6046.728020516399, -187500.02235174447, -26771.15372075483, 13644.60005099774, -31294.43154268641, 49115.38798992491, -29855.403882909286, 4124.701514804544, -25999.52679866872, -33335.83871553406, -25282.013449908907, 0.03, 0.9480000000000001, 0.35000000000000003, 192.0, 0.0, 0.0, 0.0, 0.0, 0.0, 0.0, 0.0, 0.0, 0.0, 1.695766652969756E9, 0.0, 2023-09-26 17:17:32.969
222.0, 36411.90813921787, 51447.07726801363, -20492.168723603336, -28259.82460496719, 7138.610737158148, 6112.576259681733, -187500.02235174447, -26709.23938861363, 13644.17536785309, -31294.163321752945, 49018.42612247779, -29851.358217162877, 4132.43521838608, -26003.95244407087, -33332.26243642121, -25386.016116859453, 0.028, 0.9440000000000001, 0.35000000000000003, 192.0, 0.0, 112.0, 14.5, 64.0, 5.0, 120.0, 0.0, 0.0, 0.0, 1.695766652969762E9, 0.0, 2023-09-26 17:17:32.969
224.0, 36413.51746481865, 51433.152131217976, -20495.029746893615, -28265.703113758937, 7107.340646665174, 6027.080837140184, -187500.02235174447, -26776.786360357568, 13639.034466628369, -31297.58313865461, 49131.25772848818, -29862.265868457067, 4120.588793824768, -26013.518990697743, -33333.64824457744, -25283.488665042958, 0.028, 0.9440000000000001, 0.35000000000000003, 192.0, 0.0, 0.0, 0.0, 0.0, 0.0, 0.0, 0.0, 0.0, 0.0, 1.695766652969767E9, 0.0, 2023-09-26 17:17:32.969
226.0, 36417.20550265378, 51456.152076262486, -20494.426249793323, -28265.054913169733, 7131.100551021165, 6094.516050161845, -187500.02235174447, -26726.874914988868, 13643.840091686261, -31296.934938065406, 49025.98101210368, -29856.27560094304, 4125.8414537717645, -26012.714327897353, -33334.609369589016, -25383.512721480456, 0.028, 0.9440000000000001, 0.35000000000000003, 192.0, 0.0, 0.0, 0.0, 0.0, 0.0, 0.0, 0.0, 0.0, 0.0, 1.695766653030031E9, 0.0, 2023-09-26 17:17:33.030
228.0, 36424.84979925749, 51444.43976216791, -20493.06279338155, -28258.930535188978, 7100.366902395118, 6022.990467904862, -187500.02235174447, -26789.951537841745, 13644.801216697839, -31285.066161759638, 49150.34611825301, -29849.257153184077, 4123.852148515242, -26003.639519648495, -33340.51023012522, -25270.971688147987, 0.028, 0.9440000000000001, 0.35000000000000003, 192.0, 0.0, 0.0, 0.0, 0.0, 0.0, 0.0, 0.0, 0.0, 0.0, 1.695766653030056E9, 0.0, 2023-09-26 17:17:33.030
