%OpenBCI Raw EXG Data
%Number of channels = 16
%Sample Rate = 125 Hz
%Board = OpenBCI_GUI$BoardCytonSerialDaisy
Sample Index, EXG Channel 0, EXG Channel 1, EXG Channel 2, EXG Channel 3, EXG Channel 4, EXG Channel 5, EXG Channel 6, EXG Channel 7, EXG Channel 8, EXG Channel 9, EXG Channel 10, EXG Channel 11, EXG Channel 12, EXG Channel 13, EXG Channel 14, EXG Channel 15, Accel Channel 0, Accel Channel 1, Accel Channel 2, Other, Other, Other, Other, Other, Other, Other, Analog Channel 0, Analog Channel 1, Analog Channel 2, Timestamp, Other, Timestamp (Formatted)
0.0, 20925.591400336194, 53831.807235694796, -76099.15150393861, -58016.210259939464, -46731.619147255326, -20208.256865532025, 187500.0, -48676.60089452278, 0.0, 0.0, 0.0, 0.0, 0.0, 0.0, 0.0, 0.0, 0.0, 0.0, 0.0, 192.0, 0.0, 0.0, 0.0, 0.0, 0.0, 0.0, 0.0, 0.0, 0.0, 1.695341050656387E9, 0.0, 2023-09-21 19:04:10.656
240.0, 21006.750584453417, 53913.65932389013, -76109.00862324341, -58024.07807398774, -46731.66385074423, -20199.98672008356, 187500.0, -48683.0381969259, -7584.908018697264, -34596.87943421357, -75466.55243236452, -31491.149245637567, -18088.05979347942, -63703.41047089225, -53733.683077536, -147181.20809569457, 0.0, 0.0, 0.0, 192.0, 0.0, 0.0, 0.0, 0.0, 0.0, 0.0, 0.0, 0.0, 0.0, 1.695341050656399E9, 0.0, 2023-09-21 19:04:10.656
242.0, 20912.1356501741, 53825.995782136415, -76100.17968418356, -58018.601896596185, -46735.06131590144, -20205.57465619739, 187500.0, -48671.236475853504, -7590.831230977921, -34591.447960310936, -75467.82648179847, -31493.004440427358, -18108.019901278007, -63702.024662736025, -53747.5858625872, -147176.6930433146, 0.069, 0.506, 0.011, 192.0, 2.0, 40.0, 15.5, 80.0, 0.0, 88.0, 0.0, 0.0, 0.0, 1.695341050656403E9, 0.0, 2023-09-21 19:04:10.656
244.0, 20998.54749423832, 53920.61071641573, -76120.00568151542, -58041.24421372941, -46738.01174616954, -20205.70876666412, 187500.0, -48690.16840340715, -7596.419167091748, -34605.93189071797, -75476.32014469149, -31507.510722578852, -18098.810982562423, -63714.049901252976, -53740.65682180606, -147152.70962151405, 0.069, 0.506, 0.011, 192.0, 0.0, 0.0, 0.0, 0.0, 0.0, 0.0, 0.0, 0.0, 0.0, 1.695341050656406E9, 0.0, 2023-09-21 19:04:10.656
246.0, 20911.979187962912, 53845.48650330144, -76121.05621350482, -58043.63585038613, -46756.3848801118, -20225.53476399598, 187500.0, -48702.21599366856, -7607.751501530588, -34610.0669634422, -75484.05384827302, -31514.48446684891, -18126.750663131555, -63722.09652925689, -53760.50517088237, -147119.11494959772, 0.069, 0.506, 0.011, 192.0, 0.0, 0.0, 0.0, 0.0, 0.0, 0.0, 0.0, 0.0, 0.0, 1.69534105065641E9, 0.0, 2023-09-21 19:04:10.656
248.0, 20983.661232431084, 53917.28030649189, -76122.55378038333, -58041.98182129644, -46740.51514154854, -20210.201467299637, 187500.0, -48699.243211656, -7609.874917253843, -34618.068887957204, -75492.79338035505, -31521.56996984124, -18118.05583453844, -63726.81274733696, -53760.438115649005, -147104.9662953575, 0.069, 0.506, 0.011, 192.0, 0.0, 0.0, 0.0, 0.0, 0.0, 0.0, 0.0, 0.0, 0.0, 1.695341050656413E9, 0.0, 2023-09-21 19:04:10.656
250.0, 20904.670167526026, 53849.75568649241, -76117.54698962533, -58031.96823978046, -46754.462630088645, -20216.527010980488, 187500.0, -48685.83216498282, -7597.246181636594, -34599.3157743592, -75484.25501397312, -31512.405754614563, -18117.16176476023, -63712.08294774091, -53763.433249406015, -147080.15585901213, 0.069, 0.506, 0.011, 192.0, 0.0, 0.0, 0.0, 0.0, 0.0, 0.0, 0.0, 0.0, 0.0, 1.695341050656416E9, 0.0, 2023-09-21 19:04:10.656
252.0, 20968.506749690387, 53908.2725534764, -76128.3205304528, -58044.395809697606, -46740.1798653817, -20200.456106717123, 187500.0, -48696.94098197711, -7592.954646701175, -34597.728800502875, -75482.15394999433, -31511.846961003183, -18106.231761721585, -63708.14904071677, -53748.323470154224, -147092.89635335165, 0.10450000000000001, 0.758, 0.0155, 192.0, 2.0, 48.0, 15.5, 72.0, 0.0, 80.0, 0.0, 0.0, 0.0, 1.69534105065642E9, 0.0, 2023-09-21 19:04:10.656
254.0, 20906.167734404535, 53855.18716039505, -76124.09605075074, -58039.97016429546, -46757.4354121012, -20221.913781394218, 187500.0, -48694.50464183148, -7603.83994625091, -34603.115570916605, -75491.9216623213, -31522.262873919353, -18122.325017729407, -63714.47458439763, -53765.42255466254, -147049.04223073032, 0.10450000000000001, 0.758, 0.0155, 192.0, 0.0, 0.0, 0.0, 0.0, 0.0, 0.0, 0.0, 0.0, 0.0, 1.695341050656423E9, 0.0, 2023-09-21 19:04:10.656
0.0, 10562.696822011092, 26960.00360965772, -38089.04893267738, -29091.689478360353, -23448.231631306608, -10092.818450071627, 93749.98882412778, -24363.78143594044, -3814.615763976069, -17322.110214484957, -37759.38305370606, -15776.800009822848, -9065.532274905716, -31877.543852036462, -26889.03682101212, -73509.14311517992, 0.11925000000000001, 0.884, 0.017750000000000002, 192.0, 2.0, 24.0, 15.5, 72.0, 0.0, 80.0, 0.0, 0.0, 0.0, 1.695341050819049E9, 0.0, 2023-09-21 19:04:10.819
2.0, 21104.897094356667, 53883.260951430915, -76178.36608628822, -58185.480020699506, -46882.314608373, -20177.858493072807, 187500.0, -48728.434589914636, -7638.060467011985, -34636.33026317719, -75505.64563341685, -31660.195488953053, -18228.6522661033, -63749.343305747905, -53970.34334782879, -145094.91861998066, 0.11925000000000001, 0.884, 0.017750000000000002, 192.0, 0.0, 0.0, 0.0, 0.0, 0.0, 0.0, 0.0, 0.0, 0.0, 1.695341050819061E9, 0.0, 2023-09-21 19:04:10.819
4.0, 21166.52085381995, 53947.18694057309, -76171.61585946272, -58185.8823520997, -46876.63726528135, -20176.495036661036, 187500.0, -48727.227595714045, -7627.935126773731, -34637.85018180015, -75499.45420020273, -31657.26741042941, -18204.914713491766, -63747.66692491376, -53952.461952264544, -145059.02171838543, 0.11925000000000001, 0.884, 0.017750000000000002, 192.0, 0.0, 0.0, 0.0, 0.0, 0.0, 0.0, 0.0, 0.0, 0.0, 1.695341050819064E9, 0.0, 2023-09-21 19:04:10.819
6.0, 21099.063289053833, 53874.1190879487, -76172.62168796321, -58188.56456143434, -46876.07847166997, -20178.260824473004, 187500.0, -48731.586185882836, -7635.825292566454, -34641.202943468445, -75507.1208485509, -31665.73872157797, -18222.304370677994, -63750.97498309315, -53959.2345308345, -145077.50661104996, 0.11925000000000001, 0.884, 0.017750000000000002, 192.0, 0.0, 0.0, 0.0, 0.0, 0.0, 0.0, 0.0, 0.0, 0.0, 1.695341050819068E9, 0.0, 2023-09-21 19:04:10.819
8.0, 21167.70549627608, 53949.69033595209, -76178.00845837695, -58190.33034924631, -46878.58186704897, -20172.89640580373, 187500.0, -48728.993383526016, -7633.947746032209, -34641.13588823508, -75508.99839508515, -31665.73872157797, -18208.401585626794, -63752.09257031591, -53949.735039440995, -145044.00134611147, 0.126, 1.008, 0.024, 192.0, 1.5, 120.0, 15.5, 64.0, 0.0, 96.0, 0.0, 0.0, 0.0, 1.695341050819071E9, 0.0, 2023-09-21 19:04:10.819
10.0, 21088.781486604392, 53871.25806465842, -76185.38453404719, -58197.348797005274, -46884.013340951606, -20184.09462977584, 187500.0, -48738.291709219426, -7638.820426323466, -34636.15144922155, -75510.00422358564, -31664.956410522034, -18224.964228268174, -63752.561956949474, -53962.877865180715, -145055.1325148502, 0.126, 1.008, 0.024, 192.0, 0.0, 0.0, 0.0, 0.0, 0.0, 0.0, 0.0, 0.0, 0.0, 1.695341050819074E9, 0.0, 2023-09-21 19:04:10.819
12.0, 21173.85222600129, 53964.53189427041, -76212.5866070493, -58222.04747462839, -46907.99676275215, -20196.09751654834, 187500.0, -48754.25085476051, -7662.759144635099, -34669.589658926685, -75539.9779129002, -31695.08656204779, -18234.843699317422, -63783.0050328976, -53971.237417607, -145014.80996785284, 0.126, 1.008, 0.024, 192.0, 0.0, 0.0, 0.0, 0.0, 0.0, 0.0, 0.0, 0.0, 0.0, 1.695341050819077E9, 0.0, 2023-09-21 19:04:10.819
14.0, 21089.832018593792, 53880.17641069608, -76203.44474356709, -58215.990151881, -46905.38160865088, -20200.43375497267, 187500.0, -48746.83007560135, -7658.668775399778, -34663.15235652356, -75538.65915997734, -31697.65701266015, -18249.08176053545, -63778.44527702872, -53989.47644108254, -145007.81387183833, 0.126, 1.008, 0.024, 192.0, 0.0, 0.0, 0.0, 0.0, 0.0, 0.0, 0.0, 0.0, 0.0, 1.695341050819081E9, 0.0, 2023-09-21 19:04:10.819
16.0, 21177.94259523661, 53968.80107746137, -76204.89760695669, -58215.00667512497, -46893.065797456, -20183.37937395327, 187500.0, -48744.013755799984, -7663.653214413312, -34675.535222951796, -75543.21891584623, -31706.150675553166, -18230.596867870914, -63784.12262012037, -53966.521199526935, -144982.35523490372, 0.126, 1.008, 0.024, 192.0, 0.0, 0.0, 0.0, 0.0, 0.0, 0.0, 0.0, 0.0, 0.0, 1.695341050879295E9, 0.0, 2023-09-21 19:04:10.879
18.0, 21083.148847001656, 53877.248332172436, -76180.71301945603, -58187.916360845134, -46888.43898635376, -20178.551397150924, 187500.0, -48720.14209272172, -7654.46664744218, -34655.01632154183, -75527.84091566097, -31695.488893447986, -18238.308219707993, -63765.41421001127, -53971.01390016245, -144976.14144994516, 0.132, 1.01, 0.024, 192.0, 2.0, 16.0, 15.5, 72.0, 0.0, 96.0, 0.0, 0.0, 0.0, 1.695341050879308E9, 0.0, 2023-09-21 19:04:10.879
20.0, 21168.308993376373, 53949.91385339664, -76202.59537727779, -58210.69278844509, -46886.583791563964, -20173.186978481648, 187500.0, -48746.69596513462, -7642.12848450285, -34648.80253658325, -75518.20731380074, -31685.050628787358, -18211.910809506277, -63758.82044539696, -53959.323937812325, -144987.5631913618, 0.132, 1.01, 0.024, 192.0, 0.0, 0.0, 0.0, 0.0, 0.0, 0.0, 0.0, 0.0, 0.0, 1.695341050879312E9, 0.0, 2023-09-21 19:04:10.879
22.0, 21092.715393628525, 53876.80129728333, -76190.92776667212, -58199.583971450804, -46897.647905069345, -20188.632033900267, 187500.0, -48734.13428475074, -7651.85149334091, -34657.922048321016, -75528.95850288373, -31698.97576558301, -18238.062350518983, -63771.82916066995, -53981.45216482308, -144955.42138283508, 0.132, 1.01, 0.024, 192.0, 0.0, 0.0, 0.0, 0.0, 0.0, 0.0, 0.0, 0.0, 0.0, 1.695341050879315E9, 0.0, 2023-09-21 19:04:10.879
24.0, 21167.437275342618, 53940.4814172365, -76197.65564175315, -58205.887163387204, -46882.64988453983, -20172.449370914623, 187500.0, -48734.156636495194, -7637.144045489317, -34649.96482729493, -75517.20148530025, -31686.525843921405, -18220.203306699193, -63764.6989541887, -53962.85551343626, -144967.5583800743, 0.132, 1.01, 0.024, 192.0, 0.0, 0.0, 0.0, 0.0, 0.0, 0.0, 0.0, 0.0, 0.0, 1.695341050879318E9, 0.0, 2023-09-21 19:04:10.879
26.0, 21106.260550768442, 53896.38142542618, -76200.11433364324, -58203.69669243058, -46911.10365523144, -20197.28215900447, 187500.0, -48735.2518719735, -7663.51910394658, -34667.75681588135, -75537.25100007666, -31702.9320243516, -18246.80188260101, -63781.68627997474, -53981.09453691179, -144915.8587951492, 0.132, 1.01, 0.024, 192.0, 0.0, 0.0, 0.0, 0.0, 0.0, 0.0, 0.0, 0.0, 0.0, 1.695341050879322E9, 0.0, 2023-09-21 19:04:10.879
28.0, 21161.402304339685, 53948.10336209576, -76213.25715938296, -58218.42649202663, -46898.25140216963, -20181.881807074762, 187500.0, -48752.23919775953, -7653.282004986049, -34654.92691456401, -75526.70097669376, -31691.08559979029, -18235.715417351177, -63765.05658209999, -53965.314205326344, -144932.64495523513, 0.128, 1.008, 0.024, 192.0, 2.0, 0.0, 15.5, 64.0, 0.0, 96.0, 0.0, 0.0, 0.0, 1.695341050879325E9, 0.0, 2023-09-21 19:04:10.879
30.0, 21103.73480364499, 53906.84204183127, -76196.04631615238, -58202.48969823, -46919.68672510228, -20197.10334504883, 187500.0, -48738.96226155308, -7668.972929593674, -34669.612010671146, -75541.27431407862, -31706.016565086433, -18257.62012691738, -63779.540512507025, -53991.35398761678, -144873.72575685094, 0.128, 1.008, 0.024, 192.0, 0.0, 0.0, 0.0, 0.0, 0.0, 0.0, 0.0, 0.0, 0.0, 1.695341050939556E9, 0.0, 2023-09-21 19:04:10.939
32.0, 21143.81148145336, 53932.32303051031, -76192.29122308388, -58200.65685518466, -46883.096919428936, -20170.147141235728, 187500.0, -48748.774677368965, -7639.088647256929, -34642.58875162467, -75513.24522653165, -31677.920422306113, -18228.40639691429, -63759.24512854161, -53970.63392050671, -144915.7470364269, 0.128, 1.008, 0.024, 192.0, 0.0, 0.0, 0.0, 0.0, 0.0, 0.0, 0.0, 0.0, 0.0, 1.69534105093957E9, 0.0, 2023-09-21 19:04:10.939
34.0, 21114.66480668364, 53920.43190246009, -76190.8830631832, -58196.90176211617, -46903.90639351683, -20187.827371099876, 187500.0, -48732.346145194315, -7654.868978842375, -34653.585809896686, -75528.04208136107, -31689.968012567522, -18233.435539416736, -63773.63965197083, -53970.61156876225, -144857.2525211874, 0.128, 1.008, 0.024, 192.0, 0.0, 0.0, 0.0, 0.0, 0.0, 0.0, 0.0, 0.0, 0.0, 1.695341050939574E9, 0.0, 2023-09-21 19:04:10.939
36.0, 21123.583152721305, 53915.626277402196, -76181.22710957851, -58190.442107968585, -46876.70432051472, -20161.474664387068, 187500.0, -48728.88162480374, -7638.552205390001, -34638.25251320035, -75510.38420324138, -31673.51712864842, -18224.338379423425, -63757.43463724073, -53953.62424297622, -144900.36903624167, 0.128, 1.008, 0.024, 192.0, 0.0, 0.0, 0.0, 0.0, 0.0, 0.0, 0.0, 0.0, 0.0, 1.695341050939577E9, 0.0, 2023-09-21 19:04:10.939
38.0, 21119.962170119546, 53935.92166136762, -76202.90830170015, -58216.25837281447, -46907.370913907405, -20191.94009207965, 187500.0, -48745.779543611956, -7654.399592208814, -34657.89969657656, -75526.99154937167, -31690.79502711237, -18229.926315537254, -63774.33255604894, -53961.5367605134, -144847.8424367717, 0.126, 1.004, 0.028, 192.0, 1.5, 120.0, 15.5, 48.0, 0.0, 112.0, 0.0, 0.0, 0.0, 1.69534105093958E9, 0.0, 2023-09-21 19:04:10.939
40.0, 21101.767850132925, 53916.98973381397, -76189.78782770489, -58207.3400267768, -46884.773300263085, -20175.265690715994, 187500.0, -48733.3519736948, -7660.166342278283, -34667.645057159076, -75536.58044774299, -31702.395582484674, -18245.013743044587, -63785.62018699887, -53969.873961195226, -144866.26027420285, 0.126, 1.004, 0.028, 192.0, 0.0, 0.0, 0.0, 0.0, 0.0, 0.0, 0.0, 0.0, 0.0, 1.695341050939584E9, 0.0, 2023-09-21 19:04:10.939
42.0, 21108.540428702883, 53938.67092593562, -76188.73729571549, -58204.88133488671, -46899.54780334805, -20177.32205120588, 187500.0, -48729.127493992746, -7647.492903172124, -34656.53624016479, -75526.41040401583, -31698.014640571433, -18227.13234748034, -63774.55607349349, -53960.77680120192, -144822.182634137, 0.126, 1.004, 0.028, 192.0, 0.0, 0.0, 0.0, 0.0, 0.0, 0.0, 0.0, 0.0, 0.0, 1.695341050939587E9, 0.0, 2023-09-21 19:04:10.939
44.0, 21075.437495164573, 53894.83915505876, -76177.89669965467, -58197.86288712775, -46869.328244844466, -20164.447446399623, 187500.0, -48720.499720633, -7640.921490302264, -34644.913333048025, -75517.69322367826, -31683.530710164396, -18227.668789347266, -63762.687297187724, -53956.172341844125, -144865.1426869801, 0.126, 1.004, 0.028, 192.0, 0.0, 0.0, 0.0, 0.0, 0.0, 0.0, 0.0, 0.0, 0.0, 1.69534105093959E9, 0.0, 2023-09-21 19:04:10.939
46.0, 21116.89998112917, 53947.20929231755, -76200.91899644364, -58220.32639030533, -46904.82281503949, -20191.671871146187, 187500.0, -48747.05359304591, -7648.297565972515, -34659.12904252161, -75529.98668312868, -31694.70658239205, -18223.153736967295, -63779.60756774039, -53955.94882439957, -144817.60052652366, 0.126, 1.004, 0.028, 192.0, 0.0, 0.0, 0.0, 0.0, 0.0, 0.0, 0.0, 0.0, 0.0, 1.695341050999852E9, 0.0, 2023-09-21 19:04:10.999
48.0, 21071.391829418164, 53888.647721844645, -76185.11631311373, -58206.98239886551, -46880.95115196123, -20171.398838925226, 187500.0, -48731.34031669382, -7643.737810103633, -34650.925952306505, -75526.83508716048, -31695.019506814424, -18241.593926142923, -63772.36560253688, -53969.806905961865, -144843.34973613618, 0.128, 1.002, 0.03, 192.0, 2.0, 0.0, 15.5, 40.0, 0.0, 120.0, 0.0, 0.0, 0.0, 1.695341050999865E9, 0.0, 2023-09-21 19:04:10.999
50.0, 21119.537486974896, 53944.39297251618, -76183.35052530176, -58202.601456952274, -46885.35444561893, -20170.23654821355, 187500.0, -48722.35491542279, -7639.289812957027, -34649.27192321682, -75525.3822237709, -31695.667707403627, -18219.689216576724, -63768.14112283482, -53954.987699387995, -144801.86489842713, 0.128, 1.002, 0.03, 192.0, 0.0, 0.0, 0.0, 0.0, 0.0, 0.0, 0.0, 0.0, 0.0, 1.695341050999868E9, 0.0, 2023-09-21 19:04:10.999
52.0, 21053.44337862055, 53868.37468962368, -76183.01524913493, -58201.12624181822, -46872.63630302386, -20162.055809742906, 187500.0, -48726.78056082494, -7631.623164608856, -34633.178667208995, -75518.2296655452, -31690.12447477871, -18224.60660035689, -63754.305393016984, -53953.26661506494, -144838.72292503392, 0.128, 1.002, 0.03, 192.0, 0.0, 0.0, 0.0, 0.0, 0.0, 0.0, 0.0, 0.0, 0.0, 1.695341050999871E9, 0.0, 2023-09-21 19:04:10.999
54.0, 21122.71143468755, 53949.19859757407, -76212.63131053821, -58225.33318106332, -46907.505024374135, -20180.22777798507, 187500.0, -48752.39565997072, -7655.0924962869285, -34662.79472861227, -75543.01775014613, -31715.538408224395, -18230.820385315466, -63781.03807938554, -53966.14121987119, -144793.7735669343, 0.128, 1.002, 0.03, 192.0, 0.0, 0.0, 0.0, 0.0, 0.0, 0.0, 0.0, 0.0, 0.0, 1.695341050999879E9, 0.0, 2023-09-21 19:04:10.999
56.0, 21046.760207028416, 53864.865465744195, -76187.46324628154, -58202.13207031871, -46885.197983407736, -20162.74871382102, 187500.0, -48721.997287511505, -7652.410286952292, -34648.73548134988, -75537.58627624348, -31708.430553487608, -18249.260574491094, -63768.09641934591, -53982.5921037903, -144808.8833461861, 0.128, 1.002, 0.03, 192.0, 0.0, 0.0, 0.0, 0.0, 0.0, 0.0, 0.0, 0.0, 0.0, 1.695341050999882E9, 0.0, 2023-09-21 19:04:10.999
58.0, 21124.36546377724, 53944.52708298291, -76181.54003400088, -58198.44403248359, -46880.012378694104, -20157.361943407293, 187500.0, -48725.26064220198, -7644.98950779313, -34647.90846680504, -75534.32292155302, -31704.51899820793, -18223.399606156305, -63768.074067601454, -53955.81471393284, -144776.89799987056, 0.128, 1.008, 0.02, 192.0, 2.0, 0.0, 15.5, 64.0, 0.0, 80.0, 0.0, 0.0, 0.0, 1.695341050999885E9, 0.0, 2023-09-21 19:04:10.999
60.0, 21051.811701275314, 53866.206570411516, -76194.6828597406, -58219.27585831593, -46892.819928266996, -20180.987737296553, 187500.0, -48745.488970934035, -7636.741714089122, -34638.65484460054, -75524.3763952704, -31697.902881849157, -18233.480242905647, -63761.56970996496, -53965.42596404863, -144793.21477332292, 0.128, 1.008, 0.02, 192.0, 0.0, 0.0, 0.0, 0.0, 0.0, 0.0, 0.0, 0.0, 0.0, 1.695341051060338E9, 0.0, 2023-09-21 19:04:11.060
62.0, 21138.111786617254, 53955.97117614403, -76207.13278140221, -58235.01148641247, -46905.605126095434, -20188.94495832264, 187500.0, -48761.51517170849, -7658.959348077697, -34670.573135682724, -75550.12560488291, -31732.65984447716, -18243.158548254796, -63798.33832959394, -53981.22864737853, -144748.95831930143, 0.128, 1.008, 0.02, 192.0, 0.0, 0.0, 0.0, 0.0, 0.0, 0.0, 0.0, 0.0, 0.0, 1.695341051060366E9, 0.0, 2023-09-21 19:04:11.060
64.0, 21046.424930861587, 53867.34650937874, -76183.46228402403, -58215.677227458626, -46892.93168698927, -20181.188902996648, 187500.0, -48734.447209173115, -7652.387935207837, -34656.89386807607, -75537.78744194358, -31722.065117605343, -18243.315010465984, -63785.44137304323, -53988.24709513749, -144743.75036284333, 0.128, 1.008, 0.02, 192.0, 0.0, 0.0, 0.0, 0.0, 0.0, 0.0, 0.0, 0.0, 0.0, 1.695341051060369E9, 0.0, 2023-09-21 19:04:11.060
66.0, 21129.685178957603, 53953.46778076504, -76199.9355196876, -58229.91528867666, -46894.071625956494, -20178.19376923964, 187500.0, -48753.5579506824, -7656.724173632166, -34665.96867632493, -75544.00122690215, -31726.468411263042, -18230.909792293285, -63793.48800104714, -53969.20340886157, -144727.8582725356, 0.128, 1.008, 0.02, 192.0, 0.0, 0.0, 0.0, 0.0, 0.0, 0.0, 0.0, 0.0, 0.0, 1.695341051060372E9, 0.0, 2023-09-21 19:04:11.060
68.0, 21047.25194540643, 53881.27164617439, -76197.32036558633, -58222.89684091769, -46903.99580049465, -20186.262748988003, 187500.0, -48745.66778488967, -7663.049717313018, -34662.05712104525, -75547.95748567075, -31728.56947524184, -18253.32859198196, -63790.51521903458, -53981.25099912298, -144705.73004552486, 0.122, 1.008, 0.026000000000000002, 192.0, 1.5, 104.0, 15.5, 64.0, 0.0, 104.0, 0.0, 0.0, 0.0, 1.695341051060376E9, 0.0, 2023-09-21 19:04:11.060
70.0, 21120.766832919937, 53948.95272838506, -76200.09198189879, -58225.98138165253, -46887.45550959773, -20171.62235636978, 187500.0, -48746.00306105651, -7658.936996333242, -34664.851089102165, -75549.09742463796, -31730.245856075988, -18241.437463931736, -63787.38597481084, -53970.790382717896, -144699.13628091055, 0.122, 1.008, 0.026000000000000002, 192.0, 0.0, 0.0, 0.0, 0.0, 0.0, 0.0, 0.0, 0.0, 0.0, 1.69534105106038E9, 0.0, 2023-09-21 19:04:11.060
72.0, 21040.725236025482, 53874.1190879487, -76187.88792942619, -58212.324465790334, -46895.79271027955, -20181.32301346338, 187500.0, -48729.59688062631, -7656.299490487515, -34657.18444075399, -75545.58820075849, -31730.71524270955, -18247.56184191249, -63782.96032940869, -53977.428850821125, -144676.20339109938, 0.122, 1.008, 0.026000000000000002, 192.0, 0.0, 0.0, 0.0, 0.0, 0.0, 0.0, 0.0, 0.0, 0.0, 1.695341051060383E9, 0.0, 2023-09-21 19:04:11.060
74.0, 21107.1322688022, 53926.5786321853, -76191.84418819478, -58218.962933893556, -46884.572134562986, -20165.721495833575, 187500.0, -48743.96905231107, -7650.912720073787, -34660.60425765565, -75543.50948852414, -31731.810478187857, -18233.234373716637, -63785.1060968764, -53966.521199526935, -144694.26360061928, 0.122, 1.008, 0.026000000000000002, 192.0, 0.0, 0.0, 0.0, 0.0, 0.0, 0.0, 0.0, 0.0, 0.0, 1.695341051060386E9, 0.0, 2023-09-21 19:04:11.060
76.0, 21047.766035528904, 53876.823649027785, -76184.28929856888, -58205.6412941982, -46900.79950103754, -20180.987737296553, 187500.0, -48737.66586037468, -7654.690164886733, -34659.48667043289, -75544.1800408578, -31733.531562510918, -18238.822309830466, -63783.49677127562, -53975.48424905351, -144656.95853912338, 0.122, 1.008, 0.026000000000000002, 192.0, 0.0, 0.0, 0.0, 0.0, 0.0, 0.0, 0.0, 0.0, 0.0, 1.695341051119474E9, 0.0, 2023-09-21 19:04:11.119
78.0, 21109.389794992185, 53929.01497233093, -76218.64392979669, -58237.60428876928, -46902.00649523813, -20177.411458183702, 187500.0, -48755.56960768338, -7665.7095749032, -34662.459452445444, -75555.24415436317, -31735.297350322886, -18238.911716808285, -63791.16341962379, -53969.471629795036, -144667.86619041755, 0.128, 1.006, 0.024, 192.0, 2.0, 0.0, 15.5, 56.0, 0.0, 96.0, 0.0, 0.0, 0.0, 1.695341051119485E9, 0.0, 2023-09-21 19:04:11.119
80.0, 21062.004096746936, 53899.22009697201, -76211.02198493743, -58231.5916695108, -46923.62063212641, -20193.37060372479, 187500.0, -48747.07594479036, -7686.340235035448, -34680.3855514986, -75576.72418078473, -31759.124309912244, -18266.60552818841, -63809.38009135486, -53996.67370279714, -144599.31339017313, 0.128, 1.006, 0.024, 192.0, 0.0, 0.0, 0.0, 0.0, 0.0, 0.0, 0.0, 0.0, 0.0, 1.695341051119488E9, 0.0, 2023-09-21 19:04:11.119
82.0, 21087.641547637173, 53915.402759957644, -76203.2882813559, -58225.15436710768, -46887.18728866426, -20160.535891119944, 187500.0, -48736.36945919627, -7660.702784145211, -34658.682007632495, -75555.087692152, -31738.51600152445, -18241.12453950936, -63785.217855598676, -53974.97015893104, -144630.91875683295, 0.128, 1.006, 0.024, 192.0, 0.0, 0.0, 0.0, 0.0, 0.0, 0.0, 0.0, 0.0, 0.0, 1.695341051119492E9, 0.0, 2023-09-21 19:04:11.119
84.0, 21061.199433946542, 53902.39404468466, -76214.79942975038, -58235.1455968792, -46918.94911753525, -20189.28023448947, 187500.0, -48747.88060759075, -7668.414135982292, -34666.12513853612, -75564.07309342302, -31748.015492917955, -18242.19742324322, -63793.66681500278, -53984.134374157715, -144583.24248590978, 0.128, 1.006, 0.024, 192.0, 0.0, 0.0, 0.0, 0.0, 0.0, 0.0, 0.0, 0.0, 0.0, 1.695341051119495E9, 0.0, 2023-09-21 19:04:11.119
86.0, 21073.425838163595, 53900.024759772394, -76218.08513618531, -58240.62177427075, -46908.66731508581, -20179.065487273394, 187500.0, -48759.59292168533, -7669.688185416244, -34671.02017057183, -75568.65520103637, -31754.38574008772, -18255.47435944967, -63801.713443006694, -53996.31607488586, -144610.71277984534, 0.128, 1.006, 0.024, 192.0, 0.0, 0.0, 0.0, 0.0, 0.0, 0.0, 0.0, 0.0, 0.0, 1.695341051119498E9, 0.0, 2023-09-21 19:04:11.119
88.0, 21074.498721897453, 53915.693332635565, -76219.00155770798, -58240.979402182034, -46929.745010107166, -20191.046022301438, 187500.0, -48749.37817446925, -7680.931112877263, -34680.72082766543, -75577.95352672978, -31764.734597770526, -18259.676487407265, -63809.55890531051, -54001.613438321765, -144545.6692034804, 0.14, 1.008, 0.018000000000000002, 192.0, 2.0, 48.0, 15.5, 64.0, 0.0, 72.0, 0.0, 0.0, 0.0, 1.695341051119501E9, 0.0, 2023-09-21 19:04:11.119
90.0, 21061.199433946542, 53893.09571899125, -76218.8897989857, -58241.22527137104, -46910.298992431046, -20182.15002800823, 187500.0, -48757.76007864, -7678.47242098718, -34676.786920641294, -75574.89133773939, -31764.689894281615, -18266.918452610786, -63802.808678485, -53999.46767085406, -144568.95972120282, 0.14, 1.008, 0.018000000000000002, 192.0, 0.0, 0.0, 0.0, 0.0, 0.0, 0.0, 0.0, 0.0, 0.0, 1.695341051179299E9, 0.0, 2023-09-21 19:04:11.179
92.0, 21069.60368986174, 53911.75942561143, -76205.7916767349, -58225.80256769688, -46917.987992523675, -20181.054792529918, 187500.0, -48748.72997388005, -7666.447182470225, -34666.594525169676, -75567.22468939122, -31761.91827796916, -18245.527833167056, -63794.00209116961, -53994.32676962933, -144521.08228457955, 0.14, 1.008, 0.018000000000000002, 192.0, 0.0, 0.0, 0.0, 0.0, 0.0, 0.0, 0.0, 0.0, 0.0, 1.695341051179313E9, 0.0, 2023-09-21 19:04:11.179
94.0, 21039.317076124797, 53868.73231753497, -76204.67408951213, -58224.43911128511, -46899.726617303684, -20170.504769147014, 187500.0, -48751.501590192514, -7660.859246356398, -34655.820984342216, -75558.6863230093, -31754.989237188012, -18250.579327413958, -63787.54243702203, -53989.63290329372, -144562.1647908884, 0.14, 1.008, 0.018000000000000002, 192.0, 0.0, 0.0, 0.0, 0.0, 0.0, 0.0, 0.0, 0.0, 0.0, 1.695341051179317E9, 0.0, 2023-09-21 19:04:11.179
96.0, 21087.50743717044, 53934.513501466936, -76225.86354325576, -58245.98619294002, -46937.74693462216, -20192.118906035295, 187500.0, -48761.20224728611, -7678.651234942822, -34678.396246242075, -75580.61338431995, -31775.28462115343, -18256.70370539471, -63810.56473381099, -54002.28399065542, -144495.4001302004, 0.14, 1.008, 0.018000000000000002, 192.0, 0.0, 0.0, 0.0, 0.0, 0.0, 0.0, 0.0, 0.0, 0.0, 1.69534105117932E9, 0.0, 2023-09-21 19:04:11.179
98.0, 21023.626151517172, 53863.23378839896, -76191.30774632785, -58217.510070503966, -46899.92778300378, -20163.642783599233, 187500.0, -48740.996270298514, -7667.073031314973, -34659.91135357754, -75565.50360506817, -31764.064045436866, -18259.676487407265, -63793.756221980606, -54002.01576972196, -144515.29318276563, 0.136, 1.006, 0.018000000000000002, 192.0, 2.0, 32.0, 15.5, 56.0, 0.0, 72.0, 0.0, 0.0, 0.0, 1.695341051179323E9, 0.0, 2023-09-21 19:04:11.179
100.0, 21086.993347047966, 53931.13838805418, -76212.5419035604, -58241.15821613768, -46914.501120388646, -20167.867263301287, 187500.0, -48750.49576169202, -7655.807752109498, -34656.40212969806, -75555.40061657436, -31753.33520809832, -18228.093472491917, -63784.68141373175, -53974.88075195322, -144484.96186553978, 0.136, 1.006, 0.018000000000000002, 192.0, 0.0, 0.0, 0.0, 0.0, 0.0, 0.0, 0.0, 0.0, 0.0, 1.695341051179326E9, 0.0, 2023-09-21 19:04:11.179
102.0, 21012.606741500706, 53852.348488849224, -76199.57789177631, -58229.53530902092, -46909.91901277531, -20170.437713913645, 187500.0, -48739.49870342001, -7673.152705806817, -34667.44389145898, -75571.1362446709, -31768.199118161097, -18264.660926420802, -63800.2605796171, -54002.44045286661, -144493.9472668108, 0.136, 1.006, 0.018000000000000002, 192.0, 0.0, 0.0, 0.0, 0.0, 0.0, 0.0, 0.0, 0.0, 0.0, 1.69534105117933E9, 0.0, 2023-09-21 19:04:11.179
104.0, 21090.83784709428, 53936.2792892789, -76206.10460115726, -58238.16308238066, -46920.089056502475, -20169.27542320197, 187500.0, -48755.14492453873, -7668.525894704569, -34672.450682216964, -75567.44820683578, -31768.847318750304, -18241.28100172055, -63801.17700113977, -53988.51531607095, -144454.7423070362, 0.136, 1.006, 0.018000000000000002, 192.0, 0.0, 0.0, 0.0, 0.0, 0.0, 0.0, 0.0, 0.0, 0.0, 1.695341051179333E9, 0.0, 2023-09-21 19:04:11.179
106.0, 21014.998378157423, 53857.5117418184, -76192.26887133943, -58226.85309968628, -46912.06478024302, -20178.819618084388, 187500.0, -48738.09054351933, -7670.246979027627, -34665.76751062483, -75563.7378172562, -31766.366275115764, -18262.202234530716, -63799.50062030562, -54003.33452264482, -144457.0445367151, 0.136, 1.006, 0.018000000000000002, 192.0, 0.0, 0.0, 0.0, 0.0, 0.0, 0.0, 0.0, 0.0, 0.0, 1.695341051239571E9, 0.0, 2023-09-21 19:04:11.239
108.0, 21097.632777408693, 53943.92358588262, -76199.3320225873, -58235.5479282794, -46916.06574250052, -20181.926510563673, 187500.0, -48758.74355539603, -7662.870903357376, -34664.11348153514, -75559.1333578984, -31761.203022146587, -18240.69985636471, -63797.35485283791, -53986.235438136515, -144426.2885363446, 0.132, 1.008, 0.024, 192.0, 2.0, 16.0, 15.5, 64.0, 0.0, 96.0, 0.0, 0.0, 0.0, 1.695341051239582E9, 0.0, 2023-09-21 19:04:11.239
110.0, 21015.78068921336, 53857.42233484058, -76193.1852928621, -58232.91042243367, -46912.08713198747, -20184.7651821095, 187500.0, -48748.23823550204, -7658.266443999582, -34654.12225176361, -75553.1877938733, -31753.625780776238, -18256.502539694615, -63788.369451566876, -53996.67370279714, -144428.6354695124, 0.132, 1.008, 0.024, 192.0, 0.0, 0.0, 0.0, 0.0, 0.0, 0.0, 0.0, 0.0, 0.0, 1.695341051239586E9, 0.0, 2023-09-21 19:04:11.239
112.0, 21096.001100063455, 53942.24720504847, -76197.90151094217, -58239.05715215888, -46912.08713198747, -20179.356059951315, 187500.0, -48757.13422979525, -7669.487019716146, -34672.607144428155, -75567.02352369112, -31765.025170448444, -18247.919469823777, -63801.288759862044, -53993.298589384394, -144402.46157675525, 0.132, 1.008, 0.024, 192.0, 0.0, 0.0, 0.0, 0.0, 0.0, 0.0, 0.0, 0.0, 0.0, 1.695341051239589E9, 0.0, 2023-09-21 19:04:11.239
114.0, 21008.739889709937, 53855.38832609515, -76184.49046426898, -58221.53338450592, -46907.48267262968, -20179.825446584877, 187500.0, -48738.51522666398, -7662.7814963795545, -34654.45752793044, -75552.36077932845, -31753.71518775406, -18250.534623925047, -63784.77082070957, -53992.98566496202, -144402.88625989988, 0.132, 1.008, 0.024, 192.0, 0.0, 0.0, 0.0, 0.0, 0.0, 0.0, 0.0, 0.0, 0.0, 1.695341051239592E9, 0.0, 2023-09-21 19:04:11.239
116.0, 21093.251835495455, 53937.88861487969, -76205.21053137905, -58242.454617316085, -46910.7236755757, -20174.930414549162, 187500.0, -48758.09535480683, -7667.0059760816075, -34667.44389145898, -75556.3393898415, -31760.71128376857, -18237.503556907603, -63790.78343996804, -53984.87198172474, -144396.22544005222, 0.132, 1.008, 0.024, 192.0, 0.0, 0.0, 0.0, 0.0, 0.0, 0.0, 0.0, 0.0, 0.0, 1.695341051239596E9, 0.0, 2023-09-21 19:04:11.239
118.0, 21005.54359025283, 53852.013212682396, -76178.99193513297, -58211.9891896235, -46904.57694585049, -20171.488245903045, 187500.0, -48723.62896485674, -7661.462743456691, -34660.69366463347, -75547.75631997065, -31757.42557733364, -18247.293620979028, -63780.61339624088, -53993.41034810667, -144376.332387487, 0.132, 1.01, 0.028, 192.0, 2.0, 16.0, 15.5, 72.0, 0.0, 112.0, 0.0, 0.0, 0.0, 1.695341051239599E9, 0.0, 2023-09-21 19:04:11.239
120.0, 21094.771754118414, 53927.517405452425, -76200.80723772135, -58232.6422015002, -46889.78009102107, -20160.155911464204, 187500.0, -48737.48704641903, -7652.544397419024, -34651.26122847333, -75532.69124420777, -31739.1418503692, -18223.444309645212, -63764.0507535995, -53970.87978969572, -144394.19143130677, 0.132, 1.01, 0.028, 192.0, 0.0, 0.0, 0.0, 0.0, 0.0, 0.0, 0.0, 0.0, 0.0, 1.695341051299887E9, 0.0, 2023-09-21 19:04:11.299
122.0, 21036.92543946808, 53869.626387313176, -76206.57398779082, -58234.65385850118, -46915.30578318903, -20194.488190947555, 187500.0, -48744.61725290028, -7669.5317232050575, -34667.66740890353, -75542.4813082792, -31749.825984218834, -18247.070103534475, -63780.85926542989, -53988.269446881946, -144349.95732902974, 0.132, 1.01, 0.028, 192.0, 0.0, 0.0, 0.0, 0.0, 0.0, 0.0, 0.0, 0.0, 0.0, 1.695341051299903E9, 0.0, 2023-09-21 19:04:11.299
124.0, 21113.323702016318, 53931.47366422101, -76219.51564783046, -58241.85112021579, -46903.437006883265, -20181.47947567457, 187500.0, -48755.39079372773, -7674.650272685322, -34673.05417931726, -75542.54836351257, -31748.641341762705, -18243.270306977072, -63785.351966065406, -53990.1916969051, -144353.95829128724, 0.132, 1.01, 0.028, 192.0, 0.0, 0.0, 0.0, 0.0, 0.0, 0.0, 0.0, 0.0, 0.0, 1.695341051299907E9, 0.0, 2023-09-21 19:04:11.299
126.0, 21066.0721142378, 53888.33479742227, -76217.28047338492, -58230.31762007685, -46927.420428683814, -20194.354080480825, 187500.0, -48752.3062529929, -7682.071051844484, -34675.132891551606, -75542.7271774682, -31746.808498717368, -18253.7085716377, -63783.56382650898, -53997.97010397555, -144305.67852326378, 0.132, 1.01, 0.028, 192.0, 0.0, 0.0, 0.0, 0.0, 0.0, 0.0, 0.0, 0.0, 0.0, 1.69534105129991E9, 0.0, 2023-09-21 19:04:11.299
128.0, 21111.468507226527, 53908.16079475413, -76203.62355752273, -58214.58199198032, -46890.47299509919, -20159.552414363912, 187500.0, -48738.984613297536, -7662.84855161292, -34654.30106571926, -75519.90604637934, -31723.406222272664, -18238.598792385914, -63759.133369819334, -53986.995397447994, -144346.7163260837, 0.13, 1.006, 0.026000000000000002, 192.0, 2.0, 8.0, 15.5, 56.0, 0.0, 104.0, 0.0, 0.0, 0.0, 1.695341051299913E9, 0.0, 2023-09-21 19:04:11.299
130.0, 21086.25573948094, 53891.39698641265, -76214.79942975038, -58222.36039905076, -46923.508873404135, -20187.402687955226, 187500.0, -48746.83007560135, -7671.4092697393025, -34673.90354560656, -75531.61836047392, -31736.102013123276, -18244.05261803301, -63776.746544450114, -53993.52210682895, -144299.4647383052, 0.13, 1.006, 0.026000000000000002, 192.0, 0.0, 0.0, 0.0, 0.0, 0.0, 0.0, 0.0, 0.0, 0.0, 1.695341051299916E9, 0.0, 2023-09-21 19:04:11.299
132.0, 21121.482088742505, 53905.769158097406, -76226.35528163378, -58233.62567825624, -46904.80046329504, -20177.65732737271, 187500.0, -48756.41897397268, -7668.816467382488, -34674.64115317359, -75526.99154937167, -31732.928065410622, -18242.823272087964, -63770.555111236, -53993.991493462505, -144327.4714741077, 0.13, 1.006, 0.026000000000000002, 192.0, 0.0, 0.0, 0.0, 0.0, 0.0, 0.0, 0.0, 0.0, 0.0, 1.69534105129992E9, 0.0, 2023-09-21 19:04:11.299
134.0, 21102.058422810846, 53897.83428881578, -76209.8373424813, -58216.52659374793, -46914.79169306657, -20184.51931292049, 187500.0, -48734.96129929558, -7681.75812742211, -34682.64307768859, -75539.30736056654, -31741.645245748194, -18252.166301270285, -63780.032250885044, -54004.94384824561, -144270.18395306874, 0.13, 1.006, 0.026000000000000002, 192.0, 0.0, 0.0, 0.0, 0.0, 0.0, 0.0, 0.0, 0.0, 0.0, 1.695341051299923E9, 0.0, 2023-09-21 19:04:11.299
136.0, 21113.971902605525, 53887.50778287742, -76202.0365836664, -58208.1893930661, -46892.64111431135, -20157.250184685014, 187500.0, -48733.91076730618, -7666.782458637054, -34663.800557112765, -75519.5260667236, -31720.36638502674, -18243.493824421625, -63763.8495878994, -53984.067318924346, -144313.03224718955, 0.13, 1.006, 0.026000000000000002, 192.0, 0.0, 0.0, 0.0, 0.0, 0.0, 0.0, 0.0, 0.0, 0.0, 1.695341051360175E9, 0.0, 2023-09-21 19:04:11.360
138.0, 21130.0875103578, 53904.80803308583, -76198.482656298, -58202.735567419004, -46911.416579653815, -20166.52615863397, 187500.0, -48729.59688062631, -7664.927263847264, -34661.65478964505, -75516.32976726649, -31714.84550414628, -18232.27324870506, -63761.010916353574, -53982.68151076812, -144260.01390934156, 0.134, 1.008, 0.026000000000000002, 192.0, 2.0, 24.0, 15.5, 64.0, 0.0, 104.0, 0.0, 0.0, 0.0, 1.695341051360189E9, 0.0, 2023-09-21 19:04:11.360
140.0, 21121.012702108947, 53872.777983281376, -76198.84028420929, -58203.719044175035, -46894.205736423224, -20150.589364837335, 187500.0, -48731.78735158293, -7659.920473089275, -34654.14460350807, -75512.75348815364, -31708.60936744325, -18237.056522018494, -63751.578480193435, -53980.33457760031, -144300.24704936112, 0.134, 1.008, 0.026000000000000002, 192.0, 0.0, 0.0, 0.0, 0.0, 0.0, 0.0, 0.0, 0.0, 0.0, 1.695341051360194E9, 0.0, 2023-09-21 19:04:11.360
142.0, 21157.200176382088, 53917.57087916981, -76202.81889472234, -58206.46830874304, -46920.04435301356, -20165.22975745556, 187500.0, -48731.54148239392, -7664.502580702613, -34665.90162109156, -75523.81760165902, -31718.399431514674, -18236.117748751374, -63762.28496578753, -53985.87781022523, -144245.552330679, 0.134, 1.008, 0.026000000000000002, 192.0, 0.0, 0.0, 0.0, 0.0, 0.0, 0.0, 0.0, 0.0, 0.0, 1.695341051360199E9, 0.0, 2023-09-21 19:04:11.360
144.0, 21120.90094338667, 53863.36789886569, -76183.10465611276, -58190.79973587987, -46880.39235834985, -20147.54952759141, 187500.0, -48714.1965286966, -7651.426810196258, -34651.708263362445, -75509.57954044099, -31705.502474963963, -18237.570612140968, -63750.90792785978, -53979.97694968903, -144284.3996625423, 0.134, 1.008, 0.026000000000000002, 192.0, 0.0, 0.0, 0.0, 0.0, 0.0, 0.0, 0.0, 0.0, 0.0, 1.695341051360204E9, 0.0, 2023-09-21 19:04:11.360
146.0, 21174.634537057227, 53926.332762996295, -76201.54484528839, -58209.48579424451, -46903.68287607228, -20162.882824287753, 187500.0, -48732.23438647204, -7652.924377074764, -34660.60425765565, -75515.30158702155, -31708.341146509785, -18224.763062568076, -63759.33453551943, -53964.420135548135, -144238.77975210903, 0.134, 1.008, 0.026000000000000002, 192.0, 0.0, 0.0, 0.0, 0.0, 0.0, 0.0, 0.0, 0.0, 0.0, 1.695341051360209E9, 0.0, 2023-09-21 19:04:11.360
148.0, 21125.773623677927, 53872.28624490336, -76214.46415358355, -58224.483814774016, -46909.56138486402, -20175.153931993715, 187500.0, -48746.36068896779, -7680.104098332417, -34675.95990609645, -75534.79230818657, -31728.524771752927, -18257.79894087302, -63776.81359968348, -53989.811717249366, -144247.16165627976, 0.134, 1.01, 0.026000000000000002, 192.0, 2.0, 24.0, 15.5, 72.0, 0.0, 104.0, 0.0, 0.0, 0.0, 1.695341051360213E9, 0.0, 2023-09-21 19:04:11.360
150.0, 21180.513045848973, 53940.01203060294, -76205.54580754589, -58216.21366932555, -46909.248460441646, -20175.422152927178, 187500.0, -48739.07402027536, -7676.349005263925, -34680.47495847642, -75535.55226749806, -31729.575303742327, -18244.879632577853, -63777.9535386507, -53987.88946722621, -144200.96060049065, 0.134, 1.01, 0.026000000000000002, 192.0, 0.0, 0.0, 0.0, 0.0, 0.0, 0.0, 0.0, 0.0, 0.0, 1.695341051419764E9, 0.0, 2023-09-21 19:04:11.419
152.0, 21114.776565405915, 53870.69927104703, -76205.72462150152, -58218.895878660194, -46904.33107666148, -20174.90806280471, 187500.0, -48740.01279354248, -7666.447182470225, -34668.22620251491, -75526.20923831573, -31713.549102967874, -18251.808673359, -63766.86707340087, -53991.465746339054, -144229.86140607137, 0.134, 1.01, 0.026000000000000002, 192.0, 0.0, 0.0, 0.0, 0.0, 0.0, 0.0, 0.0, 0.0, 0.0, 1.695341051419777E9, 0.0, 2023-09-21 19:04:11.419
154.0, 21182.547054594404, 53947.45516150656, -76196.11337138574, -58209.463442500055, -46900.441873126256, -20165.810902811398, 187500.0, -48736.749438852006, -7669.621130182878, -34676.11636830764, -75530.97015988472, -31716.812457658347, -18243.672638377266, -63775.628957227345, -53988.15768815967, -144188.82360325143, 0.134, 1.01, 0.026000000000000002, 192.0, 0.0, 0.0, 0.0, 0.0, 0.0, 0.0, 0.0, 0.0, 0.0, 1.69534105141978E9, 0.0, 2023-09-21 19:04:11.419
156.0, 21108.831001380804, 53871.794506525344, -76211.6925372711, -58225.06496012986, -46912.44475989875, -20171.935280792153, 187500.0, -48754.49672394952, -7663.340289990937, -34660.98423731139, -75522.36473826942, -31705.927158108614, -18254.446179204726, -63763.62607045485, -53991.95748471707, -144212.42704539624, 0.134, 1.01, 0.026000000000000002, 192.0, 0.0, 0.0, 0.0, 0.0, 0.0, 0.0, 0.0, 0.0, 0.0, 1.695341051419784E9, 0.0, 2023-09-21 19:04:11.419
158.0, 21188.33615640833, 53961.51440876895, -76213.86065648326, -58231.36815206625, -46906.655658084834, -20172.538777892445, 187500.0, -48754.69788964962, -7684.060357101007, -34685.07941783422, -75543.50948852414, -31724.590864728794, -18261.151702541316, -63783.63088174235, -53994.416176607156, -144178.40769033524, 0.134, 1.012, 0.026000000000000002, 192.0, 2.0, 24.0, 15.5, 80.0, 0.0, 104.0, 0.0, 0.0, 0.0, 1.695341051419787E9, 0.0, 2023-09-21 19:04:11.419
160.0, 21094.0788500403, 53872.59916932573, -76196.02396440793, -58214.15730883567, -46902.47588187169, -20174.863359315797, 187500.0, -48735.18481674014, -7680.014691354596, -34677.16690029704, -75535.01582563113, -31720.634605960204, -18263.498635709126, -63779.07112587347, -53989.029406193426, -144181.5816380479, 0.134, 1.012, 0.026000000000000002, 192.0, 0.0, 0.0, 0.0, 0.0, 0.0, 0.0, 0.0, 0.0, 0.0, 1.69534105141979E9, 0.0, 2023-09-21 19:04:11.419
162.0, 21174.455723101586, 53951.00908887495, -76192.87236843973, -58208.32350353283, -46891.478823599675, -20155.32793466186, 187500.0, -48739.87868307575, -7673.644444184833, -34673.657676417555, -75529.96433138422, -31716.27601579142, -18245.08079827795, -63774.82429442696, -53972.84674320779, -144179.7934984915, 0.134, 1.012, 0.026000000000000002, 192.0, 0.0, 0.0, 0.0, 0.0, 0.0, 0.0, 0.0, 0.0, 0.0, 1.695341051419793E9, 0.0, 2023-09-21 19:04:11.419
164.0, 21092.89420758417, 53874.320253648795, -76191.37480156122, -58201.93090461861, -46898.318457403, -20157.22783294056, 187500.0, -48726.26647070247, -7657.439429454736, -34650.85889707314, -75514.45222073224, -31695.354782981252, -18250.266402991583, -63755.33357326193, -53972.0867838963, -144181.60398979235, 0.134, 1.012, 0.026000000000000002, 192.0, 0.0, 0.0, 0.0, 0.0, 0.0, 0.0, 0.0, 0.0, 0.0, 1.695341051419796E9, 0.0, 2023-09-21 19:04:11.419
166.0, 21172.533473078427, 53966.40944080466, -76230.8926857582, -58243.19222488311, -46918.70324834624, -20170.594176124832, 187500.0, -48772.7133956806, -7683.099232089428, -34678.70917066445, -75544.47061353573, -31720.23227456001, -18259.721190896176, -63783.36266080888, -53984.80492649137, -144166.5836175184, 0.134, 1.012, 0.026000000000000002, 192.0, 0.0, 0.0, 0.0, 0.0, 0.0, 0.0, 0.0, 0.0, 0.0, 1.695341051480082E9, 0.0, 2023-09-21 19:04:11.480
168.0, 21077.002117276446, 53890.81584105681, -76199.06380165384, -58215.29724780289, -46911.28246918708, -20167.487283645547, 187500.0, -48731.362668438276, -7691.57054323799, -34679.5361852093, -75550.37147407192, -31724.90378915117, -18283.90577839682, -63785.57548350996, -54010.21885993706, -144138.10749508234, 0.13, 1.008, 0.028, 192.0, 2.0, 8.0, 15.5, 64.0, 0.0, 112.0, 0.0, 0.0, 0.0, 1.695341051480093E9, 0.0, 2023-09-21 19:04:11.480
170.0, 21144.169109364644, 53959.30158606787, -76214.17358090563, -58233.4468643006, -46900.35246614843, -20155.17147245067, 187500.0, -48748.1041250353, -7674.13618256285, -34668.60618217065, -75535.70872970924, -31711.269225033433, -18253.23918500414, -63774.57842523795, -53980.17811538913, -144162.94028317218, 0.13, 1.008, 0.028, 192.0, 0.0, 0.0, 0.0, 0.0, 0.0, 0.0, 0.0, 0.0, 0.0, 1.695341051480096E9, 0.0, 2023-09-21 19:04:11.480
172.0, 21073.448189908053, 53904.80803308583, -76214.0394704389, -58232.70925673357, -46923.66533561532, -20176.18211223866, 187500.0, -48752.73093613755, -7689.223610070183, -34679.58088869821, -75547.95748567075, -31724.27794030642, -18276.373240515382, -63788.12358237786, -54002.26163891097, -144124.53998619795, 0.13, 1.008, 0.028, 192.0, 0.0, 0.0, 0.0, 0.0, 0.0, 0.0, 0.0, 0.0, 0.0, 1.695341051480101E9, 0.0, 2023-09-21 19:04:11.480
174.0, 21121.727957931515, 53949.77974292991, -76212.81012449386, -58233.40216081169, -46904.778111550586, -20161.251146942515, 187500.0, -48759.36940424078, -7683.859191400909, -34681.45843523245, -75548.13629962639, -31728.167143841645, -18266.069086321484, -63789.35292832291, -53997.5454208309, -144144.1201143408, 0.13, 1.008, 0.028, 192.0, 0.0, 0.0, 0.0, 0.0, 0.0, 0.0, 0.0, 0.0, 0.0, 1.695341051480104E9, 0.0, 2023-09-21 19:04:11.480
176.0, 21063.21109094752, 53901.70114060654, -76187.15032185917, -58208.07763434383, -46911.01424825362, -20167.08495224535, 187500.0, -48732.68142136114, -7670.202275538716, -34663.3311704792, -75534.09940410846, -31710.79983839987, -18258.402437973313, -63774.645480471314, -53994.483231840524, -144118.25914600602, 0.13, 1.008, 0.028, 192.0, 0.0, 0.0, 0.0, 0.0, 0.0, 0.0, 0.0, 0.0, 0.0, 1.695341051480118E9, 0.0, 2023-09-21 19:04:11.480
178.0, 21104.74063214548, 53925.79632112936, -76193.98995566249, -58212.883259401715, -46889.64598055434, -20148.197728180618, 187500.0, -48741.219787743066, -7655.338365475937, -34649.98717903938, -75519.48136323469, -31694.863044603237, -18242.063312776485, -63767.06823910097, -53976.06539440935, -144163.90140818377, 0.132, 1.008, 0.026000000000000002, 192.0, 2.0, 16.0, 15.5, 64.0, 0.0, 104.0, 0.0, 0.0, 0.0, 1.695341051480121E9, 0.0, 2023-09-21 19:04:11.480
180.0, 21079.75138184445, 53909.18897499907, -76198.77322897593, -58210.581029722816, -46917.13862623437, -20161.072332986874, 187500.0, -48739.78927609793, -7668.615301682389, -34659.12904252161, -75529.96433138422, -31706.150675553166, -18251.47339719217, -63775.60660548289, -53989.63290329372, -144122.32716349687, 0.132, 1.008, 0.026000000000000002, 192.0, 0.0, 0.0, 0.0, 0.0, 0.0, 0.0, 0.0, 0.0, 0.0, 1.695341051540312E9, 0.0, 2023-09-21 19:04:11.540
182.0, 21100.963187332534, 53907.46789067601, -76186.50212126996, -58198.0864045723, -46878.358349604416, -20130.584553549834, 187500.0, -48731.96616553857, -7660.0769353004625, -34647.372024938115, -75519.83899114597, -31696.11474229273, -18246.108978522894, -63759.24512854161, -53982.54740030139, -144163.25320759453, 0.132, 1.008, 0.026000000000000002, 192.0, 0.0, 0.0, 0.0, 0.0, 0.0, 0.0, 0.0, 0.0, 0.0, 1.695341051540327E9, 0.0, 2023-09-21 19:04:11.540
184.0, 21101.298463499363, 53911.647666889156, -76183.81991193532, -58196.164154549144, -46889.19894566524, -20140.37461762126, 187500.0, -48715.18000545264, -7650.242167740127, -34640.68885334598, -75514.94395911026, -31689.073942789313, -18234.284905706038, -63750.393837737305, -53972.19854261858, -144127.13278855477, 0.132, 1.008, 0.026000000000000002, 192.0, 0.0, 0.0, 0.0, 0.0, 0.0, 0.0, 0.0, 0.0, 0.0, 1.69534105154033E9, 0.0, 2023-09-21 19:04:11.540
186.0, 21111.51321071544, 53900.40473942814, -76201.32132784383, -58217.778291437426, -46881.08526242796, -20135.770158263465, 187500.0, -48732.99434578352, -7643.693106614722, -34637.11257423313, -75508.7748776406, -31687.26345148843, -18229.725149837155, -63751.1985005377, -53967.571731516335, -144172.4844780546, 0.132, 1.008, 0.026000000000000002, 192.0, 0.0, 0.0, 0.0, 0.0, 0.0, 0.0, 0.0, 0.0, 0.0, 1.695341051540334E9, 0.0, 2023-09-21 19:04:11.540
188.0, 21116.922332873623, 53923.04705656136, -76196.85097895277, -58213.173832079636, -46905.403960395335, -20151.930469504652, 187500.0, -48734.022526028464, -7659.9651765781855, -34658.07851053221, -75526.61156971593, -31708.788181398893, -18239.068179019472, -63770.398649024806, -53987.30832187037, -144115.15225352673, 0.132, 1.008, 0.028, 192.0, 2.0, 16.0, 15.5, 64.0, 0.0, 112.0, 0.0, 0.0, 0.0, 1.695341051540337E9, 0.0, 2023-09-21 19:04:11.540
190.0, 21095.151733774153, 53893.676864347086, -76202.93065344461, -58223.18741359561, -46887.12023343089, -20141.00046646601, 187500.0, -48737.509398163485, -7654.667813142278, -34648.80253658325, -75518.63199694539, -31699.378096983208, -18238.08470226344, -63762.62024195436, -53981.005129933976, -144165.80130646244, 0.132, 1.008, 0.028, 192.0, 0.0, 0.0, 0.0, 0.0, 0.0, 0.0, 0.0, 0.0, 0.0, 1.69534105154034E9, 0.0, 2023-09-21 19:04:11.540
192.0, 21128.455833012562, 53943.2306818045, -76202.75183948896, -58219.946410649594, -46903.34759990545, -20152.84689102732, 187500.0, -48737.107066763296, -7673.733851162655, -34670.72959789391, -75536.89337216537, -31715.627815202217, -18245.08079827795, -63782.51329451958, -53985.16255440266, -144104.6692853772, 0.132, 1.008, 0.028, 192.0, 0.0, 0.0, 0.0, 0.0, 0.0, 0.0, 0.0, 0.0, 0.0, 1.695341051540343E9, 0.0, 2023-09-21 19:04:11.540
194.0, 21081.31600395632, 53884.40089039814, -76196.91803418614, -58216.52659374793, -46885.8685357414, -20143.369751378268, 187500.0, -48736.92825280765, -7663.407345224303, -34652.892905818575, -75523.05764234754, -31700.138056294687, -18250.62403090287, -63765.25774780009, -53983.374414846236, -144142.95782362914, 0.132, 1.008, 0.028, 192.0, 0.0, 0.0, 0.0, 0.0, 0.0, 0.0, 0.0, 0.0, 0.0, 1.695341051540346E9, 0.0, 2023-09-21 19:04:11.540
196.0, 21128.589943479295, 53938.559167213345, -76187.57500500382, -58203.56258196385, -46896.731483546675, -20141.93923973313, 187500.0, -48729.39571492621, -7661.172170778772, -34656.15626050905, -75526.41040401583, -31703.826094129814, -18238.487033663634, -63766.53179723404, -53980.44633632259, -144099.7071981081, 0.132, 1.008, 0.028, 192.0, 0.0, 0.0, 0.0, 0.0, 0.0, 0.0, 0.0, 0.0, 0.0, 1.695341051599738E9, 0.0, 2023-09-21 19:04:11.599
198.0, 21074.61048061973, 53873.537942592855, -76193.40881030665, -58212.05624485687, -46886.29321888605, -20143.79443452292, 187500.0, -48739.76692435348, -7642.419057180769, -34634.34095792067, -75508.5737119405, -31685.229442743, -18237.61531562988, -63748.47158771415, -53972.57852227432, -144143.8742451518, 0.134, 1.0, 0.03, 192.0, 2.0, 24.0, 15.5, 32.0, 0.0, 120.0, 0.0, 0.0, 0.0, 1.695341051599753E9, 0.0, 2023-09-21 19:04:11.599
200.0, 21153.936821691612, 53958.5863302453, -76194.19112136259, -58214.91726814715, -46893.870460256396, -20150.008219481497, 187500.0, -48737.21882548557, -7666.961272592697, -34662.01241755634, -75534.38997678638, -31709.682251177106, -18244.61141164439, -63774.60077698241, -53976.71359499855, -144089.22422995858, 0.134, 1.0, 0.03, 192.0, 0.0, 0.0, 0.0, 0.0, 0.0, 0.0, 0.0, 0.0, 0.0, 1.695341051599757E9, 0.0, 2023-09-21 19:04:11.599
202.0, 21083.9758615465, 53881.00342524093, -76186.34565905877, -58207.205916310064, -46891.076492199485, -20149.248260170014, 187500.0, -48734.648374873206, -7657.774705621566, -34646.14267899307, -75519.9731016127, -31699.46750396103, -18251.98748731464, -63763.58136696594, -53980.513391555956, -144109.09493077933, 0.134, 1.0, 0.03, 192.0, 0.0, 0.0, 0.0, 0.0, 0.0, 0.0, 0.0, 0.0, 0.0, 1.695341051599761E9, 0.0, 2023-09-21 19:04:11.599
204.0, 21159.770626994447, 53962.65434773616, -76194.34758357378, -58216.41483502565, -46889.78009102107, -20135.88191698574, 187500.0, -48731.6532411162, -7651.113885773884, -34643.3263591917, -75515.81567714401, -31696.80764637085, -18227.89230679182, -63760.09449483091, -53967.30351058287, -144085.4020816567, 0.134, 1.0, 0.03, 192.0, 0.0, 0.0, 0.0, 0.0, 0.0, 0.0, 0.0, 0.0, 0.0, 1.695341051599767E9, 0.0, 2023-09-21 19:04:11.599
206.0, 21071.525939884894, 53878.14240195065, -76191.15128411667, -58218.02416062643, -46891.16589917731, -20142.22981241105, 187500.0, -48728.12166549226, -7661.552150434512, -34646.34384469317, -75527.1256598384, -31706.508303464452, -18256.726057139167, -63766.86707340087, -53983.03913867941, -144085.1562124677, 0.134, 1.0, 0.03, 192.0, 0.0, 0.0, 0.0, 0.0, 0.0, 0.0, 0.0, 0.0, 0.0, 1.69534105159977E9, 0.0, 2023-09-21 19:04:11.599
208.0, 21152.014571668456, 53963.70487972556, -76203.0871156558, -58229.870585187746, -46894.22808816768, -20145.113187445782, 187500.0, -48746.29363373442, -7664.882560358354, -34659.66548438853, -75537.09453786547, -31713.99613785698, -18249.19351925773, -63778.19940783971, -53975.8418769648, -144066.11252619178, 0.134, 1.0, 0.03, 192.0, 2.0, 24.0, 15.5, 32.0, 0.0, 120.0, 0.0, 0.0, 0.0, 1.695341051599773E9, 0.0, 2023-09-21 19:04:11.599
210.0, 21062.719352569504, 53878.85765777322, -76194.45934229605, -58222.583916495314, -46897.290277158056, -20154.813844539385, 187500.0, -48739.90103482021, -7656.634766654345, -34646.0756237597, -75527.77386042761, -31708.408201743154, -18257.486016450646, -63768.208178068184, -53986.70482477007, -144067.58774132584, 0.134, 1.0, 0.03, 192.0, 0.0, 0.0, 0.0, 0.0, 0.0, 0.0, 0.0, 0.0, 0.0, 1.695341051659421E9, 0.0, 2023-09-21 19:04:11.659
212.0, 21147.834795455314, 53965.80594370436, -76198.482656298, -58230.854061943784, -46891.30000964404, -20148.60005958081, 187500.0, -48747.54533142392, -7662.42386846827, -34664.11348153514, -75536.98277914319, -31721.99806237198, -18244.79022560003, -63779.29464331802, -53973.986682175004, -144055.02606094195, 0.134, 1.0, 0.03, 192.0, 0.0, 0.0, 0.0, 0.0, 0.0, 0.0, 0.0, 0.0, 0.0, 1.695341051659454E9, 0.0, 2023-09-21 19:04:11.659
214.0, 21057.332582155774, 53878.38827113966, -76162.36223725823, -58193.52664870342, -46881.0182071946, -20144.33087638985, 187500.0, -48720.41031365518, -7653.058487541496, -34649.115461005626, -75523.03529060307, -31711.89507387818, -18251.741618125634, -63769.057544357485, -53974.34431008629, -144042.62084276925, 0.134, 1.0, 0.03, 192.0, 0.0, 0.0, 0.0, 0.0, 0.0, 0.0, 0.0, 0.0, 0.0, 1.695341051659458E9, 0.0, 2023-09-21 19:04:11.659
216.0, 21151.746350734993, 53970.00807166196, -76207.0433744244, -58234.542099778904, -46899.30193415903, -20143.816786267376, 187500.0, -48756.26251176149, -7651.6279758963565, -34653.38464419659, -75521.00128185765, -31708.922291865623, -18231.759158582587, -63771.04684961401, -53962.944920414084, -144051.80740974037, 0.134, 1.0, 0.03, 192.0, 0.0, 0.0, 0.0, 0.0, 0.0, 0.0, 0.0, 0.0, 0.0, 1.695341051659463E9, 0.0, 2023-09-21 19:04:11.659
218.0, 21069.737800328472, 53902.5728586403, -76186.25625208096, -58211.22923031202, -46907.080341229484, -20150.47760611506, 187500.0, -48734.6036713843, -7670.783420894554, -34659.82194659972, -75540.40259604485, -31724.724975195528, -18265.957327599208, -63781.86509393038, -54002.12752844424, -144001.29246727139, 0.128, 0.998, 0.03, 192.0, 2.0, 0.0, 15.5, 24.0, 0.0, 120.0, 0.0, 0.0, 0.0, 1.695341051659467E9, 0.0, 2023-09-21 19:04:11.659
220.0, 21132.680312714616, 53955.59119648829, -76194.66050799614, -58216.459538514566, -46888.64015205386, -20131.098643672307, 187500.0, -48739.543406908924, -7660.121638789373, -34650.09893776166, -75534.74760469767, -31716.432478002607, -18242.309181965495, -63771.516236247575, -53973.740812986, -144017.60924072377, 0.128, 0.998, 0.03, 192.0, 0.0, 0.0, 0.0, 0.0, 0.0, 0.0, 0.0, 0.0, 0.0, 1.695341051659471E9, 0.0, 2023-09-21 19:04:11.659
222.0, 21076.376268431697, 53908.11609126522, -76198.90733944265, -58218.337085048806, -46917.25038495665, -20146.61075432429, 187500.0, -48732.72612485005, -7668.972929593674, -34649.47308891691, -75544.47061353573, -31729.70941420906, -18259.318859495983, -63775.24897757161, -53988.31415037086, -143984.05927229635, 0.128, 0.998, 0.03, 192.0, 0.0, 0.0, 0.0, 0.0, 0.0, 0.0, 0.0, 0.0, 0.0, 1.695341051659475E9, 0.0, 2023-09-21 19:04:11.659
224.0, 21134.244934826485, 53954.60771973225, -76199.44378130959, -58226.0931403748, -46891.99291372215, -20130.763367505475, 187500.0, -48734.000174284, -7656.366545720881, -34648.02022552732, -75535.23934307568, -31723.808553672858, -18256.70370539471, -63773.63965197083, -53976.78065023192, -144001.9853713495, 0.128, 0.998, 0.03, 192.0, 0.0, 0.0, 0.0, 0.0, 0.0, 0.0, 0.0, 0.0, 0.0, 1.69534105165948E9, 0.0, 2023-09-21 19:04:11.659
226.0, 21093.475352940008, 53927.60681243025, -76193.78878996239, -58228.59653575379, -46904.95692550623, -20155.439693384134, 187500.0, -48729.97686028205, -7659.339327733437, -34655.686873875486, -75538.9273809108, -31732.32456831033, -18257.03898156154, -63785.79900095451, -53983.35206310178, -143948.94468175707, 0.128, 0.998, 0.03, 192.0, 0.0, 0.0, 0.0, 0.0, 0.0, 0.0, 0.0, 0.0, 0.0, 1.695341051719613E9, 0.0, 2023-09-21 19:04:11.719
228.0, 21124.76779517744, 53943.00716435995, -76194.57110101833, -58236.71021899107, -46878.38070134887, -20141.581611821846, 187500.0, -48740.660994131686, -7644.900100815309, -34646.36619643762, -75527.46093600523, -31726.110783351756, -18239.984600542142, -63778.40057353981, -53968.73402222801, -143982.80757460685, 0.128, 1.004, 0.026000000000000002, 192.0, 2.0, 0.0, 15.5, 48.0, 0.0, 104.0, 0.0, 0.0, 0.0, 1.695341051719625E9, 0.0, 2023-09-21 19:04:11.719
230.0, 21095.30819598534, 53925.88572810718, -76189.07257188232, -58226.60723049727, -46902.69939931624, -20155.931431762154, 187500.0, -48736.9059010632, -7658.8475893554205, -34658.72671112141, -75544.56002051354, -31743.388681815708, -18247.003048301107, -63792.10219289091, -53984.87198172474, -143929.65512629214, 0.128, 1.004, 0.026000000000000002, 192.0, 0.0, 0.0, 0.0, 0.0, 0.0, 0.0, 0.0, 0.0, 0.0, 1.695341051719629E9, 0.0, 2023-09-21 19:04:11.719
232.0, 21118.866934641235, 53934.781722400396, -76222.60018856528, -58255.1504081667, -46903.61582083891, -20148.98003923655, 187500.0, -48767.2595700335, -7647.93993806123, -34643.661635358534, -75534.83701167548, -31735.38675730071, -18239.403455186304, -63774.444314771215, -53977.227685121026, -143973.486897169, 0.128, 1.004, 0.026000000000000002, 192.0, 0.0, 0.0, 0.0, 0.0, 0.0, 0.0, 0.0, 0.0, 0.0, 1.695341051719632E9, 0.0, 2023-09-21 19:04:11.719
234.0, 21116.162373562143, 53954.563016243344, -76229.21630492405, -58254.748076766504, -46938.61865265592, -20172.136446492248, 187500.0, -48763.169200798184, -7690.967046137696, -34683.26892653333, -75581.19452967579, -31779.33028689984, -18274.13806606985, -63810.56473381099, -54022.22174670956, -143883.87875364767, 0.128, 1.004, 0.026000000000000002, 192.0, 0.0, 0.0, 0.0, 0.0, 0.0, 0.0, 0.0, 0.0, 0.0, 1.695341051719635E9, 0.0, 2023-09-21 19:04:11.719
236.0, 21084.802876091348, 53912.76525411192, -76199.39907782068, -58225.75786420797, -46891.65763755532, -20136.530117574945, 187500.0, -48737.5541016524, -7664.882560358354, -34654.16695525253, -75553.92540144031, -31755.235106377022, -18264.14683629833, -63783.78734395353, -54006.75433954649, -143927.28584137987, 0.128, 1.004, 0.026000000000000002, 192.0, 0.0, 0.0, 0.0, 0.0, 0.0, 0.0, 0.0, 0.0, 0.0, 1.695341051719639E9, 0.0, 2023-09-21 19:04:11.719
238.0, 21113.65897818315, 53950.96438538604, -76211.62548203772, -58236.41964631315, -46920.33492569148, -20151.774007293465, 187500.0, -48750.31694773638, -7660.948653334219, -34659.91135357754, -75553.56777352904, -31756.15152789969, -18250.60167915841, -63784.2567305871, -53991.890429483705, -143883.0070356139, 0.132, 1.006, 0.022, 192.0, 2.0, 16.0, 15.5, 56.0, 0.0, 88.0, 0.0, 0.0, 0.0, 1.695341051719642E9, 0.0, 2023-09-21 19:04:11.719
240.0, 21083.88645456868, 53910.64183838866, -76214.59826405028, -58241.895823704705, -46908.33203891898, -20147.7059898026, 187500.0, -48757.13422979525, -7669.732888905155, -34666.169842025025, -75557.41227357535, -31763.57230705885, -18269.175978800773, -63792.88450394684, -53997.18779291961, -143901.84955618973, 0.132, 1.006, 0.022, 192.0, 0.0, 0.0, 0.0, 0.0, 0.0, 0.0, 0.0, 0.0, 0.0, 1.695341051779983E9, 0.0, 2023-09-21 19:04:11.779
242.0, 21112.831963638302, 53962.25201633597, -76218.86744724124, -58249.361306352774, -46931.86842583042, -20171.287080202947, 187500.0, -48756.955415839606, -7690.274142059582, -34694.51185399436, -75580.12164594194, -31787.913356770678, -18274.13806606985, -63819.594838570934, -54011.179984948634, -143833.2073489675, 0.132, 1.006, 0.022, 192.0, 0.0, 0.0, 0.0, 0.0, 0.0, 0.0, 0.0, 0.0, 0.0, 1.695341051780008E9, 0.0, 2023-09-21 19:04:11.780
244.0, 21048.369532629196, 53887.664245088614, -76200.11433364324, -58234.340934078806, -46896.28444865757, -20147.5048241025, 187500.0, -48738.135247008235, -7661.775667879066, -34662.593562912174, -75552.04785490606, -31761.09126342431, -18259.721190896176, -63790.51521903458, -54001.25581041048, -143879.74368092342, 0.132, 1.006, 0.022, 192.0, 0.0, 0.0, 0.0, 0.0, 0.0, 0.0, 0.0, 0.0, 0.0, 1.695341051780012E9, 0.0, 2023-09-21 19:04:11.780
246.0, 21114.910675872645, 53968.82342920583, -76229.73039504653, -58263.10762919279, -46929.946175807265, -20167.04024875644, 187500.0, -48762.31983450888, -7682.898066389331, -34688.610993458155, -75575.56189007305, -31780.134949700234, -18261.95636534171, -63814.25277164612, -54000.495851099, -143824.9595552635, 0.132, 1.006, 0.022, 192.0, 0.0, 0.0, 0.0, 0.0, 0.0, 0.0, 0.0, 0.0, 0.0, 1.695341051780015E9, 0.0, 2023-09-21 19:04:11.780
248.0, 21037.037198190355, 53894.861506803216, -76207.84803722477, -58238.72187599205, -46903.25819292763, -20152.46691137158, 187500.0, -48743.63377614424, -7680.305264032515, -34671.22133627193, -75568.52109056963, -31773.541185085916, -18276.261481793106, -63799.76884123908, -54008.38601689172, -143831.46391289998, 0.136, 1.006, 0.026000000000000002, 192.0, 2.0, 32.0, 15.5, 56.0, 0.0, 104.0, 0.0, 0.0, 0.0, 1.695341051780018E9, 0.0, 2023-09-21 19:04:11.780
250.0, 21103.712451900537, 53980.44633632259, -76231.51853460295, -58257.2514721455, -46928.78388509559, -20158.70304807461, 187500.0, -48764.46560197659, -7682.763955922599, -34678.17272879752, -75575.29366913959, -31777.631554321237, -18266.09143806594, -63803.747451752126, -54002.26163891097, -143782.91592394304, 0.136, 1.006, 0.026000000000000002, 192.0, 0.0, 0.0, 0.0, 0.0, 0.0, 0.0, 0.0, 0.0, 0.0, 1.695341051780021E9, 0.0, 2023-09-21 19:04:11.780
252.0, 21020.96629392699, 53900.09181500576, -76226.24352291149, -58253.02699244345, -46930.840245585474, -20162.18992020964, 187500.0, -48760.84461937483, -7691.324674048981, -34676.786920641294, -75582.2897651541, -31783.24184217952, -18292.734717456668, -63807.2119721427, -54029.26254621298, -143782.22301986493, 0.136, 1.006, 0.026000000000000002, 192.0, 0.0, 0.0, 0.0, 0.0, 0.0, 0.0, 0.0, 0.0, 0.0, 1.695341051780025E9, 0.0, 2023-09-21 19:04:11.780
254.0, 21094.9282163296, 53984.22378113554, -76223.67307229913, -58248.735457508024, -46921.81014082553, -20148.309486902894, 187500.0, -48770.32175902388, -7681.646368699833, -34670.05904556025, -75577.17121567384, -31776.201042676097, -18271.209987546205, -63798.070108660475, -54006.30730465738, -143748.6730514375, 0.136, 1.006, 0.026000000000000002, 192.0, 0.0, 0.0, 0.0, 0.0, 0.0, 0.0, 0.0, 0.0, 0.0, 1.695341051780028E9, 0.0, 2023-09-21 19:04:11.780
0.0, 21004.31424430779, 53898.12486149369, -76199.46613305404, -58227.769521208946, -46912.71298083222, -20150.27644041496, 187500.0, -48753.110915793295, -7686.496697246635, -34664.15818502405, -75574.4890063392, -31772.937687985625, -18286.43152552027, -63794.20325686971, -54008.85540352528, -143738.927690855, 0.136, 1.006, 0.026000000000000002, 192.0, 0.0, 0.0, 0.0, 0.0, 0.0, 0.0, 0.0, 0.0, 0.0, 1.695341051840317E9, 0.0, 2023-09-21 19:04:11.840
2.0, 21088.423858693106, 53982.525048556934, -76205.81402847935, -58236.017314912955, -46909.606088352935, -20138.675885042656, 187500.0, -48754.11674429378, -7672.884484873353, -34663.86761234613, -75563.82722423402, -31761.158318657675, -18260.883481607852, -63787.83300969995, -53984.93903695811, -143719.66048713453, 0.134, 1.012, 0.028, 192.0, 2.0, 24.0, 15.5, 80.0, 0.0, 112.0, 0.0, 0.0, 0.0, 1.695341051840329E9, 0.0, 2023-09-21 19:04:11.840
4.0, 20998.815715171782, 53899.37655918319, -76193.6323277512, -58224.81909094085, -46913.517643632615, -20146.901327002208, 187500.0, -48736.59297664082, -7680.349967521426, -34663.35352222365, -75566.68824752429, -31763.482900081028, -18276.28383353756, -63790.49286729013, -53999.244153409505, -143698.20281245743, 0.134, 1.012, 0.028, 192.0, 0.0, 0.0, 0.0, 0.0, 0.0, 0.0, 0.0, 0.0, 0.0, 1.695341051840333E9, 0.0, 2023-09-21 19:04:11.840
6.0, 21075.437495164573, 53970.3880513177, -76197.40977256415, -58230.921117177146, -46901.4700533712, -20134.719626274065, 187500.0, -48748.484104691044, -7663.630862668856, -34657.81028959874, -75558.10517765346, -31754.05046392089, -18254.222661760174, -63788.14593412232, -53980.60279853378, -143688.3233414082, 0.134, 1.012, 0.028, 192.0, 0.0, 0.0, 0.0, 0.0, 0.0, 0.0, 0.0, 0.0, 0.0, 1.695341051840336E9, 0.0, 2023-09-21 19:04:11.840
8.0, 20997.407555271096, 53895.509707392426, -76194.2358248515, -58229.580012509825, -46910.3213441755, -20148.711818303087, 187500.0, -48738.492874919524, -7666.603644681412, -34657.47501343191, -75560.56386954355, -31756.173879644142, -18264.348001998427, -63787.76595446658, -53992.382167861724, -143668.5643993097, 0.134, 1.012, 0.028, 192.0, 0.0, 0.0, 0.0, 0.0, 0.0, 0.0, 0.0, 0.0, 0.0, 1.695341051840339E9, 0.0, 2023-09-21 19:04:11.840
10.0, 21070.922442784602, 53967.996414660985, -76207.66922326914, -58244.980364439536, -46903.41465513881, -20138.94410597612, 187500.0, -48750.18283726965, -7675.521990719079, -34673.59062118419, -75571.51622432664, -31771.261307151475, -18257.888347850843, -63799.23239937215, -53985.09549916929, -143657.94732069343, 0.134, 1.012, 0.028, 192.0, 0.0, 0.0, 0.0, 0.0, 0.0, 0.0, 0.0, 0.0, 0.0, 1.695341051840342E9, 0.0, 2023-09-21 19:04:11.840
12.0, 20995.73117443695, 53907.08791102027, -76196.69451674158, -58234.832672456825, -46924.4252949268, -20149.538832847935, 187500.0, -48741.73387786554, -7677.176019808772, -34671.35544673866, -75573.77375051663, -31771.77539727395, -18270.561786957, -63800.57350403947, -53997.67953129763, -143613.46734922737, 0.126, 1.008, 0.026000000000000002, 192.0, 1.5, 120.0, 15.5, 64.0, 0.0, 104.0, 0.0, 0.0, 0.0, 1.695341051840346E9, 0.0, 2023-09-21 19:04:11.840
14.0, 21053.108102453723, 53952.64076622019, -76198.0803248978, -58242.2981551049, -46899.30193415903, -20129.01993143796, 187500.0, -48755.81547687238, -7653.282004986049, -34657.31855122072, -75552.91957293983, -31757.85026047829, -18247.986525057142, -63785.59783525442, -53979.373452588734, -143634.90267216, 0.126, 1.008, 0.026000000000000002, 192.0, 0.0, 0.0, 0.0, 0.0, 0.0, 0.0, 0.0, 0.0, 0.0, 1.695341051899587E9, 0.0, 2023-09-21 19:04:11.899
16.0, 21005.96827339748, 53906.19384124206, -76182.12117935672, -58224.26029732946, -46914.99285876666, -20140.03934145443, 187500.0, -48728.05461025889, -7662.580330679457, -34668.51677519283, -75566.71059926876, -31770.56840307336, -18265.04090607654, -63797.801887727015, -53998.43949060911, -143582.28666571222, 0.126, 1.008, 0.026000000000000002, 192.0, 0.0, 0.0, 0.0, 0.0, 0.0, 0.0, 0.0, 0.0, 0.0, 1.6953410518996E9, 0.0, 2023-09-21 19:04:11.899
18.0, 21064.26162293692, 53939.56499571383, -76194.63815625169, -58236.48670154652, -46900.307762659526, -20114.424242308647, 187500.0, -48742.18091275465, -7634.975926277152, -34649.47308891691, -75544.29179958008, -31745.08741439431, -18244.767873855577, -63775.45014327171, -53979.038176421906, -143612.52857596023, 0.126, 1.008, 0.026000000000000002, 192.0, 0.0, 0.0, 0.0, 0.0, 0.0, 0.0, 0.0, 0.0, 0.0, 1.695341051899603E9, 0.0, 2023-09-21 19:04:11.899
20.0, 21035.45022433403, 53916.09566403576, -76186.92680441462, -58232.597498011295, -46917.004515767636, -20141.22398391056, 187500.0, -48746.98653781254, -7657.193560265728, -34669.41084497105, -75561.52499455512, -31766.25451639349, -18261.978717086164, -63794.20325686971, -53998.93122898713, -143548.40142111797, 0.126, 1.008, 0.026000000000000002, 192.0, 0.0, 0.0, 0.0, 0.0, 0.0, 0.0, 0.0, 0.0, 0.0, 1.695341051899606E9, 0.0, 2023-09-21 19:04:11.899
22.0, 21069.64839335065, 53927.96444034153, -76182.16588284563, -58235.41381781267, -46885.80148050803, -20127.857640726288, 187500.0, -48735.22952022905, -7645.257728726594, -34661.25245824486, -75545.34233156948, -31750.85416446378, -18247.159510512294, -63788.39180331133, -53978.479382810525, -143577.90572379896, 0.128, 1.004, 0.026000000000000002, 192.0, 2.0, 0.0, 15.5, 48.0, 0.0, 104.0, 0.0, 0.0, 0.0, 1.695341051899609E9, 0.0, 2023-09-21 19:04:11.899
24.0, 21060.97591650199, 53929.5290624534, -76192.73825797299, -58247.975498196545, -46918.90441404634, -20157.294888173925, 187500.0, -48740.92921506515, -7655.5618829204905, -34671.064874060736, -75553.8359944625, -31758.81138548987, -18254.222661760174, -63798.02540517157, -53985.117850913746, -143519.03122890368, 0.128, 1.004, 0.026000000000000002, 192.0, 0.0, 0.0, 0.0, 0.0, 0.0, 0.0, 0.0, 0.0, 0.0, 1.695341051899613E9, 0.0, 2023-09-21 19:04:11.899
26.0, 21067.9720125165, 53922.421207716616, -76202.81889472234, -58260.62658555825, -46906.34273366246, -20157.89838527422, 187500.0, -48760.934026352654, -7662.446220212725, -34680.74317940989, -75558.86513696495, -31769.09318793931, -18266.42671423277, -63806.049681431025, -53999.35591213178, -143534.56569130011, 0.128, 1.004, 0.026000000000000002, 192.0, 0.0, 0.0, 0.0, 0.0, 0.0, 0.0, 0.0, 0.0, 0.0, 1.695341051899616E9, 0.0, 2023-09-21 19:04:11.899
28.0, 21079.997251033456, 53940.034382347396, -76197.2309586085, -58245.29328886191, -46926.05697227204, -20160.245318442026, 187500.0, -48742.471485432565, -7661.507446945602, -34679.20090904247, -75552.07020665052, -31767.95324897209, -18262.001068830617, -63807.0108064426, -53999.57942957633, -143473.79129812613, 0.128, 1.004, 0.026000000000000002, 192.0, 0.0, 0.0, 0.0, 0.0, 0.0, 0.0, 0.0, 0.0, 0.0, 1.695341051899619E9, 0.0, 2023-09-21 19:04:11.899
30.0, 21068.620213105707, 53904.495108663454, -76189.16197886014, -58227.61305899776, -46896.75383529113, -20125.30954185838, 187500.0, -48735.09540976232, -7643.51429265908, -34648.75783309434, -75525.49398249316, -31738.784222457914, -18254.13325478235, -63772.94674789271, -53993.20918240657, -143511.96807765582, 0.128, 1.004, 0.026000000000000002, 192.0, 0.0, 0.0, 0.0, 0.0, 0.0, 0.0, 0.0, 0.0, 0.0, 1.695341051959445E9, 0.0, 2023-09-21 19:04:11.959
32.0, 21113.21194329404, 53948.77391442942, -76201.50014179948, -58230.47408228804, -46920.73725709168, -20140.12874843225, 187500.0, -48740.16925575367, -7650.510388673591, -34655.84333608668, -75527.0809563495, -31739.253609091476, -18246.84658608992, -63774.511370004584, -53991.488098083515, -143449.53965539215, 0.13, 1.008, 0.022, 192.0, 2.0, 8.0, 15.5, 64.0, 0.0, 88.0, 0.0, 0.0, 0.0, 1.695341051959457E9, 0.0, 2023-09-21 19:04:11.959
34.0, 21087.775658103903, 53899.44361441656, -76193.40881030665, -58219.27585831593, -46899.23487892567, -20133.17735590665, 187500.0, -48733.73195335054, -7649.057525283996, -34650.009530783835, -75516.8215056445, -31728.27890256392, -18255.072028049475, -63765.61537571137, -54001.14405168821, -143468.29276899016, 0.13, 1.008, 0.022, 192.0, 0.0, 0.0, 0.0, 0.0, 0.0, 0.0, 0.0, 0.0, 0.0, 1.695341051959461E9, 0.0, 2023-09-21 19:04:11.959
36.0, 21148.684161744615, 53960.19565584608, -76197.8344557088, -58221.42162578364, -46918.90441404634, -20148.085969458338, 187500.0, -48739.342241208826, -7644.967156048675, -34658.123214021114, -75510.2724445191, -31728.524771752927, -18235.46954816217, -63770.532759491536, -53994.66204579616, -143413.26277414119, 0.13, 1.008, 0.022, 192.0, 0.0, 0.0, 0.0, 0.0, 0.0, 0.0, 0.0, 0.0, 0.0, 1.695341051959464E9, 0.0, 2023-09-21 19:04:11.959
38.0, 21115.424765995118, 53910.172451755105, -76220.63323505322, -58248.042553429914, -46919.70907684673, -20165.296812688925, 187500.0, -48768.53361946745, -7647.582310149945, -34668.963810081936, -75506.94203459527, -31729.999986886978, -18248.70178087971, -63779.562864251486, -54003.93801974512, -143426.6514690699, 0.13, 1.008, 0.022, 192.0, 0.0, 0.0, 0.0, 0.0, 0.0, 0.0, 0.0, 0.0, 0.0, 1.695341051959467E9, 0.0, 2023-09-21 19:04:11.959
40.0, 21182.3011854054, 53991.0410631944, -76224.07540369933, -58243.61690802776, -46938.886873589385, -20181.591234396845, 187500.0, -48770.925256124174, -7676.1031360749175, -34705.35245005518, -75533.38414828588, -31754.0951674098, -18266.09143806594, -63814.54334432404, -54018.08667398533, -143342.8771308514, 0.13, 1.008, 0.022, 192.0, 0.0, 0.0, 0.0, 0.0, 0.0, 0.0, 0.0, 0.0, 0.0, 1.69534105195947E9, 0.0, 2023-09-21 19:04:11.959
42.0, 21109.0321670809, 53909.90423082164, -76201.72365924403, -58218.9405821491, -46913.85291979944, -20159.41830389718, 187500.0, -48740.862159831784, -7660.9039498453085, -34673.434158973, -75508.7748776406, -31721.394565271687, -18269.019516589586, -63780.97102415217, -54010.21885993706, -143353.71772691223, 0.128, 1.014, 0.022, 192.0, 2.0, 0.0, 15.5, 88.0, 0.0, 88.0, 0.0, 0.0, 0.0, 1.695341051959473E9, 0.0, 2023-09-21 19:04:11.959
44.0, 21189.29728141991, 53999.512374342965, -76237.35233990579, -58255.3515738668, -46942.35139397996, -20177.8137895839, 187500.0, -48791.08652962286, -7671.051641828018, -34688.320420780234, -75519.90604637934, -31732.32456831033, -18258.7600658846, -63790.314053334485, -54002.30634239988, -143306.93552576727, 0.128, 1.014, 0.022, 192.0, 0.0, 0.0, 0.0, 0.0, 0.0, 0.0, 0.0, 0.0, 0.0, 1.695341052019659E9, 0.0, 2023-09-21 19:04:12.019
46.0, 21092.89420758417, 53911.80412910034, -76214.53120881692, -58232.91042243367, -46921.966603036715, -20171.309431947404, 187500.0, -48751.926273337165, -7682.831011155965, -34694.4895022499, -75531.26073256263, -31744.014530660457, -18288.465534265702, -63793.26448360259, -54027.07207525636, -143293.09979594944, 0.128, 1.014, 0.022, 192.0, 0.0, 0.0, 0.0, 0.0, 0.0, 0.0, 0.0, 0.0, 0.0, 1.695341052019673E9, 0.0, 2023-09-21 19:04:12.019
48.0, 21153.735655991513, 53977.428850821125, -76191.71007772804, -58206.445956998585, -46894.45160561224, -20129.22109713806, 187500.0, -48721.013810755474, -7659.741659133632, -34675.44581597398, -75511.3676799974, -31725.194361829086, -18249.841719846932, -63766.50944548958, -53984.71551951356, -143268.80344972652, 0.128, 1.014, 0.022, 192.0, 0.0, 0.0, 0.0, 0.0, 0.0, 0.0, 0.0, 0.0, 0.0, 1.695341052019677E9, 0.0, 2023-09-21 19:04:12.019
50.0, 21068.955489272535, 53890.65937884562, -76192.87236843973, -58207.3400267768, -46902.02884698258, -20131.433919839135, 187500.0, -48724.16540672367, -7642.262594969582, -34646.254437715346, -75489.5747291535, -31701.680326662106, -18245.32666746696, -63741.76606437756, -53975.77482173143, -143276.1124701634, 0.128, 1.014, 0.022, 192.0, 0.0, 0.0, 0.0, 0.0, 0.0, 0.0, 0.0, 0.0, 0.0, 1.69534105201968E9, 0.0, 2023-09-21 19:04:12.019
52.0, 21156.730789748526, 53973.383185074716, -76207.51276105795, -58226.18254735262, -46901.067721971005, -20135.256068140992, 187500.0, -48739.69986912011, -7652.723211374666, -34661.2301065004, -75506.83027587298, -31712.967957612036, -18240.409283686793, -63758.84279714141, -53982.36858634574, -143248.28454831656, 0.122, 1.008, 0.036000000000000004, 192.0, 1.5, 104.0, 15.5, 64.0, 0.5, 16.0, 0.0, 0.0, 0.0, 1.695341052019683E9, 0.0, 2023-09-21 19:04:12.019
54.0, 21076.68919285407, 53892.15694572413, -76212.92188321613, -58229.84823344329, -46915.28343144458, -20147.348361891316, 187500.0, -48746.31598547888, -7656.858284098898, -34661.49832743387, -75512.39586024235, -31716.99127161399, -18254.021496060075, -63762.24026229862, -53995.243191152, -143224.68110617175, 0.122, 1.008, 0.036000000000000004, 192.0, 0.0, 0.0, 0.0, 0.0, 0.0, 0.0, 0.0, 0.0, 0.0, 1.695341052019686E9, 0.0, 2023-09-21 19:04:12.019
56.0, 21167.347868364795, 53973.785516474905, -76240.32512191834, -58257.87732099025, -46924.60410888244, -20151.483434615548, 187500.0, -48773.62981720326, -7671.029290083563, -34682.41956024403, -75532.19950582976, -31737.018434645946, -18255.98844957214, -63781.798038697016, -54004.899144756695, -143203.33519021692, 0.122, 1.008, 0.036000000000000004, 192.0, 0.0, 0.0, 0.0, 0.0, 0.0, 0.0, 0.0, 0.0, 0.0, 1.69534105201969E9, 0.0, 2023-09-21 19:04:12.019
58.0, 21092.08954478378, 53897.36490218221, -76225.01417696646, -58244.53332955043, -46935.467056687725, -20163.97805976606, 187500.0, -48761.11284030829, -7673.398574995826, -34681.99487709938, -75538.56975299952, -31740.32649282533, -18273.646327691833, -63783.56382650898, -54027.78733107893, -143157.15648617226, 0.122, 1.008, 0.036000000000000004, 192.0, 0.0, 0.0, 0.0, 0.0, 0.0, 0.0, 0.0, 0.0, 0.0, 1.695341052019693E9, 0.0, 2023-09-21 19:04:12.019
60.0, 21162.296374117897, 53950.11501909674, -76220.00738620847, -58243.996887683505, -46918.18915822377, -20149.114149703284, 187500.0, -48762.27513101997, -7661.686260901244, -34678.66446717554, -75529.98668312868, -31732.65984447716, -18256.74840888362, -63781.32865206345, -54010.04004598142, -143151.56855005844, 0.122, 1.008, 0.036000000000000004, 192.0, 0.0, 0.0, 0.0, 0.0, 0.0, 0.0, 0.0, 0.0, 0.0, 1.695341052080057E9, 0.0, 2023-09-21 19:04:12.080
62.0, 21109.233332780997, 53888.04422474435, -76207.66922326914, -58235.19030036811, -46924.73821934917, -20159.28419343045, 187500.0, -48751.03220355895, -7648.521083417068, -34662.54885942327, -75514.13929630986, -31717.483009992007, -18251.629859403358, -63771.583291480936, -54008.58718259182, -143116.7668839415, 0.126, 1.0, 0.032, 192.0, 1.5, 120.0, 15.5, 32.0, 0.5, 0.0, 0.0, 0.0, 0.0, 1.695341052080084E9, 0.0, 2023-09-21 19:04:12.080
64.0, 21182.502351105493, 53934.46879797802, -76211.8937029712, -58244.08629466132, -46909.56138486402, -20147.281306657947, 187500.0, -48761.135192052745, -7648.185807250239, -34671.400150227564, -75516.59798819995, -31718.75705942596, -18246.600716900914, -63777.35004155041, -53999.57942957633, -143123.11477936682, 0.126, 1.0, 0.032, 192.0, 0.0, 0.0, 0.0, 0.0, 0.0, 0.0, 0.0, 0.0, 0.0, 1.695341052080087E9, 0.0, 2023-09-21 19:04:12.080
66.0, 21139.94462966259, 53887.932466022074, -76191.30774632785, -58223.500338017984, -46914.56817562201, -20154.255050928004, 187500.0, -48741.845636587816, -7638.7757228345545, -34656.11155702014, -75502.78461012657, -31705.725992408516, -18242.93503081024, -63762.910814632276, -53996.2937231414, -143073.6280171428, 0.126, 1.0, 0.032, 192.0, 0.0, 0.0, 0.0, 0.0, 0.0, 0.0, 0.0, 0.0, 0.0, 1.695341052080091E9, 0.0, 2023-09-21 19:04:12.080
68.0, 21191.57715935435, 53919.69429489307, -76209.92674945912, -58245.13682665072, -46903.19113769426, -20150.388199137236, 187500.0, -48759.23529377405, -7637.076990255951, -34655.61981864212, -75501.19763627024, -31704.74251565248, -18237.99529528562, -63767.47057050116, -53990.03523469392, -143094.30338076394, 0.126, 1.0, 0.032, 192.0, 0.0, 0.0, 0.0, 0.0, 0.0, 0.0, 0.0, 0.0, 0.0, 1.695341052080094E9, 0.0, 2023-09-21 19:04:12.080
70.0, 21169.38187711023, 53907.46789067601, -76215.15705766167, -58247.46140807407, -46928.962699051226, -20172.85170231482, 187500.0, -48763.41506998719, -7660.836894611943, -34678.73152240891, -75524.71167143722, -31731.27403632093, -18257.441312961735, -63793.19742836922, -54006.7990430354, -143015.40172283672, 0.126, 1.0, 0.032, 192.0, 0.0, 0.0, 0.0, 0.0, 0.0, 0.0, 0.0, 0.0, 0.0, 1.695341052080097E9, 0.0, 2023-09-21 19:04:12.080
72.0, 21181.742391794014, 53909.85952733273, -76220.07444144183, -58247.416704585165, -46914.88110004438, -20148.778873536456, 187500.0, -48766.544314210936, -7654.757220120099, -34675.334057251705, -75521.2247993022, -31728.36830954174, -18252.70274313721, -63786.93893992173, -54007.11196745777, -143032.76902827848, 0.13, 0.994, 0.03, 192.0, 2.0, 8.0, 15.5, 8.0, 0.0, 120.0, 0.0, 0.0, 0.0, 1.6953410520801E9, 0.0, 2023-09-21 19:04:12.080
74.0, 21173.651060301192, 53913.63697214568, -76217.36988036273, -58237.91721319166, -46939.15509452285, -20156.490225373534, 187500.0, -48751.300424492416, -7652.499693930113, -34680.787882898796, -75523.63878770337, -31735.096184622787, -18260.212929274196, -63791.31988183498, -54015.538575117425, -142971.61465544876, 0.13, 0.994, 0.03, 192.0, 0.0, 0.0, 0.0, 0.0, 0.0, 0.0, 0.0, 0.0, 0.0, 1.695341052140321E9, 0.0, 2023-09-21 19:04:12.140
76.0, 21175.260385901976, 53908.853698832245, -76235.83242128283, -58257.65380354569, -46929.946175807265, -20165.319164433382, 187500.0, -48777.02728236047, -7668.369432493381, -34699.40688603007, -75537.0274826321, -31744.394510316197, -18276.753220171122, -63808.93305646576, -54020.478310642044, -142982.27643755396, 0.13, 0.994, 0.03, 192.0, 0.0, 0.0, 0.0, 0.0, 0.0, 0.0, 0.0, 0.0, 0.0, 1.695341052140337E9, 0.0, 2023-09-21 19:04:12.140
78.0, 21178.926071992646, 53938.15683581315, -76231.89851425869, -58248.78016099694, -46951.06857431753, -20174.550434893423, 187500.0, -48773.65216894772, -7683.23334255616, -34711.879159436125, -75550.61734326094, -31755.436272077117, -18282.452915007223, -63821.494736849636, -54027.74262759002, -142902.81598601534, 0.13, 0.994, 0.03, 192.0, 0.0, 0.0, 0.0, 0.0, 0.0, 0.0, 0.0, 0.0, 0.0, 1.695341052140341E9, 0.0, 2023-09-21 19:04:12.140
80.0, 21131.607428980762, 53887.91011427762, -76198.99674642048, -58220.773425194435, -46906.11921621791, -20141.916887988675, 187500.0, -48740.75040110951, -7664.971967336174, -34685.124121323126, -75533.67472096381, -31732.52573401043, -18280.28479579506, -63796.86311445989, -54022.62407810975, -142933.46022766354, 0.13, 0.994, 0.03, 192.0, 0.0, 0.0, 0.0, 0.0, 0.0, 0.0, 0.0, 0.0, 0.0, 1.695341052140344E9, 0.0, 2023-09-21 19:04:12.140
82.0, 21169.448932343596, 53946.15876032815, -76228.32223514584, -58254.971594211056, -46940.920882334816, -20163.486321388045, 187500.0, -48766.83488688885, -7659.89812134482, -34679.20090904247, -75533.13827909688, -31730.156449098165, -18257.41896121728, -63791.61045451289, -54002.90983950017, -142882.94528519455, 0.136, 1.008, 0.028, 192.0, 2.0, 32.0, 15.5, 64.0, 0.0, 112.0, 0.0, 0.0, 0.0, 1.695341052140348E9, 0.0, 2023-09-21 19:04:12.140
84.0, 21114.150716561166, 53885.67493983209, -76209.97145294804, -58243.59455628331, -46914.09878898845, -20153.919774761176, 187500.0, -48752.55212218191, -7670.068165071984, -34679.91616486504, -75540.04496813357, -31744.126289382733, -18282.542321985045, -63798.58419878295, -54024.92630778865, -142887.46033757454, 0.136, 1.008, 0.028, 192.0, 0.0, 0.0, 0.0, 0.0, 0.0, 0.0, 0.0, 0.0, 0.0, 1.695341052140351E9, 0.0, 2023-09-21 19:04:12.140
86.0, 21166.565557308862, 53949.64563246318, -76212.1395721602, -58246.18735864012, -46926.861635072426, -20160.13355971975, 187500.0, -48752.350956481816, -7661.887426601342, -34681.2349177879, -75533.45120351926, -31747.18847837311, -18265.018554332084, -63800.461745317196, -54014.24217393901, -142832.43034272557, 0.136, 1.008, 0.028, 192.0, 0.0, 0.0, 0.0, 0.0, 0.0, 0.0, 0.0, 0.0, 0.0, 1.695341052140354E9, 0.0, 2023-09-21 19:04:12.140
88.0, 21109.32273975882, 53886.47960263248, -76222.26491239846, -58253.94341396611, -46925.81110308303, -20162.726362076566, 187500.0, -48761.44811647512, -7666.670699914778, -34678.21743228644, -75532.44537501877, -31747.859030706768, -18279.94951962823, -63799.56767553898, -54019.76305481947, -142843.13682831966, 0.136, 1.008, 0.028, 192.0, 0.0, 0.0, 0.0, 0.0, 0.0, 0.0, 0.0, 0.0, 0.0, 1.695341052140358E9, 0.0, 2023-09-21 19:04:12.140
90.0, 21168.420752098653, 53955.8370656773, -76221.90728448717, -58249.47306507505, -46931.980184552696, -20158.010143996496, 187500.0, -48752.77563962647, -7677.265426786594, -34692.43314176001, -75543.5765437575, -31756.442100577606, -18270.33826951245, -63811.145879166834, -54022.28880194292, -142784.7987752913, 0.136, 1.008, 0.028, 192.0, 0.0, 0.0, 0.0, 0.0, 0.0, 0.0, 0.0, 0.0, 0.0, 1.695341052200574E9, 0.0, 2023-09-21 19:04:12.200
92.0, 21083.66293712413, 53862.18325640956, -76207.24454012449, -58233.17864336713, -46916.512777389624, -20141.581611821846, 187500.0, -48737.799970841406, -7660.233397511649, -34674.52939445131, -75524.28698829257, -31741.980521915022, -18270.13710381235, -63789.35292832291, -54019.02544725245, -142803.0601505113, 0.132, 1.012, 0.022, 192.0, 2.0, 16.0, 15.5, 80.0, 0.0, 88.0, 0.0, 0.0, 0.0, 1.695341052200585E9, 0.0, 2023-09-21 19:04:12.200
94.0, 21167.392571853707, 53954.74183019899, -76234.4913166155, -58260.58188206934, -46936.517588677125, -20154.27740267246, 187500.0, -48765.85141013282, -7677.511295975602, -34697.50698775137, -75547.08576763699, -31764.15345241469, -18268.639536933846, -63810.83295474446, -54018.533708874435, -142754.44510632099, 0.132, 1.012, 0.022, 192.0, 0.0, 0.0, 0.0, 0.0, 0.0, 0.0, 0.0, 0.0, 0.0, 1.695341052200589E9, 0.0, 2023-09-21 19:04:12.200
96.0, 21085.94281505857, 53876.957759494515, -76228.07636595683, -58259.73251578004, -46935.22118749871, -20162.458141143103, 187500.0, -48762.811572886894, -7677.555999464513, -34692.70136269347, -75545.18586935829, -31763.77347275895, -18286.789153431553, -63811.145879166834, -54030.916575302675, -142739.33532706922, 0.132, 1.012, 0.022, 192.0, 0.0, 0.0, 0.0, 0.0, 0.0, 0.0, 0.0, 0.0, 0.0, 1.695341052200592E9, 0.0, 2023-09-21 19:04:12.200
98.0, 21170.745333522, 53963.369603558735, -76228.61280782375, -58264.67225130466, -46933.76832410912, -20160.111207975293, 187500.0, -48760.710508908094, -7681.400499510825, -34703.072572120735, -75552.49488979517, -31770.411940862174, -18275.255653292617, -63820.9135914938, -54022.73583683203, -142691.74846312386, 0.132, 1.012, 0.022, 192.0, 0.0, 0.0, 0.0, 0.0, 0.0, 0.0, 0.0, 0.0, 0.0, 1.695341052200595E9, 0.0, 2023-09-21 19:04:12.200
100.0, 21085.07109702481, 53875.75076529393, -76216.81108675136, -58254.99394595551, -46932.47192293071, -20165.743847578033, 187500.0, -48755.79312512793, -7672.325691261971, -34685.325287023225, -75538.10036636596, -31757.62674303374, -18282.698784196233, -63807.27902737606, -54031.02833402495, -142678.11389900613, 0.132, 1.012, 0.022, 192.0, 0.0, 0.0, 0.0, 0.0, 0.0, 0.0, 0.0, 0.0, 0.0, 1.695341052200599E9, 0.0, 2023-09-21 19:04:12.200
102.0, 21170.18653991062, 53960.933263413106, -76235.67595907164, -58274.55172235391, -46936.785809610585, -20165.006240011007, 187500.0, -48775.395605015234, -7681.065223343996, -34699.943327896995, -75547.80102345956, -31767.260344893977, -18274.18276955876, -63818.38784437035, -54024.12164498826, -142650.420087626, 0.124, 1.016, 0.02, 192.0, 1.5, 112.0, 15.5, 96.0, 0.0, 80.0, 0.0, 0.0, 0.0, 1.695341052200602E9, 0.0, 2023-09-21 19:04:12.200
104.0, 21080.667803367116, 53874.096736204236, -76214.12887741672, -58253.630489543735, -46933.70126887575, -20165.319164433382, 187500.0, -48758.43063097366, -7675.365528507892, -34686.06289459025, -75543.04010189058, -31761.583001802326, -18284.732792941668, -63805.423832586275, -54041.57835740785, -142623.57564253517, 0.124, 1.016, 0.02, 192.0, 0.0, 0.0, 0.0, 0.0, 0.0, 0.0, 0.0, 0.0, 0.0, 1.695341052259386E9, 0.0, 2023-09-21 19:04:12.259
106.0, 21154.294449602898, 53937.3298212683, -76213.50302857197, -58254.882187233234, -46906.298030173544, -20138.094739686818, 187500.0, -48738.82815108635, -7665.106077802906, -34680.363199754145, -75536.91572390983, -31755.838603477314, -18265.80086538802, -63797.28779760454, -54012.2975721714, -142623.93327044646, 0.124, 1.016, 0.02, 192.0, 0.0, 0.0, 0.0, 0.0, 0.0, 0.0, 0.0, 0.0, 0.0, 1.695341052259399E9, 0.0, 2023-09-21 19:04:12.259
108.0, 21083.685288868583, 53871.12395419168, -76223.65072055468, -58265.00752747149, -46928.2250914842, -20158.41247539669, 187500.0, -48755.81547687238, -7667.408307481803, -34680.47495847642, -75539.44147103328, -31761.940629713612, -18272.81931314699, -63793.9573876807, -54011.962296004574, -142596.48532825534, 0.124, 1.016, 0.02, 192.0, 0.0, 0.0, 0.0, 0.0, 0.0, 0.0, 0.0, 0.0, 0.0, 1.695341052259403E9, 0.0, 2023-09-21 19:04:12.259
110.0, 21147.76774022195, 53927.89738510816, -76221.81787750934, -58262.54883558141, -46908.86848078591, -20142.095701944316, 187500.0, -48758.54238969593, -7668.548246449023, -34689.54976672528, -75544.29179958008, -31766.925068727145, -18274.09336258094, -63799.6570825168, -54014.28687742793, -142588.5057554848, 0.124, 1.016, 0.02, 192.0, 0.0, 0.0, 0.0, 0.0, 0.0, 0.0, 0.0, 0.0, 0.0, 1.695341052259406E9, 0.0, 2023-09-21 19:04:12.259
112.0, 21094.54823667386, 53886.18902995456, -76230.64681656919, -58269.18730368463, -46941.36791722392, -20165.006240011007, 187500.0, -48761.44811647512, -7677.578351208967, -34688.56628996924, -75547.75631997065, -31770.076664695345, -18282.072935351483, -63807.59195179844, -54024.0992932438, -142534.5933478586, 0.12, 1.012, 0.02, 192.0, 1.5, 96.0, 15.5, 80.0, 0.0, 80.0, 0.0, 0.0, 0.0, 1.695341052259409E9, 0.0, 2023-09-21 19:04:12.259
114.0, 21137.955324406066, 53918.82257685931, -76212.5866070493, -58253.76460001047, -46908.91318427482, -20134.250239640503, 187500.0, -48747.67944189065, -7660.769839378577, -34672.27186826133, -75530.38901452888, -31750.80946097487, -18269.66771717879, -63797.26544586009, -54013.9516012611, -142541.27651945074, 0.12, 1.012, 0.02, 192.0, 0.0, 0.0, 0.0, 0.0, 0.0, 0.0, 0.0, 0.0, 0.0, 1.695341052259412E9, 0.0, 2023-09-21 19:04:12.259
116.0, 21094.771754118414, 53886.47960263248, -76208.02685118042, -58250.12126566425, -46930.88494907438, -20153.048056727417, 187500.0, -48752.08273554835, -7661.8427231124315, -34671.690722905485, -75527.41623251632, -31746.51792603945, -18267.007859588608, -63797.42190807127, -54009.03421748093, -142492.25914386025, 0.12, 1.012, 0.02, 192.0, 0.0, 0.0, 0.0, 0.0, 0.0, 0.0, 0.0, 0.0, 0.0, 1.695341052259415E9, 0.0, 2023-09-21 19:04:12.259
118.0, 21127.159431834156, 53903.71279760752, -76202.6400807667, -58247.17083539616, -46899.123120203396, -20131.56803030587, 187500.0, -48752.37330822627, -7655.718345131678, -34667.645057159076, -75521.94005512477, -31744.28275159392, -18260.972888585675, -63791.05166090151, -54000.18292667663, -142514.61088831557, 0.12, 1.012, 0.02, 192.0, 0.0, 0.0, 0.0, 0.0, 0.0, 0.0, 0.0, 0.0, 0.0, 1.695341052259419E9, 0.0, 2023-09-21 19:04:12.259
120.0, 21109.613312436737, 53899.48831790547, -76212.1395721602, -58256.46916108956, -46922.48069315919, -20152.51161486049, 187500.0, -48756.32956699486, -7668.615301682389, -34680.96669685444, -75535.61932273142, -31756.3973970887, -18261.41992347478, -63799.81354472799, -53996.18196441913, -142446.59452993807, 0.12, 1.012, 0.02, 192.0, 0.0, 0.0, 0.0, 0.0, 0.0, 0.0, 0.0, 0.0, 0.0, 1.69534105231966E9, 0.0, 2023-09-21 19:04:12.319
122.0, 21115.64828343967, 53899.28715220537, -76221.66141529816, -58266.46039086109, -46915.685762844776, -20144.68850430113, 187500.0, -48763.32566300937, -7677.42188899778, -34687.694571935484, -75547.64456124838, -31768.71320828357, -18277.46847599369, -63809.603608799414, -54014.063359983375, -142459.3350242776, 0.11800000000000001, 1.012, 0.02, 192.0, 1.5, 88.0, 15.5, 80.0, 0.0, 80.0, 0.0, 0.0, 0.0, 1.695341052319671E9, 0.0, 2023-09-21 19:04:12.319
124.0, 21117.36936776273, 53917.01208555843, -76225.59532232229, -58270.126076951754, -46915.395190166855, -20162.905176032207, 187500.0, -48769.85237239032, -7679.56765646549, -34685.77232191233, -75548.35981707094, -31770.0990164398, -18273.020478847084, -63811.32469312247, -54012.096406471304, -142392.7715292897, 0.11800000000000001, 1.012, 0.02, 192.0, 0.0, 0.0, 0.0, 0.0, 0.0, 0.0, 0.0, 0.0, 0.0, 1.695341052319675E9, 0.0, 2023-09-21 19:04:12.319
126.0, 21107.42284148012, 53898.706006849534, -76218.93450247461, -58270.32724265185, -46909.13670171937, -20135.501937330002, 187500.0, -48767.2595700335, -7684.172115823283, -34694.60126097217, -75549.6338665049, -31776.53631884293, -18284.397516774836, -63826.54623109654, -54017.52788037394, -142400.88521252695, 0.11800000000000001, 1.012, 0.02, 192.0, 0.0, 0.0, 0.0, 0.0, 0.0, 0.0, 0.0, 0.0, 0.0, 1.695341052319678E9, 0.0, 2023-09-21 19:04:12.319
128.0, 21133.261458070454, 53938.849739891266, -76221.86258099826, -58272.07067871937, -46917.58566112348, -20149.18120493665, 187500.0, -48774.23331430356, -7688.106022847417, -34707.72173496744, -75555.31120959655, -31781.967792745567, -18282.497618496134, -63831.77653929908, -54018.332543174336, -142326.9456418688, 0.11800000000000001, 1.012, 0.02, 192.0, 0.0, 0.0, 0.0, 0.0, 0.0, 0.0, 0.0, 0.0, 0.0, 1.695341052319681E9, 0.0, 2023-09-21 19:04:12.319
130.0, 21090.0778877828, 53883.6185793422, -76203.60120577826, -58255.19511165561, -46889.869497998894, -20122.806146479386, 187500.0, -48757.04482281743, -7662.401516723814, -34678.53035670881, -75530.97015988472, -31755.369216843752, -18273.109885824906, -63803.81450698549, -54008.27425816945, -142357.65693875038, 0.11800000000000001, 1.012, 0.02, 192.0, 0.0, 0.0, 0.0, 0.0, 0.0, 0.0, 0.0, 0.0, 0.0, 1.695341052319685E9, 0.0, 2023-09-21 19:04:12.319
132.0, 21127.65117021217, 53934.82642588931, -76219.56035131936, -58269.857856018294, -46934.125952020404, -20158.591289352335, 187500.0, -48772.691043936145, -7673.197409295727, -34694.24363306089, -75548.51627928214, -31775.083455453332, -18259.56472868499, -63820.84653626043, -54011.02352273745, -142304.97387706922, 0.11800000000000001, 1.01, 0.02, 192.0, 1.5, 88.0, 15.5, 72.0, 0.0, 80.0, 0.0, 0.0, 0.0, 1.695341052319688E9, 0.0, 2023-09-21 19:04:12.319
134.0, 21078.41027717713, 53872.487410603455, -76207.75863024696, -58264.471085604564, -46912.69062908777, -20158.121902718773, 187500.0, -48757.98359608455, -7664.569635935979, -34682.82189164423, -75539.79909894457, -31771.77539727395, -18269.824179389976, -63818.49960309263, -54019.13720597472, -142333.78527567213, 0.11800000000000001, 1.01, 0.02, 192.0, 0.0, 0.0, 0.0, 0.0, 0.0, 0.0, 0.0, 0.0, 0.0, 1.695341052380013E9, 0.0, 2023-09-21 19:04:12.380
136.0, 21144.95142042058, 53938.559167213345, -76204.02588892292, -58261.543007080916, -46913.83056805498, -20161.56407136489, 187500.0, -48747.992366313025, -7654.1537230198055, -34678.70917066445, -75533.02652037461, -31766.00864720448, -18249.148815768818, -63819.594838570934, -54002.48515635552, -142288.00890302766, 0.11800000000000001, 1.01, 0.02, 192.0, 0.0, 0.0, 0.0, 0.0, 0.0, 0.0, 0.0, 0.0, 0.0, 1.695341052380027E9, 0.0, 2023-09-21 19:04:12.380
138.0, 21088.26739648192, 53876.063689716306, -76209.54676980339, -58262.593539070316, -46922.5253966481, -20165.18505396665, 187500.0, -48771.37229101328, -7675.074955829973, -34686.12994982361, -75548.04689264858, -31781.38664738973, -18277.28966203805, -63832.87177477739, -54023.138168232224, -142290.333484451, 0.11800000000000001, 1.01, 0.02, 192.0, 0.0, 0.0, 0.0, 0.0, 0.0, 0.0, 0.0, 0.0, 0.0, 1.695341052380031E9, 0.0, 2023-09-21 19:04:12.380
140.0, 21161.737580506513, 53951.45612376406, -76192.64885099517, -58243.61690802776, -46914.67993434428, -20126.248315125504, 187500.0, -48760.19641878563, -7655.830103853954, -34664.426405957514, -75531.14897384036, -31757.872612222745, -18253.619164659878, -63802.49575406263, -54003.33452264482, -142255.42005961182, 0.11800000000000001, 1.01, 0.02, 192.0, 0.0, 0.0, 0.0, 0.0, 0.0, 0.0, 0.0, 0.0, 0.0, 1.695341052380035E9, 0.0, 2023-09-21 19:04:12.380
142.0, 21090.346108716265, 53870.94514023604, -76180.69066771158, -58234.0950648898, -46907.05798948503, -20122.4485185681, 187500.0, -48750.6075204143, -7652.0973625299175, -34655.061025030736, -75518.78845915657, -31746.85320220628, -18264.102132809418, -63790.71638473468, -54005.5473453459, -142265.74656555016, 0.12, 1.01, 0.016, 192.0, 1.5, 96.0, 15.5, 72.0, 0.0, 64.0, 0.0, 0.0, 0.0, 1.695341052380048E9, 0.0, 2023-09-21 19:04:12.380
144.0, 21175.260385901976, 53960.39682154618, -76194.54874927388, -58246.54498655141, -46914.29995468855, -20122.783794734933, 187500.0, -48761.24695077503, -7649.459856684191, -34661.31951347822, -75520.01780510161, -31744.752138227483, -18251.272231492072, -63796.30432084851, -53991.39869110569, -142227.94976567625, 0.12, 1.01, 0.016, 192.0, 0.0, 0.0, 0.0, 0.0, 0.0, 0.0, 0.0, 0.0, 0.0, 1.695341052380051E9, 0.0, 2023-09-21 19:04:12.380
146.0, 21076.286861453875, 53873.60499782622, -76182.45645552356, -58232.61984975575, -46911.43893139827, -20120.70508250059, 187500.0, -48747.590034912835, -7653.460818941691, -34653.317588963226, -75519.99545335716, -31743.299274837886, -18274.585100958957, -63786.82718119946, -54006.5978773353, -142220.32782081698, 0.12, 1.01, 0.016, 192.0, 0.0, 0.0, 0.0, 0.0, 0.0, 0.0, 0.0, 0.0, 0.0, 1.695341052380054E9, 0.0, 2023-09-21 19:04:12.380
148.0, 21150.449949556583, 53948.684507451595, -76184.11048461324, -58237.15725388018, -46895.90446900183, -20105.46119278207, 187500.0, -48750.04872680292, -7632.27136519806, -34641.47116440191, -75509.0207468296, -31737.510173023962, -18240.811615086986, -63777.19357933922, -53982.30153111238, -142214.89634691435, 0.12, 1.01, 0.016, 192.0, 0.0, 0.0, 0.0, 0.0, 0.0, 0.0, 0.0, 0.0, 0.0, 1.695341052380058E9, 0.0, 2023-09-21 19:04:12.380
150.0, 21060.528881612885, 53868.73231753497, -76181.65179272316, -58242.164044638164, -46911.46128314272, -20128.17056514866, 187500.0, -48749.1546570247, -7648.766952606077, -34658.45849018794, -75527.86326740542, -31761.605353546784, -18263.118656053382, -63797.35485283791, -54003.06630171136, -142199.7642159181, 0.12, 1.01, 0.016, 192.0, 0.0, 0.0, 0.0, 0.0, 0.0, 0.0, 0.0, 0.0, 0.0, 1.695341052440294E9, 0.0, 2023-09-21 19:04:12.440
152.0, 21135.362522049254, 53949.08683885179, -76201.00840342145, -58261.475951847555, -46915.9763355227, -20129.757539004986, 187500.0, -48774.65799744821, -7657.081801543451, -34677.2339555304, -75539.86615417793, -31772.75887402998, -18251.741618125634, -63817.091443191945, -53996.0478539524, -142185.39204423333, 0.11800000000000001, 1.01, 0.022, 192.0, 1.5, 88.0, 15.5, 72.0, 0.0, 88.0, 0.0, 0.0, 0.0, 1.695341052440326E9, 0.0, 2023-09-21 19:04:12.440
154.0, 21050.291782652355, 53870.85573325822, -76194.66050799614, -58249.584823797326, -46923.19594898176, -20134.518460573967, 187500.0, -48753.71441289358, -7651.203292751706, -34664.44875770197, -75529.98668312868, -31761.180670402133, -18257.79894087302, -63807.033158187056, -54009.77182504795, -142160.58160788796, 0.11800000000000001, 1.01, 0.022, 192.0, 0.0, 0.0, 0.0, 0.0, 0.0, 0.0, 0.0, 0.0, 0.0, 1.69534105244033E9, 0.0, 2023-09-21 19:04:12.440
156.0, 21125.237181810997, 53937.82155964632, -76208.3844790917, -58265.521617593964, -46924.201777482245, -20134.674922785154, 187500.0, -48774.32272128138, -7661.082763800951, -34679.35737125366, -75541.16255535634, -31769.070836194856, -18259.56472868499, -63826.36741714089, -54021.17121472016, -142155.9547967857, 0.11800000000000001, 1.01, 0.022, 192.0, 0.0, 0.0, 0.0, 0.0, 0.0, 0.0, 0.0, 0.0, 0.0, 1.695341052440334E9, 0.0, 2023-09-21 19:04:12.440
158.0, 21057.73491355597, 53875.97428273848, -76202.99770867798, -58256.75973376748, -46933.075420031004, -20148.62241132527, 187500.0, -48760.17406704117, -7658.601720166412, -34676.76456889684, -75539.62028498892, -31769.830795506336, -18269.623013689878, -63824.46751886219, -54032.34708694781, -142119.63321204582, 0.11800000000000001, 1.01, 0.022, 192.0, 0.0, 0.0, 0.0, 0.0, 0.0, 0.0, 0.0, 0.0, 0.0, 1.695341052440338E9, 0.0, 2023-09-21 19:04:12.440
160.0, 21118.732824174505, 53930.445483976066, -76209.90439771466, -58260.425419858155, -46920.357277435935, -20131.99271345052, 187500.0, -48769.51709622349, -7655.919510831775, -34679.75970265385, -75542.30249432355, -31772.66946705216, -18261.978717086164, -63822.96995198369, -54023.22757521005, -142127.32221213845, 0.11800000000000001, 1.01, 0.022, 192.0, 0.0, 0.0, 0.0, 0.0, 0.0, 0.0, 0.0, 0.0, 0.0, 1.695341052440342E9, 0.0, 2023-09-21 19:04:12.440
162.0, 21060.88650952417, 53883.30565491982, -76202.19304587759, -58248.310774363374, -46935.19883575426, -20139.480547843046, 187500.0, -48758.922369351676, -7644.386010692837, -34666.19219376948, -75532.51243025213, -31760.554821557384, -18258.670658906776, -63811.637617544846, -54019.852461797294, -142091.40295879878, 0.126, 1.012, 0.02, 192.0, 1.5, 120.0, 15.5, 80.0, 0.0, 80.0, 0.0, 0.0, 0.0, 1.695341052440345E9, 0.0, 2023-09-21 19:04:12.440
164.0, 21100.627911165706, 53912.58644015628, -76202.46126681105, -58246.67909701814, -46912.71298083222, -20112.524344029945, 187500.0, -48753.98263382705, -7640.899138557808, -34663.62174315712, -75534.07705236401, -31758.00672268948, -18254.155606526805, -63807.56960005398, -54012.9010692717, -142114.76053175455, 0.126, 1.012, 0.02, 192.0, 0.0, 0.0, 0.0, 0.0, 0.0, 0.0, 0.0, 0.0, 0.0, 1.695341052500607E9, 0.0, 2023-09-21 19:04:12.500
166.0, 21065.468617137507, 53894.05684400283, -76217.28047338492, -58258.97255646856, -46947.3805364824, -20134.98784720753, 187500.0, -48767.21486654459, -7654.019612553074, -34682.598374199675, -75549.41034906034, -31775.172862431154, -18266.694935166233, -63820.243039160145, -54018.75722631899, -142060.535199706, 0.126, 1.012, 0.02, 192.0, 0.0, 0.0, 0.0, 0.0, 0.0, 0.0, 0.0, 0.0, 0.0, 1.695341052500621E9, 0.0, 2023-09-21 19:04:12.500
168.0, 21083.26060572393, 53906.03737903087, -76216.36405186226, -58255.12805642225, -46919.50791114663, -20108.9480649171, 187500.0, -48754.63083441625, -7656.7912288655325, -34683.44774048898, -75553.45601480675, -31779.37499038875, -18274.80861840351, -63815.95150422472, -54022.22174670956, -142078.59540922588, 0.126, 1.012, 0.02, 192.0, 0.0, 0.0, 0.0, 0.0, 0.0, 0.0, 0.0, 0.0, 0.0, 1.695341052500625E9, 0.0, 2023-09-21 19:04:12.500
170.0, 21072.799989318846, 53915.492166935466, -76234.0889852153, -58268.42734437315, -46959.67399593282, -20134.116129173774, 187500.0, -48755.43549721665, -7673.398574995826, -34694.93653713901, -75569.95160221477, -31790.975545761055, -18282.162342329306, -63825.85332701843, -54033.86700557078, -142012.90363227174, 0.126, 1.012, 0.02, 192.0, 0.0, 0.0, 0.0, 0.0, 0.0, 0.0, 0.0, 0.0, 0.0, 1.695341052500628E9, 0.0, 2023-09-21 19:04:12.500
172.0, 21071.25771895143, 53905.277419719394, -76224.32127288834, -58264.29227164892, -46925.63228912739, -20112.50199228549, 187500.0, -48756.37427048377, -7662.9603103351965, -34673.300048506266, -75557.30051485306, -31777.877423510246, -18280.038926606052, -63815.4597658467, -54034.51520615998, -142038.11640001732, 0.134, 1.012, 0.016, 192.0, 2.0, 24.0, 15.5, 80.0, 0.0, 64.0, 0.0, 0.0, 0.0, 1.695341052500632E9, 0.0, 2023-09-21 19:04:12.500
174.0, 21068.620213105707, 53914.17341401261, -76203.489447056, -58246.18735864012, -46936.53994042158, -20119.40868132218, 187500.0, -48742.896168577216, -7664.971967336174, -34678.50800496435, -75559.66979976532, -31781.163129945176, -18273.37810675837, -63821.852364760925, -54035.29751721591, -141975.44210856463, 0.134, 1.012, 0.016, 192.0, 0.0, 0.0, 0.0, 0.0, 0.0, 0.0, 0.0, 0.0, 0.0, 1.695341052500635E9, 0.0, 2023-09-21 19:04:12.500
176.0, 21053.063398964812, 53870.18518092456, -76185.29512706937, -58240.711181248575, -46893.64694281184, -20092.83245716482, 187500.0, -48737.84467433032, -7628.292754685016, -34644.19807722546, -75521.98475861369, -31748.216658618054, -18250.065237291485, -63790.604626012406, -54004.31799940086, -142034.36130694882, 0.134, 1.012, 0.016, 192.0, 0.0, 0.0, 0.0, 0.0, 0.0, 0.0, 0.0, 0.0, 0.0, 1.695341052500638E9, 0.0, 2023-09-21 19:04:12.500
178.0, 21091.731916872493, 53920.34249548227, -76203.489447056, -58260.358364624786, -46931.51079791913, -20123.7002162576, 187500.0, -48755.12257279427, -7643.044906025519, -34671.08722580519, -75539.84380243348, -31772.892984496713, -18251.115769280885, -63813.246943145634, -54002.50750809998, -141974.83861146434, 0.134, 1.012, 0.016, 192.0, 0.0, 0.0, 0.0, 0.0, 0.0, 0.0, 0.0, 0.0, 0.0, 1.695341052500641E9, 0.0, 2023-09-21 19:04:12.500
180.0, 21042.759244770914, 53859.03166044136, -76176.95792638755, -58238.43130331413, -46896.19504167975, -20099.001538634486, 187500.0, -48726.28882244693, -7635.378257677348, -34653.76462385233, -75528.89144765037, -31764.734597770526, -18259.52002519608, -63801.33346335095, -54005.07795871234, -142005.28168741247, 0.134, 1.012, 0.016, 192.0, 0.0, 0.0, 0.0, 0.0, 0.0, 0.0, 0.0, 0.0, 0.0, 1.695341052559879E9, 0.0, 2023-09-21 19:04:12.559
182.0, 21097.632777408693, 53926.39981822966, -76200.02492666543, -58261.96769022557, -46927.219262983715, -20122.202649379095, 187500.0, -48764.10797406531, -7646.308260715993, -34669.99199032688, -75542.25779083464, -31777.58685083233, -18251.98748731464, -63813.26929489009, -53995.75728127448, -141952.5986257313, 0.13, 1.006, 0.018000000000000002, 192.0, 2.0, 8.0, 15.5, 56.0, 0.0, 72.0, 0.0, 0.0, 0.0, 1.69534105255989E9, 0.0, 2023-09-21 19:04:12.559
184.0, 21040.03233194737, 53870.1628291801, -76215.9393687176, -58280.25141719001, -46932.00253629715, -20134.496108829513, 187500.0, -48770.791145657444, -7660.054583556007, -34673.27769676181, -75553.16544212884, -31788.360391659786, -18282.028231862572, -63819.4160246153, -54019.293668185914, -141963.68509098113, 0.13, 1.006, 0.018000000000000002, 192.0, 0.0, 0.0, 0.0, 0.0, 0.0, 0.0, 0.0, 0.0, 0.0, 1.695341052559894E9, 0.0, 2023-09-21 19:04:12.559
186.0, 21092.02248955041, 53940.14614106967, -76221.28143564242, -58287.24751320452, -46942.306690491045, -20142.162757177684, 187500.0, -48765.44907873262, -7671.073993572473, -34691.963755126446, -75570.13041617042, -31806.554711646404, -18279.39072601685, -63835.30811492302, -54026.31211594488, -141903.96122979658, 0.13, 1.006, 0.018000000000000002, 192.0, 0.0, 0.0, 0.0, 0.0, 0.0, 0.0, 0.0, 0.0, 0.0, 1.695341052559898E9, 0.0, 2023-09-21 19:04:12.559
188.0, 21008.38226179865, 53853.756648749906, -76200.74018248799, -58267.1532949392, -46918.36797217941, -20126.56123954788, 187500.0, -48740.12455226476, -7651.605624151901, -34668.51677519283, -75549.81268046054, -31788.494502126516, -18282.274101051582, -63809.82712624397, -54026.96031653408, -141930.87273012075, 0.13, 1.006, 0.018000000000000002, 192.0, 0.0, 0.0, 0.0, 0.0, 0.0, 0.0, 0.0, 0.0, 0.0, 1.695341052559901E9, 0.0, 2023-09-21 19:04:12.559
190.0, 21075.83982656477, 53920.454254204546, -76198.34854583128, -58260.984213469535, -46916.28925994507, -20113.284303341425, 187500.0, -48739.87868307575, -7643.111961258885, -34668.7849961263, -75544.44826179127, -31787.063990481376, -18262.537510697544, -63804.932094208256, -54012.655200082685, -141907.0904740203, 0.13, 1.006, 0.018000000000000002, 192.0, 0.0, 0.0, 0.0, 0.0, 0.0, 0.0, 0.0, 0.0, 0.0, 1.695341052559905E9, 0.0, 2023-09-21 19:04:12.559
192.0, 21005.29772106382, 53840.479712543456, -76208.22801688052, -58269.27671066245, -46924.71586760472, -20117.17350687665, 187500.0, -48745.01958430047, -7638.015763523074, -34654.54693490826, -75534.03234887509, -31777.318629898862, -18268.751295656122, -63791.61045451289, -54023.18287172114, -141930.55980569837, 0.12, 1.016, 0.024, 192.0, 1.5, 96.0, 15.5, 96.0, 0.0, 96.0, 0.0, 0.0, 0.0, 1.695341052559908E9, 0.0, 2023-09-21 19:04:12.559
194.0, 21103.488934455985, 53939.877920136205, -76241.21919169655, -58300.278580221966, -46945.65945215934, -20130.249277383005, 187500.0, -48774.210962559104, -7665.173133036272, -34681.59254569919, -75554.90887819635, -31796.87640629726, -18271.679374179766, -63814.364530368395, -54023.719313588066, -141891.0419215014, 0.12, 1.016, 0.024, 192.0, 0.0, 0.0, 0.0, 0.0, 0.0, 0.0, 0.0, 0.0, 0.0, 1.695341052619778E9, 0.0, 2023-09-21 19:04:12.619
196.0, 21021.078052649267, 53859.59045405275, -76219.44859259708, -58275.937530510135, -46945.167713781324, -20140.17345192116, 187500.0, -48756.48602920605, -7688.1954298252385, -34696.299993550776, -75570.95743071527, -31812.790848349436, -18307.509220541622, -63828.35672239742, -54050.58611042334, -141857.93898796308, 0.12, 1.016, 0.024, 192.0, 0.0, 0.0, 0.0, 0.0, 0.0, 0.0, 0.0, 0.0, 0.0, 1.695341052619791E9, 0.0, 2023-09-21 19:04:12.619
198.0, 21115.067138083832, 53938.96149861354, -76219.91797923064, -58274.77523979846, -46926.459303672236, -20119.40868132218, 187500.0, -48760.241122274536, -7660.613377167389, -34676.87632761912, -75540.20143034475, -31779.19617643311, -18262.47045546418, -63806.317902364484, -54009.25773492548, -141853.93802570557, 0.12, 1.016, 0.024, 192.0, 0.0, 0.0, 0.0, 0.0, 0.0, 0.0, 0.0, 0.0, 0.0, 1.695341052619795E9, 0.0, 2023-09-21 19:04:12.619
200.0, 21046.60374481723, 53865.89364598914, -76220.65558679767, -58269.075544962354, -46939.19979801176, -20138.430015853646, 187500.0, -48755.23433151655, -7672.6609674288, -34679.67029567603, -75539.75439545565, -31781.61016483428, -18283.011708618607, -63808.687187276744, -54021.10415948679, -141838.31415633133, 0.12, 1.016, 0.024, 192.0, 0.0, 0.0, 0.0, 0.0, 0.0, 0.0, 0.0, 0.0, 0.0, 1.695341052619798E9, 0.0, 2023-09-21 19:04:12.619
202.0, 21124.94660913308, 53927.20448103005, -76206.10460115726, -58247.93079470764, -46912.176538965294, -20112.524344029945, 187500.0, -48732.63671787223, -7653.7066881307, -34671.46720546093, -75520.330729524, -31766.81331000487, -18257.150740283818, -63795.49965804812, -54009.995342492504, -141842.3821738222, 0.124, 1.014, 0.03, 192.0, 1.5, 112.0, 15.5, 88.0, 0.0, 120.0, 0.0, 0.0, 0.0, 1.695341052619801E9, 0.0, 2023-09-21 19:04:12.619
204.0, 21068.284936938875, 53861.82562849828, -76215.96172046206, -58249.54012030842, -46931.60020489695, -20125.466004069567, 187500.0, -48738.22465398606, -7639.312164701482, -34656.245667486866, -75501.46585720372, -31746.89790569519, -18252.009839059097, -63780.032250885044, -54010.44237738161, -141835.00609815193, 0.124, 1.014, 0.03, 192.0, 0.0, 0.0, 0.0, 0.0, 0.0, 0.0, 0.0, 0.0, 0.0, 1.695341052619804E9, 0.0, 2023-09-21 19:04:12.619
206.0, 21166.073818930843, 53941.911928881644, -76258.02770352694, -58287.471030649074, -46949.19102778328, -20141.246335655014, 187500.0, -48785.118613853294, -7664.569635935979, -34685.884080634605, -75527.66210170533, -31763.32643786984, -18266.024382832573, -63804.97679769716, -54030.290726457926, -141826.15480734763, 0.124, 1.014, 0.03, 192.0, 0.0, 0.0, 0.0, 0.0, 0.0, 0.0, 0.0, 0.0, 0.0, 1.695341052619807E9, 0.0, 2023-09-21 19:04:12.619
208.0, 21106.908751357645, 53888.8712392892, -76236.57002884985, -58265.27574840495, -46959.42812674381, -20155.99848699552, 187500.0, -48769.00300610102, -7676.572522708479, -34697.52933949582, -75536.04400587607, -31772.557708329885, -18290.61130173341, -63813.42575710127, -54059.68327041665, -141772.1753444881, 0.124, 1.014, 0.03, 192.0, 0.0, 0.0, 0.0, 0.0, 0.0, 0.0, 0.0, 0.0, 0.0, 1.69534105261981E9, 0.0, 2023-09-21 19:04:12.619
210.0, 21171.7958655114, 53936.79337940137, -76240.01219749596, -58268.941434495624, -46937.45636194424, -20142.31921938887, 187500.0, -48779.664788206195, -7659.3169759889815, -34688.052199846774, -75520.21897080171, -31754.9445336991, -18271.32174626848, -63801.89225696233, -54034.71637186008, -141796.11406279972, 0.124, 1.014, 0.03, 192.0, 0.0, 0.0, 0.0, 0.0, 0.0, 0.0, 0.0, 0.0, 0.0, 1.695341052679967E9, 0.0, 2023-09-21 19:04:12.679
212.0, 21123.605504465762, 53894.727396336486, -76217.54869431838, -58243.706315005584, -46943.11135329144, -20144.979076979052, 187500.0, -48747.05359304591, -7656.947691076719, -34687.51575797985, -75517.6261684449, -31751.61412377526, -18269.53360671206, -63801.17700113977, -54035.16340674918, -141754.8527425352, 0.122, 1.012, 0.026000000000000002, 192.0, 1.5, 104.0, 15.5, 80.0, 0.0, 104.0, 0.0, 0.0, 0.0, 1.695341052679979E9, 0.0, 2023-09-21 19:04:12.679
214.0, 21165.336211363818, 53919.51548093742, -76222.84605775429, -58251.7976464984, -46921.31840244751, -20128.66230352668, 187500.0, -48761.04578507493, -7642.7096298586885, -34675.31170550724, -75502.78461012657, -31737.42076604614, -18253.507405937602, -63789.822314956466, -54013.571621605355, -141795.64467616615, 0.122, 1.012, 0.026000000000000002, 192.0, 0.0, 0.0, 0.0, 0.0, 0.0, 0.0, 0.0, 0.0, 0.0, 1.695341052679983E9, 0.0, 2023-09-21 19:04:12.679
216.0, 21137.217716839044, 53903.71279760752, -76226.98113047853, -58259.33018437984, -46955.06953657503, -20157.85368178531, 187500.0, -48763.37036649828, -7655.383068964848, -34697.10465635117, -75518.25201728965, -31759.392530845707, -18268.393667744836, -63810.25180938862, -54034.64931662671, -141742.6039865737, 0.122, 1.012, 0.026000000000000002, 192.0, 0.0, 0.0, 0.0, 0.0, 0.0, 0.0, 0.0, 0.0, 0.0, 1.695341052679986E9, 0.0, 2023-09-21 19:04:12.679
218.0, 21150.22643211203, 53896.87316380419, -76205.4340488236, -58244.198053383596, -46909.15905346382, -20122.69438775711, 187500.0, -48751.32277623687, -7640.295641457516, -34686.934612624005, -75502.51638919312, -31744.126289382733, -18255.854339105408, -63801.37816683986, -54017.93021177414, -141780.69135912554, 0.122, 1.012, 0.026000000000000002, 192.0, 0.0, 0.0, 0.0, 0.0, 0.0, 0.0, 0.0, 0.0, 0.0, 1.695341052679989E9, 0.0, 2023-09-21 19:04:12.679
220.0, 21146.13606287671, 53899.37655918319, -76197.00744116395, -58234.31858233435, -46926.3251932055, -20133.93731521813, 187500.0, -48740.25866273149, -7637.6581356117895, -34683.55949921125, -75501.13058103688, -31735.923199167635, -18244.298487222015, -63797.041928415536, -54006.26260116847, -141740.3017568948, 0.122, 1.012, 0.026000000000000002, 192.0, 0.0, 0.0, 0.0, 0.0, 0.0, 0.0, 0.0, 0.0, 0.0, 1.695341052679992E9, 0.0, 2023-09-21 19:04:12.679
222.0, 21150.025266411933, 53880.77990779638, -76203.55650228936, -58246.500283062494, -46905.538070862065, -20123.253181368495, 187500.0, -48749.89226459173, -7619.88849876982, -34663.35352222365, -75482.17630173879, -31716.90186463617, -18235.46954816217, -63777.41709678377, -53990.3928626052, -141791.71076914202, 0.13, 1.006, 0.022, 192.0, 2.0, 8.0, 15.5, 56.0, 0.0, 88.0, 0.0, 0.0, 0.0, 1.695341052679995E9, 0.0, 2023-09-21 19:04:12.679
224.0, 21173.29343238991, 53919.69429489307, -76223.20368566558, -58264.18051292664, -46950.64389117288, -20161.631126598255, 187500.0, -48760.41993623018, -7659.3169759889815, -34702.06674362025, -75526.09747959346, -31753.491670309508, -18261.866958363888, -63817.06909144749, -54021.1488629757, -141716.29598334982, 0.13, 1.006, 0.022, 192.0, 0.0, 0.0, 0.0, 0.0, 0.0, 0.0, 0.0, 0.0, 0.0, 1.695341052740303E9, 0.0, 2023-09-21 19:04:12.740
226.0, 21147.74538847749, 53886.94898926604, -76226.26587465595, -58270.08137346285, -46931.063763030026, -20142.766254277976, 187500.0, -48762.58805544234, -7651.89619682982, -34691.02498185933, -75517.06737483351, -31743.634551004718, -18265.063257820995, -63805.37912909736, -54019.517185630466, -141749.5106756104, 0.13, 1.006, 0.022, 192.0, 0.0, 0.0, 0.0, 0.0, 0.0, 0.0, 0.0, 0.0, 0.0, 1.695341052740317E9, 0.0, 2023-09-21 19:04:12.740
228.0, 21178.43433361463, 53943.90123413816, -76248.1482324777, -58287.06869924888, -46975.61078972946, -20172.941109292642, 187500.0, -48789.83483193336, -7689.178906581272, -34728.933540455524, -75554.70771249625, -31785.52172011396, -18281.871769651385, -63837.230364946176, -54041.60070915231, -141672.95595085097, 0.13, 1.006, 0.022, 192.0, 0.0, 0.0, 0.0, 0.0, 0.0, 0.0, 0.0, 0.0, 0.0, 1.695341052740321E9, 0.0, 2023-09-21 19:04:12.740
230.0, 21113.41310899414, 53870.1628291801, -76213.27951112742, -58250.277727875444, -46922.57010013701, -20136.686579786132, 187500.0, -48756.79895362842, -7655.830103853954, -34690.645002203586, -75520.06250859052, -31754.69866451009, -18276.797923660033, -63797.69012900474, -54033.08469451484, -141716.18422462753, 0.13, 1.006, 0.022, 192.0, 0.0, 0.0, 0.0, 0.0, 0.0, 0.0, 0.0, 0.0, 0.0, 1.695341052740325E9, 0.0, 2023-09-21 19:04:12.740
232.0, 21165.984411953024, 53929.10437930875, -76201.34367958829, -58235.92790793513, -46926.727524605696, -20132.305637872894, 187500.0, -48734.38015393975, -7651.426810196258, -34690.04150510329, -75516.55328471104, -31751.345902841796, -18259.363562984894, -63802.02636742907, -54019.159557719184, -141680.9355236215, 0.128, 1.008, 0.024, 192.0, 2.0, 0.0, 15.5, 64.0, 0.0, 96.0, 0.0, 0.0, 0.0, 1.695341052740328E9, 0.0, 2023-09-21 19:04:12.740
234.0, 21108.115745558232, 53858.98695695245, -76197.56623477534, -58232.731608478025, -46906.655658084834, -20116.391195820714, 187500.0, -48730.42389517116, -7630.147949474806, -34659.66548438853, -75490.31233672051, -31721.103992593766, -18246.600716900914, -63775.87482641636, -53992.13629867272, -141717.57003278375, 0.128, 1.008, 0.024, 192.0, 0.0, 0.0, 0.0, 0.0, 0.0, 0.0, 0.0, 0.0, 0.0, 1.695341052740332E9, 0.0, 2023-09-21 19:04:12.740
236.0, 21173.360487623275, 53939.34147826928, -76210.1949703926, -58242.588727782815, -46924.201777482245, -20127.477661070545, 187500.0, -48744.729011622556, -7656.187731765239, -34689.21449055845, -75519.0790318345, -31744.28275159392, -18255.496711194126, -63803.36747209638, -54001.07699645484, -141669.91611360505, 0.128, 1.008, 0.024, 192.0, 0.0, 0.0, 0.0, 0.0, 0.0, 0.0, 0.0, 0.0, 0.0, 1.695341052740336E9, 0.0, 2023-09-21 19:04:12.740
238.0, 21098.437440209083, 53862.27266338738, -76210.73141225951, -58249.00367844149, -46917.205681467734, -20129.93635296063, 187500.0, -48748.93113958015, -7651.337403218437, -34671.690722905485, -75511.07710731949, -31731.966940399045, -18266.38201074386, -63789.37528006736, -54002.77572903344, -141689.7868144258, 0.128, 1.008, 0.024, 192.0, 0.0, 0.0, 0.0, 0.0, 0.0, 0.0, 0.0, 0.0, 0.0, 1.695341052740339E9, 0.0, 2023-09-21 19:04:12.740
240.0, 21169.672449788148, 53945.17528357211, -76219.13566817471, -58261.36419312527, -46925.00644028264, -20137.357132119792, 187500.0, -48765.65024443272, -7672.70567091771, -34700.68093546402, -75538.94973265527, -31756.732673255527, -18270.539435212548, -63814.76686176859, -54005.457938368076, -141644.09984875916, 0.128, 1.008, 0.024, 192.0, 0.0, 0.0, 0.0, 0.0, 0.0, 0.0, 0.0, 0.0, 0.0, 1.695341052800463E9, 0.0, 2023-09-21 19:04:12.800
242.0, 21076.443323665062, 53855.88006447316, -76201.85776971075, -58245.65091677319, -46917.652716356846, -20126.337722103326, 187500.0, -48735.29657546242, -7663.496752202124, -34683.850071889174, -75525.2257615597, -31746.33911208381, -18275.501522481623, -63798.38303308285, -54005.055606967886, -141651.40886919605, 0.122, 1.014, 0.022, 192.0, 1.5, 104.0, 15.5, 88.0, 0.0, 88.0, 0.0, 0.0, 0.0, 1.695341052800474E9, 0.0, 2023-09-21 19:04:12.800
244.0, 21154.249746113986, 53938.693277680075, -76206.50693255746, -58250.747114509, -46912.735332576674, -20119.118108644263, 187500.0, -48740.34806970931, -7660.0769353004625, -34685.77232191233, -75527.01390111612, -31747.47905105103, -18258.98358332915, -63800.729966250656, -53996.33842663031, -141633.70628758744, 0.122, 1.014, 0.022, 192.0, 0.0, 0.0, 0.0, 0.0, 0.0, 0.0, 0.0, 0.0, 0.0, 1.695341052800478E9, 0.0, 2023-09-21 19:04:12.800
246.0, 21063.83693979227, 53844.14539863413, -76187.41854279263, -58235.3467625793, -46902.118253960405, -20118.60401852179, 187500.0, -48724.03129625694, -7641.726153102655, -34664.47110944642, -75507.21025552873, -31730.782297942915, -18258.871824606875, -63784.18967535373, -53997.433662108626, -141643.3398894477, 0.122, 1.014, 0.022, 192.0, 0.0, 0.0, 0.0, 0.0, 0.0, 0.0, 0.0, 0.0, 0.0, 1.695341052800481E9, 0.0, 2023-09-21 19:04:12.800
248.0, 21150.718170490047, 53929.886690364685, -76220.67793854213, -58266.5497978389, -46921.340754191966, -20125.533059302936, 187500.0, -48761.58222694186, -7646.688240371734, -34681.86076663265, -75517.40265100035, -31745.42269056114, -18249.439388446735, -63798.852419716415, -53993.67856904013, -141638.91424404553, 0.122, 1.014, 0.022, 192.0, 0.0, 0.0, 0.0, 0.0, 0.0, 0.0, 0.0, 0.0, 0.0, 1.695341052800484E9, 0.0, 2023-09-21 19:04:12.800
250.0, 21071.145960229154, 53855.6118435397, -76221.37084262024, -58268.38264088424, -46940.987937568185, -20147.817748524874, 187500.0, -48757.00011932851, -7653.9749090641635, -34684.09594107818, -75528.06443310552, -31754.788071487914, -18272.260519535605, -63802.965140696186, -54021.886470542726, -141616.9201275015, 0.122, 1.014, 0.022, 192.0, 0.0, 0.0, 0.0, 0.0, 0.0, 0.0, 0.0, 0.0, 0.0, 1.695341052800488E9, 0.0, 2023-09-21 19:04:12.800
252.0, 21149.399417567187, 53928.81380663083, -76236.95000850559, -58280.564341612386, -46932.2260537417, -20138.251201898005, 187500.0, -48764.778526398964, -7664.569635935979, -34697.57404298473, -75543.28597107959, -31769.33905712832, -18269.623013689878, -63811.995245456135, -54014.15276696119, -141615.31080190072, 0.124, 1.014, 0.022, 192.0, 1.5, 112.0, 15.5, 88.0, 0.0, 88.0, 0.0, 0.0, 0.0, 1.695341052800491E9, 0.0, 2023-09-21 19:04:12.800
254.0, 21066.586204360272, 53857.42233484058, -76217.30282512937, -58258.83844600183, -46936.47288518821, -20133.467928584567, 187500.0, -48744.37138371127, -7676.684281430756, -34695.40592377257, -75551.44435780578, -31776.424560120653, -18290.410136033315, -63807.90487622081, -54027.56381363438, -141587.68404575397, 0.124, 1.014, 0.022, 192.0, 0.0, 0.0, 0.0, 0.0, 0.0, 0.0, 0.0, 0.0, 0.0, 1.695341052800494E9, 0.0, 2023-09-21 19:04:12.800
0.0, 21134.066120870844, 53915.24629774646, -76223.06957519884, -58263.95699548209, -46916.49042564517, -20109.30569282838, 187500.0, -48749.28876749144, -7662.602682423912, -34688.186310313504, -75540.13437511139, -31768.71320828357, -18268.214853789195, -63798.561847038494, -54003.73685404502, -141608.1805954195, 0.124, 1.014, 0.022, 192.0, 0.0, 0.0, 0.0, 0.0, 0.0, 0.0, 0.0, 0.0, 0.0, 1.695341052860353E9, 0.0, 2023-09-21 19:04:12.860
2.0, 21068.955489272535, 53857.57879705177, -76207.57981629131, -58245.58386153983, -46932.06959153052, -20124.862506969275, 187500.0, -48734.55896789539, -7672.28098777306, -34692.589603971195, -75545.49879378066, -31772.714170541072, -18280.396554517338, -63801.82520172897, -54015.248002439504, -141566.5169437548, 0.124, 1.014, 0.022, 192.0, 0.0, 0.0, 0.0, 0.0, 0.0, 0.0, 0.0, 0.0, 0.0, 1.695341052860364E9, 0.0, 2023-09-21 19:04:12.860
