%OpenBCI Raw EXG Data
%Number of channels = 16
%Sample Rate = 125 Hz
%Board = OpenBCI_GUI$BoardCytonSerialDaisy
Sample Index, EXG Channel 0, EXG Channel 1, EXG Channel 2, EXG Channel 3, EXG Channel 4, EXG Channel 5, EXG Channel 6, EXG Channel 7, EXG Channel 8, EXG Channel 9, EXG Channel 10, EXG Channel 11, EXG Channel 12, EXG Channel 13, EXG Channel 14, EXG Channel 15, Accel Channel 0, Accel Channel 1, Accel Channel 2, Other, Other, Other, Other, Other, Other, Other, Analog Channel 0, Analog Channel 1, Analog Channel 2, Timestamp, Other, Timestamp (Formatted)
178.0, 40914.600004506116, 70806.6160448332, -30564.982362387465, -18548.461025769833, -22238.10818649628, -3982.4326613465146, -187500.02235174447, -4180.223248031527, 15678.407630730586, -21204.384708927242, -187500.02235174447, -368.3343968790051, 297.0323320665756, -5582.8175643465, -2116.6878481731237, -23025.001350045368, 0.0, 0.0, 0.0, 192.0, 0.0, 0.0, 0.0, 0.0, 0.0, 0.0, 0.0, 0.0, 0.0, 1.695771340155189E9, 0.0, 2023-09-26 18:35:40.155
180.0, 40922.87014995458, 70787.6617655351, -30555.594629716234, -18532.121900573005, -22218.908038009173, -3972.866114719643, -187500.02235174447, -4190.013312102951, 15687.325976768254, -21190.414868642674, -187500.02235174447, -358.09729791847445, 305.9283263597878, -5573.563942142003, -2099.745225876001, -23010.718585338425, 0.0, 0.0, 0.0, 192.0, 0.0, 0.0, 0.0, 0.0, 0.0, 0.0, 0.0, 0.0, 0.0, 1.695771340155196E9, 0.0, 2023-09-26 18:35:40.155
182.0, 40915.71759172888, 70789.56166381379, -30566.8152054328, -18542.24724081126, -22228.74280556951, -3974.9895304428974, -187500.02235174447, -4172.690710150088, 15690.857552392192, -21194.371127411265, -187500.02235174447, -362.7911642540889, 318.55706197703626, -5568.0654130059975, -2098.5829351643247, -23004.88478003559, 0.0, 0.0, 0.0, 192.0, 0.0, 0.0, 0.0, 0.0, 0.0, 0.0, 0.0, 0.0, 0.0, 1.695771340155201E9, 0.0, 2023-09-26 18:35:40.155
184.0, 40924.07714415516, 70787.34884111272, -30571.486720023957, -18533.552412218145, -22222.037282232915, -3978.744623511389, -187500.02235174447, -4188.538096968901, 15686.878941879148, -21195.265197189474, -187500.02235174447, -364.2216758992286, 302.66497166931293, -5575.732061354168, -2094.2690484844506, -23007.41052715904, 0.098, 0.914, 0.418, 192.0, 1.5, 8.0, 14.0, 72.0, 6.5, 8.0, 0.0, 0.0, 0.0, 1.695771340155219E9, 0.0, 2023-09-26 18:35:40.155
186.0, 40919.85266445311, 70786.27595737886, -30585.545967286347, -18546.091740857573, -22241.572706886855, -3982.0973851796853, -187500.02235174447, -4176.646968918678, 15680.620453431662, -21188.80554304189, -187500.02235174447, -359.9524927082649, 317.86415789892175, -5568.132468239363, -2109.13295854723, -23003.8789515351, 0.098, 0.914, 0.418, 192.0, 0.0, 0.0, 0.0, 0.0, 0.0, 0.0, 0.0, 0.0, 0.0, 1.695771340155222E9, 0.0, 2023-09-26 18:35:40.155
188.0, 40930.67090876948, 70800.24579766343, -30584.987173674963, -18534.647647696453, -22238.085834751826, -3985.1819259145173, -187500.02235174447, -4199.423396518636, 15679.301700508799, -21194.706403578093, -187500.02235174447, -360.48893457519233, 290.63973315235773, -5576.827296832478, -2109.9823248365315, -23014.607788873647, 0.098, 0.914, 0.418, 192.0, 0.0, 0.0, 0.0, 0.0, 0.0, 0.0, 0.0, 0.0, 0.0, 1.695771340155226E9, 0.0, 2023-09-26 18:35:40.155
190.0, 40931.98966169234, 70779.03399217535, -30585.99300217545, -18532.792452906662, -22235.850660306296, -3972.106155408163, -187500.02235174447, -4181.832573632309, 15690.902255881103, -21178.14376093671, -187500.02235174447, -347.12259139091867, 293.6348669093689, -5557.269520434084, -2117.291345273417, -23003.521323623816, 0.098, 0.914, 0.418, 192.0, 0.0, 0.0, 0.0, 0.0, 0.0, 0.0, 0.0, 0.0, 0.0, 1.695771340155229E9, 0.0, 2023-09-26 18:35:40.155
192.0, 40936.14708616103, 70808.04655647834, -30590.038667921865, -18531.38429300598, -22235.805956817385, -3971.6591205190566, -187500.02235174447, -4177.228114274516, 15684.53200871134, -21174.27690914594, -187500.02235174447, -345.75913497914496, 292.9643145757097, -5560.264654191095, -2096.7277403745343, -23000.995576500365, 0.098, 0.914, 0.418, 192.0, 0.0, 0.0, 0.0, 0.0, 0.0, 0.0, 0.0, 0.0, 0.0, 1.695771340155232E9, 0.0, 2023-09-26 18:35:40.155
194.0, 40939.45514434041, 70779.5033788089, -30585.21069111952, -18532.166604061917, -22229.79333755891, -3967.3452338391826, -187500.02235174447, -4171.461364205046, 15688.465915735474, -21178.14376093671, -187500.02235174447, -346.8096669685444, 298.4628437117152, -5554.363793654895, -2114.2738597719504, -23001.286149178286, 0.11, 0.908, 0.42, 192.0, 1.5, 56.0, 14.0, 48.0, 6.5, 16.0, 0.0, 0.0, 0.0, 1.695771340155236E9, 0.0, 2023-09-26 18:35:40.155
0.0, 20169.409533668702, 32666.247506886426, -14846.095722448317, -9341.531615439846, -11042.164092321884, -1964.6959858770356, -93750.01117587223, -731.9302239334851, 7846.781056735642, -10584.243903666009, -93750.01117587223, -165.80524036946778, 149.3767081948171, -2777.1371933385367, -1043.6476521071975, -11500.240743188948, 0.08499999999999999, 0.926, 0.367, 192.0, 0.5, 112.0, 14.5, 64.0, 4.5, 104.0, 0.0, 0.0, 0.0, 1.69577134028838E9, 0.0, 2023-09-26 18:35:40.288
2.0, 40343.69174762866, 65271.273585709765, -29680.322668590867, -18665.003021359804, -22061.507053554902, -3922.4629309729257, -187500.02235174447, -1490.3249133020538, 14897.862362606807, -21715.39029066447, -187500.02235174447, -4865.527733031241, -4278.459164912601, -5243.093400370289, -1070.6262076647529, -21250.78693041646, 0.08499999999999999, 0.926, 0.367, 192.0, 0.0, 0.0, 0.0, 0.0, 0.0, 0.0, 0.0, 0.0, 0.0, 1.69577134028839E9, 0.0, 2023-09-26 18:35:40.288
4.0, 40338.059108025926, 65274.46988516687, -29691.766761751984, -18678.436419777445, -22087.45742886751, -3925.458064729937, -187500.02235174447, -1463.7933926336043, 14902.735042898064, -21703.074479469597, -187500.02235174447, -4856.743497460306, -4262.835295538342, -5203.55316442885, -1074.5824664333422, -21242.762654157003, 0.08499999999999999, 0.926, 0.367, 192.0, 0.0, 0.0, 0.0, 0.0, 0.0, 0.0, 0.0, 0.0, 0.0, 1.695771340288394E9, 0.0, 2023-09-26 18:35:40.288
6.0, 40338.43908768166, 65291.30074874172, -29694.516026319987, -18663.907785881496, -22060.724742498965, -3922.105303061641, -187500.02235174447, -1496.3598843049865, 14884.80894384491, -21731.394139694472, -187500.02235174447, -4869.573398777652, -4294.105386031316, -5277.068051942355, -1067.0722802963592, -21245.422511747183, 0.08499999999999999, 0.926, 0.367, 192.0, 0.0, 0.0, 0.0, 0.0, 0.0, 0.0, 0.0, 0.0, 0.0, 1.695771340288398E9, 0.0, 2023-09-26 18:35:40.288
8.0, 40340.4730964271, 65265.79740831821, -29697.578215310365, -18672.64731796352, -22074.873396739174, -3916.8973466035545, -187500.02235174447, -1467.9508171022912, 14900.142240541249, -21713.64685459696, -187500.02235174447, -4849.099200856591, -4272.647711354221, -5234.286813054898, -1076.3259025008563, -21238.53817445495, 0.042, 0.964, 0.268, 192.0, 0.5, 40.0, 15.0, 16.0, 4.0, 48.0, 0.0, 0.0, 0.0, 1.695771340288401E9, 0.0, 2023-09-26 18:35:40.288
10.0, 40337.03092778098, 65298.609769178605, -29704.484904347053, -18675.88832090954, -22069.911309470095, -3930.3083932767386, -187500.02235174447, -1489.0061603791905, 14889.815734602898, -21734.031645540195, -187500.02235174447, -4865.393622564509, -4278.392109679236, -5251.721173730037, -1061.6408063937195, -21249.28936353795, 0.042, 0.964, 0.268, 192.0, 0.0, 0.0, 0.0, 0.0, 0.0, 0.0, 0.0, 0.0, 0.0, 1.695771340288405E9, 0.0, 2023-09-26 18:35:40.288
12.0, 40331.57710213389, 65274.46988516687, -29707.92707299317, -18690.79693446123, -22083.679984054565, -3933.817617156222, -187500.02235174447, -1468.3978519913974, 14892.587350915355, -21735.529212418704, -187500.02235174447, -4865.393622564509, -4284.807060337908, -5213.7008564115595, -1085.9371526166383, -21258.475930509085, 0.042, 0.964, 0.268, 192.0, 0.0, 0.0, 0.0, 0.0, 0.0, 0.0, 0.0, 0.0, 0.0, 1.695771340288415E9, 0.0, 2023-09-26 18:35:40.288
14.0, 40315.2156251926, 65351.739865748874, -29728.31186393641, -18696.139001386047, -22099.125039473183, -3942.2442248158727, -187500.02235174447, -1488.7602911901822, 14871.353193682813, -21752.06950331563, -187500.02235174447, -4881.509230316786, -4302.084958801861, -5281.292531644408, -1066.8264111073509, -21255.972535130088, 0.042, 0.964, 0.268, 192.0, 0.0, 0.0, 0.0, 0.0, 0.0, 0.0, 0.0, 0.0, 0.0, 1.695771340288418E9, 0.0, 2023-09-26 18:35:40.288
16.0, 40329.40898292172, 65287.59035916214, -29716.040756230446, -18687.041841392736, -22082.42828636507, -3928.162625809029, -187500.02235174447, -1484.0217213656572, 14871.822580316375, -21755.846948128576, -187500.02235174447, -4884.973750707359, -4293.792461608942, -5263.61230178026, -1114.7261994750738, -21261.560471243916, 0.042, 0.964, 0.268, 192.0, 0.0, 0.0, 0.0, 0.0, 0.0, 0.0, 0.0, 0.0, 0.0, 1.695771340347922E9, 0.0, 2023-09-26 18:35:40.347
18.0, 40330.437163166665, 65358.110112918635, -29717.672433575684, -18691.199265861425, -22085.334013144256, -3938.8244079142105, -187500.02235174447, -1488.2238493232549, 14874.303623950915, -21756.49514871778, -187500.02235174447, -4882.984445450837, -4299.380397722769, -5262.248845368486, -1076.3482542453116, -21254.49731999604, 0.032, 0.97, 0.23800000000000002, 192.0, 0.5, 0.0, 15.0, 40.0, 3.5, 56.0, 0.0, 0.0, 0.0, 1.695771340347931E9, 0.0, 2023-09-26 18:35:40.347
20.0, 40336.4721341696, 65276.88387356805, -29700.93097697866, -18680.537483756245, -22070.60421354821, -3927.87205313111, -187500.02235174447, -1479.0819858410343, 14887.647615390733, -21739.507822931748, -187500.02235174447, -4867.897017943504, -4290.551458662922, -5239.897100913179, -1102.8127196803953, -21257.24658456404, 0.032, 0.97, 0.23800000000000002, 192.0, 0.0, 0.0, 0.0, 0.0, 0.0, 0.0, 0.0, 0.0, 0.0, 1.695771340347935E9, 0.0, 2023-09-26 18:35:40.347
22.0, 40340.09311677136, 65356.85841522914, -29702.98733746855, -18685.74544021433, -22073.197015905025, -3931.9177188775207, -187500.02235174447, -1472.7117386712716, 14888.072298535384, -21741.8324043551, -187500.02235174447, -4866.667671998462, -4282.281313214459, -5234.264461310442, -1063.697166883608, -21248.663514693202, 0.032, 0.97, 0.23800000000000002, 192.0, 0.0, 0.0, 0.0, 0.0, 0.0, 0.0, 0.0, 0.0, 0.0, 1.695771340347938E9, 0.0, 2023-09-26 18:35:40.347
24.0, 40341.054241782935, 65282.27064398178, -29694.49367457553, -18676.782390687753, -22075.65570779511, -3924.005201340342, -187500.02235174447, -1479.0819858410343, 14896.722423639587, -21746.280401501706, -187500.02235174447, -4866.48885804282, -4279.576752135366, -5245.619147493738, -1088.1276235732585, -21243.38850300175, 0.032, 0.97, 0.23800000000000002, 192.0, 0.0, 0.0, 0.0, 0.0, 0.0, 0.0, 0.0, 0.0, 0.0, 1.695771340347942E9, 0.0, 2023-09-26 18:35:40.347
26.0, 40348.09504128636, 65367.16256942303, -29689.889215217736, -18676.581224987654, -22078.5614345743, -3932.5659194667246, -187500.02235174447, -1462.9440263443025, 14885.94888281213, -21742.726474133313, -187500.02235174447, -4862.86787544106, -4293.680702886665, -5266.428621581629, -1060.7020331265967, -21240.125148311276, 0.032, 0.97, 0.23800000000000002, 192.0, 0.0, 0.0, 0.0, 0.0, 0.0, 0.0, 0.0, 0.0, 0.0, 1.695771340347945E9, 0.0, 2023-09-26 18:35:40.347
28.0, 40359.62854142529, 65268.07728625266, -29679.450950557108, -18657.35872475609, -22056.90259419711, -3918.484320459881, -187500.02235174447, -1468.4202037358527, 14906.937170855663, -21723.615732624025, -187500.02235174447, -4847.489875255808, -4266.724499073565, -5193.003141045945, -1083.9701991045713, -21240.23690703355, 0.028, 0.982, 0.222, 192.0, 0.0, 112.0, 15.0, 88.0, 3.0, 120.0, 0.0, 0.0, 0.0, 1.695771340347948E9, 0.0, 2023-09-26 18:35:40.347
30.0, 40354.10766054483, 65353.058618671734, -29689.73275300655, -18668.132265583547, -22074.247547894425, -3914.4386547134704, -187500.02235174447, -1449.1306482709228, 14905.66312142171, -21711.81401155162, -187500.02235174447, -4846.4840467553195, -4273.899409043719, -5247.608452750261, -1053.7059371120856, -21222.713139380594, 0.028, 0.982, 0.222, 192.0, 0.0, 0.0, 0.0, 0.0, 0.0, 0.0, 0.0, 0.0, 0.0, 1.69577134040824E9, 0.0, 2023-09-26 18:35:40.408
32.0, 40347.491544186065, 65272.882911310546, -29689.97862219556, -18657.515186967277, -22071.87826298216, -3923.1781867954955, -187500.02235174447, -1482.6135614649727, 14896.81183061741, -21735.19393625187, -187500.02235174447, -4854.7541922037835, -4278.526220145967, -5240.500598013473, -1079.8127746358841, -21238.135843054755, 0.028, 0.982, 0.222, 192.0, 0.0, 0.0, 0.0, 0.0, 0.0, 0.0, 0.0, 0.0, 0.0, 1.695771340408257E9, 0.0, 2023-09-26 18:35:40.408
34.0, 40332.49352365655, 65378.07022071722, -29713.89498876274, -18687.5112280263, -22095.95109176053, -3941.193692826473, -187500.02235174447, -1466.542657201607, 14888.496981680035, -21739.35136072056, -187500.02235174447, -4862.376137063043, -4296.608781410311, -5246.3344033163075, -1065.1500302732027, -21236.0124273315, 0.028, 0.982, 0.222, 192.0, 0.0, 0.0, 0.0, 0.0, 0.0, 0.0, 0.0, 0.0, 0.0, 1.695771340408261E9, 0.0, 2023-09-26 18:35:40.408
36.0, 40341.970663305605, 65289.49025744084, -29694.605433297806, -18676.26830056528, -22070.5595100593, -3932.8341404001885, -187500.02235174447, -1494.3035238150983, 14879.936263553653, -21746.10158754606, -187500.02235174447, -4877.798840737205, -4294.954752320618, -5238.019554378933, -1093.1344143312472, -21262.543947999948, 0.028, 0.982, 0.222, 192.0, 0.0, 0.0, 0.0, 0.0, 0.0, 0.0, 0.0, 0.0, 0.0, 1.695771340408265E9, 0.0, 2023-09-26 18:35:40.408
38.0, 40345.45753544063, 65359.987659452876, -29703.255558402012, -18671.17210282947, -22086.09397245574, -3925.949803107954, -187500.02235174447, -1458.9877675757132, 14901.28217950847, -21726.38734893648, -187500.02235174447, -4853.010756136269, -4275.195810222127, -5235.60556597776, -1068.2792744969458, -21231.139747040244, 0.028, 0.986, 0.222, 192.0, 0.0, 112.0, 15.0, 104.0, 3.0, 120.0, 0.0, 0.0, 0.0, 1.695771340408284E9, 0.0, 2023-09-26 18:35:40.408
40.0, 40352.02894831049, 65300.73318490186, -29689.21866288408, -18660.242099790823, -22075.6110043062, -3935.8963293905654, -187500.02235174447, -1496.158718604889, 14887.692318879643, -21737.183241508395, -187500.02235174447, -4859.381003306032, -4284.471784171079, -5244.613318993249, -1085.4901177275322, -21246.58480245886, 0.028, 0.986, 0.222, 192.0, 0.0, 0.0, 0.0, 0.0, 0.0, 0.0, 0.0, 0.0, 0.0, 1.695771340408289E9, 0.0, 2023-09-26 18:35:40.408
42.0, 40355.06878555641, 65357.21604314042, -29694.203101897612, -18674.36840228658, -22084.149370688127, -3930.1519310655513, -187500.02235174447, -1469.7166049142606, 14897.750603884531, -21702.895665513955, -187500.02235174447, -4852.139038102512, -4278.2803509569585, -5221.456911737551, -1076.728233901052, -21237.800566887923, 0.028, 0.986, 0.222, 192.0, 0.0, 0.0, 0.0, 0.0, 0.0, 0.0, 0.0, 0.0, 0.0, 1.695771340408294E9, 0.0, 2023-09-26 18:35:40.408
44.0, 40362.08723331538, 65291.03252780826, -29673.952421421105, -18641.578393170643, -22058.646030264623, -3910.974134322898, -187500.02235174447, -1478.4561369962857, 14892.296778237436, -21713.289226685672, -187500.02235174447, -4855.469448026353, -4276.671025356177, -5237.9972026344785, -1075.588294933831, -21226.825860360368, 0.028, 0.986, 0.222, 192.0, 0.0, 0.0, 0.0, 0.0, 0.0, 0.0, 0.0, 0.0, 0.0, 1.695771340408298E9, 0.0, 2023-09-26 18:35:40.408
46.0, 40336.6732998697, 65349.571746536705, -29712.68799456215, -18687.868855937584, -22093.335937659256, -3930.0178205988195, -187500.02235174447, -1446.2249214917329, 14895.157801527715, -21714.116241230517, -187500.02235174447, -4857.592863749607, -4275.016996266484, -5224.9661356170345, -1058.0198237919599, -21214.800621843413, 0.028, 0.986, 0.222, 192.0, 0.0, 0.0, 0.0, 0.0, 0.0, 0.0, 0.0, 0.0, 0.0, 1.695771340468478E9, 0.0, 2023-09-26 18:35:40.468
48.0, 40340.09311677136, 65324.29192355775, -29704.060221202402, -18666.902919638505, -22077.063867695793, -3924.5416432072693, -187500.02235174447, -1487.7097592007829, 14865.050001746416, -21736.11035777454, -187500.02235174447, -4889.3323408761435, -4294.194793009137, -5245.015650393445, -1080.8409548808283, -21240.907459367212, 0.024, 0.986, 0.222, 192.0, 0.0, 96.0, 15.0, 104.0, 3.0, 120.0, 0.0, 0.0, 0.0, 1.695771340468487E9, 0.0, 2023-09-26 18:35:40.468
50.0, 40344.898741829245, 65337.94883941994, -29703.63553805775, -18676.69298370993, -22089.42438237958, -3919.6689629160123, -187500.02235174447, -1449.8235523490373, 14888.675795635678, -21712.417508651914, -187500.02235174447, -4873.507305801786, -4283.309493459403, -5234.398571777174, -1082.0255973369597, -21224.121299281276, 0.024, 0.986, 0.222, 192.0, 0.0, 0.0, 0.0, 0.0, 0.0, 0.0, 0.0, 0.0, 0.0, 1.69577134046849E9, 0.0, 2023-09-26 18:35:40.468
52.0, 40342.32829121689, 65318.50282174383, -29698.718154277583, -18667.349954527614, -22061.59646053272, -3921.3453437501603, -187500.02235174447, -1483.6640934543723, 14883.937225811153, -21715.85967729803, -187500.02235174447, -4875.63072152504, -4290.171479007182, -5234.867958410735, -1057.2822162249347, -21225.529459181962, 0.024, 0.986, 0.222, 192.0, 0.0, 0.0, 0.0, 0.0, 0.0, 0.0, 0.0, 0.0, 0.0, 1.695771340468494E9, 0.0, 2023-09-26 18:35:40.468
54.0, 40337.008576036525, 65322.235563067865, -29714.163209696202, -18681.051573878714, -22085.870455011183, -3927.357963008638, -187500.02235174447, -1460.798258876593, 14880.718574609587, -21712.328101674095, -187500.02235174447, -4877.687082014929, -4289.567981906889, -5234.376220032718, -1079.3433880023229, -21232.167927285187, 0.024, 0.986, 0.222, 192.0, 0.0, 0.0, 0.0, 0.0, 0.0, 0.0, 0.0, 0.0, 0.0, 1.695771340468497E9, 0.0, 2023-09-26 18:35:40.468
56.0, 40341.1212970163, 65342.53094703329, -29707.569445081885, -18666.41118126049, -22081.33305088676, -3925.0780850741967, -187500.02235174447, -1478.702006185294, 14870.570882626878, -21720.7770610782, -187500.02235174447, -4884.571419307163, -4283.488307415046, -5244.412153293151, -1065.9099895846832, -21231.58678192935, 0.024, 0.986, 0.222, 192.0, 0.0, 0.0, 0.0, 0.0, 0.0, 0.0, 0.0, 0.0, 0.0, 1.6957713404685E9, 0.0, 2023-09-26 18:35:40.468
58.0, 40338.28262547048, 65316.35705427612, -29710.78809628345, -18673.854312164105, -22084.84227476624, -3915.9585733364315, -187500.02235174447, -1447.7224883702384, 14881.18796124315, -21704.549694603647, -187500.02235174447, -4874.781355235738, -4293.635999397755, -5224.2061763055535, -1080.8409548808283, -21219.47213643457, 0.024, 0.984, 0.22, 192.0, 0.0, 96.0, 15.0, 96.0, 3.0, 112.0, 0.0, 0.0, 0.0, 1.695771340468503E9, 0.0, 2023-09-26 18:35:40.468
60.0, 40332.40411667873, 65362.69222053197, -29716.644253330738, -18677.78821918824, -22082.070658453784, -3935.8739776461102, -187500.02235174447, -1477.0256253511461, 14866.480513391556, -21725.20270648035, -187500.02235174447, -4894.137965934035, -4299.04512155594, -5249.217778351042, -1062.1772482606468, -21226.468232449082, 0.024, 0.984, 0.22, 192.0, 0.0, 0.0, 0.0, 0.0, 0.0, 0.0, 0.0, 0.0, 0.0, 1.695771340528849E9, 0.0, 2023-09-26 18:35:40.528
62.0, 40322.815218307405, 65328.69521721545, -29723.036852244957, -18692.406260062013, -22104.891789542653, -3941.5066172488473, -187500.02235174447, -1472.868200882459, 14873.387202428246, -21726.432052425393, -187500.02235174447, -4895.7249397903615, -4303.671932658188, -5244.881539926713, -1088.7981759069175, -21233.643142419238, 0.024, 0.984, 0.22, 192.0, 0.0, 0.0, 0.0, 0.0, 0.0, 0.0, 0.0, 0.0, 0.0, 1.695771340528859E9, 0.0, 2023-09-26 18:35:40.528
64.0, 40327.486732898564, 65382.56292135274, -29714.63259632976, -18679.196379088924, -22088.217388178993, -3942.6242044716128, -187500.02235174447, -1482.4570992537856, 14854.27646091896, -21742.122977033017, -187500.02235174447, -4908.845413785626, -4321.352162522336, -5267.166229148654, -1078.5387252019316, -21242.71795066809, 0.024, 0.984, 0.22, 192.0, 0.0, 0.0, 0.0, 0.0, 0.0, 0.0, 0.0, 0.0, 0.0, 1.695771340528863E9, 0.0, 2023-09-26 18:35:40.528
66.0, 40355.0240820675, 65279.56608290268, -29682.848415714314, -18649.826186874652, -22060.456521565502, -3901.6087533961245, -187500.02235174447, -1445.9119970693587, 14895.828353861376, -21698.894703256454, -187500.02235174447, -4871.58505577863, -4254.185170434138, -5216.226603535009, -1085.9371526166383, -21213.168944498175, 0.024, 0.984, 0.22, 192.0, 0.0, 0.0, 0.0, 0.0, 0.0, 0.0, 0.0, 0.0, 0.0, 1.695771340528867E9, 0.0, 2023-09-26 18:35:40.528
68.0, 40332.33706144537, 65366.98375546739, -29711.726869550574, -18684.672556480476, -22087.591539334244, -3938.2209108139173, -187500.02235174447, -1460.5300379431294, 14877.298757707926, -21714.786793564177, -187500.02235174447, -4881.799802994705, -4299.782729122964, -5240.925281158124, -1036.0704107368483, -21206.73164209505, 0.024, 0.99, 0.218, 192.0, 0.0, 96.0, 15.0, 120.0, 3.0, 104.0, 0.0, 0.0, 0.0, 1.695771340528876E9, 0.0, 2023-09-26 18:35:40.528
70.0, 40330.41481142221, 65299.12385930108, -29711.950386995126, -18681.74447795683, -22084.104667199215, -3933.9517276229535, -187500.02235174447, -1469.5601427030736, 14866.234644202548, -21731.595305394567, -187500.02235174447, -4899.860012514593, -4302.263772757504, -5251.22943535202, -1084.8642688827836, -21233.19610753013, 0.024, 0.99, 0.218, 192.0, 0.0, 0.0, 0.0, 0.0, 0.0, 0.0, 0.0, 0.0, 0.0, 1.69577134052888E9, 0.0, 2023-09-26 18:35:40.528
72.0, 40340.09311677136, 65377.466723616926, -29706.20598867011, -18668.668707450477, -22080.550739830822, -3931.11305607713, -187500.02235174447, -1458.4513257087858, 14870.146199482228, -21728.466061170824, -187500.02235174447, -4888.259457142289, -4303.582525680366, -5252.816409208347, -1050.2637684659683, -21221.48379343555, 0.024, 0.99, 0.218, 192.0, 0.0, 0.0, 0.0, 0.0, 0.0, 0.0, 0.0, 0.0, 0.0, 1.695771340528883E9, 0.0, 2023-09-26 18:35:40.528
74.0, 40343.82585809539, 65290.20551326341, -29701.646232801228, -18661.672611435963, -22078.673193296578, -3920.9206606055095, -187500.02235174447, -1466.4308984793304, 14879.533932153456, -21719.838287811075, -187500.02235174447, -4874.982520935836, -4283.488307415046, -5233.79507467688, -1078.1363938017362, -21221.416738202184, 0.024, 0.99, 0.218, 192.0, 0.0, 0.0, 0.0, 0.0, 0.0, 0.0, 0.0, 0.0, 0.0, 1.695771340528887E9, 0.0, 2023-09-26 18:35:40.528
76.0, 40340.987186549566, 65378.22668292841, -29714.789058540948, -18676.87179766557, -22087.99387073444, -3932.2529950443504, -187500.02235174447, -1454.4056599623752, 14874.393030928735, -21730.365959449526, -187500.02235174447, -4878.491744815319, -4290.953790063118, -5241.551130002872, -1051.850742322295, -21211.984302042045, 0.024, 0.99, 0.218, 192.0, 0.0, 0.0, 0.0, 0.0, 0.0, 0.0, 0.0, 0.0, 0.0, 1.695771340587625E9, 0.0, 2023-09-26 18:35:40.587
78.0, 40341.14364876076, 65289.1102777851, -29709.089363704847, -18665.271242293267, -22071.02889669286, -3929.9284136209985, -187500.02235174447, -1474.3657677609644, 14868.782743070453, -21738.63610489799, -187500.02235174447, -4886.314855374677, -4289.500926673523, -5236.253766566964, -1079.9692368470714, -21229.128090039267, 0.024, 0.986, 0.218, 192.0, 0.0, 96.0, 15.0, 104.0, 3.0, 104.0, 0.0, 0.0, 0.0, 1.695771340587635E9, 0.0, 2023-09-26 18:35:40.587
80.0, 40344.138782517766, 65377.243206172374, -29712.30801490641, -18666.098256838115, -22077.756771773908, -3928.5649572092248, -187500.02235174447, -1452.2598924946658, 14873.27544370597, -21735.037474040684, -187500.02235174447, -4877.910599459481, -4293.345426719836, -5249.083667884311, -1054.8235243348508, -21215.20295324361, 0.024, 0.986, 0.218, 192.0, 0.0, 0.0, 0.0, 0.0, 0.0, 0.0, 0.0, 0.0, 0.0, 1.695771340587639E9, 0.0, 2023-09-26 18:35:40.587
82.0, 40351.268988999014, 65274.04520202222, -29695.58891005384, -18643.36653272707, -22056.969649430474, -3911.9576110789317, -187500.02235174447, -1469.4260322363416, 14886.395917701235, -21724.018064024218, -187500.02235174447, -4868.38875632152, -4268.736156074543, -5218.640591936182, -1069.8438966088172, -21212.498392164518, 0.024, 0.986, 0.218, 192.0, 0.0, 0.0, 0.0, 0.0, 0.0, 0.0, 0.0, 0.0, 0.0, 1.695771340587643E9, 0.0, 2023-09-26 18:35:40.587
84.0, 40344.004672051036, 65356.54549080676, -29704.462552602596, -18660.666782935474, -22075.678059539565, -3922.261765272828, -187500.02235174447, -1452.058726794568, 14878.79632458643, -21736.64679964147, -187500.02235174447, -4877.39650933701, -4282.393071936735, -5237.8854439122015, -1054.108268512281, -21212.96777879808, 0.024, 0.986, 0.218, 192.0, 0.0, 0.0, 0.0, 0.0, 0.0, 0.0, 0.0, 0.0, 0.0, 1.695771340587652E9, 0.0, 2023-09-26 18:35:40.587
86.0, 40337.522666159, 65281.689498625936, -29705.937767736646, -18666.79116091623, -22067.22910013546, -3934.354059023149, -187500.02235174447, -1482.121823086956, 14870.772048326977, -21745.45338695686, -187500.02235174447, -4883.96792220687, -4288.204525495115, -5218.193557047076, -1068.9051233416944, -21222.9590085696, 0.024, 0.986, 0.218, 192.0, 0.0, 0.0, 0.0, 0.0, 0.0, 0.0, 0.0, 0.0, 0.0, 1.695771340587655E9, 0.0, 2023-09-26 18:35:40.587
88.0, 40330.8171428224, 65352.41041808253, -29728.31186393641, -18685.36546055859, -22084.305832899314, -3933.68350668949, -187500.02235174447, -1459.8818373539254, 14864.111228479294, -21753.74588414978, -187500.02235174447, -4890.382872865543, -4291.959618563606, -5244.121580615232, -1062.9372075721274, -21224.18835451464, 0.026000000000000002, 0.978, 0.22, 192.0, 0.0, 104.0, 15.0, 72.0, 3.0, 112.0, 0.0, 0.0, 0.0, 1.695771340587658E9, 0.0, 2023-09-26 18:35:40.587
90.0, 40334.68399461317, 65294.273530754275, -29720.98049175507, -18675.93302439845, -22080.28251889736, -3939.651422459057, -187500.02235174447, -1494.3705790484644, 14859.976155755063, -21764.96645986634, -187500.02235174447, -4897.602486324607, -4293.23366799756, -5255.163342376154, -1074.0236728219597, -21230.715063895594, 0.026000000000000002, 0.978, 0.22, 192.0, 0.0, 0.0, 0.0, 0.0, 0.0, 0.0, 0.0, 0.0, 0.0, 1.695771340647987E9, 0.0, 2023-09-26 18:35:40.647
92.0, 40332.64998586774, 65345.861356957124, -29735.46442216211, -18696.049594408225, -22090.22904517997, -3952.3695650541267, -187500.02235174447, -1464.866276367459, 14863.373620912269, -21763.223023798826, -187500.02235174447, -4892.238067655333, -4291.601990652322, -5242.445199781085, -1074.560114688887, -21233.509031952504, 0.026000000000000002, 0.978, 0.22, 192.0, 0.0, 0.0, 0.0, 0.0, 0.0, 0.0, 0.0, 0.0, 0.0, 1.695771340648027E9, 0.0, 2023-09-26 18:35:40.648
94.0, 40341.45657318313, 65282.06947828168, -29721.628692344275, -18671.082695851648, -22080.684850297555, -3943.294756805272, -187500.02235174447, -1493.6329714814392, 14867.396934914224, -21762.954802865363, -187500.02235174447, -4895.948457234915, -4287.958656306107, -5253.330499330819, -1086.6747601836635, -21239.029912832968, 0.026000000000000002, 0.978, 0.22, 192.0, 0.0, 0.0, 0.0, 0.0, 0.0, 0.0, 0.0, 0.0, 0.0, 1.695771340648036E9, 0.0, 2023-09-26 18:35:40.648
96.0, 40344.92109357371, 65314.770080419796, -29725.495544135043, -18680.068097122683, -22076.37096361768, -3941.6407277155795, -187500.02235174447, -1453.4892384397076, 14867.709859336599, -21759.602041197068, -187500.02235174447, -4885.845468741116, -4301.012075068006, -5240.65706022466, -1082.629094437253, -21223.20487775861, 0.026000000000000002, 0.978, 0.22, 192.0, 0.0, 0.0, 0.0, 0.0, 0.0, 0.0, 0.0, 0.0, 0.0, 1.695771340648039E9, 0.0, 2023-09-26 18:35:40.648
98.0, 40352.20776226613, 65283.90232132701, -29721.673395833182, -18671.641489463032, -22069.84425423673, -3940.523140492814, -187500.02235174447, -1480.736014930727, 14874.638900117745, -21755.7351894063, -187500.02235174447, -4881.799802994705, -4286.03640628295, -5220.674600681616, -1071.5202774429654, -21221.461441691095, 0.024, 0.982, 0.224, 192.0, 0.0, 96.0, 15.0, 88.0, 3.5, 0.0, 0.0, 0.0, 0.0, 1.695771340648043E9, 0.0, 2023-09-26 18:35:40.648
100.0, 40334.25931146852, 65313.02664435228, -29738.191334985655, -18693.4120885625, -22094.297062670837, -3946.3122423067384, -187500.02235174447, -1451.5222849276406, 14866.99460351403, -21764.050038343674, -187500.02235174447, -4893.243896155822, -4297.301685488425, -5253.442258053095, -1086.6971119281188, -21229.39631097273, 0.024, 0.982, 0.224, 192.0, 0.0, 0.0, 0.0, 0.0, 0.0, 0.0, 0.0, 0.0, 0.0, 1.695771340648046E9, 0.0, 2023-09-26 18:35:40.648
102.0, 40331.778267833986, 65314.278342041776, -29728.110698236313, -18681.632719234552, -22079.366097374692, -3947.5862917406907, -187500.02235174447, -1479.730186430238, 14850.946050995119, -21772.342535536594, -187500.02235174447, -4903.391588138532, -4304.677761158677, -5247.429638794618, -1076.527068200954, -21231.162098784698, 0.024, 0.982, 0.224, 192.0, 0.0, 0.0, 0.0, 0.0, 0.0, 0.0, 0.0, 0.0, 0.0, 1.695771340648049E9, 0.0, 2023-09-26 18:35:40.648
104.0, 40330.97360503359, 65303.370690747586, -29737.230209974077, -18686.41599254799, -22088.99969923493, -3954.291815077283, -187500.02235174447, -1468.5543142025847, 14858.299774920915, -21767.156930822963, -187500.02235174447, -4894.115614189579, -4291.758452863509, -5238.779513690414, -1090.563963718887, -21226.49058419354, 0.024, 0.982, 0.224, 192.0, 0.0, 0.0, 0.0, 0.0, 0.0, 0.0, 0.0, 0.0, 0.0, 1.695771340648052E9, 0.0, 2023-09-26 18:35:40.648
106.0, 40339.40021269324, 65321.36384503411, -29726.523724379986, -18660.800893402207, -22080.95307123102, -3941.7301346934005, -187500.02235174447, -1486.0110266221795, 14849.64964981671, -21766.128750578016, -187500.02235174447, -4895.412015367987, -4301.034426812462, -5239.204196835065, -1075.9235711006609, -21226.20001151562, 0.024, 0.982, 0.224, 192.0, 0.0, 0.0, 0.0, 0.0, 0.0, 0.0, 0.0, 0.0, 0.0, 1.695771340708205E9, 0.0, 2023-09-26 18:35:40.708
108.0, 40349.70436688714, 65271.05006826521, -29718.655910331716, -18668.534596983744, -22078.18145491856, -3938.1315038360963, -187500.02235174447, -1462.452287966286, 14870.973214027073, -21743.19586076687, -187500.02235174447, -4881.39747159451, -4279.263827712993, -5231.090513597788, -1087.6805886841523, -21212.654854375705, 0.02, 0.982, 0.226, 192.0, 0.0, 80.0, 15.0, 88.0, 3.5, 8.0, 0.0, 0.0, 0.0, 1.695771340708217E9, 0.0, 2023-09-26 18:35:40.708
110.0, 40346.03868079647, 65312.40079550753, -29724.26619819, -18678.905806411007, -22086.585710833755, -3950.2014458419617, -187500.02235174447, -1478.0538055960901, 14866.189940713639, -21751.331895748604, -187500.02235174447, -4886.024282696758, -4300.453281456624, -5232.118693842733, -1061.3278819713453, -21214.375938698762, 0.02, 0.982, 0.226, 192.0, 0.0, 0.0, 0.0, 0.0, 0.0, 0.0, 0.0, 0.0, 0.0, 1.695771340708221E9, 0.0, 2023-09-26 18:35:40.708
112.0, 40352.00659656603, 65257.05787623619, -29723.17096271169, -18682.41503029049, -22077.64501305163, -3948.9273964080094, -187500.02235174447, -1465.5591804455735, 14862.568958111879, -21751.555413193157, -187500.02235174447, -4888.304160631199, -4289.590333651345, -5218.46177798054, -1090.8768881412611, -21227.317598738384, 0.02, 0.982, 0.226, 192.0, 0.0, 0.0, 0.0, 0.0, 0.0, 0.0, 0.0, 0.0, 0.0, 1.695771340708225E9, 0.0, 2023-09-26 18:35:40.708
114.0, 40341.63538713878, 65331.89151667256, -29733.899800050236, -18680.98451864535, -22089.670251568587, -3952.883655176599, -187500.02235174447, -1466.676767668339, 14858.500940621012, -21756.271631273226, -187500.02235174447, -4891.478108343853, -4298.128700033271, -5238.533644501405, -1053.7729923454515, -21223.24958124752, 0.02, 0.982, 0.226, 192.0, 0.0, 0.0, 0.0, 0.0, 0.0, 0.0, 0.0, 0.0, 0.0, 1.695771340708228E9, 0.0, 2023-09-26 18:35:40.708
116.0, 40339.377860948785, 65263.91986178397, -29734.97268378409, -18688.070021637683, -22084.328184643768, -3956.459934289448, -187500.02235174447, -1478.8361166520258, 14854.544681852423, -21762.6865819319, -187500.02235174447, -4900.217640425878, -4295.13356627626, -5256.862074954757, -1093.8720218982724, -21237.44293897664, 0.02, 0.982, 0.226, 192.0, 0.0, 0.0, 0.0, 0.0, 0.0, 0.0, 0.0, 0.0, 0.0, 1.695771340708232E9, 0.0, 2023-09-26 18:35:40.708
118.0, 40337.05327952543, 65345.526080790296, -29742.125242009788, -18697.36834733109, -22093.805324292818, -3973.2460943753836, -187500.02235174447, -1485.7428056887159, 14850.789588783931, -21766.419323255937, -187500.02235174447, -4903.324532905166, -4310.556269950423, -5248.547226017383, -1071.9673123320715, -21238.9628575996, 0.028, 0.99, 0.226, 192.0, 0.0, 112.0, 15.0, 120.0, 3.5, 8.0, 0.0, 0.0, 0.0, 1.695771340708235E9, 0.0, 2023-09-26 18:35:40.708
120.0, 40342.395346450256, 65254.66623957947, -29729.183581970166, -18671.5073789963, -22083.344707887736, -3945.0605446172412, -187500.02235174447, -1478.3667300184645, 14861.183149955648, -21755.7351894063, -187500.02235174447, -4900.329399148154, -4294.4183104536905, -5228.855339152257, -1104.5114522589986, -21242.315619267898, 0.028, 0.99, 0.226, 192.0, 0.0, 0.0, 0.0, 0.0, 0.0, 0.0, 0.0, 0.0, 0.0, 1.695771340768464E9, 0.0, 2023-09-26 18:35:40.768
122.0, 40332.60528237883, 65349.012952925324, -29743.779271099484, -18691.176914116968, -22096.264016182904, -3962.740774481389, -187500.02235174447, -1471.4600409817745, 14856.22106268657, -21766.106398833563, -187500.02235174447, -4902.005779982303, -4304.9906855810505, -5268.261464626964, -1063.697166883608, -21221.997883558022, 0.028, 0.99, 0.226, 192.0, 0.0, 0.0, 0.0, 0.0, 0.0, 0.0, 0.0, 0.0, 0.0, 1.695771340768473E9, 0.0, 2023-09-26 18:35:40.768
124.0, 40331.80061957844, 65265.37272517356, -29739.17481174169, -18684.5607977582, -22090.519617857888, -3964.350100082171, -187500.02235174447, -1484.4017010213972, 14851.214271928582, -21765.078218588616, -187500.02235174447, -4914.4557016439085, -4296.653484899221, -5243.5180835149395, -1098.1635568336912, -21238.314657010396, 0.028, 0.99, 0.226, 192.0, 0.0, 0.0, 0.0, 0.0, 0.0, 0.0, 0.0, 0.0, 0.0, 1.695771340768477E9, 0.0, 2023-09-26 18:35:40.768
126.0, 40330.83949456686, 65350.622278526105, -29741.544096653954, -18691.46748679489, -22097.269844683393, -3974.4977920648807, -187500.02235174447, -1476.7797561621376, 14837.400893855203, -21773.057791359162, -187500.02235174447, -4914.008666754802, -4319.944002621652, -5253.75518247547, -1075.6106466782865, -21241.44390123414, 0.028, 0.99, 0.226, 192.0, 0.0, 0.0, 0.0, 0.0, 0.0, 0.0, 0.0, 0.0, 0.0, 1.69577134076848E9, 0.0, 2023-09-26 18:35:40.768
128.0, 40326.83853230936, 65264.143379228524, -29745.142727511255, -18681.65507097901, -22099.884998784662, -3962.2266843589173, -187500.02235174447, -1492.5600877475845, 14857.808036542898, -21758.126826063017, -187500.02235174447, -4900.709378803895, -4301.861441357308, -5225.279060039408, -1092.7097311865964, -21233.374921485774, 0.024, 0.986, 0.222, 192.0, 0.0, 96.0, 15.0, 104.0, 3.0, 120.0, 0.0, 0.0, 0.0, 1.695771340768483E9, 0.0, 2023-09-26 18:35:40.768
130.0, 40332.31470970091, 65341.43571155497, -29751.31180898092, -18684.851370436118, -22100.577902862777, -3958.7621639683443, -187500.02235174447, -1468.0849275690232, 14843.79349276942, -21766.44167500039, -187500.02235174447, -4917.853166801116, -4316.5688892089, -5262.13708664621, -1087.4123677506886, -21238.82874713287, 0.024, 0.986, 0.222, 192.0, 0.0, 0.0, 0.0, 0.0, 0.0, 0.0, 0.0, 0.0, 0.0, 1.695771340768487E9, 0.0, 2023-09-26 18:35:40.768
132.0, 40338.34968070385, 65259.53891987073, -29740.046529775445, -18674.21194007539, -22087.189207934047, -3950.3132045642383, -187500.02235174447, -1486.3239510445537, 14852.309507406891, -21748.090892802586, -187500.02235174447, -4905.380893395054, -4306.890583859752, -5247.206121350065, -1101.3598562908003, -21231.76559588499, 0.024, 0.986, 0.222, 192.0, 0.0, 0.0, 0.0, 0.0, 0.0, 0.0, 0.0, 0.0, 0.0, 1.69577134076849E9, 0.0, 2023-09-26 18:35:40.768
134.0, 40338.88612257077, 65333.23262133988, -29745.45565193363, -18685.097239625127, -22098.834466795262, -3954.224759843917, -187500.02235174447, -1457.3560902304757, 14849.023800971961, -21748.090892802586, -187500.02235174447, -4907.012570740291, -4310.869194372796, -5243.585138748305, -1083.0537775819037, -21226.132956282254, 0.024, 0.986, 0.222, 192.0, 0.0, 0.0, 0.0, 0.0, 0.0, 0.0, 0.0, 0.0, 0.0, 1.695771340768493E9, 0.0, 2023-09-26 18:35:40.768
136.0, 40339.310805715424, 65254.93446051294, -29739.197163486144, -18677.65410872151, -22090.452562624523, -3956.191713355984, -187500.02235174447, -1484.4687562547633, 14849.806112027898, -21742.882936344497, -187500.02235174447, -4902.899849760514, -4304.834223369864, -5236.544339244883, -1092.7767864199623, -21228.97162782808, 0.024, 0.986, 0.222, 192.0, 0.0, 0.0, 0.0, 0.0, 0.0, 0.0, 0.0, 0.0, 0.0, 1.695771340828822E9, 0.0, 2023-09-26 18:35:40.828
138.0, 40342.44004993916, 65316.89349614305, -29740.627675131283, -18684.381983802556, -22092.03953648085, -3951.87782667611, -187500.02235174447, -1452.6845756393166, 14852.42126612917, -21739.01608455373, -187500.02235174447, -4902.92220150497, -4299.603915167322, -5240.075914868822, -1081.69032117013, -21224.68009289266, 0.026000000000000002, 0.99, 0.22, 192.0, 0.0, 104.0, 15.0, 120.0, 3.0, 112.0, 0.0, 0.0, 0.0, 1.695771340828832E9, 0.0, 2023-09-26 18:35:40.828
140.0, 40332.113544000815, 65259.8518442931, -29748.294323479455, -18686.147771614527, -22095.95109176053, -3966.674681505523, -187500.02235174447, -1503.020704152668, 14846.006315470495, -21748.247355013773, -187500.02235174447, -4911.30410567571, -4313.931383363174, -5245.194464349087, -1087.6358851952416, -21235.274819764476, 0.026000000000000002, 0.99, 0.22, 192.0, 0.0, 0.0, 0.0, 0.0, 0.0, 0.0, 0.0, 0.0, 0.0, 1.695771340828835E9, 0.0, 2023-09-26 18:35:40.828
142.0, 40331.84532306735, 65282.44945793742, -29749.769538613506, -18693.099164140127, -22102.433097652567, -3956.571693011724, -187500.02235174447, -1465.7156426567606, 14850.499016106012, -21745.96747707933, -187500.02235174447, -4911.147643464523, -4306.75647339302, -5244.590967248794, -1098.6776469561635, -21232.88318310776, 0.026000000000000002, 0.99, 0.22, 192.0, 0.0, 0.0, 0.0, 0.0, 0.0, 0.0, 0.0, 0.0, 0.0, 1.695771340828839E9, 0.0, 2023-09-26 18:35:40.828
144.0, 40319.88713978376, 65257.16963495847, -29756.36330322782, -18691.26632109479, -22095.884036527164, -3965.4676873049366, -187500.02235174447, -1491.6660179693722, 14832.058826930384, -21760.02672434172, -187500.02235174447, -4926.190367482945, -4314.266659530003, -5255.722135987537, -1092.1285858307583, -21237.755863399016, 0.026000000000000002, 0.99, 0.22, 192.0, 0.0, 0.0, 0.0, 0.0, 0.0, 0.0, 0.0, 0.0, 0.0, 1.695771340828842E9, 0.0, 2023-09-26 18:35:40.828
146.0, 40325.3186136864, 65274.73810610034, -29748.31667522391, -18683.398507046524, -22091.23487368046, -3950.8496464311656, -187500.02235174447, -1452.5951686614953, 14840.060751445384, -21753.276497516217, -187500.02235174447, -4917.853166801116, -4309.6174966833, -5246.624975994227, -1097.3365422888448, -21231.87735460727, 0.026000000000000002, 0.99, 0.22, 192.0, 0.0, 0.0, 0.0, 0.0, 0.0, 0.0, 0.0, 0.0, 0.0, 1.695771340828851E9, 0.0, 2023-09-26 18:35:40.828
148.0, 40331.57710213389, 65249.1006552101, -29744.963913555614, -18670.36744002908, -22082.025954964873, -3954.940015666487, -187500.02235174447, -1486.703930700294, 14847.503882349001, -21749.566107936636, -187500.02235174447, -4908.711303318894, -4316.166557808704, -5240.120618357732, -1075.0518530669037, -21222.064938791387, 0.024, 0.984, 0.222, 192.0, 0.0, 96.0, 15.0, 96.0, 3.0, 120.0, 0.0, 0.0, 0.0, 1.695771340828854E9, 0.0, 2023-09-26 18:35:40.828
150.0, 40341.210703994126, 65246.01611447527, -29746.036797289467, -18676.245948820826, -22091.212521936002, -3953.0848208766965, -187500.02235174447, -1464.57570368954, 14846.74392303752, -21746.995657324274, -187500.02235174447, -4906.92316376247, -4303.247249513537, -5236.9466706450785, -1092.821489908873, -21221.97553181357, 0.024, 0.984, 0.222, 192.0, 0.0, 0.0, 0.0, 0.0, 0.0, 0.0, 0.0, 0.0, 0.0, 1.695771340888055E9, 0.0, 2023-09-26 18:35:40.888
152.0, 40343.73645111757, 65242.21631791787, -29739.085404763868, -18667.97580337236, -22075.476893839466, -3957.3316523232047, -187500.02235174447, -1490.481375513241, 14846.520405592968, -21750.080198059106, -187500.02235174447, -4904.799748039216, -4316.390075253257, -5242.914586414646, -1075.3424257448228, -21224.009540559, 0.024, 0.984, 0.222, 192.0, 0.0, 0.0, 0.0, 0.0, 0.0, 0.0, 0.0, 0.0, 0.0, 1.695771340888065E9, 0.0, 2023-09-26 18:35:40.888
154.0, 40345.43518369617, 65215.10365189358, -29744.248657733046, -18681.900940168016, -22098.119210972694, -3951.2743295758164, -187500.02235174447, -1459.7253751427384, 14862.233681945048, -21733.674017628913, -187500.02235174447, -4889.399396109509, -4286.148165005227, -5223.7367896719925, -1095.88367889925, -21217.840459089337, 0.024, 0.984, 0.222, 192.0, 0.0, 0.0, 0.0, 0.0, 0.0, 0.0, 0.0, 0.0, 0.0, 1.695771340888069E9, 0.0, 2023-09-26 18:35:40.888
156.0, 40335.063974268916, 65262.042315249724, -29753.725797382092, -18687.824152448673, -22091.637205080653, -3973.581370542213, -187500.02235174447, -1493.0071226366906, 14832.50586181949, -21767.40280001197, -187500.02235174447, -4918.367256923587, -4323.564985223411, -5261.80181047938, -1077.398786234711, -21238.515822710495, 0.024, 0.984, 0.222, 192.0, 0.0, 0.0, 0.0, 0.0, 0.0, 0.0, 0.0, 0.0, 0.0, 1.695771340888072E9, 0.0, 2023-09-26 18:35:40.888
158.0, 40335.55571264693, 65218.09878565059, -29754.195184015654, -18691.422783305978, -22092.71008881451, -3965.0877076491965, -187500.02235174447, -1470.2083432922773, 14845.961611981586, -21753.05298007166, -187500.02235174447, -4903.972733494369, -4300.050950056428, -5239.56182474635, -1100.465786512588, -21231.475023207073, 0.02, 0.988, 0.224, 192.0, 0.0, 80.0, 15.0, 112.0, 3.5, 0.0, 0.0, 0.0, 0.0, 1.695771340888075E9, 0.0, 2023-09-26 18:35:40.888
160.0, 40340.003709793535, 65261.37176291607, -29741.857021076325, -18678.034088377248, -22083.03178346536, -3961.645539003079, -187500.02235174447, -1477.3609015179757, 14833.93637346463, -21772.051962858674, -187500.02235174447, -4917.294373189732, -4320.033409599472, -5261.488886057006, -1077.532896701443, -21238.62758143277, 0.02, 0.988, 0.224, 192.0, 0.0, 0.0, 0.0, 0.0, 0.0, 0.0, 0.0, 0.0, 0.0, 1.695771340888078E9, 0.0, 2023-09-26 18:35:40.888
162.0, 40332.85115156784, 65207.14643086749, -29753.658742148727, -18690.618120505587, -22093.60415859272, -3962.9642919259422, -187500.02235174447, -1466.9449886018026, 14854.790551041431, -21754.528195205712, -187500.02235174447, -4897.7813002802495, -4295.08886278735, -5233.593908976783, -1094.2967050429231, -21225.752976626514, 0.02, 0.988, 0.224, 192.0, 0.0, 0.0, 0.0, 0.0, 0.0, 0.0, 0.0, 0.0, 0.0, 1.695771340888082E9, 0.0, 2023-09-26 18:35:40.888
164.0, 40333.81227657942, 65271.22888222086, -29750.574201413896, -18683.26439657979, -22087.300966656323, -3970.1168501516404, -187500.02235174447, -1474.2763607831432, 14835.880975232241, -21773.25895705926, -187500.02235174447, -4909.091282974635, -4314.75839790802, -5251.22943535202, -1072.9060855991943, -21234.53721219745, 0.02, 0.988, 0.224, 192.0, 0.0, 0.0, 0.0, 0.0, 0.0, 0.0, 0.0, 0.0, 0.0, 1.695771340888085E9, 0.0, 2023-09-26 18:35:40.888
166.0, 40327.82200906539, 65196.95403539587, -29755.60334391634, -18686.93008267046, -22093.47004812599, -3966.4958675498806, -187500.02235174447, -1480.6913114418164, 14844.441693358624, -21769.772084924232, -187500.02235174447, -4903.168070693979, -4294.463013942601, -5231.8951763981795, -1097.6941702001297, -21235.744206398038, 0.02, 0.988, 0.224, 192.0, 0.0, 0.0, 0.0, 0.0, 0.0, 0.0, 0.0, 0.0, 0.0, 1.695771340947906E9, 0.0, 2023-09-26 18:35:40.947
168.0, 40316.579081604374, 65288.08209754016, -29764.186413787178, -18696.139001386047, -22102.164876719104, -3984.5337253253133, -187500.02235174447, -1484.0664248545677, 14827.253201872492, -21790.11217237856, -187500.02235174447, -4918.434312156954, -4324.548461979444, -5264.528723302928, -1080.0362920804373, -21243.433206490663, 0.024, 0.984, 0.23, 192.0, 0.0, 96.0, 15.0, 96.0, 3.5, 24.0, 0.0, 0.0, 0.0, 1.695771340947915E9, 0.0, 2023-09-26 18:35:40.947
170.0, 40323.865750296805, 65202.22904708732, -29763.60526843134, -18688.539408271245, -22098.767411561897, -3975.481268820914, -187500.02235174447, -1498.8856314284362, 14832.394103097215, -21788.234625844318, -187500.02235174447, -4913.6286870990625, -4312.657333929221, -5265.713365759059, -1113.206280852113, -21247.076540836875, 0.024, 0.984, 0.23, 192.0, 0.0, 0.0, 0.0, 0.0, 0.0, 0.0, 0.0, 0.0, 0.0, 1.695771340947919E9, 0.0, 2023-09-26 18:35:40.947
172.0, 40333.588759134866, 65295.07819355467, -29768.14267255577, -18697.569513031187, -22108.80334482233, -3990.0546062057742, -187500.02235174447, -1488.4250150233527, 14835.523347320957, -21780.992660640797, -187500.02235174447, -4910.432387641953, -4310.220993783592, -5264.349909347286, -1083.6125711932864, -21239.38754074425, 0.024, 0.984, 0.23, 192.0, 0.0, 0.0, 0.0, 0.0, 0.0, 0.0, 0.0, 0.0, 0.0, 1.695771340947922E9, 0.0, 2023-09-26 18:35:40.947
174.0, 40326.860884053815, 65203.726613965824, -29760.766596885514, -18692.13803912855, -22091.816019036298, -3985.450146847981, -187500.02235174447, -1509.7262274892603, 14834.562222309378, -21786.804114199178, -187500.02235174447, -4918.479015645864, -4318.334677020869, -5255.811542965358, -1114.301516330423, -21256.196052574644, 0.024, 0.984, 0.23, 192.0, 0.0, 0.0, 0.0, 0.0, 0.0, 0.0, 0.0, 0.0, 0.0, 1.695771340947925E9, 0.0, 2023-09-26 18:35:40.947
176.0, 40337.45561092563, 65268.904300797505, -29755.64804740525, -18692.450963550924, -22089.692603313044, -3973.6707775200343, -187500.02235174447, -1476.2433142952102, 14853.360039396292, -21773.728343692823, -187500.02235174447, -4905.626762584062, -4304.8118716254085, -5250.380069062719, -1078.0246350794596, -21231.855002862812, 0.024, 0.984, 0.23, 192.0, 0.0, 0.0, 0.0, 0.0, 0.0, 0.0, 0.0, 0.0, 0.0, 1.695771340947929E9, 0.0, 2023-09-26 18:35:40.947
178.0, 40334.974567291094, 65184.21354105634, -29750.685960136172, -18683.5102657688, -22082.94237648754, -3965.870018705132, -187500.02235174447, -1496.4045877938972, 14851.773065539965, -21788.12286712204, -187500.02235174447, -4919.596602868629, -4295.625304654277, -5262.070031412844, -1096.8224521663728, -21241.600363445326, 0.018000000000000002, 0.988, 0.222, 192.0, 0.0, 72.0, 15.0, 112.0, 3.0, 120.0, 0.0, 0.0, 0.0, 1.695771340947932E9, 0.0, 2023-09-26 18:35:40.947
180.0, 40326.54795963144, 65262.757571072296, -29761.817128874914, -18699.5141147988, -22099.639129595653, -3970.6309402741126, -187500.02235174447, -1464.2627792671656, 14854.254109174504, -21785.30654732067, -187500.02235174447, -4916.981448767358, -4310.1539385502265, -5258.359641833263, -1080.148050802714, -21232.324389496374, 0.018000000000000002, 0.988, 0.222, 192.0, 0.0, 0.0, 0.0, 0.0, 0.0, 0.0, 0.0, 0.0, 0.0, 1.695771341008225E9, 0.0, 2023-09-26 18:35:41.008
182.0, 40323.48577064106, 65187.47689574682, -29753.479928193086, -18695.379042074568, -22084.03761196585, -3969.289835606794, -187500.02235174447, -1501.1431576184223, 14848.80028352741, -21787.809942699667, -187500.02235174447, -4925.4304081714645, -4308.94694434964, -5248.189598106098, -1102.2315743245572, -21252.686828695158, 0.018000000000000002, 0.988, 0.222, 192.0, 0.0, 0.0, 0.0, 0.0, 0.0, 0.0, 0.0, 0.0, 0.0, 1.695771341008238E9, 0.0, 2023-09-26 18:35:41.008
184.0, 40314.74623855904, 65269.664260108984, -29772.680076680193, -18718.244876652345, -22111.99964427944, -3978.8340304892104, -187500.02235174447, -1479.707834685783, 14849.470835861068, -21793.375527069038, -187500.02235174447, -4929.923108806981, -4313.752569407531, -5283.058319456377, -1097.6271149667639, -21249.49052923805, 0.018000000000000002, 0.988, 0.222, 192.0, 0.0, 0.0, 0.0, 0.0, 0.0, 0.0, 0.0, 0.0, 0.0, 1.695771341008242E9, 0.0, 2023-09-26 18:35:41.008
186.0, 40320.04360199495, 65213.2931605927, -29746.908515323226, -18700.542295043742, -22083.79174277684, -3969.7368704959003, -187500.02235174447, -1510.0168001671793, 14845.961611981586, -21796.21419861486, -187500.02235174447, -4939.8696350895925, -4309.125758305283, -5275.548133319394, -1113.720370974585, -21263.370962544795, 0.018000000000000002, 0.988, 0.222, 192.0, 0.0, 0.0, 0.0, 0.0, 0.0, 0.0, 0.0, 0.0, 0.0, 1.695771341008246E9, 0.0, 2023-09-26 18:35:41.008
188.0, 40331.0183085225, 65266.57971937415, -29744.472175177598, -18701.95045494443, -22094.09589697074, -3960.840876202688, -187500.02235174447, -1474.9245613723472, 14857.31629816488, -21783.674869975435, -187500.02235174447, -4927.263251216799, -4315.630115941777, -5243.652193981671, -1102.0304086244594, -21252.508014739517, 0.024, 0.986, 0.23, 192.0, 0.0, 96.0, 15.0, 104.0, 3.5, 24.0, 0.0, 0.0, 0.0, 1.695771341008249E9, 0.0, 2023-09-26 18:35:41.008
190.0, 40335.80158183594, 65218.210544372865, -29723.193314456144, -18688.762925715797, -22075.633356050654, -3955.0741261332187, -187500.02235174447, -1505.4346925538414, 14857.249242931515, -21786.64765198799, -187500.02235174447, -4927.039733772246, -4309.0363513274615, -5275.123450174743, -1094.6990364431188, -21246.271878036485, 0.024, 0.986, 0.23, 192.0, 0.0, 0.0, 0.0, 0.0, 0.0, 0.0, 0.0, 0.0, 0.0, 1.695771341008253E9, 0.0, 2023-09-26 18:35:41.008
192.0, 40343.80350635094, 65256.387323902534, -29723.97562551208, -18699.022376420784, -22085.89280675564, -3951.5425505092803, -187500.02235174447, -1464.9109798563695, 14876.739964096543, -21769.54856747968, -187500.02235174447, -4914.410998154998, -4297.100519788328, -5242.981641648012, -1095.1684230766803, -21236.437110476152, 0.024, 0.986, 0.23, 192.0, 0.0, 0.0, 0.0, 0.0, 0.0, 0.0, 0.0, 0.0, 0.0, 1.695771341008257E9, 0.0, 2023-09-26 18:35:41.008
194.0, 40334.43812542417, 65247.73719879833, -29720.533456865964, -18698.575341531676, -22090.094934713237, -3960.5056000358586, -187500.02235174447, -1504.7417884757267, 14858.03155398745, -21784.613643242556, -187500.02235174447, -4933.141760008545, -4309.751607150031, -5280.174944421643, -1092.396806764222, -21244.059055335412, 0.024, 0.986, 0.23, 192.0, 0.0, 0.0, 0.0, 0.0, 0.0, 0.0, 0.0, 0.0, 0.0, 1.695771341008261E9, 0.0, 2023-09-26 18:35:41.008
196.0, 40339.08728827087, 65254.152149457, -29718.87942777627, -18699.3129490987, -22080.774257275374, -3944.188826583484, -187500.02235174447, -1473.8516776384924, 14869.27448144847, -21779.83036992912, -187500.02235174447, -4928.291431461744, -4300.810909367909, -5250.625938251726, -1109.0712081278812, -21239.83457563336, 0.024, 0.986, 0.23, 192.0, 0.0, 0.0, 0.0, 0.0, 0.0, 0.0, 0.0, 0.0, 0.0, 1.69577134106984E9, 0.0, 2023-09-26 18:35:41.069
198.0, 40341.88125632778, 65245.99376273081, -29716.487791119554, -18688.829980949162, -22075.18632116155, -3948.0556783742522, -187500.02235174447, -1505.5911547650285, 14864.804132557409, -21779.338631551105, -187500.02235174447, -4928.693762861939, -4304.878926858774, -5245.440333538096, -1097.6047632223085, -21245.511918725006, 0.018000000000000002, 0.984, 0.226, 192.0, 0.0, 72.0, 15.0, 96.0, 3.5, 8.0, 0.0, 0.0, 0.0, 1.695771341069849E9, 0.0, 2023-09-26 18:35:41.069
200.0, 40343.60234065084, 65240.76345452827, -29716.711308564107, -18705.370271846088, -22083.56822533229, -3949.2403208303836, -187500.02235174447, -1476.4891834842185, 14880.47270542058, -21766.26286104475, -187500.02235174447, -4919.954230779914, -4293.032502297461, -5251.765877218947, -1109.8535191838168, -21236.52651745397, 0.018000000000000002, 0.984, 0.226, 192.0, 0.0, 0.0, 0.0, 0.0, 0.0, 0.0, 0.0, 0.0, 0.0, 1.695771341069852E9, 0.0, 2023-09-26 18:35:41.069
202.0, 40344.09407902886, 65265.68564959594, -29716.711308564107, -18695.624911263574, -22077.197978162527, -3956.9516726674647, -187500.02235174447, -1500.897288429414, 14869.98973727104, -21781.707916463365, -187500.02235174447, -4929.252556473321, -4304.923630347685, -5252.548188274884, -1091.0557020969036, -21248.48470073756, 0.018000000000000002, 0.984, 0.226, 192.0, 0.0, 0.0, 0.0, 0.0, 0.0, 0.0, 0.0, 0.0, 0.0, 1.695771341069856E9, 0.0, 2023-09-26 18:35:41.069
204.0, 40336.382727191776, 65239.35529462759, -29720.89108477725, -18703.98446368986, -22090.586673091257, -3953.1742278545175, -187500.02235174447, -1480.7807184196377, 14877.56697864139, -21771.60492796957, -187500.02235174447, -4922.077646503169, -4298.195755266637, -5246.446162038585, -1109.7641122059956, -21244.416683246694, 0.018000000000000002, 0.984, 0.226, 192.0, 0.0, 0.0, 0.0, 0.0, 0.0, 0.0, 0.0, 0.0, 0.0, 1.695771341069859E9, 0.0, 2023-09-26 18:35:41.069
206.0, 40329.69955559964, 65291.72543188637, -29728.334215680865, -18699.3129490987, -22093.447696381536, -3960.0585651467522, -187500.02235174447, -1498.5950587505174, 14862.948937767618, -21782.601986241578, -187500.02235174447, -4934.304050720221, -4318.401732254235, -5268.1720576491425, -1086.8759258837613, -21242.427377990174, 0.018000000000000002, 0.984, 0.226, 192.0, 0.0, 0.0, 0.0, 0.0, 0.0, 0.0, 0.0, 0.0, 0.0, 1.695771341069863E9, 0.0, 2023-09-26 18:35:41.069
208.0, 40336.583892891875, 65243.512719096274, -29717.851247531325, -18691.020451905784, -22085.28930965535, -3945.328765550705, -187500.02235174447, -1472.8234973935482, 14863.217158701082, -21780.947957151886, -187500.02235174447, -4927.352658194621, -4307.896412360241, -5256.392688321196, -1119.241251855046, -21243.232040790564, 0.026000000000000002, 0.982, 0.224, 192.0, 0.0, 104.0, 15.0, 88.0, 3.5, 0.0, 0.0, 0.0, 0.0, 1.695771341069866E9, 0.0, 2023-09-26 18:35:41.069
210.0, 40340.361337704824, 65302.34251050264, -29711.92803525067, -18686.706565225908, -22083.18824567655, -3949.910873164043, -187500.02235174447, -1475.796279406104, 14865.56409186889, -21781.64086123, -187500.02235174447, -4923.441102914942, -4311.495043217546, -5258.359641833263, -1080.2821612694456, -21230.290380750943, 0.026000000000000002, 0.982, 0.224, 192.0, 0.0, 0.0, 0.0, 0.0, 0.0, 0.0, 0.0, 0.0, 0.0, 1.695771341128701E9, 0.0, 2023-09-26 18:35:41.128
212.0, 40338.327328959385, 65233.38737885802, -29714.990224241046, -18686.907730926006, -22080.014297963895, -3942.4677422604254, -187500.02235174447, -1476.288017784121, 14874.124809995272, -21771.873148903032, -187500.02235174447, -4912.622858598574, -4291.199659252126, -5240.165321846643, -1111.8651761847946, -21236.906497109714, 0.026000000000000002, 0.982, 0.224, 192.0, 0.0, 0.0, 0.0, 0.0, 0.0, 0.0, 0.0, 0.0, 0.0, 1.695771341128713E9, 0.0, 2023-09-26 18:35:41.128
214.0, 40344.54111391796, 65301.403737235516, -29704.239035158043, -18675.754210442807, -22072.548815315822, -3935.8292741571995, -187500.02235174447, -1467.503782213185, 14868.268652947982, -21774.376544282026, -187500.02235174447, -4911.997009753824, -4309.5057379610225, -5251.251787096476, -1083.2772950264568, -21233.01729357449, 0.026000000000000002, 0.982, 0.224, 192.0, 0.0, 0.0, 0.0, 0.0, 0.0, 0.0, 0.0, 0.0, 0.0, 1.695771341128717E9, 0.0, 2023-09-26 18:35:41.128
216.0, 40343.93761681767, 65217.89761995049, -29712.129200950767, -18680.828056434162, -22075.99098396194, -3933.839968900677, -187500.02235174447, -1469.9848258477243, 14883.84781883333, -21756.316334762138, -187500.02235174447, -4899.927067747959, -4291.020845296484, -5226.530757728906, -1100.7787109349622, -21226.9599708271, 0.026000000000000002, 0.982, 0.224, 192.0, 0.0, 0.0, 0.0, 0.0, 0.0, 0.0, 0.0, 0.0, 0.0, 1.69577134112872E9, 0.0, 2023-09-26 18:35:41.128
218.0, 40325.87740729778, 65328.62816198208, -29733.60922737232, -18705.75025150183, -22099.99675750694, -3959.231550601906, -187500.02235174447, -1477.0479770956013, 14861.831350544853, -21775.985869882807, -187500.02235174447, -4918.9707540238805, -4321.508624733523, -5239.159493346155, -1082.6514461817083, -21237.688808165647, 0.028, 0.99, 0.222, 192.0, 0.0, 112.0, 15.0, 120.0, 3.0, 120.0, 0.0, 0.0, 0.0, 1.695771341128724E9, 0.0, 2023-09-26 18:35:41.128
220.0, 40328.22434046559, 65246.5525563422, -29721.785154555462, -18694.395565318533, -22091.950129503028, -3953.621262743624, -187500.02235174447, -1485.9886748777242, 14854.723495808066, -21787.69818397739, -187500.02235174447, -4928.537300650752, -4314.981915352573, -5265.6463105256935, -1124.6950775021407, -21252.463311250605, 0.028, 0.99, 0.222, 192.0, 0.0, 0.0, 0.0, 0.0, 0.0, 0.0, 0.0, 0.0, 0.0, 1.695771341128728E9, 0.0, 2023-09-26 18:35:41.128
222.0, 40331.64415736725, 65332.96440040641, -29724.26619819, -18694.79789671873, -22087.189207934047, -3950.581425497702, -187500.02235174447, -1472.0188345931572, 14853.717667307577, -21785.574768254133, -187500.02235174447, -4925.475111660375, -4322.089770089361, -5266.339214603808, -1090.9215916301719, -21242.896764623736, 0.028, 0.99, 0.222, 192.0, 0.0, 0.0, 0.0, 0.0, 0.0, 0.0, 0.0, 0.0, 0.0, 1.695771341128731E9, 0.0, 2023-09-26 18:35:41.128
224.0, 40334.12520100179, 65246.5525563422, -29713.22443642908, -18686.438344292445, -22083.702335799022, -3945.3734690396154, -187500.02235174447, -1484.9381428883248, 14871.80022857192, -21776.857587916566, -187500.02235174447, -4915.439178399942, -4300.2297640120705, -5248.793095206392, -1109.8758709282722, -21240.326314011374, 0.028, 0.99, 0.222, 192.0, 0.0, 0.0, 0.0, 0.0, 0.0, 0.0, 0.0, 0.0, 0.0, 1.695771341128734E9, 0.0, 2023-09-26 18:35:41.128
226.0, 40350.79960236545, 65313.04899609673, -29706.340099136843, -18678.347012799622, -22069.330164114257, -3931.202463054951, -187500.02235174447, -1449.4659244377524, 14870.995565771529, -21772.096666347585, -187500.02235174447, -4918.166091223489, -4309.461034472112, -5247.384935305708, -1086.1830218056466, -21229.418662717184, 0.028, 0.99, 0.222, 192.0, 0.0, 0.0, 0.0, 0.0, 0.0, 0.0, 0.0, 0.0, 0.0, 1.695771341188137E9, 0.0, 2023-09-26 18:35:41.188
228.0, 40358.22038152461, 65224.2455153758, -29697.60056705482, -18671.641489463032, -22061.41764657708, -3930.9342421214874, -187500.02235174447, -1471.7953171486042, 14882.998452544029, -21757.702142918366, -187500.02235174447, -4905.850280028615, -4290.909086574207, -5215.667809923627, -1090.139280574236, -21223.920133581178, 0.034, 0.992, 0.22, 192.0, 0.5, 8.0, 15.5, 0.0, 3.0, 112.0, 0.0, 0.0, 0.0, 1.695771341188149E9, 0.0, 2023-09-26 18:35:41.188
230.0, 40325.02804100848, 65333.03145563978, -29744.561582155417, -18717.931952229974, -22111.060871012316, -3970.943864696487, -187500.02235174447, -1472.8458491380036, 14867.955728525607, -21772.5884047256, -187500.02235174447, -4921.7870738252495, -4310.37745599478, -5267.9932436935005, -1077.242324023524, -21231.720892396082, 0.034, 0.992, 0.22, 192.0, 0.0, 0.0, 0.0, 0.0, 0.0, 0.0, 0.0, 0.0, 0.0, 1.695771341188152E9, 0.0, 2023-09-26 18:35:41.188
232.0, 40349.39144246477, 65250.665277321976, -29707.54709333743, -18683.331451813156, -22077.17562641807, -3950.8719981756212, -187500.02235174447, -1504.9206024313692, 14850.163739939182, -21791.475628790336, -187500.02235174447, -4937.589757155151, -4318.669953187698, -5270.362528605763, -1125.0974089023364, -21263.370962544795, 0.034, 0.992, 0.22, 192.0, 0.0, 0.0, 0.0, 0.0, 0.0, 0.0, 0.0, 0.0, 0.0, 1.695771341188156E9, 0.0, 2023-09-26 18:35:41.188
234.0, 40338.03675628147, 65325.54362124725, -29725.58495111286, -18706.04082417975, -22094.788801048853, -3959.9691581689312, -187500.02235174447, -1466.7214711572494, 14875.04123151794, -21768.274518045728, -187500.02235174447, -4909.851242286115, -4304.94598209214, -5249.016612650945, -1090.9662951190824, -21235.565392442393, 0.034, 0.992, 0.22, 192.0, 0.0, 0.0, 0.0, 0.0, 0.0, 0.0, 0.0, 0.0, 0.0, 1.695771341188159E9, 0.0, 2023-09-26 18:35:41.188
236.0, 40334.23695972407, 65275.16278924499, -29721.807506299916, -18691.60159726162, -22086.09397245574, -3961.35496632516, -187500.02235174447, -1502.283096585643, 14856.332821408847, -21788.726364222333, -187500.02235174447, -4928.179672739467, -4314.959563608118, -5254.895121442691, -1105.6960947151297, -21251.993924617043, 0.034, 0.992, 0.22, 192.0, 0.0, 0.0, 0.0, 0.0, 0.0, 0.0, 0.0, 0.0, 0.0, 1.695771341188162E9, 0.0, 2023-09-26 18:35:41.188
238.0, 40332.22530272309, 65332.29384807275, -29728.043643002948, -18704.99029219035, -22099.03563249536, -3969.3345390957047, -187500.02235174447, -1471.9517793597913, 14860.356135410802, -21783.07137287514, -187500.02235174447, -4927.531472150263, -4302.509641946512, -5275.145801919199, -1104.6455627257303, -21244.34962801333, 0.028, 0.99, 0.224, 192.0, 0.0, 112.0, 15.0, 120.0, 3.5, 0.0, 0.0, 0.0, 0.0, 1.695771341188166E9, 0.0, 2023-09-26 18:35:41.188
240.0, 40334.92986380218, 65297.24631276683, -29719.773497554484, -18690.908693183505, -22084.23877766595, -3967.5016960503694, -187500.02235174447, -1504.3618088199864, 14849.403780627703, -21789.50867527827, -187500.02235174447, -4933.208815241911, -4331.902185905241, -5259.320766844841, -1099.7058272011075, -21250.87633739428, 0.028, 0.99, 0.224, 192.0, 0.0, 0.0, 0.0, 0.0, 0.0, 0.0, 0.0, 0.0, 0.0, 1.695771341247982E9, 0.0, 2023-09-26 18:35:41.247
242.0, 40338.46143942612, 65318.681635699475, -29719.54998010993, -18696.474277552876, -22083.85879801021, -3953.978890654909, -187500.02235174447, -1463.0557850665791, 14863.194806956626, -21777.34932629458, -187500.02235174447, -4922.949364536925, -4305.147147792238, -5263.65700526917, -1097.9847428780488, -21234.559563941904, 0.028, 0.99, 0.224, 192.0, 0.0, 0.0, 0.0, 0.0, 0.0, 0.0, 0.0, 0.0, 0.0, 1.695771341247999E9, 0.0, 2023-09-26 18:35:41.247
244.0, 40336.718003358605, 65297.134554044555, -29715.45961087461, -18689.27701583827, -22078.919062485584, -3963.2101611149506, -187500.02235174447, -1498.2597825836876, 14858.433885387647, -21779.98683214031, -187500.02235174447, -4923.664620359495, -4307.337618748858, -5260.37129883424, -1086.4065392501998, -21237.711159910104, 0.028, 0.99, 0.224, 192.0, 0.0, 0.0, 0.0, 0.0, 0.0, 0.0, 0.0, 0.0, 0.0, 1.695771341248003E9, 0.0, 2023-09-26 18:35:41.248
246.0, 40331.197122478145, 65309.226847794875, -29731.016425015503, -18701.659882266507, -22100.08616448476, -3966.1605913830513, -187500.02235174447, -1468.151982802389, 14856.779856297953, -21778.77983793972, -187500.02235174447, -4925.877443060571, -4307.896412360241, -5250.804752207369, -1107.7748069494733, -21243.52261346848, 0.028, 0.99, 0.224, 192.0, 0.0, 0.0, 0.0, 0.0, 0.0, 0.0, 0.0, 0.0, 0.0, 1.695771341248006E9, 0.0, 2023-09-26 18:35:41.248
248.0, 40331.353584689336, 65316.155888576024, -29729.49650639254, -18691.445135050435, -22089.3126236573, -3974.3413298536934, -187500.02235174447, -1498.4833000282408, 14848.88969050523, -21780.858550174064, -187500.02235174447, -4925.251594215822, -4308.499909460534, -5266.652139026182, -1097.8729841557722, -21244.506090224517, 0.018000000000000002, 0.99, 0.22, 192.0, 0.0, 72.0, 15.0, 120.0, 3.0, 112.0, 0.0, 0.0, 0.0, 1.69577134124801E9, 0.0, 2023-09-26 18:35:41.248
250.0, 40329.02900326598, 65297.87216161158, -29730.435279659665, -18700.27407411028, -22089.156161446117, -3957.9798529124087, -187500.02235174447, -1464.419241478353, 14861.808998800398, -21778.01987862824, -187500.02235174447, -4921.340038936143, -4299.246287256037, -5259.0748976558325, -1112.7592459630068, -21240.527479711473, 0.018000000000000002, 0.99, 0.22, 192.0, 0.0, 0.0, 0.0, 0.0, 0.0, 0.0, 0.0, 0.0, 0.0, 1.695771341248013E9, 0.0, 2023-09-26 18:35:41.248
252.0, 40339.69078537116, 65319.12867058858, -29725.428488901674, -18687.824152448673, -22078.04734445183, -3957.130486623107, -187500.02235174447, -1478.6796544408387, 14849.694353305622, -21789.8439514451, -187500.02235174447, -4933.275870475277, -4323.743799179054, -5253.643423753193, -1092.7767864199623, -21239.05226457742, 0.018000000000000002, 0.99, 0.22, 192.0, 0.0, 0.0, 0.0, 0.0, 0.0, 0.0, 0.0, 0.0, 0.0, 1.695771341248016E9, 0.0, 2023-09-26 18:35:41.248
254.0, 40328.71607884361, 65282.65062363751, -29739.97947454208, -18701.54812354423, -22096.55458886082, -3956.3481755671714, -187500.02235174447, -1459.054822809079, 14861.138446466739, -21772.923680892432, -187500.02235174447, -4922.837605814649, -4304.789519880953, -5251.877635941224, -1107.5959929938308, -21225.9094388377, 0.018000000000000002, 0.99, 0.22, 192.0, 0.0, 0.0, 0.0, 0.0, 0.0, 0.0, 0.0, 0.0, 0.0, 1.69577134124802E9, 0.0, 2023-09-26 18:35:41.248
0.0, 40329.811314321916, 65329.25401082683, -29737.900762307738, -18694.37321357408, -22086.429248622568, -3960.7291174804113, -187500.02235174447, -1485.1169568439673, 14839.45725434509, -21791.36387006806, -187500.02235174447, -4940.003745556324, -4328.482369003578, -5258.8960837001905, -1101.7174842020852, -21242.427377990174, 0.018000000000000002, 0.99, 0.22, 192.0, 0.0, 0.0, 0.0, 0.0, 0.0, 0.0, 0.0, 0.0, 0.0, 1.695771341309586E9, 0.0, 2023-09-26 18:35:41.309
2.0, 40343.11060227282, 65248.117178454064, -29718.11946846479, -18679.710469211397, -22080.148408430625, -3940.1878643259843, -187500.02235174447, -1462.7875641331154, 14868.04513550343, -21768.49803549028, -187500.02235174447, -4917.719056334384, -4294.463013942601, -5244.814484693347, -1118.3471820768336, -21227.518764438482, 0.026000000000000002, 0.988, 0.22, 192.0, 0.0, 104.0, 15.0, 112.0, 3.0, 112.0, 0.0, 0.0, 0.0, 1.695771341309593E9, 0.0, 2023-09-26 18:35:41.309
4.0, 40335.2204364801, 65316.6699786985, -29724.824991801383, -18690.752230972317, -22083.23294916546, -3960.0138616578415, -187500.02235174447, -1470.76713690366, 14858.411533643191, -21776.74582919429, -187500.02235174447, -4922.949364536925, -4307.181156537671, -5255.833894709814, -1084.0819578268479, -21223.495450436527, 0.026000000000000002, 0.988, 0.22, 192.0, 0.0, 0.0, 0.0, 0.0, 0.0, 0.0, 0.0, 0.0, 0.0, 1.695771341309597E9, 0.0, 2023-09-26 18:35:41.309
6.0, 40328.067878254406, 65246.53020459774, -29732.446936660643, -18704.83382997916, -22093.917083015094, -3959.9468064244757, -187500.02235174447, -1475.7739276616487, 14859.104437721306, -21780.053887373673, -187500.02235174447, -4932.046524530235, -4301.6155721683, -5240.746467202481, -1118.1683681211912, -21236.95120059862, 0.026000000000000002, 0.988, 0.22, 192.0, 0.0, 0.0, 0.0, 0.0, 0.0, 0.0, 0.0, 0.0, 0.0, 1.695771341309601E9, 0.0, 2023-09-26 18:35:41.309
8.0, 40331.957081789624, 65333.34438006215, -29731.239942460055, -18693.657957751508, -22096.57694060528, -3962.517257036836, -187500.02235174447, -1477.2044393067886, 14846.140425937228, -21788.21227409986, -187500.02235174447, -4936.852149588126, -4334.964374895618, -5264.573426791839, -1097.7388736890405, -21235.274819764476, 0.026000000000000002, 0.988, 0.22, 192.0, 0.0, 0.0, 0.0, 0.0, 0.0, 0.0, 0.0, 0.0, 0.0, 1.695771341309604E9, 0.0, 2023-09-26 18:35:41.309
10.0, 40341.5236284165, 65243.53507084073, -29725.428488901674, -18694.529675785267, -22081.109533442206, -3957.823390701222, -187500.02235174447, -1477.1373840734225, 14852.622431829266, -21784.814808942654, -187500.02235174447, -4938.4614751889085, -4313.350238007336, -5248.793095206392, -1117.6766297431743, -21239.20872678861, 0.026000000000000002, 0.988, 0.22, 192.0, 0.0, 0.0, 0.0, 0.0, 0.0, 0.0, 0.0, 0.0, 0.0, 1.695771341309608E9, 0.0, 2023-09-26 18:35:41.309
12.0, 40332.381764934275, 65345.995467423854, -29744.002788544036, -18713.193382405447, -22102.433097652567, -3974.430736831515, -187500.02235174447, -1462.2958257550986, 14853.292984162927, -21784.88186417602, -187500.02235174447, -4938.841454844649, -4321.352162522336, -5276.196333908598, -1088.4852514845434, -21230.312732495397, 0.026000000000000002, 0.982, 0.226, 192.0, 0.0, 104.0, 15.0, 88.0, 3.5, 8.0, 0.0, 0.0, 0.0, 1.695771341309611E9, 0.0, 2023-09-26 18:35:41.309
14.0, 40344.87639008479, 65247.17840518695, -29728.356567425322, -18694.686137996454, -22084.685812555053, -3960.6620622470455, -187500.02235174447, -1482.8370789095259, 14849.336725394336, -21795.40953581447, -187500.02235174447, -4947.111600293112, -4318.289973531959, -5258.292586599897, -1122.3481443343335, -21251.703351939126, 0.026000000000000002, 0.982, 0.226, 192.0, 0.0, 0.0, 0.0, 0.0, 0.0, 0.0, 0.0, 0.0, 0.0, 1.695771341368464E9, 0.0, 2023-09-26 18:35:41.368
16.0, 40353.9735500781, 65335.84777544115, -29725.853172046325, -18690.2604925943, -22086.362193389203, -3951.7660679538335, -187500.02235174447, -1449.2424069931994, 14857.428056887158, -21780.679736218422, -187500.02235174447, -4926.749161094327, -4308.410502482713, -5261.958272690567, -1091.4133300081885, -21224.993017315035, 0.026000000000000002, 0.982, 0.226, 192.0, 0.0, 0.0, 0.0, 0.0, 0.0, 0.0, 0.0, 0.0, 0.0, 1.695771341368475E9, 0.0, 2023-09-26 18:35:41.368
18.0, 40367.78692815148, 65225.43015783193, -29709.91637824969, -18671.93206214095, -22068.681963525054, -3944.099419605663, -187500.02235174447, -1471.705910170783, 14871.84493206083, -21767.40280001197, -187500.02235174447, -4916.601469111618, -4298.754548878021, -5236.812560178347, -1110.0993883728252, -21224.2107062591, 0.026000000000000002, 0.982, 0.226, 192.0, 0.0, 0.0, 0.0, 0.0, 0.0, 0.0, 0.0, 0.0, 0.0, 1.695771341368479E9, 0.0, 2023-09-26 18:35:41.368
20.0, 40349.36909072031, 65317.9663798769, -29731.59757037134, -18691.109858883603, -22087.166856189593, -3945.194655083973, -187500.02235174447, -1449.0412412931016, 14864.51355987949, -21772.744866936788, -187500.02235174447, -4920.065989502191, -4304.543650691945, -5244.970946904534, -1094.5872777208422, -21217.706348622603, 0.026000000000000002, 0.982, 0.226, 192.0, 0.0, 0.0, 0.0, 0.0, 0.0, 0.0, 0.0, 0.0, 0.0, 1.695771341368482E9, 0.0, 2023-09-26 18:35:41.368
22.0, 40367.56341070693, 65223.77612874224, -29704.037869457945, -18669.294556295223, -22067.22910013546, -3942.199521326962, -187500.02235174447, -1478.7243579297494, 14867.106362236305, -21784.50188452028, -187500.02235174447, -4922.681143603461, -4298.508679689012, -5240.254728824464, -1109.8982226727276, -21226.758805127003, 0.024, 0.98, 0.222, 192.0, 0.0, 96.0, 15.0, 80.0, 3.0, 120.0, 0.0, 0.0, 0.0, 1.695771341368486E9, 0.0, 2023-09-26 18:35:41.368
24.0, 40357.57218093541, 65309.89740012854, -29724.914398779205, -18697.70362349792, -22088.977347490472, -3959.186847112995, -187500.02235174447, -1451.3211192275428, 14872.023746016474, -21759.803206897166, -187500.02235174447, -4911.9299545204585, -4304.096615802839, -5222.485091982495, -1088.7087689290963, -21217.48283117805, 0.024, 0.98, 0.222, 192.0, 0.0, 0.0, 0.0, 0.0, 0.0, 0.0, 0.0, 0.0, 0.0, 1.69577134136849E9, 0.0, 2023-09-26 18:35:41.368
26.0, 40350.486677943074, 65248.31834415416, -29727.954236025125, -18687.041841392736, -22082.830617765263, -3963.5901407706906, -187500.02235174447, -1492.4036255363972, 14856.824559786864, -21779.897425162486, -187500.02235174447, -4927.106789005612, -4304.8118716254085, -5260.32659534533, -1101.5833737353532, -21228.47988945006, 0.024, 0.98, 0.222, 192.0, 0.0, 0.0, 0.0, 0.0, 0.0, 0.0, 0.0, 0.0, 0.0, 1.695771341368494E9, 0.0, 2023-09-26 18:35:41.368
28.0, 40348.43031745319, 65317.3181792877, -29741.320579209398, -18703.22450437838, -22098.476838883977, -3956.5046377783583, -187500.02235174447, -1457.7584216306714, 14846.27453640396, -21783.004317641775, -187500.02235174447, -4931.398323941031, -4311.2044705396265, -5254.0234034089335, -1108.043027882937, -21231.63148541826, 0.024, 0.98, 0.222, 192.0, 0.0, 0.0, 0.0, 0.0, 0.0, 0.0, 0.0, 0.0, 0.0, 1.695771341368497E9, 0.0, 2023-09-26 18:35:41.368
30.0, 40347.51389593052, 65275.49806541182, -29734.816221572906, -18692.49566703983, -22092.41951613659, -3970.3850710851043, -187500.02235174447, -1492.9177156588694, 14844.17347242516, -21784.635994987013, -187500.02235174447, -4935.734562365361, -4329.2870318039695, -5259.924263945135, -1103.5056237585097, -21235.185412786654, 0.024, 0.98, 0.222, 192.0, 0.0, 0.0, 0.0, 0.0, 0.0, 0.0, 0.0, 0.0, 0.0, 1.695771341428798E9, 0.0, 2023-09-26 18:35:41.428
32.0, 40341.56833190541, 65331.8691649281, -29756.40800671673, -18713.193382405447, -22109.22802796698, -3977.2247048884283, -187500.02235174447, -1467.4367269798192, 14837.244431644016, -21783.831332186623, -187500.02235174447, -4935.019306542791, -4325.442531757657, -5244.769781204436, -1112.6474872407302, -21241.779177400967, 0.022, 0.992, 0.22, 192.0, 0.0, 88.0, 15.5, 0.0, 3.0, 112.0, 0.0, 0.0, 0.0, 1.695771341428805E9, 0.0, 2023-09-26 18:35:41.428
34.0, 40366.289361272975, 65275.22984447835, -29722.992148756046, -18678.99521338883, -22074.783989761352, -3955.3423470666826, -187500.02235174447, -1486.0110266221795, 14852.488321362534, -21780.54562575169, -187500.02235174447, -4925.788036082749, -4309.841014127853, -5243.853359681769, -1115.0167721529929, -21232.413796474197, 0.022, 0.992, 0.22, 192.0, 0.0, 0.0, 0.0, 0.0, 0.0, 0.0, 0.0, 0.0, 0.0, 1.695771341428808E9, 0.0, 2023-09-26 18:35:41.428
36.0, 40361.88606761528, 65285.891626583536, -29730.144706981744, -18691.46748679489, -22079.32139388578, -3950.939053408987, -187500.02235174447, -1440.3017092110765, 14862.568958111879, -21760.83138714211, -187500.02235174447, -4918.076684245669, -4299.7603773785095, -5240.500598013473, -1105.785501692951, -21225.574162670873, 0.022, 0.992, 0.22, 192.0, 0.0, 0.0, 0.0, 0.0, 0.0, 0.0, 0.0, 0.0, 0.0, 1.695771341428812E9, 0.0, 2023-09-26 18:35:41.428
38.0, 40347.37978546379, 65291.72543188637, -29737.49843090754, -18697.45775430891, -22087.345670145234, -3974.07310892023, -187500.02235174447, -1481.5853812200287, 14851.03545797294, -21773.951861137375, -187500.02235174447, -4927.3079547057105, -4312.590278695855, -5240.120618357732, -1093.5814492203533, -21227.608171416305, 0.022, 0.992, 0.22, 192.0, 0.0, 0.0, 0.0, 0.0, 0.0, 0.0, 0.0, 0.0, 0.0, 1.695771341428815E9, 0.0, 2023-09-26 18:35:41.428
40.0, 40329.34192768836, 65308.176315805475, -29755.268067749512, -18721.12825168708, -22109.3174349448, -3983.840821247199, -187500.02235174447, -1467.3920234909087, 14834.718684520565, -21799.32109109415, -187500.02235174447, -4948.9667950829025, -4322.916784634207, -5246.312051571853, -1121.722295489585, -21249.44582574914, 0.022, 0.992, 0.22, 192.0, 0.0, 0.0, 0.0, 0.0, 0.0, 0.0, 0.0, 0.0, 0.0, 1.695771341428819E9, 0.0, 2023-09-26 18:35:41.428
42.0, 40328.067878254406, 65334.3725603071, -29751.378864214286, -18705.07969916817, -22100.935530774062, -3986.9253619820315, -187500.02235174447, -1493.0071226366906, 14826.40383558319, -21800.237512616815, -187500.02235174447, -4950.062030561213, -4332.863310916819, -5278.118583931754, -1111.1275686177694, -21245.377808258272, 0.022, 0.986, 0.224, 192.0, 0.0, 88.0, 15.0, 104.0, 3.5, 0.0, 0.0, 0.0, 0.0, 1.695771341428822E9, 0.0, 2023-09-26 18:35:41.428
44.0, 40339.713137115614, 65295.391117977044, -29743.533401910474, -18702.93393170046, -22096.487533627456, -3961.3102628362494, -187500.02235174447, -1458.1831047753221, 14843.45821660259, -21787.7428874663, -187500.02235174447, -4941.791885112749, -4311.048008328439, -5262.002976179478, -1127.980783937071, -21242.785005901456, 0.022, 0.986, 0.224, 192.0, 0.0, 0.0, 0.0, 0.0, 0.0, 0.0, 0.0, 0.0, 0.0, 1.695771341488105E9, 0.0, 2023-09-26 18:35:41.488
46.0, 40340.271930727, 65333.5231940178, -29740.717082109106, -18698.307120598212, -22092.307757414314, -3974.475440320425, -187500.02235174447, -1476.5785904620398, 14836.998562455006, -21783.07137287514, -187500.02235174447, -4941.657774646017, -4321.32981077788, -5267.56856054885, -1099.0799783563589, -21229.39631097273, 0.022, 0.986, 0.224, 192.0, 0.0, 0.0, 0.0, 0.0, 0.0, 0.0, 0.0, 0.0, 0.0, 1.695771341488116E9, 0.0, 2023-09-26 18:35:41.488
48.0, 40344.205837751135, 65288.59618766263, -29742.281704220975, -18702.665710766996, -22093.47004812599, -3979.5716380562353, -187500.02235174447, -1466.0956223125008, 14850.521367850468, -21775.69529720489, -187500.02235174447, -4935.913376321003, -4305.571830936889, -5231.269327553431, -1119.2189001105905, -21236.370055242784, 0.022, 0.986, 0.224, 192.0, 0.0, 0.0, 0.0, 0.0, 0.0, 0.0, 0.0, 0.0, 0.0, 1.69577134148812E9, 0.0, 2023-09-26 18:35:41.488
50.0, 40339.40021269324, 65359.2277001414, -29749.23309674658, -18701.458716566412, -22100.42144065159, -3981.002149701375, -187500.02235174447, -1487.061558611579, 14838.607888055789, -21782.110247863562, -187500.02235174447, -4943.937652580458, -4326.716581191609, -5267.769726248947, -1098.0294463669595, -21233.44197671914, 0.022, 0.986, 0.224, 192.0, 0.0, 0.0, 0.0, 0.0, 0.0, 0.0, 0.0, 0.0, 0.0, 1.695771341488123E9, 0.0, 2023-09-26 18:35:41.488
52.0, 40345.90457032974, 65282.40475444851, -29741.20882048712, -18696.250760108323, -22090.832542280263, -3966.741736738889, -187500.02235174447, -1470.8788956259366, 14845.201652670105, -21778.668079217445, -187500.02235174447, -4948.564463682707, -4314.065493829906, -5264.32755760283, -1125.946775191638, -21238.337008754854, 0.018000000000000002, 0.988, 0.222, 192.0, 0.0, 72.0, 15.0, 112.0, 3.0, 120.0, 0.0, 0.0, 0.0, 1.695771341488127E9, 0.0, 2023-09-26 18:35:41.488
54.0, 40338.55084640394, 65358.04305768527, -29746.93086706768, -18702.55395204472, -22100.75671681842, -3975.1459926540847, -187500.02235174447, -1460.641796665406, 14840.217213656571, -21766.776951167223, -187500.02235174447, -4939.601414156129, -4316.814758397908, -5253.956348175568, -1096.0401411104372, -21222.064938791387, 0.018000000000000002, 0.988, 0.222, 192.0, 0.0, 0.0, 0.0, 0.0, 0.0, 0.0, 0.0, 0.0, 0.0, 1.69577134148813E9, 0.0, 2023-09-26 18:35:41.488
56.0, 40339.33315745988, 65283.499989926815, -29747.80258510144, -18688.74057397134, -22092.911254514605, -3969.1557251400623, -187500.02235174447, -1472.5552764600845, 14830.94123970762, -21769.950898879873, -187500.02235174447, -4947.357469482121, -4327.610650969822, -5255.632729009715, -1126.2149961251016, -21236.52651745397, 0.018000000000000002, 0.988, 0.222, 192.0, 0.0, 0.0, 0.0, 0.0, 0.0, 0.0, 0.0, 0.0, 0.0, 1.695771341488133E9, 0.0, 2023-09-26 18:35:41.488
58.0, 40341.56833190541, 65362.73692402088, -29744.002788544036, -18689.567588516187, -22093.335937659256, -3972.709652508456, -187500.02235174447, -1459.2559885091769, 14834.450463587102, -21758.484453974303, -187500.02235174447, -4933.857015831115, -4319.362857265814, -5252.168208619143, -1096.911859144194, -21219.069805034378, 0.018000000000000002, 0.988, 0.222, 192.0, 0.0, 0.0, 0.0, 0.0, 0.0, 0.0, 0.0, 0.0, 0.0, 1.695771341488137E9, 0.0, 2023-09-26 18:35:41.488
60.0, 40339.04258478196, 65270.73714384284, -29741.20882048712, -18688.874684438073, -22096.465181883003, -3969.2451321178837, -187500.02235174447, -1477.4726602402523, 14839.479606089546, -21753.790587638687, -187500.02235174447, -4935.376934454076, -4315.764226408509, -5242.735772459004, -1119.2859553439564, -21227.317598738384, 0.018000000000000002, 0.988, 0.222, 192.0, 0.0, 0.0, 0.0, 0.0, 0.0, 0.0, 0.0, 0.0, 0.0, 1.695771341547933E9, 0.0, 2023-09-26 18:35:41.547
62.0, 40329.43133466617, 65364.03332519929, -29759.31373349592, -18703.671539267485, -22109.965635534005, -3979.92926596752, -187500.02235174447, -1466.9673403462577, 14832.729379264043, -21756.383389995503, -187500.02235174447, -4936.382762954565, -4326.537767235967, -5250.983566163011, -1099.5493649899204, -21219.360377712295, 0.018000000000000002, 0.98, 0.224, 192.0, 0.0, 72.0, 15.0, 80.0, 3.5, 0.0, 0.0, 0.0, 0.0, 1.695771341547941E9, 0.0, 2023-09-26 18:35:41.547
64.0, 40345.01050055152, 65261.05883849369, -29746.30501822293, -18683.242044835337, -22092.598330092234, -3964.350100082171, -187500.02235174447, -1484.0440731101123, 14832.371751352759, -21755.131692306008, -187500.02235174447, -4945.792847370249, -4321.374514266791, -5235.136179344199, -1132.8534642283278, -21235.34187499784, 0.018000000000000002, 0.98, 0.224, 192.0, 0.0, 0.0, 0.0, 0.0, 0.0, 0.0, 0.0, 0.0, 0.0, 1.695771341547945E9, 0.0, 2023-09-26 18:35:41.547
66.0, 40344.205837751135, 65342.68740924447, -29752.11647178131, -18686.30423382571, -22101.94135927455, -3966.4958675498806, -187500.02235174447, -1455.2773779961321, 14840.46308284558, -21748.292058502684, -187500.02235174447, -4939.534358922763, -4330.024639370995, -5252.1458568746875, -1108.333600560856, -21217.952217811613, 0.018000000000000002, 0.98, 0.224, 192.0, 0.0, 0.0, 0.0, 0.0, 0.0, 0.0, 0.0, 0.0, 0.0, 1.695771341547948E9, 0.0, 2023-09-26 18:35:41.547
68.0, 40340.987186549566, 65231.5992393016, -29737.654893118728, -18680.31396631169, -22085.758696288907, -3957.577521512213, -187500.02235174447, -1479.6407794524168, 14848.196786427116, -21751.153081792963, -187500.02235174447, -4940.830760101171, -4301.28029600147, -5232.431618265106, -1119.8894524442499, -21221.72966262456, 0.018000000000000002, 0.98, 0.224, 192.0, 0.0, 0.0, 0.0, 0.0, 0.0, 0.0, 0.0, 0.0, 0.0, 1.695771341547952E9, 0.0, 2023-09-26 18:35:41.547
70.0, 40333.70051785714, 65310.769118162294, -29754.575163671398, -18694.395565318533, -22101.248455196437, -3960.4385448024923, -187500.02235174447, -1444.9732238022357, 14841.848891001808, -21760.004372597265, -187500.02235174447, -4952.6101294291175, -4316.211261297615, -5251.6764702411265, -1098.655295211708, -21215.225304988064, 0.018000000000000002, 0.98, 0.224, 192.0, 0.0, 0.0, 0.0, 0.0, 0.0, 0.0, 0.0, 0.0, 0.0, 1.695771341547955E9, 0.0, 2023-09-26 18:35:41.547
72.0, 40335.75687834703, 65227.508870066275, -29739.26421871951, -18681.6103674901, -22078.293213640834, -3953.576559254713, -187500.02235174447, -1473.1364218159226, 14839.03257120044, -21766.128750578016, -187500.02235174447, -4955.515856208308, -4318.893470632252, -5244.233339337509, -1116.134359375758, -21221.52849692446, 0.02, 0.986, 0.224, 192.0, 0.0, 80.0, 15.0, 104.0, 3.5, 0.0, 0.0, 0.0, 0.0, 1.695771341547959E9, 0.0, 2023-09-26 18:35:41.547
74.0, 40336.33802370287, 65302.63308318056, -29754.93279158268, -18699.156486887514, -22098.40978365061, -3961.2432076028836, -187500.02235174447, -1443.1180290124453, 14843.994658469519, -21764.228852299315, -187500.02235174447, -4950.2184927724, -4319.80989215492, -5244.725077715526, -1102.0527603689147, -21214.666511376683, 0.02, 0.986, 0.224, 192.0, 0.0, 0.0, 0.0, 0.0, 0.0, 0.0, 0.0, 0.0, 0.0, 1.695771341608238E9, 0.0, 2023-09-26 18:35:41.608
76.0, 40341.38951794976, 65241.635172562026, -29735.26325646201, -18689.567588516187, -22081.444809609035, -3968.1722483840285, -187500.02235174447, -1481.317160286565, 14843.905251491697, -21774.6894687044, -187500.02235174447, -4959.6509289325395, -4320.279278788481, -5251.497656285484, -1109.0041528945153, -21229.59747667283, 0.02, 0.986, 0.224, 192.0, 0.0, 0.0, 0.0, 0.0, 0.0, 0.0, 0.0, 0.0, 0.0, 1.69577134160825E9, 0.0, 2023-09-26 18:35:41.608
78.0, 40330.303052699936, 65298.98974883435, -29755.580992171886, -18711.584056804666, -22113.631321624678, -3979.2810653783163, -187500.02235174447, -1453.6904041398054, 14831.790605996921, -21787.519370021746, -187500.02235174447, -4969.731565681883, -4315.719522919599, -5267.926188460135, -1109.0935598723365, -21235.319523253387, 0.02, 0.986, 0.224, 192.0, 0.0, 0.0, 0.0, 0.0, 0.0, 0.0, 0.0, 0.0, 0.0, 1.695771341608254E9, 0.0, 2023-09-26 18:35:41.608
80.0, 40337.18738999217, 65251.76051280028, -29744.49452692205, -18692.786239717752, -22075.253376394914, -3980.868039234643, -187500.02235174447, -1496.2034220937994, 14833.578745553345, -21793.59904451359, -187500.02235174447, -4966.490562735863, -4330.337563793369, -5267.166229148654, -1108.624173238775, -21243.58966870185, 0.02, 0.986, 0.224, 192.0, 0.0, 0.0, 0.0, 0.0, 0.0, 0.0, 0.0, 0.0, 0.0, 1.695771341608257E9, 0.0, 2023-09-26 18:35:41.608
82.0, 40346.82099185241, 65269.798370575714, -29742.281704220975, -18694.686137996454, -22082.80826602081, -3967.8146204727436, -187500.02235174447, -1453.0198518061463, 14850.02962947245, -21773.862454159553, -187500.02235174447, -4943.982356069369, -4311.47269147309, -5244.792132948892, -1111.0828651288589, -21224.590685914838, 0.02, 0.984, 0.228, 192.0, 0.0, 80.0, 15.0, 96.0, 3.5, 16.0, 0.0, 0.0, 0.0, 1.695771341608261E9, 0.0, 2023-09-26 18:35:41.608
84.0, 40351.537209932474, 65245.7031900529, -29736.87258206279, -18680.693945967432, -22069.330164114257, -3969.893332707087, -187500.02235174447, -1487.732110945238, 14843.905251491697, -21783.07137287514, -187500.02235174447, -4952.140742795556, -4313.350238007336, -5243.741600959493, -1101.7621876909957, -21230.513898195495, 0.02, 0.984, 0.228, 192.0, 0.0, 0.0, 0.0, 0.0, 0.0, 0.0, 0.0, 0.0, 0.0, 1.695771341608264E9, 0.0, 2023-09-26 18:35:41.608
86.0, 40348.20680000864, 65239.80232951669, -29749.568372913407, -18690.863989694597, -22076.527425828866, -3960.97498666942, -187500.02235174447, -1452.9080930838697, 14857.13748420924, -21772.297832047683, -187500.02235174447, -4942.305975235221, -4295.781766865464, -5245.842664938291, -1106.5007575155207, -21220.76853761298, 0.02, 0.984, 0.228, 192.0, 0.0, 0.0, 0.0, 0.0, 0.0, 0.0, 0.0, 0.0, 0.0, 1.695771341608272E9, 0.0, 2023-09-26 18:35:41.608
88.0, 40339.534323159976, 65238.349466127096, -29755.31277123842, -18687.019489648283, -22077.555606073813, -3973.201390886473, -187500.02235174447, -1489.9449336463135, 14839.524309578457, -21792.16853286845, -187500.02235174447, -4956.253463775332, -4303.9848570805625, -5256.012708665456, -1105.561984248398, -21231.564430184895, 0.02, 0.984, 0.228, 192.0, 0.0, 0.0, 0.0, 0.0, 0.0, 0.0, 0.0, 0.0, 0.0, 1.695771341608275E9, 0.0, 2023-09-26 18:35:41.608
90.0, 40338.64025338176, 65217.56234378366, -29755.80450961644, -18695.334338585657, -22082.5623968318, -3961.8914081920875, -187500.02235174447, -1456.0820407965232, 14852.868301018276, -21786.379431054527, -187500.02235174447, -4946.753972381827, -4307.985819338062, -5240.32178405783, -1120.1576733777135, -21225.2612382485, 0.02, 0.984, 0.228, 192.0, 0.0, 0.0, 0.0, 0.0, 0.0, 0.0, 0.0, 0.0, 0.0, 1.695771341668516E9, 0.0, 2023-09-26 18:35:41.668
92.0, 40338.34968070385, 65242.90922199598, -29752.89878283725, -18687.913559426495, -22071.922966471073, -3974.3413298536934, -187500.02235174447, -1483.8429074100147, 14839.993696212017, -21802.629149273533, -187500.02235174447, -4957.013423086813, -4315.183081052671, -5241.573481747328, -1108.5124145164984, -21232.234982518552, 0.022, 0.986, 0.228, 192.0, 0.0, 88.0, 15.0, 104.0, 3.5, 16.0, 0.0, 0.0, 0.0, 1.695771341668524E9, 0.0, 2023-09-26 18:35:41.668
94.0, 40334.86280856882, 65206.81115470066, -29754.50810843803, -18692.294501339737, -22087.94916724553, -3961.2208558584284, -187500.02235174447, -1458.317215242054, 14850.521367850468, -21796.549474781692, -187500.02235174447, -4954.688841663461, -4300.90031634573, -5246.1555893606655, -1125.3432780913447, -21230.983284829057, 0.022, 0.986, 0.228, 192.0, 0.0, 0.0, 0.0, 0.0, 0.0, 0.0, 0.0, 0.0, 0.0, 1.695771341668528E9, 0.0, 2023-09-26 18:35:41.668
96.0, 40343.13295401728, 65251.827568033645, -29741.812317587417, -18679.79987618922, -22071.364172859692, -3965.0877076491965, -187500.02235174447, -1470.7224334147495, 14848.397952127214, -21797.532951537723, -187500.02235174447, -4950.665527661506, -4314.80310139693, -5262.405307579674, -1104.0644173698925, -21223.942485325635, 0.022, 0.986, 0.228, 192.0, 0.0, 0.0, 0.0, 0.0, 0.0, 0.0, 0.0, 0.0, 0.0, 1.695771341668531E9, 0.0, 2023-09-26 18:35:41.668
98.0, 40327.68789859866, 65207.57111401214, -29764.298172509454, -18701.101088655127, -22101.628434852177, -3978.319940366738, -187500.02235174447, -1474.5892852055176, 14848.867338760774, -21795.990681170308, -187500.02235174447, -4949.704402649928, -4302.710807646609, -5237.371353789729, -1129.9253857046826, -21235.34187499784, 0.022, 0.986, 0.228, 192.0, 0.0, 0.0, 0.0, 0.0, 0.0, 0.0, 0.0, 0.0, 0.0, 1.695771341668534E9, 0.0, 2023-09-26 18:35:41.668
100.0, 40327.64319510975, 65271.67591710996, -29756.765634628016, -18700.676405510476, -22099.393260406647, -3994.010864974364, -187500.02235174447, -1487.7097592007829, 14833.131710664238, -21807.010091186774, -187500.02235174447, -4959.181542298978, -4322.3579910228245, -5267.926188460135, -1115.4861587865544, -21236.459462220606, 0.022, 0.986, 0.228, 192.0, 0.0, 0.0, 0.0, 0.0, 0.0, 0.0, 0.0, 0.0, 0.0, 1.695771341668537E9, 0.0, 2023-09-26 18:35:41.668
102.0, 40329.096058499345, 65199.03274763021, -29755.35747472733, -18699.75998398781, -22077.488550840444, -3989.8310887612215, -187500.02235174447, -1488.7602911901822, 14829.823652484853, -21816.241361646815, -187500.02235174447, -4968.07753659219, -4320.994534611051, -5265.065165169855, -1136.9661852081044, -21249.468177493596, 0.024, 0.986, 0.224, 192.0, 0.0, 96.0, 15.0, 104.0, 3.5, 0.0, 0.0, 0.0, 0.0, 1.69577134166854E9, 0.0, 2023-09-26 18:35:41.668
104.0, 40349.88318084278, 65258.8013123037, -29743.734567610572, -18685.36546055859, -22076.03568745085, -3982.231495646417, -187500.02235174447, -1469.7166049142606, 14848.017972471473, -21798.538780038212, -187500.02235174447, -4948.36329798261, -4313.685514174165, -5236.857263667258, -1101.0916353573366, -21226.088252793343, 0.024, 0.986, 0.224, 192.0, 0.0, 0.0, 0.0, 0.0, 0.0, 0.0, 0.0, 0.0, 0.0, 1.695771341728791E9, 0.0, 2023-09-26 18:35:41.728
106.0, 40346.46336394112, 65183.47593348932, -29746.819108345404, -18683.21969309088, -22075.78981826184, -3978.2528851333723, -187500.02235174447, -1479.1713928188556, 14847.861510260287, -21798.203503871384, -187500.02235174447, -4946.038716559257, -4308.94694434964, -5248.994260906489, -1119.4200658106884, -21230.02215981748, 0.024, 0.986, 0.224, 192.0, 0.0, 0.0, 0.0, 0.0, 0.0, 0.0, 0.0, 0.0, 0.0, 1.695771341728802E9, 0.0, 2023-09-26 18:35:41.728
108.0, 40336.40507893623, 65287.67976613996, -29760.207803274134, -18695.870780452584, -22086.94333874504, -3994.8825830081205, -187500.02235174447, -1477.8302881515372, 14835.299829876403, -21808.150030153996, -187500.02235174447, -4948.877388105081, -4327.700057947643, -5271.100136172788, -1101.5163185019874, -21228.09990979432, 0.024, 0.986, 0.224, 192.0, 0.0, 0.0, 0.0, 0.0, 0.0, 0.0, 0.0, 0.0, 0.0, 1.695771341728806E9, 0.0, 2023-09-26 18:35:41.728
110.0, 40344.65287264024, 65175.630471185505, -29744.44982343314, -18678.950509899918, -22062.17760588856, -3977.381167099615, -187500.02235174447, -1484.7816806771375, 14847.906213749196, -21805.13254465253, -187500.02235174447, -4950.397306728042, -4301.861441357308, -5237.550167745372, -1128.4054670817218, -21233.754901141514, 0.024, 0.986, 0.224, 192.0, 0.0, 0.0, 0.0, 0.0, 0.0, 0.0, 0.0, 0.0, 0.0, 1.695771341728809E9, 0.0, 2023-09-26 18:35:41.728
112.0, 40330.12423874429, 65280.638966636536, -29763.091178308867, -18698.240065364847, -22087.50213235642, -3987.2159346599506, -187500.02235174447, -1467.1461543019002, 14841.983001468541, -21808.664120276466, -187500.02235174447, -4951.69370790645, -4313.931383363174, -5261.08655465681, -1100.6669522126856, -21219.87446783477, 0.022, 0.986, 0.23, 192.0, 0.0, 88.0, 15.0, 104.0, 3.5, 24.0, 0.0, 0.0, 0.0, 1.695771341728813E9, 0.0, 2023-09-26 18:35:41.728
114.0, 40327.53143638747, 65194.785916183704, -29758.196146273156, -18693.277978095768, -22082.629452065165, -3987.506507337869, -187500.02235174447, -1499.1985558508106, 14830.561260051878, -21820.17526867095, -187500.02235174447, -4962.511952222819, -4320.502796233034, -5252.70465048607, -1132.942871206149, -21238.560526199406, 0.022, 0.986, 0.23, 192.0, 0.0, 0.0, 0.0, 0.0, 0.0, 0.0, 0.0, 0.0, 0.0, 1.695771341728816E9, 0.0, 2023-09-26 18:35:41.728
116.0, 40321.58587236236, 65291.412507463996, -29770.42255049021, -18704.565609045698, -22088.217388178993, -3983.7290625249225, -187500.02235174447, -1474.7233956722494, 14828.683713517632, -21816.50958258028, -187500.02235174447, -4962.914283623014, -4329.018810870506, -5269.848438483291, -1114.525033774976, -21227.58581967185, 0.022, 0.986, 0.23, 192.0, 0.0, 0.0, 0.0, 0.0, 0.0, 0.0, 0.0, 0.0, 0.0, 1.69577134172882E9, 0.0, 2023-09-26 18:35:41.728
118.0, 40327.66554685421, 65203.05606163217, -29763.627620175794, -18697.345995586635, -22085.736344544453, -3983.3490828691824, -187500.02235174447, -1497.0751401275566, 14835.858623487786, -21821.203448915894, -187500.02235174447, -4966.669376691506, -4322.290935789459, -5257.398516821685, -1131.2888421164564, -21235.29717150893, 0.022, 0.986, 0.23, 192.0, 0.0, 0.0, 0.0, 0.0, 0.0, 0.0, 0.0, 0.0, 0.0, 1.695771341728823E9, 0.0, 2023-09-26 18:35:41.728
120.0, 40326.88323579827, 65291.054879552714, -29777.686867438184, -18715.76383301781, -22088.93264400156, -3989.5852195722127, -187500.02235174447, -1465.4027182343864, 14826.560297794378, -21824.8020797732, -187500.02235174447, -4970.60328371564, -4330.069342859905, -5264.662833769659, -1118.5706995213866, -21233.9113633527, 0.022, 0.986, 0.23, 192.0, 0.0, 0.0, 0.0, 0.0, 0.0, 0.0, 0.0, 0.0, 0.0, 1.695771341788125E9, 0.0, 2023-09-26 18:35:41.788
122.0, 40341.03189003848, 65203.458393032364, -29756.83268986138, -18683.622024491076, -22068.23492863595, -3983.17026891354, -187500.02235174447, -1505.7923204651263, 14833.042303686418, -21816.710748280377, -187500.02235174447, -4967.585798214173, -4319.89929913274, -5250.290662084897, -1130.327717104878, -21244.662552435704, 0.018000000000000002, 0.984, 0.226, 192.0, 0.0, 72.0, 15.0, 96.0, 3.5, 8.0, 0.0, 0.0, 0.0, 1.695771341788133E9, 0.0, 2023-09-26 18:35:41.788
124.0, 40340.80837259393, 65266.71382984088, -29769.819053389914, -18703.78329798976, -22088.351498645723, -3988.2664666493497, -187500.02235174447, -1465.4697734677522, 14845.805149770398, -21811.234570888828, -187500.02235174447, -4953.481847462875, -4314.71369441911, -5242.825179436824, -1116.3131733314005, -21226.20001151562, 0.018000000000000002, 0.984, 0.226, 192.0, 0.0, 0.0, 0.0, 0.0, 0.0, 0.0, 0.0, 0.0, 0.0, 1.695771341788137E9, 0.0, 2023-09-26 18:35:41.788
126.0, 40344.54111391796, 65213.91900943745, -29763.40410273124, -18688.092373382136, -22073.97932696096, -3980.1527834120734, -187500.02235174447, -1507.669866999372, 14829.421321084657, -21818.588294814625, -187500.02235174447, -4966.60232145814, -4330.404619026735, -5262.025327923933, -1127.9360804481603, -21247.411817003707, 0.018000000000000002, 0.984, 0.226, 192.0, 0.0, 0.0, 0.0, 0.0, 0.0, 0.0, 0.0, 0.0, 0.0, 1.69577134178814E9, 0.0, 2023-09-26 18:35:41.788
128.0, 40353.88414310028, 65243.08803595162, -29762.465329464118, -18682.124457612572, -22073.956975216508, -3967.099364650174, -187500.02235174447, -1452.0363750501126, 14853.158873696195, -21801.735079495324, -187500.02235174447, -4946.508103192818, -4308.455205971623, -5231.492844997984, -1119.531824532965, -21222.86960159178, 0.018000000000000002, 0.984, 0.226, 192.0, 0.0, 0.0, 0.0, 0.0, 0.0, 0.0, 0.0, 0.0, 0.0, 1.695771341788144E9, 0.0, 2023-09-26 18:35:41.788
130.0, 40344.630520895786, 65213.58373327062, -29770.98134410159, -18688.382946060057, -22078.159103174105, -3996.0895772087074, -187500.02235174447, -1505.7476169762156, 14838.607888055789, -21809.938169710418, -187500.02235174447, -4955.404097486031, -4325.487235246567, -5249.485999284506, -1115.1955861086353, -21242.092101823342, 0.018000000000000002, 0.984, 0.226, 192.0, 0.0, 0.0, 0.0, 0.0, 0.0, 0.0, 0.0, 0.0, 0.0, 1.695771341788147E9, 0.0, 2023-09-26 18:35:41.788
132.0, 40347.24567499706, 65235.48844283682, -29773.50709122504, -18699.402356076524, -22081.668327053587, -3978.1187746666405, -187500.02235174447, -1469.5601427030736, 14843.435864858135, -21802.293873106704, -187500.02235174447, -4948.855036360626, -4319.13933982126, -5219.445254736574, -1126.170292636191, -21243.54496521294, 0.028, 0.986, 0.22, 192.0, 0.0, 112.0, 15.0, 104.0, 3.0, 112.0, 0.0, 0.0, 0.0, 1.695771341788151E9, 0.0, 2023-09-26 18:35:41.788
134.0, 40346.932750574684, 65229.58758230062, -29769.37201850081, -18691.579245517165, -22079.567263074787, -3992.4685946069476, -187500.02235174447, -1503.1771663638553, 14840.217213656571, -21798.13644863802, -187500.02235174447, -4948.519760193796, -4329.130569592782, -5269.893141972201, -1112.714542474096, -21236.705331409616, 0.028, 0.986, 0.22, 192.0, 0.0, 0.0, 0.0, 0.0, 0.0, 0.0, 0.0, 0.0, 0.0, 1.695771341848019E9, 0.0, 2023-09-26 18:35:41.848
136.0, 40348.251503497544, 65226.7936142437, -29768.18737604468, -18695.89313219704, -22083.4117631211, -3979.92926596752, -187500.02235174447, -1474.0751950830454, 14843.100588691306, -21801.55626553968, -187500.02235174447, -4948.095077049145, -4322.00036311154, -5243.898063170679, -1128.8748537152833, -21238.225250032574, 0.028, 0.986, 0.22, 192.0, 0.0, 0.0, 0.0, 0.0, 0.0, 0.0, 0.0, 0.0, 0.0, 1.69577134184803E9, 0.0, 2023-09-26 18:35:41.848
138.0, 40346.75393661904, 65244.362085385575, -29761.37009398581, -18688.002966404318, -22076.79564676233, -3984.846649747688, -187500.02235174447, -1498.1033203725005, 14841.670077046167, -21788.01110839976, -187500.02235174447, -4949.391478227553, -4329.644659715254, -5240.813522435847, -1112.4910250295432, -21240.795700644936, 0.028, 0.986, 0.22, 192.0, 0.0, 0.0, 0.0, 0.0, 0.0, 0.0, 0.0, 0.0, 0.0, 1.695771341848034E9, 0.0, 2023-09-26 18:35:41.848
140.0, 40348.29620698645, 65221.853878719085, -29762.577088186397, -18697.994196175838, -22083.545873587835, -3985.1819259145173, -187500.02235174447, -1481.1159945864672, 14845.626335814755, -21787.36290781056, -187500.02235174447, -4949.793809627749, -4326.023677113495, -5266.272159370442, -1136.7650195080066, -21243.567316957393, 0.028, 0.986, 0.22, 192.0, 0.0, 0.0, 0.0, 0.0, 0.0, 0.0, 0.0, 0.0, 0.0, 1.695771341848037E9, 0.0, 2023-09-26 18:35:41.848
142.0, 40350.53138143199, 65262.64581235002, -29759.581954429384, -18696.563684530698, -22077.935585729552, -3985.204277658973, -187500.02235174447, -1501.478433785252, 14846.140425937228, -21795.02955615873, -187500.02235174447, -4954.532379452274, -4331.008116127028, -5258.493752299995, -1116.916670431694, -21243.477909979574, 0.026000000000000002, 0.988, 0.222, 192.0, 0.0, 104.0, 15.0, 112.0, 3.0, 120.0, 0.0, 0.0, 0.0, 1.69577134184804E9, 0.0, 2023-09-26 18:35:41.848
144.0, 40357.5274774465, 65210.43213730242, -29750.64125664726, -18694.484972296355, -22075.543949072835, -3967.2111233724504, -187500.02235174447, -1477.3609015179757, 14858.053905731906, -21770.286175046705, -187500.02235174447, -4948.184484026967, -4318.915822376707, -5251.363545818752, -1140.1401329207579, -21244.617848946793, 0.026000000000000002, 0.988, 0.222, 192.0, 0.0, 0.0, 0.0, 0.0, 0.0, 0.0, 0.0, 0.0, 0.0, 1.695771341848043E9, 0.0, 2023-09-26 18:35:41.848
146.0, 40356.76751813501, 65271.92178629897, -29742.84049783236, -18686.97478615937, -22072.638222293645, -3966.965254183442, -187500.02235174447, -1482.6582649538834, 14855.975193497563, -21773.750695437277, -187500.02235174447, -4948.45270496043, -4329.801121926442, -5252.369374319241, -1115.2626413420012, -21232.68201740766, 0.026000000000000002, 0.988, 0.222, 192.0, 0.0, 0.0, 0.0, 0.0, 0.0, 0.0, 0.0, 0.0, 0.0, 1.695771341848046E9, 0.0, 2023-09-26 18:35:41.848
148.0, 40353.05712855543, 65201.357329053564, -29737.476079163087, -18687.5112280263, -22070.26893738138, -3955.9905476558865, -187500.02235174447, -1472.1976485487996, 14867.955728525607, -21748.604982925055, -187500.02235174447, -4937.165074010501, -4311.316229261903, -5223.759141416448, -1138.5308073199758, -21234.53721219745, 0.026000000000000002, 0.988, 0.222, 192.0, 0.0, 0.0, 0.0, 0.0, 0.0, 0.0, 0.0, 0.0, 0.0, 1.69577134184805E9, 0.0, 2023-09-26 18:35:41.848
150.0, 40349.302035486944, 65275.27454796727, -29730.479983148576, -18686.348937314622, -22068.23492863595, -3957.6445767455793, -187500.02235174447, -1469.314273514065, 14860.266728432982, -21760.093779575083, -187500.02235174447, -4945.88225434807, -4334.673802217699, -5256.258577854464, -1111.239327340046, -21231.407967973708, 0.026000000000000002, 0.988, 0.222, 192.0, 0.0, 0.0, 0.0, 0.0, 0.0, 0.0, 0.0, 0.0, 0.0, 1.695771341908234E9, 0.0, 2023-09-26 18:35:41.908
152.0, 40353.280645999985, 65189.66736670344, -29723.707404578618, -18693.143867629038, -22065.642126279134, -3950.7825911978, -187500.02235174447, -1469.2025147917886, 14868.715687837088, -21752.06950331563, -187500.02235174447, -4943.580024669173, -4318.401732254235, -5238.578347990317, -1133.4122578397105, -21230.603305173317, 0.014, 0.986, 0.222, 192.0, 0.0, 56.0, 15.0, 104.0, 3.0, 120.0, 0.0, 0.0, 0.0, 1.695771341908241E9, 0.0, 2023-09-26 18:35:41.908
154.0, 40354.01825356701, 65280.77307710327, -29721.65104408873, -18689.008794904807, -22071.542986815333, -3953.8224284437215, -187500.02235174447, -1464.1733722893443, 14863.485379634545, -21756.15987255095, -187500.02235174447, -4949.9055683500255, -4338.518302264011, -5248.502522528473, -1108.2441935830348, -21223.428395203162, 0.014, 0.986, 0.222, 192.0, 0.0, 0.0, 0.0, 0.0, 0.0, 0.0, 0.0, 0.0, 0.0, 1.695771341908244E9, 0.0, 2023-09-26 18:35:41.908
156.0, 40356.20872452363, 65190.49438124829, -29716.51014286401, -18696.921312441984, -22071.69944902652, -3955.6999749779675, -187500.02235174447, -1482.7253201872493, 14871.464952405091, -21755.712837661846, -187500.02235174447, -4949.279719505277, -4324.928441635185, -5233.0351153654, -1136.9885369525596, -21231.698540651625, 0.014, 0.986, 0.222, 192.0, 0.0, 0.0, 0.0, 0.0, 0.0, 0.0, 0.0, 0.0, 0.0, 1.695771341908248E9, 0.0, 2023-09-26 18:35:41.908
158.0, 40352.18541052168, 65294.67586215447, -29725.339081923856, -18705.414975335, -22080.32722238627, -3967.613454772646, -187500.02235174447, -1475.5504102170958, 14865.005298257507, -21770.755561680267, -187500.02235174447, -4964.143629568056, -4336.28312781848, -5266.741546004003, -1116.0896558868476, -21235.632447675758, 0.014, 0.986, 0.222, 192.0, 0.0, 0.0, 0.0, 0.0, 0.0, 0.0, 0.0, 0.0, 0.0, 1.695771341908251E9, 0.0, 2023-09-26 18:35:41.908
160.0, 40350.08434654288, 65205.58180875562, -29716.532494608462, -18693.36738507359, -22076.639184551143, -3956.9293209230095, -187500.02235174447, -1497.4327680388415, 14862.546606367423, -21757.679791173912, -187500.02235174447, -4958.578045198685, -4338.138322608272, -5249.441295795596, -1137.0779439303808, -21243.075578579377, 0.014, 0.986, 0.222, 192.0, 0.0, 0.0, 0.0, 0.0, 0.0, 0.0, 0.0, 0.0, 0.0, 1.695771341908255E9, 0.0, 2023-09-26 18:35:41.908
162.0, 40347.98328256408, 65303.77302214778, -29721.986320255557, -18699.737632243352, -22081.84714100923, -3958.225722101417, -187500.02235174447, -1467.2579130241768, 14857.159835953695, -21750.482529459303, -187500.02235174447, -4953.3700887405985, -4350.856465203341, -5251.810580707858, -1113.3627430633, -21223.495450436527, 0.018000000000000002, 0.984, 0.224, 192.0, 0.0, 72.0, 15.0, 96.0, 3.5, 0.0, 0.0, 0.0, 0.0, 1.695771341908258E9, 0.0, 2023-09-26 18:35:41.908
164.0, 40349.525552931496, 65212.35438732558, -29705.155456680714, -18677.251777321315, -22078.65084155212, -3944.524102750314, -187500.02235174447, -1478.6796544408387, 14856.60104234231, -21753.365904494036, -187500.02235174447, -4953.459495718419, -4341.625194743299, -5239.159493346155, -1125.1868158801576, -21228.278723749965, 0.018000000000000002, 0.984, 0.224, 192.0, 0.0, 0.0, 0.0, 0.0, 0.0, 0.0, 0.0, 0.0, 0.0, 1.695771341968418E9, 0.0, 2023-09-26 18:35:41.968
166.0, 40347.759765119525, 65309.852696639624, -29715.280796918967, -18689.053498393714, -22073.75580951641, -3948.8379894301884, -187500.02235174447, -1451.1199535274452, 14854.27646091896, -21743.754654378256, -187500.02235174447, -4944.541149680752, -4347.794276212964, -5240.612356735749, -1101.270449312979, -21215.426470688162, 0.018000000000000002, 0.984, 0.224, 192.0, 0.0, 0.0, 0.0, 0.0, 0.0, 0.0, 0.0, 0.0, 0.0, 1.695771341968428E9, 0.0, 2023-09-26 18:35:41.968
168.0, 40343.155305761735, 65232.64977129099, -29715.97370099708, -18683.532617513254, -22069.84425423673, -3949.3744312971157, -187500.02235174447, -1482.3676922759644, 14855.818731286376, -21745.274573001218, -187500.02235174447, -4946.821027615193, -4334.76320919552, -5235.404400277663, -1114.7709029639846, -21221.72966262456, 0.018000000000000002, 0.984, 0.224, 192.0, 0.0, 0.0, 0.0, 0.0, 0.0, 0.0, 0.0, 0.0, 0.0, 1.695771341968432E9, 0.0, 2023-09-26 18:35:41.968
170.0, 40347.53624767497, 65305.56116170421, -29709.201122427123, -18686.483047781356, -22086.786876533854, -3940.836064915188, -187500.02235174447, -1439.6535086218726, 14860.490245877534, -21743.329971233605, -187500.02235174447, -4946.93278633747, -4349.180084369193, -5235.359696788752, -1106.8583854268059, -21206.53047639495, 0.018000000000000002, 0.984, 0.224, 192.0, 0.0, 0.0, 0.0, 0.0, 0.0, 0.0, 0.0, 0.0, 0.0, 1.695771341968435E9, 0.0, 2023-09-26 18:35:41.968
172.0, 40350.93371283218, 65229.56523055616, -29697.06412518789, -18669.048687106217, -22055.807358718797, -3938.6008904696573, -187500.02235174447, -1475.4386514948192, 14860.758466810998, -21742.83823285559, -187500.02235174447, -4945.658736903517, -4339.390020297768, -5232.051638609367, -1104.9584871481047, -21212.699557864617, 0.018000000000000002, 0.984, 0.22, 192.0, 0.0, 72.0, 15.0, 96.0, 3.0, 112.0, 0.0, 0.0, 0.0, 1.695771341968439E9, 0.0, 2023-09-26 18:35:41.968
174.0, 40347.40213720824, 65295.815801121695, -29717.381860897764, -18684.784315202753, -22084.574053832777, -3941.171341082018, -187500.02235174447, -1446.4707906807412, 14858.590347598834, -21741.608886910544, -187500.02235174447, -4944.004707813824, -4343.9050726777405, -5235.046772366378, -1101.9857051355489, -21208.944464796125, 0.018000000000000002, 0.984, 0.22, 192.0, 0.0, 0.0, 0.0, 0.0, 0.0, 0.0, 0.0, 0.0, 0.0, 1.695771341968443E9, 0.0, 2023-09-26 18:35:41.968
176.0, 40363.89772461626, 65233.655599791484, -29691.945575707625, -18656.285841022236, -22051.851099950207, -3921.591212939169, -187500.02235174447, -1466.475601968241, 14864.51355987949, -21736.44563394137, -187500.02235174447, -4937.947385066436, -4327.565947480911, -5225.949612373068, -1108.5571180054092, -21210.173810741166, 0.018000000000000002, 0.984, 0.22, 192.0, 0.0, 0.0, 0.0, 0.0, 0.0, 0.0, 0.0, 0.0, 0.0, 1.695771341968446E9, 0.0, 2023-09-26 18:35:41.968
178.0, 40359.40502398074, 65266.19973971841, -29698.740506022037, -18675.150713342515, -22061.88703321064, -3922.8205588842106, -187500.02235174447, -1424.0519909920683, 14877.499923408024, -21721.224095967307, -187500.02235174447, -4924.871614560082, -4340.932290665185, -5211.040998821378, -1101.9186499021828, -21192.650043088204, 0.018000000000000002, 0.984, 0.22, 192.0, 0.0, 0.0, 0.0, 0.0, 0.0, 0.0, 0.0, 0.0, 0.0, 1.69577134196845E9, 0.0, 2023-09-26 18:35:41.968
180.0, 40359.025044325004, 65249.257117421286, -29698.472285088574, -18667.819341161176, -22056.50026279691, -3935.069314845719, -187500.02235174447, -1468.2413897802103, 14865.117056979783, -21740.91598283243, -187500.02235174447, -4941.88129209057, -4343.033354643983, -5230.129388586211, -1093.3132282868896, -21206.99986302851, 0.018000000000000002, 0.984, 0.22, 192.0, 0.0, 0.0, 0.0, 0.0, 0.0, 0.0, 0.0, 0.0, 0.0, 1.695771342028732E9, 0.0, 2023-09-26 18:35:42.028
182.0, 40355.13584078978, 65267.33967868563, -29714.386727140754, -18686.572454759178, -22073.197015905025, -3935.5387014792805, -187500.02235174447, -1441.6875173673056, 14862.904234278707, -21741.072445043617, -187500.02235174447, -4941.724829879383, -4341.066401131917, -5231.314031042341, -1113.5415570189425, -21211.313749708384, 0.024, 0.986, 0.22, 192.0, 0.0, 96.0, 15.0, 104.0, 3.0, 112.0, 0.0, 0.0, 0.0, 1.695771342028744E9, 0.0, 2023-09-26 18:35:42.028
184.0, 40360.45555597014, 65254.643887835016, -29702.49559909053, -18671.59678597412, -22054.93564068504, -3938.0197451138197, -187500.02235174447, -1469.7166049142606, 14866.27934769146, -21748.15794803595, -187500.02235174447, -4944.988184569858, -4340.060572631428, -5237.304298556363, -1108.2888970719455, -21214.375938698762, 0.024, 0.986, 0.22, 192.0, 0.0, 0.0, 0.0, 0.0, 0.0, 0.0, 0.0, 0.0, 0.0, 1.695771342028747E9, 0.0, 2023-09-26 18:35:42.028
186.0, 40346.21749475211, 65255.605012846594, -29720.511105121506, -18694.820248463184, -22078.44967585202, -3945.9769661399087, -187500.02235174447, -1450.8740843384367, 14870.749696582521, -21748.225003269315, -187500.02235174447, -4944.943481080947, -4330.941060893662, -5232.31985954283, -1120.2470803555348, -21214.219476487575, 0.024, 0.986, 0.22, 192.0, 0.0, 0.0, 0.0, 0.0, 0.0, 0.0, 0.0, 0.0, 0.0, 1.695771342028751E9, 0.0, 2023-09-26 18:35:42.028
188.0, 40342.730622617084, 65291.79248711974, -29719.862904532303, -18689.70169898292, -22071.632393793156, -3955.744678466878, -187500.02235174447, -1480.9818841197355, 14853.002411485008, -21769.101532590572, -187500.02235174447, -4956.901664364536, -4351.86229370383, -5248.055487639366, -1110.8146441953952, -21228.256372005508, 0.024, 0.986, 0.22, 192.0, 0.0, 0.0, 0.0, 0.0, 0.0, 0.0, 0.0, 0.0, 0.0, 1.695771342028754E9, 0.0, 2023-09-26 18:35:42.028
190.0, 40348.94440757566, 65258.130759970045, -29715.414907385697, -18688.204132104413, -22070.42539959257, -3939.7855329257886, -187500.02235174447, -1455.2103227627663, 14863.910062779196, -21761.54664296468, -187500.02235174447, -4950.352603239132, -4339.010040642028, -5239.695935213082, -1131.3782490942776, -21225.216534759587, 0.024, 0.986, 0.22, 192.0, 0.0, 0.0, 0.0, 0.0, 0.0, 0.0, 0.0, 0.0, 0.0, 1.695771342028757E9, 0.0, 2023-09-26 18:35:42.028
192.0, 40345.59164590736, 65307.349301260634, -29719.997014999037, -18688.31589082669, -22070.447751337022, -3954.202408099462, -187500.02235174447, -1479.3949102634085, 14849.761408538987, -21778.93630015091, -187500.02235174447, -4962.6460626895505, -4350.4764855476005, -5244.188635848598, -1111.0605133844035, -21227.608171416305, 0.02, 0.988, 0.214, 192.0, 0.0, 80.0, 15.0, 112.0, 3.0, 88.0, 0.0, 0.0, 0.0, 1.69577134202876E9, 0.0, 2023-09-26 18:35:42.028
194.0, 40345.390480207265, 65243.020980718255, -29719.326462665376, -18684.247873335826, -22071.09595192623, -3937.7962276692665, -187500.02235174447, -1454.5621221735623, 14871.33084193836, -21759.602041197068, -187500.02235174447, -4950.352603239132, -4315.652467686233, -5232.968060132034, -1132.562891550409, -21217.795755600426, 0.02, 0.988, 0.214, 192.0, 0.0, 0.0, 0.0, 0.0, 0.0, 0.0, 0.0, 0.0, 0.0, 1.695771342088038E9, 0.0, 2023-09-26 18:35:42.088
196.0, 40340.428392938185, 65313.5183827303, -29719.997014999037, -18688.338242571146, -22066.469140823978, -3949.1732655970177, -187500.02235174447, -1478.187916062822, 14845.693391048122, -21786.60294849908, -187500.02235174447, -4969.910379637526, -4363.775773498509, -5267.300339615386, -1112.1110453738029, -21221.327331224362, 0.02, 0.988, 0.214, 192.0, 0.0, 0.0, 0.0, 0.0, 0.0, 0.0, 0.0, 0.0, 0.0, 1.695771342088047E9, 0.0, 2023-09-26 18:35:42.088
198.0, 40354.84526811186, 65222.39032058601, -29713.40325038472, -18682.727954712864, -22071.140655415136, -3930.4425037434703, -187500.02235174447, -1463.7933926336043, 14861.65253658921, -21767.894538389988, -187500.02235174447, -4953.526550951785, -4334.740857451065, -5224.832025150303, -1142.5988248108417, -21219.785060856946, 0.02, 0.988, 0.214, 192.0, 0.0, 0.0, 0.0, 0.0, 0.0, 0.0, 0.0, 0.0, 0.0, 1.695771342088051E9, 0.0, 2023-09-26 18:35:42.088
200.0, 40346.373956963296, 65317.25112405433, -29733.206895972122, -18699.536466543253, -22073.75580951641, -3950.380259797604, -187500.02235174447, -1462.8769711109367, 14856.735152809044, -21772.45429425887, -187500.02235174447, -4956.3652224976095, -4348.4201250577125, -5245.194464349087, -1111.9322314181604, -21210.330272952353, 0.02, 0.988, 0.214, 192.0, 0.0, 0.0, 0.0, 0.0, 0.0, 0.0, 0.0, 0.0, 0.0, 1.695771342088054E9, 0.0, 2023-09-26 18:35:42.088
202.0, 40354.91232334523, 65224.849012476094, -29717.672433575684, -18691.534542028254, -22070.000716447918, -3943.786495183289, -187500.02235174447, -1469.4260322363416, 14858.344478409825, -21770.822616913632, -187500.02235174447, -4960.79086789976, -4343.569796510911, -5241.394667791685, -1145.9962899680484, -21225.328293481864, 0.014, 0.984, 0.218, 192.0, 0.0, 56.0, 15.0, 96.0, 3.0, 104.0, 0.0, 0.0, 0.0, 1.695771342088057E9, 0.0, 2023-09-26 18:35:42.088
204.0, 40339.91430281571, 65335.98188590788, -29735.419718673198, -18708.27599862528, -22091.950129503028, -3964.64067276009, -187500.02235174447, -1465.9391601013137, 14848.062675960384, -21778.6904309619, -187500.02235174447, -4967.027004602791, -4355.662090261232, -5251.631766752215, -1118.4812925435654, -21222.9590085696, 0.014, 0.984, 0.218, 192.0, 0.0, 0.0, 0.0, 0.0, 0.0, 0.0, 0.0, 0.0, 0.0, 1.69577134208806E9, 0.0, 2023-09-26 18:35:42.088
206.0, 40336.382727191776, 65255.06857097967, -29731.97755002708, -18700.788164232752, -22080.148408430625, -3954.805905199755, -187500.02235174447, -1490.928410402347, 14842.206518913094, -21785.574768254133, -187500.02235174447, -4971.586760471673, -4354.43274431619, -5255.029231909422, -1147.270339402001, -21231.922058096177, 0.014, 0.984, 0.218, 192.0, 0.0, 0.0, 0.0, 0.0, 0.0, 0.0, 0.0, 0.0, 0.0, 1.695771342088063E9, 0.0, 2023-09-26 18:35:42.088
208.0, 40348.49737268655, 65343.425016811496, -29720.242884188043, -18696.071946152682, -22073.688754283045, -3954.3141668217386, -187500.02235174447, -1467.3920234909087, 14841.200690412605, -21786.73705896581, -187500.02235174447, -4962.489600478363, -4353.225750115604, -5247.94372891709, -1121.208205367113, -21218.62277014527, 0.014, 0.984, 0.218, 192.0, 0.0, 0.0, 0.0, 0.0, 0.0, 0.0, 0.0, 0.0, 0.0, 1.695771342088067E9, 0.0, 2023-09-26 18:35:42.088
210.0, 40347.491544186065, 65249.14535869901, -29714.27496841848, -18682.973823901873, -22062.42347507757, -3945.172303339518, -187500.02235174447, -1488.0673871120678, 14850.32020215037, -21781.126771107527, -187500.02235174447, -4958.645100432051, -4349.761229725031, -5234.085647354799, -1132.8981677172385, -21218.801584100915, 0.014, 0.984, 0.218, 192.0, 0.0, 0.0, 0.0, 0.0, 0.0, 0.0, 0.0, 0.0, 0.0, 1.695771342147865E9, 0.0, 2023-09-26 18:35:42.147
212.0, 40342.954140061636, 65345.63783951257, -29726.993111013548, -18696.78720197525, -22080.573091575276, -3955.54351276678, -187500.02235174447, -1458.2725117531434, 14849.31437364988, -21785.30654732067, -187500.02235174447, -4959.226245787889, -4350.029450658494, -5230.889347897691, -1110.948754662127, -21209.346796196318, 0.02, 0.99, 0.218, 192.0, 0.0, 80.0, 15.0, 120.0, 3.0, 104.0, 0.0, 0.0, 0.0, 1.695771342147874E9, 0.0, 2023-09-26 18:35:42.147
214.0, 40342.68591912817, 65265.90916704049, -29721.44987838863, -18684.426687291467, -22071.587690304244, -3944.144123094574, -187500.02235174447, -1493.2976953146097, 14844.262879402982, -21789.8439514451, -187500.02235174447, -4964.478905734886, -4353.203398371148, -5254.336327831308, -1137.5026270750318, -21224.993017315035, 0.02, 0.99, 0.218, 192.0, 0.0, 0.0, 0.0, 0.0, 0.0, 0.0, 0.0, 0.0, 0.0, 1.695771342147877E9, 0.0, 2023-09-26 18:35:42.147
216.0, 40342.596512150354, 65356.03140068429, -29731.038776759957, -18695.066117652193, -22080.908367742108, -3956.0799546337075, -187500.02235174447, -1463.6816339113277, 14853.494149863023, -21779.83036992912, -187500.02235174447, -4951.470190461897, -4351.527017537001, -5250.380069062719, -1123.7116007461073, -21216.745223611026, 0.02, 0.99, 0.218, 192.0, 0.0, 0.0, 0.0, 0.0, 0.0, 0.0, 0.0, 0.0, 0.0, 1.695771342147881E9, 0.0, 2023-09-26 18:35:42.147
218.0, 40355.672282656706, 65268.121989741565, -29706.27304390348, -18673.78725693074, -22052.767521472877, -3940.6348992150906, -187500.02235174447, -1490.347265046509, 14851.482492862046, -21788.07816363313, -187500.02235174447, -4962.847228389648, -4347.660165746232, -5230.196443819576, -1137.9049584752272, -21232.793776129936, 0.02, 0.99, 0.218, 192.0, 0.0, 0.0, 0.0, 0.0, 0.0, 0.0, 0.0, 0.0, 0.0, 1.695771342147884E9, 0.0, 2023-09-26 18:35:42.147
220.0, 40362.64602692676, 65315.954722875926, -29710.184599183158, -18684.851370436118, -22062.04349542183, -3949.1956173414733, -187500.02235174447, -1451.2987674830877, 14872.359022183302, -21759.40087549697, -187500.02235174447, -4940.74135312335, -4327.834168414374, -5212.22564127751, -1110.300554072923, -21206.597531628315, 0.02, 0.99, 0.218, 192.0, 0.0, 0.0, 0.0, 0.0, 0.0, 0.0, 0.0, 0.0, 0.0, 1.695771342147888E9, 0.0, 2023-09-26 18:35:42.147
222.0, 40366.24465778407, 65252.743989556315, -29703.680241546663, -18674.055477864204, -22054.578012773756, -3942.266576560328, -187500.02235174447, -1488.9838086347354, 14863.284213934448, -21773.370715781537, -187500.02235174447, -4950.196141027945, -4334.249119073048, -5248.457819039562, -1123.9351181906604, -21215.784098599448, 0.02, 0.986, 0.226, 192.0, 0.0, 80.0, 15.0, 104.0, 3.5, 8.0, 0.0, 0.0, 0.0, 1.695771342147892E9, 0.0, 2023-09-26 18:35:42.147
224.0, 40363.294227515966, 65302.54367620274, -29714.02909922947, -18681.811533190197, -22065.642126279134, -3939.1596840810403, -187500.02235174447, -1448.8177238485484, 14869.788571570942, -21762.35130576507, -187500.02235174447, -4946.284585748266, -4331.388095782769, -5218.953516358557, -1118.8165687103951, -21212.67720612016, 0.02, 0.986, 0.226, 192.0, 0.0, 0.0, 0.0, 0.0, 0.0, 0.0, 0.0, 0.0, 0.0, 1.695771342208186E9, 0.0, 2023-09-26 18:35:42.208
226.0, 40354.21941926711, 65272.72644909936, -29716.77836379747, -18681.83388493465, -22063.31754485578, -3958.4715912904253, -187500.02235174447, -1494.8176139375705, 14853.31533590738, -21785.015974642753, -187500.02235174447, -4965.618844702107, -4348.934215180185, -5257.219702866042, -1117.5201675319872, -21223.920133581178, 0.02, 0.986, 0.226, 192.0, 0.0, 0.0, 0.0, 0.0, 0.0, 0.0, 0.0, 0.0, 0.0, 1.695771342208196E9, 0.0, 2023-09-26 18:35:42.208
228.0, 40360.902590859245, 65288.28326324026, -29714.140857951745, -18682.817361690686, -22064.859815223197, -3940.4113817705374, -187500.02235174447, -1448.415392448353, 14865.966423269085, -21767.536910478702, -187500.02235174447, -4955.739373652861, -4334.629098728788, -5230.062333352845, -1125.8350164693613, -21216.789927099937, 0.02, 0.986, 0.226, 192.0, 0.0, 0.0, 0.0, 0.0, 0.0, 0.0, 0.0, 0.0, 0.0, 1.6957713422082E9, 0.0, 2023-09-26 18:35:42.208
230.0, 40345.45753544063, 65291.278396997266, -29725.808468557414, -18693.970882173882, -22077.64501305163, -3964.2383413598945, -187500.02235174447, -1498.863279683981, 14849.247318416516, -21777.30462280567, -187500.02235174447, -4967.31757728071, -4354.298633849458, -5259.23135986702, -1114.9050134307163, -21224.05424404791, 0.02, 0.986, 0.226, 192.0, 0.0, 0.0, 0.0, 0.0, 0.0, 0.0, 0.0, 0.0, 0.0, 1.695771342208203E9, 0.0, 2023-09-26 18:35:42.208
232.0, 40344.40700345123, 65294.139420287545, -29725.070860990392, -18699.916446198993, -22078.717896785485, -3952.7271929654116, -187500.02235174447, -1467.0790990685343, 14854.74584755252, -21776.32114604964, -187500.02235174447, -4969.284530792776, -4349.783581469486, -5240.478246269017, -1135.334507862867, -21228.34577898333, 0.022, 0.986, 0.228, 192.0, 0.0, 88.0, 15.0, 104.0, 3.5, 16.0, 0.0, 0.0, 0.0, 1.695771342208207E9, 0.0, 2023-09-26 18:35:42.208
234.0, 40344.16113426222, 65306.54463846024, -29727.440145902652, -18700.251722365825, -22076.080390939762, -3963.5677890262355, -187500.02235174447, -1496.4045877938972, 14846.453350359601, -21795.342480581105, -187500.02235174447, -4978.649911719551, -4362.032337430995, -5245.1050573712655, -1119.2636035995013, -21229.9104010952, 0.022, 0.986, 0.228, 192.0, 0.0, 0.0, 0.0, 0.0, 0.0, 0.0, 0.0, 0.0, 0.0, 1.69577134220821E9, 0.0, 2023-09-26 18:35:42.208
236.0, 40342.48475342808, 65288.23855975134, -29732.64810236074, -18703.336263100657, -22083.18824567655, -3958.225722101417, -187500.02235174447, -1473.1140700714673, 14847.280364904449, -21766.46402674485, -187500.02235174447, -4978.448746019452, -4356.24323561707, -5247.94372891709, -1141.525941076987, -21231.96676158509, 0.022, 0.986, 0.228, 192.0, 0.0, 0.0, 0.0, 0.0, 0.0, 0.0, 0.0, 0.0, 0.0, 1.695771342208214E9, 0.0, 2023-09-26 18:35:42.208
238.0, 40344.38465170678, 65316.82644090968, -29731.709329093617, -18703.023338678282, -22075.23102465046, -3967.322882094727, -187500.02235174447, -1492.2918668141208, 14847.570937582368, -21774.175378581927, -187500.02235174447, -4981.913266410025, -4357.986671684584, -5243.763952703947, -1117.0060774095152, -21229.01633131699, 0.022, 0.986, 0.228, 192.0, 0.0, 0.0, 0.0, 0.0, 0.0, 0.0, 0.0, 0.0, 0.0, 1.695771342208217E9, 0.0, 2023-09-26 18:35:42.208
240.0, 40346.75393661904, 65273.1064287551, -29729.02711975898, -18691.981576917362, -22072.74998101592, -3950.8272946867105, -187500.02235174447, -1473.0023113491907, 14850.32020215037, -21767.24633780078, -187500.02235174447, -4985.333083311687, -4360.28890136348, -5249.240130095498, -1140.6989265321406, -21229.239848761543, 0.022, 0.986, 0.228, 192.0, 0.0, 0.0, 0.0, 0.0, 0.0, 0.0, 0.0, 0.0, 0.0, 1.695771342269465E9, 0.0, 2023-09-26 18:35:42.269
242.0, 40348.832648853386, 65323.82253692419, -29729.02711975898, -18692.629777506565, -22072.41470484909, -3959.1197918796292, -187500.02235174447, -1482.9488376318025, 14850.968402739574, -21763.60300345457, -187500.02235174447, -4975.878295407092, -4361.250026375059, -5242.624013736727, -1110.2334988395571, -21215.76174685499, 0.018000000000000002, 0.984, 0.222, 192.0, 0.0, 72.0, 15.0, 96.0, 3.0, 120.0, 0.0, 0.0, 0.0, 1.695771342269477E9, 0.0, 2023-09-26 18:35:42.269
