%OpenBCI Raw EXG Data
%Number of channels = 16
%Sample Rate = 125 Hz
%Board = OpenBCI_GUI$BoardCytonSerialDaisy
Sample Index, EXG Channel 0, EXG Channel 1, EXG Channel 2, EXG Channel 3, EXG Channel 4, EXG Channel 5, EXG Channel 6, EXG Channel 7, EXG Channel 8, EXG Channel 9, EXG Channel 10, EXG Channel 11, EXG Channel 12, EXG Channel 13, EXG Channel 14, EXG Channel 15, Accel Channel 0, Accel Channel 1, Accel Channel 2, Other, Other, Other, Other, Other, Other, Other, Analog Channel 0, Analog Channel 1, Analog Channel 2, Timestamp, Other, Timestamp (Formatted)
0.0, -187500.02235174447, 19879.59681506119, -51281.89787648891, -42936.225883510815, -26740.844755273432, -9295.665835817557, -187500.02235174447, -9662.145037906772, 0.0, 0.0, 0.0, 0.0, 0.0, 0.0, 0.0, 0.0, 0.0, 0.0, 0.0, 192.0, 0.0, 0.0, 0.0, 0.0, 0.0, 0.0, 0.0, 0.0, 0.0, 1.695680190703558E9, 0.0, 2023-09-25 17:16:30.703
224.0, -187500.02235174447, 19857.49093979489, -51353.40110700144, -42945.77007839323, -26742.11880470739, -9296.448146873492, -187500.02235174447, -9672.426840356213, 8654.550749605984, 12886.495934307091, -19162.88812910177, -28945.95610451175, 35737.62306423463, -6649.889844642859, -42705.82410166551, -27028.511706413236, -0.066, 1.008, 0.0, 192.0, 126.5, 120.0, 15.5, 64.0, 0.0, 0.0, 0.0, 0.0, 0.0, 1.695680190703566E9, 0.0, 2023-09-25 17:16:30.703
226.0, -187500.02235174447, 19843.722265210425, -51356.463295991816, -42957.88472388801, -26749.91956352229, -9300.94084750901, -187500.02235174447, -9680.361709637846, 8646.302955901976, 12872.302576577971, -19245.47782486413, -28999.667346437855, 35674.121758237095, -6664.46318202772, -42749.23118939772, -27053.25508752526, -0.066, 1.008, 0.0, 192.0, 0.0, 0.0, 0.0, 0.0, 0.0, 0.0, 0.0, 0.0, 0.0, 1.69568019070357E9, 0.0, 2023-09-25 17:16:30.703
228.0, -187500.02235174447, 19827.98663711389, -51403.62547679251, -42959.20347681087, -26747.48322337666, -9296.246981173395, -187500.02235174447, -9679.512343348544, 8648.985165236612, 12876.527056280025, -19216.88994370579, -28957.44490116178, 35749.87182019613, -6657.422382524298, -42718.29637507157, -27052.472776469323, -0.066, 1.008, 0.0, 192.0, 0.0, 0.0, 0.0, 0.0, 0.0, 0.0, 0.0, 0.0, 0.0, 1.695680190703573E9, 0.0, 2023-09-25 17:16:30.703
230.0, -187500.02235174447, 19829.618314459123, -51335.273842248185, -42949.45811622836, -26749.807804800013, -9294.972931739441, -187500.02235174447, -9673.946758979173, 8652.293223415998, 12860.523207250024, -19278.178427002244, -28990.011392833163, 35700.8767963501, -6665.692527972762, -42738.457648570264, -27050.908154357454, -0.066, 1.008, 0.0, 192.0, 0.0, 0.0, 0.0, 0.0, 0.0, 0.0, 0.0, 0.0, 0.0, 1.695680190703577E9, 0.0, 2023-09-25 17:16:30.703
232.0, -187500.02235174447, 19824.857392890142, -51339.38656322796, -42940.83034286861, -26739.168374439287, -9286.054585701775, -187500.02235174447, -9669.811686254941, 8621.626630023316, 12875.297710334982, -19189.732574192592, -28924.118450178918, 35798.24099519742, -6648.280519042078, -42674.21873500571, -27028.22113373532, -0.066, 1.008, 0.0, 192.0, 0.0, 0.0, 0.0, 0.0, 0.0, 0.0, 0.0, 0.0, 0.0, 1.695680190703581E9, 0.0, 2023-09-25 17:16:30.703
234.0, -187500.02235174447, 19818.50949746484, -51312.408007670405, -42950.776869151225, -26727.43370860025, -9287.373338624637, -187500.02235174447, -9662.81559024043, 8648.225205925131, 12870.425030043725, -19264.834435562425, -28981.02599156213, 35699.714505638425, -6650.538045232063, -42730.09809614398, -27047.644799666978, -0.08, 1.004, 0.0, 192.0, 126.5, 64.0, 15.5, 48.0, 0.0, 0.0, 0.0, 0.0, 0.0, 1.695680190703585E9, 0.0, 2023-09-25 17:16:30.703
236.0, -187500.02235174447, 19810.86520086112, -51308.20587971281, -42963.7408809353, -26732.306388891506, -9291.039024715308, -187500.02235174447, -9668.67174728772, 8641.542034332995, 12871.587320755401, -19180.568358965917, -28922.039737944575, 35793.05539048379, -6636.165873547301, -42667.06617678001, -27026.96943604582, -0.08, 1.004, 0.0, 192.0, 0.0, 0.0, 0.0, 0.0, 0.0, 0.0, 0.0, 0.0, 0.0, 1.695680190703588E9, 0.0, 2023-09-25 17:16:30.703
238.0, -187500.02235174447, 19786.367688938106, -51334.20095851433, -42999.48132031933, -26748.980790255166, -9311.043836002807, -187500.02235174447, -9677.478334603113, 8622.632458523805, 12854.01884961353, -19259.62647910434, -28980.35543922847, 35676.8710228051, -6653.063792355513, -42712.44021802428, -27052.562183447146, -0.08, 1.004, 0.0, 192.0, 0.0, 0.0, 0.0, 0.0, 0.0, 0.0, 0.0, 0.0, 0.0, 1.695680190703591E9, 0.0, 2023-09-25 17:16:30.703
0.0, -93750.01117587223, 9996.437727980343, -25614.6968143817, -21470.906909812322, -13424.547126835243, -4725.136426107458, -93750.01117587223, -5128.518358292385, 4293.256019742014, 6395.795213674929, -9617.083921084872, -14476.397869157538, 17895.54421848586, -3350.191217683699, -21331.45437615566, -13535.881165967128, -0.062, 1.009, -0.009000000000000001, 192.0, 127.0, 80.0, 15.5, 88.0, 127.5, 56.0, 0.0, 0.0, 0.0, 1.695680190804118E9, 0.0, 2023-09-25 17:16:30.804
2.0, -187500.02235174447, 20011.941493981063, -51283.462498600784, -42920.713772858835, -26819.947578900767, -9428.144625204162, -187500.02235174447, -10225.029018524769, 8596.235048322087, 13009.519935789102, -19245.410769630762, -28558.75683531247, 35642.98577821085, -6555.118448152358, -40259.179801843144, -26922.273865017163, -0.062, 1.009, -0.009000000000000001, 192.0, 0.0, 0.0, 0.0, 0.0, 0.0, 0.0, 0.0, 0.0, 0.0, 1.695680190862417E9, 0.0, 2023-09-25 17:16:30.862
4.0, -187500.02235174447, 20018.19998242855, -51217.50250071317, -42941.85852311355, -26831.54813427307, -9446.070724257317, -187500.02235174447, -10250.375896737087, 8620.240821867088, 13026.663723786321, -19251.42338888924, -28561.282582435917, 35621.483400044846, -6543.026154402037, -40274.982485173045, -26916.57417018106, -0.062, 1.009, -0.009000000000000001, 192.0, 0.0, 0.0, 0.0, 0.0, 0.0, 0.0, 0.0, 0.0, 0.0, 1.695680190862429E9, 0.0, 2023-09-25 17:16:30.862
6.0, -187500.02235174447, 20025.68781682108, -51266.206951881286, -42933.297804987174, -26822.562733002036, -9430.737427560976, -187500.02235174447, -10243.223338511389, 8620.218470122632, 13017.521860304101, -19224.89186822079, -28537.45562284656, 35655.14512719454, -6552.279776606533, -40254.95532214109, -26920.50807720519, -0.062, 1.009, -0.009000000000000001, 192.0, 0.0, 0.0, 0.0, 0.0, 0.0, 0.0, 0.0, 0.0, 0.0, 1.695680190862432E9, 0.0, 2023-09-25 17:16:30.862
8.0, -187500.02235174447, 20028.034749988885, -51214.86499486745, -42948.944026105884, -26829.69293948328, -9439.76753232092, -187500.02235174447, -10242.262213499811, 8629.405037093764, 13022.52865106209, -19249.32232491044, -28558.198041701085, 35620.16464712199, -6550.134009138824, -40271.04857814891, -26928.241780786728, -0.022, 1.018, -0.028, 192.0, 127.5, 40.0, 15.5, 104.0, 127.5, 16.0, 0.0, 0.0, 0.0, 1.695680190862436E9, 0.0, 2023-09-25 17:16:30.862
10.0, -187500.02235174447, 20028.548840111358, -51267.033966426134, -42942.50672370276, -26824.328520814004, -9433.240822939972, -187500.02235174447, -10250.778228137282, 8625.314667858442, 13009.072900899995, -19196.348690551364, -28520.982387182998, 35687.04106653226, -6557.375974342343, -40226.903882849685, -26919.32343474906, -0.022, 1.018, -0.028, 192.0, 0.0, 0.0, 0.0, 0.0, 0.0, 0.0, 0.0, 0.0, 0.0, 1.695680190862439E9, 0.0, 2023-09-25 17:16:30.862
12.0, -187500.02235174447, 20043.815081574332, -51232.09818984249, -42945.4348022264, -26829.603532505458, -9427.429369381593, -187500.02235174447, -10245.480864701374, 8643.33017388942, 13021.858098728431, -19253.703266823682, -28569.75389358448, 35616.789533709234, -6558.515913309564, -40265.415938546175, -26936.444871001826, -0.022, 1.018, -0.028, 192.0, 0.0, 0.0, 0.0, 0.0, 0.0, 0.0, 0.0, 0.0, 0.0, 1.69568019086246E9, 0.0, 2023-09-25 17:16:30.862
14.0, -187500.02235174447, 20057.226128247516, -51270.16321064988, -42919.88675831399, -26819.12056435592, -9405.05527318183, -187500.02235174447, -10238.954155320425, 8640.849130254881, 13027.20016565325, -19196.594559740373, -28520.133020893696, 35691.44436018996, -6557.286567364522, -40224.06521130386, -26917.512943448182, -0.022, 1.018, -0.028, 192.0, 0.0, 0.0, 0.0, 0.0, 0.0, 0.0, 0.0, 0.0, 0.0, 1.695680190862464E9, 0.0, 2023-09-25 17:16:30.862
16.0, -187500.02235174447, 20063.30580273936, -51221.8387391375, -42923.9324240604, -26826.653102237357, -9408.00570344993, -187500.02235174447, -10235.377876207576, 8659.624595597339, 13042.846386771964, -19260.900528538292, -28569.41861741765, 35601.99267887982, -6549.82108471645, -40277.21765961858, -26930.43225174335, -0.022, 1.018, -0.028, 192.0, 0.0, 0.0, 0.0, 0.0, 0.0, 0.0, 0.0, 0.0, 0.0, 1.695680190921713E9, 0.0, 2023-09-25 17:16:30.921
18.0, -187500.02235174447, 20065.317459740338, -51245.97862314923, -42920.33379320309, -26828.284779582595, -9411.112595929217, -187500.02235174447, -10246.062010057212, 8650.125104203833, 13043.136959449883, -19181.909463633237, -28503.45861953004, 35694.394790458064, -6543.182616613223, -40222.36647872526, -26902.760792107678, -0.018000000000000002, 1.016, -0.026000000000000002, 192.0, 127.5, 56.0, 15.5, 96.0, 127.5, 24.0, 0.0, 0.0, 0.0, 1.695680190921724E9, 0.0, 2023-09-25 17:16:30.921
20.0, -187500.02235174447, 20061.182387016106, -51227.538433973605, -42933.81189510964, -26833.515087785137, -9429.329267660292, -187500.02235174447, -10252.454608971431, 8653.209644938666, 13040.208880926239, -19245.723694053137, -28550.50904160846, 35616.454257542406, -6556.995994686604, -40256.36348204178, -26911.366213722973, -0.018000000000000002, 1.016, -0.026000000000000002, 192.0, 0.0, 0.0, 0.0, 0.0, 0.0, 0.0, 0.0, 0.0, 0.0, 1.695680190921727E9, 0.0, 2023-09-25 17:16:30.921
22.0, -187500.02235174447, 20078.572044202334, -51254.62874825344, -42914.58939487808, -26820.41696553433, -9423.6742763131, -187500.02235174447, -10247.35841123562, 8664.631386355328, 13044.478064117202, -19183.854065400847, -28502.139866607176, 35697.54638642626, -6558.0688784204585, -40216.398562955685, -26910.874475344954, -0.018000000000000002, 1.016, -0.026000000000000002, 192.0, 0.0, 0.0, 0.0, 0.0, 0.0, 0.0, 0.0, 0.0, 0.0, 1.695680190921731E9, 0.0, 2023-09-25 17:16:30.921
24.0, -187500.02235174447, 20072.7382388995, -51228.76777991865, -42924.9829560498, -26820.439317278782, -9440.505139887946, -187500.02235174447, -10257.640213685061, 8668.028851512534, 13053.82109329952, -19259.80529305998, -28552.654809076168, 35589.676867684946, -6553.5538260404865, -40269.953342670604, -26928.979388353753, -0.018000000000000002, 1.016, -0.026000000000000002, 192.0, 0.0, 0.0, 0.0, 0.0, 0.0, 0.0, 0.0, 0.0, 0.0, 1.695680190921734E9, 0.0, 2023-09-25 17:16:30.921
26.0, -187500.02235174447, 20060.757703871455, -51233.30518404308, -42930.995575308276, -26823.74737545817, -9446.741276590978, -187500.02235174447, -10272.057088858735, 8662.820895054449, 13059.878416046908, -19176.99207985307, -28484.213767554018, 35692.383133457086, -6545.373087569844, -40213.06815303185, -26914.786030624633, -0.018000000000000002, 1.016, -0.026000000000000002, 192.0, 0.0, 0.0, 0.0, 0.0, 0.0, 0.0, 0.0, 0.0, 0.0, 1.695680190921737E9, 0.0, 2023-09-25 17:16:30.921
28.0, -187500.02235174447, 20047.279601964903, -51244.61516673746, -42933.14134277598, -26823.859134180446, -9444.416695167625, -187500.02235174447, -10259.227187541388, 8655.601281595384, 13049.574261853011, -19253.367990656854, -28544.831698516813, 35600.24924281231, -6563.030965689536, -40261.012644888484, -26946.592562984537, -0.014, 1.018, -0.026000000000000002, 192.0, 127.5, 72.0, 15.5, 104.0, 127.5, 24.0, 0.0, 0.0, 0.0, 1.69568019092174E9, 0.0, 2023-09-25 17:16:30.921
30.0, -187500.02235174447, 20035.52258438141, -51243.18465509232, -42936.47175269983, -26836.84549770898, -9439.096979987262, -187500.02235174447, -10265.239806799866, 8648.672240814238, 13051.362401409437, -19184.16698982322, -28492.953299636043, 35688.71744736641, -6551.989203928614, -40218.41021995666, -26935.863725645988, -0.014, 1.018, -0.026000000000000002, 192.0, 0.0, 0.0, 0.0, 0.0, 0.0, 0.0, 0.0, 0.0, 0.0, 1.695680190921743E9, 0.0, 2023-09-25 17:16:30.921
32.0, -187500.02235174447, 20033.30976168034, -51264.64232976941, -42923.5300926602, -26826.831916193, -9422.064950712318, -187500.02235174447, -10249.973565336892, 8651.197987937689, 13049.596613597467, -19252.988011001115, -28546.105747950765, 35605.256033570295, -6565.981395957637, -40257.48106926454, -26948.33599905205, -0.014, 1.018, -0.026000000000000002, 192.0, 0.0, 0.0, 0.0, 0.0, 0.0, 0.0, 0.0, 0.0, 0.0, 1.695680190981514E9, 0.0, 2023-09-25 17:16:30.981
34.0, -187500.02235174447, 20044.01624727443, -51241.06123936907, -42905.42517965141, -26818.382956788893, -9404.09414817025, -187500.02235174447, -10245.391457723554, 8671.67218585875, 13074.228235987215, -19195.61108298434, -28504.732668963992, 35667.52799362278, -6545.842474203405, -40231.68715616312, -26936.46722274628, -0.014, 1.018, -0.026000000000000002, 192.0, 0.0, 0.0, 0.0, 0.0, 0.0, 0.0, 0.0, 0.0, 0.0, 1.695680190981523E9, 0.0, 2023-09-25 17:16:30.981
36.0, -187500.02235174447, 20034.58381111429, -51263.278873357645, -42900.41838889341, -26819.008805633643, -9400.696683013044, -187500.02235174447, -10237.948326819936, 8664.76549682206, 13062.62768061491, -19245.880156264324, -28533.477012333515, 35597.4552747554, -6548.8599597048715, -40267.2040781026, -26932.17568781086, -0.014, 1.018, -0.026000000000000002, 192.0, 0.0, 0.0, 0.0, 0.0, 0.0, 0.0, 0.0, 0.0, 0.0, 1.695680190981527E9, 0.0, 2023-09-25 17:16:30.981
38.0, -187500.02235174447, 20032.25922969094, -51217.547204202085, -42907.77211281921, -26822.78625044659, -9405.971694704496, -187500.02235174447, -10250.688821159461, 8665.81602881146, 13074.92114006533, -19196.482801018097, -28494.0261833699, 35659.995455741344, -6536.3429828099, -40236.17985679863, -26910.98623406723, -0.008, 1.016, -0.02, 192.0, 127.5, 96.0, 15.5, 96.0, 127.5, 48.0, 0.0, 0.0, 0.0, 1.69568019098153E9, 0.0, 2023-09-25 17:16:30.981
40.0, -187500.02235174447, 20030.068758734316, -51269.067975171565, -42901.759493560734, -26817.1312590994, -9413.727750030488, -187500.02235174447, -10262.289376531766, 8669.638177113316, 13061.197168969771, -19236.98416197111, -28517.54021853688, 35609.18994059443, -6547.809427715472, -40259.135098354236, -26923.79378364012, -0.008, 1.016, -0.02, 192.0, 0.0, 0.0, 0.0, 0.0, 0.0, 0.0, 0.0, 0.0, 0.0, 1.695680190981533E9, 0.0, 2023-09-25 17:16:30.981
42.0, -187500.02235174447, 20036.10372973725, -51224.878576383424, -42901.066589482616, -26819.657006222846, -9424.948325747053, -187500.02235174447, -10265.955062622435, 8691.945218079713, 13082.140753524394, -19221.56145829695, -28505.26911083092, 35633.28512111725, -6537.48292177712, -40266.10884262429, -26942.56924898258, -0.008, 1.016, -0.02, 192.0, 0.0, 0.0, 0.0, 0.0, 0.0, 0.0, 0.0, 0.0, 0.0, 1.695680190981537E9, 0.0, 2023-09-25 17:16:30.981
44.0, -187500.02235174447, 20030.471090134513, -51245.55394000458, -42896.7750545472, -26817.399480032862, -9432.749084561954, -187500.02235174447, -10268.41375451252, 8676.120183005356, 13073.20005574227, -19233.385531113807, -28510.521770777916, 35598.23758581133, -6543.562596268964, -40282.24680212102, -26944.692664705835, -0.008, 1.016, -0.02, 192.0, 0.0, 0.0, 0.0, 0.0, 0.0, 0.0, 0.0, 0.0, 0.0, 1.69568019098154E9, 0.0, 2023-09-25 17:16:30.981
46.0, -187500.02235174447, 20019.58579058478, -51196.49186092518, -42922.032525781695, -26841.53936404459, -9458.230073241004, -187500.02235174447, -10293.51476353583, 8670.912226547269, 13071.411916185847, -19189.37494628131, -28485.44311349906, 35640.72825202087, -6551.765686484062, -40255.692929708115, -26927.928856364353, -0.008, 1.016, -0.02, 192.0, 0.0, 0.0, 0.0, 0.0, 0.0, 0.0, 0.0, 0.0, 0.0, 1.69568019104268E9, 0.0, 2023-09-25 17:16:31.042
48.0, -187500.02235174447, 20023.609104586736, -51235.69682069979, -42899.949002259855, -26824.373224302915, -9442.606203866746, -187500.02235174447, -10280.55075175175, 8656.204778695677, 13059.319622435525, -19182.848236900358, -28479.989287851968, 35652.95465623792, -6568.082459936436, -40245.81345865887, -26932.488612233235, -0.004, 1.016, -0.02, 192.0, 127.5, 112.0, 15.5, 96.0, 127.5, 48.0, 0.0, 0.0, 0.0, 1.695680191042694E9, 0.0, 2023-09-25 17:16:31.042
50.0, -187500.02235174447, 20033.086244235783, -51184.354863685956, -42894.76339754622, -26825.69197722578, -9439.879291043198, -187500.02235174447, -10276.438030771975, 8683.540962164518, 13088.555704183067, -19182.75882992254, -28484.414933254116, 35644.17042066699, -6554.336137096422, -40246.23814180352, -26934.254400045207, -0.004, 1.016, -0.02, 192.0, 0.0, 0.0, 0.0, 0.0, 0.0, 0.0, 0.0, 0.0, 0.0, 1.695680191042698E9, 0.0, 2023-09-25 17:16:31.042
52.0, -187500.02235174447, 20036.126081481707, -51252.10300112999, -42882.62640030699, -26817.91357015533, -9428.278735670894, -187500.02235174447, -10272.258254558832, 8672.789773081515, 13076.329299966015, -19168.207844282133, -28470.266279013907, 35666.05277848873, -6555.856055719382, -40235.844580631805, -26931.907466877397, -0.004, 1.016, -0.02, 192.0, 0.0, 0.0, 0.0, 0.0, 0.0, 0.0, 0.0, 0.0, 0.0, 1.695680191042702E9, 0.0, 2023-09-25 17:16:31.042
54.0, -187500.02235174447, 20039.8811745502, -51188.22171547672, -42885.35331313054, -26810.582197973992, -9423.29429665736, -187500.02235174447, -10253.46043747192, 8688.704215133694, 13092.35550074047, -19198.3826992968, -28492.9756513805, 35627.54072279224, -6537.8852531773155, -40261.213810588575, -26936.199001812816, -0.004, 1.016, -0.02, 192.0, 0.0, 0.0, 0.0, 0.0, 0.0, 0.0, 0.0, 0.0, 0.0, 1.695680191042705E9, 0.0, 2023-09-25 17:16:31.042
56.0, -187500.02235174447, 20020.636322574177, -51234.892157899405, -42889.57779283259, -26812.63855846388, -9421.90848850113, -187500.02235174447, -10260.07655383069, 8660.630424097828, 13069.847294073976, -19149.79000685096, -28452.340179960753, 35684.53767115327, -6546.714192237162, -40222.05355430288, -26910.203923011297, -0.004, 1.016, -0.02, 192.0, 0.0, 0.0, 0.0, 0.0, 0.0, 0.0, 0.0, 0.0, 0.0, 1.69568019104271E9, 0.0, 2023-09-25 17:16:31.042
58.0, -187500.02235174447, 20029.800537800853, -51209.74644538718, -42884.59335381906, -26804.457819993237, -9410.933781973576, -187500.02235174447, -10254.376858994587, 8684.47973543164, 13079.413840700847, -19198.60621674135, -28491.50043624645, 35628.47949605936, -6550.20106437219, -40254.642397718715, -26922.966769095277, -0.006, 1.014, -0.022, 192.0, 127.5, 104.0, 15.5, 88.0, 127.5, 40.0, 0.0, 0.0, 0.0, 1.695680191042725E9, 0.0, 2023-09-25 17:16:31.042
60.0, -187500.02235174447, 20035.902564037155, -51227.247861295684, -42866.77901348818, -26796.947633856256, -9391.934799186563, -187500.02235174447, -10231.622783139084, 8681.328139463441, 13089.427422216824, -19168.006678582035, -28460.476214942482, 35675.44051115996, -6539.136950866813, -40239.622025444754, -26915.858914358487, -0.006, 1.014, -0.022, 192.0, 0.0, 0.0, 0.0, 0.0, 0.0, 0.0, 0.0, 0.0, 0.0, 1.695680191042729E9, 0.0, 2023-09-25 17:16:31.042
62.0, -187500.02235174447, 20033.399168658158, -51183.19257297428, -42878.73719677177, -26802.40145950335, -9401.300180113338, -187500.02235174447, -10243.089228044657, 8695.834421614936, 13095.149468797383, -19199.969673153126, -28485.823093154802, 35622.466876800885, -6530.57623274043, -40251.06611860587, -26900.100934517497, -0.006, 1.014, -0.022, 192.0, 0.0, 0.0, 0.0, 0.0, 0.0, 0.0, 0.0, 0.0, 0.0, 1.695680191101999E9, 0.0, 2023-09-25 17:16:31.101
64.0, -187500.02235174447, 20027.364197655224, -51228.81248340756, -42874.04333043615, -26803.74256417067, -9400.249648123938, -187500.02235174447, -10252.83458862717, 8674.913188804769, 13079.749116867677, -19147.64423938325, -28450.0155985374, 35701.21207251693, -6541.193311356701, -40217.91848157865, -26899.51978916166, -0.006, 1.014, -0.022, 192.0, 0.0, 0.0, 0.0, 0.0, 0.0, 0.0, 0.0, 0.0, 0.0, 1.695680191102009E9, 0.0, 2023-09-25 17:16:31.102
66.0, -187500.02235174447, 20017.551781839345, -51197.341227214485, -42890.24834516625, -26816.952445143754, -9414.48770934197, -187500.02235174447, -10264.166923066012, 8685.709081376683, 13083.951244825274, -19212.79957447047, -28503.950357908056, 35615.22491159736, -6538.511102022065, -40265.81826994637, -26915.858914358487, -0.006, 1.014, -0.022, 192.0, 0.0, 0.0, 0.0, 0.0, 0.0, 0.0, 0.0, 0.0, 0.0, 1.695680191102012E9, 0.0, 2023-09-25 17:16:31.102
68.0, -187500.02235174447, 20025.799575543355, -51236.23326256672, -42878.2231066493, -26812.01270961913, -9401.881325469176, -187500.02235174447, -10259.2718910303, 8680.635235385327, 13084.957073325762, -19144.894974815248, -28449.97089504849, 35711.76209589984, -6535.0018781425815, -40217.06911528935, -26906.247664242706, -0.004, 1.008, -0.012, 192.0, 127.5, 112.0, 15.5, 64.0, 127.5, 80.0, 0.0, 0.0, 0.0, 1.695680191102015E9, 0.0, 2023-09-25 17:16:31.102
70.0, -187500.02235174447, 20025.19607844306, -51212.80863437756, -42888.7731300322, -26815.901913154354, -9416.029979709385, -187500.02235174447, -10268.592568468162, 8682.468078430662, 13078.117439522439, -19226.34473161039, -28509.96297716653, 35620.365812822085, -6546.736543981618, -40270.82506070436, -26928.197077297817, -0.004, 1.008, -0.012, 192.0, 0.0, 0.0, 0.0, 0.0, 0.0, 0.0, 0.0, 0.0, 0.0, 1.695680191102019E9, 0.0, 2023-09-25 17:16:31.102
72.0, -187500.02235174447, 20034.002665758453, -51217.10016931298, -42869.03653967816, -26803.96608161522, -9402.037787680363, -187500.02235174447, -10261.060030586725, 8681.86458133037, 13088.131021038416, -19151.600498151838, -28451.043778782343, 35713.39377324507, -6535.560671753964, -40219.907786835174, -26912.170876523363, -0.004, 1.008, -0.012, 192.0, 0.0, 0.0, 0.0, 0.0, 0.0, 0.0, 0.0, 0.0, 0.0, 1.695680191102022E9, 0.0, 2023-09-25 17:16:31.102
74.0, -187500.02235174447, 20024.279656920393, -51213.501538455675, -42872.52341181319, -26809.665776451326, -9402.618933036201, -187500.02235174447, -10261.998803853847, 8688.52540117805, 13088.488648949702, -19231.217411901645, -28513.69571849057, 35610.48634177284, -6537.81819794395, -40280.793938731425, -26929.694644176325, -0.004, 1.008, -0.012, 192.0, 0.0, 0.0, 0.0, 0.0, 0.0, 0.0, 0.0, 0.0, 0.0, 1.695680191102025E9, 0.0, 2023-09-25 17:16:31.102
76.0, -187500.02235174447, 20012.00854921443, -51198.458814437254, -42881.53116482868, -26819.612302733934, -9410.687912784566, -187500.02235174447, -10266.2232835559, 8688.279531989043, 13092.44490771829, -19149.65589638423, -28455.692941629048, 35697.926366082, -6527.268174561045, -40232.0447840744, -26910.203923011297, -0.004, 1.008, -0.012, 192.0, 0.0, 0.0, 0.0, 0.0, 0.0, 0.0, 0.0, 0.0, 0.0, 1.695680191161637E9, 0.0, 2023-09-25 17:16:31.161
78.0, -187500.02235174447, 19994.8200577283, -51219.20123329177, -42897.13268245848, -26831.838706950988, -9416.812290765321, -187500.02235174447, -10275.74512669386, 8672.946235292702, 13066.807456828054, -19213.291312848487, -28507.236064342986, 35624.05385065721, -6551.653927761785, -40265.550049012905, -26928.644112186925, 0.002, 1.012, 0.0, 192.0, 0.0, 8.0, 15.5, 80.0, 0.0, 0.0, 0.0, 0.0, 0.0, 1.695680191161667E9, 0.0, 2023-09-25 17:16:31.161
80.0, -187500.02235174447, 20009.639264302168, -51216.764893146144, -42886.62736256449, -26838.655989009858, -9395.801650977332, -187500.02235174447, -10267.385574267575, 8678.95885455118, 13077.424535444325, -19144.760864348515, -28457.570488163292, 35716.210093046444, -6546.825950959439, -40215.14686526619, -26915.52363819166, 0.002, 1.012, 0.0, 192.0, 0.0, 0.0, 0.0, 0.0, 0.0, 0.0, 0.0, 0.0, 0.0, 1.695680191161671E9, 0.0, 2023-09-25 17:16:31.161
82.0, -187500.02235174447, 20011.11447943622, -51241.843550425, -42881.39705436195, -26840.019445421633, -9395.734595743967, -187500.02235174447, -10254.466265972409, 8690.626465156849, 13080.039689545596, -19230.47980433462, -28523.664596517636, 35604.920757403466, -6543.0485061464915, -40279.22931661956, -26947.106653107006, 0.002, 1.012, 0.0, 192.0, 0.0, 0.0, 0.0, 0.0, 0.0, 0.0, 0.0, 0.0, 0.0, 1.695680191161674E9, 0.0, 2023-09-25 17:16:31.161
84.0, -187500.02235174447, 19997.52461880739, -51213.501538455675, -42889.22016492131, -26839.192430876785, -9422.57904083479, -187500.02235174447, -10264.636309699574, 8674.399098682297, 13092.64607341839, -19162.77637037949, -28467.226441767987, 35685.2752787203, -6531.000915885082, -40231.10601080728, -26922.60914118399, 0.002, 1.012, 0.0, 192.0, 0.0, 0.0, 0.0, 0.0, 0.0, 0.0, 0.0, 0.0, 0.0, 1.695680191161677E9, 0.0, 2023-09-25 17:16:31.161
86.0, -187500.02235174447, 19994.261264116914, -51241.53062600263, -42885.37566487499, -26807.6764711948, -9433.10671247324, -187500.02235174447, -10257.93078636298, 8667.067726500956, 13085.649977403877, -19214.85593496036, -28503.83859918578, 35615.873112186564, -6548.8599597048715, -40262.06317687788, -26938.478879747257, 0.002, 1.012, 0.0, 192.0, 0.0, 0.0, 0.0, 0.0, 0.0, 0.0, 0.0, 0.0, 0.0, 1.69568019116168E9, 0.0, 2023-09-25 17:16:31.161
88.0, -187500.02235174447, 19999.066889174806, -51200.44811969377, -42880.63709505047, -26797.7746484011, -9439.119331731717, -187500.02235174447, -10268.212588812423, 8657.210607196166, 13093.026053074129, -19150.03587603997, -28461.43733995406, 35678.457996661426, -6536.38768629881, -40213.85046408778, -26916.149487036408, -0.01, 1.008, 0.008, 192.0, 127.5, 88.0, 15.5, 64.0, 0.0, 32.0, 0.0, 0.0, 0.0, 1.695680191161692E9, 0.0, 2023-09-25 17:16:31.161
90.0, -187500.02235174447, 19994.90946470612, -51237.08262885602, -42880.34652237255, -26784.296546494552, -9433.933727018086, -187500.02235174447, -10263.742239921361, 8663.402040410285, 13096.177649042327, -19196.52750450701, -28501.379907295694, 35610.9557284064, -6540.634517745319, -40256.07290936386, -26935.863725645988, -0.01, 1.008, 0.008, 192.0, 0.0, 0.0, 0.0, 0.0, 0.0, 0.0, 0.0, 0.0, 0.0, 1.695680191161695E9, 0.0, 2023-09-25 17:16:31.161
92.0, -187500.02235174447, 19988.114534391705, -51194.01081729065, -42890.20364167734, -26803.027308348097, -9440.05810499884, -187500.02235174447, -10272.325309792199, 8655.62363333984, 13090.612064672956, -19152.829844096883, -28472.434398226073, 35655.90508650602, -6547.7423724821065, -40226.83682761632, -26916.350652736506, -0.01, 1.008, 0.008, 192.0, 0.0, 0.0, 0.0, 0.0, 0.0, 0.0, 0.0, 0.0, 0.0, 1.695680191221929E9, 0.0, 2023-09-25 17:16:31.221
94.0, -187500.02235174447, 19989.455639059026, -51237.70847770077, -42871.495231568246, -26786.509369195628, -9425.752988547443, -187500.02235174447, -10265.508027733329, 8644.380705878819, 13071.188398741293, -19161.256451756533, -28478.514072717917, 35640.504734576316, -6551.385706828321, -40222.277071747434, -26913.84725735751, -0.01, 1.008, 0.008, 192.0, 0.0, 0.0, 0.0, 0.0, 0.0, 0.0, 0.0, 0.0, 0.0, 1.695680191221939E9, 0.0, 2023-09-25 17:16:31.221
96.0, -187500.02235174447, 20000.922083964597, -51190.12161375542, -42866.06375766561, -26776.45108419074, -9419.606258822234, -187500.02235174447, -10261.819989898204, 8676.008424283078, 13104.134870068416, -19170.063039071923, -28488.505302489437, 35617.54949302071, -6538.019363644048, -40241.074888834344, -26923.79378364012, -0.01, 1.008, 0.008, 192.0, 0.0, 0.0, 0.0, 0.0, 0.0, 0.0, 0.0, 0.0, 0.0, 1.695680191221943E9, 0.0, 2023-09-25 17:16:31.221
98.0, -187500.02235174447, 19999.491572319457, -51242.022364380646, -42855.826658705075, -26775.557014412527, -9404.787052248366, -187500.02235174447, -10253.281623516277, 8672.968587037158, 13098.904561865875, -19184.435210756685, -28496.21665432652, 35597.83525441113, -6539.047543888992, -40265.907676924195, -26934.835545401045, -0.008, 1.018, 0.012, 192.0, 127.5, 96.0, 15.5, 104.0, 0.0, 48.0, 0.0, 0.0, 0.0, 1.695680191221946E9, 0.0, 2023-09-25 17:16:31.221
100.0, -187500.02235174447, 19990.99790942644, -51189.093433510476, -42875.00445544773, -26793.326651254494, -9411.00083720694, -187500.02235174447, -10260.590643953163, 8671.76159283657, 13105.297160780092, -19188.994966625567, -28501.268148573417, 35581.11614955856, -6531.984392641115, -40276.54710728492, -26925.537219707636, -0.008, 1.018, 0.012, 192.0, 0.0, 0.0, 0.0, 0.0, 0.0, 0.0, 0.0, 0.0, 0.0, 1.695680191221949E9, 0.0, 2023-09-25 17:16:31.221
102.0, -187500.02235174447, 19991.847275715743, -51246.47036152725, -42857.45833605032, -26786.330555239983, -9390.101956141229, -187500.02235174447, -10253.12516130509, 8662.060935742968, 13092.288445507103, -19167.023201826003, -28486.8736251442, 35608.05000162721, -6541.48388403462, -40266.08649087983, -26924.129059806954, -0.008, 1.018, 0.012, 192.0, 0.0, 0.0, 0.0, 0.0, 0.0, 0.0, 0.0, 0.0, 0.0, 1.695680191221952E9, 0.0, 2023-09-25 17:16:31.221
104.0, -187500.02235174447, 19973.317679562293, -51188.71345385474, -42890.6730283109, -26816.863038165935, -9410.352636617738, -187500.02235174447, -10266.625614956096, 8665.056069499979, 13093.562494941056, -19199.41087954174, -28516.065003402833, 35566.0957772846, -6532.923165908238, -40293.91441272669, -26923.100879562007, -0.008, 1.018, 0.012, 192.0, 0.0, 0.0, 0.0, 0.0, 0.0, 0.0, 0.0, 0.0, 0.0, 1.695680191221955E9, 0.0, 2023-09-25 17:16:31.221
106.0, -187500.02235174447, 19970.635470227655, -51242.37999229193, -42880.793557261655, -26806.26831129412, -9408.139813916661, -187500.02235174447, -10268.078478345691, 8639.552729076473, 13072.73066910871, -19151.667553385207, -28475.228366282987, 35637.084917674656, -6550.20106437219, -40240.96313011207, -26902.872550829954, -0.008, 1.018, 0.012, 192.0, 0.0, 0.0, 0.0, 0.0, 0.0, 0.0, 0.0, 0.0, 0.0, 1.695680191282233E9, 0.0, 2023-09-25 17:16:31.282
108.0, -187500.02235174447, 19974.435266785058, -51211.400474476875, -42887.00734222023, -26802.31205252553, -9413.683046541577, -187500.02235174447, -10265.239806799866, 8652.159112949266, 13072.820076086531, -19212.732519237106, -28525.78801224089, 35568.42035870795, -6551.9668521841595, -40276.390645073734, -26924.486687718236, -0.006, 1.012, 0.02, 192.0, 127.5, 104.0, 15.5, 80.0, 0.0, 80.0, 0.0, 0.0, 0.0, 1.695680191282244E9, 0.0, 2023-09-25 17:16:31.282
110.0, -187500.02235174447, 19977.072772630785, -51257.66858549936, -42878.625438049494, -26794.555997199535, -9404.42942433708, -187500.02235174447, -10258.60133869664, 8648.381668136319, 13076.977500555218, -19176.232120541586, -28492.72978219149, 35629.2618071153, -6547.0941718929025, -40255.15648784119, -26923.547914451116, -0.006, 1.012, 0.02, 192.0, 0.0, 0.0, 0.0, 0.0, 0.0, 0.0, 0.0, 0.0, 0.0, 1.695680191282248E9, 0.0, 2023-09-25 17:16:31.282
112.0, -187500.02235174447, 19971.149560350128, -51213.56859368904, -42895.746874302255, -26809.531665984592, -9415.381779120182, -187500.02235174447, -10273.107620848134, 8647.197025680189, 13078.005680800163, -19234.167842169743, -28541.568343826337, 35553.71291085636, -6551.810389972972, -40300.39641861873, -26937.42834775786, -0.006, 1.012, 0.02, 192.0, 0.0, 0.0, 0.0, 0.0, 0.0, 0.0, 0.0, 0.0, 0.0, 1.695680191282251E9, 0.0, 2023-09-25 17:16:31.282
114.0, -187500.02235174447, 19980.581996510267, -51255.008727909175, -42878.066644438106, -26796.63470943388, -9394.661712010111, -187500.02235174447, -10254.354507250131, 8630.053237682967, 13072.238930730693, -19165.436227969676, -28488.617061211713, 35644.751566022824, -6552.927977195737, -40247.46748774857, -26919.85987661599, -0.006, 1.012, 0.02, 192.0, 0.0, 0.0, 0.0, 0.0, 0.0, 0.0, 0.0, 0.0, 0.0, 1.695680191282254E9, 0.0, 2023-09-25 17:16:31.282
116.0, -187500.02235174447, 19966.992135881443, -51216.31785825704, -42898.898470270455, -26811.29745379656, -9409.190345906061, -187500.02235174447, -10266.200931811445, 8653.410810638763, 13079.816172101042, -19239.219336416645, -28544.07173920533, 35557.26683822475, -6548.479980049131, -40296.797787761425, -26928.018263342175, -0.006, 1.012, 0.02, 192.0, 0.0, 0.0, 0.0, 0.0, 0.0, 0.0, 0.0, 0.0, 0.0, 1.695680191282257E9, 0.0, 2023-09-25 17:16:31.282
118.0, -187500.02235174447, 19969.987269638452, -51244.391649292906, -42883.319304385106, -26806.87180839441, -9399.62379927919, -187500.02235174447, -10264.211626554923, 8628.823891737926, 13067.947395795274, -19172.611137939828, -28489.8240554123, 35649.221914913884, -6553.062087662469, -40242.52775222394, -26911.545027678614, -0.006, 1.01, 0.024, 192.0, 127.5, 104.0, 15.5, 72.0, 0.0, 96.0, 0.0, 0.0, 0.0, 1.69568019128226E9, 0.0, 2023-09-25 17:16:31.282
120.0, -187500.02235174447, 19968.57910973777, -51220.765855403646, -42885.30860964163, -26803.988433359675, -9407.022226693896, -187500.02235174447, -10267.31851903421, 8638.323383131432, 13063.074715504017, -19248.85293827688, -28548.072701462832, 35555.94808530189, -6558.717079009662, -40288.88527022425, -26925.24664702972, -0.006, 1.01, 0.024, 192.0, 0.0, 0.0, 0.0, 0.0, 0.0, 0.0, 0.0, 0.0, 0.0, 1.695680191282264E9, 0.0, 2023-09-25 17:16:31.282
122.0, -187500.02235174447, 19970.791932438842, -51238.96017539027, -42881.3747026175, -26794.48894196617, -9399.19911613454, -187500.02235174447, -10269.486638246375, 8640.245633154587, 13073.714145864744, -19183.11645783382, -28497.89303516067, 35646.89733349053, -6550.245767861101, -40242.19247605711, -26913.780202124144, -0.006, 1.01, 0.024, 192.0, 0.0, 0.0, 0.0, 0.0, 0.0, 0.0, 0.0, 0.0, 0.0, 1.695680191342601E9, 0.0, 2023-09-25 17:16:31.342
124.0, -187500.02235174447, 19955.0116008534, -51224.252727538675, -42901.24540343826, -26808.190561317275, -9418.19809892155, -187500.02235174447, -10273.688766203972, 8639.530377332017, 13060.861892802943, -19259.022982004044, -28558.153338212174, 35554.33875970111, -6560.371108099354, -40290.74046501404, -26930.94634186582, -0.006, 1.01, 0.024, 192.0, 0.0, 0.0, 0.0, 0.0, 0.0, 0.0, 0.0, 0.0, 0.0, 1.695680191342612E9, 0.0, 2023-09-25 17:16:31.342
126.0, -187500.02235174447, 19968.13207484866, -51223.17984380482, -42883.05108345164, -26802.133238569884, -9401.747215002444, -187500.02235174447, -10273.97933888189, 8631.528452817018, 13061.018355014128, -19172.253510028542, -28492.841540913767, 35658.85551677412, -6563.433297089732, -40215.012754799456, -26902.939606063323, -0.006, 1.01, 0.024, 192.0, 0.0, 0.0, 0.0, 0.0, 0.0, 0.0, 0.0, 0.0, 0.0, 1.695680191342615E9, 0.0, 2023-09-25 17:16:31.342
128.0, -187500.02235174447, 19978.05624938682, -51231.76291367566, -42876.39026360396, -26783.96127032772, -9396.203982377529, -187500.02235174447, -10262.691707931961, 8639.262156398554, 13068.796762084576, -19257.033676747524, -28557.50513762297, 35552.86354456706, -6560.661680777273, -40276.457700307095, -26932.935647122344, -0.004, 1.01, 0.032, 192.0, 127.5, 112.0, 15.5, 72.0, 0.5, 0.0, 0.0, 0.0, 0.0, 1.695680191342619E9, 0.0, 2023-09-25 17:16:31.342
130.0, -187500.02235174447, 19979.218540098496, -51206.55014593007, -42884.61570556351, -26797.372317000907, -9406.262267382415, -187500.02235174447, -10276.03569937178, 8644.403057623274, 13085.940550081796, -19181.976518866602, -28498.362421794227, 35639.99064445384, -6535.739485709606, -40221.40535371368, -26908.66165264388, -0.004, 1.01, 0.032, 192.0, 0.0, 0.0, 0.0, 0.0, 0.0, 0.0, 0.0, 0.0, 0.0, 1.695680191342622E9, 0.0, 2023-09-25 17:16:31.342
132.0, -187500.02235174447, 19993.590711783258, -51245.21866383775, -42871.40582459042, -26778.86507259191, -9389.990197418952, -187500.02235174447, -10263.496370732353, 8644.604223323373, 13079.838523845498, -19254.820854046447, -28552.475995120527, 35559.054977781176, -6548.077648648936, -40267.56170601388, -26937.495402991226, -0.004, 1.01, 0.032, 192.0, 0.0, 0.0, 0.0, 0.0, 0.0, 0.0, 0.0, 0.0, 0.0, 1.695680191342625E9, 0.0, 2023-09-25 17:16:31.342
134.0, -187500.02235174447, 19992.853104216232, -51198.07883478151, -42885.17449917489, -26801.55209321405, -9402.775395247389, -187500.02235174447, -10271.900626647548, 8652.002650738079, 13095.171820541838, -19205.043519144478, -28513.44984930156, 35618.37650756556, -6531.850282174383, -40241.81249640137, -26921.670367916868, -0.004, 1.01, 0.032, 192.0, 0.0, 0.0, 0.0, 0.0, 0.0, 0.0, 0.0, 0.0, 0.0, 1.695680191342628E9, 0.0, 2023-09-25 17:16:31.342
136.0, -187500.02235174447, 19998.597502541244, -51233.17107357634, -42874.15508915843, -26782.97779357169, -9393.186496876062, -187500.02235174447, -10259.60716719713, 8652.829665282925, 13083.30304423607, -19244.784920786016, -28542.752986282467, 35567.570992418645, -6541.372125312344, -40268.6569414922, -26936.422519257372, -0.004, 1.01, 0.032, 192.0, 0.0, 0.0, 0.0, 0.0, 0.0, 0.0, 0.0, 0.0, 0.0, 1.695680191402847E9, 0.0, 2023-09-25 17:16:31.402
138.0, -187500.02235174447, 19994.52948505038, -51194.45785217975, -42897.8255865366, -26796.478247222694, -9415.71705528701, -187500.02235174447, -10274.18050458199, 8656.651813584784, 13090.455602461769, -19194.717013206126, -28508.35365156575, 35630.3123391047, -6528.631630972819, -40233.452943975084, -26919.45754521579, -0.006, 1.014, 0.034, 192.0, 127.5, 104.0, 15.5, 88.0, 0.5, 8.0, 0.0, 0.0, 0.0, 1.695680191402859E9, 0.0, 2023-09-25 17:16:31.402
140.0, -187500.02235174447, 20009.86278174672, -51246.38095454943, -42883.654580551934, -26776.02640104609, -9401.031959179874, -187500.02235174447, -10261.730582920383, 8646.727639046627, 13065.242834716182, -19223.148432153277, -28532.068852432833, 35611.6039289956, -6549.48580854962, -40248.003929615494, -26935.46139424579, -0.006, 1.014, 0.034, 192.0, 0.0, 0.0, 0.0, 0.0, 0.0, 0.0, 0.0, 0.0, 0.0, 1.695680191402863E9, 0.0, 2023-09-25 17:16:31.402
142.0, -187500.02235174447, 20016.121270194206, -51187.03707302059, -42906.43100815189, -26800.00982284663, -9419.941534989064, -187500.02235174447, -10278.539094750775, 8659.33402291942, 13090.276788506126, -19195.767545195526, -28517.58492202579, 35643.47751658887, -6537.013535143559, -40234.05644107538, -26923.39145223993, -0.006, 1.014, 0.034, 192.0, 0.0, 0.0, 0.0, 0.0, 0.0, 0.0, 0.0, 0.0, 0.0, 1.695680191402868E9, 0.0, 2023-09-25 17:16:31.402
144.0, -187500.02235174447, 20046.944325798075, -51244.883387670925, -42877.4184438489, -26775.914642323813, -9392.448889309037, -187500.02235174447, -10259.0707253302, 8650.035697226012, 13076.932797066307, -19198.80738244145, -28522.25643661695, 35646.942036979446, -6557.934767953726, -40232.53652245242, -26932.86859188898, -0.006, 1.014, 0.034, 192.0, 0.0, 0.0, 0.0, 0.0, 0.0, 0.0, 0.0, 0.0, 0.0, 1.695680191402877E9, 0.0, 2023-09-25 17:16:31.402
146.0, -187500.02235174447, 20044.418578674624, -51189.428709677304, -42900.708961571334, -26789.370392485907, -9409.659732539623, -187500.02235174447, -10261.618824198107, 8669.504066646585, 13092.467259462746, -19204.529429022008, -28534.79576525638, 35637.688414774944, -6535.270099076045, -40247.53454298193, -26934.90260063441, -0.006, 1.014, 0.034, 192.0, 0.0, 0.0, 0.0, 0.0, 0.0, 0.0, 0.0, 0.0, 0.0, 1.695680191402881E9, 0.0, 2023-09-25 17:16:31.402
148.0, -187500.02235174447, 20058.16490151464, -51258.11562038847, -42877.06081593762, -26769.030305031578, -9390.392528819148, -187500.02235174447, -10251.806408382226, 8655.847150784391, 13075.97167205473, -19194.247626572567, -28526.21269538554, 35669.33848492366, -6549.351698082888, -40232.71533640806, -26939.41765301438, -0.004, 1.012, 0.044, 192.0, 127.5, 112.0, 15.5, 80.0, 0.5, 48.0, 0.0, 0.0, 0.0, 1.695680191402888E9, 0.0, 2023-09-25 17:16:31.402
150.0, -187500.02235174447, 20054.58862240179, -51177.93991302728, -42906.76628431872, -26792.186712287275, -9410.352636617738, -187500.02235174447, -10259.115428819112, 8666.128953233832, 13099.977445599729, -19211.36906282533, -28539.087300191797, 35644.19277241144, -6526.776436183029, -40248.38390927123, -26937.76362392469, -0.004, 1.012, 0.044, 192.0, 0.0, 0.0, 0.0, 0.0, 0.0, 0.0, 0.0, 0.0, 0.0, 1.695680191402891E9, 0.0, 2023-09-25 17:16:31.402
152.0, -187500.02235174447, 20069.87721560922, -51252.080649385534, -42881.084129939576, -26772.67363937779, -9391.62187476419, -187500.02235174447, -10254.578024694685, 8651.533264104517, 13075.435230187803, -19168.431361726685, -28503.056288129843, 35719.80872390374, -6538.8240264444385, -40201.177024981625, -26923.279693517652, -0.004, 1.012, 0.044, 192.0, 0.0, 0.0, 0.0, 0.0, 0.0, 0.0, 0.0, 0.0, 0.0, 1.695680191461691E9, 0.0, 2023-09-25 17:16:31.461
154.0, -187500.02235174447, 20069.83251212031, -51185.114822997435, -42892.461167867325, -26779.28975573656, -9403.043616180852, -187500.02235174447, -10255.025059583792, 8655.064839728457, 13090.746175139688, -19211.592580269884, -28538.863782747245, 35670.29960993524, -6528.765741439551, -40233.9446823531, -26934.500269234213, -0.004, 1.012, 0.044, 192.0, 0.0, 0.0, 0.0, 0.0, 0.0, 0.0, 0.0, 0.0, 0.0, 1.695680191461699E9, 0.0, 2023-09-25 17:16:31.461
156.0, -187500.02235174447, 20073.92288135563, -51252.55003601909, -42879.98889446126, -26768.918546309298, -9385.81042120581, -187500.02235174447, -10245.771437379293, 8652.874368771836, 13082.677195391321, -19177.506169975542, -28513.718070235023, 35724.34612802817, -6533.660773475262, -40215.839769344304, -26934.343807023026, -0.004, 1.012, 0.044, 192.0, 0.0, 0.0, 0.0, 0.0, 0.0, 0.0, 0.0, 0.0, 0.0, 1.695680191461703E9, 0.0, 2023-09-25 17:16:31.461
158.0, -187500.02235174447, 20062.165863772138, -51189.94279979978, -42902.474749383306, -26794.48894196617, -9412.476052340991, -187500.02235174447, -10260.769457908806, 8648.404019880774, 13085.001776814674, -19224.80246124297, -28551.783091042413, 35668.84674654564, -6536.879424676827, -40246.08167959234, -26931.66159768839, -0.004, 1.012, 0.044, 192.0, 0.0, 0.0, 15.5, 88.0, 0.5, 48.0, 0.0, 0.0, 0.0, 1.695680191461706E9, 0.0, 2023-09-25 17:16:31.461
160.0, -187500.02235174447, 20069.54193944239, -51236.27796605563, -42883.095786940554, -26779.759142370123, -9404.831755737276, -187500.02235174447, -10263.898702132548, 8645.721810546138, 13073.580035398012, -19159.60242266684, -28501.1787415956, 35765.629800037124, -6547.362392826366, -40183.966181751035, -26911.813248612078, -0.004, 1.012, 0.044, 192.0, 0.0, 0.0, 0.0, 0.0, 0.0, 0.0, 0.0, 0.0, 0.0, 1.695680191461709E9, 0.0, 2023-09-25 17:16:31.461
162.0, -187500.02235174447, 20059.21543350404, -51195.19545974678, -42900.17251970441, -26788.319860496507, -9420.366218133715, -187500.02235174447, -10268.681975445983, 8654.57310135044, 13080.263206990148, -19232.357350868864, -28564.32241968184, 35677.85449956113, -6535.851244431883, -40233.76586839746, -26931.214562799283, -0.004, 1.012, 0.044, 192.0, 0.0, 0.0, 0.0, 0.0, 0.0, 0.0, 0.0, 0.0, 0.0, 1.695680191461712E9, 0.0, 2023-09-25 17:16:31.461
164.0, -187500.02235174447, 20064.602203917766, -51244.391649292906, -42884.638057307966, -26774.327668467486, -9411.71609302951, -187500.02235174447, -10267.676146945494, 8643.33017388942, 13079.033861045107, -19158.395428466254, -28508.666575988125, 35779.10790194367, -6535.448913031687, -40174.109062446245, -26910.203923011297, -0.004, 1.012, 0.044, 192.0, 0.0, 0.0, 0.0, 0.0, 0.0, 0.0, 0.0, 0.0, 0.0, 1.695680191461716E9, 0.0, 2023-09-25 17:16:31.461
166.0, -187500.02235174447, 20067.507930696956, -51211.02049482113, -42884.43689160787, -26774.931165567777, -9413.370122119204, -187500.02235174447, -10253.952175849936, 8650.773304793038, 13080.06204129005, -19244.20377543018, -28577.55465239938, 35676.982781527375, -6536.991183399104, -40232.80474338588, -26935.7072634348, -0.004, 1.012, 0.044, 192.0, 0.0, 0.0, 0.0, 0.0, 0.0, 0.0, 0.0, 0.0, 0.0, 1.695680191461719E9, 0.0, 2023-09-25 17:16:31.461
168.0, -187500.02235174447, 20076.001593589976, -51219.46945422524, -42870.176478645386, -26763.934107295765, -9399.132060901173, -187500.02235174447, -10236.160187263511, 8652.963775749657, 13091.752003640177, -19167.447884970654, -28521.25060811646, 35765.40628259257, -6522.484901247609, -40183.3850363952, -26914.875437602455, -0.002, 1.01, 0.044, 192.0, 127.5, 120.0, 15.5, 72.0, 0.5, 48.0, 0.0, 0.0, 0.0, 1.695680191522966E9, 0.0, 2023-09-25 17:16:31.522
170.0, -187500.02235174447, 20065.74214288499, -51212.36159948845, -42883.98985671876, -26774.95351731223, -9405.457604582025, -187500.02235174447, -10244.944422834447, 8661.300976431487, 13097.898733365386, -19258.464188392663, -28590.585719416824, 35655.8156795282, -6524.742427437595, -40251.04376686141, -26939.127080336464, -0.002, 1.01, 0.044, 192.0, 0.0, 0.0, 0.0, 0.0, 0.0, 0.0, 0.0, 0.0, 0.0, 1.695680191522977E9, 0.0, 2023-09-25 17:16:31.522
172.0, -187500.02235174447, 20060.981221316008, -51201.49865168317, -42887.789653276166, -26787.604604673936, -9412.833680252275, -187500.02235174447, -10254.2203967834, 8632.534281317507, 13091.170858284338, -19151.198166751645, -28506.11847712022, 35782.70653280098, -6522.127273336324, -40160.80977449534, -26888.522730889646, -0.002, 1.01, 0.044, 192.0, 0.0, 0.0, 0.0, 0.0, 0.0, 0.0, 0.0, 0.0, 0.0, 1.69568019152298E9, 0.0, 2023-09-25 17:16:31.522
174.0, -187500.02235174447, 20048.978334543506, -51211.15460528787, -42897.46795862531, -26792.67845066529, -9424.031904224385, -187500.02235174447, -10261.864693387115, 8633.89773772928, 13083.504209936167, -19222.075548419423, -28559.337980668304, 35702.083790550685, -6539.315764822455, -40192.41514115514, -26908.70635613279, -0.002, 1.01, 0.044, 192.0, 0.0, 0.0, 0.0, 0.0, 0.0, 0.0, 0.0, 0.0, 0.0, 1.695680191522983E9, 0.0, 2023-09-25 17:16:31.522
176.0, -187500.02235174447, 20055.706209624554, -51215.53554720111, -42889.28722015467, -26783.268366249606, -9418.95805823303, -187500.02235174447, -10265.753896922339, 8639.79859826548, 13087.460468704758, -19158.88716684427, -28515.573265024814, 35792.00485849439, -6539.159302611269, -40141.4755155415, -26899.877417072945, -0.002, 1.01, 0.044, 192.0, 0.0, 0.0, 0.0, 0.0, 0.0, 0.0, 0.0, 0.0, 0.0, 1.695680191522987E9, 0.0, 2023-09-25 17:16:31.522
178.0, -187500.02235174447, 20055.214471246538, -51231.96407937576, -42886.53795558667, -26779.28975573656, -9414.420654108602, -187500.02235174447, -10257.528454962785, 8646.057086712968, 13077.580997655512, -19227.305856621966, -28570.715018596056, 35708.20816853144, -6539.651040989285, -40184.4355683846, -26925.604274941, -0.008, 1.01, 0.046, 192.0, 127.5, 96.0, 15.5, 72.0, 0.5, 56.0, 0.0, 0.0, 0.0, 1.69568019152299E9, 0.0, 2023-09-25 17:16:31.522
180.0, -187500.02235174447, 20052.487558422992, -51202.21390750574, -42895.277487668696, -26789.817427375012, -9418.779244277388, -187500.02235174447, -10264.83747539967, 8642.95019423368, 13079.994986056685, -19162.754018635038, -28521.07179416082, 35777.92325948754, -6528.698686206185, -40131.394878792154, -26905.93473982033, -0.008, 1.01, 0.046, 192.0, 0.0, 0.0, 0.0, 0.0, 0.0, 0.0, 0.0, 0.0, 0.0, 1.695680191522993E9, 0.0, 2023-09-25 17:16:31.522
182.0, -187500.02235174447, 20037.422482660113, -51223.917451371846, -42901.558327860635, -26788.811598874523, -9423.406055379637, -187500.02235174447, -10274.336966793177, 8625.42642658072, 13066.807456828054, -19209.26799884653, -28554.46530037705, 35718.62408144761, -6545.596605014397, -40147.063451655325, -26916.954149836798, -0.008, 1.01, 0.046, 192.0, 0.0, 0.0, 0.0, 0.0, 0.0, 0.0, 0.0, 0.0, 0.0, 1.695680191585292E9, 0.0, 2023-09-25 17:16:31.585
184.0, -187500.02235174447, 20042.831604818297, -51203.24208775069, -42896.88681326948, -26780.29558423705, -9420.165052433616, -187500.02235174447, -10279.835495929181, 8631.237880139099, 13068.39443068438, -19173.996946096056, -28531.21948614353, 35779.2420124104, -6551.385706828321, -40111.7700471604, -26910.51684743367, -0.008, 1.01, 0.046, 192.0, 0.0, 0.0, 0.0, 0.0, 0.0, 0.0, 0.0, 0.0, 0.0, 1.695680191585315E9, 0.0, 2023-09-25 17:16:31.585
186.0, -187500.02235174447, 20051.034695033395, -51243.89991091489, -42874.356254858525, -26764.20232822923, -9402.618933036201, -187500.02235174447, -10248.230129269377, 8646.817046024447, 13077.759811611155, -19231.86561249085, -28572.436102919117, 35722.423878005015, -6543.607299757874, -40153.23253312499, -26931.66159768839, -0.008, 1.01, 0.046, 192.0, 0.0, 0.0, 0.0, 0.0, 0.0, 0.0, 0.0, 0.0, 0.0, 1.695680191585318E9, 0.0, 2023-09-25 17:16:31.585
188.0, -187500.02235174447, 20032.840375046777, -51187.30529395405, -42900.68660982688, -26785.68235465078, -9426.267078669916, -187500.02235174447, -10266.759725422828, 8644.85009251238, 13089.561532683556, -19207.949245923668, -28556.745178311492, 35750.85529695217, -6535.247747331589, -40145.49882954345, -26917.267074259173, -0.01, 1.006, 0.05, 192.0, 127.5, 88.0, 15.5, 56.0, 0.5, 72.0, 0.0, 0.0, 0.0, 1.695680191585322E9, 0.0, 2023-09-25 17:16:31.585
190.0, -187500.02235174447, 20019.809308029333, -51229.95242237478, -42897.15503420294, -26788.565729685513, -9427.854052526243, -187500.02235174447, -10278.337929050676, 8612.730635730104, 13056.704468334256, -19194.158219594745, -28538.93083798061, 35763.886363969614, -6567.501314580598, -40108.88667212566, -26897.32931820504, -0.01, 1.006, 0.05, 192.0, 0.0, 0.0, 0.0, 0.0, 0.0, 0.0, 0.0, 0.0, 0.0, 1.695680191585325E9, 0.0, 2023-09-25 17:16:31.585
192.0, -187500.02235174447, 20012.05325270334, -51180.82328806201, -42909.98493552029, -26802.826142648002, -9440.39338116567, -187500.02235174447, -10291.726623979404, 8617.580964276905, 13067.947395795274, -19181.171856066212, -28537.813250757845, 35785.41109388007, -6562.718041267162, -40086.06554103679, -26901.263225229173, -0.01, 1.006, 0.05, 192.0, 0.0, 0.0, 0.0, 0.0, 0.0, 0.0, 0.0, 0.0, 0.0, 1.695680191585328E9, 0.0, 2023-09-25 17:16:31.585
194.0, -187500.02235174447, 20015.29425564936, -51243.542283003604, -42891.00830447773, -26781.189654015263, -9417.616953565712, -187500.02235174447, -10282.629463986095, 8602.56059200294, 13059.00669801315, -19176.969728108612, -28534.08050943381, 35796.98929750792, -6567.277797136045, -40067.31242743879, -26905.51005667568, -0.01, 1.006, 0.05, 192.0, 0.0, 0.0, 0.0, 0.0, 0.0, 0.0, 0.0, 0.0, 0.0, 1.695680191585331E9, 0.0, 2023-09-25 17:16:31.585
196.0, -187500.02235174447, 20021.262171418926, -51207.77949187512, -42890.717731799814, -26785.07885755049, -9412.476052340991, -187500.02235174447, -10285.110507620635, 8629.472092327129, 13080.039689545596, -19212.41959481473, -28563.89773653719, 35761.852355224175, -6557.1301051533355, -40094.626259163175, -26926.565399952582, -0.01, 1.006, 0.05, 192.0, 0.0, 0.0, 0.0, 0.0, 0.0, 0.0, 0.0, 0.0, 0.0, 1.695680191585334E9, 0.0, 2023-09-25 17:16:31.585
198.0, -187500.02235174447, 20014.020206215406, -51256.685108743324, -42887.923763742896, -26786.174093028796, -9408.028055194385, -187500.02235174447, -10288.485621033386, 8623.638287024294, 13083.392451213891, -19198.695623719173, -28548.162108440654, 35777.096244942695, -6553.307956851478, -40088.88186083816, -26926.587751697036, -0.012, 1.014, 0.05, 192.0, 127.5, 80.0, 15.5, 88.0, 0.5, 72.0, 0.0, 0.0, 0.0, 1.695680191643518E9, 0.0, 2023-09-25 17:16:31.643
200.0, -187500.02235174447, 20006.264150889416, -51193.80965159055, -42902.51945287221, -26805.798924660558, -9423.71897980201, -187500.02235174447, -10293.984150169392, 8615.859879953847, 13079.123268022928, -19205.781126711503, -28550.84431777529, 35759.68423601201, -6556.3701458418545, -40073.54856414182, -26907.029975298643, -0.012, 1.014, 0.05, 192.0, 0.0, 0.0, 0.0, 0.0, 0.0, 0.0, 0.0, 0.0, 0.0, 1.695680191643528E9, 0.0, 2023-09-25 17:16:31.643
202.0, -187500.02235174447, 20022.357406897238, -51242.17882659183, -42866.19786813234, -26775.53466266807, -9401.367235346703, -187500.02235174447, -10289.692615233973, 8618.765606733037, 13080.039689545596, -19172.65584142874, -28520.87062846072, 35797.63749809712, -6557.15245689779, -40035.26002588988, -26905.174780508853, -0.012, 1.014, 0.05, 192.0, 0.0, 0.0, 0.0, 0.0, 0.0, 0.0, 0.0, 0.0, 0.0, 1.695680191643531E9, 0.0, 2023-09-25 17:16:31.643
204.0, -187500.02235174447, 20023.273828419904, -51190.94862830027, -42867.784841988665, -26770.550223654536, -9397.187459133562, -187500.02235174447, -10246.017306568303, 8653.94725250569, 13102.458489234268, -19232.871440991337, -28570.782073829425, 35714.08667732318, -6536.275927576534, -40083.83036659126, -26919.368138237973, -0.012, 1.014, 0.05, 192.0, 0.0, 0.0, 0.0, 0.0, 0.0, 0.0, 0.0, 0.0, 0.0, 1.695680191643534E9, 0.0, 2023-09-25 17:16:31.643
206.0, -187500.02235174447, 20022.491517363967, -51233.79692242109, -42859.9170279404, -26777.88159583588, -9398.19328763405, -187500.02235174447, -10257.170827051501, 8634.076551684922, 13087.549875682578, -19177.55087346445, -28521.854105216757, 35785.88048051363, -6538.421695044243, -40042.345528882215, -26901.19616999581, -0.012, 1.014, 0.05, 192.0, 0.0, 0.0, 0.0, 0.0, 0.0, 0.0, 0.0, 0.0, 0.0, 1.695680191643538E9, 0.0, 2023-09-25 17:16:31.643
208.0, -187500.02235174447, 20031.029883745898, -51185.91948579782, -42863.62741751998, -26781.793151115555, -9407.536316816368, -187500.02235174447, -10262.356431765133, 8651.935595504714, 13092.511962951658, -19230.85978399036, -28571.296163951894, 35707.40350573105, -6532.38672404131, -40079.7623491004, -26911.790896867624, -0.012, 0.994, 0.05, 192.0, 127.5, 80.0, 15.5, 8.0, 0.5, 72.0, 0.0, 0.0, 0.0, 1.695680191643541E9, 0.0, 2023-09-25 17:16:31.643
210.0, -187500.02235174447, 20037.847165804764, -51219.648268180885, -42854.28438833766, -26775.087627778965, -9400.450813824036, -187500.02235174447, -10254.332155505677, 8649.611014081362, 13106.5935619585, -19173.684021673682, -28528.64903553117, 35781.164262433565, -6525.234165815612, -40045.474773105954, -26901.19616999581, -0.012, 0.994, 0.05, 192.0, 0.0, 0.0, 0.0, 0.0, 0.0, 0.0, 0.0, 0.0, 0.0, 1.695680191643544E9, 0.0, 2023-09-25 17:16:31.643
212.0, -187500.02235174447, 20016.411842872127, -51189.8310410775, -42891.61180157802, -26803.630805448392, -9435.207776452038, -187500.02235174447, -10287.300978577254, 8645.610051823862, 13097.988140343206, -19231.440929346198, -28573.173710486142, 35701.90497659504, -6539.516930522554, -40077.48247116595, -26906.09120203152, -0.012, 0.994, 0.05, 192.0, 0.0, 0.0, 0.0, 0.0, 0.0, 0.0, 0.0, 0.0, 0.0, 1.695680191702375E9, 0.0, 2023-09-25 17:16:31.702
214.0, -187500.02235174447, 20015.115441693717, -51225.88440488392, -42882.872269496, -26798.244035034662, -9428.278735670894, -187500.02235174447, -10291.950141423958, 8638.837473253903, 13089.896808850386, -19156.629640654282, -28517.249645858963, 35804.633594111634, -6554.939634196715, -40011.5448250228, -26900.905597317887, -0.012, 0.994, 0.05, 192.0, 0.0, 0.0, 0.0, 0.0, 0.0, 0.0, 0.0, 0.0, 0.0, 1.695680191702387E9, 0.0, 2023-09-25 17:16:31.702
216.0, -187500.02235174447, 20005.370081111203, -51201.185727260796, -42895.880984768984, -26803.630805448392, -9434.336058418281, -187500.02235174447, -10291.212533856933, 8647.398191380285, 13081.49255293519, -19229.719845023137, -28578.001687288488, 35710.264529021326, -6558.53826505402, -40052.180296442544, -26921.648016172414, -0.012, 0.994, 0.05, 192.0, 0.0, 0.0, 0.0, 0.0, 0.0, 0.0, 0.0, 0.0, 0.0, 1.695680191702391E9, 0.0, 2023-09-25 17:16:31.702
218.0, -187500.02235174447, 20011.62856955869, -51223.9398031163, -42879.58656306107, -26791.136180297875, -9417.549898332345, -187500.02235174447, -10287.949179166459, 8637.831644753414, 13078.340956966991, -19143.732684103572, -28517.36140458124, 35819.743373363424, -6557.510084809075, -39977.86074612865, -26899.36332695047, -0.002, 1.002, 0.048, 192.0, 127.5, 120.0, 15.5, 40.0, 0.5, 64.0, 0.0, 0.0, 0.0, 1.695680191702394E9, 0.0, 2023-09-25 17:16:31.702
220.0, -187500.02235174447, 20008.298159634847, -51217.92718385782, -42885.10744394153, -26788.25280526314, -9418.801596021844, -187500.02235174447, -10280.573103496206, 8648.024040225035, 13089.270960005637, -19240.202813172677, -28596.173655530652, 35697.322868981704, -6552.39153532881, -40041.853790504196, -26933.986179111744, -0.002, 1.002, 0.048, 192.0, 0.0, 0.0, 0.0, 0.0, 0.0, 0.0, 0.0, 0.0, 0.0, 1.695680191702398E9, 0.0, 2023-09-25 17:16:31.702
222.0, -187500.02235174447, 20006.10768867823, -51213.5909454335, -42889.64484806596, -26796.567654200513, -9421.796729778855, -187500.02235174447, -10287.613902999628, 8642.27964190002, 13092.869590862942, -19162.664611657216, -28539.22141065853, 35792.764817805866, -6555.789000486016, -39978.8889263736, -26907.678175887846, -0.002, 1.002, 0.048, 192.0, 0.0, 0.0, 0.0, 0.0, 0.0, 0.0, 0.0, 0.0, 0.0, 1.695680191702401E9, 0.0, 2023-09-25 17:16:31.702
224.0, -187500.02235174447, 19985.00764191242, -51217.63661117991, -42909.91788028692, -26810.55984622954, -9438.046447997862, -187500.02235174447, -10296.107565892646, 8639.910356987757, 13076.418706943836, -19233.184365413712, -28592.887949095722, 35709.213997031926, -6569.8705994928605, -40014.60701401318, -26925.201943540807, -0.002, 1.002, 0.048, 192.0, 0.0, 0.0, 0.0, 0.0, 0.0, 0.0, 0.0, 0.0, 0.0, 1.695680191702404E9, 0.0, 2023-09-25 17:16:31.702
226.0, -187500.02235174447, 19995.892941462153, -51201.744520872184, -42895.23278417978, -26796.63470943388, -9425.596526336256, -187500.02235174447, -10290.094946634168, 8633.987144707102, 13076.910445321852, -19157.344896476854, -28537.70149203557, 35803.78422782233, -6566.003747702092, -39938.85695205414, -26904.370117708462, -0.002, 1.002, 0.048, 192.0, 0.0, 0.0, 0.0, 0.0, 0.0, 0.0, 0.0, 0.0, 0.0, 1.695680191702407E9, 0.0, 2023-09-25 17:16:31.702
228.0, -187500.02235174447, 19979.956147665518, -51232.27700379813, -42906.14043547397, -26803.317881026018, -9431.631497339189, -187500.02235174447, -10295.03468215879, 8638.770418020536, 13067.902692306363, -19233.05025494698, -28596.240710764017, 35714.55606395675, -6570.116468681868, -39982.33109501971, -26930.0075685987, -0.002, 1.002, 0.048, 192.0, 0.0, 0.0, 15.5, 72.0, 0.5, 80.0, 0.0, 0.0, 0.0, 1.695680191762904E9, 0.0, 2023-09-25 17:16:31.762
230.0, -187500.02235174447, 19996.585845540267, -51199.308180726555, -42892.99760973425, -26800.63567169138, -9424.05425596884, -187500.02235174447, -10298.968589182925, 8630.008534194058, 13073.289462720093, -19172.633489684285, -28549.8384892748, 35787.22158518095, -6566.227265146646, -39923.210730935425, -26908.61694915497, -0.002, 1.002, 0.048, 192.0, 0.0, 0.0, 0.0, 0.0, 0.0, 0.0, 0.0, 0.0, 0.0, 1.695680191762917E9, 0.0, 2023-09-25 17:16:31.762
232.0, -187500.02235174447, 20002.03967118736, -51233.95338463228, -42887.14145268696, -26797.059392578532, -9421.014418722918, -187500.02235174447, -10296.50989729284, 8638.032810453513, 13088.488648949702, -19234.056083447467, -28588.66346939367, 35707.69407840897, -6563.433297089732, -39958.302969730255, -26928.822926142566, -0.002, 1.002, 0.048, 192.0, 0.0, 0.0, 0.0, 0.0, 0.0, 0.0, 0.0, 0.0, 0.0, 1.695680191762921E9, 0.0, 2023-09-25 17:16:31.762
234.0, -187500.02235174447, 20005.303025877838, -51195.6871981248, -42894.96456324632, -26805.9777386162, -9434.20194795155, -187500.02235174447, -10312.692560278483, 8639.955060476668, 13092.02022457364, -19189.30789104794, -28552.006608486965, 35759.751291245375, -6555.453724319187, -39910.760809273816, -26906.31471947607, -0.002, 1.002, 0.048, 192.0, 0.0, 0.0, 0.0, 0.0, 0.0, 0.0, 0.0, 0.0, 0.0, 1.695680191762924E9, 0.0, 2023-09-25 17:16:31.762
236.0, -187500.02235174447, 19997.837543229765, -51233.72986718773, -42908.7779413197, -26810.045756107065, -9442.96383177803, -187500.02235174447, -10314.70421727946, 8635.775284263525, 13090.321491995037, -19219.102766406868, -28571.89966105219, 35721.39569776007, -6565.042622690514, -39912.99598371935, -26915.166010280373, -0.002, 1.002, 0.048, 192.0, 0.0, 0.0, 0.0, 0.0, 0.0, 0.0, 0.0, 0.0, 0.0, 1.695680191762927E9, 0.0, 2023-09-25 17:16:31.762
238.0, -187500.02235174447, 20009.706319535533, -51200.336360971494, -42912.175406476905, -26809.598721217957, -9441.890948044176, -187500.02235174447, -10305.94233345298, 8633.696572029183, 13100.916218866852, -19200.59552199787, -28564.858861548768, 35749.60359926267, -6575.167962928768, -39876.83086119066, -26913.534332935138, -0.004, 1.012, 0.044, 192.0, 127.5, 112.0, 15.5, 80.0, 0.5, 48.0, 0.0, 0.0, 0.0, 1.69568019176293E9, 0.0, 2023-09-25 17:16:31.762
240.0, -187500.02235174447, 20011.203886414038, -51247.85616968348, -42909.71671458682, -26810.023404362608, -9437.01826775292, -187500.02235174447, -10312.357284111653, 8646.012383224057, 13106.92883812533, -19222.94726645318, -28580.013344289466, 35723.049726849764, -6576.7996402740055, -39878.01550364679, -26928.778222653655, -0.004, 1.012, 0.044, 192.0, 0.0, 0.0, 0.0, 0.0, 0.0, 0.0, 0.0, 0.0, 0.0, 1.695680191762934E9, 0.0, 2023-09-25 17:16:31.762
242.0, -187500.02235174447, 19998.597502541244, -51188.86991606592, -42916.802217579156, -26823.792078947077, -9444.371991678714, -187500.02235174447, -10311.0832346777, 8635.864691241348, 13104.336035768514, -19213.9842169266, -28575.900623309688, 35728.61531121914, -6562.6509860337965, -39842.29741600721, -26915.791859125122, -0.004, 1.012, 0.044, 192.0, 0.0, 0.0, 0.0, 0.0, 0.0, 0.0, 0.0, 0.0, 0.0, 1.695680191824383E9, 0.0, 2023-09-25 17:16:31.824
244.0, -187500.02235174447, 19998.038708929864, -51251.54420751861, -42883.788691018664, -26805.463648493725, -9420.321514644804, -187500.02235174447, -10296.286379848289, 8619.32440034442, 13066.740401594687, -19209.51386803554, -28560.030884746422, 35737.667767723535, -6568.216570403168, -39810.82615981414, -26915.32247249156, -0.004, 1.012, 0.044, 192.0, 0.0, 0.0, 0.0, 0.0, 0.0, 0.0, 0.0, 0.0, 0.0, 1.695680191824395E9, 0.0, 2023-09-25 17:16:31.824
246.0, -187500.02235174447, 20005.95122646704, -51210.416997720844, -42901.73714181628, -26813.465573008725, -9433.956078762541, -187500.02235174447, -10308.80335674326, 8634.23301389611, 13081.246683746182, -19245.768397542048, -28581.488559423517, 35691.19849100095, -6557.711250509174, -39827.83583734463, -26926.09601331902, -0.004, 1.012, 0.044, 192.0, 0.0, 0.0, 0.0, 0.0, 0.0, 0.0, 0.0, 0.0, 0.0, 1.695680191824399E9, 0.0, 2023-09-25 17:16:31.824
248.0, -187500.02235174447, 19999.62568278619, -51263.43533556883, -42894.78574929068, -26810.761011929633, -9432.436160139581, -187500.02235174447, -10317.56524056974, 8619.2349933666, 13086.454640204269, -19222.388472841798, -28563.204832459072, 35723.11678208313, -6567.166038413768, -39800.365543409054, -26925.760737152188, -0.004, 1.016, 0.038, 192.0, 127.5, 112.0, 15.5, 96.0, 0.5, 24.0, 0.0, 0.0, 0.0, 1.695680191824402E9, 0.0, 2023-09-25 17:16:31.824
250.0, -187500.02235174447, 19991.13201989317, -51185.98654103119, -42911.99659252127, -26826.094308625976, -9446.406000424147, -187500.02235174447, -10310.412682344042, 8627.639249281794, 13096.423518231335, -19246.260135920067, -28584.506044924983, 35674.322923937194, -6560.371108099354, -39800.61141259807, -26919.61400742698, -0.004, 1.016, 0.038, 192.0, 0.0, 0.0, 0.0, 0.0, 0.0, 0.0, 0.0, 0.0, 0.0, 1.695680191824405E9, 0.0, 2023-09-25 17:16:31.824
252.0, -187500.02235174447, 19983.420668056093, -51240.94948064679, -42900.798368549156, -26820.148744600865, -9443.522625389412, -187500.02235174447, -10316.671170791527, 8608.237935094588, 13101.922047367341, -19183.11645783382, -28533.20879140005, 35749.58124751822, -6576.39730887381, -39723.45319073834, -26895.921158304354, -0.004, 1.016, 0.038, 192.0, 0.0, 0.0, 0.0, 0.0, 0.0, 0.0, 0.0, 0.0, 0.0, 1.695680191824409E9, 0.0, 2023-09-25 17:16:31.824
254.0, -187500.02235174447, 19997.211694385016, -51211.534584943605, -42889.957772488335, -26814.69491895377, -9432.883195028686, -187500.02235174447, -10316.51470858034, 8617.916240443736, 13065.242834716182, -19247.91416500976, -28585.645983892202, 35663.30351392073, -6571.189352415723, -39751.95166491886, -26923.39145223993, -0.004, 1.016, 0.038, 192.0, 0.0, 0.0, 0.0, 0.0, 0.0, 0.0, 0.0, 0.0, 0.0, 1.695680191824412E9, 0.0, 2023-09-25 17:16:31.824
0.0, -187500.02235174447, 20021.59744758576, -51244.458704526274, -42858.79944071763, -26792.63374717638, -9409.279752883882, -187500.02235174447, -10306.121147408623, 8628.645077782283, 13091.93081759582, -19196.88513241829, -28544.51877409444, 35715.96422385743, -6553.196198129202, -39714.66895516741, -26916.015376569674, -0.004, 1.016, 0.038, 192.0, 0.0, 0.0, 0.0, 0.0, 0.0, 0.0, 0.0, 0.0, 0.0, 1.695680191824415E9, 0.0, 2023-09-25 17:16:31.824
2.0, -187500.02235174447, 20006.420613100603, -51193.87670682391, -42883.587525318566, -26816.9300933993, -9438.96286952053, -187500.02235174447, -10314.61481030164, 8635.32824937442, 13103.173745056838, -19247.71299930966, -28587.367068215262, 35628.05481291471, -6553.0844394069245, -39742.04984212516, -26913.42257421286, -0.006, 1.018, 0.038, 192.0, 127.5, 104.0, 15.5, 104.0, 0.5, 24.0, 0.0, 0.0, 0.0, 1.695680191883276E9, 0.0, 2023-09-25 17:16:31.883
4.0, -187500.02235174447, 20029.934648267586, -51240.480094013226, -42860.1181936405, -26793.527816954593, -9423.070779212807, -187500.02235174447, -10306.858754975648, 8619.614973022339, 13105.900657880386, -19166.75498089254, -28530.92891346561, 35725.77663967331, -6556.750125497595, -39665.5621725991, -26892.56839663606, -0.006, 1.018, 0.038, 192.0, 0.0, 0.0, 0.0, 0.0, 0.0, 0.0, 0.0, 0.0, 0.0, 1.695680191883285E9, 0.0, 2023-09-25 17:16:31.883
6.0, -187500.02235174447, 20012.656749803635, -51194.86018357995, -42879.944190972354, -26817.69005271078, -9444.640212612177, -187500.02235174447, -10326.461234862953, 8637.205795908665, 13102.279675278625, -19233.89962123628, -28582.673201879647, 35624.23266461285, -6557.934767953726, -39702.1743300169, -26907.588768910024, -0.006, 1.018, 0.038, 192.0, 0.0, 0.0, 0.0, 0.0, 0.0, 0.0, 0.0, 0.0, 0.0, 1.695680191883288E9, 0.0, 2023-09-25 17:16:31.883
8.0, -187500.02235174447, 20016.702415550044, -51226.57730896203, -42873.08220542457, -26811.140991585376, -9439.231090453994, -187500.02235174447, -10331.937412254503, 8630.880252227815, 13098.546933954589, -19157.009620310026, -28522.345843594772, 35717.26062503584, -6567.9930529586145, -39628.63709075893, -26897.105800760484, -0.006, 1.018, 0.038, 192.0, 0.0, 0.0, 0.0, 0.0, 0.0, 0.0, 0.0, 0.0, 0.0, 1.695680191883291E9, 0.0, 2023-09-25 17:16:31.883
10.0, -187500.02235174447, 20011.24858990295, -51208.02536106412, -42882.55934507363, -26807.810581661535, -9448.507064402946, -187500.02235174447, -10338.084141979713, 8633.89773772928, 13093.093108307494, -19228.892830478293, -28574.872443064745, 35620.29875758872, -6576.374957129355, -39657.80611727311, -26917.289426003626, -0.006, 1.018, 0.038, 192.0, 0.0, 0.0, 0.0, 0.0, 0.0, 0.0, 0.0, 0.0, 0.0, 1.695680191883295E9, 0.0, 2023-09-25 17:16:31.883
12.0, -187500.02235174447, 20018.53525859538, -51222.53164321562, -42878.44662409385, -26808.414078761827, -9442.762666077931, -187500.02235174447, -10337.10066522368, 8638.703362787171, 13098.97161709924, -19159.55771917793, -28523.910465706645, 35702.150845784054, -6576.442012362721, -39593.67896243083, -26908.639300899424, -0.006, 1.018, 0.036000000000000004, 192.0, 127.5, 104.0, 15.5, 104.0, 0.5, 16.0, 0.0, 0.0, 0.0, 1.695680191883298E9, 0.0, 2023-09-25 17:16:31.883
14.0, -187500.02235174447, 20014.44488936006, -51233.081666598526, -42884.12396718549, -26805.530703727094, -9442.360334677736, -187500.02235174447, -10329.90340350907, 8648.269909414043, 13097.339939754003, -19252.42921738973, -28591.278623494938, 35591.93439387493, -6584.555695599997, -39641.757564754196, -26939.305894292105, -0.006, 1.018, 0.036000000000000004, 192.0, 0.0, 0.0, 0.0, 0.0, 0.0, 0.0, 0.0, 0.0, 0.0, 1.695680191883301E9, 0.0, 2023-09-25 17:16:31.883
16.0, -187500.02235174447, 20000.117421164206, -51212.22748902172, -42900.083112726585, -26827.323654571017, -9457.939500563085, -187500.02235174447, -10351.606947375172, 8627.99687719308, 13096.155297297872, -19170.912405361225, -28524.17868664011, 35688.73979911087, -6579.034814719536, -39562.56533414905, -26911.075641045052, -0.006, 1.018, 0.036000000000000004, 192.0, 0.0, 0.0, 0.0, 0.0, 0.0, 0.0, 0.0, 0.0, 0.0, 1.695680191943608E9, 0.0, 2023-09-25 17:16:31.943
18.0, -187500.02235174447, 20006.241799144962, -51243.85520742598, -42890.62832482199, -26817.667700966325, -9446.227186468504, -187500.02235174447, -10339.693467580493, 8627.773359748526, 13083.906541336364, -19241.052179461978, -28578.26990822195, 35606.597138237616, -6595.753919572106, -39583.68773265931, -26936.109594834998, -0.006, 1.018, 0.036000000000000004, 192.0, 0.0, 0.0, 0.0, 0.0, 0.0, 0.0, 0.0, 0.0, 0.0, 1.695680191943622E9, 0.0, 2023-09-25 17:16:31.943
20.0, -187500.02235174447, 20009.035767201873, -51223.42571299383, -42891.88002251149, -26816.326596299004, -9447.009497524441, -187500.02235174447, -10340.38637165861, 8637.451665097675, 13097.295236265092, -19192.951225394158, -28541.054253703864, 35666.835089544664, -6582.029948476547, -39542.51581937264, -26928.57705695356, -0.006, 1.018, 0.036000000000000004, 192.0, 0.0, 0.0, 0.0, 0.0, 0.0, 0.0, 0.0, 0.0, 0.0, 1.695680191943626E9, 0.0, 2023-09-25 17:16:31.943
22.0, -187500.02235174447, 20005.10186017774, -51248.034983639125, -42895.322191157604, -26813.331462541995, -9442.58385212229, -187500.02235174447, -10326.32712439622, 8626.052275425467, 13084.353576225469, -19253.300935423485, -28583.299050724396, 35597.09764684411, -6589.8307072914495, -39567.661531884856, -26942.166917582384, -0.004, 1.014, 0.04, 192.0, 127.5, 112.0, 15.5, 88.0, 0.5, 32.0, 0.0, 0.0, 0.0, 1.695680191943629E9, 0.0, 2023-09-25 17:16:31.943
24.0, -187500.02235174447, 19994.99887168394, -51215.13321580091, -42909.649659353454, -26828.284779582595, -9455.994898795474, -187500.02235174447, -10342.912118782058, 8622.297182356975, 13087.125192537927, -19194.672309717218, -28536.382739112705, 35672.937115780966, -6593.563448615486, -39500.56159503003, -26916.66357715888, -0.004, 1.014, 0.04, 192.0, 0.0, 0.0, 0.0, 0.0, 0.0, 0.0, 0.0, 0.0, 0.0, 1.695680191943633E9, 0.0, 2023-09-25 17:16:31.943
26.0, -187500.02235174447, 19988.874493703188, -51260.417850067366, -42901.424217393906, -26819.12056435592, -9447.881215558198, -187500.02235174447, -10337.90532802407, 8622.94538294618, 13076.955148810763, -19243.2426504186, -28570.513852895958, 35620.54462677773, -6608.0250272780695, -39511.446894579756, -26934.075586089562, -0.004, 1.014, 0.04, 192.0, 0.0, 0.0, 0.0, 0.0, 0.0, 0.0, 0.0, 0.0, 0.0, 1.695680191943636E9, 0.0, 2023-09-25 17:16:31.943
28.0, -187500.02235174447, 19984.15827562312, -51223.85039613848, -42902.474749383306, -26834.61032326345, -9462.141628520683, -187500.02235174447, -10357.686621867017, 8606.740368216082, 13065.801628327565, -19207.703376734662, -28543.825870016324, 35668.35500816763, -6600.872469052371, -39463.74827191213, -26914.875437602455, -0.004, 1.014, 0.04, 192.0, 0.0, 0.0, 0.0, 0.0, 0.0, 0.0, 0.0, 0.0, 0.0, 1.695680191943639E9, 0.0, 2023-09-25 17:16:31.943
30.0, -187500.02235174447, 20006.308854378327, -51263.52474254665, -42858.64297850645, -26800.568616458015, -9428.614011837723, -187500.02235174447, -10324.986019728902, 8623.303010857464, 13078.139791266894, -19238.504080594073, -28560.36616091325, 35631.273464116275, -6595.753919572106, -39466.81046090251, -26930.879286632455, -0.004, 1.014, 0.04, 192.0, 0.0, 0.0, 0.0, 0.0, 0.0, 0.0, 0.0, 0.0, 0.0, 1.695680191943642E9, 0.0, 2023-09-25 17:16:31.943
32.0, -187500.02235174447, 19987.376926824683, -51204.94082032929, -42889.57779283259, -26828.061262138042, -9457.44776218507, -187500.02235174447, -10347.561281628763, 8636.870519741837, 13087.907503593864, -19227.95405721117, -28553.75004455448, 35634.53681880675, -6575.749108284606, -39453.86880086289, -26921.08922256103, -0.004, 1.014, 0.04, 192.0, 0.0, 0.0, 15.5, 56.0, 0.5, 32.0, 0.0, 0.0, 0.0, 1.695680192004309E9, 0.0, 2023-09-25 17:16:32.004
34.0, -187500.02235174447, 19984.873531445686, -51253.04177439711, -42881.06177819512, -26807.8776368949, -9446.115427746228, -187500.02235174447, -10340.296964680787, 8616.46337705414, 13068.573244640023, -19216.822888472427, -28539.444928103083, 35649.98187422536, -6591.909419525793, -39420.005908013096, -26916.462411458782, -0.004, 1.014, 0.04, 192.0, 0.0, 0.0, 0.0, 0.0, 0.0, 0.0, 0.0, 0.0, 0.0, 1.695680192004318E9, 0.0, 2023-09-25 17:16:32.004
36.0, -187500.02235174447, 19993.166028638607, -51196.581267903006, -42889.6224963215, -26812.571503230516, -9449.356430692247, -187500.02235174447, -10341.90629028157, 8627.013400437047, 13083.034823302607, -19224.064853675944, -28549.860841019257, 35629.731193748856, -6589.718948569173, -39410.12643696385, -26917.714109148277, -0.004, 1.014, 0.04, 192.0, 0.0, 0.0, 0.0, 0.0, 0.0, 0.0, 0.0, 0.0, 0.0, 1.695680192004321E9, 0.0, 2023-09-25 17:16:32.004
38.0, -187500.02235174447, 19996.96582519601, -51257.601530265994, -42881.57586831759, -26795.472418722205, -9437.711171831033, -187500.02235174447, -10336.47481637893, 8616.955115432158, 13080.933759323807, -19209.536219779995, -28532.73940476649, 35644.751566022824, -6582.9016665103045, -39384.22076514015, -26919.189324282328, -0.004, 1.014, 0.04, 192.0, 0.0, 0.0, 0.0, 0.0, 0.0, 0.0, 0.0, 0.0, 0.0, 1.695680192004324E9, 0.0, 2023-09-25 17:16:32.004
40.0, -187500.02235174447, 19992.67429026059, -51194.27903822411, -42902.38534240548, -26809.822238662513, -9455.413753439636, -187500.02235174447, -10343.269746693344, 8631.595508050385, 13086.96873032674, -19226.456490332665, -28547.60331482927, 35612.587405751634, -6574.20683791719, -39379.77276799354, -26915.52363819166, -0.004, 1.014, 0.04, 192.0, 0.0, 0.0, 0.0, 0.0, 0.0, 0.0, 0.0, 0.0, 0.0, 1.695680192004328E9, 0.0, 2023-09-25 17:16:32.004
42.0, -187500.02235174447, 20013.01437771492, -51255.7463354762, -42878.133699671474, -26789.862130863923, -9426.53529960338, -187500.02235174447, -10324.04724646178, 8625.024095180523, 13083.370099469435, -19189.88903640378, -28513.27103534592, 35652.61938007109, -6577.0902129519245, -39332.767049404036, -26911.27680674515, 0.002, 1.012, 0.042, 192.0, 0.0, 8.0, 15.5, 80.0, 0.5, 40.0, 0.0, 0.0, 0.0, 1.695680192004331E9, 0.0, 2023-09-25 17:16:32.004
44.0, -187500.02235174447, 20016.456546361034, -51226.19732930629, -42890.62832482199, -26795.047735577555, -9435.230128196494, -187500.02235174447, -10328.584650586206, 8647.62170882484, 13105.07364333554, -19246.52835685353, -28556.70047482258, 35585.56414670517, -6560.415811588266, -39370.094462644396, -26923.99494934022, 0.002, 1.012, 0.042, 192.0, 0.0, 0.0, 0.0, 0.0, 0.0, 0.0, 0.0, 0.0, 0.0, 1.695680192004334E9, 0.0, 2023-09-25 17:16:32.004
46.0, -187500.02235174447, 20037.86951754922, -51257.735640732724, -42866.93547569936, -26780.228529003685, -9415.828814009288, -187500.02235174447, -10314.860679490648, 8643.33017388942, 13111.846221905496, -19211.838449458894, -28526.79384074138, 35629.7088420044, -6556.817180730961, -39354.716462459146, -26925.067833074074, 0.002, 1.012, 0.042, 192.0, 0.0, 0.0, 0.0, 0.0, 0.0, 0.0, 0.0, 0.0, 0.0, 1.695680192065415E9, 0.0, 2023-09-25 17:16:32.065
48.0, -187500.02235174447, 20030.00170350095, -51199.53169817111, -42892.05883646713, -26800.00982284663, -9435.118369474218, -187500.02235174447, -10317.98992371439, 8645.610051823862, 13118.998780131196, -19250.52931911103, -28560.768492313447, 35562.00540804928, -6547.898834693294, -39378.43166332623, -26922.18445803934, 0.002, 1.012, 0.042, 192.0, 0.0, 0.0, 0.0, 0.0, 0.0, 0.0, 0.0, 0.0, 0.0, 1.695680192065428E9, 0.0, 2023-09-25 17:16:32.065
50.0, -187500.02235174447, 20029.688779078577, -51230.01947760815, -42898.07145572561, -26799.24986353515, -9439.879291043198, -187500.02235174447, -10325.164833684545, 8637.94340347569, 13100.312721766559, -19170.711239661126, -28499.54706425036, 35667.550345367235, -6554.134971396324, -39301.40755193324, -26899.229216483738, 0.002, 1.012, 0.042, 192.0, 0.0, 0.0, 0.0, 0.0, 0.0, 0.0, 0.0, 0.0, 0.0, 1.695680192065432E9, 0.0, 2023-09-25 17:16:32.065
52.0, -187500.02235174447, 20033.801500058355, -51203.89028833989, -42921.94311880387, -26818.338253299982, -9459.817047097331, -187500.02235174447, -10336.877147779125, 8622.006609679058, 13075.055250532061, -19234.95015322568, -28548.095053207286, 35596.91883288846, -6570.004709959592, -39314.68448813969, -26912.684966645837, 0.002, 1.012, 0.042, 192.0, 0.0, 0.0, 15.5, 64.0, 0.5, 40.0, 0.0, 0.0, 0.0, 1.695680192065435E9, 0.0, 2023-09-25 17:16:32.065
54.0, -187500.02235174447, 20053.64984913467, -51252.86296044147, -42908.15209247495, -26806.089497338475, -9442.561500377835, -187500.02235174447, -10328.115263952644, 8619.436159066696, 13083.615968658445, -19167.76080939303, -28497.334241549284, 35702.32965973969, -6565.8249337464495, -39243.36007158281, -26906.202960753795, 0.002, 1.012, 0.042, 192.0, 0.0, 0.0, 0.0, 0.0, 0.0, 0.0, 0.0, 0.0, 0.0, 1.695680192065438E9, 0.0, 2023-09-25 17:16:32.065
56.0, -187500.02235174447, 20071.017154576442, -51237.97669863424, -42902.51945287221, -26794.377183243894, -9443.969660278519, -187500.02235174447, -10325.544813340284, 8625.828757980915, 13069.02027952913, -19242.974429485133, -28560.299105679886, 35606.61948998207, -6569.53532332603, -39279.10051096684, -26926.47599297476, 0.002, 1.012, 0.042, 192.0, 0.0, 0.0, 0.0, 0.0, 0.0, 0.0, 0.0, 0.0, 0.0, 1.695680192065444E9, 0.0, 2023-09-25 17:16:32.065
58.0, -187500.02235174447, 20088.429163507124, -51242.67056496985, -42890.24834516625, -26774.95351731223, -9429.686895571578, -187500.02235174447, -10311.552621311263, 8641.072647699433, 13099.709224666265, -19184.010527612034, -28516.55674178085, 35683.8224153307, -6548.323517837945, -39243.136554138255, -26919.077565560052, 0.002, 1.012, 0.042, 192.0, 0.0, 0.0, 0.0, 0.0, 0.0, 0.0, 0.0, 0.0, 0.0, 1.695680192065449E9, 0.0, 2023-09-25 17:16:32.065
60.0, -187500.02235174447, 20085.389326261204, -51232.433466009315, -42917.45041816836, -26814.69491895377, -9452.44097142708, -187500.02235174447, -10344.990831016401, 8623.012438179545, 13083.459506447258, -19242.795615529492, -28560.232050446517, 35601.836216668635, -6563.656814534284, -39268.55048758394, -26919.85987661599, 0.002, 1.012, 0.042, 192.0, 0.0, 0.0, 0.0, 0.0, 0.0, 0.0, 0.0, 0.0, 0.0, 1.695680192065452E9, 0.0, 2023-09-25 17:16:32.065
62.0, -187500.02235174447, 20095.31350079936, -51251.298338329594, -42922.14428450397, -26801.082706580488, -9449.11056150324, -187500.02235174447, -10318.973400470424, 8636.959926719657, 13068.103858006461, -19173.639318184774, -28511.661709745134, 35698.41810446002, -6570.429393104243, -39208.42429499916, -26908.773411366157, 0.002, 1.006, 0.038, 192.0, 0.0, 8.0, 15.5, 56.0, 0.5, 24.0, 0.0, 0.0, 0.0, 1.69568019212336E9, 0.0, 2023-09-25 17:16:32.123
64.0, -187500.02235174447, 20122.26970461246, -51241.08359111352, -42897.982048747785, -26769.87967132088, -9428.256383926439, -187500.02235174447, -10300.130879894601, 8641.072647699433, 13099.776279899632, -19253.43504589022, -28578.001687288488, 35585.74296066081, -6570.474096593153, -39264.63893230426, -26938.791804169632, 0.002, 1.006, 0.038, 192.0, 0.0, 0.0, 0.0, 0.0, 0.0, 0.0, 0.0, 0.0, 0.0, 1.69568019212337E9, 0.0, 2023-09-25 17:16:32.123
66.0, -187500.02235174447, 20111.45146029609, -51223.492768227195, -42920.87023507002, -26798.467552479215, -9442.986183522486, -187500.02235174447, -10317.22996440291, 8634.56829006294, 13100.916218866852, -19182.80353341145, -28518.367233081728, 35665.605743599626, -6559.901721465793, -39215.77801892495, -26915.61304516948, 0.002, 1.006, 0.038, 192.0, 0.0, 0.0, 0.0, 0.0, 0.0, 0.0, 0.0, 0.0, 0.0, 1.695680192123374E9, 0.0, 2023-09-25 17:16:32.123
68.0, -187500.02235174447, 20127.74588200401, -51250.113695873464, -42902.65356333894, -26782.486055193673, -9433.240822939972, -187500.02235174447, -10300.913190950536, 8659.356374663876, 13097.406994987368, -19253.47974937913, -28577.353486699285, 35574.365922733065, -6569.714137281673, -39262.15788866972, -26940.356426281505, 0.002, 1.006, 0.038, 192.0, 0.0, 0.0, 0.0, 0.0, 0.0, 0.0, 0.0, 0.0, 0.0, 1.695680192123377E9, 0.0, 2023-09-25 17:16:32.123
70.0, -187500.02235174447, 20112.12201262975, -51220.36352400345, -42926.659336883946, -26805.664814193824, -9454.698497617066, -187500.02235174447, -10329.56812734224, 8634.523586574029, 13090.477954206224, -19179.0260885985, -28515.863837702735, 35659.302551663226, -6565.914340724271, -39200.064742572875, -26905.018318297665, 0.002, 1.006, 0.038, 192.0, 0.0, 0.0, 0.0, 0.0, 0.0, 0.0, 0.0, 0.0, 0.0, 1.69568019212338E9, 0.0, 2023-09-25 17:16:32.123
72.0, -187500.02235174447, 20123.387291835224, -51247.72205921675, -42914.209415222336, -26791.20323553124, -9443.120293989217, -187500.02235174447, -10314.972438212924, 8633.115426673345, 13096.959960098262, -19226.836469988404, -28553.191250943095, 35601.210367823885, -6580.107698453391, -39220.44953351612, -26926.23012378575, -0.002, 1.012, 0.042, 192.0, 127.5, 120.0, 15.5, 80.0, 0.5, 40.0, 0.0, 0.0, 0.0, 1.695680192123384E9, 0.0, 2023-09-25 17:16:32.123
74.0, -187500.02235174447, 20127.969399448564, -51205.030227307114, -42916.645755367965, -26800.00982284663, -9449.512892903434, -187500.02235174447, -10320.023932459824, 8637.339906375397, 13098.613989187956, -19172.521730962006, -28517.696680748068, 35649.35602538061, -6566.361375613377, -39174.00260853799, -26907.834638099033, -0.002, 1.012, 0.042, 192.0, 0.0, 0.0, 0.0, 0.0, 0.0, 0.0, 0.0, 0.0, 0.0, 1.695680192123387E9, 0.0, 2023-09-25 17:16:32.123
76.0, -187500.02235174447, 20124.88485871373, -51259.00969016668, -42912.39892392146, -26797.841703634465, -9444.327288189805, -187500.02235174447, -10319.42043535953, 8628.309801615453, 13084.755907625666, -19207.2339901011, -28541.23306765951, 35609.18994059443, -6565.512009324076, -39188.71005638958, -26922.050347572607, -0.002, 1.012, 0.042, 192.0, 0.0, 0.0, 0.0, 0.0, 0.0, 0.0, 0.0, 0.0, 0.0, 1.695680192184227E9, 0.0, 2023-09-25 17:16:32.184
78.0, -187500.02235174447, 20126.963570948075, -51201.56570691654, -42918.94798504686, -26811.36450902993, -9451.546901648868, -187500.02235174447, -10319.107510937156, 8629.405037093764, 13105.16305031336, -19186.916254391224, -28523.843410473277, 35633.03925192824, -6552.659756262274, -39163.5419921329, -26912.059117801087, -0.002, 1.012, 0.042, 192.0, 0.0, 0.0, 0.0, 0.0, 0.0, 0.0, 0.0, 0.0, 0.0, 1.695680192184238E9, 0.0, 2023-09-25 17:16:32.184
80.0, -187500.02235174447, 20119.65455051119, -51262.496562301705, -42915.7293338453, -26802.69203218127, -9447.523587646912, -187500.02235174447, -10326.841214518692, 8628.734484760105, 13083.817134358542, -19191.252492815554, -28523.12815465071, 35628.94888269292, -6563.433297089732, -39149.90742801517, -26909.779239866646, -0.002, 1.012, 0.042, 192.0, 0.0, 0.0, 0.0, 0.0, 0.0, 0.0, 0.0, 0.0, 0.0, 1.695680192184242E9, 0.0, 2023-09-25 17:16:32.184
82.0, -187500.02235174447, 20120.79448947841, -51213.32272450003, -42926.41346769494, -26814.426698020307, -9455.346698206271, -187500.02235174447, -10337.838272790703, 8631.461397583651, 13094.322454252537, -19198.449754530164, -28527.710262264045, 35633.32982460616, -6560.259349377078, -39143.26895991194, -26913.869609101966, -0.004, 1.012, 0.046, 192.0, 127.5, 112.0, 15.5, 80.0, 0.5, 56.0, 0.0, 0.0, 0.0, 1.695680192184245E9, 0.0, 2023-09-25 17:16:32.184
84.0, -187500.02235174447, 20120.436861567123, -51260.03787041162, -42917.495121657266, -26800.21098854673, -9439.141683476173, -187500.02235174447, -10324.181356928511, 8615.926935187214, 13090.992044328696, -19190.98427188209, -28517.339052836785, 35643.6116270556, -6565.713175024173, -39124.20292189156, -26915.411879469382, -0.004, 1.012, 0.046, 192.0, 0.0, 0.0, 0.0, 0.0, 0.0, 0.0, 0.0, 0.0, 0.0, 1.695680192184249E9, 0.0, 2023-09-25 17:16:32.184
86.0, -187500.02235174447, 20114.31248358637, -51211.84750936598, -42933.78954336519, -26814.717270698224, -9454.810256339342, -187500.02235174447, -10342.487435637408, 8620.240821867088, 13094.233047274714, -19215.124155893824, -28544.764643283444, 35617.39303080953, -6575.078555950947, -39135.02116620793, -26920.798649883112, -0.004, 1.012, 0.046, 192.0, 0.0, 0.0, 0.0, 0.0, 0.0, 0.0, 0.0, 0.0, 0.0, 1.695680192184252E9, 0.0, 2023-09-25 17:16:32.184
88.0, -187500.02235174447, 20109.26098933947, -51264.82114372506, -42918.344487946575, -26799.138104812875, -9438.851110798254, -187500.02235174447, -10316.671170791527, 8619.413807322242, 13077.670404633333, -19185.150466579256, -28523.55283779536, 35654.20635392742, -6581.269989165067, -39106.85796819424, -26911.03093755614, -0.004, 1.012, 0.046, 192.0, 0.0, 0.0, 0.0, 0.0, 0.0, 0.0, 0.0, 0.0, 0.0, 1.695680192184255E9, 0.0, 2023-09-25 17:16:32.184
90.0, -187500.02235174447, 20098.353338045283, -51212.5404134441, -42931.062630541644, -26808.525837484103, -9445.847206812765, -187500.02235174447, -10322.61673481664, 8628.063932426445, 13084.10770703646, -19237.073568948934, -28569.888004051212, 35588.827501395645, -6574.787983273028, -39145.70530005757, -26924.33022550705, -0.004, 1.012, 0.046, 192.0, 0.0, 0.0, 0.0, 0.0, 0.0, 0.0, 0.0, 0.0, 0.0, 1.695680192184258E9, 0.0, 2023-09-25 17:16:32.184
92.0, -187500.02235174447, 20081.96950935954, -51273.71713801827, -42923.507740915746, -26804.681337437793, -9438.314668931327, -187500.02235174447, -10324.47192960643, 8611.300124084964, 13062.739439337187, -19195.27580681751, -28536.762718768445, 35645.33271137866, -6587.372015401365, -39114.569320031325, -26916.015376569674, -0.012, 1.014, 0.04, 192.0, 127.5, 80.0, 15.5, 88.0, 0.5, 32.0, 0.0, 0.0, 0.0, 1.695680192244982E9, 0.0, 2023-09-25 17:16:32.244
94.0, -187500.02235174447, 20076.336869756804, -51210.640515165396, -42923.88772057149, -26805.061317093532, -9437.219433453016, -187500.02235174447, -10316.335894624699, 8614.138795630788, 13071.613081885944, -19251.445740633695, -28583.835492591323, 35564.441748194906, -6578.610131574886, -39157.57407636334, -26927.973559853264, -0.012, 1.014, 0.04, 192.0, 0.0, 0.0, 0.0, 0.0, 0.0, 0.0, 0.0, 0.0, 0.0, 1.695680192244991E9, 0.0, 2023-09-25 17:16:32.244
96.0, -187500.02235174447, 20055.8850235802, -51253.555864519585, -42922.032525781695, -26808.749354928656, -9438.672296842611, -187500.02235174447, -10329.1881476865, 8603.097033869868, 13065.332241694003, -19193.80059168346, -28538.059119946854, 35632.39105133904, -6573.603340816897, -39117.20682587705, -26911.723841634255, -0.012, 1.014, 0.04, 192.0, 0.0, 0.0, 0.0, 0.0, 0.0, 0.0, 0.0, 0.0, 0.0, 1.695680192244995E9, 0.0, 2023-09-25 17:16:32.244
98.0, -187500.02235174447, 20033.510927380434, -51224.09626532749, -42933.07428754262, -26813.912607897833, -9452.485674915992, -187500.02235174447, -10337.704162323971, 8595.139812843778, 13048.590785096978, -19253.457397634673, -28586.718867626056, 35554.20464923437, -6581.605265331897, -39152.50023037198, -26926.341882508026, -0.012, 1.014, 0.04, 192.0, 0.0, 0.0, 0.0, 0.0, 0.0, 0.0, 0.0, 0.0, 0.0, 1.695680192244998E9, 0.0, 2023-09-25 17:16:32.244
100.0, -187500.02235174447, 19999.648034530645, -51264.82114372506, -42940.89739810197, -26817.086555610487, -9457.380706951702, -187500.02235174447, -10349.483531651918, 8586.601446461851, 13039.448921614758, -19191.31954804892, -28539.735500781, 35634.60387404011, -6582.9016665103045, -39108.53434902839, -26917.289426003626, -0.012, 1.014, 0.04, 192.0, 0.0, 0.0, 0.0, 0.0, 0.0, 0.0, 0.0, 0.0, 0.0, 1.695680192245002E9, 0.0, 2023-09-25 17:16:32.245
102.0, -187500.02235174447, 19969.450827771525, -51233.70751544327, -42945.099526059574, -26820.998110890167, -9463.080401787807, -187500.02235174447, -10345.169644972044, 8564.272053751, 13018.885316715876, -19275.87619732335, -28608.37770800325, 35537.597303104085, -6598.2573149511, -39156.34473041829, -26940.736405937245, -0.014, 1.01, 0.042, 192.0, 127.5, 72.0, 15.5, 72.0, 0.5, 40.0, 0.0, 0.0, 0.0, 1.695680192245005E9, 0.0, 2023-09-25 17:16:32.245
104.0, -187500.02235174447, 19953.156406063605, -51270.94552170581, -42943.46784871434, -26826.58604700399, -9463.773305865921, -187500.02235174447, -10356.43492417752, 8530.275050434477, 13014.303209102538, -19195.0299376285, -28543.155317682664, 35650.80888877021, -6599.285495196044, -39083.36628477172, -26914.249588757706, -0.014, 1.01, 0.042, 192.0, 0.0, 0.0, 0.0, 0.0, 0.0, 0.0, 0.0, 0.0, 0.0, 1.695680192245009E9, 0.0, 2023-09-25 17:16:32.245
106.0, -187500.02235174447, 19954.653972942113, -51250.98541390723, -42933.65543289846, -26816.773631188113, -9451.077515015306, -187500.02235174447, -10336.720685567938, 8551.017469289001, 13018.482985315679, -19295.791601633027, -28615.66437669568, 35537.97728275982, -6602.794719075528, -39148.92395125913, -26947.464281018292, -0.014, 1.01, 0.042, 192.0, 0.0, 0.0, 0.0, 0.0, 0.0, 0.0, 0.0, 0.0, 0.0, 1.695680192303912E9, 0.0, 2023-09-25 17:16:32.303
108.0, -187500.02235174447, 19947.61317343869, -51266.49752455921, -42938.99749982327, -26833.60449476296, -9454.67614587261, -187500.02235174447, -10357.999546289391, 8535.661820848205, 13023.355665606936, -19204.395318555275, -28542.28359964891, 35645.19860091193, -6584.175715944257, -39077.934810869076, -26911.589731167525, -0.014, 1.01, 0.042, 192.0, 0.0, 0.0, 0.0, 0.0, 0.0, 0.0, 0.0, 0.0, 0.0, 1.695680192303924E9, 0.0, 2023-09-25 17:16:32.303
110.0, -187500.02235174447, 19939.38773147914, -51274.186524651835, -42936.91878758893, -26832.777480218112, -9456.01725053993, -187500.02235174447, -10354.110342754168, 8538.768713327494, 13010.704578245233, -19292.52824694255, -28604.108524812287, 35550.740128843805, -6591.305922425499, -39128.896788227175, -26938.36712102498, -0.014, 1.01, 0.042, 192.0, 0.0, 0.0, 0.0, 0.0, 0.0, 0.0, 0.0, 0.0, 0.0, 1.695680192303928E9, 0.0, 2023-09-25 17:16:32.303
112.0, -187500.02235174447, 19953.223461296973, -51264.41881232486, -42919.46207516934, -26822.540381257582, -9439.834587554287, -187500.02235174447, -10341.660421092562, 8536.64529760424, 13019.66762777181, -19222.746100753084, -28552.230125931517, 35637.26373163029, -6583.616922332874, -39072.25746777743, -26912.03676605663, -0.01, 1.016, 0.036000000000000004, 192.0, 127.5, 88.0, 15.5, 96.0, 0.5, 16.0, 0.0, 0.0, 0.0, 1.695680192303932E9, 0.0, 2023-09-25 17:16:32.303
114.0, -187500.02235174447, 19953.983420608452, -51268.88916121593, -42924.759438605244, -26818.651177722357, -9445.578985879301, -187500.02235174447, -10338.553528613273, 8550.346916955343, 13033.481005845191, -19305.44755523772, -28614.61384470628, 35539.94423627189, -6581.3146926539775, -39131.199017906074, -26929.694644176325, -0.01, 1.016, 0.036000000000000004, 192.0, 0.0, 0.0, 0.0, 0.0, 0.0, 0.0, 0.0, 0.0, 0.0, 1.695680192303935E9, 0.0, 2023-09-25 17:16:32.303
116.0, -187500.02235174447, 19969.272013815884, -51252.32651857454, -42919.171502491416, -26813.01853811962, -9448.10473300275, -187500.02235174447, -10353.350383442687, 8558.482951937074, 13032.788101767077, -19236.604182315372, -28563.137777225707, 35631.34051934964, -6579.638311819829, -39077.532479468886, -26906.739402620722, -0.01, 1.016, 0.036000000000000004, 192.0, 0.0, 0.0, 0.0, 0.0, 0.0, 0.0, 0.0, 0.0, 0.0, 1.695680192303939E9, 0.0, 2023-09-25 17:16:32.303
118.0, -187500.02235174447, 19962.76765617939, -51271.459611828286, -42933.11899103153, -26815.991320132176, -9451.278680715404, -187500.02235174447, -10351.092857252701, 8566.708393896628, 13029.994133710163, -19304.15115405931, -28610.09879232631, 35543.27464619573, -6585.717986311673, -39132.808343506855, -26931.482783732747, -0.01, 1.016, 0.036000000000000004, 192.0, 0.0, 0.0, 0.0, 0.0, 0.0, 0.0, 0.0, 0.0, 0.0, 1.695680192303943E9, 0.0, 2023-09-25 17:16:32.303
120.0, -187500.02235174447, 19959.750170677922, -51226.93493687331, -42950.776869151225, -26834.40915756335, -9470.121201291227, -187500.02235174447, -10371.030613306835, 8556.515998425008, 13021.276953372593, -19233.586696813905, -28554.957038755067, 35628.278330359266, -6586.522649112064, -39076.41489224612, -26909.086335788532, -0.01, 1.016, 0.036000000000000004, 192.0, 0.0, 0.0, 0.0, 0.0, 0.0, 0.0, 0.0, 0.0, 0.0, 1.695680192303946E9, 0.0, 2023-09-25 17:16:32.303
122.0, -187500.02235174447, 19982.839522700255, -51278.299245631606, -42920.06557226963, -26805.68716593828, -9445.489578901479, -187500.02235174447, -10341.727476325927, 8572.206923032632, 13026.753130764144, -19274.28922346702, -28586.316536225862, 35577.42811172344, -6591.01534974758, -39100.510072768935, -26931.549838966115, -0.006, 1.014, 0.042, 192.0, 127.5, 104.0, 15.5, 88.0, 0.5, 40.0, 0.0, 0.0, 0.0, 1.695680192362696E9, 0.0, 2023-09-25 17:16:32.362
124.0, -187500.02235174447, 19985.544083779347, -51218.95536410277, -42931.71083113085, -26826.250770837163, -9460.286433730893, -187500.02235174447, -10350.623470619139, 8576.163181801223, 13040.499453604158, -19243.175595185232, -28566.55759412737, 35610.46399002838, -6572.038718705025, -39089.06597960782, -26921.536257450138, -0.006, 1.014, 0.042, 192.0, 0.0, 0.0, 0.0, 0.0, 0.0, 0.0, 0.0, 0.0, 0.0, 1.695680192362706E9, 0.0, 2023-09-25 17:16:32.362
126.0, -187500.02235174447, 19995.803534484334, -51280.08738518803, -42911.10252274305, -26813.890256153376, -9440.706305588044, -187500.02235174447, -10340.90046178108, 8574.799725389448, 13038.95718323674, -19266.466112907663, -28579.432198933628, 35588.134597317534, -6583.438108377231, -39101.11356986923, -26926.766565652677, -0.006, 1.014, 0.042, 192.0, 0.0, 0.0, 0.0, 0.0, 0.0, 0.0, 0.0, 0.0, 0.0, 1.69568019236271E9, 0.0, 2023-09-25 17:16:32.362
128.0, -187500.02235174447, 19999.82684848629, -51223.11278857145, -42924.46886592732, -26823.6803202248, -9448.7305818475, -187500.02235174447, -10346.510749639363, 8604.952228659658, 13065.019317271628, -19261.571080871952, -28579.99099254501, 35580.82557688065, -6563.1203726673575, -39106.29917458286, -26923.279693517652, -0.006, 1.014, 0.042, 192.0, 0.0, 0.0, 0.0, 0.0, 0.0, 0.0, 0.0, 0.0, 0.0, 1.695680192362713E9, 0.0, 2023-09-25 17:16:32.362
130.0, -187500.02235174447, 19995.42355482859, -51267.883332715435, -42929.47565668532, -26826.228419092706, -9459.72764011951, -187500.02235174447, -10360.771162601848, 8582.13109757079, 13049.082523474995, -19249.054103976978, -28563.69657083709, 35589.85568164059, -6575.8608670068825, -39087.74722668496, -26914.584864924534, -0.006, 1.014, 0.042, 192.0, 0.0, 0.0, 0.0, 0.0, 0.0, 0.0, 0.0, 0.0, 0.0, 1.695680192362716E9, 0.0, 2023-09-25 17:16:32.362
132.0, -187500.02235174447, 20011.136831180673, -51228.253689796176, -42930.34737471907, -26824.909666169842, -9456.866616829231, -187500.02235174447, -10349.483531651918, 8591.719995942116, 13064.482875404701, -19247.802406287483, -28563.316591181352, 35580.24443152481, -6581.985244987637, -39084.1262440832, -26919.010510326687, -0.004, 1.008, 0.036000000000000004, 192.0, 127.5, 112.0, 15.5, 64.0, 0.5, 16.0, 0.0, 0.0, 0.0, 1.69568019236272E9, 0.0, 2023-09-25 17:16:32.362
134.0, -187500.02235174447, 20021.753909796942, -51282.143745677924, -42909.806121564645, -26814.27023580912, -9437.085322986284, -187500.02235174447, -10331.37861864312, 8595.139812843778, 13057.06209624554, -19245.343714397397, -28553.41476838765, 35586.54762346121, -6578.923055997259, -39087.45665400704, -26924.33022550705, -0.004, 1.008, 0.036000000000000004, 192.0, 0.0, 0.0, 0.0, 0.0, 0.0, 0.0, 0.0, 0.0, 0.0, 1.695680192362723E9, 0.0, 2023-09-25 17:16:32.362
136.0, -187500.02235174447, 20022.893848764164, -51218.62008793594, -42918.545653646666, -26820.17109634532, -9451.569253393323, -187500.02235174447, -10351.182264230521, 8601.443004780174, 13061.308927692047, -19251.17751970023, -28559.628553346225, 35565.15700401748, -6573.312768138978, -39089.602421474745, -26907.856989843487, -0.004, 1.008, 0.036000000000000004, 192.0, 0.0, 0.0, 0.0, 0.0, 0.0, 0.0, 0.0, 0.0, 0.0, 1.695680192422849E9, 0.0, 2023-09-25 17:16:32.422
138.0, -187500.02235174447, 20015.540124838368, -51260.9989954232, -42917.8303978241, -26819.96993064522, -9449.132913247695, -187500.02235174447, -10350.556415385774, 8604.818118192927, 13067.478009161712, -19224.66835077624, -28539.109651936255, 35602.886748658035, -6567.9930529586145, -39076.86192713522, -26910.919178833865, -0.004, 1.008, 0.036000000000000004, 192.0, 0.0, 0.0, 0.0, 0.0, 0.0, 0.0, 0.0, 0.0, 0.0, 1.695680192422873E9, 0.0, 2023-09-25 17:16:32.422
140.0, -187500.02235174447, 20011.24858990295, -51218.173053046834, -42933.20839800935, -26832.241038351185, -9460.331137219804, -187500.02235174447, -10361.642880635605, 8602.135908858289, 13058.447904401768, -19253.502101123584, -28563.964791770555, 35559.054977781176, -6577.760765285584, -39083.83567140528, -26913.556684679592, -0.004, 1.008, 0.036000000000000004, 192.0, 0.0, 0.0, 0.0, 0.0, 0.0, 0.0, 0.0, 0.0, 0.0, 1.695680192422877E9, 0.0, 2023-09-25 17:16:32.422
142.0, -187500.02235174447, 20016.836526016777, -51269.53736180513, -42917.718639101826, -26826.96602665973, -9446.450703913059, -187500.02235174447, -10362.827523091737, 8590.624760463807, 13059.699602091267, -19209.022129657526, -28525.340977351785, 35614.71082147489, -6577.649006563307, -39052.09619427874, -26920.150449293906, -0.008, 1.014, 0.03, 192.0, 127.5, 96.0, 15.5, 88.0, 0.0, 120.0, 0.0, 0.0, 0.0, 1.695680192422881E9, 0.0, 2023-09-25 17:16:32.422
144.0, -187500.02235174447, 20013.751985281942, -51226.59966070648, -42930.436781696895, -26834.45386105226, -9452.910358060642, -187500.02235174447, -10369.086011539222, 8597.866725667325, 13063.186474226293, -19274.065706022466, -28573.03960001941, 35530.534151856205, -6576.419660618265, -39094.6762674661, -26940.80346117061, -0.008, 1.014, 0.03, 192.0, 0.0, 0.0, 0.0, 0.0, 0.0, 0.0, 0.0, 0.0, 0.0, 1.695680192422884E9, 0.0, 2023-09-25 17:16:32.422
146.0, -187500.02235174447, 20024.749043553955, -51268.218608882264, -42912.30951694364, -26819.277026567106, -9437.711171831033, -187500.02235174447, -10354.020935776345, 8598.738443701082, 13064.259357960149, -19213.09014714839, -28521.78704998339, 35611.3580598066, -6570.697614037706, -39050.464516933505, -26924.933722607344, -0.008, 1.014, 0.03, 192.0, 0.0, 0.0, 0.0, 0.0, 0.0, 0.0, 0.0, 0.0, 0.0, 1.695680192422888E9, 0.0, 2023-09-25 17:16:32.422
148.0, -187500.02235174447, 20019.004645228943, -51226.80082640658, -42927.709868873346, -26830.40819530585, -9451.524549904412, -187500.02235174447, -10355.518502654852, 8615.681065998206, 13078.96680581174, -19291.67888065325, -28583.61197514677, 35512.74216326978, -6571.725794282651, -39114.79283747588, -26941.026978615166, -0.008, 1.014, 0.03, 192.0, 0.0, 0.0, 0.0, 0.0, 0.0, 0.0, 0.0, 0.0, 0.0, 1.695680192422892E9, 0.0, 2023-09-25 17:16:32.422
150.0, -187500.02235174447, 20025.28548542088, -51254.181713364334, -42910.4766738983, -26827.41306154884, -9443.902605045152, -187500.02235174447, -10352.076334008734, 8602.717054214127, 13071.143695252384, -19209.536219779995, -28518.83661971529, 35617.30362383171, -6580.01829147557, -39054.46547919101, -26913.601388168503, -0.008, 1.014, 0.03, 192.0, 0.0, 0.0, 0.0, 0.0, 0.0, 0.0, 0.0, 0.0, 0.0, 1.695680192422896E9, 0.0, 2023-09-25 17:16:32.422
152.0, -187500.02235174447, 20025.643113332168, -51218.48597746921, -42910.364915176026, -26824.574390003014, -9449.311727203338, -187500.02235174447, -10352.43396192002, 8620.03965616699, 13074.742326109688, -19279.51953166956, -28572.74902734149, 35518.19598891687, -6579.884181008838, -39104.33222107079, -26929.269961031674, -0.006, 1.014, 0.026000000000000002, 192.0, 127.5, 104.0, 15.5, 88.0, 0.0, 104.0, 0.0, 0.0, 0.0, 1.695680192486043E9, 0.0, 2023-09-25 17:16:32.486
154.0, -187500.02235174447, 20033.376816913704, -51240.36833529095, -42894.361066146026, -26813.152648586354, -9433.844320040265, -187500.02235174447, -10346.913081039558, 8619.413807322242, 13088.913332094353, -19211.681987247706, -28522.479954061506, 35608.0052981383, -6572.373994871855, -39067.49654620845, -26916.23889401423, -0.006, 1.014, 0.026000000000000002, 192.0, 0.0, 0.0, 0.0, 0.0, 0.0, 0.0, 0.0, 0.0, 0.0, 1.695680192486053E9, 0.0, 2023-09-25 17:16:32.486
156.0, -187500.02235174447, 20023.45264237555, -51224.051561838576, -42906.6768773409, -26823.188581846785, -9447.925919047108, -187500.02235174447, -10353.372735187142, 8620.330228844909, 13096.088242064507, -19278.938386313723, -28566.915222038657, 35518.441858105885, -6571.167000671268, -39111.55183452986, -26918.004681826198, -0.006, 1.014, 0.026000000000000002, 192.0, 0.0, 0.0, 0.0, 0.0, 0.0, 0.0, 0.0, 0.0, 0.0, 1.695680192486057E9, 0.0, 2023-09-25 17:16:32.486
158.0, -187500.02235174447, 20026.268962176917, -51232.23230030922, -42901.51362437173, -26818.98645388919, -9447.925919047108, -187500.02235174447, -10363.609834147672, 8620.79961547847, 13088.73451813871, -19199.701452219662, -28506.92313992061, 35617.12480987606, -6571.077593693447, -39053.72787162398, -26898.826885083545, -0.006, 1.014, 0.026000000000000002, 192.0, 0.0, 0.0, 0.0, 0.0, 0.0, 0.0, 0.0, 0.0, 0.0, 1.69568019248606E9, 0.0, 2023-09-25 17:16:32.486
160.0, -187500.02235174447, 20021.552744096847, -51232.724038687236, -42900.88777552698, -26815.410174776338, -9445.467227157025, -187500.02235174447, -10366.493209182407, 8622.163071890243, 13082.87836109142, -19276.546749657005, -28567.11638773875, 35523.538055841695, -6577.671358307763, -39110.07661939581, -26923.100879562007, -0.006, 1.014, 0.026000000000000002, 192.0, 0.0, 0.0, 0.0, 0.0, 0.0, 0.0, 0.0, 0.0, 0.0, 1.695680192486063E9, 0.0, 2023-09-25 17:16:32.486
162.0, -187500.02235174447, 20034.360293669735, -51201.76687261664, -42887.34261838706, -26811.565674730027, -9437.48765438648, -187500.02235174447, -10361.933453313524, 8627.952173704169, 13101.586771200511, -19204.440022044186, -28516.73555573649, 35609.5028650168, -6560.43816333272, -39064.54611594035, -26898.916292061367, -0.004, 1.016, 0.026000000000000002, 192.0, 127.5, 112.0, 15.5, 96.0, 0.0, 104.0, 0.0, 0.0, 0.0, 1.695680192486067E9, 0.0, 2023-09-25 17:16:32.486
164.0, -187500.02235174447, 20015.33895913827, -51214.99910533418, -42907.280374441194, -26831.145802872874, -9451.278680715404, -187500.02235174447, -10360.368831201653, 8629.360333604853, 13089.427422216824, -19254.552633112984, -28552.163070698152, 35542.42527990643, -6559.164113898768, -39098.45371227905, -26907.633472398935, -0.004, 1.016, 0.026000000000000002, 192.0, 0.0, 0.0, 0.0, 0.0, 0.0, 0.0, 0.0, 0.0, 0.0, 1.69568019248607E9, 0.0, 2023-09-25 17:16:32.486
166.0, -187500.02235174447, 20024.950209254053, -51207.064236052545, -42898.18321444788, -26828.731814471703, -9444.371991678714, -187500.02235174447, -10371.947034829502, 8608.349693816865, 13077.223369744226, -19182.08827758888, -28497.89303516067, 35637.10726941911, -6563.813276745472, -39031.0632027463, -26887.963937278266, -0.004, 1.016, 0.026000000000000002, 192.0, 0.0, 0.0, 0.0, 0.0, 0.0, 0.0, 0.0, 0.0, 0.0, 1.695680192543568E9, 0.0, 2023-09-25 17:16:32.543
168.0, -187500.02235174447, 20016.43419461658, -51248.81729469506, -42907.95092677485, -26836.510221542147, -9447.791808580376, -187500.02235174447, -10366.202636504488, 8622.56540329044, 13095.30593100857, -19252.406865645276, -28545.50225085047, 35560.6419516375, -6559.454686576687, -39083.90272663865, -26922.676196417357, -0.004, 1.016, 0.026000000000000002, 192.0, 0.0, 0.0, 0.0, 0.0, 0.0, 0.0, 0.0, 0.0, 0.0, 1.695680192543579E9, 0.0, 2023-09-25 17:16:32.543
170.0, -187500.02235174447, 20013.32730213729, -51213.74740764468, -42914.85761581155, -26837.001959920166, -9454.653794128155, -187500.02235174447, -10379.77014538886, 8620.486691056096, 13098.278713021125, -19201.333129564897, -28511.88522718969, 35613.41442029648, -6561.600454044396, -39042.88727556315, -26907.11938227646, -0.004, 1.016, 0.026000000000000002, 192.0, 0.0, 0.0, 0.0, 0.0, 0.0, 0.0, 0.0, 0.0, 0.0, 1.695680192543582E9, 0.0, 2023-09-25 17:16:32.543
172.0, -187500.02235174447, 20012.14265968116, -51256.215722109766, -42901.35716216054, -26824.12735511391, -9439.856939298743, -187500.02235174447, -10367.543741171807, 8613.155318874755, 13083.280692491615, -19246.014266731057, -28542.775338026924, 35563.16769876095, -6574.9220937397595, -39072.32452301079, -26921.536257450138, -0.002, 1.014, 0.028, 192.0, 127.5, 120.0, 15.5, 88.0, 0.0, 112.0, 0.0, 0.0, 0.0, 1.695680192543585E9, 0.0, 2023-09-25 17:16:32.543
174.0, -187500.02235174447, 20015.942456238565, -51204.94082032929, -42907.79446456367, -26831.905762184357, -9445.333116690292, -187500.02235174447, -10374.405726719586, 8617.245688110077, 13095.68591066431, -19231.351522368375, -28530.817154743334, 35581.630239681035, -6568.551846569997, -39063.87556360669, -26915.635396913935, -0.002, 1.014, 0.028, 192.0, 0.0, 0.0, 0.0, 0.0, 0.0, 0.0, 0.0, 0.0, 0.0, 1.695680192543589E9, 0.0, 2023-09-25 17:16:32.543
176.0, -187500.02235174447, 20003.53723806587, -51255.58987326502, -42916.5787001346, -26832.17398311782, -9448.708230103044, -187500.02235174447, -10376.015052320368, 8609.199060106166, 13081.87253259093, -19245.25430741958, -28541.79186127089, 35569.537945930715, -6568.127163425346, -39079.968819614514, -26922.542085950627, -0.002, 1.014, 0.028, 192.0, 0.0, 0.0, 0.0, 0.0, 0.0, 0.0, 0.0, 0.0, 0.0, 1.695680192543592E9, 0.0, 2023-09-25 17:16:32.543
178.0, -187500.02235174447, 20009.035767201873, -51207.37716047492, -42916.310479201136, -26831.45872729525, -9450.026983025908, -187500.02235174447, -10365.532084170829, 8616.485728798596, 13091.483782706713, -19234.257249147566, -28540.875439748223, 35575.63997216702, -6564.684994779229, -39071.67632242159, -26917.535295192636, -0.002, 1.014, 0.028, 192.0, 0.0, 0.0, 0.0, 0.0, 0.0, 0.0, 0.0, 0.0, 0.0, 1.695680192543595E9, 0.0, 2023-09-25 17:16:32.543
180.0, -187500.02235174447, 20014.19902017105, -51271.68312927284, -42898.20556619234, -26814.605511975948, -9431.877366528197, -187500.02235174447, -10364.10157252569, 8610.115481628834, 13090.612064672956, -19229.250458389575, -28535.51102107895, 35583.150158304, -6568.842419247916, -39068.68118866458, -26915.36717598047, -0.002, 1.014, 0.028, 192.0, 0.0, 0.0, 0.0, 0.0, 0.0, 0.0, 0.0, 0.0, 0.0, 1.695680192543599E9, 0.0, 2023-09-25 17:16:32.543
182.0, -187500.02235174447, 20013.081432948286, -51226.152625817376, -42904.19583370636, -26822.49567776867, -9436.995916008464, -187500.02235174447, -10366.001470804391, 8623.28065911301, 13103.777242157132, -19265.236766962622, -28565.372951671237, 35545.84509680809, -6557.621843531352, -39104.421628048614, -26929.046443587118, -0.01, 1.014, 0.026000000000000002, 192.0, 127.5, 88.0, 15.5, 88.0, 0.0, 104.0, 0.0, 0.0, 0.0, 1.695680192602873E9, 0.0, 2023-09-25 17:16:32.602
184.0, -187500.02235174447, 20005.9735782115, -51257.69093724382, -42897.57971734759, -26821.154573101354, -9431.922070017108, -187500.02235174447, -10367.990776060913, 8600.906562913247, 13092.869590862942, -19240.001647472578, -28539.959018225556, 35575.975248333845, -6561.555750555486, -39091.45761626454, -26918.18349578184, -0.01, 1.014, 0.026000000000000002, 192.0, 0.0, 0.0, 0.0, 0.0, 0.0, 0.0, 0.0, 0.0, 0.0, 1.695680192602888E9, 0.0, 2023-09-25 17:16:32.602
186.0, -187500.02235174447, 19994.976519939486, -51205.94664882978, -42913.6282698665, -26832.241038351185, -9447.031849268897, -187500.02235174447, -10385.872171625158, 8608.997894406068, 13084.06300354755, -19270.08709550942, -28564.635344104216, 35533.57398910213, -6573.245712905612, -39109.048439150865, -26919.055213815598, -0.01, 1.014, 0.026000000000000002, 192.0, 0.0, 0.0, 0.0, 0.0, 0.0, 0.0, 0.0, 0.0, 0.0, 1.695680192602906E9, 0.0, 2023-09-25 17:16:32.602
188.0, -187500.02235174447, 19995.84823797324, -51256.215722109766, -42904.128778472994, -26828.88827668289, -9439.164035220629, -187500.02235174447, -10394.231724051444, 8601.264190824531, 13079.838523845498, -19232.245592146588, -28537.07564319082, 35589.0510188402, -6576.106736195891, -39084.707389439034, -26918.67523415986, -0.01, 1.014, 0.026000000000000002, 192.0, 0.0, 0.0, 0.0, 0.0, 0.0, 0.0, 0.0, 0.0, 0.0, 1.695680192602909E9, 0.0, 2023-09-25 17:16:32.602
190.0, -187500.02235174447, 20000.832676986778, -51206.348980229974, -42913.06947625512, -26833.336273829496, -9449.088209758784, -187500.02235174447, -10380.016014577868, 8611.32247582942, 13083.727727380721, -19278.692517124717, -28575.163015742663, 35529.70713731136, -6583.952198499704, -39114.994003175976, -26923.771431895668, -0.01, 1.014, 0.026000000000000002, 192.0, 0.0, 0.0, 0.0, 0.0, 0.0, 0.0, 0.0, 0.0, 0.0, 1.695680192602912E9, 0.0, 2023-09-25 17:16:32.602
192.0, -187500.02235174447, 19993.05426991633, -51256.32748083204, -42924.692383371876, -26842.388730333892, -9460.800523853364, -187500.02235174447, -10402.032482866345, 8594.245743065565, 13074.228235987215, -19219.773318740525, -28525.005701184953, 35609.592271994625, -6590.143631713824, -39072.145709055156, -26914.227237013252, -0.01, 1.018, 0.018000000000000002, 192.0, 127.5, 88.0, 15.5, 104.0, 0.0, 72.0, 0.0, 0.0, 0.0, 1.695680192602916E9, 0.0, 2023-09-25 17:16:32.602
194.0, -187500.02235174447, 19996.228217628985, -51217.70366641327, -42929.11802877403, -26837.940733187286, -9464.756782621955, -187500.02235174447, -10402.591276477728, 8618.810310221948, 13078.676233133821, -19283.028755549047, -28577.062914021364, 35521.861675007545, -6597.564410872986, -39117.11741889923, -26937.42834775786, -0.01, 1.018, 0.018000000000000002, 192.0, 0.0, 0.0, 0.0, 0.0, 0.0, 0.0, 0.0, 0.0, 0.0, 1.695680192602919E9, 0.0, 2023-09-25 17:16:32.602
196.0, -187500.02235174447, 19991.95903443802, -51270.78905949462, -42919.01504028023, -26829.961160416744, -9455.21258773954, -187500.02235174447, -10405.228782323455, 8602.337074558387, 13072.328337708514, -19218.07458616192, -28523.061099417344, 35607.53591150474, -6592.468213137176, -39073.15153755564, -26924.821963885068, -0.01, 1.018, 0.018000000000000002, 192.0, 0.0, 0.0, 0.0, 0.0, 0.0, 0.0, 0.0, 0.0, 0.0, 1.69568019266397E9, 0.0, 2023-09-25 17:16:32.663
198.0, -187500.02235174447, 19980.581996510267, -51231.36058227546, -42929.74387761878, -26840.220611121727, -9462.722773876521, -187500.02235174447, -10405.63111372365, 8604.885173426292, 13065.935738794296, -19305.805183149005, -28586.741219370513, 35503.130913154, -6594.21164920469, -39139.20094242108, -26949.386531041448, -0.01, 1.018, 0.018000000000000002, 192.0, 0.0, 0.0, 0.0, 0.0, 0.0, 0.0, 0.0, 0.0, 0.0, 1.695680192663995E9, 0.0, 2023-09-25 17:16:32.663
200.0, -187500.02235174447, 19993.38954608316, -51259.12144888895, -42911.66131635443, -26823.16623010233, -9446.87538705771, -187500.02235174447, -10397.025692108356, 8599.65486522375, 13072.037765030595, -19228.468147333642, -28530.59363729878, 35590.369771763064, -6586.656759578796, -39090.89882265316, -26934.90260063441, -0.01, 1.018, 0.018000000000000002, 192.0, 0.0, 0.0, 0.0, 0.0, 0.0, 0.0, 0.0, 0.0, 0.0, 1.695680192663998E9, 0.0, 2023-09-25 17:16:32.663
202.0, -187500.02235174447, 19993.948339694543, -51238.91547190136, -42921.80900833714, -26828.26242783814, -9452.39626793817, -187500.02235174447, -10389.806078649293, 8613.155318874755, 13075.010547043152, -19310.431994251252, -28596.620690419757, 35477.940497152864, -6580.420622875765, -39163.363178177264, -26954.43802528835, -0.008, 1.018, 0.02, 192.0, 127.5, 96.0, 15.5, 104.0, 0.0, 80.0, 0.0, 0.0, 0.0, 1.695680192664002E9, 0.0, 2023-09-25 17:16:32.664
204.0, -187500.02235174447, 19996.652900773635, -51239.38485853492, -42922.792485093174, -26834.54326803008, -9455.346698206271, -187500.02235174447, -10397.62918920865, 8608.12617637231, 13086.767564626643, -19224.578943798417, -28530.50423032096, 35580.89263211401, -6572.642215805318, -39108.57905251731, -26922.38562373944, -0.008, 1.018, 0.02, 192.0, 0.0, 0.0, 0.0, 0.0, 0.0, 0.0, 0.0, 0.0, 0.0, 1.695680192664005E9, 0.0, 2023-09-25 17:16:32.664
206.0, -187500.02235174447, 19983.219502355994, -51233.75221893218, -42930.436781696895, -26845.31680885754, -9466.544922178378, -187500.02235174447, -10401.317227043775, 8594.424557021208, 13066.449828916768, -19285.800371861504, -28576.682934365625, 35505.90252946645, -6589.137803213335, -39145.258265168464, -26926.252475530207, -0.008, 1.018, 0.02, 192.0, 0.0, 0.0, 0.0, 0.0, 0.0, 0.0, 0.0, 0.0, 0.0, 1.695680192664009E9, 0.0, 2023-09-25 17:16:32.664
208.0, -187500.02235174447, 20002.933740965575, -51230.28769854161, -42900.35133366005, -26824.50733476965, -9443.500273644957, -187500.02235174447, -10382.318244256765, 8592.211734320133, 13065.77927658311, -19215.593542527386, -28522.45760231705, 35611.17924585095, -6583.3039979105, -39087.367247029215, -26907.007623554186, -0.008, 1.018, 0.02, 192.0, 0.0, 0.0, 0.0, 0.0, 0.0, 0.0, 0.0, 0.0, 0.0, 1.695680192664012E9, 0.0, 2023-09-25 17:16:32.664
210.0, -187500.02235174447, 20017.998816728454, -51220.25176528117, -42898.138510958976, -26818.897046911366, -9439.812235809832, -187500.02235174447, -10373.645767408105, 8625.89581321428, 13081.179628512817, -19292.595302175916, -28587.70234438209, 35513.345660370076, -6563.388593600821, -39154.51188737296, -26928.88998137593, -0.008, 1.018, 0.02, 192.0, 0.0, 0.0, 0.0, 0.0, 0.0, 0.0, 0.0, 0.0, 0.0, 1.695680192664015E9, 0.0, 2023-09-25 17:16:32.664
212.0, -187500.02235174447, 20045.938497297586, -51195.03899753559, -42898.96552550382, -26819.254674822652, -9445.891910301676, -187500.02235174447, -10375.43390696453, 8624.04061842449, 13089.740346639199, -19211.771394225525, -28531.443003588083, 35601.36683003507, -6551.519817295053, -39103.84048269278, -26898.670422872357, -0.006, 1.014, 0.018000000000000002, 192.0, 127.5, 104.0, 15.5, 88.0, 0.0, 72.0, 0.0, 0.0, 0.0, 1.695680192725782E9, 0.0, 2023-09-25 17:16:32.725
214.0, -187500.02235174447, 20077.07447732383, -51228.96894561875, -42892.66233356742, -26807.095325838964, -9437.241785197471, -187500.02235174447, -10370.29300573981, 8638.502197087073, 13100.916218866852, -19274.736258356126, -28581.488559423517, 35509.38940160148, -6555.923110952748, -39168.86170731327, -26931.080452332553, -0.006, 1.014, 0.018000000000000002, 192.0, 0.0, 0.0, 0.0, 0.0, 0.0, 0.0, 0.0, 0.0, 0.0, 1.695680192725792E9, 0.0, 2023-09-25 17:16:32.725
216.0, -187500.02235174447, 20088.49621874049, -51191.35095970047, -42914.05295301115, -26827.658930737845, -9458.006555796452, -187500.02235174447, -10391.169535061066, 8643.352525633874, 13108.918143381852, -19216.778184983516, -28537.03093970191, 35575.684675655924, -6553.240901618112, -39143.26895991194, -26915.300120747106, -0.006, 1.014, 0.018000000000000002, 192.0, 0.0, 0.0, 0.0, 0.0, 0.0, 0.0, 0.0, 0.0, 0.0, 1.695680192725796E9, 0.0, 2023-09-25 17:16:32.725
218.0, -187500.02235174447, 20087.713907684556, -51214.0379803226, -42921.22786298131, -26830.788174961588, -9468.02013731243, -187500.02235174447, -10383.614645435173, 8633.562461562451, 13095.551800197578, -19228.222278144633, -28542.730634538013, 35540.860657794554, -6567.657776791785, -39149.21452393705, -26917.691757403823, -0.006, 1.014, 0.018000000000000002, 192.0, 0.0, 0.0, 0.0, 0.0, 0.0, 0.0, 0.0, 0.0, 0.0, 1.695680192725799E9, 0.0, 2023-09-25 17:16:32.725
220.0, -187500.02235174447, 20100.67791946863, -51190.635703877895, -42921.04904902566, -26829.111794127442, -9467.528398934413, -187500.02235174447, -10393.181192062044, 8631.908432472757, 13092.221390273739, -19183.38467876729, -28513.226331857008, 35595.22010030986, -6567.590721558419, -39112.200035119065, -26909.645129399913, -0.006, 1.014, 0.018000000000000002, 192.0, 0.0, 0.0, 0.0, 0.0, 0.0, 0.0, 0.0, 0.0, 0.0, 1.695680192725803E9, 0.0, 2023-09-25 17:16:32.725
222.0, -187500.02235174447, 20099.716794457054, -51237.127332344935, -42918.188025735384, -26823.6803202248, -9463.192160510083, -187500.02235174447, -10381.848857623203, 8630.544976060984, 13088.041614060596, -19214.56536228244, -28538.50615483596, 35568.80033836369, -6573.893913494816, -39134.52942782992, -26928.621760442467, -0.004, 1.018, 0.02, 192.0, 127.5, 112.0, 15.5, 104.0, 0.0, 80.0, 0.0, 0.0, 0.0, 1.695680192725807E9, 0.0, 2023-09-25 17:16:32.725
224.0, -187500.02235174447, 20110.69150098461, -51203.778529617615, -42921.22786298131, -26826.854267937455, -9460.956986064552, -187500.02235174447, -10380.77597388935, 8635.864691241348, 13090.634416417412, -19200.573170253418, -28529.78897449839, 35587.06171358367, -6571.390518115821, -39122.99592769098, -26921.08922256103, -0.004, 1.018, 0.02, 192.0, 0.0, 0.0, 0.0, 0.0, 0.0, 0.0, 0.0, 0.0, 0.0, 1.69568019272581E9, 0.0, 2023-09-25 17:16:32.725
226.0, -187500.02235174447, 20120.50391680049, -51254.874617442445, -42912.130702988, -26813.39851777536, -9449.53524464789, -187500.02235174447, -10374.785706375325, 8634.903566229768, 13086.521695437634, -19218.611028028852, -28539.377872869718, 35569.62735290854, -6567.63542504733, -39144.52065760144, -26932.60037095551, -0.004, 1.018, 0.02, 192.0, 0.0, 0.0, 0.0, 0.0, 0.0, 0.0, 0.0, 0.0, 0.0, 1.69568019278329E9, 0.0, 2023-09-25 17:16:32.783
228.0, -187500.02235174447, 20118.961646433076, -51198.32470397052, -42930.012098552244, -26824.50733476965, -9464.846189599775, -187500.02235174447, -10383.547590201806, 8647.420543124741, 13098.770451399143, -19235.19602241469, -28559.472091135038, 35545.55452413017, -6560.996956944104, -39172.28152421493, -26937.540106480137, -0.004, 1.018, 0.02, 192.0, 0.0, 0.0, 0.0, 0.0, 0.0, 0.0, 0.0, 0.0, 0.0, 1.695680192783299E9, 0.0, 2023-09-25 17:16:32.783
230.0, -187500.02235174447, 20119.341626088815, -51239.76483819066, -42913.024772766206, -26818.829991678, -9452.485674915992, -187500.02235174447, -10378.518447699362, 8630.522624316529, 13091.68494840681, -19215.101804149366, -28543.334131638305, 35569.269724997255, -6559.700555765696, -39162.62557061024, -26928.71116742029, -0.004, 1.018, 0.02, 192.0, 0.0, 0.0, 0.0, 0.0, 0.0, 0.0, 0.0, 0.0, 0.0, 1.695680192783303E9, 0.0, 2023-09-25 17:16:32.783
232.0, -187500.02235174447, 20106.757593960476, -51185.13717474189, -42934.59420616558, -26841.069977411033, -9477.11729730574, -187500.02235174447, -10399.238514809433, 8627.549842303973, 13093.249570518681, -19228.669313033737, -28552.408939887162, 35551.12010849954, -6559.812314487972, -39168.526431146434, -26919.010510326687, -0.004, 1.018, 0.026000000000000002, 192.0, 127.5, 112.0, 15.5, 104.0, 0.0, 104.0, 0.0, 0.0, 0.0, 1.695680192783307E9, 0.0, 2023-09-25 17:16:32.783
234.0, -187500.02235174447, 20125.108376158285, -51250.0466406401, -42900.016057493216, -26818.762936444633, -9450.898701059665, -187500.02235174447, -10378.361985488174, 8628.510967315551, 13088.958035583262, -19204.976463911113, -28531.755928010458, 35588.983963606835, -6563.232131389634, -39155.78593680691, -26923.39145223993, -0.004, 1.018, 0.026000000000000002, 192.0, 0.0, 0.0, 0.0, 0.0, 0.0, 0.0, 0.0, 0.0, 0.0, 1.69568019278331E9, 0.0, 2023-09-25 17:16:32.783
236.0, -187500.02235174447, 20131.74684426151, -51195.75425335816, -42911.99659252127, -26822.182753346297, -9459.817047097331, -187500.02235174447, -10375.568017431262, 8643.240766911598, 13107.30881778107, -19252.63038308983, -28569.306858695374, 35515.06674469313, -6550.402230072288, -39200.489425717526, -26931.57219071057, -0.004, 1.018, 0.026000000000000002, 192.0, 0.0, 0.0, 0.0, 0.0, 0.0, 0.0, 0.0, 0.0, 0.0, 1.695680192783313E9, 0.0, 2023-09-25 17:16:32.783
238.0, -187500.02235174447, 20123.409643579682, -51246.827989438534, -42922.07722927061, -26824.999073147665, -9464.600320410767, -187500.02235174447, -10383.033500079335, 8620.352580589364, 13099.999797344184, -19192.705356205148, -28517.137887136687, 35588.201652550895, -6552.9056254512825, -39161.30681768737, -26910.40508871139, -0.004, 1.018, 0.026000000000000002, 192.0, 0.0, 0.0, 0.0, 0.0, 0.0, 0.0, 0.0, 0.0, 0.0, 1.695680192783316E9, 0.0, 2023-09-25 17:16:32.783
240.0, -187500.02235174447, 20128.08115817084, -51212.51806169964, -42920.557310647644, -26821.82512543501, -9463.594491910279, -187500.02235174447, -10379.926607600048, 8630.209699894154, 13094.791840886099, -19250.305801666476, -28564.27771619293, 35509.25529113475, -6561.645157533308, -39206.345582764814, -26924.71020516279, -0.004, 1.018, 0.026000000000000002, 192.0, 0.0, 0.0, 0.0, 0.0, 0.0, 0.0, 0.0, 0.0, 0.0, 1.69568019278332E9, 0.0, 2023-09-25 17:16:32.783
242.0, -187500.02235174447, 20139.7040652876, -51242.60350973648, -42893.60110683455, -26808.659947950837, -9441.734485832989, -187500.02235174447, -10366.850837093692, 8631.908432472757, 13112.673236450344, -19189.531408492498, -28514.522733035414, 35583.41837923746, -6552.168017884257, -39176.66246612817, -26911.120344533963, -0.004, 1.014, 0.022, 192.0, 127.5, 112.0, 15.5, 88.0, 0.0, 88.0, 0.0, 0.0, 0.0, 1.695680192843607E9, 0.0, 2023-09-25 17:16:32.843
244.0, -187500.02235174447, 20122.69438775711, -51202.75034937267, -42918.23272922429, -26825.31199757004, -9464.689727388588, -187500.02235174447, -10384.396956491108, 8647.08526695791, 13111.667407949855, -19254.28441217952, -28559.9414777686, 35488.31170658013, -6552.927977195737, -39228.8090859424, -26918.161144037385, -0.004, 1.014, 0.022, 192.0, 0.0, 0.0, 0.0, 0.0, 0.0, 0.0, 0.0, 0.0, 0.0, 1.695680192843617E9, 0.0, 2023-09-25 17:16:32.843
246.0, -187500.02235174447, 20134.004370451497, -51240.72596320224, -42905.00049650676, -26815.656043965348, -9456.933672062596, -187500.02235174447, -10381.133601800633, 8633.026019695524, 13111.935628883319, -19188.302062547453, -28507.325471320808, 35570.83434710912, -6552.547997539998, -39187.72657963355, -26909.46631544427, -0.004, 1.014, 0.022, 192.0, 0.0, 0.0, 0.0, 0.0, 0.0, 0.0, 0.0, 0.0, 0.0, 1.695680192843621E9, 0.0, 2023-09-25 17:16:32.843
