%OpenBCI Raw EXG Data
%Number of channels = 16
%Sample Rate = 125 Hz
%Board = OpenBCI_GUI$BoardCytonSerialDaisy
Sample Index, EXG Channel 0, EXG Channel 1, EXG Channel 2, EXG Channel 3, EXG Channel 4, EXG Channel 5, EXG Channel 6, EXG Channel 7, EXG Channel 8, EXG Channel 9, EXG Channel 10, EXG Channel 11, EXG Channel 12, EXG Channel 13, EXG Channel 14, EXG Channel 15, Accel Channel 0, Accel Channel 1, Accel Channel 2, Other, Other, Other, Other, Other, Other, Other, Analog Channel 0, Analog Channel 1, Analog Channel 2, Timestamp, Other, Timestamp (Formatted)
238.0, -15608.111394418645, -22410.216618802147, 3212.772692772471, 13027.870717986909, -45704.86941395634, -39242.04131865994, 151816.46815734723, -37382.46558695622, 3785.1114612950637, -1249.7307359851284, -23947.68136116044, -15451.559776253674, -24800.53452259714, -15858.674449762637, -14734.404055405148, -13981.95493006169, 0.0, 0.0, 0.0, 192.0, 0.0, 0.0, 0.0, 0.0, 0.0, 0.0, 0.0, 0.0, 0.0, 1.695338607486396E9, 0.0, 2023-09-21 18:23:27.486
240.0, -15619.220211412932, -22423.33709279741, 3211.2080706606, 13016.963066692719, -45704.26591685604, -39250.467926319594, 151841.8820907929, -37387.89706085886, 3778.0259583027314, -1260.3701663458546, -23956.845576387117, -15464.881415949038, -24811.710394824793, -15868.263348133964, -14741.377799675203, -13990.470944699162, 0.0, 0.0, 0.0, 192.0, 0.0, 0.0, 0.0, 0.0, 0.0, 0.0, 0.0, 0.0, 0.0, 1.695338607486406E9, 0.0, 2023-09-21 18:23:27.486
242.0, -15617.1862026675, -22425.080528864924, 3203.6084775457953, 13010.458709056224, -45690.743111460586, -39250.132650152766, 151820.08913994898, -37385.75129339115, 3776.8413158466, -1268.2826838830333, -23959.39367525502, -15473.240968375323, -24821.29929319612, -15870.722040024048, -14738.181500218094, -13993.667244156271, 0.0, 0.0, 0.0, 192.0, 0.0, 0.0, 0.0, 0.0, 0.0, 0.0, 0.0, 0.0, 0.0, 1.69533860748641E9, 0.0, 2023-09-21 18:23:27.486
244.0, -15613.185240410001, -22426.779261443528, 3212.191547416633, 13009.408177066825, -45685.982189891605, -39249.283283863464, 151851.56039614207, -37381.45975845573, 3784.7761851282344, -1260.0572419234804, -23952.241117029324, -15469.642337518018, -24800.89215050842, -15867.90572022268, -14728.14556695766, -13990.873276099359, 0.116, 0.9540000000000001, 0.324, 192.0, 1.5, 80.0, 14.5, 104.0, 5.0, 16.0, 0.0, 0.0, 0.0, 1.695338607486414E9, 0.0, 2023-09-21 18:23:27.486
246.0, -15614.28047588831, -22426.354578298877, 3204.8601752352924, 13008.849383455443, -45693.82765219542, -39248.63508327426, 151831.51088136566, -37384.812520124025, 3779.5235251812373, -1262.5829890469302, -23954.74451240832, -15471.452828818898, -24825.613179875993, -15875.080630192833, -14734.739331571976, -13996.595322679917, 0.116, 0.9540000000000001, 0.324, 192.0, 0.0, 0.0, 0.0, 0.0, 0.0, 0.0, 0.0, 0.0, 0.0, 1.695338607486417E9, 0.0, 2023-09-21 18:23:27.486
248.0, -15603.976321694414, -22416.3409967829, 3217.690076552639, 13019.533517305079, -45690.98898064959, -39237.615673257795, 151852.342707198, -37379.135177032374, 3783.949170583388, -1253.8658087093602, -23945.580297181645, -15462.378020570044, -24794.96893822777, -15864.195330643099, -14731.095997225762, -13987.855790597892, 0.116, 0.9540000000000001, 0.324, 192.0, 0.0, 0.0, 0.0, 0.0, 0.0, 0.0, 0.0, 0.0, 0.0, 1.69533860748642E9, 0.0, 2023-09-21 18:23:27.486
250.0, -15607.485545573896, -22417.05625260547, 3209.1517101707113, 13015.174927136295, -45701.784873221506, -39239.18029536966, 151832.60611684396, -37382.33147648948, 3788.5089264522708, -1250.8036197189833, -23943.054550058194, -15458.712334479373, -24802.34501389802, -15858.51798755145, -14734.96284901653, -13986.045299297011, 0.116, 0.9540000000000001, 0.324, 192.0, 0.0, 0.0, 0.0, 0.0, 0.0, 0.0, 0.0, 0.0, 0.0, 1.695338607486424E9, 0.0, 2023-09-21 18:23:27.486
252.0, -15601.674092015517, -22411.267150791544, 3225.2449661785326, 13024.540308063068, -45697.62744875282, -39232.51947552198, 151844.05021000508, -37375.514194430616, 3787.547801440692, -1250.6918609967067, -23942.07107330216, -15456.141883867012, -24804.535484854638, -15858.965022440556, -14735.298125183359, -13984.279511485043, 0.116, 0.9540000000000001, 0.324, 192.0, 0.0, 0.0, 0.0, 0.0, 0.0, 0.0, 0.0, 0.0, 0.0, 1.695338607486427E9, 0.0, 2023-09-21 18:23:27.486
254.0, -15600.556504792752, -22408.562589712452, 3222.808626032904, 13026.551965064045, -45699.97438192063, -39234.66524298969, 151827.77814004163, -37380.56568867752, 3790.2300107753294, -1247.9202446842487, -23937.153689521994, -15450.129264608535, -24806.144810455422, -15852.527720037428, -14733.845261793766, -13980.926749816746, 0.124, 0.9560000000000001, 0.324, 192.0, 1.5, 112.0, 14.5, 112.0, 5.0, 16.0, 0.0, 0.0, 0.0, 1.695338607486431E9, 0.0, 2023-09-21 18:23:27.486
0.0, -7660.769839378577, -11199.520373287247, 1737.4234482554732, 6498.7920521249835, -22714.40150909442, -19505.987406490734, 76074.29636410432, -18579.30643311816, 1893.393921064606, -622.1831586579274, -11967.727478471694, -7722.170081397305, -12405.195820950965, -7924.1627960399155, -7366.397364902183, -6991.245685964309, 0.122, 0.9500000000000001, 0.326, 192.0, 1.5, 104.0, 14.5, 88.0, 5.0, 24.0, 0.0, 0.0, 0.0, 1.695338607629381E9, 0.0, 2023-09-21 18:23:27.629
2.0, -15328.960457916315, -22401.454734975665, 3483.2958559150525, 12997.85232518343, -45428.93712865557, -39015.215815927484, 152172.82201919818, -37161.83151743788, 4195.891820894697, -761.5015818478563, -23527.401510167303, -15136.981324789684, -24345.85533688728, -15470.91638695197, -14587.486039100415, -13704.502726137964, 0.122, 0.9500000000000001, 0.326, 192.0, 0.0, 0.0, 0.0, 0.0, 0.0, 0.0, 0.0, 0.0, 0.0, 1.695338607629393E9, 0.0, 2023-09-21 18:23:27.629
4.0, -15322.009065390715, -22397.47612446262, 3485.352216404941, 13003.708482230722, -45422.16455008561, -39008.35383037971, 152157.4663707574, -37153.58372373387, 4201.747977941987, -756.383032367591, -23519.645454841313, -15128.867641552406, -24332.377234980733, -15465.037878160225, -14579.8417424967, -13697.23840918999, 0.122, 0.9500000000000001, 0.326, 192.0, 0.0, 0.0, 0.0, 0.0, 0.0, 0.0, 0.0, 0.0, 0.0, 1.695338607629398E9, 0.0, 2023-09-21 18:23:27.629
6.0, -15326.993504404249, -22404.62868268832, 3490.0237309961, 13001.920342674297, -45422.36571578571, -39011.304260647805, 152179.6616530015, -37154.14251734525, 4198.663437207155, -759.6463870580658, -23520.36071066388, -15129.694656097254, -24336.020569326945, -15469.888206707026, -14576.019594194842, -13694.824420788816, 0.122, 0.9500000000000001, 0.326, 192.0, 0.0, 0.0, 0.0, 0.0, 0.0, 0.0, 0.0, 0.0, 0.0, 1.695338607629403E9, 0.0, 2023-09-21 18:23:27.629
8.0, -15329.675713738885, -22408.674348434728, 3478.892562257357, 12999.126374617384, -45429.272404822404, -39010.879577503154, 152161.57909173716, -37156.08711911287, 4191.868506892742, -762.7085760484429, -23528.0050072676, -15135.439054422266, -24350.035113100424, -15473.173913141956, -14578.947672718487, -13696.009063244946, 0.122, 0.9540000000000001, 0.326, 192.0, 1.5, 104.0, 14.5, 104.0, 5.0, 24.0, 0.0, 0.0, 0.0, 1.695338607629406E9, 0.0, 2023-09-21 18:23:27.629
10.0, -15319.528021756176, -22398.72782215212, 3492.5941816084605, 13010.659874756322, -45422.3210122968, -39001.89417623213, 152174.27488258778, -37148.711043442614, 4200.0939488522945, -756.1595149230379, -23519.46664088567, -15129.068807252504, -24339.82036588435, -15469.843503218115, -14572.756239504366, -13686.643682318174, 0.122, 0.9540000000000001, 0.326, 192.0, 0.0, 0.0, 0.0, 0.0, 0.0, 0.0, 0.0, 0.0, 0.0, 1.69533860762941E9, 0.0, 2023-09-21 18:23:27.629
12.0, -15322.344341557544, -22402.05823207596, 3487.229762939187, 13006.81537471001, -45428.37833504419, -39006.23041465645, 152164.70833596092, -37154.656607467725, 4204.810166932365, -749.319881119714, -23515.04099548352, -15127.146557229347, -24331.036130313412, -15463.093276392614, -14573.337384860204, -13685.101411950758, 0.122, 0.9540000000000001, 0.326, 192.0, 0.0, 0.0, 0.0, 0.0, 0.0, 0.0, 0.0, 0.0, 0.0, 1.695338607629413E9, 0.0, 2023-09-21 18:23:27.629
14.0, -15318.768062444695, -22399.510133208052, 3494.5834868649827, 13013.453842813236, -45420.08583785127, -38996.59681279622, 152179.52754253478, -37146.56527597491, 4202.351475042281, -749.0963636751609, -23518.349053662903, -15131.102815997938, -24335.305313504377, -15463.67442174845, -14573.851474982677, -13687.113068951736, 0.122, 0.9540000000000001, 0.326, 192.0, 0.0, 0.0, 0.0, 0.0, 0.0, 0.0, 0.0, 0.0, 0.0, 1.695338607629417E9, 0.0, 2023-09-21 18:23:27.629
16.0, -15320.377388045477, -22398.30313900747, 3483.027634981589, 13010.391653822859, -45422.67864020808, -38997.602641296704, 152178.90169369004, -37142.60901720631, 4198.708140696066, -746.771782251809, -23521.679463586745, -15130.633429364376, -24340.28975251791, -15459.896976935504, -14569.381126091615, -13682.732127038495, 0.122, 0.9540000000000001, 0.326, 192.0, 0.0, 0.0, 0.0, 0.0, 0.0, 0.0, 0.0, 0.0, 0.0, 1.695338607689792E9, 0.0, 2023-09-21 18:23:27.689
18.0, -15317.494013010742, -22393.318699993935, 3483.988759993167, 13009.452880555735, -45424.287965808864, -38997.58028955225, 152188.98233043938, -37144.35245327383, 4194.550716227379, -746.9058927185408, -23522.70764383169, -15128.018275263104, -24344.87186013125, -15461.77452346975, -14574.633786038612, -13688.789449785883, 0.12, 0.9500000000000001, 0.328, 192.0, 1.5, 96.0, 14.5, 88.0, 5.0, 32.0, 0.0, 0.0, 0.0, 1.695338607689803E9, 0.0, 2023-09-21 18:23:27.689
20.0, -15316.979922888271, -22393.51986569403, 3479.518411102106, 13006.971836921197, -45421.33753554077, -38992.171167394066, 152188.0659089167, -37138.943331115646, 4199.02106511844, -741.8543984716414, -23517.298521673503, -15122.318580427002, -24338.05457807238, -15457.505340278787, -14573.225626137928, -13684.028528216902, 0.12, 0.9500000000000001, 0.328, 192.0, 0.0, 0.0, 0.0, 0.0, 0.0, 0.0, 0.0, 0.0, 0.0, 1.695338607689807E9, 0.0, 2023-09-21 18:23:27.689
22.0, -15326.926449170882, -22403.935778610205, 3478.154954690332, 12997.449993783235, -45429.965308900515, -39001.96123146549, 152193.29621711926, -37147.41464226421, 4193.790756915898, -751.7115177764318, -23523.64641709881, -15133.09212125446, -24345.654171187183, -15465.104933393592, -14574.32086161624, -13689.258836419445, 0.12, 0.9500000000000001, 0.328, 192.0, 0.0, 0.0, 0.0, 0.0, 0.0, 0.0, 0.0, 0.0, 0.0, 1.695338607689811E9, 0.0, 2023-09-21 18:23:27.689
24.0, -15318.231620577768, -22396.067964561935, 3483.7205390597037, 13003.19439210825, -45422.633936719176, -38991.52296680486, 152209.45652836043, -37136.842267136846, 4194.26014354946, -751.1080206761385, -23524.071100243462, -15133.539156143566, -24342.16729905216, -15468.278881106244, -14574.49967557188, -13690.130554453202, 0.12, 0.9500000000000001, 0.328, 192.0, 0.0, 0.0, 0.0, 0.0, 0.0, 0.0, 0.0, 0.0, 0.0, 1.695338607689814E9, 0.0, 2023-09-21 18:23:27.689
26.0, -15323.283114824668, -22402.99700534308, 3481.1947919362538, 13000.266313584605, -45419.88467215117, -38995.74744650692, 152217.3243424087, -37141.312616027906, 4196.9200011396415, -746.4141543405241, -23523.378196165348, -15130.745188086652, -24356.15949108118, -15463.540311281718, -14568.26353886885, -13684.833191017295, 0.12, 0.9500000000000001, 0.328, 192.0, 0.0, 0.0, 0.0, 0.0, 0.0, 0.0, 0.0, 0.0, 0.0, 1.695338607689825E9, 0.0, 2023-09-21 18:23:27.689
28.0, -15326.546469515142, -22406.662691433754, 3479.518411102106, 12993.739604203654, -45425.56201524282, -38998.13908316363, 152224.09692097866, -37144.12893582928, 4193.455480749069, -753.0749741882056, -23529.122594490364, -15135.819034078007, -24338.322799005844, -15467.049535161203, -14573.27032962684, -13692.969225999026, 0.11800000000000001, 0.9500000000000001, 0.326, 192.0, 1.5, 88.0, 14.5, 88.0, 5.0, 24.0, 0.0, 0.0, 0.0, 1.695338607689829E9, 0.0, 2023-09-21 18:23:27.689
30.0, -15328.803995705128, -22409.34490076839, 3480.1666116913098, 12991.415022780302, -45424.66794546461, -39001.00010645391, 152213.94922899595, -37145.80531666343, 4188.627503946723, -751.5550555652446, -23528.94378053472, -15137.51776665661, -24345.87768863174, -15470.134075896034, -14572.55507380427, -13694.75736555545, 0.11800000000000001, 0.9500000000000001, 0.326, 192.0, 0.0, 0.0, 0.0, 0.0, 0.0, 0.0, 0.0, 0.0, 0.0, 1.695338607749232E9, 0.0, 2023-09-21 18:23:27.749
32.0, -15325.093606125547, -22406.886208878306, 3489.6884548292705, 12999.707519973223, -45417.60479421673, -38991.63472552714, 152220.31947616572, -37137.62457819278, 4194.461309249557, -749.8116194977307, -23524.428728154748, -15133.583859632476, -24341.16147055167, -15464.769657226761, -14567.21300687945, -13689.035318974891, 0.11800000000000001, 0.9500000000000001, 0.326, 192.0, 0.0, 0.0, 0.0, 0.0, 0.0, 0.0, 0.0, 0.0, 0.0, 1.695338607749247E9, 0.0, 2023-09-21 18:23:27.749
34.0, -15329.251030594234, -22412.85412464787, 3486.7827280500806, 12998.835801939465, -45415.52608198239, -38991.120635404666, 152218.95601975394, -37136.30582526992, 4194.841288905298, -751.5327038207894, -23525.88159154434, -15135.193185233258, -24338.456909472574, -15461.707468236384, -14563.346155088682, -13683.3803276277, 0.11800000000000001, 0.9500000000000001, 0.326, 192.0, 0.0, 0.0, 0.0, 0.0, 0.0, 0.0, 0.0, 0.0, 0.0, 1.695338607749251E9, 0.0, 2023-09-21 18:23:27.749
36.0, -15326.121786370491, -22411.825944402928, 3495.6563705988374, 13007.731796232676, -45414.967288371, -38986.67263825806, 152234.44577866147, -37132.997767090535, 4195.176565072127, -750.6609857870324, -23527.110937489386, -15136.221365478203, -24339.01570308396, -15460.321660080155, -14559.747524231378, -13677.568874069319, 0.11800000000000001, 0.9500000000000001, 0.326, 192.0, 0.0, 0.0, 0.0, 0.0, 0.0, 0.0, 0.0, 0.0, 0.0, 1.695338607749254E9, 0.0, 2023-09-21 18:23:27.749
38.0, -15323.663094480407, -22407.75792691206, 3488.280294928586, 13013.00680792413, -45416.6213174607, -38990.45008307101, 152217.34669415315, -37136.127011314275, 4197.747015684487, -748.090535174672, -23521.835925797932, -15132.198051476247, -24338.211040283568, -15457.639450745519, -14561.289794598795, -13675.981900212992, 0.12, 0.9460000000000001, 0.328, 192.0, 1.5, 96.0, 14.5, 72.0, 5.0, 32.0, 0.0, 0.0, 0.0, 1.695338607749258E9, 0.0, 2023-09-21 18:23:27.749
40.0, -15329.36278931651, -22409.76958391304, 3487.989722250667, 13001.696825229745, -45420.13054134018, -38998.943745964025, 152237.97735428542, -37143.25721779552, 4196.607076717267, -748.2022938969486, -23520.94185601972, -15129.225269463692, -24351.666790445663, -15459.025258901747, -14564.21787312244, -13680.854580504249, 0.12, 0.9460000000000001, 0.328, 192.0, 0.0, 0.0, 0.0, 0.0, 0.0, 0.0, 0.0, 0.0, 0.0, 1.695338607749261E9, 0.0, 2023-09-21 18:23:27.749
42.0, -15326.680579981874, -22408.58494145691, 3484.771071049103, 12995.415985037802, -45422.477474507985, -39003.32468787726, 152205.70143529194, -37148.509877742516, 4192.6955214375885, -753.1643811660268, -23525.591018866424, -15133.337990443468, -24346.078854331834, -15469.307061351188, -14569.135256902608, -13690.890513764682, 0.12, 0.9460000000000001, 0.328, 192.0, 0.0, 0.0, 0.0, 0.0, 0.0, 0.0, 0.0, 0.0, 0.0, 1.695338607749265E9, 0.0, 2023-09-21 18:23:27.749
44.0, -15326.613524748509, -22410.775412413528, 3496.3045711880413, 12999.551057762035, -45416.956593627525, -39002.74354252143, 152221.66058083304, -37149.64981670974, 4197.612905217756, -754.1925614109709, -23519.73486181913, -15133.136824743371, -24325.42584245513, -15465.686078749428, -14565.98366093441, -13691.829287031806, 0.12, 0.9460000000000001, 0.328, 192.0, 0.0, 0.0, 0.0, 0.0, 0.0, 0.0, 0.0, 0.0, 0.0, 1.695338607749268E9, 0.0, 2023-09-21 18:23:27.749
46.0, -15324.288943325157, -22412.183572314214, 3487.319169917008, 12998.321711816992, -45415.12375058219, -39002.54237682133, 152202.03574920128, -37147.92873238668, 4202.843213420298, -754.5278375778005, -23513.878704771843, -15132.443920665255, -24332.91367684766, -15464.032049659736, -14563.234396366406, -13689.705871308552, 0.12, 0.9460000000000001, 0.328, 192.0, 0.0, 0.0, 0.0, 0.0, 0.0, 0.0, 0.0, 0.0, 0.0, 1.695338607808875E9, 0.0, 2023-09-21 18:23:27.808
48.0, -15325.65239973693, -22416.229238060623, 3496.8186613105136, 12995.863019926908, -45410.85456739123, -38998.787283752834, 152222.35348491115, -37141.89376138375, 4203.558469242867, -755.1089829336385, -23513.431669882735, -15133.159176487825, -24330.700854146584, -15470.737572996328, -14558.004088163863, -13685.213170673034, 0.11800000000000001, 0.9540000000000001, 0.328, 192.0, 1.5, 88.0, 14.5, 104.0, 5.0, 32.0, 0.0, 0.0, 0.0, 1.695338607808881E9, 0.0, 2023-09-21 18:23:27.808
50.0, -15326.591173004053, -22415.223409560134, 3487.5650391060162, 12995.505392015624, -45414.14027382616, -38998.11673141918, 152204.11446143562, -37140.172677060684, 4201.5915157308, -760.4286981140016, -23515.309216416983, -15137.204842234236, -24337.115804805257, -15477.44309633292, -14558.69699224198, -13684.56497008383, 0.11800000000000001, 0.9540000000000001, 0.328, 192.0, 0.0, 0.0, 0.0, 0.0, 0.0, 0.0, 0.0, 0.0, 0.0, 1.695338607808885E9, 0.0, 2023-09-21 18:23:27.808
52.0, -15321.673789223885, -22408.71905192364, 3500.372588678907, 13001.607418251922, -45414.27438429289, -38991.54531854932, 152211.06585396122, -37135.299996769434, 4201.859736664264, -753.6337677995882, -23513.834001282932, -15129.314676441512, -24335.305313504377, -15467.854197961593, -14557.758218974855, -13677.70298453605, 0.11800000000000001, 0.9540000000000001, 0.328, 192.0, 0.0, 0.0, 0.0, 0.0, 0.0, 0.0, 0.0, 0.0, 0.0, 1.695338607808889E9, 0.0, 2023-09-21 18:23:27.808
54.0, -15329.318085827601, -22415.82690666043, 3496.7516060771477, 12999.260485084116, -45412.195672058544, -38993.981658694946, 152172.06205988672, -37139.32331077138, 4206.9559344000745, -751.1303724205939, -23513.11874546036, -15129.269972952603, -24313.445307427086, -15462.15450312549, -14549.063390381742, -13673.009118200436, 0.11800000000000001, 0.9540000000000001, 0.328, 192.0, 0.0, 0.0, 0.0, 0.0, 0.0, 0.0, 0.0, 0.0, 0.0, 1.695338607808893E9, 0.0, 2023-09-21 18:23:27.808
56.0, -15329.161623616414, -22414.977540371125, 3497.802138066547, 13004.04375839755, -45409.11113132371, -38994.51810056187, 152170.67625173047, -37142.072575339385, 4199.713969196555, -753.030270699295, -23521.634760097833, -15134.992019533162, -24328.063348300857, -15463.49560779281, -14555.88067244061, -13678.932330481093, 0.11800000000000001, 0.9540000000000001, 0.328, 192.0, 0.0, 0.0, 0.0, 0.0, 0.0, 0.0, 0.0, 0.0, 0.0, 1.695338607808897E9, 0.0, 2023-09-21 18:23:27.808
58.0, -15318.611600233507, -22406.640339689297, 3493.801175809047, 13004.58020026448, -45408.46293073451, -38997.37912385215, 152155.99115562334, -37144.75478467403, 4209.481681523524, -747.1964653964598, -23515.08569897243, -15130.722836342196, -24322.25189474248, -15461.43924730292, -14555.523044529325, -13680.698118293061, 0.122, 0.9520000000000001, 0.33, 192.0, 1.5, 104.0, 14.5, 96.0, 5.0, 40.0, 0.0, 0.0, 0.0, 1.695338607808901E9, 0.0, 2023-09-21 18:23:27.808
60.0, -15331.2179841063, -22418.732633439617, 3488.7496815621475, 12985.737679688655, -45420.64463146265, -39016.08753396125, 152172.57615000918, -37162.1220901158, 4207.067693122351, -752.0467939432614, -23516.04682398401, -15132.086292753971, -24333.360711736765, -15473.44213407542, -14562.809713221755, -13693.416260888132, 0.122, 0.9520000000000001, 0.33, 192.0, 0.0, 0.0, 0.0, 0.0, 0.0, 0.0, 0.0, 0.0, 0.0, 1.695338607869117E9, 0.0, 2023-09-21 18:23:27.869
62.0, -15329.943934672348, -22415.692796193696, 3479.5631145910165, 12986.452935511224, -45417.85066340574, -39011.326612392266, 152148.74919041983, -37154.00840687852, 4197.277629050926, -758.4393928574792, -23525.36750142187, -15138.501243412644, -24333.91950534815, -15480.594692301118, -14571.593948792692, -13704.189801715589, 0.122, 0.9520000000000001, 0.33, 192.0, 0.0, 0.0, 0.0, 0.0, 0.0, 0.0, 0.0, 0.0, 0.0, 1.695338607869122E9, 0.0, 2023-09-21 18:23:27.869
64.0, -15334.70485624133, -22419.313778795455, 3480.8148122805137, 12982.161400575806, -45419.191768073055, -39013.67354556007, 152156.28172830126, -37155.6177324793, 4198.0375883624065, -756.2936253897698, -23527.714434589678, -15139.99881029115, -24338.702778661584, -15477.219578888367, -14568.688222013501, -13702.446365648077, 0.122, 0.9520000000000001, 0.33, 192.0, 0.0, 0.0, 0.0, 0.0, 0.0, 0.0, 0.0, 0.0, 0.0, 1.695338607869126E9, 0.0, 2023-09-21 18:23:27.869
66.0, -15332.424978306888, -22416.698624694185, 3485.218105938209, 12987.95050238973, -45411.83804414726, -39003.81642625528, 152152.9736701219, -37145.648854452236, 4199.73632094101, -754.9748724669066, -23526.596847366913, -15141.89870856985, -24324.86704884375, -15477.465448077375, -14564.687259756001, -13699.384176657699, 0.122, 0.9520000000000001, 0.33, 192.0, 0.0, 0.0, 0.0, 0.0, 0.0, 0.0, 0.0, 0.0, 0.0, 1.69533860786913E9, 0.0, 2023-09-21 18:23:27.869
68.0, -15339.55518478813, -22423.650017219785, 3483.698187315248, 12981.647310453334, -45415.704895938026, -39002.38591461014, 152160.48385625886, -37142.89958988423, 4193.6342947047115, -753.3655468661245, -23528.384986923338, -15141.786949847574, -24332.779566380927, -15474.15738989799, -14562.116809143641, -13692.388080643188, 0.128, 0.9460000000000001, 0.328, 192.0, 2.0, 0.0, 14.5, 72.0, 5.0, 32.0, 0.0, 0.0, 0.0, 1.695338607869134E9, 0.0, 2023-09-21 18:23:27.869
70.0, -15337.767045231707, -22423.2923893085, 3477.573809334494, 12976.975795862174, -45417.47068375, -39000.128388420155, 152156.68405970145, -37141.42437475018, 4187.465213235047, -758.640558557577, -23534.88934455983, -15149.699467384753, -24338.68042691713, -15478.359517855588, -14569.291719113795, -13695.249103933467, 0.128, 0.9460000000000001, 0.328, 192.0, 0.0, 0.0, 0.0, 0.0, 0.0, 0.0, 0.0, 0.0, 0.0, 1.695338607869137E9, 0.0, 2023-09-21 18:23:27.869
72.0, -15335.822443464094, -22423.40414803078, 3477.283236656575, 12973.600682449423, -45413.51442498141, -39001.42478959856, 152153.24189105534, -37142.02787185048, 4190.549753969879, -759.4228696135127, -23530.910734046785, -15150.258260996136, -24335.95351409358, -15480.080602178647, -14565.380163834116, -13693.885647521693, 0.128, 0.9460000000000001, 0.328, 192.0, 0.0, 0.0, 0.0, 0.0, 0.0, 0.0, 0.0, 0.0, 0.0, 1.695338607869141E9, 0.0, 2023-09-21 18:23:27.869
74.0, -15337.543527787153, -22425.86283992086, 3479.3395971464633, 12973.891255127342, -45409.334648768265, -39000.03898144233, 152158.38279228006, -37142.139630572754, 4190.080367336317, -763.2450179153702, -23535.00110328211, -15154.818016865018, -24337.24991527199, -15479.611215545085, -14562.340326588193, -13695.89730452267, 0.128, 0.9460000000000001, 0.328, 192.0, 0.0, 0.0, 0.0, 0.0, 0.0, 0.0, 0.0, 0.0, 0.0, 1.695338607869145E9, 0.0, 2023-09-21 18:23:27.869
76.0, -15340.091626655058, -22431.00374114558, 3478.825507023991, 12984.016595365596, -45415.86135814922, -38995.14394940662, 152145.79876015172, -37143.72660442908, 4186.817012645843, -763.6920528044764, -23536.0069317826, -15155.265051754124, -24358.215851571065, -15475.878474221048, -14557.489998041392, -13691.09167946478, 0.128, 0.9460000000000001, 0.328, 192.0, 0.0, 0.0, 0.0, 0.0, 0.0, 0.0, 0.0, 0.0, 0.0, 1.695338607929576E9, 0.0, 2023-09-21 18:23:27.929
78.0, -15328.17814686038, -22418.39735727279, 3484.0111117376223, 12992.845534425442, -45424.89146290916, -38989.31014410379, 152146.5140159743, -37139.770345660494, 4186.25821903446, -760.7416225363759, -23532.542411392023, -15152.4263802083, -24334.81357512636, -15471.96691894137, -14567.615338279646, -13691.650473076163, 0.126, 0.9500000000000001, 0.328, 192.0, 1.5, 120.0, 14.5, 88.0, 5.0, 32.0, 0.0, 0.0, 0.0, 1.695338607929588E9, 0.0, 2023-09-21 18:23:27.929
80.0, -15325.69710322584, -22414.32933978192, 3478.512582601617, 12985.357700032915, -45427.39485828816, -38998.69787677501, 152136.52278620278, -37148.55458123143, 4194.30484703837, -748.0681834302168, -23520.718338575167, -15139.819996335507, -24337.24991527199, -15469.128247395545, -14571.102210414674, -13693.57272309932, 0.126, 0.9500000000000001, 0.328, 192.0, 0.0, 0.0, 0.0, 0.0, 0.0, 0.0, 0.0, 0.0, 0.0, 1.695338607929592E9, 0.0, 2023-09-21 18:23:27.929
82.0, -15326.032379392671, -22413.658787448265, 3483.094690214955, 12978.540417974045, -45423.01391637491, -39002.90000473261, 152145.93287061845, -37150.16390683221, 4195.958876128063, -748.6940322749654, -23523.13232697634, -15140.781121347085, -24326.163450022155, -15479.588863800629, -14576.35487036167, -13707.944894784081, 0.126, 0.9500000000000001, 0.328, 192.0, 0.0, 0.0, 0.0, 0.0, 0.0, 0.0, 0.0, 0.0, 0.0, 1.695338607929596E9, 0.0, 2023-09-21 18:23:27.929
84.0, -15330.212155605812, -22421.504249752077, 3486.4251001387956, 12979.47919124117, -45420.28700355137, -39002.0059349544, 152138.48973971483, -37144.173639318185, 4199.669265707644, -750.2363026423816, -23518.416108896272, -15138.61300213492, -24333.137194292212, -15481.466410334875, -14567.12359990163, -13703.966284271037, 0.126, 0.9500000000000001, 0.328, 192.0, 0.0, 0.0, 0.0, 0.0, 0.0, 0.0, 0.0, 0.0, 0.0, 1.6953386079296E9, 0.0, 2023-09-21 18:23:27.929
86.0, -15335.576574275086, -22429.372063800343, 3488.0344257395777, 12980.574426719479, -45417.42598026109, -38999.368429108676, 152154.78416142275, -37143.45838349562, 4188.716910924543, -761.9486167369624, -23529.79314682402, -15152.180511019293, -24335.32766524883, -15483.947453969415, -14567.458876068458, -13705.597961616275, 0.126, 0.9500000000000001, 0.328, 192.0, 0.0, 0.0, 0.0, 0.0, 0.0, 0.0, 0.0, 0.0, 0.0, 1.695338607929603E9, 0.0, 2023-09-21 18:23:27.929
88.0, -15327.798167204639, -22419.96197938466, 3488.861440284424, 12986.5646942335, -45413.536776725865, -38989.66777201507, 152135.5616611912, -37136.23877003655, 4194.707178438566, -756.2936253897698, -23523.825231054456, -15146.369057460912, -24339.082758317323, -15472.369250341566, -14559.434599809003, -13694.556199855353, 0.122, 0.9560000000000001, 0.332, 192.0, 1.5, 104.0, 14.5, 112.0, 5.0, 48.0, 0.0, 0.0, 0.0, 1.695338607929607E9, 0.0, 2023-09-21 18:23:27.929
90.0, -15326.837042193061, -22417.100956094382, 3497.0421787550663, 12986.542342489045, -45415.99546861595, -38990.38302783764, 152159.34391729164, -37142.273741039484, 4195.444786005591, -747.352927607647, -23519.064309485475, -15141.89870856985, -24335.81940362685, -15466.311927594177, -14556.573576518724, -13688.811801530339, 0.122, 0.9560000000000001, 0.332, 192.0, 0.0, 0.0, 0.0, 0.0, 0.0, 0.0, 0.0, 0.0, 0.0, 1.695338607989003E9, 0.0, 2023-09-21 18:23:27.989
92.0, -15324.266591580701, -22412.138868825303, 3488.123832717399, 12985.089479099452, -45422.209253574525, -38992.97583019445, 152125.83865235312, -37145.291226540954, 4193.209611560061, -746.2353403848816, -23519.98073100814, -15139.551775402044, -24351.86795614576, -15469.262357862277, -14562.16151263255, -13693.729185310505, 0.122, 0.9560000000000001, 0.332, 192.0, 0.0, 0.0, 0.0, 0.0, 0.0, 0.0, 0.0, 0.0, 0.0, 1.695338607989027E9, 0.0, 2023-09-21 18:23:27.989
94.0, -15326.3676555595, -22414.10582233737, 3494.158803720332, 12983.748374432133, -45428.87007342221, -38996.19448139602, 152147.1622165635, -37145.89472364125, 4195.802413916876, -747.5540933077447, -23520.450117641703, -15139.864699824418, -24324.598827910286, -15474.559721298185, -14568.799980735777, -13701.686406336596, 0.122, 0.9560000000000001, 0.332, 192.0, 0.0, 0.0, 0.0, 0.0, 0.0, 0.0, 0.0, 0.0, 0.0, 1.695338607989031E9, 0.0, 2023-09-21 18:23:27.989
96.0, -15334.213117863312, -22423.091223608404, 3481.5524198475387, 12980.976758119674, -45431.32876531229, -38996.12742616265, 152127.47032969838, -37145.425337007684, 4191.868506892742, -751.8679799876189, -23525.7027775887, -15142.479853925688, -24337.719301905552, -15475.051459676202, -14569.35877434716, -13701.105260980758, 0.122, 0.9560000000000001, 0.332, 192.0, 0.0, 0.0, 0.0, 0.0, 0.0, 0.0, 0.0, 0.0, 0.0, 1.695338607989034E9, 0.0, 2023-09-21 18:23:27.989
98.0, -15329.206327105323, -22418.330302039423, 3480.703053558237, 12979.747412174633, -45430.79232344536, -38994.0040104394, 152133.77352163478, -37141.9161131282, 4185.766480656443, -754.7066515334429, -23530.307236946494, -15145.452635938245, -24345.67652293164, -15480.326471367654, -14574.611434294158, -13704.994464515981, 0.122, 0.9560000000000001, 0.338, 192.0, 1.5, 104.0, 14.5, 112.0, 5.0, 72.0, 0.0, 0.0, 0.0, 1.695338607989038E9, 0.0, 2023-09-21 18:23:27.989
100.0, -15326.613524748509, -22411.982406614115, 3479.8536872689356, 12979.345080774438, -45425.96434664301, -38992.12646390515, 152125.03398955276, -37140.48560148306, 4189.409815002658, -746.6823752739878, -23521.947684520208, -15138.23302247918, -24340.222697284546, -15472.078677663647, -14570.185788892006, -13701.686406336596, 0.122, 0.9560000000000001, 0.338, 192.0, 0.0, 0.0, 0.0, 0.0, 0.0, 0.0, 0.0, 0.0, 0.0, 1.695338607989042E9, 0.0, 2023-09-21 18:23:27.989
102.0, -15322.836079935561, -22406.752098411573, 3494.0470449980553, 12989.984511135162, -45415.05669534882, -38980.14592887711, 152145.28467002924, -37132.282511267964, 4197.277629050926, -741.8767502160968, -23517.94672226271, -15134.701446855242, -24336.221735027044, -15468.211825872879, -14564.240224866895, -13698.445403390575, 0.122, 0.9560000000000001, 0.338, 192.0, 0.0, 0.0, 0.0, 0.0, 0.0, 0.0, 0.0, 0.0, 0.0, 1.695338607989046E9, 0.0, 2023-09-21 18:23:27.989
104.0, -15329.340437572057, -22415.312816537957, 3488.2355914396753, 12985.894141899842, -45412.59800345874, -38980.481205043936, 152131.3148297447, -37135.88114212527, 4195.467137750046, -739.4627618149235, -23516.22563793965, -15133.069769510004, -24331.304351246876, -15465.708430493883, -14557.69116374149, -13692.276321920912, 0.122, 0.9560000000000001, 0.338, 192.0, 0.0, 0.0, 0.0, 0.0, 0.0, 0.0, 0.0, 0.0, 0.0, 1.69533860798905E9, 0.0, 2023-09-21 18:23:27.989
106.0, -15329.943934672348, -22416.1398310828, 3494.4940798871617, 12979.501542985625, -45406.540680711354, -38980.32474283275, 152142.5577572057, -37135.03177583597, 4192.650817948677, -739.1498373925492, -23516.963245506675, -15131.594554375954, -24341.317932762853, -15461.483950791831, -14549.465721781937, -13689.035318974891, 0.122, 0.9560000000000001, 0.338, 192.0, 0.0, 0.0, 0.0, 0.0, 0.0, 0.0, 0.0, 0.0, 0.0, 1.695338608049324E9, 0.0, 2023-09-21 18:23:28.049
108.0, -15335.397760319443, -22423.40414803078, 3479.45135586874, 12968.482132969159, -45410.89927088014, -38984.549222534806, 152117.81437609368, -37138.42924099317, 4186.191163801094, -749.1187154196163, -23525.07692874395, -15141.675191125298, -24343.933086864126, -15474.11268640908, -14555.187768362495, -13698.71362432404, 0.12, 0.9480000000000001, 0.334, 192.0, 1.5, 96.0, 14.5, 80.0, 5.0, 56.0, 0.0, 0.0, 0.0, 1.69533860804933E9, 0.0, 2023-09-21 18:23:28.049
110.0, -15332.804957962628, -22424.097052108893, 3487.229762939187, 12966.984566090652, -45408.150006312135, -38979.989466665924, 152127.7609023763, -37131.790772889944, 4186.25821903446, -745.5200845623118, -23523.66876884327, -15141.09404576946, -24335.752348393482, -15472.928043952948, -14550.471550282426, -13694.958531255548, 0.12, 0.9480000000000001, 0.334, 192.0, 0.0, 0.0, 0.0, 0.0, 0.0, 0.0, 0.0, 0.0, 0.0, 1.695338608049334E9, 0.0, 2023-09-21 18:23:28.049
112.0, -15337.521176042697, -22430.33318881192, 3483.5640768485164, 12960.100228798417, -45411.167491813605, -38985.26447835738, 152120.0942540281, -37131.12022055629, 4190.907381881164, -753.4549538439458, -23523.71347233218, -15148.604231906444, -24325.71641513305, -15475.990232943324, -14551.186806104995, -13697.640740590185, 0.12, 0.9480000000000001, 0.334, 192.0, 0.0, 0.0, 0.0, 0.0, 0.0, 0.0, 0.0, 0.0, 0.0, 1.695338608049338E9, 0.0, 2023-09-21 18:23:28.049
114.0, -15334.838966708061, -22428.880325422328, 3494.2705624426085, 12965.129371300862, -45404.171395799094, -38981.41997831106, 152119.98249530586, -37123.1629995302, 4192.069672592839, -756.6512533010547, -23523.199382209707, -15152.71695288622, -24330.142060535203, -15483.880398736048, -14549.35396305966, -13698.847734790772, 0.12, 0.9480000000000001, 0.334, 192.0, 0.0, 0.0, 0.0, 0.0, 0.0, 0.0, 0.0, 0.0, 0.0, 1.695338608049342E9, 0.0, 2023-09-21 18:23:28.049
116.0, -15343.064408667615, -22436.882249937327, 3491.566001363516, 12966.358717245903, -45406.29481152235, -38982.04582715581, 152122.9552773184, -37126.269892009484, 4187.532268468412, -757.1653434235268, -23523.42289965426, -15152.761656375129, -24324.978807566025, -15479.097125422613, -14544.25776532385, -13694.243275432978, 0.12, 0.9480000000000001, 0.334, 192.0, 0.0, 0.0, 0.0, 0.0, 0.0, 0.0, 0.0, 0.0, 0.0, 1.695338608049345E9, 0.0, 2023-09-21 18:23:28.049
118.0, -15335.50951904172, -22431.786052201518, 3488.950847262245, 12975.411173750303, -45401.0645033198, -38979.18480386553, 152120.58599240615, -37129.846171122335, 4184.201858544571, -754.7066515334429, -23523.378196165348, -15146.503167927644, -24333.450118714587, -15474.850293976104, -14544.391875790583, -13694.064461477335, 0.116, 0.9420000000000001, 0.324, 192.0, 1.5, 80.0, 14.5, 56.0, 5.0, 16.0, 0.0, 0.0, 0.0, 1.695338608049348E9, 0.0, 2023-09-21 18:23:28.049
120.0, -15335.665981252907, -22435.407034803276, 3481.1724401917986, 12966.604586434913, -45407.61356444521, -38988.14785339211, 152117.97083830487, -37143.97247361809, 4184.872410878231, -747.7776107522977, -23520.74069031962, -15140.04351378006, -24334.321836748342, -15475.051459676202, -14547.185843847496, -13700.322949924821, 0.116, 0.9420000000000001, 0.324, 192.0, 0.0, 0.0, 0.0, 0.0, 0.0, 0.0, 0.0, 0.0, 0.0, 1.695338608109702E9, 0.0, 2023-09-21 18:23:28.109
122.0, -15338.32583884309, -22436.457566792677, 3480.5689430915054, 12960.949595087719, -45407.70297142303, -38987.65611501409, 152104.13510848704, -37144.19599106264, 4183.576009699823, -753.6337677995882, -23526.99917876711, -15147.531348172588, -24340.088586817812, -15482.82986674665, -14557.69116374149, -13711.074139007824, 0.116, 0.9420000000000001, 0.324, 192.0, 0.0, 0.0, 0.0, 0.0, 0.0, 0.0, 0.0, 0.0, 0.0, 1.695338608109714E9, 0.0, 2023-09-21 18:23:28.109
124.0, -15345.992487191259, -22442.604296517886, 3477.886733756868, 12955.965156074186, -45408.39587550114, -38988.41607432557, 152111.53353590175, -37147.77227017549, 4185.319445767337, -753.9690439664179, -23529.815498568478, -15153.745133131164, -24337.071101316345, -15481.332299868143, -14556.97590791892, -13710.448290163076, 0.116, 0.9420000000000001, 0.324, 192.0, 0.0, 0.0, 0.0, 0.0, 0.0, 0.0, 0.0, 0.0, 0.0, 1.695338608109718E9, 0.0, 2023-09-21 18:23:28.109
126.0, -15342.729132500785, -22439.20683136068, 3480.3230739024966, 12962.648327666322, -45401.95857309802, -38982.917545189564, 152107.04083526623, -37140.48560148306, 4181.385538743203, -756.67360504551, -23532.877687558856, -15158.19313027777, -24332.980732081025, -15481.533465568242, -14557.624108508124, -13709.978903529514, 0.116, 0.9420000000000001, 0.324, 192.0, 0.0, 0.0, 0.0, 0.0, 0.0, 0.0, 0.0, 0.0, 0.0, 1.695338608109722E9, 0.0, 2023-09-21 18:23:28.109
128.0, -15341.186862133369, -22435.16116561427, 3475.249227911142, 12965.62110967888, -45403.254974276424, -38983.45398705649, 152117.56850690467, -37140.4185462497, 4185.565314956345, -752.158552665538, -23528.049710756506, -15151.956993574739, -24331.281999502422, -15475.722012009861, -14554.003125906363, -13706.313217438845, 0.11800000000000001, 0.9520000000000001, 0.332, 192.0, 1.5, 88.0, 14.5, 96.0, 5.0, 48.0, 0.0, 0.0, 0.0, 1.695338608109726E9, 0.0, 2023-09-21 18:23:28.109
130.0, -15340.292792355156, -22434.848241191896, 3468.8119255080137, 12960.301394498516, -45405.37838999968, -38986.51617604687, 152097.92132352846, -37139.79269740495, 4188.158117313161, -751.7562212653424, -23528.876725301354, -15152.135807530381, -24339.641551928707, -15476.01258468778, -14554.383105562105, -13708.503688395464, 0.11800000000000001, 0.9520000000000001, 0.332, 192.0, 0.0, 0.0, 0.0, 0.0, 0.0, 0.0, 0.0, 0.0, 0.0, 1.695338608109729E9, 0.0, 2023-09-21 18:23:28.109
132.0, -15342.147987144946, -22437.01636040406, 3468.051966196533, 12961.866016610387, -45406.25010803343, -38986.493824302415, 152106.72791084385, -37140.70911892762, 4188.40398650217, -753.4773055884011, -23530.307236946494, -15154.90742384284, -24334.210078026066, -15476.43726783243, -14555.232471851406, -13713.309313453356, 0.11800000000000001, 0.9520000000000001, 0.332, 192.0, 0.0, 0.0, 0.0, 0.0, 0.0, 0.0, 0.0, 0.0, 0.0, 1.695338608109733E9, 0.0, 2023-09-21 18:23:28.109
134.0, -15341.343324344556, -22439.944438927705, 3468.3648906189073, 12967.47630446867, -45401.578593442275, -38980.682370744034, 152092.95923625937, -37135.59056944735, 4192.069672592839, -753.0749741882056, -23529.86020205739, -15154.639202909375, -24339.14981355069, -15475.677308520952, -14550.940936915988, -13711.275304707922, 0.11800000000000001, 0.9520000000000001, 0.332, 192.0, 0.0, 0.0, 0.0, 0.0, 0.0, 0.0, 0.0, 0.0, 0.0, 1.695338608109736E9, 0.0, 2023-09-21 18:23:28.109
136.0, -15341.633897022475, -22439.899735438794, 3475.7186145447035, 12971.052583581519, -45405.93718361106, -38975.60852475268, 152110.7065213569, -37135.076479324875, 4187.845192890786, -760.8533812586525, -23532.922391047763, -15161.94822334626, -24330.67850240213, -15472.525712552753, -14551.991468905386, -13708.32487443982, 0.11800000000000001, 0.9520000000000001, 0.332, 192.0, 0.0, 0.0, 0.0, 0.0, 0.0, 0.0, 0.0, 0.0, 0.0, 1.695338608169914E9, 0.0, 2023-09-21 18:23:28.169
138.0, -15342.662077267418, -22437.15047087079, 3469.326015630486, 12977.355775517915, -45410.385180757665, -38981.08470214423, 152088.66770132395, -37141.55848521692, 4185.654721934166, -755.8912939895743, -23529.41316716828, -15156.583804676988, -24340.11093856227, -15465.149636882501, -14557.489998041392, -13703.541601126386, 0.122, 0.9560000000000001, 0.334, 192.0, 1.5, 104.0, 14.5, 112.0, 5.0, 56.0, 0.0, 0.0, 0.0, 1.695338608169926E9, 0.0, 2023-09-21 18:23:28.169
140.0, -15341.65624876693, -22434.53531676952, 3472.2317424096755, 12986.698804700232, -45411.18984355806, -38982.49286204491, 152103.24103870883, -37144.173639318185, 4182.883105621709, -752.6502910435547, -23527.781489823043, -15149.81122610703, -24356.91945039266, -15459.986383913325, -14563.033230666308, -13701.03820574739, 0.122, 0.9560000000000001, 0.334, 192.0, 0.0, 0.0, 0.0, 0.0, 0.0, 0.0, 0.0, 0.0, 0.0, 1.695338608169929E9, 0.0, 2023-09-21 18:23:28.169
142.0, -15334.995428919248, -22428.00860738857, 3468.253131896631, 12991.52678150258, -45410.04990459084, -38978.78247246533, 152080.12933494203, -37140.28443578297, 4186.101756823273, -745.1624566510269, -23524.920466532763, -15142.993944048161, -24339.976828095536, -15455.873662933549, -14565.827198723222, -13695.405566144655, 0.122, 0.9560000000000001, 0.334, 192.0, 0.0, 0.0, 0.0, 0.0, 0.0, 0.0, 0.0, 0.0, 0.0, 1.695338608169933E9, 0.0, 2023-09-21 18:23:28.169
144.0, -15339.063446410115, -22432.098976623893, 3471.0470999535446, 12985.84943841093, -45413.42501800359, -38984.258649856885, 152095.10500372708, -37142.05022359493, 4186.437032990102, -744.9612909509291, -23525.27809444405, -15142.032819036582, -24348.068159588358, -15456.946546667403, -14565.02253592283, -13689.035318974891, 0.122, 0.9560000000000001, 0.334, 192.0, 0.0, 0.0, 0.0, 0.0, 0.0, 0.0, 0.0, 0.0, 0.0, 1.695338608169937E9, 0.0, 2023-09-21 18:23:28.169
146.0, -15338.527004543186, -22428.835621933416, 3466.2861783845638, 12986.14001108885, -45410.251070290935, -38980.43650155503, 152082.43156462093, -37134.69649966914, 4187.264047534949, -738.9710234369068, -23522.975864765154, -15137.294249212056, -24336.646418171695, -15454.733723966328, -14562.429733566016, -13679.245254903468, 0.122, 0.9560000000000001, 0.334, 192.0, 0.0, 0.0, 0.0, 0.0, 0.0, 0.0, 0.0, 0.0, 0.0, 1.69533860816994E9, 0.0, 2023-09-21 18:23:28.169
148.0, -15339.55518478813, -22430.020264389546, 3469.63894005286, 12984.24011281015, -45411.34630576924, -38977.17314686455, 152094.9485415159, -37131.63431067876, 4191.332065025815, -742.6814130164878, -23521.098318230906, -15139.462368424221, -24332.28782800291, -15453.526729765741, -14561.133332387608, -13669.365783854222, 0.12, 0.9520000000000001, 0.334, 192.0, 1.5, 96.0, 14.5, 96.0, 5.0, 56.0, 0.0, 0.0, 0.0, 1.695338608169943E9, 0.0, 2023-09-21 18:23:28.169
150.0, -15341.946821444848, -22430.243781834102, 3465.8167917510027, 12985.715327944199, -45408.03824758986, -38976.03320789733, 152079.01174771925, -37127.76745888799, 4187.509916723957, -742.9049304610409, -23521.18772520873, -15138.210670734725, -24332.824269869838, -15450.978630897836, -14559.41224806455, -13661.117990150213, 0.12, 0.9520000000000001, 0.334, 192.0, 0.0, 0.0, 0.0, 0.0, 0.0, 0.0, 0.0, 0.0, 0.0, 1.695338608229277E9, 0.0, 2023-09-21 18:23:28.229
152.0, -15341.030399922181, -22429.193249844702, 3477.484402356673, 12985.67062445529, -45405.08781732176, -38980.88353644413, 152098.88244854004, -37129.24267402204, 4190.862678392253, -738.5910437811666, -23519.779565308043, -15134.813205577519, -24336.936990849616, -15451.470369275854, -14555.813617207245, -13656.245309858956, 0.12, 0.9520000000000001, 0.334, 192.0, 0.0, 0.0, 0.0, 0.0, 0.0, 0.0, 0.0, 0.0, 0.0, 1.695338608229292E9, 0.0, 2023-09-21 18:23:28.229
154.0, -15348.697048270351, -22435.87642143684, 3471.024748209089, 12980.261502297104, -45407.12182606719, -38987.07496965826, 152080.28579715322, -37131.47784846757, 4188.783966157909, -740.9826804378845, -23527.267399700573, -15138.300077712545, -24338.61337168376, -15455.448979788898, -14555.523044529325, -13660.46978956101, 0.12, 0.9520000000000001, 0.334, 192.0, 0.0, 0.0, 0.0, 0.0, 0.0, 0.0, 0.0, 0.0, 0.0, 1.695338608229296E9, 0.0, 2023-09-21 18:23:28.229
156.0, -15351.51336807172, -22435.317627825454, 3476.16564943381, 12979.300377285526, -45411.592174958256, -38989.8018824818, 152089.62882633554, -37132.90836011271, 4184.805355644865, -743.7319450058872, -23534.41995792627, -15141.943412058761, -24341.876726374237, -15457.907671678982, -14558.607585264157, -13662.727315750995, 0.12, 0.9520000000000001, 0.334, 192.0, 0.0, 0.0, 0.0, 0.0, 0.0, 0.0, 0.0, 0.0, 0.0, 1.695338608229299E9, 0.0, 2023-09-21 18:23:28.229
158.0, -15339.823405721594, -22421.258380563067, 3479.6301698243824, 12993.158458847816, -45407.68061967858, -38982.11288238918, 152064.08078242312, -37129.287377510955, 4186.8840678792085, -734.3889158235688, -23529.815498568478, -15136.199013733747, -24324.48706918801, -15453.862005932571, -14562.474437054925, -13661.18504538358, 0.11800000000000001, 0.9480000000000001, 0.336, 192.0, 1.5, 88.0, 14.5, 80.0, 5.0, 64.0, 0.0, 0.0, 0.0, 1.695338608229303E9, 0.0, 2023-09-21 18:23:28.229
160.0, -15341.186862133369, -22423.068871863947, 3486.961542005723, 12994.678377470778, -45405.69131442205, -38983.85631845669, 152085.58316058913, -37127.83451412136, 4193.522535982434, -727.3481163201471, -23520.36071066388, -15127.995923518649, -24324.86704884375, -15446.173005839946, -14556.819445707733, -13651.283222589878, 0.11800000000000001, 0.9480000000000001, 0.336, 192.0, 0.0, 0.0, 0.0, 0.0, 0.0, 0.0, 0.0, 0.0, 0.0, 1.695338608229306E9, 0.0, 2023-09-21 18:23:28.229
162.0, -15335.084835897069, -22417.01154911656, 3490.6272280963935, 12996.734737960665, -45398.04701781834, -38978.55895502078, 152073.53557032772, -37123.74414488603, 4193.947219127085, -726.9904884088622, -23517.52203911806, -15124.509051383622, -24319.72614761903, -15445.10012210609, -14550.851529938165, -13648.980992910982, 0.11800000000000001, 0.9480000000000001, 0.336, 192.0, 0.0, 0.0, 0.0, 0.0, 0.0, 0.0, 0.0, 0.0, 0.0, 1.69533860822931E9, 0.0, 2023-09-21 18:23:28.229
164.0, -15338.124673142991, -22420.811345673963, 3497.9809520221893, 12995.974778649186, -45400.28219226387, -38980.9505916775, 152080.1516866865, -37125.509932698005, 4195.73535868351, -732.0196309113063, -23516.963245506675, -15127.23596420717, -24324.777641865927, -15448.2964215632, -14547.677582225513, -13649.875062689194, 0.11800000000000001, 0.9480000000000001, 0.336, 192.0, 0.0, 0.0, 0.0, 0.0, 0.0, 0.0, 0.0, 0.0, 0.0, 1.695338608229313E9, 0.0, 2023-09-21 18:23:28.229
166.0, -15332.93906842936, -22416.877438649826, 3493.6000101089494, 12993.516086759102, -45397.89055560715, -38980.548260277305, 152074.92137848394, -37122.33598498535, 4205.056036121373, -719.8602819276192, -23510.45888787018, -15119.479908881178, -24316.686310373105, -15442.44026451591, -14542.581384489702, -13647.70694347703, 0.11800000000000001, 0.9480000000000001, 0.336, 192.0, 0.0, 0.0, 0.0, 0.0, 0.0, 0.0, 0.0, 0.0, 0.0, 1.695338608288987E9, 0.0, 2023-09-21 18:23:28.288
168.0, -15329.072216638591, -22412.161220569757, 3493.9352862757787, 12995.058357126518, -45394.113110794206, -38977.5978300092, 152081.13516344252, -37116.52453142697, 4198.708140696066, -720.1732063499935, -23512.448193126704, -15119.569315858998, -24320.307292974867, -15444.138997094513, -14545.576518246713, -13651.551443523342, 0.116, 0.9440000000000001, 0.33, 192.0, 1.5, 80.0, 14.5, 64.0, 5.0, 40.0, 0.0, 0.0, 0.0, 1.695338608288997E9, 0.0, 2023-09-21 18:23:28.288
170.0, -15322.880783424473, -22407.087374578405, 3494.0693967425104, 12996.533572260569, -45391.095625292735, -38975.20619335249, 152081.649253565, -37108.34379295633, 4206.799472188887, -711.4560260124238, -23503.395736622304, -15111.232115177168, -24314.1382115052, -15436.472348746342, -14541.508500755848, -13643.1695393526, 0.116, 0.9440000000000001, 0.33, 192.0, 0.0, 0.0, 0.0, 0.0, 0.0, 0.0, 0.0, 0.0, 0.0, 1.695338608289002E9, 0.0, 2023-09-21 18:23:28.289
172.0, -15334.995428919248, -22423.33709279741, 3490.828393796491, 12984.083650598963, -45401.04215157535, -38990.71830400447, 152078.78823027472, -37126.49340945404, 4205.815995432853, -718.385066793569, -23505.966187234662, -15117.982342002671, -24329.784432623917, -15441.546194737697, -14549.7339427154, -13648.980992910982, 0.116, 0.9440000000000001, 0.33, 192.0, 0.0, 0.0, 0.0, 0.0, 0.0, 0.0, 0.0, 0.0, 0.0, 1.695338608289005E9, 0.0, 2023-09-21 18:23:28.289
174.0, -15335.397760319443, -22428.09801436639, 3495.83518455448, 12988.24107506765, -45399.03049457437, -38991.120635404666, 152078.7435267858, -37130.94140660064, 4196.227097061526, -733.8301222121862, -23517.723204818154, -15130.544022386555, -24317.312159217854, -15453.191453598913, -14557.199425363473, -13661.050934916848, 0.116, 0.9440000000000001, 0.33, 192.0, 0.0, 0.0, 0.0, 0.0, 0.0, 0.0, 0.0, 0.0, 0.0, 1.695338608289009E9, 0.0, 2023-09-21 18:23:28.289
176.0, -15328.088739882558, -22421.995988130093, 3498.9197252893123, 12996.62297923839, -45398.82932887427, -38988.036094669835, 152067.45589583588, -37126.985147832056, 4204.988980888007, -725.3588110636248, -23508.82721052494, -15123.95025777224, -24315.971054550537, -15446.709447706873, -14557.221777107929, -13653.406638313132, 0.116, 0.9440000000000001, 0.33, 192.0, 0.0, 0.0, 0.0, 0.0, 0.0, 0.0, 0.0, 0.0, 0.0, 1.695338608289012E9, 0.0, 2023-09-21 18:23:28.289
178.0, -15325.808861948117, -22420.3419590404, 3498.450338655751, 12994.924246659786, -45402.9644015985, -38990.539490048825, 152077.02244246274, -37129.17561878868, 4205.279553565926, -728.28688958727, -23508.246065169107, -15125.85015605094, -24314.071156271835, -15450.77746519774, -14571.45983832596, -13656.55823428133, 0.11800000000000001, 0.9460000000000001, 0.334, 192.0, 1.5, 88.0, 14.5, 72.0, 5.0, 56.0, 0.0, 0.0, 0.0, 1.695338608289016E9, 0.0, 2023-09-21 18:23:28.289
180.0, -15321.070292123592, -22416.16218282726, 3499.187946222776, 12999.439299039757, -45398.158776540615, -38987.03026616934, 152063.7455062563, -37124.660566408704, 4210.554565257378, -722.4083807955243, -23498.903035986787, -15118.98817050316, -24319.10029877428, -15448.117607607557, -14570.766934247844, -13655.12772263619, 0.11800000000000001, 0.9460000000000001, 0.334, 192.0, 0.0, 0.0, 0.0, 0.0, 0.0, 0.0, 0.0, 0.0, 0.0, 1.695338608349314E9, 0.0, 2023-09-21 18:23:28.349
182.0, -15327.93227767137, -22427.06983412145, 3498.383283422385, 12995.773612949088, -45400.97509634198, -38991.47826331595, 152086.20900943386, -37129.220322277586, 4207.268858822448, -724.8223691966974, -23499.014794709063, -15119.23403969217, -24314.920522561137, -15449.838691930616, -14564.821370222733, -13656.066495903313, 0.11800000000000001, 0.9460000000000001, 0.334, 192.0, 0.0, 0.0, 0.0, 0.0, 0.0, 0.0, 0.0, 0.0, 0.0, 1.695338608349326E9, 0.0, 2023-09-21 18:23:28.349
184.0, -15329.27338233869, -22430.936685912216, 3494.0470449980553, 12994.656025726323, -45399.07519806328, -38994.07106567277, 152060.70566901038, -37132.55073220143, 4202.507937253468, -726.029363397284, -23505.630911067834, -15122.363283915913, -24323.48124068752, -15451.850348931594, -14563.972003933432, -13658.905167449138, 0.11800000000000001, 0.9460000000000001, 0.334, 192.0, 0.0, 0.0, 0.0, 0.0, 0.0, 0.0, 0.0, 0.0, 0.0, 1.69533860834933E9, 0.0, 2023-09-21 18:23:28.349
186.0, -15330.905059683928, -22432.25543883508, 3496.483385143684, 12990.677415213278, -45399.94691609704, -38995.34511510672, 152080.5093145978, -37134.78590664696, 4204.251373320982, -727.7504477203427, -23505.452097112193, -15126.543060129055, -24315.211095239058, -15455.024296644247, -14565.156646389563, -13663.375516340198, 0.11800000000000001, 0.9460000000000001, 0.334, 192.0, 0.0, 0.0, 0.0, 0.0, 0.0, 0.0, 0.0, 0.0, 0.0, 1.695338608349334E9, 0.0, 2023-09-21 18:23:28.349
188.0, -15334.660152752418, -22435.47409003664, 3484.5252018600945, 12986.47528725568, -45404.305506265824, -38993.8028447393, 152059.11869515406, -37132.95306360162, 4203.245544820493, -727.7504477203427, -23508.335472146926, -15130.342856686457, -24327.705720389575, -15455.471331533354, -14573.426791838026, -13664.828379729794, 0.124, 0.9480000000000001, 0.338, 192.0, 1.5, 112.0, 14.5, 80.0, 5.0, 72.0, 0.0, 0.0, 0.0, 1.695338608349337E9, 0.0, 2023-09-21 18:23:28.349
190.0, -15338.437597565366, -22437.172822615245, 3490.560172863027, 12981.915531386798, -45403.5678986988, -38994.607507539695, 152082.87859951003, -37128.4156594772, 4203.558469242867, -734.321860590203, -23513.096393715907, -15137.271897467603, -24310.159600992156, -15464.590843271119, -14596.516143860359, -13668.359955353733, 0.124, 0.9480000000000001, 0.338, 192.0, 0.0, 0.0, 0.0, 0.0, 0.0, 0.0, 0.0, 0.0, 0.0, 1.695338608349341E9, 0.0, 2023-09-21 18:23:28.349
192.0, -15338.929335943383, -22439.00566566058, 3488.0120739951226, 12977.825162151476, -45397.84585211824, -38993.46756857247, 152061.37622134402, -37121.86659835179, 4202.150309342183, -733.9865844233733, -23511.643530326313, -15136.400179433846, -24320.128479019222, -15458.891148435016, -14628.389731453626, -13664.627214029697, 0.124, 0.9480000000000001, 0.338, 192.0, 0.0, 0.0, 0.0, 0.0, 0.0, 0.0, 0.0, 0.0, 0.0, 1.695338608349345E9, 0.0, 2023-09-21 18:23:28.349
194.0, -15336.98473417577, -22439.58681101642, 3496.3269229324965, 12978.316900529493, -45395.767139883894, -38996.485054073935, 152079.48113435283, -37124.28058675296, 4201.524460497434, -737.1158286471164, -23512.582303593434, -15142.658667881331, -24317.2898074734, -15463.406200814987, -14602.84168754121, -13669.254025131944, 0.124, 0.9480000000000001, 0.338, 192.0, 0.0, 0.0, 0.0, 0.0, 0.0, 0.0, 0.0, 0.0, 0.0, 1.695338608349348E9, 0.0, 2023-09-21 18:23:28.349
196.0, -15338.41524582091, -22439.989142416616, 3485.575733849494, 12976.417002250791, -45402.40560798712, -39000.262498886885, 152063.8349132341, -37133.9141886132, 4201.0327221194175, -734.7688954793091, -23513.901056516297, -15141.384618447379, -24321.693101131095, -15465.283747349233, -14596.60555083818, -13675.691327535073, 0.124, 0.9480000000000001, 0.338, 192.0, 0.0, 0.0, 0.0, 0.0, 0.0, 0.0, 0.0, 0.0, 0.0, 1.695338608409576E9, 0.0, 2023-09-21 18:23:28.409
198.0, -15340.493958055255, -22439.117424382857, 3485.4639751272175, 12977.892217384842, -45406.13834931116, -39004.93401347804, 152079.3023203972, -37141.379671261275, 4199.669265707644, -733.9195291900074, -23514.16927744976, -15138.925926557295, -24333.651284414686, -15464.590843271119, -14593.453954869981, -13680.27343514841, 0.11800000000000001, 0.9540000000000001, 0.33, 192.0, 1.5, 88.0, 14.5, 104.0, 5.0, 40.0, 0.0, 0.0, 0.0, 1.695338608409582E9, 0.0, 2023-09-21 18:23:28.409
200.0, -15340.113978399513, -22436.949305170692, 3484.6593123268262, 12980.753240675122, -45405.13252081067, -39002.0059349544, 152073.155590672, -37139.211552049106, 4201.725626197533, -731.8631687001191, -23515.5997890949, -15139.127092257393, -24322.60952265376, -15460.969860669358, -14590.637635068613, -13681.301615393355, 0.11800000000000001, 0.9540000000000001, 0.33, 192.0, 0.0, 0.0, 0.0, 0.0, 0.0, 0.0, 0.0, 0.0, 0.0, 1.695338608409586E9, 0.0, 2023-09-21 18:23:28.409
202.0, -15335.196594619347, -22433.23891559111, 3493.488251386673, 12986.229418066672, -45398.94108759655, -38993.624030783656, 152084.5996838331, -37127.96862458809, 4199.512803496457, -734.5006745458454, -23517.186762951227, -15142.256336481136, -24324.42001395464, -15464.613195015574, -14580.936977975009, -13680.60871131524, 0.11800000000000001, 0.9540000000000001, 0.33, 192.0, 0.0, 0.0, 0.0, 0.0, 0.0, 0.0, 0.0, 0.0, 0.0, 1.69533860840959E9, 0.0, 2023-09-21 18:23:28.409
204.0, -15327.909925926915, -22426.4439852767, 3501.870155557413, 12997.159421105316, -45392.52613693788, -38980.481205043936, 152069.4452010924, -37113.50704592551, 4207.671190222644, -722.900119173541, -23506.99436747961, -15128.353551429935, -24332.086662302812, -15450.419837286454, -14560.73100098741, -13666.772981497406, 0.11800000000000001, 0.9540000000000001, 0.33, 192.0, 0.0, 0.0, 0.0, 0.0, 0.0, 0.0, 0.0, 0.0, 0.0, 1.695338608409594E9, 0.0, 2023-09-21 18:23:28.409
206.0, -15330.547431772642, -22430.735520212118, 3505.6252486259045, 12995.57244724899, -45395.07423580578, -38981.84466145571, 152082.0515849652, -37118.312670983396, 4206.710065211066, -720.1732063499935, -23503.88747500032, -15124.978438017182, -24322.721281376038, -15448.564642496664, -14557.35588757466, -13662.816722728816, 0.11800000000000001, 0.9540000000000001, 0.33, 192.0, 0.0, 0.0, 0.0, 0.0, 0.0, 0.0, 0.0, 0.0, 0.0, 1.695338608409597E9, 0.0, 2023-09-21 18:23:28.409
208.0, -15336.247126608745, -22438.424520304743, 3498.383283422385, 12988.553999490023, -45395.78949162835, -38983.52104228986, 152078.5423610857, -37117.10567678281, 4201.680922708621, -727.8175029537085, -23506.726146546145, -15129.649952608343, -24323.727109876527, -15455.761904211273, -14559.971041675932, -13663.599033784752, 0.128, 0.9540000000000001, 0.328, 192.0, 2.0, 0.0, 14.5, 104.0, 5.0, 32.0, 0.0, 0.0, 0.0, 1.695338608409601E9, 0.0, 2023-09-21 18:23:28.409
210.0, -15330.390969561455, -22433.529488269032, 3508.3298097049965, 12990.18567683526, -45387.049959546326, -38979.87770794365, 152080.28579715322, -37112.05418253591, 4205.279553565926, -722.3189738177031, -23500.624120309847, -15124.576106616987, -24324.755290121473, -15450.084561119624, -14550.315088071238, -13654.233652857978, 0.128, 0.9540000000000001, 0.328, 192.0, 0.0, 0.0, 0.0, 0.0, 0.0, 0.0, 0.0, 0.0, 0.0, 1.695338608471316E9, 0.0, 2023-09-21 18:23:28.471
212.0, -15332.380274817977, -22437.709264482175, 3493.510603131128, 12971.521970215079, -45400.528061452875, -38994.473397072965, 152073.96025347238, -37125.39817397573, 4196.562373228357, -726.7893227087644, -23511.352957648392, -15135.439054422266, -24336.087624560314, -15456.700677478395, -14560.775704476322, -13665.878911719194, 0.128, 0.9540000000000001, 0.328, 192.0, 0.0, 0.0, 0.0, 0.0, 0.0, 0.0, 0.0, 0.0, 0.0, 1.69533860847134E9, 0.0, 2023-09-21 18:23:28.471
214.0, -15338.303487098634, -22450.29329661051, 3503.211260224731, 12975.925263872776, -45386.64762814613, -38986.13619639113, 152084.4432216219, -37112.72473486957, 4205.346608799292, -734.1206948901051, -23507.17318143525, -15136.37782768939, -24332.332531491822, -15464.121456637557, -14555.433637551503, -13663.04024017337, 0.128, 0.9540000000000001, 0.328, 192.0, 0.0, 0.0, 0.0, 0.0, 0.0, 0.0, 0.0, 0.0, 0.0, 1.695338608471344E9, 0.0, 2023-09-21 18:23:28.471
216.0, -15339.242260365756, -22453.489596067622, 3500.7749200791027, 12973.488923727147, -45387.27347699088, -38991.880594716145, 152091.21580019186, -37121.41956346268, 4202.6420477202, -750.415116598024, -23511.352957648392, -15145.318525471512, -24315.747537105985, -15472.391602086022, -14547.610526992146, -13661.028583172392, 0.128, 0.9540000000000001, 0.328, 192.0, 0.0, 0.0, 0.0, 0.0, 0.0, 0.0, 0.0, 0.0, 0.0, 1.695338608471348E9, 0.0, 2023-09-21 18:23:28.471
218.0, -15330.636838750463, -22441.44200580621, 3501.6242863684042, 12982.831952909464, -45384.390101956145, -38988.34901909221, 152085.8960850115, -37119.65377565072, 4210.554565257378, -736.3111658467252, -23502.971053477653, -15132.890955554361, -24337.026397827434, -15461.908633936482, -14549.711590970945, -13659.08398140478, 0.114, 0.9520000000000001, 0.334, 192.0, 1.5, 72.0, 14.5, 96.0, 5.0, 56.0, 0.0, 0.0, 0.0, 1.695338608471352E9, 0.0, 2023-09-21 18:23:28.471
220.0, -15330.346266072544, -22439.02801740504, 3504.440606169773, 12988.352833789926, -45386.692331635044, -38982.515213789375, 152083.66091056596, -37116.34571747133, 4212.186242602616, -730.3656018216136, -23500.89234124331, -15129.113510741416, -24313.914694060648, -15455.694848977906, -14551.387971805094, -13655.84297845876, 0.114, 0.9520000000000001, 0.334, 192.0, 0.0, 0.0, 0.0, 0.0, 0.0, 0.0, 0.0, 0.0, 0.0, 1.695338608471356E9, 0.0, 2023-09-21 18:23:28.471
222.0, -15330.905059683928, -22434.959999914172, 3502.898335802357, 12988.866923912397, -45394.06840730529, -38975.83204219724, 152082.5433233432, -37111.473037180076, 4213.616754247756, -724.0177063963064, -23501.384079621326, -15125.55958337302, -24293.90988277315, -15447.715276207362, -14553.086704383697, -13652.199644112545, 0.114, 0.9520000000000001, 0.334, 192.0, 0.0, 0.0, 0.0, 0.0, 0.0, 0.0, 0.0, 0.0, 0.0, 1.69533860847136E9, 0.0, 2023-09-21 18:23:28.471
224.0, -15329.832175950072, -22432.724825468642, 3500.640809612371, 12990.05156636853, -45397.71174165151, -38979.296562587806, 152106.28087595475, -37116.077496537866, 4212.49916702499, -723.19069185146, -23504.17804767824, -15125.648990350843, -24302.582359621807, -15451.20214834239, -14555.567748018235, -13653.518397035408, 0.114, 0.9520000000000001, 0.334, 192.0, 0.0, 0.0, 0.0, 0.0, 0.0, 0.0, 0.0, 0.0, 0.0, 1.695338608471363E9, 0.0, 2023-09-21 18:23:28.471
226.0, -15330.234507350267, -22436.636380748318, 3496.6174956104155, 12985.983548877663, -45404.663134177106, -38990.80771098229, 152097.36252991707, -37126.560464687405, 4211.985076902518, -722.4307325399795, -23502.166390677263, -15123.391464160857, -24307.499743401975, -15456.521863522752, -14557.489998041392, -13656.915862192614, 0.114, 0.9520000000000001, 0.334, 192.0, 0.0, 0.0, 0.0, 0.0, 0.0, 0.0, 0.0, 0.0, 0.0, 1.695338608530201E9, 0.0, 2023-09-21 18:23:28.530
228.0, -15325.205364847823, -22434.222392347147, 3505.4240829258065, 12992.979644892175, -45398.24818351844, -38986.13619639113, 152104.93977128743, -37121.55367392942, 4212.990905403007, -720.3296685611807, -23500.42295460975, -15119.502260625633, -24302.984691022004, -15452.655011731984, -14559.680468998013, -13660.246272116456, 0.11800000000000001, 0.9500000000000001, 0.334, 192.0, 1.5, 88.0, 14.5, 88.0, 5.0, 56.0, 0.0, 0.0, 0.0, 1.695338608530222E9, 0.0, 2023-09-21 18:23:28.530
230.0, -15329.921582927893, -22437.82102320445, 3501.3337136904856, 12989.962159390709, -45392.66024740461, -38987.52200454736, 152098.86009679557, -37128.70623215511, 4215.337838570814, -720.0167441388064, -23497.539579575012, -15117.289437924557, -24301.174199721125, -15448.72110470785, -14554.494864284381, -13658.346373837754, 0.11800000000000001, 0.9500000000000001, 0.334, 192.0, 0.0, 0.0, 0.0, 0.0, 0.0, 0.0, 0.0, 0.0, 0.0, 1.695338608530225E9, 0.0, 2023-09-21 18:23:28.530
232.0, -15334.906021941428, -22443.610125018375, 3507.6369056268823, 12985.00007212163, -45392.03439855986, -38987.544356291815, 152115.89212607054, -37132.66249092371, 4211.046303635395, -727.4598750424236, -23504.37921337834, -15126.699522340241, -24296.14505721868, -15455.538386766719, -14553.64549799508, -13664.604862285241, 0.11800000000000001, 0.9500000000000001, 0.334, 192.0, 0.0, 0.0, 0.0, 0.0, 0.0, 0.0, 0.0, 0.0, 0.0, 1.695338608530229E9, 0.0, 2023-09-21 18:23:28.530
234.0, -15336.761216731218, -22447.25345936459, 3502.2054317242423, 12980.730888930666, -45390.5144799369, -38987.47730105845, 152103.30809394218, -37128.14743854373, 4207.648838478189, -731.6843547444767, -23507.329643646437, -15131.974534031695, -24313.512362660455, -15461.282785091733, -14552.192634605484, -13664.13547565168, 0.11800000000000001, 0.9500000000000001, 0.334, 192.0, 0.0, 0.0, 0.0, 0.0, 0.0, 0.0, 0.0, 0.0, 0.0, 1.695338608530232E9, 0.0, 2023-09-21 18:23:28.530
236.0, -15329.65336199443, -22440.05619764998, 3505.8487660704573, 12982.183752320261, -45395.32010499479, -38983.85631845669, 152116.6073818931, -37120.72665938457, 4211.895669924697, -725.8505494416415, -23501.987576721618, -15127.66064735182, -24309.131420747213, -15461.640413003019, -14551.16445436054, -13661.743838994962, 0.11800000000000001, 0.9500000000000001, 0.334, 192.0, 0.0, 0.0, 0.0, 0.0, 0.0, 0.0, 0.0, 0.0, 0.0, 1.695338608530235E9, 0.0, 2023-09-21 18:23:28.530
238.0, -15328.245202093745, -22440.21265986117, 3499.6573328563372, 12984.038947110052, -45399.09754980774, -38984.83979521273, 152097.22841945034, -37122.380688474266, 4215.471949037546, -724.710610474421, -23497.31606213046, -15124.777272317086, -24300.19072296509, -15456.991250156314, -14552.818483450234, -13660.067458160813, 0.122, 0.9500000000000001, 0.332, 192.0, 1.5, 104.0, 14.5, 88.0, 5.0, 48.0, 0.0, 0.0, 0.0, 1.695338608530239E9, 0.0, 2023-09-21 18:23:28.530
240.0, -15323.439577035855, -22435.518793525553, 3509.022713783111, 12990.789173935555, -45393.55431718282, -38979.09539688771, 152169.46925752988, -37115.76457211549, 4216.924812427141, -724.5541482632337, -23492.89041672831, -15120.999827504138, -24301.263606698943, -15453.191453598913, -14550.471550282426, -13655.150074380646, 0.122, 0.9500000000000001, 0.332, 192.0, 0.0, 0.0, 0.0, 0.0, 0.0, 0.0, 0.0, 0.0, 0.0, 1.695338608590498E9, 0.0, 2023-09-21 18:23:28.590
242.0, -15331.329742828579, -22446.82877621994, 3497.4892136441727, 12980.61913020839, -45394.090759049745, -38988.43842607003, 152200.00174045583, -37123.20770301911, 4215.404893804181, -724.3306308186807, -23493.113934172863, -15123.23500194967, -24300.01190900945, -15453.258508832278, -14546.649401980569, -13654.27835634689, 0.122, 0.9500000000000001, 0.332, 192.0, 0.0, 0.0, 0.0, 0.0, 0.0, 0.0, 0.0, 0.0, 0.0, 1.695338608590514E9, 0.0, 2023-09-21 18:23:28.590
244.0, -15331.12857712848, -22447.186404131226, 3505.6252486259045, 12976.349947017427, -45387.541697924345, -38989.13133014814, 152213.3233801512, -37118.022098305475, 4207.6041349892785, -734.7465437348537, -23502.36755637736, -15134.321467199501, -24302.582359621807, -15466.401334571998, -14551.320916571727, -13664.716621007517, 0.122, 0.9500000000000001, 0.332, 192.0, 0.0, 0.0, 0.0, 0.0, 0.0, 0.0, 0.0, 0.0, 0.0, 1.695338608590518E9, 0.0, 2023-09-21 18:23:28.590
246.0, -15326.434710792866, -22444.10186339639, 3501.356065434941, 12979.345080774438, -45379.428014687066, -38982.023475411355, 152204.04740620227, -37106.13097025525, 4216.164853115661, -729.8291599546862, -23498.523056331047, -15130.074635752993, -24311.52305740393, -15464.814360715673, -14542.670791467524, -13658.41342907112, 0.122, 0.9500000000000001, 0.332, 192.0, 0.0, 0.0, 0.0, 0.0, 0.0, 0.0, 0.0, 0.0, 0.0, 1.695338608590522E9, 0.0, 2023-09-21 18:23:28.590
248.0, -15335.062484152615, -22453.377837345342, 3507.145167248865, 12980.060336597007, -45384.18893625605, -38986.225603368955, 152218.35252265364, -37114.02113604798, 4208.744073956499, -731.2820233442811, -23503.641605811314, -15134.18735673277, -24314.58524639431, -15465.86489270507, -14544.21306183494, -13663.889606462672, 0.12, 0.9560000000000001, 0.334, 192.0, 1.5, 96.0, 14.5, 112.0, 5.0, 56.0, 0.0, 0.0, 0.0, 1.695338608590525E9, 0.0, 2023-09-21 18:23:28.590
250.0, -15331.910888184417, -22452.416712333765, 3507.6369056268823, 12986.743508189144, -45378.869221075685, -38980.61531551067, 152201.74517652337, -37112.009479047, 4211.336876313314, -728.8456831986528, -23500.713527287666, -15131.795720076052, -24294.580435106807, -15457.661802489973, -14538.602773976658, -13658.994574426959, 0.12, 0.9560000000000001, 0.334, 192.0, 0.0, 0.0, 0.0, 0.0, 0.0, 0.0, 0.0, 0.0, 0.0, 1.695338608590528E9, 0.0, 2023-09-21 18:23:28.590
252.0, -15326.635876492963, -22445.53237504153, 3522.053780800555, 12989.872752412886, -45371.78371808335, -38974.28977182982, 152216.1396999526, -37104.81221733239, 4218.847062450297, -722.5871947511667, -23490.878759727333, -15121.156289715325, -24288.433705381598, -15451.805645442682, -14526.01874184832, -13649.182158611078, 0.12, 0.9560000000000001, 0.334, 192.0, 0.0, 0.0, 0.0, 0.0, 0.0, 0.0, 0.0, 0.0, 0.0, 1.695338608590532E9, 0.0, 2023-09-21 18:23:28.590
254.0, -15329.18397536087, -22445.82294771945, 3511.5261091621055, 12984.843609910442, -45376.52228790788, -38974.110957874174, 152201.40990035652, -37106.01921153298, 4210.30869606837, -725.0905901301611, -23499.908864487275, -15124.911382783817, -24293.641661839683, -15454.912537921971, -14532.21017506244, -13656.290013347867, 0.12, 0.9560000000000001, 0.334, 192.0, 0.0, 0.0, 0.0, 0.0, 0.0, 0.0, 0.0, 0.0, 0.0, 1.695338608590535E9, 0.0, 2023-09-21 18:23:28.590
0.0, -15335.889498697461, -22452.506119311587, 3511.391998695374, 12976.729926673166, -45383.808956600304, -38979.631838754634, 152209.05419696023, -37115.026964548466, 4212.029780391429, -721.7154767174097, -23498.903035986787, -15123.32440892749, -24305.66690035664, -15454.309040821678, -14534.490052996882, -13659.08398140478, 0.12, 0.9560000000000001, 0.334, 192.0, 0.0, 0.0, 0.0, 0.0, 0.0, 0.0, 0.0, 0.0, 0.0, 1.695338608649439E9, 0.0, 2023-09-21 18:23:28.649
2.0, -15333.453158551833, -22451.58969778892, 3503.188908480276, 12978.47336274068, -45384.32304672278, -38973.95449566299, 152190.1222694066, -37111.40598194671, 4212.700332725088, -722.0060493953288, -23502.054631954987, -15127.124205484894, -24299.43076365361, -15453.81730244366, -14541.039114122286, -13664.47075181851, 0.11800000000000001, 0.9540000000000001, 0.338, 192.0, 1.5, 88.0, 14.5, 104.0, 5.0, 72.0, 0.0, 0.0, 0.0, 1.695338608649451E9, 0.0, 2023-09-21 18:23:28.649
4.0, -15334.74955973024, -22453.78016874554, 3500.998437523656, 12976.305243528515, -45386.625276401675, -38976.39083580862, 152185.60721702664, -37114.803447103914, 4209.25816407897, -723.19069185146, -23505.720318045656, -15128.822938063497, -24312.886513815705, -15456.141883867012, -14544.92831765751, -13663.733144251484, 0.11800000000000001, 0.9540000000000001, 0.338, 192.0, 0.0, 0.0, 0.0, 0.0, 0.0, 0.0, 0.0, 0.0, 0.0, 1.695338608649456E9, 0.0, 2023-09-21 18:23:28.649
6.0, -15327.954629415826, -22446.269982608555, 3503.7924055805693, 12982.384918020358, -45383.00429379992, -38971.607562495185, 152185.00371992635, -37110.98129880206, 4208.028818133929, -722.0507528842394, -23505.899132001297, -15128.733531085674, -24295.34039441829, -15456.00777340028, -14544.883614168599, -13666.124780908202, 0.11800000000000001, 0.9540000000000001, 0.338, 192.0, 0.0, 0.0, 0.0, 0.0, 0.0, 0.0, 0.0, 0.0, 0.0, 1.695338608649459E9, 0.0, 2023-09-21 18:23:28.649
8.0, -15324.512460769709, -22436.502270281588, 3510.386170194885, 12991.90676115832, -45381.97611355497, -38964.544411247305, 152193.1174031636, -37107.67324062267, 4217.617716505256, -711.4113225235131, -23494.298576628993, -15116.171850701792, -24297.70967933055, -15442.44026451591, -14524.20825054744, -13654.926556936092, 0.11800000000000001, 0.9540000000000001, 0.338, 192.0, 0.0, 0.0, 0.0, 0.0, 0.0, 0.0, 0.0, 0.0, 0.0, 1.695338608649463E9, 0.0, 2023-09-21 18:23:28.649
10.0, -15316.957571143816, -22431.495479523597, 3512.9789725517003, 12995.505392015624, -45379.562125153796, -38962.13042284613, 152185.67427226, -37108.83553133435, 4219.137635128216, -708.2597265553148, -23492.957471961676, -15115.121318712392, -24294.938063018093, -15439.57924122563, -14507.131517783586, -13656.04414415886, 0.11800000000000001, 0.9540000000000001, 0.338, 192.0, 0.0, 0.0, 0.0, 0.0, 0.0, 0.0, 0.0, 0.0, 0.0, 1.695338608649467E9, 0.0, 2023-09-21 18:23:28.649
12.0, -15317.292847310646, -22434.20004060269, 3515.3706092084185, 12991.347967546937, -45381.48437517695, -38967.58424849323, 152183.4614495589, -37115.094019781835, 4224.479702053035, -702.3812177635691, -23484.41910557975, -15110.718025054697, -24291.607653094252, -15440.138034837013, -14506.215096260918, -13657.072324403802, 0.126, 0.9520000000000001, 0.334, 192.0, 1.5, 120.0, 14.5, 96.0, 5.0, 56.0, 0.0, 0.0, 0.0, 1.69533860864947E9, 0.0, 2023-09-21 18:23:28.649
14.0, -15323.998370647238, -22443.140738384813, 3509.670914372315, 12981.312034286504, -45387.63110490216, -38975.317952074765, 152181.42744081348, -37120.79371461794, 4221.082236895828, -705.7339794318652, -23488.800047492987, -15113.869621022895, -24295.47450488502, -15445.122473850546, -14509.858430607133, -13661.98970818397, 0.126, 0.9520000000000001, 0.334, 192.0, 0.0, 0.0, 0.0, 0.0, 0.0, 0.0, 0.0, 0.0, 0.0, 1.695338608709676E9, 0.0, 2023-09-21 18:23:28.709
16.0, -15325.741806714752, -22446.493500053108, 3509.737969605681, 12977.400479006825, -45386.29000023485, -38979.2518590989, 152179.59459776815, -37123.18535127465, 4217.148329871694, -712.7971306797423, -23491.03522193852, -15117.982342002671, -24306.1362869902, -15459.896976935504, -14513.390006231071, -13665.498932063454, 0.126, 0.9520000000000001, 0.334, 192.0, 0.0, 0.0, 0.0, 0.0, 0.0, 0.0, 0.0, 0.0, 0.0, 1.695338608709691E9, 0.0, 2023-09-21 18:23:28.709
18.0, -15320.422091534389, -22440.68204649473, 3517.471673187217, 12983.99424362114, -45384.77008161188, -38970.847603183705, 152189.65288277305, -37114.24465349253, 4211.940373413608, -716.7980929372422, -23494.87972198483, -15119.211687947714, -24307.835019568804, -15461.260433347277, -14514.574648687203, -13664.291937862867, 0.126, 0.9520000000000001, 0.334, 192.0, 0.0, 0.0, 0.0, 0.0, 0.0, 0.0, 0.0, 0.0, 0.0, 1.695338608709694E9, 0.0, 2023-09-21 18:23:28.709
20.0, -15312.21900131929, -22432.456604535175, 3524.2219000127197, 12992.24203732515, -45377.63987513064, -38958.24121931091, 152174.54310352125, -37101.9064905532, 4223.339763085814, -702.4259212524797, -23483.16740789025, -15106.761766286108, -24290.691231571585, -15441.657953459973, -14503.39877645955, -13651.529091778886, 0.126, 0.9520000000000001, 0.334, 192.0, 0.0, 0.0, 0.0, 0.0, 0.0, 0.0, 0.0, 0.0, 0.0, 1.695338608709698E9, 0.0, 2023-09-21 18:23:28.709
22.0, -15314.78945193165, -22435.228220847635, 3526.6582401583482, 12989.00103437913, -45379.293904220336, -38955.93898963201, 152198.9735602109, -37099.38074342975, 4224.367943330758, -701.4424444964462, -23482.854483467876, -15104.839516262951, -24287.070248969823, -15435.466520245853, -14498.973131057399, -13647.237556843467, 0.12, 0.9460000000000001, 0.328, 192.0, 1.5, 96.0, 14.5, 72.0, 5.0, 32.0, 0.0, 0.0, 0.0, 1.695338608709701E9, 0.0, 2023-09-21 18:23:28.709
24.0, -15315.772928687684, -22434.334151069423, 3522.478463945206, 12985.961197133209, -45376.11995650768, -38955.22373380944, 152184.75785073734, -37096.05033350591, 4222.557452029879, -698.8272903951753, -23481.960413689663, -15102.760804028609, -24292.233501939, -15433.38780801151, -14495.910942067021, -13644.577699253286, 0.12, 0.9460000000000001, 0.328, 192.0, 0.0, 0.0, 0.0, 0.0, 0.0, 0.0, 0.0, 0.0, 0.0, 1.695338608709705E9, 0.0, 2023-09-21 18:23:28.709
26.0, -15319.617428733996, -22437.53045052653, 3526.5688331805272, 12984.821258165986, -45373.50480240641, -38956.98952162141, 152206.59550507017, -37097.95023178461, 4219.78583571742, -698.9837526063625, -23486.20724513617, -15103.65487380682, -24295.67567058512, -15440.093331348102, -14494.525133910793, -13646.857577187728, 0.12, 0.9460000000000001, 0.328, 192.0, 0.0, 0.0, 0.0, 0.0, 0.0, 0.0, 0.0, 0.0, 0.0, 1.695338608709708E9, 0.0, 2023-09-21 18:23:28.709
28.0, -15324.154832858425, -22442.29137209551, 3520.377399966407, 12984.24011281015, -45375.04707277383, -38959.6940827005, 152182.54502803626, -37101.81708357538, 4213.527347269935, -706.8515666546306, -23493.560969061968, -15110.47215586569, -24302.783525321905, -15444.787197683716, -14497.274398478796, -13651.260870845423, 0.12, 0.9460000000000001, 0.328, 192.0, 0.0, 0.0, 0.0, 0.0, 0.0, 0.0, 0.0, 0.0, 0.0, 1.695338608709712E9, 0.0, 2023-09-21 18:23:28.709
30.0, -15320.55620200112, -22438.178651115733, 3522.3667052229293, 12983.010766865107, -45376.87991581916, -38960.99048387891, 152192.35744385212, -37103.38170568725, 4215.1143211262615, -707.544470732745, -23493.046878939498, -15109.935713998762, -24299.05078399787, -15441.590898226608, -14498.816668846212, -13652.780789468383, 0.12, 0.9460000000000001, 0.328, 192.0, 0.0, 0.0, 0.0, 0.0, 0.0, 0.0, 0.0, 0.0, 0.0, 1.695338608769955E9, 0.0, 2023-09-21 18:23:28.769
32.0, -15317.494013010742, -22438.513927282565, 3512.6213446404154, 12978.026327851574, -45381.61848564369, -38965.438481025514, 152166.83175168416, -37109.59549064583, 4218.511786283468, -704.2587642978149, -23493.762134762066, -15111.880315766373, -24300.79422006538, -15441.948526137892, -14505.522192182803, -13657.139379637169, 0.12, 0.9460000000000001, 0.328, 192.0, 1.5, 96.0, 14.5, 72.0, 5.0, 32.0, 0.0, 0.0, 0.0, 1.695338608769964E9, 0.0, 2023-09-21 18:23:28.769
34.0, -15314.565934487098, -22435.87642143684, 3521.1373592778873, 12973.42186849378, -45386.26764849039, -38968.388911293616, 152184.53433329277, -37116.65864189371, 4228.16773988816, -698.9390491174519, -23486.87779746983, -15108.37109188689, -24285.75149604696, -15440.182738325924, -14507.287979994773, -13659.016926171415, 0.12, 0.9460000000000001, 0.328, 192.0, 0.0, 0.0, 0.0, 0.0, 0.0, 0.0, 0.0, 0.0, 0.0, 1.695338608769968E9, 0.0, 2023-09-21 18:23:28.769
36.0, -15318.07515836658, -22442.179613373235, 3514.2306702411975, 12969.130333558362, -45389.2627822474, -38969.19357409401, 152166.00473713933, -37114.669336637184, 4217.841233949809, -707.030380610273, -23492.018698694552, -15114.920153012295, -24295.80978105185, -15451.20214834239, -14515.424014976505, -13668.851693731749, 0.12, 0.9460000000000001, 0.328, 192.0, 0.0, 0.0, 0.0, 0.0, 0.0, 0.0, 0.0, 0.0, 0.0, 1.695338608769972E9, 0.0, 2023-09-21 18:23:28.769
38.0, -15326.568821259598, -22449.68979951022, 3520.6679726443263, 12963.430638722259, -45389.30748573631, -38973.57451600725, 152187.19419088296, -37120.43608670665, 4215.02491414844, -711.1431015900495, -23494.27622488454, -15117.267086180102, -24307.589150379798, -15454.53255826623, -14510.953666085443, -13668.98580419848, 0.12, 0.9460000000000001, 0.328, 192.0, 0.0, 0.0, 0.0, 0.0, 0.0, 0.0, 0.0, 0.0, 0.0, 1.695338608769976E9, 0.0, 2023-09-21 18:23:28.769
40.0, -15322.009065390715, -22445.77824423054, 3515.705885375248, 12966.448124223725, -45385.59709615673, -38965.1479083476, 152163.14371384904, -37109.75195285701, 4215.06961763735, -713.0429998687506, -23493.337451617415, -15119.032873992071, -24290.95945250505, -15452.610308243075, -14514.820517876211, -13673.344394367266, 0.12, 0.9460000000000001, 0.328, 192.0, 0.0, 0.0, 0.0, 0.0, 0.0, 0.0, 0.0, 0.0, 0.0, 1.695338608769979E9, 0.0, 2023-09-21 18:23:28.769
42.0, -15327.619353248998, -22450.53916579952, 3514.2977254745633, 12959.85435960941, -45387.85462234672, -38965.438481025514, 152177.62764425608, -37109.640194134736, 4214.264954836959, -711.6795434569768, -23493.628024295336, -15118.787004803064, -24297.419106652633, -15447.983497140825, -14517.279209766295, -13672.405621100143, 0.124, 0.9480000000000001, 0.326, 192.0, 1.5, 112.0, 14.5, 80.0, 5.0, 24.0, 0.0, 0.0, 0.0, 1.695338608769983E9, 0.0, 2023-09-21 18:23:28.769
44.0, -15325.518289270198, -22447.20875587568, 3511.727274862203, 12961.039002065541, -45382.289037977345, -38966.04197812581, 152145.23996654034, -37107.18150224465, 4215.382542059725, -713.2665173133037, -23495.304405129482, -15120.686903081763, -24310.941912048092, -15450.48689251982, -14517.68154116649, -13672.137400166679, 0.124, 0.9480000000000001, 0.326, 192.0, 0.0, 0.0, 0.0, 0.0, 0.0, 0.0, 0.0, 0.0, 0.0, 1.695338608830267E9, 0.0, 2023-09-21 18:23:28.830
46.0, -15330.50272828373, -22453.02020943406, 3518.6786673878037, 12958.401496219814, -45385.865317090196, -38970.17705085004, 152160.75207719233, -37108.097923767324, 4217.483606038524, -717.0439621262506, -23495.46086734067, -15122.653856593832, -24292.926406017115, -15452.900880920994, -14514.351131242649, -13671.109219921735, 0.124, 0.9480000000000001, 0.326, 192.0, 0.0, 0.0, 0.0, 0.0, 0.0, 0.0, 0.0, 0.0, 0.0, 1.695338608830282E9, 0.0, 2023-09-21 18:23:28.830
48.0, -15334.816614963605, -22457.088226924923, 3508.2627544716306, 12955.428714207259, -45393.755482882916, -38972.456928784486, 152147.83276889715, -37110.46720867958, 4212.745036213999, -722.0507528842394, -23501.07115519895, -15129.51584214161, -24298.357879919753, -15456.119532122557, -14521.369579001615, -13678.887626992182, 0.124, 0.9480000000000001, 0.326, 192.0, 0.0, 0.0, 0.0, 0.0, 0.0, 0.0, 0.0, 0.0, 0.0, 1.695338608830286E9, 0.0, 2023-09-21 18:23:28.830
50.0, -15334.79426321915, -22458.2505176366, 3510.989667295178, 12960.524911943068, -45388.212250258, -38966.71253045947, 152143.8094548952, -37106.13097025525, 4214.600231003789, -721.3131453172142, -23499.662995298266, -15129.4711386527, -24307.61150212425, -15450.44218903091, -14520.833137134689, -13676.853618246749, 0.124, 0.9480000000000001, 0.326, 192.0, 0.0, 0.0, 0.0, 0.0, 0.0, 0.0, 0.0, 0.0, 0.0, 1.69533860883029E9, 0.0, 2023-09-21 18:23:28.830
52.0, -15336.828271964583, -22463.838453750428, 3503.770053836114, 12958.759124131098, -45393.59902067173, -38972.12165261766, 152140.0543618267, -37111.56244415789, 4208.83348093432, -726.4987500308455, -23503.12751568884, -15136.154310244836, -24310.47252541453, -15448.92227040795, -14525.705817425945, -13680.89928399316, 0.126, 0.96, 0.324, 192.0, 1.5, 120.0, 15.0, 0.0, 5.0, 16.0, 0.0, 0.0, 0.0, 1.695338608830294E9, 0.0, 2023-09-21 18:23:28.830
54.0, -15331.396798061944, -22456.797654247006, 3516.0635132865327, 12970.247920781127, -45383.048997288824, -38970.981713650435, 152133.77352163478, -37111.450685435615, 4210.6439722352, -726.610508753122, -23500.065326698463, -15135.930792800284, -24305.242217211988, -15448.318773307656, -14522.509517968836, -13681.32396713781, 0.126, 0.96, 0.324, 192.0, 0.0, 0.0, 0.0, 0.0, 0.0, 0.0, 0.0, 0.0, 0.0, 1.695338608830297E9, 0.0, 2023-09-21 18:23:28.830
56.0, -15330.681542239374, -22456.68589552473, 3521.472635444717, 12981.446144753236, -45380.63500888765, -38962.599809479696, 152135.1146263021, -37106.421542933174, 4218.556489772379, -718.7873981937645, -23487.436591081216, -15125.336065928468, -24294.871007784728, -15439.489834247808, -14515.401663232049, -13669.432839087587, 0.126, 0.96, 0.324, 192.0, 0.0, 0.0, 0.0, 0.0, 0.0, 0.0, 0.0, 0.0, 0.0, 1.6953386088303E9, 0.0, 2023-09-21 18:23:28.830
58.0, -15332.022646906693, -22454.718942012663, 3527.5523099365605, 12988.889275656853, -45380.16562225409, -38960.72226294545, 152130.73368438886, -37105.0580865214, 4216.366018815758, -722.3413255621583, -23490.476428327136, -15126.654818851332, -24313.601769638273, -15439.400427269988, -14516.854526621644, -13658.011097670926, 0.126, 0.96, 0.324, 192.0, 0.0, 0.0, 0.0, 0.0, 0.0, 0.0, 0.0, 0.0, 0.0, 1.695338608830304E9, 0.0, 2023-09-21 18:23:28.830
60.0, -15325.495937525742, -22446.33703784192, 3528.7146006482367, 12992.487906514158, -45376.07525301877, -38961.3481117902, 152134.01939082379, -37103.068781264876, 4220.366981073258, -719.18972959396, -23485.26847186905, -15123.078539738483, -24288.321946659322, -15437.031142357726, -14518.128576055597, -13650.947946423048, 0.126, 0.96, 0.324, 192.0, 0.0, 0.0, 0.0, 0.0, 0.0, 0.0, 0.0, 0.0, 0.0, 1.6953386088895E9, 0.0, 2023-09-21 18:23:28.889
62.0, -15323.84190843605, -22441.01732266156, 3522.6125744119377, 12996.019482138096, -45369.74970933792, -38960.47639375644, 152128.9008413435, -37098.55372888491, 4221.998658418495, -711.4336742679685, -23480.12757064433, -15115.411891390311, -24291.898225772173, -15431.465557988353, -14516.295733010262, -13639.302687561832, 0.122, 0.9580000000000001, 0.324, 192.0, 1.5, 104.0, 14.5, 120.0, 5.0, 16.0, 0.0, 0.0, 0.0, 1.695338608889511E9, 0.0, 2023-09-21 18:23:28.889
64.0, -15333.877841696483, -22449.44393032121, 3517.225803998209, 12989.42571752378, -45373.84007857324, -38963.650341469096, 152139.04853332622, -37099.00076377401, 4218.042399649907, -714.3617527916138, -23485.424934080238, -15115.568353601499, -24297.57556886382, -15434.48304348982, -14515.513421954325, -13631.926611891582, 0.122, 0.9580000000000001, 0.324, 192.0, 0.0, 0.0, 0.0, 0.0, 0.0, 0.0, 0.0, 0.0, 0.0, 1.695338608889514E9, 0.0, 2023-09-21 18:23:28.889
66.0, -15337.565879531609, -22454.093093167914, 3517.628135398404, 12984.888313399353, -45370.040282015834, -38965.63964672561, 152121.83769009565, -37095.938574783635, 4213.750864714488, -716.7533894483316, -23493.002175450587, -15120.195164703748, -24291.56294960534, -15436.852328402083, -14519.782605145288, -13632.485405502965, 0.122, 0.9580000000000001, 0.324, 192.0, 0.0, 0.0, 0.0, 0.0, 0.0, 0.0, 0.0, 0.0, 0.0, 1.695338608889518E9, 0.0, 2023-09-21 18:23:28.889
68.0, -15338.79522547665, -22454.294258868013, 3522.0090773116444, 12986.028252366574, -45374.57768614026, -38965.28201881433, 152137.3050972587, -37097.81612131788, 4215.874280437742, -715.769912692298, -23493.762134762066, -15122.56444961601, -24283.628080323706, -15434.550098723186, -14516.698064410457, -13628.663257201108, 0.122, 0.9580000000000001, 0.324, 192.0, 0.0, 0.0, 0.0, 0.0, 0.0, 0.0, 0.0, 0.0, 0.0, 1.695338608889522E9, 0.0, 2023-09-21 18:23:28.889
70.0, -15338.012914420715, -22449.622744276854, 3514.767112108125, 12987.257598311615, -45379.65153213162, -38966.98075139293, 152114.81924233667, -37100.99006903054, 4218.712951983565, -712.9312411464741, -23495.50557082958, -15122.94442927175, -24303.118801488734, -15431.53261322172, -14525.147023814563, -13631.948963636038, 0.122, 0.9580000000000001, 0.324, 192.0, 0.0, 0.0, 0.0, 0.0, 0.0, 0.0, 0.0, 0.0, 0.0, 1.695338608889526E9, 0.0, 2023-09-21 18:23:28.889
72.0, -15335.12953938598, -22447.946363442705, 3517.3822662093958, 12989.515124501602, -45384.05482578932, -38967.76306244887, 152122.17296626247, -37103.02407777597, 4219.562318272868, -708.2150230664042, -23491.83988473891, -15117.177679202281, -24284.723315802017, -15429.275087031734, -14528.499785482858, -13633.155957836623, 0.126, 0.9560000000000001, 0.328, 192.0, 1.5, 120.0, 14.5, 112.0, 5.0, 32.0, 0.0, 0.0, 0.0, 1.69533860888953E9, 0.0, 2023-09-21 18:23:28.889
74.0, -15328.289905582657, -22441.889040695318, 3517.896356331868, 12991.19150533575, -45382.02081704388, -38967.00310313739, 152097.72015782836, -37103.22524347607, 4221.708085740577, -703.0517700972283, -23486.721335258644, -15111.254466921624, -24293.015812994938, -15424.581220696118, -14529.013875605331, -13632.977143880982, 0.126, 0.9560000000000001, 0.328, 192.0, 0.0, 0.0, 0.0, 0.0, 0.0, 0.0, 0.0, 0.0, 0.0, 1.695338608949285E9, 0.0, 2023-09-21 18:23:28.949
76.0, -15326.79233870415, -22442.0455029065, 3531.9779553387116, 12992.890237914353, -45381.48437517695, -38967.74071070441, 152114.5063179143, -37103.67227836517, 4225.172606131149, -700.190746806949, -23482.630966023324, -15105.733586041164, -24292.85935078375, -15426.347008508088, -14523.381236002593, -13631.434873513565, 0.126, 0.9560000000000001, 0.328, 192.0, 0.0, 0.0, 0.0, 0.0, 0.0, 0.0, 0.0, 0.0, 0.0, 1.695338608949301E9, 0.0, 2023-09-21 18:23:28.949
78.0, -15325.160661358914, -22443.207793618178, 3530.7933128825803, 12992.353796047426, -45381.61848564369, -38968.65713222708, 152102.43637590844, -37103.11348475379, 4230.067638166862, -702.1800520634714, -23478.965279932654, -15105.532420341066, -24275.067362197326, -15426.883450375015, -14521.414282490527, -13629.55732697932, 0.126, 0.9560000000000001, 0.328, 192.0, 0.0, 0.0, 0.0, 0.0, 0.0, 0.0, 0.0, 0.0, 0.0, 1.695338608949305E9, 0.0, 2023-09-21 18:23:28.949
80.0, -15322.433748535366, -22440.659694750273, 3536.738876907692, 12994.09723211494, -45375.11412800719, -38966.779585692835, 152122.3070767292, -37100.18540623014, 4229.642955022211, -700.5930782071446, -23478.004154921076, -15106.22532441918, -24274.821493008316, -15426.302305019177, -14518.285038266784, -13626.830414155773, 0.126, 0.9560000000000001, 0.328, 192.0, 0.0, 0.0, 0.0, 0.0, 0.0, 0.0, 0.0, 0.0, 0.0, 1.695338608949309E9, 0.0, 2023-09-21 18:23:28.949
82.0, -15320.355036301022, -22436.859898192874, 3528.1781587813093, 12991.973816391686, -45371.113165749695, -38968.52302176035, 152095.61909384956, -37100.78890333044, 4234.001545190996, -699.9895811068512, -23473.26558509655, -15103.386652873356, -24282.15286518966, -15425.072959074136, -14516.720416154913, -13626.271620544388, 0.124, 0.9480000000000001, 0.328, 192.0, 1.5, 112.0, 14.5, 80.0, 5.0, 32.0, 0.0, 0.0, 0.0, 1.695338608949313E9, 0.0, 2023-09-21 18:23:28.949
84.0, -15322.366693302, -22439.117424382857, 3529.049876815066, 12986.698804700232, -45374.48827916244, -38972.300466573295, 152113.4557859249, -37107.82970283386, 4237.555472559389, -697.8885171280524, -23471.49979728458, -15100.726795283175, -24288.09842921477, -15427.598706197585, -14518.374445244604, -13629.110292090214, 0.124, 0.9480000000000001, 0.328, 192.0, 0.0, 0.0, 0.0, 0.0, 0.0, 0.0, 0.0, 0.0, 0.0, 1.695338608949317E9, 0.0, 2023-09-21 18:23:28.949
86.0, -15328.17814686038, -22444.839470963416, 3518.276335987608, 12981.893179642342, -45382.69136937754, -38979.52008003236, 152087.90774201247, -37116.43512444915, 4229.55354804439, -700.9730578628848, -23478.495893299092, -15104.817164518496, -24283.158693690148, -15433.320752778143, -14528.6785994385, -13637.93923115006, 0.124, 0.9480000000000001, 0.328, 192.0, 0.0, 0.0, 0.0, 0.0, 0.0, 0.0, 0.0, 0.0, 0.0, 1.69533860894932E9, 0.0, 2023-09-21 18:23:28.949
88.0, -15330.50272828373, -22445.800595974993, 3529.7427808931807, 12982.183752320261, -45379.87504957617, -38980.682370744034, 152102.01169276377, -37114.84815059282, 4226.6478212652, -703.0294183527731, -23482.340393345403, -15107.901705253329, -24272.988649962983, -15435.980610368326, -14532.836023907188, -13644.667106231107, 0.124, 0.9480000000000001, 0.328, 192.0, 0.0, 0.0, 0.0, 0.0, 0.0, 0.0, 0.0, 0.0, 0.0, 1.695338608949324E9, 0.0, 2023-09-21 18:23:28.949
90.0, -15324.445405536344, -22439.81032846097, 3527.708772147748, 12984.016595365596, -45377.30459896381, -38975.13913811912, 152079.1905616749, -37106.86857782228, 4231.252280622993, -700.1236915735831, -23476.439532809203, -15101.978492972672, -24270.932289473094, -15429.990342854304, -14529.863241894633, -13640.822606184794, 0.124, 0.9480000000000001, 0.328, 192.0, 0.0, 0.0, 0.0, 0.0, 0.0, 0.0, 0.0, 0.0, 0.0, 1.695338609010994E9, 0.0, 2023-09-21 18:23:29.010
92.0, -15320.578553745576, -22437.865726693362, 3531.6203274274267, 12983.971891876685, -45371.515497149885, -38972.41222529557, 152098.1001374841, -37101.54886264192, 4230.268803866959, -697.195613049938, -23476.864215953854, -15098.983359215661, -24276.877853498205, -15428.112796320058, -14527.270439537817, -13638.542728250353, 0.128, 0.9520000000000001, 0.326, 192.0, 2.0, 0.0, 14.5, 96.0, 5.0, 24.0, 0.0, 0.0, 0.0, 1.695338609011006E9, 0.0, 2023-09-21 18:23:29.011
94.0, -15322.389045046455, -22441.3973023173, 3525.8759291024126, 12980.820295908487, -45372.856601817206, -38973.641571240616, 152088.3547769016, -37101.83943531984, 4234.292117868915, -699.4754909843792, -23477.534768287514, -15101.710272039209, -24280.61059482224, -15430.10210157658, -14523.582401702692, -13636.866347416204, 0.128, 0.9520000000000001, 0.326, 192.0, 0.0, 0.0, 0.0, 0.0, 0.0, 0.0, 0.0, 0.0, 0.0, 1.69533860901101E9, 0.0, 2023-09-21 18:23:29.011
96.0, -15323.707797969319, -22444.191270374213, 3528.6251936704152, 12979.725060430177, -45372.83425007275, -38975.6979317305, 152100.26825669626, -37106.06391502189, 4232.146350401205, -703.4317497529686, -23479.88170145532, -15105.979455230172, -24286.22088268052, -15431.309095777166, -14522.82244239121, -13634.541765992853, 0.128, 0.9520000000000001, 0.326, 192.0, 0.0, 0.0, 0.0, 0.0, 0.0, 0.0, 0.0, 0.0, 0.0, 1.695338609011014E9, 0.0, 2023-09-21 18:23:29.011
98.0, -15317.896344410938, -22439.743273227607, 3527.9769930812113, 12987.57052273399, -45370.24144771593, -38967.65130372659, 152076.06131745118, -37101.83943531984, 4230.604080033789, -703.5435084752451, -23481.8933584563, -15106.98528373066, -24290.467714127033, -15431.934944621915, -14525.772872659312, -13638.945059650549, 0.128, 0.9520000000000001, 0.326, 192.0, 0.0, 0.0, 0.0, 0.0, 0.0, 0.0, 0.0, 0.0, 0.0, 1.695338609011017E9, 0.0, 2023-09-21 18:23:29.011
100.0, -15321.584382246065, -22442.29137209551, 3529.7427808931807, 12983.815429665498, -45374.68944486254, -38970.86995492816, 152085.33729140012, -37106.86857782228, 4233.1968823906045, -698.1790898059714, -23477.60182352088, -15102.336120883958, -24264.070303925313, -15427.285781775212, -14522.844794135666, -13633.021847369891, 0.128, 0.9520000000000001, 0.326, 192.0, 0.0, 0.0, 0.0, 0.0, 0.0, 0.0, 0.0, 0.0, 0.0, 1.695338609011021E9, 0.0, 2023-09-21 18:23:29.011
102.0, -15324.825385192084, -22444.01245641857, 3520.578565666505, 12983.99424362114, -45376.18701174104, -38974.200364852, 152073.31205288318, -37109.081400523355, 4229.955879444585, -699.8107671512088, -23483.525035801536, -15105.152440685326, -24272.89924298516, -15432.76195916676, -14531.78549191779, -13640.554385251331, 0.122, 0.9560000000000001, 0.328, 192.0, 1.5, 104.0, 14.5, 112.0, 5.0, 32.0, 0.0, 0.0, 0.0, 1.695338609011025E9, 0.0, 2023-09-21 18:23:29.011
104.0, -15326.233545092768, -22449.91331695477, 3523.998382568167, 12987.27995005607, -45375.53881115184, -38970.825251439244, 152079.0564512082, -37102.934670798146, 4229.374734088747, -700.1683950624937, -23482.60861427887, -15105.04068196305, -24277.928385487605, -15426.794043397194, -14528.835061649688, -13636.486367760464, 0.122, 0.9560000000000001, 0.328, 192.0, 0.0, 0.0, 0.0, 0.0, 0.0, 0.0, 0.0, 0.0, 0.0, 1.695338609070559E9, 0.0, 2023-09-21 18:23:29.070
106.0, -15327.194670104345, -22454.718942012663, 3516.152920264354, 12983.346043031937, -45377.662226875094, -38973.30629507379, 152072.61914880504, -37104.09696150982, 4229.687658511121, -702.4929764858457, -23481.826303222933, -15110.002769232127, -24286.153827447157, -15426.056435830169, -14530.176166317007, -13637.894527661148, 0.122, 0.9560000000000001, 0.328, 192.0, 0.0, 0.0, 0.0, 0.0, 0.0, 0.0, 0.0, 0.0, 0.0, 1.695338609070572E9, 0.0, 2023-09-21 18:23:29.070
108.0, -15332.514385284709, -22458.96577345917, 3512.6883998737812, 12977.512237729103, -45384.859488589704, -38981.308219588784, 152068.41702084744, -37110.422505190676, 4221.171643873649, -707.7456364328428, -23490.722297516146, -15120.195164703748, -24298.38023166421, -15436.58410746862, -14538.334553043194, -13646.79052195436, 0.122, 0.9560000000000001, 0.328, 192.0, 0.0, 0.0, 0.0, 0.0, 0.0, 0.0, 0.0, 0.0, 0.0, 1.695338609070576E9, 0.0, 2023-09-21 18:23:29.070
110.0, -15334.70485624133, -22462.989087461126, 3518.477501687706, 12979.009804607607, -45380.210325743, -38981.41997831106, 152073.13323892752, -37107.24855747802, 4217.036571149418, -721.0449243837505, -23494.052707439987, -15128.219440963203, -24289.14896120417, -15447.290593062711, -14536.792282675779, -13650.076228389291, 0.122, 0.9560000000000001, 0.328, 192.0, 0.0, 0.0, 0.0, 0.0, 0.0, 0.0, 0.0, 0.0, 0.0, 1.69533860907058E9, 0.0, 2023-09-21 18:23:29.070
112.0, -15327.395835804444, -22455.657715279784, 3530.8827198604013, 12986.452935511224, -45375.51645940739, -38973.552164262794, 152075.83780000661, -37100.47597890806, 4226.2678416094595, -708.3044300442255, -23484.77673349103, -15116.685940824264, -24275.46969359752, -15438.81928191415, -14527.426901749004, -13644.667106231107, 0.122, 0.9560000000000001, 0.32, 192.0, 1.5, 104.0, 14.5, 112.0, 5.0, 0.0, 0.0, 0.0, 0.0, 1.695338609070584E9, 0.0, 2023-09-21 18:23:29.070
114.0, -15317.516364755198, -22443.945401185203, 3540.7845426541026, 12995.773612949088, -45364.63115985765, -38963.15860309108, 152051.9437851839, -37089.00953400249, 4230.984059689529, -695.742749660343, -23476.998326420588, -15106.851173263929, -24276.56492907583, -15428.135148064513, -14520.564916201225, -13638.98976313946, 0.122, 0.9560000000000001, 0.32, 192.0, 0.0, 0.0, 0.0, 0.0, 0.0, 0.0, 0.0, 0.0, 0.0, 1.695338609070587E9, 0.0, 2023-09-21 18:23:29.070
116.0, -15320.377388045477, -22447.164052386768, 3531.4191617273286, 12989.068089612496, -45366.776927325365, -38965.68435021453, 152026.12752033802, -37091.40117065921, 4234.381524846736, -691.9429531029407, -23472.907957185264, -15100.570333071988, -24278.643641310173, -15422.14488055049, -14513.25589576434, -13631.144300835645, 0.122, 0.9560000000000001, 0.32, 192.0, 0.0, 0.0, 0.0, 0.0, 0.0, 0.0, 0.0, 0.0, 0.0, 1.69533860907059E9, 0.0, 2023-09-21 18:23:29.070
118.0, -15322.366693302, -22449.01924717656, 3528.446379714773, 12987.928150645275, -45369.95087503802, -38967.49484151541, 152029.86026166205, -37096.34090618383, 4231.721667256555, -697.5308892167675, -23477.132436887317, -15103.677225551275, -24290.423010638122, -15430.280915532223, -14519.044997578265, -13636.59812648274, 0.122, 0.9560000000000001, 0.32, 192.0, 0.0, 0.0, 0.0, 0.0, 0.0, 0.0, 0.0, 0.0, 0.0, 1.695338609070594E9, 0.0, 2023-09-21 18:23:29.070
120.0, -15318.477489766776, -22445.3982645748, 3526.278260502608, 12987.592874478445, -45375.47175591848, -38964.253838569384, 152012.02356958672, -37094.597470116314, 4232.056943423384, -697.2626682833038, -23474.964317675152, -15101.486754594656, -24280.94587098907, -15429.878584132026, -14522.174241802008, -13637.738065449961, 0.122, 0.9560000000000001, 0.32, 192.0, 0.0, 0.0, 0.0, 0.0, 0.0, 0.0, 0.0, 0.0, 0.0, 1.695338609130224E9, 0.0, 2023-09-21 18:23:29.130
122.0, -15322.567859002098, -22448.72867449864, 3527.7758273811137, 12978.249845296126, -45382.24433448844, -38969.081815371734, 152018.34911326756, -37103.18053998715, 4231.520501556457, -699.5648979622005, -23474.897262441787, -15106.22532441918, -24275.603804064252, -15431.644371943996, -14526.935163370987, -13643.661277730618, 0.116, 0.9560000000000001, 0.322, 192.0, 1.5, 80.0, 14.5, 112.0, 5.0, 8.0, 0.0, 0.0, 0.0, 1.695338609130238E9, 0.0, 2023-09-21 18:23:29.130
124.0, -15315.191783331846, -22445.420616319254, 3523.4619407012397, 12978.451010996225, -45371.18022098306, -38967.56189674877, 151994.8797815895, -37101.68297310865, 4235.096780669306, -694.8039763932201, -23473.51145428556, -15105.599475574432, -24270.79817900636, -15430.996171354793, -14527.382198260093, -13646.589356254264, 0.116, 0.9560000000000001, 0.322, 192.0, 0.0, 0.0, 0.0, 0.0, 0.0, 0.0, 0.0, 0.0, 0.0, 1.695338609130242E9, 0.0, 2023-09-21 18:23:29.130
126.0, -15315.571762987587, -22445.867651208362, 3529.7204291487255, 12979.300377285526, -45367.58159012575, -38964.253838569384, 152009.4307672299, -37100.87831030826, 4238.337783615325, -687.450252467424, -23468.21409084965, -15100.302112138525, -24269.054742938846, -15427.330485264121, -14521.458985979438, -13641.068475373802, 0.116, 0.9560000000000001, 0.322, 192.0, 0.0, 0.0, 0.0, 0.0, 0.0, 0.0, 0.0, 0.0, 0.0, 1.695338609130246E9, 0.0, 2023-09-21 18:23:29.130
128.0, -15312.710739697308, -22441.151433128292, 3517.605783653949, 12981.088516841952, -45370.7108343495, -38964.678521714035, 151986.0284907852, -37106.62270863327, 4231.632260278733, -686.3326652446586, -23472.192701362696, -15099.98918771615, -24281.348202389265, -15425.430586985422, -14527.739826171379, -13643.728332963985, 0.116, 0.9560000000000001, 0.322, 192.0, 0.0, 0.0, 0.0, 0.0, 0.0, 0.0, 0.0, 0.0, 0.0, 1.69533860913025E9, 0.0, 2023-09-21 18:23:29.130
130.0, -15307.189858816846, -22436.09993888139, 3538.6164234419375, 12992.465554769702, -45366.66516860309, -38955.55900997627, 152016.40451149995, -37094.619821860775, 4241.1764551611495, -678.8448308521308, -23464.101369869873, -15088.925074210772, -24272.832187751796, -15418.725063648828, -14521.168413301519, -13634.854690415228, 0.116, 0.9560000000000001, 0.322, 192.0, 0.0, 0.0, 0.0, 0.0, 0.0, 0.0, 0.0, 0.0, 0.0, 1.695338609130255E9, 0.0, 2023-09-21 18:23:29.130
132.0, -15307.189858816846, -22435.943476670203, 3542.2597577881525, 12992.219685580694, -45365.81580231379, -38956.162507076566, 152004.2228107718, -37093.703400338105, 4246.026783707951, -674.3074267277035, -23459.16163434525, -15084.70059450872, -24259.242327122967, -15415.417005469442, -14515.222849276406, -13630.585507224263, 0.116, 0.9540000000000001, 0.322, 192.0, 1.5, 80.0, 14.5, 104.0, 5.0, 8.0, 0.0, 0.0, 0.0, 1.695338609130258E9, 0.0, 2023-09-21 18:23:29.130
134.0, -15308.329797784067, -22434.848241191896, 3550.149923580876, 12993.404328036826, -45364.22882845746, -38953.25678029737, 152020.3384185241, -37089.74714156952, 4242.584615061834, -673.8156883496868, -23460.435683779204, -15085.147629397827, -24270.909937728637, -15411.90778158996, -14512.495936452859, -13627.657428700619, 0.116, 0.9540000000000001, 0.322, 192.0, 0.0, 0.0, 0.0, 0.0, 0.0, 0.0, 0.0, 0.0, 0.0, 1.695338609189612E9, 0.0, 2023-09-21 18:23:29.189
136.0, -15311.16846932989, -22435.25057259209, 3538.9069961198566, 12994.81248793751, -45365.21230521349, -38946.75242266088, 152002.45702295983, -37079.19711818661, 4240.1259231717495, -673.4133569494912, -23464.414294292248, -15086.064050920493, -24282.175216934113, -15410.56667692264, -14512.8759161086, -13623.656466443119, 0.116, 0.9540000000000001, 0.322, 192.0, 0.0, 0.0, 0.0, 0.0, 0.0, 0.0, 0.0, 0.0, 0.0, 1.695338609189635E9, 0.0, 2023-09-21 18:23:29.189
138.0, -15306.362844272, -22430.132023111826, 3553.5250369936275, 13007.374168321392, -45356.04808998681, -38933.922521343535, 152041.05848563416, -37061.963923211566, 4245.847969752308, -665.1432115010276, -23455.965334888144, -15078.442106061233, -24257.02950442189, -15402.810621596649, -14502.214134003418, -13608.83725986925, 0.116, 0.9540000000000001, 0.322, 192.0, 0.0, 0.0, 0.0, 0.0, 0.0, 0.0, 0.0, 0.0, 0.0, 1.69533860918964E9, 0.0, 2023-09-21 18:23:29.189
140.0, -15309.894419895938, -22435.429386547734, 3541.70096417677, 12999.52870601758, -45361.47956388946, -38942.48323946992, 152032.78834018568, -37070.18936517112, 4243.098705184306, -668.3171592136812, -23458.625192478325, -15079.336175839446, -24263.3773998472, -15402.363586707545, -14506.617427661113, -13610.625399425675, 0.116, 0.9540000000000001, 0.322, 192.0, 0.0, 0.0, 0.0, 0.0, 0.0, 0.0, 0.0, 0.0, 0.0, 1.695338609189646E9, 0.0, 2023-09-21 18:23:29.189
142.0, -15312.21900131929, -22441.68787499522, 3538.504664719661, 12994.164287348305, -45364.541752879835, -38946.86418138316, 152046.35584907007, -37074.81617627337, 4239.254205137992, -678.7330721298542, -23467.252965838074, -15089.305053866514, -24272.51926332942, -15414.433528713409, -14514.753462642844, -13622.717693175995, 0.12, 0.9580000000000001, 0.326, 192.0, 1.5, 96.0, 14.5, 120.0, 5.0, 24.0, 0.0, 0.0, 0.0, 1.695338609189651E9, 0.0, 2023-09-21 18:23:29.189
144.0, -15305.357015771511, -22436.569325514953, 3537.454132730262, 12998.612284494911, -45361.680729589556, -38944.65135868208, 152025.0322848597, -37075.732597796035, 4243.344574373314, -675.7155866283878, -23462.872023924832, -15085.393498586835, -24272.720429029516, -15412.444223456887, -14513.948799842454, -13620.348408263733, 0.12, 0.9580000000000001, 0.326, 192.0, 0.0, 0.0, 0.0, 0.0, 0.0, 0.0, 0.0, 0.0, 0.0, 1.695338609189656E9, 0.0, 2023-09-21 18:23:29.189
146.0, -15310.944951885338, -22443.408959318276, 3544.561987467049, 12999.416947295304, -45357.344491165226, -38945.05369008228, 152033.50359600826, -37076.514908851976, 4243.523388328957, -676.4308424509576, -23460.100407612375, -15084.924111953273, -24265.09848417026, -15414.657046157963, -14509.523154440303, -13617.085053573259, 0.12, 0.9580000000000001, 0.326, 192.0, 0.0, 0.0, 0.0, 0.0, 0.0, 0.0, 0.0, 0.0, 0.0, 1.695338609189661E9, 0.0, 2023-09-21 18:23:29.189
148.0, -15312.330760041566, -22448.795729732006, 3539.9798798537113, 12995.438336782257, -45357.612712098686, -38947.825306394734, 152025.30050579316, -37077.16310944118, 4240.796475505409, -683.7622146322983, -23463.900204169775, -15094.602417302422, -24271.356972617745, -15414.120604291036, -14509.277285251295, -13619.901373374627, 0.12, 0.9580000000000001, 0.326, 192.0, 0.0, 0.0, 0.0, 0.0, 0.0, 0.0, 0.0, 0.0, 0.0, 1.695338609189681E9, 0.0, 2023-09-21 18:23:29.189
150.0, -15305.491126238243, -22444.034808163025, 3551.401621270373, 12992.912589658808, -45355.77986905335, -38952.40741400807, 152022.81946215863, -37085.07562697835, 4251.257091910493, -676.3190837286811, -23454.937154643198, -15089.215646888691, -24268.18302490509, -15407.10215653207, -14505.835116605178, -13617.59914369573, 0.12, 0.9580000000000001, 0.326, 192.0, 0.0, 0.0, 0.0, 0.0, 0.0, 0.0, 0.0, 0.0, 0.0, 1.695338609249301E9, 0.0, 2023-09-21 18:23:29.249
152.0, -15303.948855870827, -22438.893906938305, 3558.4424207737948, 12990.208028579716, -45353.45528763, -38949.61344595116, 152020.85250864655, -37077.85601351929, 4250.094801198817, -677.4813744403571, -23455.5853552324, -15093.12720216837, -24247.015922905914, -15415.640522913996, -14505.67865439399, -13624.952867621527, 0.126, 0.9500000000000001, 0.328, 192.0, 1.5, 120.0, 14.5, 88.0, 5.0, 32.0, 0.0, 0.0, 0.0, 1.695338609249313E9, 0.0, 2023-09-21 18:23:29.249
154.0, -15302.920675625883, -22436.994008659603, 3561.571664997538, 12988.933979145764, -45353.2541219299, -38953.56970471975, 152023.78058717021, -37081.96873449907, 4254.118115200772, -668.8312493361533, -23446.845823150376, -15081.437239818246, -24260.31521085682, -15413.71827289084, -14497.676729878991, -13619.521393718887, 0.126, 0.9500000000000001, 0.328, 192.0, 0.0, 0.0, 0.0, 0.0, 0.0, 0.0, 0.0, 0.0, 0.0, 1.695338609249317E9, 0.0, 2023-09-21 18:23:29.249
156.0, -15299.322044768578, -22434.714130725162, 3557.280130062119, 12990.878580913375, -45356.58453185374, -38949.36757676215, 152019.1314243235, -37081.253478676495, 4254.498094856513, -665.1655632454829, -23444.834166149398, -15078.039774661038, -24249.519318284907, -15408.800889110673, -14502.638817148068, -13623.432948998565, 0.126, 0.9500000000000001, 0.328, 192.0, 0.0, 0.0, 0.0, 0.0, 0.0, 0.0, 0.0, 0.0, 0.0, 1.695338609249321E9, 0.0, 2023-09-21 18:23:29.249
158.0, -15307.391024516945, -22442.984276173625, 3544.7631531671473, 12983.860133154409, -45358.41737489908, -38952.34035877471, 152015.91277312193, -37083.063969977375, 4247.457295353091, -668.0936417691281, -23452.232593564106, -15083.359489841401, -24260.739894001472, -15410.879601345016, -14511.355997485638, -13628.618553712196, 0.126, 0.9500000000000001, 0.328, 192.0, 0.0, 0.0, 0.0, 0.0, 0.0, 0.0, 0.0, 0.0, 0.0, 1.695338609249325E9, 0.0, 2023-09-21 18:23:29.249
160.0, -15309.693254195841, -22443.25249710709, 3542.8856066329013, 12982.876656398375, -45359.82553479976, -38948.741727917404, 152020.383122013, -37079.778263542445, 4244.596272062811, -671.2452377373264, -23459.228689578616, -15090.489696322644, -24264.60674579224, -15412.555982179163, -14512.674750408501, -13631.74779793594, 0.126, 0.9500000000000001, 0.328, 192.0, 0.0, 0.0, 0.0, 0.0, 0.0, 0.0, 0.0, 0.0, 0.0, 1.695338609249329E9, 0.0, 2023-09-21 18:23:29.249
162.0, -15315.83998392105, -22451.477939066644, 3540.5610252095494, 12976.819333650987, -45361.72543307846, -38956.5424867323, 152009.20724978534, -37086.9531735126, 4246.116190685772, -675.6038279061113, -23459.966297145642, -15094.490658580144, -24265.03142893689, -15415.19348802489, -14512.428881219494, -13631.524280491387, 0.126, 0.9500000000000001, 0.328, 192.0, 1.5, 120.0, 14.5, 88.0, 5.0, 32.0, 0.0, 0.0, 0.0, 1.695338609249332E9, 0.0, 2023-09-21 18:23:29.249
164.0, -15320.287981067657, -22455.3000873685, 3541.32098452103, 12974.695917927733, -45364.09471799072, -38959.649379211594, 152008.1790695404, -37092.921089282165, 4243.03164995094, -683.7622146322983, -23466.13537861531, -15103.319597639991, -24272.362801118234, -15426.302305019177, -14508.137346284075, -13639.70501896203, 0.126, 0.9500000000000001, 0.328, 192.0, 0.0, 0.0, 0.0, 0.0, 0.0, 0.0, 0.0, 0.0, 0.0, 1.695338609309527E9, 0.0, 2023-09-21 18:23:29.309
166.0, -15317.3151990551, -22449.421578576756, 3541.1868740542977, 12982.899008142831, -45358.48443013244, -38950.060480840264, 151990.18591525388, -37081.92403101016, 4246.205597663593, -679.2695139967816, -23464.995439648086, -15099.586856315955, -24262.17040564661, -15419.239153771301, -14504.784584615778, -13631.88190840267, 0.126, 0.9500000000000001, 0.328, 192.0, 0.0, 0.0, 0.0, 0.0, 0.0, 0.0, 0.0, 0.0, 0.0, 1.695338609309537E9, 0.0, 2023-09-21 18:23:29.309
168.0, -15322.143175857447, -22451.388532088822, 3547.9818043687114, 12982.451973253725, -45361.83719180074, -38951.13336457412, 152010.77187189722, -37084.76270255598, 4246.205597663593, -672.2287144933599, -23464.950736159175, -15094.043623691037, -24260.874004468205, -15416.020502569736, -14503.443479948459, -13628.439739756554, 0.126, 0.9500000000000001, 0.328, 192.0, 0.0, 0.0, 0.0, 0.0, 0.0, 0.0, 0.0, 0.0, 0.0, 1.695338609309541E9, 0.0, 2023-09-21 18:23:29.309
170.0, -15328.625181749485, -22458.451683336698, 3535.084847817999, 12972.527798715568, -45367.335720936746, -38957.23539081042, 151994.79037461168, -37091.87055729277, 4238.471894082057, -678.0401680517398, -23473.399695563283, -15101.307940639013, -24273.2792226409, -15419.663836915952, -14509.791375373767, -13634.832338670773, 0.126, 0.9500000000000001, 0.328, 192.0, 0.0, 0.0, 0.0, 0.0, 0.0, 0.0, 0.0, 0.0, 0.0, 1.695338609309544E9, 0.0, 2023-09-21 18:23:29.309
172.0, -15321.070292123592, -22452.796691989504, 3544.8525601449683, 12977.556941218012, -45360.27256968887, -38948.674672684036, 152010.0789678191, -37077.207812930086, 4240.1259231717495, -679.5377349302453, -23470.7398379731, -15101.285588894558, -24266.50664407094, -15421.094348561091, -14506.282151494284, -13633.893565403649, 0.124, 0.9560000000000001, 0.328, 192.0, 1.5, 112.0, 14.5, 112.0, 5.0, 32.0, 0.0, 0.0, 0.0, 1.695338609309547E9, 0.0, 2023-09-21 18:23:29.309
174.0, -15318.946876400338, -22451.455587322187, 3529.966298337734, 12967.94569110223, -45367.469831403476, -38956.34132103221, 151999.30542699163, -37084.91916476717, 4239.03068769344, -675.6485313950219, -23468.705829227667, -15098.46926909319, -24281.124684944712, -15421.317866005644, -14506.34920672765, -13633.826510170284, 0.124, 0.9560000000000001, 0.328, 192.0, 0.0, 0.0, 0.0, 0.0, 0.0, 0.0, 0.0, 0.0, 0.0, 1.695338609309551E9, 0.0, 2023-09-21 18:23:29.309
176.0, -15321.718492712796, -22454.853052479393, 3543.623214199926, 12976.819333650987, -45360.45138364451, -38946.79712614979, 152019.26553479023, -37076.11257745178, 4236.348478358803, -677.0119878067957, -23469.64460249479, -15100.480926094167, -24282.488141356487, -15422.591915439596, -14512.898267853054, -13639.727370706483, 0.124, 0.9560000000000001, 0.328, 192.0, 0.0, 0.0, 0.0, 0.0, 0.0, 0.0, 0.0, 0.0, 0.0, 1.695338609309554E9, 0.0, 2023-09-21 18:23:29.309
178.0, -15310.050882107125, -22444.839470963416, 3544.27141478913, 12987.302301800526, -45356.428069642556, -38936.157695789065, 152004.0216450717, -37067.61891455876, 4245.691507541122, -669.4794499253571, -23457.418198277737, -15087.382803843357, -24261.969239946517, -15409.314979233144, -14499.57662815769, -13621.555402464319, 0.124, 0.9560000000000001, 0.328, 192.0, 0.0, 0.0, 0.0, 0.0, 0.0, 0.0, 0.0, 0.0, 0.0, 1.695338609309558E9, 0.0, 2023-09-21 18:23:29.309
180.0, -15320.55620200112, -22453.914279212273, 3538.147036808376, 12976.014670850596, -45367.84981105922, -38949.456983739976, 152019.55610746815, -37084.62859208925, 4243.501036584501, -667.9148278134857, -23457.954640144664, -15087.628673032365, -24265.344353359265, -15410.76784262274, -14507.600904417146, -13626.69630368904, 0.124, 0.9560000000000001, 0.328, 192.0, 0.0, 0.0, 0.0, 0.0, 0.0, 0.0, 0.0, 0.0, 0.0, 1.695338609369931E9, 0.0, 2023-09-21 18:23:29.369
182.0, -15315.303542054124, -22449.01924717656, 3536.9623943522447, 12978.898045885331, -45361.524267378365, -38941.544466202795, 151998.3219502356, -37074.36914138426, 4242.517559828468, -668.8088975916979, -23458.804006433966, -15088.679205021765, -24274.217995908024, -15416.221668269834, -14508.584381173181, -13629.490271745954, 0.124, 0.9480000000000001, 0.33, 192.0, 1.5, 112.0, 14.5, 80.0, 5.0, 40.0, 0.0, 0.0, 0.0, 1.695338609369948E9, 0.0, 2023-09-21 18:23:29.369
184.0, -15313.046015864136, -22448.035770420527, 3543.1314758219096, 12984.396575021336, -45358.372671410165, -38936.49297195589, 152016.56097371114, -37067.484804092026, 4245.736211030032, -666.8642958240862, -23457.418198277737, -15086.958120698706, -24270.37349586171, -15415.484060702809, -14503.06350029272, -13622.494175731443, 0.124, 0.9480000000000001, 0.33, 192.0, 0.0, 0.0, 0.0, 0.0, 0.0, 0.0, 0.0, 0.0, 0.0, 1.695338609369952E9, 0.0, 2023-09-21 18:23:29.369
186.0, -15316.108204854514, -22454.428369334742, 3531.50856870515, 12972.930130115765, -45365.39111916914, -38942.170315047544, 151993.65043564446, -37072.75981578348, 4247.479647097546, -666.1490400015164, -23456.680590710712, -15085.348795097923, -24259.398789334155, -15413.964142079849, -14504.248142748851, -13622.807100153817, 0.124, 0.9480000000000001, 0.33, 192.0, 0.0, 0.0, 0.0, 0.0, 0.0, 0.0, 0.0, 0.0, 0.0, 1.695338609369956E9, 0.0, 2023-09-21 18:23:29.369
188.0, -15313.247181564235, -22453.53429955653, 3540.963356609745, 12967.990394591141, -45362.10541273421, -38943.33260575922, 152005.5862671836, -37074.14562393971, 4241.668193539166, -673.6368743940443, -23461.59797449088, -15094.200085902225, -24251.866251452717, -15419.261505515757, -14511.512459696825, -13631.300763046833, 0.124, 0.9480000000000001, 0.33, 192.0, 0.0, 0.0, 0.0, 0.0, 0.0, 0.0, 0.0, 0.0, 0.0, 1.695338609369959E9, 0.0, 2023-09-21 18:23:29.369
190.0, -15314.208306575812, -22456.037694935527, 3534.7048681622587, 12966.246958523627, -45364.13942147964, -38946.774774405334, 151993.382214711, -37078.07953096384, 4249.6030628208, -670.41822319248, -23458.178157589216, -15093.618940546387, -24257.565946288818, -15416.065206058647, -14508.517325939814, -13630.160824079612, 0.124, 0.9480000000000001, 0.33, 192.0, 0.0, 0.0, 0.0, 0.0, 0.0, 0.0, 0.0, 0.0, 0.0, 1.695338609369963E9, 0.0, 2023-09-21 18:23:29.369
192.0, -15317.695178710841, -22457.334096113933, 3539.286975775597, 12970.47143822568, -45368.2074389705, -38948.62996919513, 152001.31708399262, -37083.086321721836, 4243.568091817867, -673.905095327508, -23467.677648982724, -15099.028062704572, -24276.788446520382, -15418.09921480408, -14516.698064410457, -13637.872175916693, 0.122, 0.9560000000000001, 0.328, 192.0, 1.5, 104.0, 14.5, 112.0, 5.0, 32.0, 0.0, 0.0, 0.0, 1.695338609369968E9, 0.0, 2023-09-21 18:23:29.369
194.0, -15313.582457731065, -22452.39436058931, 3535.487179218195, 12975.321766772482, -45369.2579709599, -38947.75825116137, 151978.6747668594, -37087.556670612896, 4247.546702330912, -667.3560342021029, -23462.22382333563, -15092.32253936798, -24256.291896854866, -15413.226534512823, -14514.127613798097, -13634.295896803844, 0.122, 0.9560000000000001, 0.328, 192.0, 0.0, 0.0, 0.0, 0.0, 0.0, 0.0, 0.0, 0.0, 0.0, 1.69533860943159E9, 0.0, 2023-09-21 18:23:29.431
196.0, -15322.232582835268, -22461.938555471726, 3526.5911849249824, 12962.581272432957, -45379.897401320624, -38958.57649547774, 151973.57856912358, -37103.001726031514, 4244.1715889181605, -674.5085924278012, -23468.236442594105, -15100.525629583077, -24265.254946381447, -15421.541383450198, -14524.007084847342, -13645.114141120213, 0.122, 0.9560000000000001, 0.328, 192.0, 0.0, 0.0, 0.0, 0.0, 0.0, 0.0, 0.0, 0.0, 0.0, 1.695338609431605E9, 0.0, 2023-09-21 18:23:29.431
198.0, -15322.858431680017, -22461.044485693514, 3524.9148040908344, 12953.99820256212, -45384.390101956145, -38965.12555660314, 151959.29580441664, -37112.657679636206, 4241.98111796154, -677.5260779292677, -23470.873948439832, -15103.65487380682, -24262.818606235818, -15431.465557988353, -14532.657209951545, -13656.312365092323, 0.122, 0.9560000000000001, 0.328, 192.0, 0.0, 0.0, 0.0, 0.0, 0.0, 0.0, 0.0, 0.0, 0.0, 1.695338609431609E9, 0.0, 2023-09-21 18:23:29.431
200.0, -15319.438614778355, -22459.613974048374, 3535.5989379404714, 12954.735810129145, -45373.773023339876, -38958.75530943338, 151966.51541787572, -37098.933708540644, 4246.31735638587, -670.0382435367399, -23464.570756503435, -15097.150516170326, -24267.914803971627, -15430.169156809945, -14523.940029613976, -13651.774960967894, 0.122, 0.9560000000000001, 0.328, 192.0, 0.0, 0.0, 0.0, 0.0, 0.0, 0.0, 0.0, 0.0, 0.0, 1.695338609431613E9, 0.0, 2023-09-21 18:23:29.431
202.0, -15318.723358955785, -22460.709209526685, 3535.822455385024, 12957.306260741505, -45367.51453489239, -38949.56874246225, 151977.57953138108, -37084.76270255598, 4244.104533684795, -673.838040094142, -23463.07318962493, -15100.033891205061, -24261.209280635034, -15429.05156958718, -14517.68154116649, -13646.36583880971, 0.126, 0.9460000000000001, 0.326, 192.0, 1.5, 120.0, 14.5, 72.0, 5.0, 24.0, 0.0, 0.0, 0.0, 1.695338609431617E9, 0.0, 2023-09-21 18:23:29.431
204.0, -15317.337550799555, -22461.916203727273, 3538.6611269308482, 12958.021516564075, -45358.864409788184, -38949.54639071779, 151979.03239477068, -37079.219469931064, 4250.251263410004, -667.1548685020052, -23454.758340687556, -15091.5625800565, -24263.04212368037, -15421.317866005644, -14505.142212527064, -13632.463053758509, 0.126, 0.9460000000000001, 0.326, 192.0, 0.0, 0.0, 0.0, 0.0, 0.0, 0.0, 0.0, 0.0, 0.0, 1.695338609431621E9, 0.0, 2023-09-21 18:23:29.431
206.0, -15322.903135168926, -22466.766532274072, 3536.470655974228, 12950.354868215903, -45358.21620919898, -38950.060480840264, 152014.66107543244, -37080.985257743036, 4244.8197895073645, -672.1393075155387, -23462.82732043592, -15098.402213859823, -24263.84678648076, -15424.2906480182, -14506.908000339032, -13636.262850315912, 0.126, 0.9460000000000001, 0.326, 192.0, 0.0, 0.0, 0.0, 0.0, 0.0, 0.0, 0.0, 0.0, 0.0, 1.695338609431625E9, 0.0, 2023-09-21 18:23:29.431
208.0, -15322.098472368536, -22467.370029374368, 3535.17425479582, 12942.509405912091, -45364.72056683547, -38952.85444889718, 152011.39772074195, -37084.51683336697, 4240.349440616303, -676.6990633844214, -23469.42108505024, -15104.951274985227, -24264.874966725703, -15429.096273076091, -14516.072215565708, -13643.527167263886, 0.126, 0.9460000000000001, 0.326, 192.0, 0.0, 0.0, 0.0, 0.0, 0.0, 0.0, 0.0, 0.0, 0.0, 1.695338609431628E9, 0.0, 2023-09-21 18:23:29.431
210.0, -15314.543582742643, -22464.24078515062, 3543.734972922203, 12947.695010625723, -45355.39988939761, -38946.70771917197, 152008.24612477375, -37080.31470540937, 4251.592368077322, -674.3968337055247, -23461.97795414662, -15100.525629583077, -24248.491138039964, -15427.598706197585, -14509.992541073865, -13641.202585840534, 0.126, 0.9460000000000001, 0.326, 192.0, 0.0, 0.0, 0.0, 0.0, 0.0, 0.0, 0.0, 0.0, 0.0, 1.695338609489601E9, 0.0, 2023-09-21 18:23:29.489
212.0, -15318.544545000143, -22465.760703773583, 3537.2753187746193, 12944.386952446337, -45358.64089234363, -38948.741727917404, 151997.04790080167, -37083.1533769552, 4247.1667226751715, -676.1626215174939, -23464.660163481258, -15101.263237150102, -24254.771978231907, -15429.72212192084, -14511.11012829663, -13642.968373652504, 0.12, 0.9500000000000001, 0.326, 192.0, 1.5, 96.0, 14.5, 88.0, 5.0, 24.0, 0.0, 0.0, 0.0, 1.695338609489608E9, 0.0, 2023-09-21 18:23:29.489
214.0, -15317.382254288466, -22464.10667468389, 3538.1917402972867, 12946.353905958404, -45359.06557548828, -38944.830172637725, 152004.7369008943, -37080.270001920464, 4247.1667226751715, -678.0178163072844, -23461.64267797979, -15099.98918771615, -24258.214146878025, -15426.592877697096, -14511.288942252273, -13642.007248640926, 0.12, 0.9500000000000001, 0.326, 192.0, 0.0, 0.0, 0.0, 0.0, 0.0, 0.0, 0.0, 0.0, 0.0, 1.695338609489612E9, 0.0, 2023-09-21 18:23:29.489
216.0, -15314.208306575812, -22461.692686282717, 3530.4803884602056, 12944.476359424158, -45362.91007553459, -38947.53473371681, 151983.70390936185, -37084.91916476717, 4247.881978497741, -671.6252173930666, -23458.781654689512, -15095.18356265826, -24268.853577238748, -15424.62592418503, -14512.45123296395, -13642.096655618747, 0.12, 0.9500000000000001, 0.326, 192.0, 0.0, 0.0, 0.0, 0.0, 0.0, 0.0, 0.0, 0.0, 0.0, 1.695338609489616E9, 0.0, 2023-09-21 18:23:29.489
218.0, -15310.721434440786, -22459.68102928174, 3526.07709480251, 12933.345190685415, -45379.11509026469, -38958.71060594447, 151985.53675240718, -37101.168882986174, 4247.79257151992, -670.8429063371309, -23464.16842510324, -15098.111641181904, -24260.874004468205, -15431.085578332613, -14527.493956982371, -13656.84880695925, 0.12, 0.9500000000000001, 0.326, 192.0, 0.0, 0.0, 0.0, 0.0, 0.0, 0.0, 0.0, 0.0, 0.0, 1.69533860948962E9, 0.0, 2023-09-21 18:23:29.489
220.0, -15315.616466476496, -22456.372971102355, 3538.0129263416443, 12950.108999026896, -45363.87120054617, -38938.45992546796, 151979.74765059326, -37080.38176064274, 4245.266824396471, -656.2472172078153, -23457.731122700112, -15085.125277653371, -24259.734065500983, -15420.602610183074, -14520.855488879144, -13646.723466720996, 0.12, 0.9500000000000001, 0.326, 192.0, 0.0, 0.0, 0.0, 0.0, 0.0, 0.0, 0.0, 0.0, 0.0, 1.695338609489624E9, 0.0, 2023-09-21 18:23:29.489
222.0, -15316.488184510254, -22452.506119311587, 3553.1897608267977, 12959.317917742483, -45357.322139420765, -38930.346242230684, 152009.5425259522, -37072.379836127744, 4237.063734181373, -651.5757026166561, -23455.741817443588, -15078.464457805689, -24248.535841528876, -15408.666778643941, -14503.041148548264, -13630.98783862446, 0.114, 0.9460000000000001, 0.328, 192.0, 1.5, 72.0, 14.5, 72.0, 5.0, 32.0, 0.0, 0.0, 0.0, 1.695338609489628E9, 0.0, 2023-09-21 18:23:29.489
224.0, -15319.148042100436, -22454.137796656825, 3549.8817026474126, 12958.625013664367, -45352.24829342941, -38932.89434109859, 151987.25783673022, -37069.18353667063, 4240.8858824832305, -647.3288711701479, -23454.445416265182, -15079.447934561722, -24251.106292141234, -15404.487002430798, -14489.585398386169, -13628.79736766784, 0.114, 0.9460000000000001, 0.328, 192.0, 0.0, 0.0, 0.0, 0.0, 0.0, 0.0, 0.0, 0.0, 0.0, 1.695338609549534E9, 0.0, 2023-09-21 18:23:29.549
226.0, -15323.596039247042, -22455.411846090778, 3547.6912316907924, 12952.165359516783, -45360.607845855695, -38939.42105047954, 152005.09452880558, -37073.698589050604, 4236.035553936428, -653.8108770621869, -23464.25783208106, -15088.880370721863, -24260.13639690118, -15410.119642033535, -14494.972168799899, -13635.525242748887, 0.114, 0.9460000000000001, 0.328, 192.0, 0.0, 0.0, 0.0, 0.0, 0.0, 0.0, 0.0, 0.0, 0.0, 1.695338609549542E9, 0.0, 2023-09-21 18:23:29.549
228.0, -15321.494975268242, -22452.193194889212, 3535.0177925846333, 12961.240167765638, -45358.48443013244, -38931.66499515355, 151981.78165933868, -37064.10969067928, 4234.716801013566, -652.8497520506087, -23467.007096649064, -15090.5120480671, -24273.99447846347, -15405.738700120295, -14499.15194501304, -13635.771111937895, 0.114, 0.9460000000000001, 0.328, 192.0, 0.0, 0.0, 0.0, 0.0, 0.0, 0.0, 0.0, 0.0, 0.0, 1.695338609549546E9, 0.0, 2023-09-21 18:23:29.549
230.0, -15315.12472809848, -22445.755892486086, 3541.8350746435017, 12966.917510857285, -45353.343528907724, -38927.57462591823, 151997.9866740688, -37060.37694935524, 4237.466065581568, -647.1500572145054, -23465.8895094263, -15086.13110615386, -24258.817643978316, -15399.994301795281, -14499.10724152413, -13633.871213659193, 0.114, 0.9460000000000001, 0.328, 192.0, 0.0, 0.0, 0.0, 0.0, 0.0, 0.0, 0.0, 0.0, 0.0, 1.69533860954955E9, 0.0, 2023-09-21 18:23:29.549
232.0, -15309.760309429206, -22439.609162760873, 3543.1314758219096, 12974.22653129417, -45354.327005663756, -38927.485218940405, 151980.0158715267, -37061.80746100038, 4241.712897028076, -642.903225767997, -23458.334619800404, -15080.02907991756, -24269.680591783595, -15393.71346160334, -14497.520267667804, -13634.251193314934, 0.114, 0.9560000000000001, 0.326, 192.0, 1.5, 72.0, 14.5, 112.0, 5.0, 24.0, 0.0, 0.0, 0.0, 1.695338609549554E9, 0.0, 2023-09-21 18:23:29.549
