%OpenBCI Raw EXG Data
%Number of channels = 16
%Sample Rate = 125 Hz
%Board = OpenBCI_GUI$BoardCytonSerialDaisy
Sample Index, EXG Channel 0, EXG Channel 1, EXG Channel 2, EXG Channel 3, EXG Channel 4, EXG Channel 5, EXG Channel 6, EXG Channel 7, EXG Channel 8, EXG Channel 9, EXG Channel 10, EXG Channel 11, EXG Channel 12, EXG Channel 13, EXG Channel 14, EXG Channel 15, Accel Channel 0, Accel Channel 1, Accel Channel 2, Other, Other, Other, Other, Other, Other, Other, Analog Channel 0, Analog Channel 1, Analog Channel 2, Timestamp, Other, Timestamp (Formatted)
208.0, 26467.885251985223, 51477.34153000612, 39413.85917828789, 5038.932566515514, 55443.435066155806, 44371.02906358589, -120774.72308572807, 39604.921889891855, 36179.40529339377, 63911.16993560433, 52945.67232676415, 10876.33650020796, 65155.446845942366, -121975.57055658945, 68768.62868888721, 46615.278317365446, 0.0, 0.0, 0.0, 192.0, 0.0, 0.0, 0.0, 0.0, 0.0, 0.0, 0.0, 0.0, 0.0, 1.696029656511631E9, 0.0, 2023-09-29 18:20:56.511
210.0, 26424.545219486383, 51440.52820688823, 39644.104497922, 4992.664455493028, 55522.426131060856, 44433.79276201639, -120381.77941820378, 39674.413463403405, 36218.856122357385, 63931.55472654757, 52998.08716751185, 10914.334465781983, 65142.75105509175, -123091.92843340975, 68549.8274624142, 46413.12914051165, 0.0, 0.0, 0.0, 192.0, 0.0, 0.0, 0.0, 0.0, 0.0, 0.0, 0.0, 0.0, 0.0, 1.69602965651164E9, 0.0, 2023-09-29 18:20:56.511
212.0, 26455.882365212725, 51461.71766063186, 39412.6521840873, 5023.912194241548, 55430.51575786064, 44358.26621750191, -120653.9789621805, 39585.051189071084, 36165.8377845094, 63919.32832233052, 52972.78499278844, 10861.405534911817, 65187.63335795801, -121884.06251478942, 68827.68199773812, 46658.95362603112, 0.0, 0.0, 0.0, 192.0, 0.0, 0.0, 0.0, 0.0, 0.0, 0.0, 0.0, 0.0, 0.0, 1.69602965651165E9, 0.0, 2023-09-29 18:20:56.511
214.0, 26434.268228324443, 51444.66327961246, 39626.84895120251, 4988.84230719117, 55531.38918058744, 44430.21648290354, -120456.16602375104, 39668.35614065601, 36209.78131410853, 63903.995025634176, 52960.82680950485, 10898.82235513, 65106.78709826316, -123101.04794514751, 68532.25899127233, 46367.08454693372, 0.008, 1.018, -0.008, 192.0, 0.0, 32.0, 15.5, 104.0, 127.5, 96.0, 0.0, 0.0, 0.0, 1.696029656511656E9, 0.0, 2023-09-29 18:20:56.511
216.0, 26470.925089231147, 51473.966416593365, 39424.52096039307, 5028.874281510625, 55446.45255165727, 44368.99505484045, -120604.73806914546, 39596.83055839903, 36188.5918603649, 63934.125177159935, 53006.91610657169, 10867.954596037222, 65217.74115773931, -121882.05085778843, 68829.26897159446, 46660.026509764975, 0.008, 1.018, -0.008, 192.0, 0.0, 0.0, 0.0, 0.0, 0.0, 0.0, 0.0, 0.0, 0.0, 1.69602965651166E9, 0.0, 2023-09-29 18:20:56.511
218.0, 26451.56847853285, 51462.41056470997, 39627.072468647064, 5014.010371447846, 55529.51163405319, 44438.106648696266, -120581.51460665639, 39679.39790241694, 36215.92804383374, 63900.75402268816, 52951.84140823381, 10913.44039600377, 65096.12531615798, -123143.0692247235, 68498.64196761155, 46354.433459572014, 0.008, 1.018, -0.008, 192.0, 0.0, 0.0, 0.0, 0.0, 0.0, 0.0, 0.0, 0.0, 0.0, 1.696029656511663E9, 0.0, 2023-09-29 18:20:56.511
220.0, 26453.200155878087, 51463.505800188286, 39440.055422789505, 5002.387464331086, 55430.22518518272, 44363.65298791564, -120494.40985851406, 39595.40004675389, 36197.800779080484, 63952.61006982447, 53044.39998202324, 10874.235436229163, 65243.06568420717, -121902.79327664296, 68835.90743969768, 46695.00698983753, 0.008, 1.018, -0.008, 192.0, 0.0, 0.0, 0.0, 0.0, 0.0, 0.0, 0.0, 0.0, 0.0, 1.696029656511666E9, 0.0, 2023-09-29 18:20:56.511
222.0, 26448.081606397824, 51461.740012376315, 39602.15027357939, 5004.8461562211705, 55521.66617174938, 44424.00269794497, -120657.15290989315, 39665.78569004365, 36189.30711618747, 63876.88235960989, 52912.41293101465, 10899.112927807919, 65064.29643205362, -123078.38327626983, 68483.93451975996, 46350.521904292335, 0.008, 1.018, -0.008, 192.0, 0.0, 0.0, 0.0, 0.0, 0.0, 0.0, 0.0, 0.0, 0.0, 1.69602965651167E9, 0.0, 2023-09-29 18:20:56.511
224.0, 26461.29148737091, 51471.93240784793, 39463.48005097867, 5008.869470223126, 55449.157112736364, 44373.6218659427, -120426.63936932557, 39603.714895691264, 36208.507264674576, 63961.57311935105, 53070.23859861358, 10883.176134011286, 65255.56030935769, -121944.05459690746, 68828.7995849609, 46703.008914352526, 0.004, 1.016, -0.002, 192.0, 0.0, 16.0, 15.5, 96.0, 127.5, 120.0, 0.0, 0.0, 0.0, 1.696029656511674E9, 0.0, 2023-09-29 18:20:56.511
0.0, 13189.786754821152, 25673.906585443805, 19815.804936385746, 2507.821024396542, 27766.29808739401, 22241.192727231115, -61079.85211370613, 19818.196573042464, 18085.28817716696, 31921.241512446584, 26419.739594428494, 5449.109429014853, 32517.11666788062, -61350.397628593164, 34252.59551436848, 23190.31485203682, 0.004, 1.016, -0.002, 192.0, 0.0, 16.0, 15.5, 96.0, 127.5, 120.0, 0.0, 0.0, 0.0, 1.696029656598154E9, 0.0, 2023-09-29 18:20:56.598
2.0, 26420.320739784333, 51381.74311897077, 39422.66576560328, 5064.1453342611, 55476.44859271629, 44430.350593370276, -122784.41313319364, 39578.837404112506, 36165.81543276494, 63866.511150182625, 52900.87943087571, 10870.122715249387, 65179.072639831626, -122555.79949090476, 68887.24939671152, 46792.706464851675, 0.004, 1.016, -0.002, 192.0, 0.0, 0.0, 0.0, 0.0, 0.0, 0.0, 0.0, 0.0, 0.0, 1.696029656657724E9, 0.0, 2023-09-29 18:20:56.657
4.0, 26410.37421350172, 51378.99385440277, 39645.28914037814, 5048.365002675653, 55570.862361295505, 44515.15311183371, -122540.57795293069, 39663.88579176495, 36209.20016875269, 63875.20597877574, 52912.05530310337, 10918.134262339385, 65130.479947385786, -123727.99202537442, 68638.4968326684, 46543.64097638619, 0.004, 1.016, -0.002, 192.0, 0.0, 0.0, 0.0, 0.0, 0.0, 0.0, 0.0, 0.0, 0.0, 1.696029656657745E9, 0.0, 2023-09-29 18:20:56.657
6.0, 26444.684141240614, 51408.00641870576, 39443.85521934691, 5078.33869199022, 55486.1939532988, 44447.44967787858, -122755.221754935, 39583.01718032565, 36198.583090136424, 63904.2855983121, 52940.35261158379, 10891.803907371033, 65225.05017817619, -122549.80922339074, 68902.26976898548, 46809.336162726424, 0.004, 1.016, -0.002, 192.0, 0.0, 0.0, 0.0, 0.0, 0.0, 0.0, 0.0, 0.0, 0.0, 1.69602965665775E9, 0.0, 2023-09-29 18:20:56.657
8.0, 26425.99808287598, 51394.70713075485, 39658.744890540234, 5057.708031857972, 55575.44446890885, 44516.82949266786, -122646.01113152638, 39661.829431275066, 36220.666613658264, 63879.69867941126, 52908.68018969062, 10930.718294467724, 65120.17579319189, -123794.30965117332, 68595.02268970283, 46509.06282771383, 0.004, 1.016, -0.002, 192.0, 0.0, 0.0, 15.5, 112.0, 127.5, 120.0, 0.0, 0.0, 0.0, 1.696029656657754E9, 0.0, 2023-09-29 18:20:56.657
10.0, 26442.47131853954, 51406.82177624962, 39460.686082921755, 5063.653595883084, 55480.337796251515, 44450.37775640223, -122655.30945721979, 39580.223212268735, 36209.02135479705, 63921.36233107595, 52978.59644634682, 10896.855401617933, 65251.91697501147, -122546.0764820667, 68925.80615589692, 46834.90655838329, 0.004, 1.016, -0.002, 192.0, 0.0, 0.0, 0.0, 0.0, 0.0, 0.0, 0.0, 0.0, 0.0, 1.696029656657758E9, 0.0, 2023-09-29 18:20:56.657
12.0, 26432.301274812377, 51400.496232568774, 39627.31833783607, 5045.123999729633, 55561.7652013022, 44515.77896067846, -122724.57751328679, 39656.26384690569, 36207.21086349617, 63857.25752797813, 52872.98445379549, 10919.296553051061, 65090.44797306633, -123747.01335990589, 68600.85649500568, 46500.39035086517, 0.004, 1.016, -0.002, 192.0, 0.0, 0.0, 0.0, 0.0, 0.0, 0.0, 0.0, 0.0, 0.0, 1.696029656657767E9, 0.0, 2023-09-29 18:20:56.657
14.0, 26439.69970222708, 51408.27463963922, 39463.50240272313, 5048.499113142385, 55476.20272352728, 44457.35150067228, -122556.60415370515, 39583.30775300357, 36212.68704088772, 63934.885136471414, 52994.1085569988, 10895.626055672892, 65271.22888222086, -122567.13182534359, 68949.14137710826, 46832.336107770934, 0.004, 1.016, -0.002, 192.0, 0.0, 0.0, 0.0, 0.0, 0.0, 0.0, 0.0, 0.0, 0.0, 1.69602965665777E9, 0.0, 2023-09-29 18:20:56.657
16.0, 26438.71622547105, 51406.82177624962, 39591.01910484065, 5040.452485138475, 55550.745791285735, 44499.57394594836, -122815.16913356414, 39639.05300367511, 36200.08065701493, 63848.94267904075, 52839.03215396788, 10916.815509416523, 65070.107885612, -123691.96101331247, 68601.70586129498, 46480.74316748895, 0.004, 1.016, -0.002, 192.0, 0.0, 0.0, 0.0, 0.0, 0.0, 0.0, 0.0, 0.0, 0.0, 1.696029656717142E9, 0.0, 2023-09-29 18:20:56.717
18.0, 26442.18074586162, 51410.621572807024, 39481.607315731926, 5033.322278657231, 55481.589493941014, 44456.72565182754, -122477.2107573999, 39578.52447969013, 36221.73949739212, 63940.11544467395, 53006.84905133832, 10891.781555626578, 65271.74297234332, -122641.09374774621, 68936.44558625766, 46818.433322719735, 0.004, 1.016, -0.002, 192.0, 0.0, 0.0, 15.5, 120.0, 127.5, 104.0, 0.0, 0.0, 0.0, 1.696029656717153E9, 0.0, 2023-09-29 18:20:56.717
20.0, 26450.517946543452, 51417.975296732824, 39577.11631978945, 5051.091915499201, 55545.82840750556, 44502.03263783844, -122879.78802678443, 39628.79355297012, 36199.58891863691, 63846.46163540622, 52829.510310829915, 10917.620172216913, 65066.9562896438, -123592.76397141982, 68606.71265205296, 46486.8228419808, 0.004, 1.016, -0.002, 192.0, 0.0, 0.0, 0.0, 0.0, 0.0, 0.0, 0.0, 0.0, 0.0, 1.696029656717157E9, 0.0, 2023-09-29 18:20:56.717
22.0, 26450.875574454734, 51418.62349732203, 39514.374973103404, 5041.681831083516, 55493.70413943579, 44472.88596306872, -122397.50443667227, 39586.07936931603, 36234.27882603155, 63955.94047974831, 53025.892737614246, 10906.10902382243, 65282.13653351505, -122728.10908891071, 68931.95288562213, 46812.08542729443, 0.004, 1.016, -0.002, 192.0, 0.0, 0.0, 0.0, 0.0, 0.0, 0.0, 0.0, 0.0, 0.0, 1.69602965671716E9, 0.0, 2023-09-29 18:20:56.717
24.0, 26454.742426245502, 51422.40094213498, 39554.94338928979, 5056.6798516130275, 55541.89450048143, 44495.99766683551, -122941.30002752543, 39628.57003552557, 36203.36636344986, 63852.943641298254, 52825.55405206133, 10921.26350656313, 65073.88533042495, -123460.08401633312, 68636.1498995006, 46510.560394592336, 0.004, 1.016, -0.002, 192.0, 0.0, 0.0, 0.0, 0.0, 0.0, 0.0, 0.0, 0.0, 0.0, 1.696029656717163E9, 0.0, 2023-09-29 18:20:56.717
26.0, 26450.316780843354, 51421.79744503468, 39543.96868276223, 5036.250357180877, 55517.262878091686, 44483.86066959628, -122354.14205242897, 39605.45833175878, 36240.71612843467, 63959.51675886116, 53037.49329298655, 10908.143032567863, 65283.74585911583, -122856.85513697329, 68913.2668272575, 46788.32552293844, 0.004, 1.016, -0.002, 192.0, 0.0, 0.0, 0.0, 0.0, 0.0, 0.0, 0.0, 0.0, 0.0, 1.696029656717166E9, 0.0, 2023-09-29 18:20:56.717
28.0, 26473.406132865686, 51440.46115165486, 39532.07755471201, 5068.749793618893, 55551.75161978622, 44496.31059125788, -123009.47284811412, 39628.681794247845, 36210.07188678645, 63860.31971696851, 52831.52196783089, 10920.749416440656, 65090.33621434405, -123328.78986940264, 68660.28978351233, 46532.04042101389, 0.002, 1.024, -0.004, 192.0, 0.0, 8.0, 16.0, 0.0, 127.5, 112.0, 0.0, 0.0, 0.0, 1.69602965671717E9, 0.0, 2023-09-29 18:20:56.717
30.0, 26449.288600598407, 51423.02679097972, 39564.62169463893, 5040.564243860751, 55525.82359621806, 44483.41363470717, -122326.20237185984, 39608.65463121589, 36252.763718696086, 63959.56146235007, 53046.232825068575, 10917.955448383744, 65285.48929518334, -123022.57097036493, 68878.19694020713, 46761.4363743587, 0.002, 1.024, -0.004, 192.0, 0.0, 0.0, 0.0, 0.0, 0.0, 0.0, 0.0, 0.0, 0.0, 1.696029656717173E9, 0.0, 2023-09-29 18:20:56.717
32.0, 26481.743333547514, 51448.41837268095, 39493.23022284868, 5076.416441967063, 55526.85177646301, 44470.874306067744, -123005.89656900127, 39608.87814866044, 36201.04178202651, 63862.42078094731, 52839.25567141243, 10915.92143963831, 65091.364394589, -123155.5191463851, 68709.30715910283, 46588.97031414155, 0.002, 1.024, -0.004, 192.0, 0.0, 0.0, 0.0, 0.0, 0.0, 0.0, 0.0, 0.0, 0.0, 1.696029656776966E9, 0.0, 2023-09-29 18:20:56.776
34.0, 26449.780338976427, 51427.050104981674, 39589.387427495414, 5039.580767104718, 55536.48537832325, 44496.265887768976, -122287.42209522988, 39616.32127956406, 36263.738425223644, 63965.70819207528, 53053.87712167229, 10933.244041591173, 65270.17835023146, -123159.45305340923, 68850.57018406036, 46740.693955504175, 0.002, 1.024, -0.004, 192.0, 0.0, 0.0, 0.0, 0.0, 0.0, 0.0, 0.0, 0.0, 0.0, 1.696029656776976E9, 0.0, 2023-09-29 18:20:56.776
36.0, 26485.878406271746, 51454.49804717279, 39464.44117599025, 5079.970369335458, 55517.93343042534, 44474.651750880694, -123010.50102835907, 39589.78975889561, 36198.381924436326, 63867.15935077183, 52852.80082855235, 10914.401521015348, 65112.710310543815, -122979.34269658837, 68761.36437193923, 46633.13736118524, 0.002, 1.024, -0.004, 192.0, 0.0, 0.0, 0.0, 0.0, 0.0, 0.0, 0.0, 0.0, 0.0, 1.69602965677698E9, 0.0, 2023-09-29 18:20:56.776
38.0, 26448.416882564652, 51426.446607881386, 39615.76248595268, 5031.355325145165, 55548.26474765119, 44504.96071636209, -122307.49396175075, 39621.10455287749, 36261.927933922765, 63958.95796524978, 53035.034601096464, 10932.729951468702, 65249.458283121385, -123319.62565417596, 68809.80060217388, 46691.18484153567, 0.002, 1.022, -0.01, 192.0, 0.0, 8.0, 15.5, 120.0, 127.5, 88.0, 0.0, 0.0, 0.0, 1.696029656776983E9, 0.0, 2023-09-29 18:20:56.776
40.0, 26489.879368529248, 51460.86829434256, 39448.884361849356, 5071.029671553334, 55516.972305413765, 44463.76645133096, -122970.35729531734, 39581.3407994915, 36202.11466576036, 63891.612159205935, 52867.41886942612, 10913.999189615153, 65139.1747759789, -122829.20602908207, 68813.0863086088, 46685.395739721745, 0.002, 1.022, -0.01, 192.0, 0.0, 0.0, 0.0, 0.0, 0.0, 0.0, 0.0, 0.0, 0.0, 1.696029656776987E9, 0.0, 2023-09-29 18:20:56.776
42.0, 26456.95524894658, 51438.807122565166, 39630.31347159308, 5024.582746575206, 55564.60387284802, 44513.63319321075, -122348.19648840386, 39636.08022166255, 36256.78703269804, 63958.98031699423, 53015.610935164805, 10944.375210329916, 65231.01809394576, -123453.55730695216, 68774.10486627875, 46658.193666719635, 0.002, 1.022, -0.01, 192.0, 0.0, 0.0, 0.0, 0.0, 0.0, 0.0, 0.0, 0.0, 0.0, 1.69602965677699E9, 0.0, 2023-09-29 18:20:56.776
44.0, 26497.34485117732, 51468.55729443518, 39439.787201856045, 5081.892619358614, 55513.70895072329, 44462.626512363735, -122949.48076599608, 39582.123110547436, 36209.624851897344, 63903.65974946735, 52893.79392788338, 10919.385960028883, 65163.046439057165, -122703.34335605423, 68853.23004165055, 46732.33440307789, 0.002, 1.022, -0.01, 192.0, 0.0, 0.0, 0.0, 0.0, 0.0, 0.0, 0.0, 0.0, 0.0, 1.696029656776994E9, 0.0, 2023-09-29 18:20:56.776
46.0, 26458.028132680432, 51439.27650919873, 39643.858628732996, 5032.830540279215, 55569.94593977284, 44518.26000431299, -122415.85521887009, 39638.00247168571, 36254.03776813004, 63942.35061911948, 52995.67317911067, 10945.805721975055, 65194.316529550146, -123585.67846842749, 68734.72109254851, 46619.16752090067, 0.002, 1.022, -0.01, 192.0, 0.0, 0.0, 0.0, 0.0, 0.0, 0.0, 0.0, 0.0, 0.0, 1.69602965683718E9, 0.0, 2023-09-29 18:20:56.837
48.0, 26498.395383166717, 51470.837172369625, 39431.829980829956, 5071.029671553334, 55497.86156390447, 44456.50213438298, -122891.76856181248, 39577.87627910093, 36214.78810486652, 63925.31858984454, 52923.32058230884, 10922.023465874609, 65187.99098586929, -122604.95097696198, 68893.93256830366, 46779.80950830096, 0.004, 1.022, -0.006, 192.0, 0.0, 16.0, 15.5, 120.0, 127.5, 104.0, 0.0, 0.0, 0.0, 1.696029656837192E9, 0.0, 2023-09-29 18:20:56.837
50.0, 26465.068932183854, 51445.80321857968, 39645.043271189126, 5034.28340366881, 55566.97315776029, 44520.942213647635, -122503.47405713488, 39646.89846597892, 36248.002797127105, 63936.5391655611, 52968.71697529757, 10950.857216221955, 65165.52748269171, -123679.60049862869, 68686.75424894741, 46579.26965704795, 0.004, 1.022, -0.006, 192.0, 0.0, 0.0, 0.0, 0.0, 0.0, 0.0, 0.0, 0.0, 0.0, 1.696029656837196E9, 0.0, 2023-09-29 18:20:56.837
52.0, 26497.389554666228, 51469.80899212468, 39435.65212913181, 5060.636110381617, 55496.25223830369, 44455.40689890467, -122814.09624983028, 39573.11535753195, 36223.818209626465, 63937.88027022842, 52956.87055073626, 10923.811605431034, 65211.86264894756, -122550.09979606865, 68910.5622661784, 46808.017409803564, 0.004, 1.022, -0.006, 192.0, 0.0, 0.0, 0.0, 0.0, 0.0, 0.0, 0.0, 0.0, 0.0, 1.696029656837199E9, 0.0, 2023-09-29 18:20:56.837
54.0, 26472.690877043115, 51450.497084915296, 39642.517524065675, 5030.036572222301, 55566.63788159346, 44525.412562538695, -122591.3387645887, 39646.87611423447, 36252.29433206253, 63921.675255498325, 52950.030916932934, 10950.767809244135, 65144.76271209273, -123736.46333652298, 68644.24123099342, 46543.81979034183, 0.004, 1.022, -0.006, 192.0, 0.0, 0.0, 0.0, 0.0, 0.0, 0.0, 0.0, 0.0, 0.0, 1.696029656837202E9, 0.0, 2023-09-29 18:20:56.837
56.0, 26491.846322041314, 51461.76236412077, 39435.22744598716, 5043.492322384396, 55489.9490463673, 44450.98125350252, -122712.99930965893, 39568.421491196335, 36222.208884025684, 63946.19511916579, 52983.91616152718, 10917.821337917012, 65242.73040804034, -122505.77628681378, 68939.53012699248, 46837.92404388476, 0.004, 1.022, -0.006, 192.0, 0.0, 0.0, 0.0, 0.0, 0.0, 0.0, 0.0, 0.0, 0.0, 1.696029656837205E9, 0.0, 2023-09-29 18:20:56.837
58.0, 26473.830816010337, 51451.65937562697, 39629.441753559324, 5029.298964655276, 55580.7194806003, 44524.42908578266, -122675.29191676283, 39652.82167825958, 36243.08541334694, 63903.2350663227, 52916.52565199443, 10945.828073719511, 65125.49550837225, -123743.72765347097, 68621.82243130475, 46521.51274937543, 0.002, 1.022, -0.012, 192.0, 0.0, 8.0, 15.5, 120.0, 127.5, 80.0, 0.0, 0.0, 0.0, 1.696029656837208E9, 0.0, 2023-09-29 18:20:56.837
60.0, 26488.493560373015, 51464.4445734554, 39452.61710317339, 5042.262976439354, 55493.7488429247, 44457.01622450545, -122624.53110510482, 39578.52447969013, 36231.440154485725, 63964.05416298559, 53005.552650159916, 10919.676532706802, 65270.11129499809, -122519.25438872034, 68952.65060098775, 46858.912331928295, 0.002, 1.022, -0.012, 192.0, 0.0, 0.0, 0.0, 0.0, 0.0, 0.0, 0.0, 0.0, 0.0, 1.696029656837212E9, 0.0, 2023-09-29 18:20:56.837
62.0, 26481.743333547514, 51458.85663734158, 39615.62837548595, 5038.552586859773, 55578.17138173239, 44515.46603625608, -122748.2703624094, 39642.49517232122, 36233.40710799779, 63901.84925816647, 52885.70259639056, 10948.040896420587, 65095.63357777996, -123706.37788848614, 68622.4482801495, 46526.22896745551, 0.002, 1.022, -0.012, 192.0, 0.0, 0.0, 0.0, 0.0, 0.0, 0.0, 0.0, 0.0, 0.0, 1.696029656897542E9, 0.0, 2023-09-29 18:20:56.897
64.0, 26478.77055153496, 51454.16277100596, 39457.42272823128, 5028.226080921421, 55486.43982248782, 44440.610044075256, -122517.48860090836, 39556.26214221265, 36235.441116743226, 63966.691668831314, 53026.98797309255, 10919.83299491799, 65280.30369046971, -122545.49533671085, 68971.91780470822, 46869.41765182229, 0.002, 1.022, -0.012, 192.0, 0.0, 0.0, 0.0, 0.0, 0.0, 0.0, 0.0, 0.0, 0.0, 1.696029656897552E9, 0.0, 2023-09-29 18:20:56.897
66.0, 26479.485807357527, 51455.54857916219, 39583.866546614954, 5035.378639147119, 55569.543608372645, 44500.75858840449, -122834.25752332897, 39628.01124191419, 36216.911520589776, 63874.133095041885, 52856.13123847619, 10941.201262617262, 65079.3615078165, -123626.80567822525, 68624.21406796147, 46519.94812726357, 0.002, 1.022, -0.012, 192.0, 0.0, 0.0, 0.0, 0.0, 0.0, 0.0, 0.0, 0.0, 0.0, 1.696029656897555E9, 0.0, 2023-09-29 18:20:56.897
68.0, 26472.17678692064, 51445.46794241285, 39480.91441165381, 5019.821825006226, 55502.421319773355, 44454.42342214864, -122467.24187937283, 39571.282514486615, 36245.432346514746, 63975.364145679974, 53042.388325022264, 10919.967105384721, 65287.411545206494, -122645.67585535954, 68957.45622604564, 46855.917198171286, 0.002, 1.024, -0.01, 192.0, 0.0, 8.0, 16.0, 0.0, 127.5, 88.0, 0.0, 0.0, 0.0, 1.696029656897558E9, 0.0, 2023-09-29 18:20:56.897
70.0, 26475.127217188743, 51446.83139882462, 39543.14166821738, 5030.103627455667, 55551.81867501959, 44493.22605052305, -122935.51092571151, 39621.30571857759, 36202.62875588283, 63857.54810065605, 52835.03119171038, 10926.762035699134, 65068.319746055575, -123547.99342727584, 68628.14797498561, 46520.618679597224, 0.002, 1.024, -0.01, 192.0, 0.0, 0.0, 0.0, 0.0, 0.0, 0.0, 0.0, 0.0, 0.0, 1.696029656897561E9, 0.0, 2023-09-29 18:20:56.897
72.0, 26465.784188006426, 51441.84695981109, 39502.19327237526, 5001.806318975248, 55506.31052330858, 44459.899599540186, -122400.41016345147, 39581.921944847345, 36238.59271271142, 63959.47205537225, 53044.51174074552, 10910.489965735671, 65292.55244643122, -122764.92241202861, 68941.94411539366, 46831.82201764846, 0.002, 1.024, -0.01, 192.0, 0.0, 0.0, 0.0, 0.0, 0.0, 0.0, 0.0, 0.0, 0.0, 1.696029656897565E9, 0.0, 2023-09-29 18:20:56.897
74.0, 26485.453723127095, 51461.6953088874, 39530.803505278054, 5038.887863026603, 55550.16464592989, 44485.827623108344, -123008.31055740245, 39618.489398776226, 36209.71425887517, 63858.486873923175, 52838.540415589865, 10925.666800220824, 65084.65887125241, -123411.5807308651, 68657.58522243323, 46540.0870490178, 0.002, 1.024, -0.01, 192.0, 0.0, 0.0, 0.0, 0.0, 0.0, 0.0, 0.0, 0.0, 0.0, 1.696029656897568E9, 0.0, 2023-09-29 18:20:56.897
76.0, 26459.771568747947, 51440.975241777334, 39536.34673790297, 4998.542964284774, 55517.28522983614, 44465.93457054312, -122394.53165465972, 39591.130863562925, 36256.16118385329, 63965.775247308644, 53064.58360726638, 10919.654180962347, 65298.54271394524, -122932.56049544341, 68904.81786785339, 46799.143767254805, 0.002, 1.024, -0.01, 192.0, 0.0, 0.0, 0.0, 0.0, 0.0, 0.0, 0.0, 0.0, 0.0, 1.696029656957803E9, 0.0, 2023-09-29 18:20:56.957
78.0, 26484.559653348882, 51459.95187281989, 39498.81815896251, 5029.187205933, 55530.405703831406, 44470.00258803399, -123046.73320612112, 39598.81986365555, 36201.4441134267, 63858.062190778524, 52841.200273180046, 10915.005018115642, 65096.30413011362, -123283.37112466946, 68680.22753956646, 46575.82748840183, 0.002, 1.022, -0.008, 192.0, 0.0, 8.0, 15.5, 120.0, 127.5, 96.0, 0.0, 0.0, 0.0, 1.696029656957829E9, 0.0, 2023-09-29 18:20:56.957
80.0, 26458.698685014093, 51443.65745111197, 39561.134822503904, 4991.591571759173, 55507.22694483125, 44470.65078862319, -122332.17028762941, 39590.52736646264, 36253.83660242994, 63962.95892750728, 53065.880008444794, 10918.603648972947, 65286.47277193938, -123061.35124699489, 68868.36217264678, 46784.12339498084, 0.002, 1.022, -0.008, 192.0, 0.0, 0.0, 0.0, 0.0, 0.0, 0.0, 0.0, 0.0, 0.0, 1.696029656957835E9, 0.0, 2023-09-29 18:20:56.957
82.0, 26501.278758201453, 51477.49799221731, 39473.15835632782, 5046.353345674675, 55515.54179376862, 44461.46422165206, -123040.20649674017, 39585.98996233821, 36193.95627903417, 63862.26431873612, 52853.225511697, 10920.01180887363, 65089.240978865746, -123093.67186947727, 68716.43736558406, 46625.51541632598, 0.002, 1.022, -0.008, 192.0, 0.0, 0.0, 0.0, 0.0, 0.0, 0.0, 0.0, 0.0, 0.0, 1.696029656957838E9, 0.0, 2023-09-29 18:20:56.957
84.0, 26470.880385742235, 51455.459172184375, 39588.627468183935, 5007.193089388978, 55531.50093930971, 44495.17065229066, -122325.46476429282, 39608.207596326785, 36277.9094312083, 63963.13774146292, 53071.78086898099, 10937.06618989303, 65263.092847239124, -123213.61133022445, 68830.96770417306, 46746.46070557365, 0.002, 1.022, -0.008, 192.0, 0.0, 0.0, 0.0, 0.0, 0.0, 0.0, 0.0, 0.0, 0.0, 1.696029656957842E9, 0.0, 2023-09-29 18:20:56.957
86.0, 26500.2058744676, 51479.68846317392, 39445.97863507016, 5046.576863119229, 55505.23763957473, 44466.91804729916, -123022.05688024247, 39584.425340226335, 36212.86585484337, 63884.37019400242, 52876.359567208245, 10919.765939684623, 65124.17675544939, -122926.2126000181, 68766.32645920831, 46679.56193441891, 0.002, 1.022, -0.008, 192.0, 0.0, 0.0, 0.0, 0.0, 0.0, 0.0, 0.0, 0.0, 0.0, 1.696029656957846E9, 0.0, 2023-09-29 18:20:56.957
88.0, 26472.601470065292, 51459.214265252864, 39612.78970394012, 5010.143519657078, 55544.28613713815, 44511.42037050967, -122366.41316013494, 39629.21823611477, 36267.06883514748, 63968.52451187665, 53050.39024953726, 10942.520015540125, 65249.5029866103, -123374.25331762474, 68774.5295494234, 46700.639629440266, 0.006, 1.022, -0.01, 192.0, 0.0, 24.0, 15.5, 120.0, 127.5, 88.0, 0.0, 0.0, 0.0, 1.696029656957849E9, 0.0, 2023-09-29 18:20:56.957
90.0, 26505.637348370237, 51483.979998109346, 39436.52384716557, 5043.335860173209, 55503.628313973946, 44470.06964326735, -123005.71775504563, 39587.53223270562, 36213.78227636603, 63898.74236568718, 52903.963971610545, 10923.20810833074, 65153.681058130394, -122798.51708394494, 68811.67814870813, 46725.78534195248, 0.006, 1.022, -0.01, 192.0, 0.0, 0.0, 0.0, 0.0, 0.0, 0.0, 0.0, 0.0, 0.0, 1.696029656957854E9, 0.0, 2023-09-29 18:20:56.957
92.0, 26474.993106722013, 51463.52815193274, 39625.73136397974, 5010.679961524005, 55558.1665704449, 44524.04910612692, -122406.35572747658, 39640.95290195381, 36272.85793696141, 63964.36708740796, 53035.41458075221, 10952.958280200754, 65224.2455153758, -123512.81178150319, 68742.2759821744, 46665.77090808999, 0.006, 1.022, -0.01, 192.0, 0.0, 0.0, 0.0, 0.0, 0.0, 0.0, 0.0, 0.0, 0.0, 1.69602965701735E9, 0.0, 2023-09-29 18:20:57.017
94.0, 26509.303034460907, 51488.2044778114, 39415.58026261094, 5037.636165337106, 55491.22309580125, 44464.41465192016, -122954.33109454288, 39583.30775300357, 36214.63164265533, 63912.48868852719, 52926.0921986213, 10919.49771875116, 65173.954090351355, -122668.54168993732, 68857.54392833041, 46775.56267685445, 0.006, 1.022, -0.01, 192.0, 0.0, 0.0, 0.0, 0.0, 0.0, 0.0, 0.0, 0.0, 0.0, 1.69602965701736E9, 0.0, 2023-09-29 18:20:57.017
96.0, 26475.306031144388, 51461.51649493176, 39632.459239060794, 5006.410778333042, 55565.408535648414, 44529.63704224075, -122469.74527475183, 39650.25122764721, 36261.36914031138, 63948.40794186687, 53004.54682165943, 10953.159445900852, 65192.640148716, -123625.59868402466, 68709.64243526965, 46625.78363725945, 0.006, 1.022, -0.01, 192.0, 0.0, 0.0, 0.0, 0.0, 0.0, 0.0, 0.0, 0.0, 0.0, 1.696029657017363E9, 0.0, 2023-09-29 18:20:57.017
98.0, 26502.709269846593, 51481.0519195857, 39416.04964924451, 5029.589537333195, 55491.13368882343, 44455.630416349224, -122860.20789864159, 39575.93167733332, 36225.69575616071, 63923.70926424376, 52951.10380066679, 10915.11677683792, 65199.90446566397, -122561.18626131848, 68922.7216151621, 46816.17579652975, 0.004, 1.026, -0.004, 192.0, 0.0, 16.0, 16.0, 8.0, 127.5, 112.0, 0.0, 0.0, 0.0, 1.696029657017366E9, 0.0, 2023-09-29 18:20:57.017
100.0, 26477.630612567737, 51467.10443104558, 39632.57099778307, 5004.8461562211705, 55578.03727126566, 44529.72644921857, -122549.76451990183, 39662.54468709764, 36260.2068495997, 63934.46045332676, 52972.8520480218, 10952.175969144819, 65162.19707276786, -123678.5946701282, 68688.05065012582, 46581.75070068249, 0.004, 1.026, -0.004, 192.0, 0.0, 0.0, 0.0, 0.0, 0.0, 0.0, 0.0, 0.0, 0.0, 1.696029657017369E9, 0.0, 2023-09-29 18:20:57.017
102.0, 26504.206836725098, 51486.081062088146, 39428.72308835066, 5033.1881681905, 55493.88295339143, 44455.80923030487, -122801.64632816867, 39584.96178209326, 36229.40614574029, 63944.541090076105, 52977.523562612965, 10922.738721697178, 65226.97242819935, -122516.99686253034, 68937.51846999151, 46829.36332575838, 0.004, 1.026, -0.004, 192.0, 0.0, 0.0, 0.0, 0.0, 0.0, 0.0, 0.0, 0.0, 0.0, 1.696029657017373E9, 0.0, 2023-09-29 18:20:57.017
104.0, 26482.3021271589, 51468.13261129053, 39639.164762397384, 5015.843214493181, 55577.634939865464, 44527.44657128413, -122637.96450352247, 39666.500945866224, 36264.788957213044, 63916.22142985123, 52951.640242533715, 10952.667707522834, 65137.118415489014, -123735.99394988942, 68647.81751010627, 46545.093839775785, 0.004, 1.026, -0.004, 192.0, 0.0, 0.0, 0.0, 0.0, 0.0, 0.0, 0.0, 0.0, 0.0, 1.696029657017376E9, 0.0, 2023-09-29 18:20:57.017
106.0, 26501.591682623828, 51483.51061147578, 39445.241027503136, 5036.6079850921615, 55485.18812479832, 44453.819925048345, -122703.18689384306, 39586.50405246068, 36240.671424945765, 63953.772360536146, 53013.12989153027, 10922.604611230447, 65244.87617550805, -122492.18642618496, 68964.36291508233, 46852.340919058435, 0.004, 1.026, -0.004, 192.0, 0.0, 0.0, 0.0, 0.0, 0.0, 0.0, 0.0, 0.0, 0.0, 1.696029657077622E9, 0.0, 2023-09-29 18:20:57.077
108.0, 26490.57227260736, 51475.10635556059, 39643.299835121616, 5045.861607296659, 55574.32688168608, 44533.43683879815, -122726.1197836542, 39669.026692989675, 36249.478012261156, 63912.108708871456, 52936.262242348464, 10959.26147213715, 65109.37990061998, -123726.49445849592, 68628.88558255263, 46524.79845581036, 0.002, 1.026, 0.0, 192.0, 0.0, 8.0, 16.0, 8.0, 0.0, 0.0, 0.0, 0.0, 0.0, 1.696029657077635E9, 0.0, 2023-09-29 18:20:57.077
110.0, 26505.52558964796, 51484.583495209634, 39487.30701056802, 5068.258055240876, 55493.41356675787, 44479.055044538385, -122629.94022726301, 39605.547738736605, 36257.63639898734, 63979.92390154886, 53055.397040295255, 10939.591937016481, 65269.172521730965, -122520.03669977626, 68961.50189179205, 46861.4604307962, 0.002, 1.026, 0.0, 192.0, 0.0, 0.0, 0.0, 0.0, 0.0, 0.0, 0.0, 0.0, 0.0, 1.696029657077639E9, 0.0, 2023-09-29 18:20:57.077
112.0, 26496.271967443463, 51480.403718996495, 39649.82654450256, 5077.019939067357, 55579.110154999515, 44541.282301101965, -122830.1895058381, 39684.20352747483, 36250.97557913966, 63908.06304312505, 52919.74430319599, 10966.056402451564, 65099.79100224865, -123700.40997271657, 68611.13829745511, 46515.388371394685, 0.002, 1.026, 0.0, 192.0, 0.0, 0.0, 0.0, 0.0, 0.0, 0.0, 0.0, 0.0, 0.0, 1.696029657077642E9, 0.0, 2023-09-29 18:20:57.077
114.0, 26504.72092684757, 51484.78466090973, 39533.82099077952, 5081.646750169605, 55509.193898343314, 44495.9529633466, -122556.91707812752, 39624.16674186787, 36266.666503747285, 63998.989939569234, 53086.421261599215, 10948.242062120684, 65298.5650656897, -122586.9801744199, 68963.31238309293, 46880.14648916084, 0.002, 1.026, 0.0, 192.0, 0.0, 0.0, 0.0, 0.0, 0.0, 0.0, 0.0, 0.0, 0.0, 1.696029657077645E9, 0.0, 2023-09-29 18:20:57.077
116.0, 26509.235979227542, 51485.61167545458, 39653.626341059964, 5104.222012069466, 55579.55718988863, 44553.73222276357, -122951.4700712526, 39683.10829199652, 36250.32737855046, 63916.82492695152, 52913.17289032613, 10973.611292077458, 65087.1622666314, -123640.21672489843, 68605.55036134129, 46530.07346750182, 0.002, 1.026, 0.0, 192.0, 0.0, 0.0, 0.0, 0.0, 0.0, 0.0, 0.0, 0.0, 0.0, 1.696029657077648E9, 0.0, 2023-09-29 18:20:57.077
118.0, 26499.24474945602, 51475.35222474959, 39572.35539822047, 5086.38531999413, 55519.98979091523, 44507.33000127435, -122523.1212405111, 39627.005413413695, 36277.84237597494, 64020.045282846135, 53103.94502925218, 10955.21580639074, 65292.2618737533, -122722.5658562858, 68941.05004561544, 46868.43417506626, 0.004, 1.024, -0.002, 192.0, 0.0, 16.0, 16.0, 0.0, 127.5, 120.0, 0.0, 0.0, 0.0, 1.696029657077651E9, 0.0, 2023-09-29 18:20:57.077
120.0, 26517.81904909838, 51489.90321039, 39638.98594844174, 5116.716637219982, 55573.07518399658, 44538.35422257832, -123041.61465664086, 39664.46693712079, 36244.448869758715, 63910.65584548186, 52899.985361097504, 10969.967957731242, 65077.39455430443, -123545.46768015239, 68627.79034707432, 46554.369813724734, 0.004, 1.024, -0.002, 192.0, 0.0, 0.0, 0.0, 0.0, 0.0, 0.0, 0.0, 0.0, 0.0, 1.696029657077655E9, 0.0, 2023-09-29 18:20:57.077
122.0, 26500.250577956507, 51477.16271605047, 39608.81109342707, 5095.3036660317985, 55524.97422992876, 44509.56517571988, -122479.89296673454, 39628.57003552557, 36288.70532378022, 64026.99667537173, 53118.1383869813, 10961.11666692694, 65292.86537085359, -122863.11362542077, 68919.30179826044, 46856.45364003821, 0.004, 1.024, -0.002, 192.0, 0.0, 0.0, 0.0, 0.0, 0.0, 0.0, 0.0, 0.0, 0.0, 1.696029657137977E9, 0.0, 2023-09-29 18:20:57.137
124.0, 26519.562485165894, 51495.20057382591, 39604.296041047106, 5129.770055981881, 55562.77102980269, 44531.87221668628, -123111.9108929528, 39663.55051559812, 36234.63645394283, 63910.29821757058, 52902.354646009764, 10967.8892454969, 65076.724001970775, -123414.84408555557, 68649.82916710725, 46586.824546673844, 0.004, 1.024, -0.002, 192.0, 0.0, 0.0, 0.0, 0.0, 0.0, 0.0, 0.0, 0.0, 0.0, 1.696029657137986E9, 0.0, 2023-09-29 18:20:57.137
126.0, 26497.389554666228, 51476.64862592801, 39641.22112288727, 5107.015980126379, 55546.051924950116, 44525.03258288295, -122456.02130365626, 39646.69730027882, 36294.40501861632, 64020.112338079496, 53119.72536083763, 10970.146771686885, 65291.45721095291, -123024.49322038809, 68874.79947504992, 46828.06692457997, 0.004, 1.024, -0.002, 192.0, 0.0, 0.0, 0.0, 0.0, 0.0, 0.0, 0.0, 0.0, 0.0, 1.69602965713799E9, 0.0, 2023-09-29 18:20:57.137
128.0, 26519.29426423243, 51491.49018424633, 39576.64693315589, 5131.044105415834, 55551.59515757504, 44522.32802180386, -123141.77282354509, 39643.12102116597, 36229.49555271811, 63910.566438504036, 52903.56164021035, 10959.462637837249, 65092.88431321196, -123259.96884822474, 68677.67944069856, 46626.878872737754, 0.002, 1.022, 0.002, 192.0, 0.0, 8.0, 15.5, 120.0, 0.0, 8.0, 0.0, 0.0, 0.0, 1.696029657137993E9, 0.0, 2023-09-29 18:20:57.137
130.0, 26485.207853938085, 51463.66226239947, 39658.29785565112, 5088.307570017287, 55544.66611679389, 44523.04327762643, -122442.87847791654, 39645.110326422495, 36284.97258245618, 64009.71877690778, 53108.21421244314, 10961.384887860404, 65273.15113224401, -123182.07301879801, 68835.30394259738, 46792.013560773565, 0.002, 1.022, 0.002, 192.0, 0.0, 0.0, 0.0, 0.0, 0.0, 0.0, 0.0, 0.0, 0.0, 1.696029657137996E9, 0.0, 2023-09-29 18:20:57.137
132.0, 26512.34287170683, 51484.96347486538, 39555.25631371216, 5128.093675147734, 55528.12582589696, 44492.10846330028, -123149.43947189326, 39622.244491844715, 36219.43726771323, 63905.60435123496, 52902.80168089887, 10943.190567873784, 65102.294397627644, -123111.59796853042, 68711.3188161038, 46647.576588103366, 0.002, 1.022, 0.002, 192.0, 0.0, 0.0, 0.0, 0.0, 0.0, 0.0, 0.0, 0.0, 0.0, 1.696029657138E9, 0.0, 2023-09-29 18:20:57.138
134.0, 26478.14470269021, 51457.962567563365, 39683.04123676315, 5079.188058279522, 55547.28127089516, 44517.27652755696, -122424.84062014111, 39641.757564754196, 36279.1611288978, 63988.5516749086, 53087.67295928871, 10948.912614454344, 65251.425236633455, -123319.46919196477, 68802.51393348144, 46733.45199030066, 0.002, 1.022, 0.002, 192.0, 0.0, 0.0, 0.0, 0.0, 0.0, 0.0, 0.0, 0.0, 0.0, 1.696029657138003E9, 0.0, 2023-09-29 18:20:57.138
136.0, 26507.224322226564, 51480.67193992996, 39526.91430174283, 5123.846843701225, 55509.79739544361, 44473.06477702437, -123096.04115438953, 39608.833445171535, 36214.810456610976, 63895.41195576334, 52910.20010831358, 10929.69011422278, 65124.28851417167, -122915.84139059084, 68775.31186047934, 46690.89426885775, 0.002, 1.022, 0.002, 192.0, 0.0, 0.0, 0.0, 0.0, 0.0, 0.0, 0.0, 0.0, 0.0, 1.696029657197468E9, 0.0, 2023-09-29 18:20:57.197
138.0, 26472.735580532026, 51453.201645994384, 39697.838091592566, 5082.473764714452, 55561.18405594636, 44529.748800963025, -122455.57426876716, 39653.44752710433, 36275.3613323404, 63970.80438981109, 53065.4776770446, 10950.968974944231, 65222.412672330465, -123447.3435219936, 68757.85514805975, 46680.72422513059, 0.002, 1.022, 0.0, 192.0, 0.0, 8.0, 15.5, 120.0, 0.0, 0.0, 0.0, 0.0, 0.0, 1.69602965719748E9, 0.0, 2023-09-29 18:20:57.197
140.0, 26503.04454601342, 51477.00625383929, 39518.17476966081, 5118.39301805413, 55509.30565706559, 44475.076434025344, -123056.23269751463, 39599.62452645595, 36216.71035488968, 63900.418746521325, 52925.62281198774, 10916.25671580514, 65135.79966256615, -122777.66290636813, 68809.19710507359, 46731.84266469988, 0.002, 1.022, 0.0, 192.0, 0.0, 0.0, 0.0, 0.0, 0.0, 0.0, 0.0, 0.0, 0.0, 1.696029657197484E9, 0.0, 2023-09-29 18:20:57.197
142.0, 26476.15539743369, 51462.76819262126, 39717.61938543551, 5085.066567071267, 55576.15972473141, 44535.113219632294, -122497.66260357651, 39656.26384690569, 36276.90360270782, 63962.13191296243, 53045.606976223826, 10956.60161454697, 65194.517695250244, -123570.97102057589, 68711.14000214815, 46636.244253664525, 0.002, 1.022, 0.0, 192.0, 0.0, 0.0, 0.0, 0.0, 0.0, 0.0, 0.0, 0.0, 0.0, 1.696029657197487E9, 0.0, 2023-09-29 18:20:57.197
144.0, 26511.784078095447, 51484.80701265419, 39514.62084229241, 5136.073247918278, 55510.26678207717, 44473.22123923555, -123017.25125518457, 39596.0482473431, 36224.06407881547, 63928.76075849066, 52951.304966366886, 10926.516166510126, 65159.26899424422, -122653.63307638564, 68843.46232932358, 46765.48204010511, 0.002, 1.022, 0.0, 192.0, 0.0, 0.0, 0.0, 0.0, 0.0, 0.0, 0.0, 0.0, 0.0, 1.69602965719749E9, 0.0, 2023-09-29 18:20:57.197
146.0, 26475.32838288884, 51454.52039891725, 39736.86423741153, 5097.069453843767, 55588.58729464857, 44544.43389707016, -122607.27555838533, 39669.07139647858, 36279.049370175526, 63947.22329941074, 53021.556499189915, 10961.74251577169, 65171.00366008326, -123701.10287679468, 68648.53276592885, 46598.156881112685, 0.002, 1.022, 0.0, 192.0, 0.0, 0.0, 0.0, 0.0, 0.0, 0.0, 0.0, 0.0, 0.0, 1.696029657197493E9, 0.0, 2023-09-29 18:20:57.197
148.0, 26497.65777559969, 51465.11512578907, 39518.711211527734, 5119.443550043529, 55506.914020408876, 44471.41074793467, -122962.89181266926, 39582.77131113665, 36230.12140156286, 63925.56445903355, 52975.981292245546, 10920.30238155155, 65199.99387264179, -122607.83435199672, 68868.00454473551, 46817.941584341715, -0.002, 1.02, -0.002, 192.0, 127.5, 120.0, 15.5, 112.0, 127.5, 120.0, 0.0, 0.0, 0.0, 1.696029657197496E9, 0.0, 2023-09-29 18:20:57.197
150.0, 26466.879423484734, 51441.37757317753, 39722.223844793305, 5085.0889188157225, 55587.20148649234, 44550.647682028735, -122686.87012039068, 39659.81777427409, 36259.335131565946, 63907.32543555802, 52979.06583298038, 10941.581242273003, 65146.81907258261, -123764.9618107035, 68622.09065223821, 46572.51943022245, -0.002, 1.02, -0.002, 192.0, 0.0, 0.0, 0.0, 0.0, 0.0, 0.0, 0.0, 0.0, 0.0, 1.696029657197499E9, 0.0, 2023-09-29 18:20:57.197
152.0, 26499.065935500377, 51464.6457391555, 39515.47020858171, 5110.815776683781, 55494.50880223618, 44477.244553237506, -122874.31184939288, 39577.295133745094, 36229.4508492292, 63925.22918286672, 52992.09689999782, 10906.287837778073, 65224.82666073164, -122552.44672923646, 68910.60696966732, 46839.198093318715, -0.002, 1.02, -0.002, 192.0, 0.0, 0.0, 0.0, 0.0, 0.0, 0.0, 0.0, 0.0, 0.0, 1.696029657257217E9, 0.0, 2023-09-29 18:20:57.257
154.0, 26484.649060326705, 51456.152076262486, 39717.95466160234, 5100.757491678893, 55581.345329445045, 44541.72933599107, -122771.67263885411, 39657.068509706085, 36269.23695435965, 63914.76856646164, 52961.27384439395, 10949.918442954831, 65122.27685717069, -123780.45156961103, 68609.70778580998, 46536.846046071776, -0.002, 1.02, -0.002, 192.0, 0.0, 0.0, 0.0, 0.0, 0.0, 0.0, 0.0, 0.0, 0.0, 1.696029657257227E9, 0.0, 2023-09-29 18:20:57.257
156.0, 26501.591682623828, 51470.65835841398, 39525.975528475705, 5110.994590639423, 55491.69248243481, 44470.00258803399, -122780.6803918696, 39576.98220932272, 36244.69473894772, 63951.42542736834, 53030.5195487165, 10918.06720710602, 65244.071512707655, -122541.04733956425, 68938.83722291437, 46847.69175621173, -0.002, 1.02, -0.002, 192.0, 0.0, 0.0, 0.0, 0.0, 0.0, 0.0, 0.0, 0.0, 0.0, 1.696029657257231E9, 0.0, 2023-09-29 18:20:57.257
158.0, 26487.86771152827, 51460.488314686816, 39699.13449277097, 5093.828450897748, 55578.30549219913, 44527.98301315105, -122856.16223289518, 39651.614684058986, 36248.718052949676, 63893.24383655118, 52937.64805050469, 10952.734762756201, 65087.87752245397, -123767.84518573823, 68604.03044271833, 46503.38548462218, 0.002, 1.022, -0.004, 192.0, 0.0, 8.0, 15.5, 120.0, 127.5, 112.0, 0.0, 0.0, 0.0, 1.696029657257235E9, 0.0, 2023-09-29 18:20:57.257
160.0, 26504.586816380837, 51472.55825669268, 39548.95312177576, 5113.095654618222, 55505.88584016393, 44471.164878745665, -122680.79044589883, 39582.63720066991, 36257.52464026507, 63958.8462065275, 53064.74006947757, 10921.107044351942, 65259.09188498162, -122558.90638338405, 68961.05485690295, 46855.67132898228, 0.002, 1.022, -0.004, 192.0, 0.0, 0.0, 0.0, 0.0, 0.0, 0.0, 0.0, 0.0, 0.0, 1.696029657257238E9, 0.0, 2023-09-29 18:20:57.257
162.0, 26501.502275646006, 51471.61948342556, 39680.29197219515, 5105.205488825499, 55578.01491952121, 44528.85473118481, -122957.46033876663, 39646.8090590011, 36249.83564017244, 63888.035880093084, 52922.24769857499, 10952.533597056103, 65075.49465602573, -123699.15827502708, 68608.05375672028, 46506.73824629048, 0.002, 1.022, -0.004, 192.0, 0.0, 0.0, 0.0, 0.0, 0.0, 0.0, 0.0, 0.0, 0.0, 1.696029657257241E9, 0.0, 2023-09-29 18:20:57.257
164.0, 26499.58002562285, 51469.60782642458, 39564.0405492831, 5100.265753300876, 55506.64579947541, 44479.45737593858, -122627.12390746165, 39581.3407994915, 36270.19807937123, 63980.61680562697, 53087.85177324436, 10931.098274123464, 65277.53207415725, -122653.65542813009, 68954.61755449981, 46848.161142845296, 0.002, 1.022, -0.004, 192.0, 0.0, 0.0, 0.0, 0.0, 0.0, 0.0, 0.0, 0.0, 0.0, 1.696029657257244E9, 0.0, 2023-09-29 18:20:57.257
166.0, 26495.57906336535, 51464.80220136669, 39653.67104454888, 5100.109291089689, 55573.54457063015, 44512.962640877086, -123023.46504014314, 39625.686660490835, 36237.653939444295, 63881.84444687897, 52899.203050041564, 10948.152655142863, 65066.55395824361, -123620.45778279995, 68617.97793125844, 46506.73824629048, 0.002, 1.022, -0.004, 192.0, 0.0, 0.0, 0.0, 0.0, 0.0, 0.0, 0.0, 0.0, 0.0, 1.696029657317407E9, 0.0, 2023-09-29 18:20:57.317
168.0, 26491.10871447429, 51460.15303851999, 39578.837404112506, 5076.215276266966, 55512.18903210033, 44474.42823343614, -122539.46036570793, 39570.18727900831, 36267.91820143678, 63966.15522696439, 53082.46500283063, 10920.950582140755, 65279.58843464714, -122737.42976634858, 68948.11319686333, 46832.760790915585, 0.002, 1.024, -0.008, 192.0, 0.0, 8.0, 16.0, 0.0, 127.5, 96.0, 0.0, 0.0, 0.0, 1.696029657317418E9, 0.0, 2023-09-29 18:20:57.317
170.0, 26506.263197214987, 51475.776907894244, 39625.48549479074, 5106.01015162589, 55560.0664687236, 44501.8538238828, -123082.78656992753, 39608.2970033046, 36228.62383468435, 63866.377039715895, 52883.24390450048, 10943.101160895963, 65063.3576587865, -123472.80215892819, 68637.46865242347, 46518.49526387397, 0.002, 1.024, -0.008, 192.0, 0.0, 0.0, 0.0, 0.0, 0.0, 0.0, 0.0, 0.0, 0.0, 1.696029657317422E9, 0.0, 2023-09-29 18:20:57.317
172.0, 26487.711249317083, 51458.05197454119, 39611.2474335727, 5071.990796564913, 55523.14138688343, 44489.22508826555, -122483.87157724758, 39572.24363949819, 36278.46822481969, 63974.872407301955, 53098.89353500528, 10937.915556182332, 65280.840132336634, -122873.03779995893, 68909.04234755544, 46802.20595624518, 0.002, 1.024, -0.008, 192.0, 0.0, 0.0, 0.0, 0.0, 0.0, 0.0, 0.0, 0.0, 0.0, 1.696029657317425E9, 0.0, 2023-09-29 18:20:57.317
174.0, 26511.71702286208, 51477.833268384136, 39585.207651282275, 5114.816738941281, 55549.65055580742, 44500.33390525984, -123142.48807936766, 39594.640087442414, 36227.19332303922, 63864.25362399264, 52877.0301195419, 10938.02731490461, 65065.63753672094, -123331.31561652609, 68654.76890263187, 46543.752735108465, 0.002, 1.024, -0.008, 192.0, 0.0, 0.0, 0.0, 0.0, 0.0, 0.0, 0.0, 0.0, 0.0, 1.696029657317428E9, 0.0, 2023-09-29 18:20:57.317
176.0, 26486.884234772235, 51458.36489896356, 39632.816866972076, 5067.453392440485, 55531.009200931694, 44501.58560294934, -122457.87649844606, 39588.82863388403, 36280.34577135393, 63978.13576199243, 53098.42414837172, 10938.02731490461, 65268.881949053044, -123038.30659846147, 68861.56724233237, 46757.81539175694, 0.002, 1.024, -0.008, 192.0, 0.0, 0.0, 0.0, 0.0, 0.0, 0.0, 0.0, 0.0, 0.0, 1.696029657317432E9, 0.0, 2023-09-29 18:20:57.317
178.0, 26511.761726350993, 51479.37553875155, 39558.22909572472, 5116.046084886323, 55534.42901783336, 44490.34267548832, -123145.70673056922, 39581.139633791405, 36230.85900912988, 63873.75311538615, 52891.93873309359, 10932.595841001968, 65084.189484618844, -123162.2693732106, 68698.60067350873, 46580.119023337254, 0.002, 1.022, -0.004, 192.0, 0.0, 8.0, 15.5, 120.0, 127.5, 112.0, 0.0, 0.0, 0.0, 1.696029657317435E9, 0.0, 2023-09-29 18:20:57.317
180.0, 26486.794827794412, 51462.25410249879, 39656.46501260579, 5074.628302410639, 55552.3104133976, 44510.258079798, -122459.7540449803, 39600.093913089506, 36284.70436152272, 63971.43023865584, 53086.018930199025, 10939.97191667222, 65243.13273944053, -123183.41412346532, 68833.00171291849, 46711.01083886753, 0.002, 1.022, -0.004, 192.0, 0.0, 0.0, 0.0, 0.0, 0.0, 0.0, 0.0, 0.0, 0.0, 1.696029657317438E9, 0.0, 2023-09-29 18:20:57.317
182.0, 26518.802525854415, 51487.24335279982, 39539.54303736008, 5115.7331604639485, 55541.291003381135, 44492.264925511474, -123188.80089387906, 39589.78975889561, 36229.964939351674, 63884.70547016925, 52892.296361004876, 10929.935983411788, 65092.25846436721, -123030.57289487994, 68729.28961864587, 46607.74577948401, 0.002, 1.022, -0.004, 192.0, 0.0, 0.0, 0.0, 0.0, 0.0, 0.0, 0.0, 0.0, 0.0, 1.696029657377824E9, 0.0, 2023-09-29 18:20:57.377
184.0, 26483.53147310394, 51454.72156461735, 39684.829376319576, 5068.660386641072, 55568.09074498305, 44520.38342003625, -122513.84526656214, 39623.853817445495, 36286.447797590234, 63978.33692769253, 53075.42420332721, 10951.17014064433, 65231.93451546843, -123378.58955604906, 68773.09903777827, 46671.29178897045, 0.002, 1.022, -0.004, 192.0, 0.0, 0.0, 0.0, 0.0, 0.0, 0.0, 0.0, 0.0, 0.0, 1.696029657377838E9, 0.0, 2023-09-29 18:20:57.377
186.0, 26513.52751416296, 51475.508686960784, 39508.00472593364, 5099.550497478306, 55514.20068910131, 44471.38839619022, -123180.70956238623, 39579.28443900162, 36223.617043926366, 63891.56745571703, 52904.41100649965, 10917.195489072263, 65121.807470537125, -122897.7588293265, 68766.03588653039, 46665.055652267416, 0.002, 1.022, -0.004, 192.0, 0.0, 0.0, 0.0, 0.0, 0.0, 0.0, 0.0, 0.0, 0.0, 1.696029657377843E9, 0.0, 2023-09-29 18:20:57.377
188.0, 26482.592699836816, 51451.21234073786, 39696.89931832544, 5064.100630772189, 55571.063526995604, 44520.67399271417, -122541.80729887573, 39629.93349193734, 36284.65965803381, 63958.62268908295, 53043.997650623045, 10944.822245219022, 65211.05798614717, -123526.40164213201, 68732.01653146942, 46636.51247459799, 0.002, 1.022, -0.004, 192.0, 0.0, 0.0, 15.5, 120.0, 127.5, 80.0, 0.0, 0.0, 0.0, 1.696029657377848E9, 0.0, 2023-09-29 18:20:57.377
190.0, 26519.763650865993, 51479.33083526264, 39495.33128682748, 5099.639904456128, 55508.232773331736, 44467.879172310735, -123126.75245127112, 39564.30877021656, 36225.06990731596, 63907.21367683574, 52924.594631742795, 10917.7766344281, 65151.84821508506, -122753.38891188968, 68831.07946289533, 46720.39857153876, 0.002, 1.022, -0.004, 192.0, 0.0, 0.0, 0.0, 0.0, 0.0, 0.0, 0.0, 0.0, 0.0, 1.696029657377853E9, 0.0, 2023-09-29 18:20:57.377
192.0, 26486.61601383877, 51449.84888432609, 39692.89835606794, 5051.5165986438515, 55562.63691933596, 44527.98301315105, -122614.65163405558, 39613.102628362496, 36282.08920742145, 63951.29131690161, 53025.043371324944, 10948.934966198798, 65186.64988120197, -123642.78717551079, 68697.79601070833, 46594.111215366276, 0.002, 1.022, -0.004, 192.0, 0.0, 0.0, 0.0, 0.0, 0.0, 0.0, 0.0, 0.0, 0.0, 1.696029657377858E9, 0.0, 2023-09-29 18:20:57.377
194.0, 26523.8093166124, 51481.85658238609, 39475.997027873644, 5096.287142787832, 55491.379558012435, 44451.96473025856, -123064.72636040764, 39542.51581937264, 36234.994081854114, 63912.06400538254, 52947.05813492038, 10908.21008780123, 65167.315622248134, -122654.92947756404, 68864.92000400067, 46756.20606615616, 0.002, 1.022, -0.004, 192.0, 0.0, 0.0, 0.0, 0.0, 0.0, 0.0, 0.0, 0.0, 0.0, 1.696029657377863E9, 0.0, 2023-09-29 18:20:57.377
196.0, 26484.805522537892, 51457.85080884109, 39699.00038230424, 5070.046194797301, 55582.619378879, 44536.07434464387, -122683.1597308111, 39629.732326237245, 36273.48378580616, 63940.51777607415, 52998.15422274521, 10958.345050614484, 65156.4303226984, -123718.35842351419, 68667.24117603793, 46569.68075867662, 0.002, 1.022, -0.004, 192.0, 0.0, 0.0, 0.0, 0.0, 0.0, 0.0, 0.0, 0.0, 0.0, 1.696029657438142E9, 0.0, 2023-09-29 18:20:57.438
198.0, 26513.30399671841, 51480.51547771877, 39483.86484192191, 5094.901334631602, 55499.04620636061, 44464.81698332036, -123004.66722305623, 39552.484697399705, 36225.09225906042, 63947.335058133016, 52980.27282718097, 10928.483120022192, 65199.01039588576, -122591.5399302888, 68902.78385910796, 46805.49166268011, 0.002, 1.022, -0.004, 192.0, 0.0, 0.0, 15.5, 112.0, 127.5, 104.0, 0.0, 0.0, 0.0, 1.696029657438171E9, 0.0, 2023-09-29 18:20:57.438
200.0, 26481.47511261405, 51458.43195419693, 39696.362876458516, 5070.023843052846, 55578.685471854864, 44530.15113236322, -122759.98267650399, 39626.446619802315, 36256.541163509035, 63933.208755637264, 52974.88605676724, 10956.892187224888, 65133.94446777636, -123777.14351143164, 68642.43073969254, 46550.324147978325, 0.002, 1.022, -0.004, 192.0, 0.0, 0.0, 0.0, 0.0, 0.0, 0.0, 0.0, 0.0, 0.0, 1.696029657438175E9, 0.0, 2023-09-29 18:20:57.438
202.0, 26507.78311583795, 51479.17437305145, 39490.72682746969, 5090.967427607468, 55492.74301442421, 44468.72853860004, -122875.60825057128, 39551.009482265654, 36234.47999173165, 63964.590604852514, 53007.00551354951, 10924.325695553505, 65227.441814832906, -122518.78500208676, 68948.82845268589, 46854.710203970695, 0.002, 1.022, -0.004, 192.0, 0.0, 0.0, 0.0, 0.0, 0.0, 0.0, 0.0, 0.0, 0.0, 1.696029657438178E9, 0.0, 2023-09-29 18:20:57.438
204.0, 26495.04262149842, 51470.121916547054, 39682.638905362954, 5084.284256015331, 55584.228704479785, 44544.23273137006, -122863.2030323986, 39635.27555886216, 36256.02707338656, 63928.42548232383, 52946.18641688662, 10965.072925695531, 65102.54026681665, -123775.0647991973, 68620.3472161707, 46521.49039763098, 0.002, 1.022, -0.004, 192.0, 0.0, 0.0, 0.0, 0.0, 0.0, 0.0, 0.0, 0.0, 0.0, 1.696029657438187E9, 0.0, 2023-09-29 18:20:57.438
206.0, 26506.218493726075, 51476.559218950184, 39487.08349312347, 5074.248322754899, 55495.20170631429, 44471.18723049012, -122796.66188915515, 39552.66351135534, 36243.13011683585, 63973.88893054592, 53032.464150484106, 10927.142015354875, 65243.24449816281, -122547.10466231164, 68949.29783931945, 46855.93954991574, 0.002, 1.022, -0.004, 192.0, 0.0, 0.0, 0.0, 0.0, 0.0, 0.0, 0.0, 0.0, 0.0, 1.69602965743819E9, 0.0, 2023-09-29 18:20:57.438
208.0, 26505.011499525488, 51478.19089629542, 39651.34646312553, 5087.972293850457, 55583.938131801864, 44533.325080075876, -122950.26307705202, 39632.21336987178, 36249.79093668353, 63924.26805785514, 52913.61992521524, 10962.681289038812, 65082.110772384505, -123750.8578599522, 68599.4930385939, 46513.22025218252, 0.002, 1.014, 0.0, 192.0, 0.0, 8.0, 15.5, 88.0, 0.0, 0.0, 0.0, 0.0, 0.0, 1.696029657438194E9, 0.0, 2023-09-29 18:20:57.438
210.0, 26512.141706006732, 51486.17046906596, 39517.526569071604, 5077.95871233448, 55507.56222099808, 44481.156108517185, -122730.88070522317, 39568.913229574355, 36253.4566227742, 64007.595361184525, 53060.47088628661, 10940.97774517271, 65267.29497519672, -122607.56613106324, 68944.11223460583, 46868.054195410514, 0.002, 1.014, 0.0, 192.0, 0.0, 0.0, 0.0, 0.0, 0.0, 0.0, 0.0, 0.0, 0.0, 1.696029657438198E9, 0.0, 2023-09-29 18:20:57.438
212.0, 26512.946368807123, 51486.99748361081, 39636.7060705073, 5087.547610705807, 55578.059623010115, 44535.49319928804, -123062.60294468439, 39635.253207117705, 36245.09707034792, 63922.47991829872, 52904.07573033282, 10969.476219353226, 65080.65790899491, -123695.22436800295, 68600.02948046083, 46528.26297620094, 0.002, 1.014, 0.0, 192.0, 0.0, 0.0, 0.0, 0.0, 0.0, 0.0, 0.0, 0.0, 0.0, 1.696029657497819E9, 0.0, 2023-09-29 18:20:57.497
214.0, 26508.81129608289, 51478.81674514017, 39540.14653446037, 5077.086994300723, 55510.535003010635, 44486.47582369755, -122665.72537013596, 39572.08717728701, 36267.27000084758, 64021.00640785771, 53086.17539241021, 10950.656050521857, 65288.327966729164, -122705.7126409665, 68948.76139745253, 46871.921047201286, 0.002, 1.014, 0.0, 192.0, 0.0, 0.0, 0.0, 0.0, 0.0, 0.0, 0.0, 0.0, 0.0, 1.69602965749784E9, 0.0, 2023-09-29 18:20:57.497
216.0, 26518.19902875412, 51487.17629756645, 39613.50495976269, 5086.564133949773, 55571.152933973426, 44525.256100327504, -123128.04885244953, 39619.02584064315, 36240.045576101016, 63912.28752282709, 52896.23026802901, 10965.184684417807, 65071.22547283477, -123595.51323598782, 68627.85740230768, 46538.25420597246, 0.002, 1.014, 0.0, 192.0, 0.0, 0.0, 0.0, 0.0, 0.0, 0.0, 0.0, 0.0, 0.0, 1.69602965749785E9, 0.0, 2023-09-29 18:20:57.497
218.0, 26503.20100822461, 51477.47564047285, 39562.81120333805, 5064.949997061491, 55517.955782169796, 44490.43208246614, -122595.00445067936, 39572.78008136512, 36268.38758807035, 64008.53413445165, 53097.9324099937, 10944.26345160764, 65287.076269039666, -122806.94369160458, 68941.40767352673, 46850.55277950201, 0.002, 1.016, 0.0, 192.0, 0.0, 8.0, 15.5, 96.0, 0.0, 0.0, 0.0, 0.0, 0.0, 1.696029657497855E9, 0.0, 2023-09-29 18:20:57.497
220.0, 26515.29330197493, 51489.009140611786, 39589.00744783967, 5085.670064171561, 55556.02080297718, 44503.23963203903, -123181.78244612008, 39605.748904436696, 36232.334224263934, 63898.74236568718, 52894.64329417268, 10955.439323835293, 65063.67058320887, -123461.73804542281, 68636.90985881208, 46551.95582532357, 0.002, 1.016, 0.0, 192.0, 0.0, 0.0, 0.0, 0.0, 0.0, 0.0, 0.0, 0.0, 0.0, 1.696029657497859E9, 0.0, 2023-09-29 18:20:57.497
222.0, 26499.490618645028, 51481.85658238609, 39601.59147996801, 5060.926683059536, 55521.97909617175, 44495.57298369086, -122549.65276117955, 39582.88306985892, 36278.334114352954, 64009.85288737451, 53110.91877352224, 10949.40435283236, 65279.14139975803, -122937.1649548012, 68900.05694628441, 46828.96099435818, 0.002, 1.016, 0.0, 192.0, 0.0, 0.0, 0.0, 0.0, 0.0, 0.0, 0.0, 0.0, 0.0, 1.696029657497864E9, 0.0, 2023-09-29 18:20:57.497
224.0, 26520.54596192193, 51500.542640750726, 39562.07359577103, 5089.849840384703, 55547.61654706199, 44502.36791400527, -123252.81628999906, 39596.942317121306, 36230.97076785216, 63909.650016981366, 52891.26818075993, 10961.11666692694, 65076.45578103731, -123321.83847687703, 68652.62313516416, 46587.942133896606, 0.002, 1.016, 0.0, 192.0, 0.0, 0.0, 0.0, 0.0, 0.0, 0.0, 0.0, 0.0, 0.0, 1.696029657497869E9, 0.0, 2023-09-29 18:20:57.497
226.0, 26487.979470250546, 51474.23463752683, 39631.07343090456, 5050.644880610094, 55536.59713704552, 44502.74789366101, -122546.81408963373, 39588.11337806146, 36274.75783524011, 64006.6565879174, 53098.401796627266, 10957.518036069636, 65265.05980075119, -123129.6581780503, 68844.80343399089, 46792.706464851675, 0.002, 1.016, 0.0, 192.0, 0.0, 0.0, 0.0, 0.0, 0.0, 0.0, 0.0, 0.0, 0.0, 1.696029657497874E9, 0.0, 2023-09-29 18:20:57.497
228.0, 26510.711194361593, 51491.53488773524, 39525.550845331054, 5081.400880980597, 55529.355171842006, 44486.85580335329, -123244.70260676177, 39581.698427402785, 36218.47614270164, 63894.473182496215, 52876.11369801923, 10937.803797460056, 65081.2614060952, -123144.07505322398, 68705.2167898675, 46647.35307065881, 0.006, 1.018, -0.004, 192.0, 0.0, 24.0, 15.5, 104.0, 127.5, 112.0, 0.0, 0.0, 0.0, 1.696029657558193E9, 0.0, 2023-09-29 18:20:57.558
230.0, 26479.508159101984, 51466.7468031343, 39632.74981173871, 5041.145389216589, 55548.60002381802, 44507.48646348554, -122534.85590635013, 39601.45736950128, 36273.95317243972, 63988.931654564345, 53069.12101139081, 10950.87956796641, 65242.7974632737, -123258.2924673906, 68808.86182890675, 46763.5374383375, 0.006, 1.018, -0.004, 192.0, 0.0, 0.0, 0.0, 0.0, 0.0, 0.0, 0.0, 0.0, 0.0, 1.696029657558203E9, 0.0, 2023-09-29 18:20:57.558
232.0, 26521.52943867796, 51501.54846925122, 39506.44010382177, 5089.358102006687, 55530.96449744279, 44492.197870278105, -123255.5432028226, 39582.950125092284, 36214.944567077706, 63901.06694711053, 52884.182677767596, 10936.663858492835, 65098.40519409242, -122995.41360085174, 68724.50634533243, 46685.14987053274, 0.006, 1.018, -0.004, 192.0, 0.0, 0.0, 0.0, 0.0, 0.0, 0.0, 0.0, 0.0, 0.0, 1.696029657558206E9, 0.0, 2023-09-29 18:20:57.558
234.0, 26484.492598115517, 51474.48050671584, 39659.77307078517, 5043.76054331786, 55568.09074498305, 44525.703135216616, -122593.30571810076, 39620.18813135483, 36288.213585402205, 63992.485581932735, 53062.28137758749, 10960.915501226844, 65228.58175380013, -123446.11417604855, 68741.11369146273, 46715.43648426968, 0.006, 1.018, -0.004, 192.0, 0.0, 0.0, 0.0, 0.0, 0.0, 0.0, 0.0, 0.0, 0.0, 1.696029657558209E9, 0.0, 2023-09-29 18:20:57.558
236.0, 26508.878351316256, 51492.80893716919, 39479.05921686402, 5080.506811202385, 55516.3017530801, 44481.93841957312, -123225.25658908566, 39568.53324991861, 36212.709392632176, 63920.58002002002, 52904.27689603292, 10933.042875891075, 65132.75982532023, -122877.03876221643, 68770.14860751017, 46732.46851354463, 0.006, 1.018, -0.004, 192.0, 0.0, 0.0, 0.0, 0.0, 0.0, 0.0, 0.0, 0.0, 0.0, 1.696029657558213E9, 0.0, 2023-09-29 18:20:57.558
238.0, 26476.647135811705, 51465.09277404461, 39669.74194881224, 5033.925775757525, 55569.543608372645, 44539.15888537871, -122617.78087827933, 39624.68083199034, 36266.62180025838, 63970.13383747743, 53028.8655196268, 10950.54429179958, 65193.109535349555, -123570.63574440907, 68718.38196735167, 46674.15281226073, 0.006, 1.018, 0.0, 192.0, 0.0, 24.0, 15.5, 104.0, 0.0, 0.0, 0.0, 0.0, 0.0, 1.696029657558216E9, 0.0, 2023-09-29 18:20:57.558
240.0, 26517.215551998088, 51494.61942847007, 39460.060234077006, 5069.509752930374, 55501.81782267307, 44481.75960561748, -123181.96126007572, 39561.090119014996, 36220.84542761391, 63925.36329333345, 52925.39929454319, 10923.029294375097, 65134.65972359893, -122740.06727219431, 68830.38655881722, 46777.26140943306, 0.006, 1.018, 0.0, 192.0, 0.0, 0.0, 0.0, 0.0, 0.0, 0.0, 0.0, 0.0, 0.0, 1.696029657558219E9, 0.0, 2023-09-29 18:20:57.558
242.0, 26484.984336493533, 51470.77011713626, 39666.07626272157, 5033.322278657231, 55563.62039609199, 44533.07921088686, -122698.58243448526, 39621.30571857759, 36265.70537873571, 63953.615898324955, 53019.656600911214, 10954.008812190154, 65162.7335146348, -123688.38473419962, 68685.68136521356, 46630.96924197308, 0.006, 1.018, 0.0, 192.0, 0.0, 0.0, 0.0, 0.0, 0.0, 0.0, 0.0, 0.0, 0.0, 1.696029657618457E9, 0.0, 2023-09-29 18:20:57.618
244.0, 26522.49056368954, 51502.17431809597, 39455.031091574565, 5075.38826172212, 55504.23181107424, 44471.61191363477, -123107.57465452846, 39555.569238134536, 36228.422668984254, 63940.540127818604, 52969.36517588678, 10930.561832256537, 65177.463314230845, -122643.3959774251, 68878.33105067385, 46815.30407849599, 0.006, 1.018, 0.0, 192.0, 0.0, 0.0, 0.0, 0.0, 0.0, 0.0, 0.0, 0.0, 0.0, 1.69602965761847E9, 0.0, 2023-09-29 18:20:57.618
246.0, 26485.409019638184, 51474.52521020475, 39663.930495253866, 5038.9549182599685, 55581.79236433416, 44528.832379440355, -122774.42190342212, 39627.54185528062, 36268.208774114704, 63945.47986334323, 52997.12604250027, 10967.643376307891, 65139.30888644563, -123763.17367114707, 68642.9001263261, 46588.97031414155, 0.006, 1.018, 0.0, 192.0, 0.0, 0.0, 0.0, 0.0, 0.0, 0.0, 0.0, 0.0, 0.0, 1.696029657618474E9, 0.0, 2023-09-29 18:20:57.618
248.0, 26510.040642027932, 51492.45130925791, 39441.08360303445, 5057.6186248801505, 55497.682749948835, 44453.954035515075, -123017.45242088467, 39540.97354900522, 36216.97857582314, 63936.02507543863, 52978.90937076919, 10914.133300081885, 65193.4895150053, -122574.5302527583, 68895.92187356018, 46844.24958756562, 0.008, 1.02, -0.004, 192.0, 0.0, 32.0, 15.5, 112.0, 127.5, 112.0, 0.0, 0.0, 0.0, 1.696029657618477E9, 0.0, 2023-09-29 18:20:57.618
250.0, 26485.900758016203, 51474.30169276019, 39657.761413784196, 5038.932566515514, 55582.64173062346, 44534.59912950983, -122852.22832587104, 39628.57003552557, 36252.58490474044, 63927.330246845515, 52959.418649604166, 10961.161370415852, 65117.806508279624, -123798.6235378532, 68598.68837579351, 46550.480610189516, 0.008, 1.02, -0.004, 192.0, 0.0, 0.0, 0.0, 0.0, 0.0, 0.0, 0.0, 0.0, 0.0, 1.696029657618481E9, 0.0, 2023-09-29 18:20:57.618
252.0, 26506.799639081913, 51489.59028596763, 39451.00777757261, 5051.874226555136, 55497.325122037546, 44460.547800129396, -122914.36617545679, 39548.4837351422, 36231.12723006335, 63950.15137793439, 53011.855842096316, 10923.051646119553, 65225.58662004312, -122544.44480472145, 68915.12202204729, 46867.54010528805, 0.008, 1.02, -0.004, 192.0, 0.0, 0.0, 0.0, 0.0, 0.0, 0.0, 0.0, 0.0, 0.0, 1.696029657618484E9, 0.0, 2023-09-29 18:20:57.618
254.0, 26494.349717420308, 51480.87310563005, 39636.08022166255, 5029.544833844285, 55582.887599812464, 44534.55442602091, -122938.95309435762, 39628.99471867022, 36239.687948189734, 63905.738461701694, 52931.9930591575, 10955.484027324204, 65081.060240395105, -123787.76059004791, 68588.943015211, 46527.748886078465, 0.008, 1.02, -0.004, 192.0, 0.0, 0.0, 0.0, 0.0, 0.0, 0.0, 0.0, 0.0, 0.0, 1.696029657618487E9, 0.0, 2023-09-29 18:20:57.618
0.0, 26508.63248212725, 51494.530021492246, 39472.934838883266, 5059.898502814592, 55507.94220065382, 44476.5963526483, -122837.07384313035, 39561.17952599282, 36244.873552903366, 63973.17367472335, 53043.59531922285, 10926.851442676956, 65244.00445747429, -122582.95686041795, 68936.04325485746, 46863.51679128609, 0.008, 1.02, -0.004, 192.0, 0.0, 0.0, 0.0, 0.0, 0.0, 0.0, 0.0, 0.0, 0.0, 1.69602965761849E9, 0.0, 2023-09-29 18:20:57.618
2.0, 26495.86963604327, 51483.197687053405, 39625.239625601724, 5054.71289810096, 55583.20052423484, 44534.44266729864, -123045.88383983182, 39631.6545762604, 36243.21952381367, 63906.140793101884, 52907.20497455657, 10958.859140736955, 65072.655984479905, -123763.10661591371, 68598.57661707123, 46517.93647026259, 0.006, 1.02, -0.006, 192.0, 0.0, 24.0, 15.5, 112.0, 127.5, 104.0, 0.0, 0.0, 0.0, 1.696029657678696E9, 0.0, 2023-09-29 18:20:57.678
4.0, 26495.62376685426, 51484.15881206498, 39491.35267631444, 5042.151217717078, 55504.16475584087, 44481.312570728376, -122767.64932485216, 39561.11247075945, 36252.964884396184, 63985.511837662685, 53053.05010712744, 10924.191585086774, 65265.01509726228, -122662.01498055637, 68953.29880157695, 46870.378776833866, 0.006, 1.02, -0.006, 192.0, 0.0, 0.0, 0.0, 0.0, 0.0, 0.0, 0.0, 0.0, 0.0, 1.696029657678705E9, 0.0, 2023-09-29 18:20:57.678
6.0, 26496.00374651, 51484.98582660983, 39595.22123279825, 5045.459275896464, 55571.75643107372, 44526.53014976146, -123123.46674483619, 39621.57393951106, 36233.49651497561, 63893.19913306226, 52882.12631727771, 10944.442265563282, 65065.2575570652, -123694.46440869146, 68615.92157076855, 46529.291156445885, 0.006, 1.02, -0.006, 192.0, 0.0, 0.0, 0.0, 0.0, 0.0, 0.0, 0.0, 0.0, 0.0, 1.696029657678708E9, 0.0, 2023-09-29 18:20:57.678
8.0, 26498.015403510977, 51488.584457467136, 39515.492560326165, 5038.7761043043265, 55516.16764261337, 44503.463149483585, -122709.49008577944, 39580.55848843557, 36257.83756468744, 63992.99967205521, 53068.13753463478, 10929.578355500504, 65263.69634433942, -122777.26057496794, 68940.96063863763, 46860.298140084524, 0.006, 1.02, -0.006, 192.0, 0.0, 0.0, 0.0, 0.0, 0.0, 0.0, 0.0, 0.0, 0.0, 1.696029657678711E9, 0.0, 2023-09-29 18:20:57.678
10.0, 26501.56933087937, 51491.04314935722, 39566.07455802853, 5050.957805032469, 55565.699108326335, 44531.559292263904, -123203.35187951945, 39620.09872437701, 36223.393526481814, 63890.82984815, 52869.788154338385, 10943.25762310715, 65051.66769643637, -123587.176035306, 68633.37828318814, 46558.1919620266, 0.006, 1.02, -0.006, 192.0, 0.0, 0.0, 0.0, 0.0, 0.0, 0.0, 0.0, 0.0, 0.0, 1.696029657678714E9, 0.0, 2023-09-29 18:20:57.678
12.0, 26488.515912117473, 51480.828402141145, 39542.135839716895, 5027.577880332217, 55522.96257292778, 44501.96558260508, -122645.16176523708, 39590.63912518491, 36264.856012446406, 64001.76155588169, 53085.236619143085, 10936.082713136997, 65268.36785893058, -122897.04357350394, 68921.08993781685, 46855.51486677109, 0.006, 1.022, -0.006, 192.0, 0.0, 24.0, 15.5, 120.0, 127.5, 104.0, 0.0, 0.0, 0.0, 1.696029657678717E9, 0.0, 2023-09-29 18:20:57.678
14.0, 26507.984281538043, 51494.64178021452, 39550.27187469863, 5049.683755598517, 55562.56986410259, 44518.03648686844, -123262.51694709265, 39613.28144231814, 36219.280805502036, 63891.79097316158, 52864.93782579158, 10943.97287892972, 65049.0525423351, -123449.0869580611, 68656.69115265502, 46585.30462805088, 0.006, 1.022, -0.006, 192.0, 0.0, 0.0, 0.0, 0.0, 0.0, 0.0, 0.0, 0.0, 0.0, 1.696029657678721E9, 0.0, 2023-09-29 18:20:57.678
16.0, 26484.33613590433, 51473.92171310446, 39578.703293645776, 5025.298002397776, 55540.9110237254, 44502.52437621646, -122592.36694483364, 39594.9977153537, 36271.69564624973, 63993.17848601085, 53084.45430808715, 10938.273184093618, 65258.64485009252, -123036.36199669386, 68906.78482136547, 46831.21852054817, 0.006, 1.022, -0.006, 192.0, 0.0, 0.0, 0.0, 0.0, 0.0, 0.0, 0.0, 0.0, 0.0, 1.696029657738939E9, 0.0, 2023-09-29 18:20:57.738
18.0, 26517.908456076202, 51501.7049314624, 39525.86376975343, 5064.972348805946, 55559.17239894538, 44510.83922515383, -123311.8025436166, 39610.018087627664, 36219.30315724649, 63885.800705647554, 52864.066107757826, 10942.318849840029, 65061.4577605078, -123297.60918588749, 68702.19930436603, 46620.441570334624, 0.006, 1.022, -0.006, 192.0, 0.0, 0.0, 0.0, 0.0, 0.0, 0.0, 0.0, 0.0, 0.0, 1.696029657738951E9, 0.0, 2023-09-29 18:20:57.738
20.0, 26488.784133050936, 51475.866314872066, 39612.56618649557, 5025.476816353419, 55555.10438145452, 44521.14337934773, -122609.35427061967, 39617.41651504237, 36275.070759662485, 63998.028814557656, 53088.29880813346, 10954.679364523812, 65248.78773078773, -123225.18953385229, 68865.79172203442, 46796.52861315353, 0.006, 1.022, -0.006, 192.0, 0.0, 0.0, 0.0, 0.0, 0.0, 0.0, 0.0, 0.0, 0.0, 1.696029657738954E9, 0.0, 2023-09-29 18:20:57.738
22.0, 26514.35452870781, 51496.16169883749, 39494.325458326995, 5059.898502814592, 55534.11609341099, 44505.67597218466, -123318.28454950865, 39600.20567181178, 36213.201131010195, 63888.192342304275, 52886.68607314659, 10943.21291961824, 65080.30028108362, -123151.89816378333, 68753.16128172414, 46673.12463201578, 0.006, 1.022, -0.006, 192.0, 0.0, 0.0, 16.0, 0.0, 127.5, 112.0, 0.0, 0.0, 0.0, 1.696029657738958E9, 0.0, 2023-09-29 18:20:57.738
24.0, 26484.224377182054, 51474.9498933494, 39623.004451156194, 5019.575955817218, 55564.53681761466, 44541.52817029097, -122635.21523895446, 39629.575864026054, 36275.92012595179, 63990.38451795394, 53077.16763939472, 10962.323661127528, 65228.29118112221, -123394.07931495659, 68826.98909366001, 46749.232321886106, 0.006, 1.022, -0.006, 192.0, 0.0, 0.0, 0.0, 0.0, 0.0, 0.0, 0.0, 0.0, 0.0, 1.696029657738961E9, 0.0, 2023-09-29 18:20:57.738
26.0, 26506.218493726075, 51490.35024527911, 39462.83185038946, 5054.109401000667, 55520.14625312642, 44500.13273955974, -123323.96189260029, 39589.521537962144, 36208.77548560804, 63909.20298209226, 52889.83766911479, 10935.8815474369, 65098.62871153697, -123027.60011286738, 68785.66071816215, 46706.00404810954, 0.006, 1.022, -0.006, 192.0, 0.0, 0.0, 0.0, 0.0, 0.0, 0.0, 0.0, 0.0, 0.0, 1.696029657738964E9, 0.0, 2023-09-29 18:20:57.738
28.0, 26457.60344953578, 51450.00534653728, 39629.5535122816, 4998.766481729327, 55559.35121290103, 44538.9130161897, -122646.7487390934, 39629.32999483705, 36261.36914031138, 63976.19116022482, 53039.92963313218, 10949.02437317662, 65202.273750576234, -123544.41714816299, 68783.29143324989, 46722.589042495376, 0.006, 1.022, -0.006, 192.0, 0.0, 0.0, 0.0, 0.0, 0.0, 0.0, 0.0, 0.0, 0.0, 1.696029657738967E9, 0.0, 2023-09-29 18:20:57.738
30.0, 26481.788037036426, 51462.432916454425, 39433.12638200836, 5038.910214771058, 55510.467947777266, 44476.03755903692, -123255.05146444458, 39568.17562200733, 36194.939755790205, 63899.591731976485, 52895.60441918426, 10915.474404749204, 65115.19135417836, -122857.97272419605, 68842.21063163408, 46773.752185553574, 0.006, 1.022, -0.006, 192.0, 0.0, 0.0, 0.0, 0.0, 0.0, 0.0, 0.0, 0.0, 0.0, 1.69602965773897E9, 0.0, 2023-09-29 18:20:57.738
32.0, 26438.112728370754, 51423.138549701995, 39635.83435247354, 4985.981283900891, 55568.38131766097, 44534.82264695438, -122685.55136746781, 39626.53602678014, 36240.64907320131, 63936.04742718309, 53009.37479846177, 10939.748399227668, 65169.75196239376, -123654.41008262755, 68743.08064497479, 46675.829193094876, -0.006, 1.026, -0.006, 192.0, 127.5, 104.0, 16.0, 8.0, 127.5, 104.0, 0.0, 0.0, 0.0, 1.696029657797923E9, 0.0, 2023-09-29 18:20:57.797
34.0, 26457.648153024693, 51432.302764928674, 39429.7065651067, 5038.28436592631, 55495.089947592016, 44475.45641368108, -123190.38786773538, 39556.15038349037, 36194.44801741219, 63892.21565630623, 52916.346838038786, 10907.763052912123, 65148.294287716664, -122742.54831582884, 68878.3534024183, 46803.904688823786, -0.006, 1.026, -0.006, 192.0, 0.0, 0.0, 0.0, 0.0, 0.0, 0.0, 0.0, 0.0, 0.0, 1.696029657797932E9, 0.0, 2023-09-29 18:20:57.797
36.0, 26411.201228046564, 51390.16972663042, 39636.862532718485, 4988.84230719117, 55573.92455028588, 44543.20455112512, -122786.73771461699, 39630.4028785709, 36235.50817197659, 63902.76567968914, 52966.34769038531, 10933.69107648028, 65144.628601626, -123776.09297944224, 68683.08856285675, 46618.83224473384, -0.006, 1.026, -0.006, 192.0, 0.0, 0.0, 0.0, 0.0, 0.0, 0.0, 0.0, 0.0, 0.0, 1.696029657797935E9, 0.0, 2023-09-29 18:20:57.797
38.0, 26413.481105981005, 51384.11240388303, 39414.194454454715, 5008.109510911645, 55485.21047654277, 44461.1960007186, -123124.83020124797, 39548.46138339775, 36172.3868456348, 63871.11560954042, 52920.16898634064, 10879.353985709427, 65166.93564259239, -122680.2540040319, 68903.67792888617, 46835.912386883785, -0.006, 1.026, -0.006, 192.0, 0.0, 0.0, 0.0, 0.0, 0.0, 0.0, 0.0, 0.0, 0.0, 1.696029657797939E9, 0.0, 2023-09-29 18:20:57.797
40.0, 26375.863120062724, 51350.69654592235, 39622.71387847828, 4984.059033877735, 55569.07422173909, 44540.14236213474, -122865.12528242175, 39631.341651838025, 36193.486892400615, 63856.385809944375, 52913.8881461487, 10901.862192375922, 65108.0164442082, -123835.19099178207, 68641.33550421424, 46589.43970077512, -0.006, 1.026, -0.006, 192.0, 0.0, 0.0, 0.0, 0.0, 0.0, 0.0, 0.0, 0.0, 0.0, 1.696029657797942E9, 0.0, 2023-09-29 18:20:57.797
42.0, 26373.627945617194, 51343.655746418925, 39411.31107941998, 4996.5760107727065, 55485.47869747624, 44459.43021290663, -123042.75459560807, 39547.522610130625, 36165.234287409105, 63856.16229249982, 52938.0950853938, 10862.321956434484, 65192.10370684907, -122631.1472214636, 68913.98208308007, 46863.02505290807, -0.004, 1.026, -0.006, 192.0, 127.5, 112.0, 16.0, 8.0, 127.5, 104.0, 0.0, 0.0, 0.0, 1.696029657797945E9, 0.0, 2023-09-29 18:20:57.797
44.0, 26349.06337846081, 51326.73547586626, 39612.56618649557, 4983.03085363279, 55571.488210140255, 44535.336737076854, -122957.84031842236, 39634.42619257286, 36180.88050852782, 63812.10700417841, 52882.21572425553, 10889.479325947683, 65081.37316481748, -123855.30756179185, 68609.32780615424, 46552.20169451257, -0.004, 1.026, -0.006, 192.0, 0.0, 0.0, 0.0, 0.0, 0.0, 0.0, 0.0, 0.0, 0.0, 1.696029657797948E9, 0.0, 2023-09-29 18:20:57.797
46.0, 26354.539555852363, 51324.790874098646, 39419.55887312399, 4994.921981683014, 55481.83536313002, 44467.40978567717, -122970.3796470618, 39556.35154919047, 36166.73185428761, 63855.31292621052, 52956.736440269524, 10857.784552310057, 65210.1415646245, -122630.85664878567, 68925.33676926336, 46869.28354135556, -0.004, 1.026, -0.006, 192.0, 0.0, 0.0, 0.0, 0.0, 0.0, 0.0, 0.0, 0.0, 0.0, 1.696029657858163E9, 0.0, 2023-09-29 18:20:57.858
48.0, 26327.06926191679, 51298.86285053049, 39583.55362219258, 4974.313673295221, 55558.613605334, 44529.97231840758, -123066.8497761309, 39627.38539306944, 36167.84944151038, 63791.230474857155, 52847.74933430545, 10882.237360744162, 65054.3052022821, -123849.3843495112, 68589.21123614446, 46534.72263034852, -0.004, 1.026, -0.006, 192.0, 0.0, 0.0, 0.0, 0.0, 0.0, 0.0, 0.0, 0.0, 0.0, 1.696029657858177E9, 0.0, 2023-09-29 18:20:57.858
50.0, 26327.203372383523, 51296.04653072912, 39424.967995282175, 4970.64798720455, 55482.95295035279, 44469.197925233595, -122916.24372199104, 39561.02306378163, 36165.81543276494, 63849.61323137442, 52971.30977765439, 10841.557185835503, 65215.79655597169, -122680.52222496537, 68933.33869377837, 46871.94339894574, -0.004, 1.026, -0.006, 192.0, 0.0, 0.0, 0.0, 0.0, 0.0, 0.0, 0.0, 0.0, 0.0, 1.69602965785818E9, 0.0, 2023-09-29 18:20:57.858
52.0, 26310.77484020887, 51279.59564681002, 39564.73345336121, 4969.977434870892, 55558.94888150083, 44513.946117633124, -123173.825225094, 39618.10941912048, 36149.00692093455, 63758.90985237478, 52816.568650790294, 10864.53477913556, 65027.080777535535, -123820.95293056405, 68588.42892508852, 46516.19303419507, -0.002, 1.024, -0.002, 192.0, 127.5, 120.0, 16.0, 0.0, 127.5, 120.0, 0.0, 0.0, 0.0, 1.696029657858183E9, 0.0, 2023-09-29 18:20:57.858
54.0, 26304.426944783565, 51274.29828337411, 39440.61421640089, 4948.229187515877, 55484.40581374238, 44447.42732613413, -122821.71819468954, 39546.71794733023, 36161.54624957398, 63842.97476327119, 52991.38164417525, 10834.00229620961, 65230.034617189725, -122737.60858030422, 68947.80027244095, 46865.75196573162, -0.002, 1.024, -0.002, 192.0, 0.0, 0.0, 0.0, 0.0, 0.0, 0.0, 0.0, 0.0, 0.0, 1.696029657858187E9, 0.0, 2023-09-29 18:20:57.858
56.0, 26303.130543605155, 51273.67243452936, 39526.84724650947, 4958.868617876604, 55550.522273841176, 44491.572021433356, -123231.7385949777, 39602.664363701864, 36131.55020851496, 63740.827291110436, 52793.2110778345, 10851.593119095936, 65016.955437297285, -123703.02512681784, 68604.3880706296, 46512.41558938212, -0.002, 1.024, -0.002, 192.0, 0.0, 0.0, 0.0, 0.0, 0.0, 0.0, 0.0, 0.0, 0.0, 1.69602965785819E9, 0.0, 2023-09-29 18:20:57.858
58.0, 26292.066430099778, 51263.100059402, 39466.45283299123, 4939.646117645039, 55498.442709260315, 44458.96082627307, -122767.24699345196, 39560.2854562146, 36166.44128160969, 63844.62879236088, 52997.438966922644, 10839.47847360116, 65223.61966653105, -122851.17779388164, 68927.84016464236, 46838.54989272951, -0.002, 1.024, -0.002, 192.0, 0.0, 0.0, 0.0, 0.0, 0.0, 0.0, 0.0, 0.0, 0.0, 1.696029657858193E9, 0.0, 2023-09-29 18:20:57.858
60.0, 26290.12182833217, 51252.68414648583, 39491.28562108107, 4941.255443245822, 55529.64574451992, 44474.6964543696, -123303.08536327904, 39586.5934594385, 36119.18969383117, 63720.91188680076, 52780.49293523943, 10835.499863088115, 65002.605617356974, -123595.58029122118, 68612.7923265448, 46531.951014036065, -0.002, 1.024, -0.002, 192.0, 0.0, 0.0, 0.0, 0.0, 0.0, 0.0, 0.0, 0.0, 0.0, 1.696029657858196E9, 0.0, 2023-09-29 18:20:57.858
62.0, 26281.829331139248, 51246.31389931606, 39476.53346974057, 4923.329344192665, 55488.876162633445, 44455.69747158259, -122704.10331536572, 39555.39042417889, 36156.137127415794, 63823.48404210616, 52991.716920342085, 10818.892516957821, 65212.93553268141, -122974.47001629711, 68889.55162639041, 46812.24188950562, -0.002, 1.024, -0.002, 192.0, 0.0, 0.0, 15.5, 120.0, 127.5, 112.0, 0.0, 0.0, 0.0, 1.696029657918365E9, 0.0, 2023-09-29 18:20:57.918
64.0, 26314.17230536608, 51273.51597231817, 39465.46935623519, 4959.963853354914, 55514.29009607912, 44469.73436710052, -123348.8170324346, 39586.235831527214, 36112.55122572795, 63719.28020945552, 52772.468658979975, 10828.995505451621, 65013.78148958463, -123442.5378969357, 68630.94194304252, 46547.194903754586, -0.002, 1.024, -0.002, 192.0, 0.0, 0.0, 0.0, 0.0, 0.0, 0.0, 0.0, 0.0, 0.0, 1.696029657918374E9, 0.0, 2023-09-29 18:20:57.918
66.0, 26304.87397967267, 51269.269140871664, 39526.757839531645, 4934.92989956497, 55514.51361352368, 44485.04531205241, -122663.71371313497, 39592.6954856748, 36175.06905496944, 63840.42666440328, 53008.03369379446, 10839.903156745811, 65227.374759599545, -123129.4570123502, 68858.01331496397, 46781.32942692393, -0.002, 1.024, -0.002, 192.0, 0.0, 0.0, 0.0, 0.0, 0.0, 0.0, 0.0, 0.0, 0.0, 1.696029657918377E9, 0.0, 2023-09-29 18:20:57.918
68.0, 26334.02065444239, 51293.118452205475, 39453.95820784071, 4981.600341987651, 55514.804186201596, 44478.4515474381, -123355.74607321573, 39592.4943199747, 36129.04681313596, 63745.7446748906, 52792.674635967574, 10843.792360281035, 65031.10409153749, -123273.40224664239, 68685.54725474682, 46606.963468428075, -0.002, 1.024, -0.002, 192.0, 0.0, 0.0, 0.0, 0.0, 0.0, 0.0, 0.0, 0.0, 0.0, 1.69602965791838E9, 0.0, 2023-09-29 18:20:57.918
70.0, 26311.713613475993, 51277.96396946478, 39546.740299074685, 4937.165074010501, 55525.354209584504, 44502.61378319428, -122651.24143972891, 39606.82178817056, 36191.452883655176, 63859.00096404564, 53005.93262981566, 10855.281156931062, 65203.54780001019, -123278.0514094891, 68827.68199773812, 46759.9388074802, -0.002, 1.024, -0.002, 192.0, 0.0, 0.0, 0.0, 0.0, 0.0, 0.0, 0.0, 0.0, 0.0, 1.696029657918383E9, 0.0, 2023-09-29 18:20:57.918
72.0, 26347.230535415478, 51305.54602212263, 39427.493742405626, 4977.912304152525, 55511.78670070013, 44485.13471903023, -123356.59543950504, 39586.21347978276, 36130.276159081004, 63775.80777118299, 52807.94087743055, 10844.127636447864, 65054.37225751547, -123105.42888706076, 68731.23422041348, 46666.597922634835, 0.002, 1.024, -0.004, 192.0, 0.0, 8.0, 16.0, 0.0, 127.5, 112.0, 0.0, 0.0, 0.0, 1.696029657918387E9, 0.0, 2023-09-29 18:20:57.918
74.0, 26317.59212226774, 51286.50233584671, 39577.92098258984, 4930.057219273713, 55539.547567313624, 44511.353315276305, -122654.28127697484, 39610.152198094394, 36187.76484582006, 63862.91251932532, 52990.174649974666, 10863.618357612891, 65186.58282596861, -123430.04327178518, 68783.89493035019, 46728.15462686475, 0.002, 1.024, -0.004, 192.0, 0.0, 0.0, 0.0, 0.0, 0.0, 0.0, 0.0, 0.0, 0.0, 1.69602965791839E9, 0.0, 2023-09-29 18:20:57.918
76.0, 26367.36945716971, 51327.69660087784, 39410.7522858086, 4980.706272209439, 55501.9519331398, 44474.53999215842, -123329.01338684719, 39573.11535753195, 36123.011842133026, 63787.98947191113, 52822.00012469294, 10844.708781803702, 65074.37706880297, -122933.34280649935, 68783.3361367388, 46719.32568780491, 0.002, 1.024, -0.004, 192.0, 0.0, 0.0, 0.0, 0.0, 0.0, 0.0, 0.0, 0.0, 0.0, 1.696029657978671E9, 0.0, 2023-09-29 18:20:57.978
78.0, 26327.404538083618, 51295.62184758447, 39589.812110640065, 4920.35656218011, 55548.19769241783, 44521.88098691476, -122682.82445464427, 39625.01610815717, 36198.60544188088, 63861.07967627999, 52974.90840851169, 10874.77187809609, 65173.99879384027, -123567.81942460769, 68736.88921176067, 46681.75240537553, 0.002, 1.024, -0.004, 192.0, 0.0, 0.0, 0.0, 0.0, 0.0, 0.0, 0.0, 0.0, 0.0, 1.696029657978683E9, 0.0, 2023-09-29 18:20:57.978
80.0, 26377.673611363603, 51333.4186474584, 39387.41706459726, 4968.368109270109, 55492.34068302401, 44475.59052414782, -123272.03879023061, 39573.316523232046, 36136.73581322859, 63801.5569807955, 52848.01755523891, 10841.803055024511, 65103.99313020625, -122788.0341157954, 68827.7490529715, 46755.04377544449, 0.002, 1.024, -0.004, 192.0, 0.0, 0.0, 0.0, 0.0, 0.0, 0.0, 0.0, 0.0, 0.0, 1.696029657978686E9, 0.0, 2023-09-29 18:20:57.978
82.0, 26350.382131383674, 51315.425493171875, 39597.3446485215, 4928.447893672931, 55556.35607914402, 44531.3134230749, -122747.77862403139, 39637.10840190749, 36199.007773281075, 63863.47131293671, 52962.346728127806, 10885.031328801077, 65136.47021489981, -123678.46055966146, 68699.02535665338, 46631.10335243981, 0.002, 1.024, -0.004, 192.0, 0.0, 0.0, 15.5, 112.0, 127.5, 104.0, 0.0, 0.0, 0.0, 1.696029657978689E9, 0.0, 2023-09-29 18:20:57.978
84.0, 26389.56473941383, 51353.64697619045, 39385.42775934074, 4969.463344748419, 55482.7964881416, 44463.386471675214, -123197.2722050276, 39569.78494760811, 36151.331502357905, 63834.92813526728, 52889.077709803314, 10854.230624941663, 65123.72972056028, -122694.44736176102, 68865.81407377888, 46794.60636313038, 0.002, 1.024, -0.004, 192.0, 0.0, 0.0, 0.0, 0.0, 0.0, 0.0, 0.0, 0.0, 0.0, 1.696029657978693E9, 0.0, 2023-09-29 18:20:57.978
86.0, 26369.805797315337, 51341.219406273296, 39594.08129383103, 4941.233091501366, 55558.077163467075, 44538.64479525624, -122806.25078752647, 39646.74200376773, 36195.47619765713, 63850.35083894144, 52940.79964647289, 10889.68049164778, 65107.74822327474, -123738.00560689041, 68675.69013544204, 46603.051913148396, 0.002, 1.024, -0.004, 192.0, 0.0, 0.0, 0.0, 0.0, 0.0, 0.0, 0.0, 0.0, 0.0, 1.696029657978696E9, 0.0, 2023-09-29 18:20:57.978
88.0, 26419.694890939583, 51391.689645253384, 39387.774692508545, 4981.086251865179, 55470.92771183583, 44477.53512591543, -123139.82822177747, 39583.50891870367, 36169.436415366705, 63865.70648738224, 52934.54115802541, 10864.646537857836, 65153.971630808315, -122617.51265734585, 68901.71097537411, 46820.824959376456, 0.002, 1.024, -0.004, 192.0, 0.0, 0.0, 0.0, 0.0, 0.0, 0.0, 0.0, 0.0, 0.0, 1.696029657978699E9, 0.0, 2023-09-29 18:20:57.978
90.0, 26396.3820214727, 51367.862685664026, 39610.35336379449, 4963.249559789844, 55566.682585082366, 44543.025737169475, -122919.41766970369, 39656.86734400599, 36219.21375026867, 63858.66568787881, 52938.028030160436, 10899.135279552374, 65093.286644612155, -123820.08121253029, 68636.5522309008, 46557.052023059376, 0.002, 1.024, -0.004, 192.0, 0.0, 0.0, 0.0, 0.0, 0.0, 0.0, 0.0, 0.0, 0.0, 1.696029657978702E9, 0.0, 2023-09-29 18:20:57.978
92.0, 26411.648262935672, 51369.09203160906, 39409.7017538192, 4986.607132745639, 55478.50495320618, 44473.02007353545, -123046.57674390993, 39581.47490995823, 36193.59865112289, 63879.944548600266, 52981.88215278175, 10869.25099721563, 65194.942378394895, -122585.79553196378, 68929.98593211007, 46838.79576191852, 0.002, 1.02, -0.006, 192.0, 0.0, 8.0, 15.5, 112.0, 127.5, 104.0, 0.0, 0.0, 0.0, 1.696029658039021E9, 0.0, 2023-09-29 18:20:58.039
94.0, 26409.99423384598, 51368.80145893115, 39622.31154707808, 4996.240734605877, 55574.84097180855, 44549.82066748389, -123008.31055740245, 39669.00434124522, 36214.34106997741, 63854.08358026548, 52922.04653287489, 10912.814547159023, 65075.47230428128, -123827.0773085448, 68616.7932888023, 46518.47291212952, 0.002, 1.02, -0.006, 192.0, 0.0, 0.0, 0.0, 0.0, 0.0, 0.0, 0.0, 0.0, 0.0, 1.696029658039034E9, 0.0, 2023-09-29 18:20:58.039
96.0, 26438.157431859665, 51410.286296640195, 39454.31583575199, 5024.314525641743, 55493.212401057775, 44492.73431214503, -122977.84512970987, 39601.68088694583, 36216.37507872285, 63920.37885431992, 53023.657563168716, 10894.687282405768, 65223.53025955323, -122612.2376456544, 68952.38238005429, 46857.70533772771, 0.002, 1.02, -0.006, 192.0, 0.0, 0.0, 0.0, 0.0, 0.0, 0.0, 0.0, 0.0, 0.0, 1.696029658039037E9, 0.0, 2023-09-29 18:20:58.039
98.0, 26426.467469509542, 51380.625531748, 39629.598215770515, 5018.883051739103, 55574.773916575185, 44551.67586227368, -123099.12569512436, 39678.459129149815, 36215.81628511146, 63857.1234175114, 52920.57131774084, 10933.06522763553, 65063.02238261967, -123814.4262211831, 68626.47159415146, 46540.35526995126, 0.002, 1.02, -0.006, 192.0, 0.0, 0.0, 0.0, 0.0, 0.0, 0.0, 0.0, 0.0, 0.0, 1.69602965803904E9, 0.0, 2023-09-29 18:20:58.039
100.0, 26445.622914507738, 51406.06181693814, 39499.60047001844, 5025.767389031338, 55499.58264822754, 44496.1541290467, -122887.94641351062, 39611.493302761715, 36226.72393640565, 63939.46724408475, 53066.103525889346, 10909.662951190825, 65245.03263771923, -122660.96444856697, 68971.69428726367, 46892.261134655615, 0.002, 1.02, -0.006, 192.0, 0.0, 0.0, 0.0, 0.0, 0.0, 0.0, 0.0, 0.0, 0.0, 1.696029658039044E9, 0.0, 2023-09-29 18:20:58.039
102.0, 26444.95236217408, 51404.02780819271, 39628.055945403095, 5037.323240914731, 55566.03438449316, 44536.610786510806, -123175.0769227835, 39665.383358643456, 36212.24000599862, 63857.7716181006, 52911.585916469805, 10940.865986450433, 65057.52385348366, -123740.68781622504, 68633.66885586607, 46548.46895318854, 0.002, 1.022, 0.0, 192.0, 0.0, 8.0, 15.5, 120.0, 0.0, 0.0, 0.0, 0.0, 0.0, 1.696029658039047E9, 0.0, 2023-09-29 18:20:58.039
104.0, 26450.719112243547, 51413.862575753046, 39537.15140070336, 5030.573014089228, 55502.37661628445, 44496.57881219135, -122788.83877859579, 39615.94129990832, 36234.34588126491, 63945.83749125451, 53085.281322632, 10921.531727496593, 65265.52918738475, -122730.5677808008, 68975.60584254334, 46886.114404930406, 0.002, 1.022, 0.0, 192.0, 0.0, 0.0, 0.0, 0.0, 0.0, 0.0, 0.0, 0.0, 0.0, 1.69602965803905E9, 0.0, 2023-09-29 18:20:58.039
106.0, 26460.866804226258, 51415.31543914264, 39612.543834751115, 5058.915026058558, 55555.37260238798, 44537.03546965546, -123226.97767340872, 39662.05294871962, 36206.07092452895, 63846.34987668394, 52905.48389023351, 10943.794064974078, 65043.95634459929, -123610.28773907278, 68650.56677467427, 46565.65744467467, 0.002, 1.022, 0.0, 192.0, 0.0, 0.0, 0.0, 0.0, 0.0, 0.0, 0.0, 0.0, 0.0, 1.696029658098469E9, 0.0, 2023-09-29 18:20:58.098
108.0, 26464.018400194454, 51425.32902065862, 39575.97638082223, 5053.796476578293, 55517.5534507696, 44511.93446063215, -122722.78937373035, 39626.290157591124, 36247.309893048994, 63959.85203502799, 53107.38719789829, 10932.014695646132, 65244.4514923634, -122829.58600873781, 68958.61851675731, 46880.68293102777, 0.002, 1.022, 0.0, 192.0, 0.0, 0.0, 0.0, 0.0, 0.0, 0.0, 0.0, 0.0, 0.0, 1.69602965809848E9, 0.0, 2023-09-29 18:20:58.098
110.0, 26480.402228880197, 51440.617613866045, 39608.27465156015, 5079.344520490708, 55556.62430007748, 44537.16958012219, -123310.34968022701, 39660.197753929824, 36213.91638683276, 63866.377039715895, 52905.148614066675, 10950.365477843938, 65043.01757133217, -123488.69424923591, 68664.40250449211, 46587.42804377414, 0.002, 1.022, 0.0, 192.0, 0.0, 0.0, 0.0, 0.0, 0.0, 0.0, 0.0, 0.0, 0.0, 1.696029658098483E9, 0.0, 2023-09-29 18:20:58.098
112.0, 26464.219565894553, 51428.86059628256, 39620.18813135483, 5060.680813870527, 55522.068503149574, 44528.407696295704, -122667.17823352556, 39633.53212279465, 36265.6606752468, 63971.6984595893, 53121.84877656088, 10939.569585272026, 65255.78382680224, -122968.21152784962, 68925.0685483299, 46858.95703541721, 0.004, 1.022, 0.002, 192.0, 0.0, 16.0, 15.5, 120.0, 0.0, 8.0, 0.0, 0.0, 0.0, 1.696029658098486E9, 0.0, 2023-09-29 18:20:58.098
114.0, 26497.747182577514, 51457.35907046308, 39582.72660764773, 5103.6408667136275, 55549.71761104079, 44537.88483594476, -123388.55843407613, 39650.51944858068, 36217.380907223334, 63875.250682264654, 52901.97466635402, 10942.274146351117, 65052.78528365914, -123343.3185032986, 68681.97097563399, 46609.533919040434, 0.004, 1.022, 0.002, 192.0, 0.0, 0.0, 0.0, 0.0, 0.0, 0.0, 0.0, 0.0, 0.0, 1.69602965809849E9, 0.0, 2023-09-29 18:20:58.098
116.0, 26469.360467119273, 51433.4427038959, 39658.879001006964, 5071.789630864815, 55544.308488882605, 44539.248292356526, -122689.61938495869, 39649.11128868, 36283.720884766684, 63987.65760513039, 53124.240413217594, 10948.175006887319, 65256.96846925837, -123173.55700416054, 68867.1551784462, 46808.419741203754, 0.004, 1.022, 0.002, 192.0, 0.0, 0.0, 0.0, 0.0, 0.0, 0.0, 0.0, 0.0, 0.0, 1.696029658098493E9, 0.0, 2023-09-29 18:20:58.098
118.0, 26493.410944153184, 51450.05005002619, 39561.11247075945, 5103.171480080066, 55540.79926500312, 44525.412562538695, -123392.44763761136, 39637.64484377442, 36223.01354682607, 63879.251644522155, 52918.89493690669, 10929.198375844762, 65078.73565897175, -123198.65801318384, 68724.975731966, 46654.81855330689, 0.004, 1.022, 0.002, 192.0, 0.0, 0.0, 0.0, 0.0, 0.0, 0.0, 0.0, 0.0, 0.0, 1.696029658098496E9, 0.0, 2023-09-29 18:20:58.098
120.0, 26467.125292673743, 51429.151168960474, 39678.86146055001, 5065.106459272678, 55557.67483206688, 44545.462077315104, -122667.28999224782, 39652.39699511493, 36274.646076517834, 63971.65375610039, 53108.37067465433, 10939.681343994302, 65240.00349521679, -123307.01927030316, 68843.97641944604, 46780.88239203482, 0.004, 1.022, 0.002, 192.0, 0.0, 0.0, 0.0, 0.0, 0.0, 0.0, 0.0, 0.0, 0.0, 1.696029658098499E9, 0.0, 2023-09-29 18:20:58.098
122.0, 26499.490618645028, 51454.56510240616, 39537.06199372554, 5093.090843330722, 55530.62922127596, 44515.04135311143, -123358.83061395057, 39625.99958491321, 36225.427535227245, 63883.18555154629, 52919.990172385, 10920.034160618086, 65097.73464175876, -123007.79646727997, 68791.0921920648, 46712.48605400158, 0.002, 1.02, 0.0, 192.0, 0.0, 8.0, 15.5, 112.0, 0.0, 0.0, 0.0, 0.0, 0.0, 1.696029658158205E9, 0.0, 2023-09-29 18:20:58.158
124.0, 26470.47805434204, 51433.73327657381, 39692.026638034185, 5068.749793618893, 55573.298701441134, 44550.9159029622, -122719.1683911286, 39667.484422622256, 36278.82585273097, 63969.73150607724, 53083.94021796468, 10948.800855732066, 65215.215410615856, -123458.94407736589, 68802.53628522591, 46718.58808023788, 0.002, 1.02, 0.0, 192.0, 0.0, 0.0, 0.0, 0.0, 0.0, 0.0, 0.0, 0.0, 0.0, 1.696029658158214E9, 0.0, 2023-09-29 18:20:58.158
126.0, 26504.653871614206, 51460.15303851999, 39516.58779580448, 5099.550497478306, 55521.80028221611, 44498.925745359156, -123361.66928549639, 39612.07444811755, 36217.26914850106, 63904.196191334275, 52937.178663871135, 10926.292649065572, 65117.00184547924, -122898.63054736026, 68825.06684363686, 46737.45295255816, 0.002, 1.02, 0.0, 192.0, 0.0, 0.0, 0.0, 0.0, 0.0, 0.0, 0.0, 0.0, 0.0, 1.696029658158218E9, 0.0, 2023-09-29 18:20:58.158
128.0, 26477.630612567737, 51436.25902369726, 39704.02952480668, 5065.419383695053, 55574.95273053083, 44553.173429152186, -122778.62403137972, 39662.36587314199, 36284.45849233371, 63964.881177530435, 53072.33966259238, 10954.03116393461, 65195.81409642865, -123605.66092797053, 68759.03979051588, 46680.09837628584, 0.002, 1.02, 0.0, 192.0, 0.0, 0.0, 0.0, 0.0, 0.0, 0.0, 0.0, 0.0, 0.0, 1.696029658158221E9, 0.0, 2023-09-29 18:20:58.158
130.0, 26513.080479273856, 51464.13164903303, 39511.73746725768, 5101.495099245918, 55510.535003010635, 44494.790672634925, -123322.68784316634, 39599.8480439005, 36228.154448050795, 63919.864764197446, 52963.1513909282, 10930.87475667891, 65147.91430806093, -122781.70857211454, 68861.32137314336, 46785.375092670336, 0.002, 1.02, 0.0, 192.0, 0.0, 0.0, 0.0, 0.0, 0.0, 0.0, 0.0, 0.0, 0.0, 1.696029658158224E9, 0.0, 2023-09-29 18:20:58.158
132.0, 26485.09609521581, 51444.73033484582, 39720.39100174797, 5071.409651209075, 55586.6203411365, 44553.665167530206, -122852.00480842649, 39660.42127137438, 36281.23984113215, 63956.499273359696, 53042.030697110975, 10959.820265748533, 65160.833616356096, -123729.98133063095, 68707.1166881462, 46635.618404819776, 0.002, 1.022, -0.004, 192.0, 0.0, 8.0, 15.5, 120.0, 127.5, 112.0, 0.0, 0.0, 0.0, 1.696029658158227E9, 0.0, 2023-09-29 18:20:58.158
134.0, 26517.327310720364, 51465.22688451134, 39508.31765035602, 5106.524241748362, 55508.18806984283, 44486.07349229736, -123265.8920605054, 39589.70035191779, 36245.87938140385, 63942.864709241956, 52988.855897051806, 10931.522957268115, 65171.00366008326, -122692.0110216154, 68895.27367297097, 46823.93185185574, 0.002, 1.022, -0.004, 192.0, 0.0, 0.0, 0.0, 0.0, 0.0, 0.0, 0.0, 0.0, 0.0, 1.69602965815823E9, 0.0, 2023-09-29 18:20:58.158
136.0, 26489.588795851327, 51443.18806447841, 39724.66018493893, 5068.995662807902, 55583.55815214612, 44558.135516421265, -122923.39628021674, 39662.38822488645, 36287.07364643498, 63943.46820634225, 53027.278545770474, 10959.59674830398, 65135.285572443674, -123805.95491003453, 68670.2586615394, 46598.24628809051, 0.002, 1.022, -0.004, 192.0, 0.0, 0.0, 0.0, 0.0, 0.0, 0.0, 0.0, 0.0, 0.0, 1.696029658218461E9, 0.0, 2023-09-29 18:20:58.218
138.0, 26513.34870020732, 51461.22592225384, 39506.127179399395, 5095.571886965262, 55493.72649118024, 44488.018094064966, -123172.19354774876, 39580.91611634685, 36252.6072564849, 63953.86176751397, 53022.36116199031, 10923.677494964302, 65200.66442497545, -122621.96065449246, 68926.29789427495, 46852.475029525165, 0.002, 1.022, -0.004, 192.0, 0.0, 0.0, 0.0, 0.0, 0.0, 0.0, 0.0, 0.0, 0.0, 1.696029658218475E9, 0.0, 2023-09-29 18:20:58.218
140.0, 26489.566444106873, 51441.71284934436, 39711.36089698802, 5071.923741331547, 55584.45222192434, 44561.130650178275, -123019.86640928584, 39655.30272189411, 36272.209736372206, 63926.32441834503, 52988.699434840615, 10952.175969144819, 65110.7210052873, -123833.04522431437, 68641.04493153631, 46578.88967739221, 0.002, 1.022, -0.004, 192.0, 0.0, 0.0, 0.0, 0.0, 0.0, 0.0, 0.0, 0.0, 0.0, 1.696029658218479E9, 0.0, 2023-09-29 18:20:58.218
142.0, 26513.28164497395, 51463.908131588476, 39512.408019591334, 5095.370721265164, 55507.56222099808, 44495.61768717977, -123104.87009344937, 39576.55752617807, 36249.79093668353, 63957.50510186018, 53032.26298478401, 10915.340294282472, 65228.984085200325, -122609.93541597552, 68942.50290900504, 46886.00264620813, 0.004, 1.018, 0.002, 192.0, 0.0, 16.0, 15.5, 104.0, 0.0, 8.0, 0.0, 0.0, 0.0, 1.696029658218482E9, 0.0, 2023-09-29 18:20:58.218
144.0, 26493.165074964178, 51449.13362850352, 39696.87696658099, 5072.035500053823, 55588.967274304305, 44565.24337115805, -123116.24713137712, 39652.01701545918, 36257.725805965165, 63915.32736007302, 52962.43613510563, 10950.968974944231, 65099.70159527083, -123848.3338175218, 68616.45801263547, 46564.36104349626, 0.004, 1.018, 0.002, 192.0, 0.0, 0.0, 0.0, 0.0, 0.0, 0.0, 0.0, 0.0, 0.0, 1.696029658218485E9, 0.0, 2023-09-29 18:20:58.218
146.0, 26509.77242109447, 51463.774021121746, 39528.2777581546, 5079.523334446351, 55510.78087219964, 44500.04333258192, -123015.41841213923, 39580.46908145775, 36252.36138729589, 63970.75968632218, 53058.10160137434, 10920.391788529372, 65246.26198366428, -122624.0393667268, 68961.01015341404, 46907.147396462846, 0.004, 1.018, 0.002, 192.0, 0.0, 0.0, 0.0, 0.0, 0.0, 0.0, 0.0, 0.0, 0.0, 1.696029658218488E9, 0.0, 2023-09-29 18:20:58.218
148.0, 26505.212665225587, 51461.71766063186, 39678.90616403892, 5079.299817001798, 55594.75637611823, 44550.75944075101, -123231.00098741068, 39651.03353870315, 36247.1534308378, 63899.54702848757, 52930.20491960108, 10949.963146443743, 65072.14189435743, -123808.90534030263, 68608.27727416484, 46552.3358049793, 0.004, 1.018, 0.002, 192.0, 0.0, 0.0, 0.0, 0.0, 0.0, 0.0, 0.0, 0.0, 0.0, 1.696029658218491E9, 0.0, 2023-09-29 18:20:58.218
150.0, 26506.509066403996, 51460.86829434256, 39552.060014255054, 5067.118116273656, 55513.73130246774, 44492.30962900038, -122943.13287057077, 39582.77131113665, 36267.42646305877, 63985.17656149585, 53081.36976735232, 10928.416064788827, 65267.11616124108, -122711.01000440241, 68954.1258161218, 46903.63817258336, 0.004, 1.018, 0.002, 192.0, 0.0, 0.0, 0.0, 0.0, 0.0, 0.0, 0.0, 0.0, 0.0, 1.696029658218495E9, 0.0, 2023-09-29 18:20:58.218
152.0, 26511.62761588426, 51465.316291489165, 39655.727405038764, 5079.121003046155, 55578.8195823216, 44540.58939702385, -123310.21556976029, 39641.690509520835, 36244.33711103644, 63895.45665925225, 52908.434320501605, 10949.650222021368, 65066.241033821236, -123733.51290625488, 68627.79034707432, 46564.83043012982, 0.004, 1.018, -0.002, 192.0, 0.0, 16.0, 15.5, 104.0, 127.5, 120.0, 0.0, 0.0, 0.0, 1.696029658278729E9, 0.0, 2023-09-29 18:20:58.278
154.0, 26503.536284391437, 51458.119029774556, 39567.929752818316, 5066.112287773167, 55514.84888969051, 44500.579774448845, -122868.67920979015, 39589.320372262046, 36271.13685263835, 63989.28928247563, 53088.90230523376, 10935.032181147597, 65272.01119327679, -122793.91262458714, 68972.18602564168, 46904.39813189484, 0.004, 1.018, -0.002, 192.0, 0.0, 0.0, 0.0, 0.0, 0.0, 0.0, 0.0, 0.0, 0.0, 1.696029658278743E9, 0.0, 2023-09-29 18:20:58.278
156.0, 26516.67911013116, 51472.67001541496, 39625.105515134994, 5089.134584562134, 55569.677718839375, 44533.34743182033, -123373.42630307989, 39639.50003856421, 36229.60731144039, 63885.26426378063, 52890.01648307044, 10949.7843324881, 65057.61326046148, -123613.75225946335, 68647.3034199838, 46582.82358441634, 0.004, 1.018, -0.002, 192.0, 0.0, 0.0, 0.0, 0.0, 0.0, 0.0, 0.0, 0.0, 0.0, 1.696029658278749E9, 0.0, 2023-09-29 18:20:58.278
158.0, 26501.457572157095, 51458.521361174746, 39597.67992468833, 5060.1443720036, 55523.72253223926, 44508.8052164084, -122798.36062173375, 39601.837349157024, 36281.10573066542, 63998.38644246894, 53104.57087809693, 10941.581242273003, 65270.357164187095, -122910.56637889938, 68954.34933356635, 46888.193117164745, 0.004, 1.018, -0.002, 192.0, 0.0, 0.0, 0.0, 0.0, 0.0, 0.0, 0.0, 0.0, 0.0, 1.696029658278752E9, 0.0, 2023-09-29 18:20:58.278
160.0, 26526.04449105793, 51475.48633521633, 39598.08225608853, 5095.326017776253, 55563.19571294734, 44528.988841651546, -123438.29106548919, 39635.07439316206, 36236.93868362173, 63879.8774933669, 52882.61805565573, 10941.447131806271, 65055.64630694942, -123461.24630704478, 68680.74162968894, 46609.42216031816, 0.004, 1.018, -0.002, 192.0, 0.0, 0.0, 0.0, 0.0, 0.0, 0.0, 0.0, 0.0, 0.0, 1.696029658278756E9, 0.0, 2023-09-29 18:20:58.278
162.0, 26500.697612845615, 51452.866369827556, 39631.72163149377, 5061.932511560025, 55539.12288416897, 44522.14920784822, -122791.54333967488, 39623.27267208966, 36292.37100987089, 63997.246503501716, 53107.70012232067, 10946.990364431187, 65267.2055682189, -123082.98773562763, 68908.77412662198, 46856.47599178267, 0.002, 1.018, -0.01, 192.0, 0.0, 8.0, 15.5, 104.0, 127.5, 88.0, 0.0, 0.0, 0.0, 1.696029658278761E9, 0.0, 2023-09-29 18:20:58.278
164.0, 26525.217476513088, 51474.90518986049, 39562.967665549244, 5089.134584562134, 55562.122829213484, 44514.59431822233, -123466.9907053698, 39619.83050344354, 36225.27107301606, 63883.856103879945, 52887.46838420253, 10933.847538691467, 65067.425676277366, -123313.27775875066, 68706.60259802373, 46652.89630328373, 0.002, 1.018, -0.01, 192.0, 0.0, 0.0, 0.0, 0.0, 0.0, 0.0, 0.0, 0.0, 0.0, 1.696029658278764E9, 0.0, 2023-09-29 18:20:58.278
166.0, 26497.52366513296, 51450.98882329331, 39646.652596789914, 5049.549645131784, 55559.954710001315, 44522.7080014596, -122759.51328987042, 39632.12396289396, 36286.403094101326, 63990.540980165126, 53096.70306404866, 10941.827111462011, 65251.425236633455, -123216.22648432571, 68863.33303014435, 46813.6500494063, 0.002, 1.018, -0.01, 192.0, 0.0, 0.0, 0.0, 0.0, 0.0, 0.0, 0.0, 0.0, 0.0, 1.696029658338905E9, 0.0, 2023-09-29 18:20:58.338
168.0, 26534.806374884414, 51476.93919860592, 39550.47304039873, 5108.3347330492425, 55556.825465777576, 44512.537957732435, -123493.79044697172, 39627.40774481389, 36227.57330269495, 63878.24581602166, 52894.41977672813, 10932.97582065771, 65088.12339164298, -123164.32573370049, 68738.87851701719, 46676.49974542853, 0.002, 1.018, -0.01, 192.0, 0.0, 0.0, 0.0, 0.0, 0.0, 0.0, 0.0, 0.0, 0.0, 1.696029658338916E9, 0.0, 2023-09-29 18:20:58.338
170.0, 26495.176731965155, 51443.12100924504, 39675.41929190389, 5043.42526715103, 55568.96246301681, 44532.900396931225, -122776.76883658992, 39641.24347463172, 36299.680030307776, 63978.40398292589, 53097.619485571326, 10946.990364431187, 65242.261021406775, -123383.70810552932, 68835.30394259738, 46778.55781061147, 0.002, 1.018, -0.01, 192.0, 0.0, 0.0, 0.0, 0.0, 0.0, 0.0, 0.0, 0.0, 0.0, 1.69602965833892E9, 0.0, 2023-09-29 18:20:58.338
172.0, 26521.9094183337, 51462.924654832445, 39518.93472897229, 5085.133622304634, 55533.043209677126, 44489.71682664357, -123460.12871982202, 39593.1425205639, 36232.133058563835, 63877.776429388105, 52910.535384480405, 10918.313076295028, 65103.25552263922, -122997.93934797519, 68799.98818635801, 46734.94955717916, 0.002, 1.02, -0.01, 192.0, 0.0, 8.0, 15.5, 112.0, 127.5, 88.0, 0.0, 0.0, 0.0, 1.696029658338923E9, 0.0, 2023-09-29 18:20:58.338
174.0, 26496.450781399108, 51440.72937258833, 39678.83910880555, 5044.721668329438, 55576.182076475874, 44532.65452774221, -122813.93978761909, 39637.93541645234, 36285.956059212214, 63939.444892340296, 53059.71092697512, 10935.076884636508, 65198.85393367457, -123521.55131358521, 68786.01834607344, 46721.65026922825, 0.002, 1.02, -0.01, 192.0, 0.0, 0.0, 0.0, 0.0, 0.0, 0.0, 0.0, 0.0, 0.0, 1.696029658338926E9, 0.0, 2023-09-29 18:20:58.338
176.0, 26529.39725272623, 51466.32211998965, 39498.1252548844, 5085.312436260276, 55519.4533490483, 44484.08418704083, -123431.16085900794, 39586.63816292741, 36239.53148597854, 63888.43821149328, 52931.38956205721, 10919.900050151355, 65123.52855486018, -122871.89786099171, 68822.76461395796, 46766.4878686056, 0.002, 1.02, -0.01, 192.0, 0.0, 0.0, 0.0, 0.0, 0.0, 0.0, 0.0, 0.0, 0.0, 1.696029658338929E9, 0.0, 2023-09-29 18:20:58.338
178.0, 26496.786057565936, 51443.500988900785, 39697.45811193682, 5043.76054331786, 55586.32976845858, 44543.91980694769, -122865.19233765511, 39646.2055619008, 36284.74906501163, 63934.125177159935, 53041.58366222187, 10941.156559128352, 65178.67030843143, -123648.55392558026, 68730.83188901328, 46687.02741706699, 0.002, 1.02, -0.01, 192.0, 0.0, 0.0, 0.0, 0.0, 0.0, 0.0, 0.0, 0.0, 0.0, 1.696029658338932E9, 0.0, 2023-09-29 18:20:58.338
180.0, 26529.263142259497, 51467.50676244578, 39483.59662098844, 5076.572904178251, 55505.48350876373, 44475.635227636725, -123372.59928853504, 39576.98220932272, 36233.42945974225, 63899.569380232024, 52946.18641688662, 10912.63573320338, 65149.903613317445, -122741.98952221747, 68860.76257953198, 46819.57326168696, 0.002, 1.02, -0.01, 192.0, 0.0, 0.0, 0.0, 0.0, 0.0, 0.0, 0.0, 0.0, 0.0, 1.696029658338935E9, 0.0, 2023-09-29 18:20:58.338
182.0, 26505.883217559247, 51451.7934860937, 39703.85071085104, 5051.9859852774125, 55588.207314992826, 44546.9149407047, -122949.92780088518, 39651.14529742543, 36289.241765647144, 63926.45852881176, 53003.83156583686, 10944.509320796647, 65156.16210176493, -123755.99876117692, 68677.63473720965, 46638.077096709865, 0.002, 1.024, -0.012, 192.0, 0.0, 8.0, 16.0, 0.0, 127.5, 80.0, 0.0, 0.0, 0.0, 1.696029658398457E9, 0.0, 2023-09-29 18:20:58.398
184.0, 26537.801508641423, 51475.441631727415, 39489.989219902665, 5076.014110566868, 55518.38046531445, 44478.80917534938, -123337.35058752903, 39582.1454622919, 36252.473146018165, 63919.75300547517, 52976.22716143455, 10917.217840816718, 65196.77522144023, -122685.28314653435, 68889.6633851127, 46831.1067618259, 0.002, 1.024, -0.012, 192.0, 0.0, 0.0, 0.0, 0.0, 0.0, 0.0, 0.0, 0.0, 0.0, 1.696029658398467E9, 0.0, 2023-09-29 18:20:58.398
186.0, 26496.80840931039, 51443.25511971177, 39688.159786243414, 5037.122075214634, 55584.54162890216, 44538.48833304505, -123050.04126430051, 39645.669120033876, 36281.73157951017, 63913.94155191679, 52989.30293194091, 10942.698829495768, 65139.55475563464, -123849.3843495112, 68647.705751384, 46587.91978215215, 0.002, 1.024, -0.012, 192.0, 0.0, 0.0, 0.0, 0.0, 0.0, 0.0, 0.0, 0.0, 0.0, 1.69602965839847E9, 0.0, 2023-09-29 18:20:58.398
188.0, 26520.322444477373, 51458.20843675238, 39473.04659760554, 5056.1434097461, 55494.799374914095, 44463.16295423066, -123228.27407458713, 39559.21257248075, 36240.06792784547, 63922.65873225436, 52990.28640869694, 10900.901067364344, 65216.2435908608, -122625.13460220511, 68920.79936513894, 46859.71699472869, 0.002, 1.024, -0.012, 192.0, 0.0, 0.0, 0.0, 0.0, 0.0, 0.0, 0.0, 0.0, 0.0, 1.696029658398473E9, 0.0, 2023-09-29 18:20:58.398
190.0, 26497.456609899597, 51438.89652954299, 39667.32796041107, 5031.489435611897, 55578.6184166215, 44536.54373127744, -123130.73106178416, 39639.522390308666, 36262.73259672315, 63895.90369414136, 52940.35261158379, 10933.534614269092, 65111.50331634323, -123846.97036111003, 68614.17813470104, 46553.02870905742, 0.002, 1.024, -0.012, 192.0, 0.0, 0.0, 0.0, 0.0, 0.0, 0.0, 0.0, 0.0, 0.0, 1.696029658398477E9, 0.0, 2023-09-29 18:20:58.398
192.0, 26509.705365861104, 51447.144323247, 39475.795862173545, 5037.211482192455, 55487.110374821474, 44469.91318105617, -123135.5590385865, 39560.240752725695, 36247.28754130453, 63933.67814227082, 53010.42533045117, 10892.29564574905, 65238.416521360465, -122604.72745951742, 68944.04517937245, 46868.836506466454, 0.002, 1.024, -0.012, 192.0, 0.0, 0.0, 15.5, 120.0, 127.5, 80.0, 0.0, 0.0, 0.0, 1.69602965839848E9, 0.0, 2023-09-29 18:20:58.398
194.0, 26505.0562030144, 51447.345488947096, 39659.84012601854, 5040.89952002758, 55579.84776256654, 44549.48539131706, -123227.06708038654, 39637.287215863136, 36254.82007918598, 63880.704507911745, 52915.028085115926, 10928.55017525556, 65081.328461328565, -123826.6749771446, 68604.52218109634, 46531.191054724586, 0.002, 1.024, -0.012, 192.0, 0.0, 0.0, 0.0, 0.0, 0.0, 0.0, 0.0, 0.0, 0.0, 1.696029658398483E9, 0.0, 2023-09-29 18:20:58.398
196.0, 26509.63831062774, 51445.6914598574, 39500.78511247458, 5034.685735069005, 55502.30956105108, 44488.19690802061, -123067.02859008654, 39566.20866849526, 36256.831736186956, 63948.07266570004, 53040.93546163267, 10903.203297043241, 65250.441759877416, -122638.05391050028, 68948.98491489708, 46870.19996287823, 0.002, 1.024, -0.012, 192.0, 0.0, 0.0, 0.0, 0.0, 0.0, 0.0, 0.0, 0.0, 0.0, 1.696029658458137E9, 0.0, 2023-09-29 18:20:58.458
198.0, 26504.072726258368, 51436.48254114181, 39632.34748033851, 5024.582746575206, 55577.88080905448, 44537.75072547802, -123327.64993043542, 39628.681794247845, 36241.76666042407, 63863.69483038126, 52891.603456926765, 10920.280029807094, 65060.87661515196, -123769.47686308347, 68598.97894847143, 46510.269821914415, 0.002, 1.024, -0.012, 192.0, 0.0, 0.0, 0.0, 0.0, 0.0, 0.0, 0.0, 0.0, 0.0, 1.696029658458149E9, 0.0, 2023-09-29 18:20:58.458
200.0, 26495.690822087625, 51429.41938989394, 39514.62084229241, 5020.738246528894, 55500.119090094464, 44480.01616954996, -122979.72267624411, 39566.23102023971, 36262.73259672315, 63954.4429128698, 53054.03358388348, 10901.705730164735, 65263.76339957278, -122711.25587359142, 68948.31436256343, 46855.44781153772, 0.002, 1.024, -0.012, 192.0, 0.0, 0.0, 0.0, 0.0, 0.0, 0.0, 0.0, 0.0, 0.0, 1.696029658458153E9, 0.0, 2023-09-29 18:20:58.458
202.0, 26499.892950045225, 51433.75562831827, 39599.78098866713, 5027.823749521226, 55568.02368974969, 44520.62928922526, -123383.86456774051, 39620.03166914364, 36230.54608470751, 63855.29057446606, 52867.955311293044, 10917.821337917012, 65052.248841792214, -123661.67439957552, 68625.80104181779, 46524.06084824334, -0.002, 1.024, -0.014, 192.0, 127.5, 120.0, 16.0, 0.0, 127.5, 72.0, 0.0, 0.0, 0.0, 1.696029658458156E9, 0.0, 2023-09-29 18:20:58.458
204.0, 26494.908511031692, 51433.19683470688, 39531.988147734184, 5010.143519657078, 55520.99561941572, 44492.66725691167, -122924.5138674395, 39579.843232613, 36262.196154856225, 63953.817064025054, 53056.82755194039, 10902.488041220671, 65263.785751317235, -122808.41890673863, 68940.78182468198, 46840.89682589732, -0.002, 1.024, -0.014, 192.0, 0.0, 0.0, 0.0, 0.0, 0.0, 0.0, 0.0, 0.0, 0.0, 1.696029658458159E9, 0.0, 2023-09-29 18:20:58.458
206.0, 26499.53532213394, 51435.43200915242, 39569.02498829663, 5028.0919704546895, 55566.19084670435, 44512.6050129658, -123453.55730695216, 39618.24352958721, 36226.14279104982, 63855.78231284408, 52856.019479753915, 10916.703750694245, 65053.299373781614, -123551.90498255551, 68641.71548386998, 46550.52531367842, -0.002, 1.024, -0.014, 192.0, 0.0, 0.0, 0.0, 0.0, 0.0, 0.0, 0.0, 0.0, 0.0, 1.696029658458162E9, 0.0, 2023-09-29 18:20:58.458
208.0, 26485.297260915908, 51426.84893928158, 39555.45747941226, 5007.081330666701, 55526.74001774073, 44492.264925511474, -122851.4460148151, 39586.816976883056, 36262.84435544543, 63958.06389547156, 53065.14240087777, 10906.176079055796, 65259.96360301538, -122935.30976001141, 68920.6205511833, 46839.42161076327, -0.002, 1.024, -0.014, 192.0, 0.0, 0.0, 0.0, 0.0, 0.0, 0.0, 0.0, 0.0, 0.0, 1.696029658458166E9, 0.0, 2023-09-29 18:20:58.458
210.0, 26515.516819419485, 51450.7429541043, 39541.845267038974, 5040.027801993823, 55556.44548612183, 44507.84409139682, -123513.52703732575, 39604.564261980566, 36222.11947704786, 63855.51409191061, 52844.64244182616, 10915.675570449303, 65055.3557342715, -123401.94712900485, 68663.06139982479, 46581.437776260114, -0.002, 1.024, -0.014, 192.0, 0.0, 0.0, 0.0, 0.0, 0.0, 0.0, 0.0, 0.0, 0.0, 1.696029658458169E9, 0.0, 2023-09-29 18:20:58.458
212.0, 26498.842418055825, 51439.88000629903, 39592.203747296786, 5000.9122491970365, 55543.257956893205, 44502.9043558722, -122856.13988115071, 39598.596346211, 36279.13877715335, 63972.570177623056, 53070.618578269314, 10926.49381476567, 65258.17546345895, -123118.50465756711, 68868.11630345778, 46801.02131378905, -0.002, 1.024, -0.014, 192.0, 0.0, 0.0, 16.0, 8.0, 127.5, 88.0, 0.0, 0.0, 0.0, 1.696029658518614E9, 0.0, 2023-09-29 18:20:58.518
214.0, 26523.921075334678, 51457.87316058554, 39515.358449859435, 5038.843159537692, 55542.47564583727, 44488.82275686535, -123558.45404368092, 39593.63425894192, 36227.77446839505, 63865.21474900422, 52861.45095365655, 10916.524936738604, 65064.11761809798, -123268.41780762885, 68695.51613277389, 46617.289974366424, -0.002, 1.024, -0.014, 192.0, 0.0, 0.0, 0.0, 0.0, 0.0, 0.0, 0.0, 0.0, 0.0, 1.696029658518623E9, 0.0, 2023-09-29 18:20:58.518
216.0, 26491.980432508044, 51435.61082310806, 39620.34459356601, 4997.961818928936, 55556.62430007748, 44508.29112628593, -122836.76091870797, 39601.636183456925, 36282.73740801065, 63966.08817173102, 53070.68563350268, 10922.761073441634, 65237.56715507116, -123281.15830196837, 68845.47398632455, 46757.94950222367, -0.002, 1.024, -0.014, 192.0, 0.0, 0.0, 0.0, 0.0, 0.0, 0.0, 0.0, 0.0, 0.0, 1.696029658518627E9, 0.0, 2023-09-29 18:20:58.518
218.0, 26511.62761588426, 51449.021869781245, 39486.077664622986, 5025.7450372868825, 55523.6554770059, 44481.49138468401, -123518.64558680601, 39573.093005787494, 36214.40812521078, 63868.25458625014, 52871.71040436154, 10905.438471488771, 65088.88335095446, -123083.34536353892, 68766.14764525267, 46664.29569295594, -0.002, 1.024, -0.014, 192.0, 0.0, 0.0, 0.0, 0.0, 0.0, 0.0, 0.0, 0.0, 0.0, 1.69602965851863E9, 0.0, 2023-09-29 18:20:58.518
220.0, 26492.069839485866, 51436.907224286464, 39635.6555385179, 4990.7645572143265, 55558.72536405628, 44520.785751436444, -122844.56167752287, 39616.41068654188, 36275.495442807136, 63951.380723879425, 53039.86257789881, 10921.174099585307, 65219.01520717326, -123409.34555641956, 68810.47115450754, 46717.78341743749, -0.002, 1.024, -0.014, 192.0, 0.0, 0.0, 0.0, 0.0, 0.0, 0.0, 0.0, 0.0, 0.0, 1.696029658518633E9, 0.0, 2023-09-29 18:20:58.518
222.0, 26524.882200346256, 51462.76819262126, 39474.27594355058, 5036.876206025625, 55521.442654304825, 44475.03173053643, -123520.14315368452, 39577.988037823205, 36218.52084619056, 63883.364365501926, 52885.18850626809, 10909.618247701914, 65110.341025631555, -122936.85203037882, 68807.07368935033, 46709.91560338922, -0.006, 1.024, -0.008, 192.0, 127.5, 104.0, 16.0, 0.0, 127.5, 96.0, 0.0, 0.0, 0.0, 1.696029658518637E9, 0.0, 2023-09-29 18:20:58.518
224.0, 26487.063048727876, 51432.61568935105, 39661.114175452494, 4984.349606555654, 55572.069355496096, 44527.44657128413, -122876.61407907178, 39628.88295994794, 36278.557631797514, 63950.79957852359, 53029.245499282544, 10930.226556089707, 65204.08424187711, -123559.23635473686, 68774.7307151235, 46674.33162621637, -0.006, 1.024, -0.008, 192.0, 0.0, 0.0, 0.0, 0.0, 0.0, 0.0, 0.0, 0.0, 0.0, 1.69602965851864E9, 0.0, 2023-09-29 18:20:58.518
226.0, 26528.92786609267, 51463.975186821845, 39460.35080675493, 5027.957859987958, 55514.20068910131, 44480.306742227884, -123469.71761819335, 39577.1386715339, 36222.141828792315, 63891.36629001693, 52901.95231460957, 10901.839840631466, 65133.69859858735, -122787.72119137303, 68858.9073847422, 46752.92035972123, -0.006, 1.024, -0.008, 192.0, 0.0, 0.0, 0.0, 0.0, 0.0, 0.0, 0.0, 0.0, 0.0, 1.696029658578838E9, 0.0, 2023-09-29 18:20:58.578
228.0, 26491.041659240924, 51432.14630271749, 39662.34352139754, 4985.780118200793, 55575.10919274202, 44540.231769112565, -122937.85785887932, 39634.001509428206, 36275.204870129215, 63938.90845047337, 53003.07160652538, 10932.931117168799, 65172.2330060283, -123673.38671367012, 68731.86006925823, 46629.89635823922, -0.006, 1.024, -0.008, 192.0, 0.0, 0.0, 0.0, 0.0, 0.0, 0.0, 0.0, 0.0, 0.0, 1.696029658578849E9, 0.0, 2023-09-29 18:20:58.578
230.0, 26529.598418426325, 51463.37168972155, 39447.94558858223, 5024.068656452734, 55504.857659918984, 44477.13279451523, -123414.95584427785, 39564.644046383386, 36224.62287242685, 63907.59365649148, 52926.405123043674, 10904.365587754917, 65157.83848259908, -122697.28603330685, 68892.6138153808, 46786.02329325954, -0.006, 1.024, -0.008, 192.0, 0.0, 0.0, 0.0, 0.0, 0.0, 0.0, 0.0, 0.0, 0.0, 1.696029658578853E9, 0.0, 2023-09-29 18:20:58.578
232.0, 26503.536284391437, 51443.85861681207, 39666.23272493276, 4990.094004880668, 55586.70974811432, 44548.09958316083, -123045.1462322648, 39646.94316946783, 36271.87446020538, 63917.60723800746, 52979.22229519157, 10937.602631759957, 65145.20974698183, -123781.72561904498, 68685.1672750911, 46586.66808446265, -0.002, 1.022, -0.01, 192.0, 127.5, 120.0, 15.5, 120.0, 127.5, 88.0, 0.0, 0.0, 0.0, 1.696029658578856E9, 0.0, 2023-09-29 18:20:58.578
234.0, 26523.719909634583, 51455.95091056239, 39445.77746937006, 5005.606115532651, 55494.866430147464, 44474.0482537804, -123351.83451793606, 39557.022101524126, 36235.21759929867, 63916.69081648479, 52956.28940538042, 10899.403500485838, 65198.205733085364, -122649.6991693615, 68912.12688829028, 46822.210767532684, -0.002, 1.022, -0.01, 192.0, 0.0, 0.0, 0.0, 0.0, 0.0, 0.0, 0.0, 0.0, 0.0, 1.696029658578859E9, 0.0, 2023-09-29 18:20:58.578
236.0, 26497.30014768841, 51439.03064000972, 39651.41351835889, 4987.858830435137, 55593.21410575081, 44544.05391741442, -123146.53374511407, 39640.81879148707, 36269.41576831529, 63902.095127355475, 52941.8948819512, 10928.684285722291, 65122.67918857088, -123849.78668091139, 68636.50752741189, 46555.4874009475, -0.002, 1.022, -0.01, 192.0, 0.0, 0.0, 0.0, 0.0, 0.0, 0.0, 0.0, 0.0, 0.0, 1.696029658578862E9, 0.0, 2023-09-29 18:20:58.578
238.0, 26518.087270031843, 51457.895512330004, 39450.58309442796, 5002.834499220193, 55511.719645466765, 44471.38839619022, -123278.54314786711, 39561.850078326475, 36238.81623015597, 63935.26511612715, 52979.37875740275, 10895.581352183981, 65212.77907047023, -122624.41934638255, 68944.78278693948, 46848.764639945584, -0.002, 1.022, -0.01, 192.0, 0.0, 0.0, 0.0, 0.0, 0.0, 0.0, 0.0, 0.0, 0.0, 1.696029658578865E9, 0.0, 2023-09-29 18:20:58.578
240.0, 26498.90947328919, 51443.05395401167, 39640.75173625371, 4980.058071620235, 55597.97502731979, 44532.85569344231, -123238.60058052548, 39634.493247806226, 36263.1572798678, 63895.99310111918, 52916.45859676106, 10932.774654957611, 65101.109755171514, -123861.1860705836, 68641.91664957008, 46540.64584262918, -0.002, 1.022, -0.01, 192.0, 0.0, 0.0, 0.0, 0.0, 0.0, 0.0, 0.0, 0.0, 0.0, 1.696029658578868E9, 0.0, 2023-09-29 18:20:58.578
242.0, 26514.846267085824, 51453.000480294286, 39453.980559585165, 4988.7081967244385, 55510.15502335489, 44461.732442585526, -123196.75811490514, 39558.564371891545, 36243.1524685803, 63941.948287719286, 53004.278600725964, 10888.361738724916, 65236.36016087057, -122625.06754697175, 68978.24334838908, 46872.50219255712, -0.002, 1.024, -0.012, 192.0, 127.5, 120.0, 16.0, 0.0, 127.5, 80.0, 0.0, 0.0, 0.0, 1.696029658639028E9, 0.0, 2023-09-29 18:20:58.639
244.0, 26496.62959535475, 51436.8401690531, 39613.16968359586, 4974.447783761952, 55586.84385858105, 44520.24930956952, -123320.96675884328, 39626.96070992479, 36250.01445412808, 63882.22442653471, 52897.34785525178, 10916.9272681388, 65073.10301936901, -123829.1783725236, 68636.70869311198, 46536.287252460395, -0.002, 1.024, -0.012, 192.0, 0.0, 0.0, 0.0, 0.0, 0.0, 0.0, 0.0, 0.0, 0.0, 1.696029658639038E9, 0.0, 2023-09-29 18:20:58.639
246.0, 26506.19614198162, 51444.41741042345, 39461.82602188898, 4977.7334901968825, 55508.568049498565, 44469.89082931171, -123116.67181452177, 39563.88408707191, 36251.5567244955, 63953.03475296912, 53026.63034518127, 10881.700918877235, 65255.24738493531, -122661.12091077816, 68987.76519152704, 46883.298085129034, -0.002, 1.024, -0.012, 192.0, 0.0, 0.0, 0.0, 0.0, 0.0, 0.0, 0.0, 0.0, 0.0, 1.696029658639042E9, 0.0, 2023-09-29 18:20:58.639
248.0, 26506.464362915085, 51447.36784069155, 39589.11920656195, 4987.344740312665, 55582.619378879, 44523.71382996009, -123442.00145506878, 39632.61570127198, 36236.93868362173, 63869.05924905053, 52865.98835778098, 10916.524936738604, 65059.71432444028, -123781.3679911337, 68622.11300398267, 46521.937432520084, -0.002, 1.024, -0.012, 192.0, 0.0, 0.0, 0.0, 0.0, 0.0, 0.0, 0.0, 0.0, 0.0, 1.696029658639045E9, 0.0, 2023-09-29 18:20:58.639
250.0, 26504.005671025, 51446.51847440225, 39491.2185658477, 4974.716004695417, 55515.4523867908, 44472.1483555017, -123045.01212179806, 39573.83061335452, 36266.77826246956, 63961.84134028451, 53052.245444327054, 10894.039081816565, 65269.798370575714, -122765.727074829, 68969.77203724052, 46882.00168395063, -0.002, 1.024, -0.012, 192.0, 0.0, 0.0, 0.0, 0.0, 0.0, 0.0, 0.0, 0.0, 0.0, 1.696029658639048E9, 0.0, 2023-09-29 18:20:58.639
252.0, 26505.68205185915, 51445.80321857968, 39564.97932255022, 4981.108603609634, 55566.593178104544, 44507.173539063166, -123481.63109798804, 39619.98696565473, 36231.149581807804, 63860.54323441306, 52855.48303788699, 10911.607552958436, 65051.555937714096, -123668.04464674529, 68637.66981812356, 46551.8887700902, -0.002, 1.024, -0.012, 192.0, 0.0, 0.0, 16.0, 0.0, 127.5, 64.0, 0.0, 0.0, 0.0, 1.696029658639052E9, 0.0, 2023-09-29 18:20:58.639
254.0, 26500.362336678787, 51443.67980285642, 39512.72094401371, 4969.083365092679, 55516.36880831347, 44479.9491143166, -122946.79855666144, 39584.40298848188, 36267.18059386976, 63960.00849723918, 53059.77798220849, 10901.437509231271, 65263.18225421695, -122860.96785795306, 68954.7293132221, 46873.239800124145, -0.002, 1.024, -0.012, 192.0, 0.0, 0.0, 0.0, 0.0, 0.0, 0.0, 0.0, 0.0, 0.0, 1.696029658639055E9, 0.0, 2023-09-29 18:20:58.639
0.0, 26515.092136274834, 51457.49318092981, 39531.31759540053, 4985.824821689704, 55569.409497905915, 44504.53603321744, -123541.84669755063, 39615.4495615303, 36225.78516313853, 63860.14090301286, 52844.66479357061, 10915.027369860098, 65047.39851324541, -123520.2549124068, 68654.14305378712, 46579.42611925914, -0.002, 1.024, -0.012, 192.0, 0.0, 0.0, 0.0, 0.0, 0.0, 0.0, 0.0, 0.0, 0.0, 1.69602965869844E9, 0.0, 2023-09-29 18:20:58.698
2.0, 26499.602377367304, 51444.126837745534, 39541.19706644977, 4965.909417380026, 55532.57382304357, 44493.36016098978, -122914.20971324561, 39588.42630248384, 36275.80836722951, 63968.010421754174, 53072.719642248114, 10908.746529668157, 65254.554480857194, -123015.30665341696, 68915.3678912363, 46845.903616655305, -0.002, 1.024, -0.012, 192.0, 0.0, 0.0, 0.0, 0.0, 0.0, 0.0, 0.0, 0.0, 0.0, 1.696029658698452E9, 0.0, 2023-09-29 18:20:58.698
4.0, 26522.9599503231, 51461.49414318731, 39496.96296417272, 4987.054167634746, 55543.79439876013, 44489.38155047674, -123575.17314853349, 39595.31063977607, 36229.09322131792, 63858.1739495008, 52854.36545066422, 10913.172175070307, 65046.41503648938, -123364.2173843643, 68695.60553975172, 46619.79336974542, -0.002, 1.024, -0.012, 192.0, 0.0, 0.0, 0.0, 0.0, 0.0, 0.0, 0.0, 0.0, 0.0, 1.696029658698456E9, 0.0, 2023-09-29 18:20:58.698
6.0, 26499.53532213394, 51447.61370988056, 39559.681959114314, 4946.9104345930145, 55543.101494682014, 44498.47871047005, -122882.47023611907, 39595.958840365274, 36295.477902350176, 63969.910320032875, 53066.371746822806, 10913.239230303674, 65245.32321039715, -123169.33252445848, 68871.13378895924, 46807.54802317, -0.002, 1.024, -0.012, 192.0, 0.0, 0.0, 15.5, 112.0, 127.5, 96.0, 0.0, 0.0, 0.0, 1.696029658698459E9, 0.0, 2023-09-29 18:20:58.698
8.0, 26521.551790422418, 51465.919788589454, 39475.39353077335, 5000.532269541296, 55546.253090650214, 44492.64490516722, -123603.13518084708, 39600.13861657841, 36222.16418053677, 63866.511150182625, 52851.77264830741, 10908.59006745697, 65072.07483912407, -123205.6317574539, 68726.56270582232, 46660.54059988745, -0.002, 1.024, -0.012, 192.0, 0.0, 0.0, 0.0, 0.0, 0.0, 0.0, 0.0, 0.0, 0.0, 1.696029658698462E9, 0.0, 2023-09-29 18:20:58.698
