%OpenBCI Raw EXG Data
%Number of channels = 16
%Sample Rate = 125 Hz
%Board = OpenBCI_GUI$BoardCytonSerialDaisy
Sample Index, EXG Channel 0, EXG Channel 1, EXG Channel 2, EXG Channel 3, EXG Channel 4, EXG Channel 5, EXG Channel 6, EXG Channel 7, EXG Channel 8, EXG Channel 9, EXG Channel 10, EXG Channel 11, EXG Channel 12, EXG Channel 13, EXG Channel 14, EXG Channel 15, Accel Channel 0, Accel Channel 1, Accel Channel 2, Other, Other, Other, Other, Other, Other, Other, Analog Channel 0, Analog Channel 1, Analog Channel 2, Timestamp, Other, Timestamp (Formatted)
0.0, -187500.02235174447, 18202.83600125742, -54975.41188900613, -45839.24810162164, -27298.967814322452, -8049.041992311716, -187500.02235174447, -12585.194419049552, 0.0, 0.0, 0.0, 0.0, 0.0, 0.0, 0.0, 0.0, 0.0, 0.0, 0.0, 192.0, 0.0, 0.0, 0.0, 0.0, 0.0, 0.0, 0.0, 0.0, 0.0, 1.695680040221978E9, 0.0, 2023-09-25 17:14:00.221
254.0, -187500.02235174447, 18192.509495319067, -54935.02228677539, -45853.01677620611, -27307.617939426655, -8063.101239574104, -187500.02235174447, -12594.179820320585, 5114.839090685737, 10112.197412514379, -21182.52470284995, -29645.275133284944, 34367.68464656886, -9217.412378479527, -20681.75622007325, -30323.89644669252, 0.01, 0.994, -0.058, 192.0, 0.0, 40.0, 15.5, 8.0, 127.0, 24.0, 0.0, 0.0, 0.0, 1.695680040221987E9, 0.0, 2023-09-25 17:14:00.221
0.0, -187500.02235174447, 18205.138230936318, -54959.96683358751, -45836.92352019829, -27298.140799777604, -8050.159579534481, -187500.02235174447, -12593.598674964747, 5110.592259239228, 10119.595839929085, -21102.661919911137, -29578.465769108032, 34470.03328442971, -9196.781718347278, -20621.74178621075, -30299.756562680792, 0.01, 0.994, -0.058, 192.0, 0.0, 0.0, 0.0, 0.0, 0.0, 0.0, 0.0, 0.0, 0.0, 1.695680040221991E9, 0.0, 2023-09-25 17:14:00.221
2.0, -187500.02235174447, 18201.6960622902, -54943.784170601866, -45843.22671213469, -27298.610186411166, -8055.523998203755, -187500.02235174447, -12596.571456977303, 5123.980954167957, 10129.430607489421, -21192.538284365928, -29643.934028617627, 34353.960675473296, -9195.798241591245, -20675.05069673666, -30323.85174320361, 0.01, 0.994, -0.058, 192.0, 0.0, 0.0, 0.0, 0.0, 0.0, 0.0, 0.0, 0.0, 0.0, 1.695680040221994E9, 0.0, 2023-09-25 17:14:00.221
4.0, -187500.02235174447, 18205.94289373671, -54959.18452253158, -45832.1178951404, -27292.642270641598, -8053.02060282476, -187500.02235174447, -12593.39750926465, 5108.781767938348, 10123.797967886683, -21109.345091503274, -29574.487158594988, 34459.55031628017, -9188.153944987529, -20624.714568223306, -30311.938263408934, 0.01, 0.994, -0.058, 192.0, 0.0, 0.0, 0.0, 0.0, 0.0, 0.0, 0.0, 0.0, 0.0, 1.695680040221998E9, 0.0, 2023-09-25 17:14:00.221
6.0, -187500.02235174447, 18203.46185010217, -54937.704496110026, -45841.170351644796, -27296.754991621376, -8064.285882030235, -187500.02235174447, -12599.96892213451, 5131.960526938502, 10129.899994122981, -21193.0523744884, -29634.590999435306, 34354.027730706664, -9202.950799816943, -20672.033211235193, -30327.070394405175, 0.01, 0.994, -0.058, 192.0, 0.0, 0.0, 0.0, 0.0, 0.0, 0.0, 0.0, 0.0, 0.0, 1.695680040222001E9, 0.0, 2023-09-25 17:14:00.222
8.0, -187500.02235174447, 18190.40843134027, -54934.77641758638, -45858.49295359766, -27307.12620104864, -8082.189629338936, -187500.02235174447, -12624.220564868518, 5130.909994949102, 10127.329543510621, -21092.335413972785, -29550.928419939093, 34478.70576127837, -9199.329817215183, -20592.93038760786, -30295.979117867842, 0.016, 1.018, -0.056, 192.0, 0.0, 64.0, 15.5, 104.0, 127.0, 32.0, 0.0, 0.0, 0.0, 1.695680040222004E9, 0.0, 2023-09-25 17:14:00.222
10.0, -187500.02235174447, 18196.08577443192, -54964.07955456729, -45849.708718026726, -27287.434314183512, -8070.052632099704, -187500.02235174447, -12605.534506503882, 5134.687439762049, 10114.879621849015, -21178.702554548094, -29620.129420772722, 34381.58743162006, -9229.974058863409, -20641.03134167568, -30335.273484620273, 0.016, 1.018, -0.056, 192.0, 0.0, 0.0, 0.0, 0.0, 0.0, 0.0, 0.0, 0.0, 0.0, 1.695680040222008E9, 0.0, 2023-09-25 17:14:00.222
12.0, -187500.02235174447, 18191.7942394965, -54944.767647357905, -45852.54738957255, -27287.5907763947, -8072.891303645529, -187500.02235174447, -12603.321683802806, 5123.869195445681, 10129.654124933973, -21124.164298077143, -29570.352085870756, 34461.29375234768, -9201.319122471705, -20614.18689658486, -30322.354176325105, 0.016, 1.018, -0.056, 192.0, 0.0, 0.0, 0.0, 0.0, 0.0, 0.0, 0.0, 0.0, 0.0, 1.695680040222011E9, 0.0, 2023-09-25 17:14:00.222
0.0, -93750.01117587223, 9039.425437381917, -27425.94807457305, -22902.312624730188, -13669.298728620855, -4110.351694864237, -93750.01117587223, -6327.398875641689, 2555.944330208818, 5051.248377710388, -10599.733662573537, -14814.579762766334, 17184.44582038472, -4616.574003288031, -10323.063769705746, -15160.942394845772, 0.004, 1.006, -0.11800000000000001, 192.0, 0.0, 16.0, 15.5, 56.0, 126.0, 40.0, 0.0, 0.0, 0.0, 1.69568004038941E9, 0.0, 2023-09-25 17:14:00.389
2.0, -187500.02235174447, 18068.345554869837, -54873.89026569013, -45807.79919717302, -27341.100852620704, -8225.218442108446, -187500.02235174447, -12658.59754784078, 5093.046139841812, 10149.480122265832, -21229.552773183917, -29690.760933251495, 34523.18573274442, -9116.270734819262, -19807.490087448372, -30222.12895418751, 0.004, 1.006, -0.11800000000000001, 192.0, 0.0, 0.0, 0.0, 0.0, 0.0, 0.0, 0.0, 0.0, 0.0, 1.695680040389438E9, 0.0, 2023-09-25 17:14:00.389
4.0, -187500.02235174447, 18071.16187467121, -54839.49093097341, -45801.943040125734, -27338.12807060815, -8228.593555521198, -187500.02235174447, -12663.537283365404, 5096.86828814367, 10138.1924913159, -21202.66362460418, -29670.86788068627, 34550.611323191086, -9123.915031422977, -19797.320043721207, -30227.06868971213, 0.004, 1.006, -0.11800000000000001, 192.0, 0.0, 0.0, 0.0, 0.0, 0.0, 0.0, 0.0, 0.0, 0.0, 1.695680040389442E9, 0.0, 2023-09-25 17:14:00.389
6.0, -187500.02235174447, 18061.14829315523, -54872.70562323399, -45807.66508670629, -27345.638256745133, -8235.38848583561, -187500.02235174447, -12670.511027635459, 5100.8245469122585, 10119.126453295525, -21230.133918539756, -29689.241014628533, 34518.044831519706, -9125.881984935044, -19817.324855008705, -30237.238733439295, 0.004, 1.006, -0.11800000000000001, 192.0, 0.0, 0.0, 0.0, 0.0, 0.0, 0.0, 0.0, 0.0, 0.0, 1.695680040389446E9, 0.0, 2023-09-25 17:14:00.389
8.0, -187500.02235174447, 18063.025839689475, -54820.06726504175, -45819.10917986741, -27354.534251038345, -8243.166892906058, -187500.02235174447, -12679.898760306689, 5097.784709666337, 10143.66866870745, -21206.306958950398, -29664.944668405613, 34547.79500338972, -9122.193947099919, -19792.693232618956, -30232.142535703486, 0.004, 1.008, -0.15, 192.0, 0.0, 16.0, 15.5, 64.0, 125.5, 40.0, 0.0, 0.0, 0.0, 1.695680040389449E9, 0.0, 2023-09-25 17:14:00.389
10.0, -187500.02235174447, 18059.67307802118, -54868.1011638762, -45816.136397854854, -27348.968666668974, -8241.266994627356, -187500.02235174447, -12677.395364927694, 5085.603008938195, 10128.737703411307, -21212.47604042006, -29674.06418014338, 34546.342140000124, -9132.587508271636, -19795.26368323132, -30242.804317808666, 0.004, 1.008, -0.15, 192.0, 0.0, 0.0, 0.0, 0.0, 0.0, 0.0, 0.0, 0.0, 0.0, 1.695680040389453E9, 0.0, 2023-09-25 17:14:00.389
12.0, -187500.02235174447, 18060.701258266123, -54821.56483192025, -45812.18013908627, -27357.194108628526, -8248.508959830877, -187500.02235174447, -12691.007577300976, 5104.981971380946, 10133.588031958108, -21210.330272952353, -29671.851357442305, 34544.33048299915, -9120.226993587852, -19789.385174439572, -30244.391291664993, 0.004, 1.008, -0.15, 192.0, 0.0, 0.0, 0.0, 0.0, 0.0, 0.0, 0.0, 0.0, 0.0, 1.695680040389456E9, 0.0, 2023-09-25 17:14:00.389
14.0, -187500.02235174447, 18051.939374439644, -54872.57151276726, -45803.68647619325, -27346.264105589882, -8242.183416150025, -187500.02235174447, -12686.693690621101, 5095.147203820611, 10115.661932904952, -21194.39347915572, -29656.58511597933, 34572.560736246196, -9151.541787569737, -19779.572758623694, -30240.435032896406, 0.004, 1.008, -0.15, 192.0, 0.0, 0.0, 0.0, 0.0, 0.0, 0.0, 0.0, 0.0, 0.0, 1.695680040448694E9, 0.0, 2023-09-25 17:14:00.448
16.0, -187500.02235174447, 18021.630408958248, -54812.46767192694, -45851.854485494434, -27373.488530336446, -8270.123096719159, -187500.02235174447, -12704.12805129624, 5096.465956743474, 10110.76690086924, -21223.428395203162, -29677.886328445238, 34538.49667769631, -9149.798351502222, -19794.615482642115, -30246.715873088346, 0.004, 1.008, -0.15, 192.0, 0.0, 0.0, 0.0, 0.0, 0.0, 0.0, 0.0, 0.0, 0.0, 1.695680040448735E9, 0.0, 2023-09-25 17:14:00.448
18.0, -187500.02235174447, 18025.69842644911, -54866.98357665343, -45820.472636279184, -27364.27961162086, -8253.202826166491, -187500.02235174447, -12693.734490124523, 5064.279444727832, 10096.238266973289, -21172.33230737833, -29646.48212748553, 34607.652975041034, -9155.542749827237, -19747.028618696764, -30234.847096782578, 0.002, 1.004, -0.164, 192.0, 0.0, 8.0, 15.5, 48.0, 125.0, 112.0, 0.0, 0.0, 0.0, 1.695680040448739E9, 0.0, 2023-09-25 17:14:00.448
20.0, -187500.02235174447, 18037.18722309914, -54829.45499771297, -45823.82539794748, -27369.97930645696, -8253.225177910947, -187500.02235174447, -12697.489583193015, 5073.689529143516, 10122.613325430551, -21228.613999916794, -29686.603508782806, 34546.8562301226, -9151.452380591916, -19776.622328355592, -30249.912172545457, 0.002, 1.004, -0.164, 192.0, 0.0, 0.0, 0.0, 0.0, 0.0, 0.0, 0.0, 0.0, 0.0, 1.695680040448742E9, 0.0, 2023-09-25 17:14:00.448
22.0, -187500.02235174447, 18041.434054545647, -54876.90775119159, -45789.783691142045, -27337.770442696863, -8218.62467749413, -187500.02235174447, -12670.46632414655, 5078.361043734675, 10120.66872366294, -21186.99505174101, -29649.90194438719, 34601.930928460475, -9135.560290284193, -19753.130644933062, -30244.100718987076, 0.002, 1.004, -0.164, 192.0, 0.0, 0.0, 0.0, 0.0, 0.0, 0.0, 0.0, 0.0, 0.0, 1.695680040448746E9, 0.0, 2023-09-25 17:14:00.448
24.0, -187500.02235174447, 18031.7557491965, -54826.37045697814, -45808.939136140245, -27349.572163769266, -8230.58286077772, -187500.02235174447, -12674.377879426227, 5098.678779444549, 10109.358740968555, -21265.092046867856, -29706.004822970015, 34504.65613659097, -9128.09480763612, -19810.217000271918, -30252.75084409128, 0.002, 1.004, -0.164, 192.0, 0.0, 0.0, 0.0, 0.0, 0.0, 0.0, 0.0, 0.0, 0.0, 1.695680040448749E9, 0.0, 2023-09-25 17:14:00.448
26.0, -187500.02235174447, 18023.262086303483, -54859.249873071894, -45818.84095893395, -27356.098873150215, -8234.092084657203, -187500.02235174447, -12681.75395509648, 5083.725462403949, 10118.835880617606, -21185.028098228944, -29644.02343559545, 34599.87456797058, -9146.557348556204, -19755.321115889685, -30218.440916352385, 0.002, 1.004, -0.164, 192.0, 0.0, 0.0, 0.0, 0.0, 0.0, 0.0, 0.0, 0.0, 0.0, 1.695680040448752E9, 0.0, 2023-09-25 17:14:00.448
28.0, -187500.02235174447, 18025.966647382575, -54833.545366948296, -45823.15484561382, -27359.295172607326, -8239.635317282118, -187500.02235174447, -12682.715080108057, 5098.790538166826, 10115.728988138317, -21263.63918347826, -29695.007764698003, 34505.12552322454, -9154.559273071203, -19796.135401265074, -30240.144460218486, -0.002, 1.012, -0.17400000000000002, 192.0, 127.5, 120.0, 15.5, 80.0, 125.0, 72.0, 0.0, 0.0, 0.0, 1.695680040448755E9, 0.0, 2023-09-25 17:14:00.448
30.0, -187500.02235174447, 18031.129900351752, -54864.77075395236, -45812.80598793102, -27352.276724848358, -8232.527462545331, -187500.02235174447, -12677.663585861157, 5090.810965396281, 10095.18773498389, -21188.693784319614, -29634.211019779566, 34590.88916669955, -9160.929520240965, -19751.610726310104, -30228.275683912718, -0.002, 1.012, -0.17400000000000002, 192.0, 0.0, 0.0, 0.0, 0.0, 0.0, 0.0, 0.0, 0.0, 0.0, 1.695680040508534E9, 0.0, 2023-09-25 17:14:00.508
32.0, -187500.02235174447, 18023.954990381597, -54838.485102472914, -45815.10821760991, -27355.6071347722, -8235.544948046798, -187500.02235174447, -12678.825876572833, 5099.48344224494, 10122.52391845273, -21278.100762140843, -29695.097171675825, 34480.0915694346, -9143.38340084355, -19808.339453737673, -30243.36311142005, -0.002, 1.012, -0.17400000000000002, 192.0, 0.0, 0.0, 0.0, 0.0, 0.0, 0.0, 0.0, 0.0, 0.0, 1.695680040508544E9, 0.0, 2023-09-25 17:14:00.508
34.0, -187500.02235174447, 18031.800452685413, -54847.96224212197, -45791.37066499837, -27339.715044464476, -8221.619811251141, -187500.02235174447, -12667.158265967164, 5096.8906398881245, 10139.310078538667, -21208.698595607115, -29635.932104102627, 34563.754148930806, -9151.340621869638, -19770.743819563846, -30220.430221608905, -0.002, 1.012, -0.17400000000000002, 192.0, 0.0, 0.0, 0.0, 0.0, 0.0, 0.0, 0.0, 0.0, 0.0, 1.695680040508548E9, 0.0, 2023-09-25 17:14:00.508
36.0, -187500.02235174447, 18015.729548422045, -54838.28393677282, -45816.40461878832, -27344.677131733555, -8239.791779493306, -187500.02235174447, -12683.475039419538, 5098.8799451446475, 10116.66776140544, -21282.191131376163, -29681.484959302543, 34473.83308098711, -9166.651566821523, -19809.345282238162, -30227.873352512524, -0.002, 1.012, -0.17400000000000002, 192.0, 0.0, 0.0, 0.0, 0.0, 0.0, 0.0, 0.0, 0.0, 0.0, 1.695680040508552E9, 0.0, 2023-09-25 17:14:00.508
38.0, -187500.02235174447, 18011.817993142366, -54838.30628851728, -45816.65048797733, -27350.153309125104, -8243.613927795164, -187500.02235174447, -12689.018272044454, 5080.819735624759, 10095.545362895175, -21201.076650747855, -29627.639606909706, 34571.21963157888, -9161.600072574625, -19754.38234262256, -30217.83741925209, -0.012, 1.004, -0.168, 192.0, 127.5, 80.0, 15.5, 48.0, 125.0, 96.0, 0.0, 0.0, 0.0, 1.695680040508557E9, 0.0, 2023-09-25 17:14:00.508
40.0, -187500.02235174447, 18005.693615161614, -54846.08469558772, -45813.565947242496, -27351.002675414406, -8248.508959830877, -187500.02235174447, -12686.760745854468, 5090.676854929549, 10114.767863126739, -21273.451599294138, -29680.54618603542, 34480.0915694346, -9177.603921604625, -19793.274377974794, -30232.768384548235, -0.012, 1.004, -0.168, 192.0, 0.0, 0.0, 0.0, 0.0, 0.0, 0.0, 0.0, 0.0, 0.0, 1.695680040508562E9, 0.0, 2023-09-25 17:14:00.508
42.0, -187500.02235174447, 18009.6498739302, -54834.97587859343, -45815.39879028783, -27343.69365497752, -8237.847177725695, -187500.02235174447, -12679.541132395403, 5083.524296703851, 10125.630810932018, -21202.86479030428, -29635.52977270243, 34561.47427099637, -9158.828456262167, -19750.67195304298, -30218.0832884411, -0.012, 1.004, -0.168, 192.0, 0.0, 0.0, 0.0, 0.0, 0.0, 0.0, 0.0, 0.0, 0.0, 1.695680040508565E9, 0.0, 2023-09-25 17:14:00.508
44.0, -187500.02235174447, 18002.810240126877, -54854.935986392025, -45803.30649653751, -27338.619808986165, -8236.528424802831, -187500.02235174447, -12677.440068416605, 5083.05491007029, 10106.296551978177, -21273.451599294138, -29684.904776204203, 34477.565822311146, -9162.270624908284, -19792.134439007576, -30230.510858358248, -0.012, 1.004, -0.168, 192.0, 0.0, 0.0, 0.0, 0.0, 0.0, 0.0, 0.0, 0.0, 0.0, 1.695680040568989E9, 0.0, 2023-09-25 17:14:00.568
46.0, -187500.02235174447, 17998.250484257995, -54835.93700360501, -45810.30259255202, -27338.84332643072, -8227.319506087244, -187500.02235174447, -12675.115486993252, 5070.314415730764, 10091.007958770748, -21222.936656825146, -29650.416034509664, 34538.13904978503, -9157.57675857267, -19763.77007529379, -30217.41273610744, -0.012, 1.004, -0.168, 192.0, 0.0, 0.0, 0.0, 0.0, 0.0, 0.0, 0.0, 0.0, 0.0, 1.695680040569001E9, 0.0, 2023-09-25 17:14:00.569
48.0, -187500.02235174447, 18018.031778100943, -54871.6550912446, -45786.76620564058, -27322.414794256067, -8213.014389635848, -187500.02235174447, -12661.704440320069, 5085.714767660471, 10120.802834129672, -21288.98606169058, -29693.510197819498, 34455.79522321167, -9146.33383111165, -19809.144116538064, -30233.394233392984, -0.012, 1.008, -0.17200000000000001, 192.0, 127.5, 80.0, 15.5, 64.0, 125.0, 80.0, 0.0, 0.0, 0.0, 1.695680040569004E9, 0.0, 2023-09-25 17:14:00.569
50.0, -187500.02235174447, 17997.021138312954, -54817.7873871073, -45830.03918290605, -27358.98224818495, -8246.363192363166, -187500.02235174447, -12685.531399909425, 5088.866363628669, 10138.661877949462, -21249.9152123827, -29662.128348604245, 34494.48609286381, -9126.686647735434, -19790.614520384614, -30218.12799193001, -0.012, 1.008, -0.17200000000000001, 192.0, 0.0, 0.0, 0.0, 0.0, 0.0, 0.0, 0.0, 0.0, 0.0, 1.695680040569008E9, 0.0, 2023-09-25 17:14:00.569
52.0, -187500.02235174447, 17999.256312758484, -54870.0010621549, -45835.6718225088, -27350.51093703639, -8244.329183617734, -187500.02235174447, -12689.979397056031, 5069.107421530178, 10078.915665020426, -21257.939488642158, -29674.287697587934, 34480.82917700162, -9146.423238089472, -19776.667031844503, -30215.15520991745, -0.012, 1.008, -0.17200000000000001, 192.0, 0.0, 0.0, 0.0, 0.0, 0.0, 0.0, 0.0, 0.0, 0.0, 1.695680040569011E9, 0.0, 2023-09-25 17:14:00.569
54.0, -187500.02235174447, 18022.41272001418, -54839.826207140235, -45827.044049149044, -27349.370998069167, -8244.172721406547, -187500.02235174447, -12689.152382511185, 5080.260942013377, 10105.00015079977, -21238.359360499308, -29671.87370918676, 34509.1935407154, -9148.546653812726, -19763.43479912696, -30226.12991644501, -0.012, 1.008, -0.17200000000000001, 192.0, 0.0, 0.0, 0.0, 0.0, 0.0, 0.0, 0.0, 0.0, 0.0, 1.695680040569014E9, 0.0, 2023-09-25 17:14:00.569
56.0, -187500.02235174447, 18041.724627223568, -54885.98255944045, -45811.35312454142, -27334.59649498421, -8227.744189231895, -187500.02235174447, -12676.32248119384, 5079.232761768432, 10117.293610250188, -21262.901575911234, -29684.815369226384, 34481.25386014627, -9131.067589648675, -19785.048936015242, -30235.584704349603, -0.012, 1.008, -0.17200000000000001, 192.0, 0.0, 0.0, 0.0, 0.0, 0.0, 0.0, 0.0, 0.0, 0.0, 1.695680040569017E9, 0.0, 2023-09-25 17:14:00.569
58.0, -187500.02235174447, 18058.488435565047, -54829.678515157524, -45826.418200304295, -27337.97160839696, -8241.557567305275, -187500.02235174447, -12683.60914988627, 5097.695302688516, 10119.461729462353, -21255.234927563066, -29678.06514240088, 34482.34909562458, -9117.097749364108, -19787.217055227407, -30229.393271135483, -0.01, 1.006, -0.162, 192.0, 127.5, 88.0, 15.5, 56.0, 125.0, 120.0, 0.0, 0.0, 0.0, 1.69568004056902E9, 0.0, 2023-09-25 17:14:00.569
60.0, -187500.02235174447, 18069.48549383706, -54882.24981811641, -45831.872025951394, -27324.98524486843, -8233.332125345722, -187500.02235174447, -12673.863789303756, 5098.455261999996, 10113.739682881795, -21253.312677539907, -29680.30031684641, 34476.20236589937, -9095.662426431469, -19798.616444899613, -30230.622617080524, -0.01, 1.006, -0.162, 192.0, 0.0, 0.0, 0.0, 0.0, 0.0, 0.0, 0.0, 0.0, 0.0, 1.695680040629238E9, 0.0, 2023-09-25 17:14:00.629
62.0, -187500.02235174447, 18084.505866111027, -54831.98074483642, -45826.0158689041, -27331.757823438387, -8252.956956977481, -187500.02235174447, -12681.46338241856, 5099.505793989396, 10117.852403861572, -21255.8160729189, -29688.525758805965, 34463.12659539301, -9119.176461598452, -19802.907979835032, -30227.426317623416, -0.01, 1.006, -0.162, 192.0, 0.0, 0.0, 0.0, 0.0, 0.0, 0.0, 0.0, 0.0, 0.0, 1.695680040629248E9, 0.0, 2023-09-25 17:14:00.629
64.0, -187500.02235174447, 18094.63120634928, -54882.272169860866, -45811.37547628587, -27319.88904713262, -8234.382657335122, -187500.02235174447, -12662.442047887094, 5100.1763463230545, 10113.203241014868, -21234.224287775076, -29673.3042208319, 34491.26744166225, -9118.550612753703, -19802.326834479194, -30229.817954280134, -0.01, 1.006, -0.162, 192.0, 0.0, 0.0, 0.0, 0.0, 0.0, 0.0, 0.0, 0.0, 0.0, 1.695680040629252E9, 0.0, 2023-09-25 17:14:00.629
66.0, -187500.02235174447, 18095.972311016598, -54818.52499467433, -45841.59503478945, -27340.564410753777, -8258.567244835764, -187500.02235174447, -12680.099926006786, 5087.9052386170915, 10112.890316592493, -21246.182471058666, -29681.57436628036, 34469.20626988486, -9111.50981325028, -19807.087756048175, -30221.480753598305, -0.01, 1.006, -0.162, 192.0, 0.0, 0.0, 0.0, 0.0, 0.0, 0.0, 0.0, 0.0, 0.0, 1.695680040629256E9, 0.0, 2023-09-25 17:14:00.629
68.0, -187500.02235174447, 18112.400843191248, -54875.2537221019, -45803.95469712671, -27315.955140108486, -8228.951183432482, -187500.02235174447, -12662.352640909272, 5088.151107806099, 10099.725139108317, -21197.589778612826, -29656.205136323588, 34528.5501514137, -9098.121118321553, -19781.204435968928, -30219.826724508614, -0.008, 1.012, -0.152, 192.0, 127.5, 96.0, 15.5, 80.0, 125.5, 32.0, 0.0, 0.0, 0.0, 1.69568004062926E9, 0.0, 2023-09-25 17:14:00.629
70.0, -187500.02235174447, 18109.048081522953, -54817.18389000701, -45822.32783106898, -27334.84236417322, -8246.340840618712, -187500.02235174447, -12677.350661438782, 5104.378474280653, 10148.653107720984, -21248.775273415482, -29694.694840275628, 34464.9370866939, -9101.026845100743, -19822.108128322143, -30225.70523330036, -0.008, 1.012, -0.152, 192.0, 0.0, 0.0, 0.0, 0.0, 0.0, 0.0, 0.0, 0.0, 0.0, 1.695680040629263E9, 0.0, 2023-09-25 17:14:00.629
72.0, -187500.02235174447, 18108.668101867213, -54866.15656210859, -45817.87983392237, -27324.292340790314, -8231.67809625603, -187500.02235174447, -12668.856998545767, 5088.91106711758, 10111.325694480622, -21179.283699903932, -29644.58222920683, 34550.4548609799, -9078.764507623257, -19782.433781913973, -30215.35637561755, -0.008, 1.012, -0.152, 192.0, 0.0, 0.0, 0.0, 0.0, 0.0, 0.0, 0.0, 0.0, 0.0, 1.695680040629267E9, 0.0, 2023-09-25 17:14:00.629
74.0, -187500.02235174447, 18115.507735670537, -54832.42777972553, -45812.00132513062, -27326.102832091194, -8235.321430602246, -187500.02235174447, -12668.879350290223, 5108.312381304787, 10110.76690086924, -21253.96087812911, -29702.383840368253, 34464.80297622716, -9106.815946914667, -19842.381160543104, -30236.456422383362, -0.008, 1.012, -0.152, 192.0, 0.0, 0.0, 0.0, 0.0, 0.0, 0.0, 0.0, 0.0, 0.0, 1.695680040689395E9, 0.0, 2023-09-25 17:14:00.689
76.0, -187500.02235174447, 18115.53008741499, -54859.473390516454, -45812.13543559735, -27326.393404769115, -8225.933697931016, -187500.02235174447, -12663.336117665305, 5099.952828878502, 10133.185700557911, -21183.396420883706, -29646.571534463354, 34551.41598599148, -9073.735365120812, -19812.11689855062, -30215.02109945072, -0.008, 1.012, -0.152, 192.0, 0.0, 0.0, 0.0, 0.0, 0.0, 0.0, 0.0, 0.0, 0.0, 1.695680040689406E9, 0.0, 2023-09-25 17:14:00.689
78.0, -187500.02235174447, 18121.8779828403, -54840.20618679598, -45798.389112757344, -27323.35356752319, -8229.599384021687, -187500.02235174447, -12666.822989800334, 5098.410558511086, 10129.452959233877, -21246.271878036485, -29696.237110643044, 34466.68052276141, -9098.210525299373, -19856.26159384985, -30226.26402691174, -0.002, 1.01, -0.15, 192.0, 127.5, 120.0, 15.5, 72.0, 125.5, 40.0, 0.0, 0.0, 0.0, 1.69568004068941E9, 0.0, 2023-09-25 17:14:00.689
80.0, -187500.02235174447, 18121.54270667347, -54850.21976831195, -45816.851653677426, -27332.763651938876, -8230.068770655247, -187500.02235174447, -12668.477018890026, 5092.308532274787, 10127.284840021712, -21171.75116202249, -29634.993330835503, 34553.69586392592, -9066.60515863957, -19826.243201046374, -30211.847151738068, -0.002, 1.01, -0.15, 192.0, 0.0, 0.0, 0.0, 0.0, 0.0, 0.0, 0.0, 0.0, 0.0, 1.695680040689413E9, 0.0, 2023-09-25 17:14:00.689
82.0, -187500.02235174447, 18117.0276542935, -54844.18479730902, -45806.05576110551, -27325.745204179908, -8232.05807591177, -187500.02235174447, -12667.98528051201, 5108.759416193893, 10124.222651031334, -21244.95312511362, -29691.766761751984, 34465.13825239399, -9100.08807183362, -19875.126466170128, -30227.426317623416, -0.002, 1.01, -0.15, 192.0, 0.0, 0.0, 0.0, 0.0, 0.0, 0.0, 0.0, 0.0, 0.0, 1.695680040689416E9, 0.0, 2023-09-25 17:14:00.689
84.0, -187500.02235174447, 18103.281331453483, -54852.18672182402, -45824.29478458104, -27332.74130019442, -8242.228119638934, -187500.02235174447, -12674.780210826422, 5097.360026521686, 10134.616212203051, -21159.144778149697, -29630.43357496662, 34566.481061754355, -9092.89081011901, -19832.948724382964, -30211.467172082328, -0.002, 1.01, -0.15, 192.0, 0.0, 0.0, 0.0, 0.0, 0.0, 0.0, 0.0, 0.0, 0.0, 1.695680040689419E9, 0.0, 2023-09-25 17:14:00.689
86.0, -187500.02235174447, 18103.571904131404, -54854.69011720301, -45823.64658399184, -27318.749108165397, -8235.366134091155, -187500.02235174447, -12659.849245530278, 5108.267677815876, 10110.073996791125, -21246.763616414504, -29698.852264744317, 34463.640685515486, -9098.679911932935, -19895.198332690994, -30242.200820708375, -0.002, 1.01, -0.15, 192.0, 0.0, 0.0, 0.0, 0.0, 0.0, 0.0, 0.0, 0.0, 0.0, 1.695680040689422E9, 0.0, 2023-09-25 17:14:00.689
88.0, -187500.02235174447, 18114.568962403413, -54844.721239175946, -45805.98870587214, -27317.564465709267, -8229.82290146624, -187500.02235174447, -12657.234091429007, 5093.090843330722, 10137.700752937884, -21169.47128408805, -29641.2965227719, 34556.199259304914, -9087.816964127656, -19855.859262449656, -30223.067727454632, -0.002, 1.004, -0.14400000000000002, 192.0, 127.5, 120.0, 15.5, 48.0, 125.5, 64.0, 0.0, 0.0, 0.0, 1.695680040689426E9, 0.0, 2023-09-25 17:14:00.689
90.0, -187500.02235174447, 18112.44554668016, -54848.96807062245, -45815.35408679892, -27324.761727423876, -8238.137750403614, -187500.02235174447, -12664.856036288267, 5114.235593585443, 10111.728025880817, -21242.427377990174, -29688.816331483882, 34462.634857015, -9097.919952621454, -19911.22453346545, -30239.339797418095, -0.002, 1.004, -0.14400000000000002, 192.0, 0.0, 0.0, 0.0, 0.0, 0.0, 0.0, 0.0, 0.0, 0.0, 1.695680040749047E9, 0.0, 2023-09-25 17:14:00.749
92.0, -187500.02235174447, 18107.48345941108, -54820.38018946412, -45815.376438543375, -27332.718948449965, -8242.853968483683, -187500.02235174447, -12668.141742723197, 5093.202602052999, 10147.334354798122, -21149.354714078276, -29621.984615562513, 34566.12343384307, -9089.761565895267, -19851.008933902853, -30211.333061615594, -0.002, 1.004, -0.14400000000000002, 192.0, 0.0, 0.0, 0.0, 0.0, 0.0, 0.0, 0.0, 0.0, 0.0, 1.695680040749058E9, 0.0, 2023-09-25 17:14:00.749
94.0, -187500.02235174447, 18113.272561225007, -54855.09244860321, -45808.939136140245, -27321.900704133597, -8232.348648589688, -187500.02235174447, -12658.195216440585, 5085.513601960373, 10131.934002868415, -21204.518819393972, -29668.252726585, 34498.956441754875, -9081.066737302153, -19884.871826752642, -30227.69453855688, -0.002, 1.004, -0.14400000000000002, 192.0, 0.0, 0.0, 0.0, 0.0, 0.0, 0.0, 0.0, 0.0, 0.0, 1.695680040749061E9, 0.0, 2023-09-25 17:14:00.749
96.0, -187500.02235174447, 18122.190907262673, -54814.99341905039, -45787.749682396614, -27329.254428059394, -8233.041552667804, -187500.02235174447, -12658.061105973853, 5090.654503185094, 10153.81636069016, -21150.114673389755, -29626.52201968694, 34562.6589134525, -9079.166839023452, -19858.474416550926, -30212.517704071728, -0.002, 1.004, -0.14400000000000002, 192.0, 0.0, 0.0, 0.0, 0.0, 0.0, 0.0, 0.0, 0.0, 0.0, 1.695680040749064E9, 0.0, 2023-09-25 17:14:00.749
98.0, -187500.02235174447, 18128.404692221247, -54850.108009589676, -45775.031539801545, -27309.22726502744, -8207.918191900038, -187500.02235174447, -12637.810425497346, 5099.841070156225, 10148.764866443262, -21202.39540367072, -29656.182784579134, 34500.141084211005, -9068.773277851735, -19897.99230074791, -30224.185314677397, -0.002, 0.998, -0.14400000000000002, 192.0, 127.5, 120.0, 15.5, 24.0, 125.5, 64.0, 0.0, 0.0, 0.0, 1.695680040749068E9, 0.0, 2023-09-25 17:14:00.749
100.0, -187500.02235174447, 18118.949904316654, -54802.163517733046, -45799.59610695793, -27338.329236308247, -8228.146520632092, -187500.02235174447, -12655.31184140585, 5097.292971288321, 10166.355689329588, -21159.122426405243, -29619.458868439066, 34550.09723306861, -9056.524521890226, -19873.248919635884, -30203.822875478614, -0.002, 0.998, -0.14400000000000002, 192.0, 0.0, 0.0, 0.0, 0.0, 0.0, 0.0, 0.0, 0.0, 0.0, 1.695680040749071E9, 0.0, 2023-09-25 17:14:00.749
102.0, -187500.02235174447, 18120.69334038417, -54859.20516958299, -45785.42510097326, -27321.721890177952, -8219.272878083335, -187500.02235174447, -12651.377934381717, 5075.209447766477, 10143.981593129825, -21173.561653323373, -29633.316950001354, 34534.674529394455, -9078.295120989695, -19872.824236491233, -30201.922977199913, -0.002, 0.998, -0.14400000000000002, 192.0, 0.0, 0.0, 0.0, 0.0, 0.0, 0.0, 0.0, 0.0, 0.0, 1.695680040749074E9, 0.0, 2023-09-25 17:14:00.749
104.0, -187500.02235174447, 18128.717616643622, -54814.70284637247, -45781.20062127121, -27315.619863941654, -8211.606229735164, -187500.02235174447, -12645.946460479077, 5095.504831731896, 10153.52578801224, -21173.829874256837, -29635.77564189144, 34537.24498000681, -9063.498266160283, -19883.59777731869, -30208.941424958877, -0.002, 0.998, -0.14400000000000002, 192.0, 0.0, 0.0, 0.0, 0.0, 0.0, 0.0, 0.0, 0.0, 0.0, 1.695680040809386E9, 0.0, 2023-09-25 17:14:00.809
106.0, -187500.02235174447, 18127.331808487394, -54854.153675336085, -45771.410557199786, -27304.600453925188, -8204.543078487288, -187500.02235174447, -12634.144739406674, 5112.067474373278, 10172.144791143512, -21196.449839645607, -29645.141022818214, 34512.59100587261, -9062.403030681971, -19914.733757344933, -30212.338890116083, -0.002, 0.998, -0.14400000000000002, 192.0, 0.0, 0.0, 0.0, 0.0, 0.0, 0.0, 0.0, 0.0, 0.0, 1.695680040809398E9, 0.0, 2023-09-25 17:14:00.809
108.0, -187500.02235174447, 18100.666177352214, -54794.22864845141, -45810.57081348549, -27331.199029827003, -8236.416666080555, -187500.02235174447, -12662.889082776199, 5095.169555565066, 10176.25751212329, -21178.76960978146, -29631.81938312285, 34528.08076478014, -9054.758734078257, -19903.446126395003, -30195.776247474703, 0.004, 0.992, -0.138, 192.0, 0.0, 16.0, 15.5, 0.0, 125.5, 88.0, 0.0, 0.0, 0.0, 1.695680040809402E9, 0.0, 2023-09-25 17:14:00.809
110.0, -187500.02235174447, 18098.96744477361, -54851.87379740165, -45784.39692072832, -27309.60724468318, -8216.300096070778, -187500.02235174447, -12638.413922597638, 5099.639904456128, 10151.827055433638, -21173.025211456446, -29630.075947055335, 34537.803773618194, -9079.613873912558, -19905.636597351622, -30209.321404614617, 0.004, 0.992, -0.138, 192.0, 0.0, 0.0, 0.0, 0.0, 0.0, 0.0, 0.0, 0.0, 0.0, 1.695680040809405E9, 0.0, 2023-09-25 17:14:00.809
112.0, -187500.02235174447, 18089.62441559129, -54796.01678800784, -45801.87598489237, -27319.486715732422, -8230.985192177915, -187500.02235174447, -12652.674335560125, 5097.985875366435, 10152.877587423038, -21186.749182552005, -29644.738691418017, 34518.91654955346, -9074.048289543187, -19914.08555675573, -30204.627538279005, 0.004, 0.992, -0.138, 192.0, 0.0, 0.0, 0.0, 0.0, 0.0, 0.0, 0.0, 0.0, 0.0, 1.695680040809409E9, 0.0, 2023-09-25 17:14:00.809
114.0, -187500.02235174447, 18082.9188922547, -54847.179931066035, -45794.8575371334, -27315.284587774826, -8221.463349039954, -187500.02235174447, -12644.940631978588, 5090.788613651826, 10151.648241477997, -21163.056333429377, -29625.382080719723, 34556.825108149664, -9068.527408662727, -19902.12737347214, -30205.990994690776, 0.004, 0.992, -0.138, 192.0, 0.0, 0.0, 0.0, 0.0, 0.0, 0.0, 0.0, 0.0, 0.0, 1.695680040809412E9, 0.0, 2023-09-25 17:14:00.809
116.0, -187500.02235174447, 18077.554473585424, -54798.922514787024, -45806.65925820581, -27335.08823336223, -8236.81899748075, -187500.02235174447, -12658.284623418407, 5086.810003138781, 10168.523808541753, -21197.27685419045, -29650.39368276521, 34516.81548557466, -9073.08716453161, -19916.61130387918, -30206.30391911315, 0.004, 0.992, -0.138, 192.0, 0.0, 0.0, 0.0, 0.0, 0.0, 0.0, 0.0, 0.0, 0.0, 1.695680040809415E9, 0.0, 2023-09-25 17:14:00.809
118.0, -187500.02235174447, 18076.66040380721, -54861.015660883866, -45793.51643246609, -27329.32148329276, -8225.10668338617, -187500.02235174447, -12650.93089949261, 5067.922779074047, 10156.2974043247, -21147.208946610564, -29609.266472967443, 34587.871681198085, -9074.405917454473, -19878.03219294932, -30196.983241675287, 0.004, 0.994, -0.138, 192.0, 0.0, 16.0, 15.5, 8.0, 125.5, 88.0, 0.0, 0.0, 0.0, 1.695680040809418E9, 0.0, 2023-09-25 17:14:00.809
120.0, -187500.02235174447, 18073.57586307238, -54828.40446572357, -45805.96635412769, -27336.719910707467, -8236.550776547287, -187500.02235174447, -12657.524664106926, 5084.373662993153, 10146.239119319811, -21213.638331131737, -29665.52581376145, 34510.624052360545, -9084.397147225995, -19925.015559794374, -30214.84228549508, 0.004, 0.994, -0.138, 192.0, 0.0, 0.0, 0.0, 0.0, 0.0, 0.0, 0.0, 0.0, 0.0, 1.695680040869661E9, 0.0, 2023-09-25 17:14:00.869
122.0, -187500.02235174447, 18078.53795034146, -54868.212922598475, -45787.59322018543, -27328.02508211435, -8224.078503141225, -187500.02235174447, -12647.578137824314, 5083.81486938177, 10145.367401286054, -21154.89794670319, -29620.867028339748, 34586.41881780849, -9080.239722757307, -19892.829047778734, -30204.426372578906, 0.004, 0.994, -0.138, 192.0, 0.0, 0.0, 0.0, 0.0, 0.0, 0.0, 0.0, 0.0, 0.0, 1.695680040869672E9, 0.0, 2023-09-25 17:14:00.869
124.0, -187500.02235174447, 18071.899482238234, -54829.1420732906, -45798.70203717972, -27336.451689774, -8234.002677679382, -187500.02235174447, -12651.690858804091, 5086.251209527399, 10145.881491408527, -21225.82003185988, -29668.699761474105, 34501.482188878326, -9086.721728649347, -19935.967914577475, -30216.8315907516, 0.004, 0.994, -0.138, 192.0, 0.0, 0.0, 0.0, 0.0, 0.0, 0.0, 0.0, 0.0, 0.0, 1.695680040869676E9, 0.0, 2023-09-25 17:14:00.869
126.0, -187500.02235174447, 18079.052040463932, -54858.80283818279, -45784.620438172875, -27321.341910522213, -8212.969686146938, -187500.02235174447, -12639.173881909119, 5079.053947812789, 10145.054476863681, -21156.149644392688, -29615.1896852481, 34591.73853298885, -9076.909312833466, -19895.8465332802, -30198.033773664687, 0.004, 0.994, -0.138, 192.0, 0.0, 0.0, 0.0, 0.0, 0.0, 0.0, 0.0, 0.0, 0.0, 1.695680040869679E9, 0.0, 2023-09-25 17:14:00.869
128.0, -187500.02235174447, 18067.29502288044, -54828.58327967922, -45811.28606930805, -27329.008558870384, -8235.612003280165, -187500.02235174447, -12651.020306470431, 5086.117099060667, 10158.666689236963, -21228.39048247224, -29669.124444618756, 34501.92922376743, -9059.631414369514, -19941.734664646945, -30207.30974761364, 0.002, 1.006, -0.138, 192.0, 0.0, 8.0, 15.5, 56.0, 125.5, 88.0, 0.0, 0.0, 0.0, 1.695680040869682E9, 0.0, 2023-09-25 17:14:00.869
130.0, -187500.02235174447, 18078.470895108094, -54840.47440772944, -45792.55530745451, -27320.581951210734, -8228.682962499019, -187500.02235174447, -12645.45472210106, 5078.33869199022, 10140.002982616781, -21150.47230130104, -29612.976862547024, 34596.85708246912, -9071.008452297265, -19895.108925713175, -30188.64604099346, 0.002, 1.006, -0.138, 192.0, 0.0, 0.0, 0.0, 0.0, 0.0, 0.0, 0.0, 0.0, 0.0, 1.695680040869685E9, 0.0, 2023-09-25 17:14:00.869
132.0, -187500.02235174447, 18071.58655781586, -54827.55509943427, -45793.44937723272, -27324.560561723778, -8238.316564359257, -187500.02235174447, -12653.88132976071, 5086.899410116603, 10151.134151355523, -21222.936656825146, -29664.631743983242, 34506.2431104473, -9091.952036851888, -19943.6569146701, -30201.431238821893, 0.002, 1.006, -0.138, 192.0, 0.0, 0.0, 0.0, 0.0, 0.0, 0.0, 0.0, 0.0, 0.0, 1.695680040869689E9, 0.0, 2023-09-25 17:14:00.869
134.0, -187500.02235174447, 18080.594310831348, -54832.986573336915, -45783.77107188357, -27313.563503451765, -8229.91230844406, -187500.02235174447, -12645.991163967987, 5084.932456604535, 10141.925232639936, -21155.836719970313, -29617.134287015713, 34589.03397190976, -9081.826696613634, -19913.347949188705, -30198.681974253894, 0.002, 1.006, -0.138, 192.0, 0.0, 0.0, 0.0, 0.0, 0.0, 0.0, 0.0, 0.0, 0.0, 1.695680040928573E9, 0.0, 2023-09-25 17:14:00.928
136.0, -187500.02235174447, 18075.565168328903, -54826.30340174477, -45802.233612803655, -27310.121334805648, -8234.226195123934, -187500.02235174447, -12649.925070992122, 5084.708939159982, 10138.728933182829, -21221.193220757632, -29664.58704049433, 34501.526892367234, -9076.41757445545, -19956.218595053982, -30202.25825336674, 0.002, 1.006, -0.138, 192.0, 0.0, 0.0, 0.0, 0.0, 0.0, 0.0, 0.0, 0.0, 0.0, 1.695680040928585E9, 0.0, 2023-09-25 17:14:00.928
138.0, -187500.02235174447, 18071.29598513794, -54813.16057600505, -45802.792406415036, -27307.059145815274, -8229.733494488419, -187500.02235174447, -12646.16997792363, 5094.476651486952, 10153.637546734519, -21166.252632886488, -29636.75911864747, 34570.884355412054, -9060.145504491986, -19933.59862966521, -30205.275738868208, 0.002, 1.01, -0.13, 192.0, 0.0, 8.0, 15.5, 72.0, 125.5, 120.0, 0.0, 0.0, 0.0, 1.695680040928589E9, 0.0, 2023-09-25 17:14:00.928
140.0, -187500.02235174447, 18054.889804707742, -54820.46959644194, -45809.94496464074, -27317.564465709267, -8244.150369662091, -187500.02235174447, -12657.926995507121, 5086.117099060667, 10122.255697519267, -21225.2612382485, -29673.281869087445, 34500.96809875585, -9088.152240294487, -19965.338106791747, -30208.40498309195, 0.002, 1.01, -0.13, 192.0, 0.0, 0.0, 0.0, 0.0, 0.0, 0.0, 0.0, 0.0, 0.0, 1.695680040928592E9, 0.0, 2023-09-25 17:14:00.928
142.0, -187500.02235174447, 18056.834406475355, -54811.104215515166, -45802.32301978148, -27317.765631409366, -8237.95893644797, -187500.02235174447, -12660.251576930474, 5068.280406985332, 10123.015656830747, -21160.95526945058, -29628.086641798815, 34582.283745084256, -9095.058929331175, -19921.50633591489, -30198.771381231712, 0.002, 1.01, -0.13, 192.0, 0.0, 0.0, 0.0, 0.0, 0.0, 0.0, 0.0, 0.0, 0.0, 1.695680040928596E9, 0.0, 2023-09-25 17:14:00.928
144.0, -187500.02235174447, 18048.921888938177, -54844.922404876044, -45805.20639481621, -27307.72969814893, -8238.271860870345, -187500.02235174447, -12657.703478062569, 5081.982026336435, 10123.753264397772, -21217.371072455775, -29670.800825452905, 34512.7474680838, -9096.534144465226, -19958.09614158823, -30212.56240756064, 0.002, 1.01, -0.13, 192.0, 0.0, 0.0, 0.0, 0.0, 0.0, 0.0, 0.0, 0.0, 0.0, 1.695680040928599E9, 0.0, 2023-09-25 17:14:00.928
146.0, -187500.02235174447, 18041.791682456933, -54816.46863418444, -45820.49498802364, -27321.54307622231, -8248.710125530974, -187500.02235174447, -12668.454667145572, 5080.238590268921, 10120.445206218386, -21163.413961340662, -29635.3956622357, 34577.254602581816, -9072.03663254221, -19921.863963826177, -30201.095962655065, 0.002, 1.01, -0.13, 192.0, 0.0, 0.0, 0.0, 0.0, 0.0, 0.0, 0.0, 0.0, 0.0, 1.695680040928602E9, 0.0, 2023-09-25 17:14:00.928
148.0, -187500.02235174447, 18041.47875803456, -54861.86502717317, -45786.18506028474, -27315.64221568611, -8234.807340479772, -187500.02235174447, -12660.877425775221, 5066.559322662273, 10124.110892309058, -21205.09996474981, -29664.20706083859, 34527.99135780232, -9115.063740618676, -19945.37799899316, -30210.304881370652, -0.002, 1.012, -0.13, 192.0, 127.5, 120.0, 15.5, 80.0, 125.5, 120.0, 0.0, 0.0, 0.0, 1.695680040928605E9, 0.0, 2023-09-25 17:14:00.928
150.0, -187500.02235174447, 18035.82376668737, -54819.441416197, -45798.72438892417, -27330.148497837603, -8241.53521556082, -187500.02235174447, -12670.756896824467, 5066.469915684452, 10151.111799611068, -21178.52374059245, -29645.073967584845, 34563.754148930806, -9088.912199605966, -19927.02721679535, -30205.36514584603, -0.002, 1.012, -0.13, 192.0, 0.0, 0.0, 0.0, 0.0, 0.0, 0.0, 0.0, 0.0, 0.0, 1.695680040988777E9, 0.0, 2023-09-25 17:14:00.988
152.0, -187500.02235174447, 18026.793661927422, -54860.747439950406, -45790.141319053335, -27319.732584921432, -8231.745151489396, -187500.02235174447, -12664.07372523233, 5063.05009878279, 10110.968066569338, -21197.209798957087, -29652.919429888658, 34542.989378331826, -9105.586600969626, -19933.442167454024, -30204.582834790093, -0.002, 1.012, -0.13, 192.0, 0.0, 0.0, 0.0, 0.0, 0.0, 0.0, 0.0, 0.0, 0.0, 1.695680040988787E9, 0.0, 2023-09-25 17:14:00.988
154.0, -187500.02235174447, 18024.33497003734, -54802.99053227789, -45798.23265054615, -27324.202933812492, -8238.137750403614, -187500.02235174447, -12669.08051599032, 5071.342595975709, 10117.76299688375, -21185.899816262703, -29646.973865863547, 34558.434433750444, -9093.583714197126, -19921.41692893707, -30201.140666143976, -0.002, 1.012, -0.13, 192.0, 0.0, 0.0, 0.0, 0.0, 0.0, 0.0, 0.0, 0.0, 0.0, 1.695680040988791E9, 0.0, 2023-09-25 17:14:00.988
156.0, -187500.02235174447, 18024.51378399298, -54851.493817745904, -45793.78465339955, -27314.412869741067, -8225.799587464284, -187500.02235174447, -12662.866731031745, 5065.195866250499, 10120.914592851948, -21187.352679652297, -29646.415072252166, 34561.27310529627, -9097.741138665813, -19919.762899847377, -30199.93367194339, -0.002, 1.012, -0.13, 192.0, 0.0, 0.0, 0.0, 0.0, 0.0, 0.0, 0.0, 0.0, 0.0, 1.695680040988794E9, 0.0, 2023-09-25 17:14:00.988
158.0, -187500.02235174447, 18014.65666468819, -54801.448261910475, -45810.280240807566, -27330.41671877107, -8248.933642975528, -187500.02235174447, -12682.446859174594, 5050.66723235455, 10127.418950488443, -21192.739450066027, -29651.712435688074, 34560.37903551805, -9108.8499556601, -19917.32655970175, -30199.9783754323, -0.002, 1.01, -0.128, 192.0, 127.5, 120.0, 15.5, 72.0, 126.0, 0.0, 0.0, 0.0, 0.0, 1.695680040988798E9, 0.0, 2023-09-25 17:14:00.988
160.0, -187500.02235174447, 18030.99578988502, -54867.587073753726, -45782.809946871996, -27303.68403240252, -8217.305924571267, -187500.02235174447, -12654.59658558328, 5061.57488364874, 10117.539479439198, -21192.873560532757, -29649.54431647591, 34572.73955020184, -9114.884926663033, -19920.075824269752, -30205.11927665702, -0.002, 1.01, -0.128, 192.0, 0.0, 0.0, 0.0, 0.0, 0.0, 0.0, 0.0, 0.0, 0.0, 1.695680040988801E9, 0.0, 2023-09-25 17:14:00.988
162.0, -187500.02235174447, 18044.071560391374, -54813.80877659426, -45783.79342362803, -27305.852151614687, -8218.736436216406, -187500.02235174447, -12647.041695957387, 5089.045177584312, 10159.20313110389, -21243.232040790564, -29680.747351735517, 34511.808694816675, -9081.670234402447, -19966.969784136985, -30217.63625355199, -0.002, 1.01, -0.128, 192.0, 0.0, 0.0, 0.0, 0.0, 0.0, 0.0, 0.0, 0.0, 0.0, 1.695680040988804E9, 0.0, 2023-09-25 17:14:00.988
164.0, -187500.02235174447, 18026.056054360397, -54845.12357057614, -45797.53974646804, -27309.316672005258, -8231.186357878012, -187500.02235174447, -12656.876463517721, 5077.086994300723, 10151.469427522354, -21202.373051926264, -29646.81740365236, 34559.1049860841, -9094.522487464248, -19946.875565871665, -30197.29616609766, -0.002, 1.01, -0.128, 192.0, 0.0, 0.0, 0.0, 0.0, 0.0, 0.0, 0.0, 0.0, 0.0, 1.695680040988808E9, 0.0, 2023-09-25 17:14:00.988
166.0, -187500.02235174447, 18011.52742046445, -54791.591142605685, -45804.44643550473, -27319.240846543416, -8243.323355117245, -187500.02235174447, -12668.812295056856, 5076.438793711519, 10128.402427244477, -21238.292305265943, -29675.517043532975, 34509.573520371145, -9104.379606769038, -19966.969784136985, -30205.655718523947, -0.002, 1.01, -0.128, 192.0, 0.0, 0.0, 0.0, 0.0, 0.0, 0.0, 0.0, 0.0, 0.0, 1.695680041050029E9, 0.0, 2023-09-25 17:14:01.050
168.0, -187500.02235174447, 18013.270856531963, -54839.535634462314, -45790.85657487591, -27310.16603829456, -8230.046418910792, -187500.02235174447, -12658.463437374048, 5071.253188997887, 10113.04677880368, -21188.514970363973, -29640.20128729359, 34571.286686812244, -9124.451473289904, -19938.09133030073, -30200.31365159913, -0.006, 1.014, -0.13, 192.0, 127.5, 104.0, 15.5, 88.0, 125.5, 120.0, 0.0, 0.0, 0.0, 1.69568004105004E9, 0.0, 2023-09-25 17:14:01.050
170.0, -187500.02235174447, 18004.263103516474, -54812.288857971296, -45802.30066803702, -27320.26902678836, -8231.67809625603, -187500.02235174447, -12660.832722286312, 5073.756584376882, 10124.826148131628, -21249.44582574914, -29688.659869272695, 34497.749447554284, -9110.056949860687, -19973.42943828457, -30208.58379704759, -0.006, 1.014, -0.13, 192.0, 0.0, 0.0, 0.0, 0.0, 0.0, 0.0, 0.0, 0.0, 0.0, 1.695680041050044E9, 0.0, 2023-09-25 17:14:01.050
172.0, -187500.02235174447, 17995.680033645636, -54860.032184127835, -45794.36579875539, -27318.480887231934, -8224.503186285876, -187500.02235174447, -12657.591719340291, 5055.718726601449, 10111.325694480622, -21194.99697625601, -29647.599714708296, 34571.80077693472, -9099.350464266594, -19946.026199582364, -30199.64309926547, -0.006, 1.014, -0.13, 192.0, 0.0, 0.0, 0.0, 0.0, 0.0, 0.0, 0.0, 0.0, 0.0, 1.695680041050047E9, 0.0, 2023-09-25 17:14:01.050
174.0, -187500.02235174447, 17990.31561497636, -54821.9895150649, -45794.052874333014, -27339.759747953387, -8244.10566617318, -187500.02235174447, -12674.489638148503, 5065.888770328614, 10122.52391845273, -21269.808264947926, -29704.507256091507, 34480.78447351271, -9123.982086656342, -19993.702470505534, -30212.227131393807, -0.006, 1.014, -0.13, 192.0, 0.0, 0.0, 0.0, 0.0, 0.0, 0.0, 0.0, 0.0, 0.0, 1.69568004105005E9, 0.0, 2023-09-25 17:14:01.050
176.0, -187500.02235174447, 17996.88702784622, -54854.71246894747, -45776.59616191342, -27324.73937567942, -8228.191224121001, -187500.02235174447, -12662.330289164816, 5059.831447581226, 10117.092444550091, -21183.95521449509, -29631.23823776701, 34581.12145437258, -9114.549650496203, -19932.74926337591, -30188.981317160287, -0.006, 1.014, -0.13, 192.0, 0.0, 0.0, 0.0, 0.0, 0.0, 0.0, 0.0, 0.0, 0.0, 1.695680041050053E9, 0.0, 2023-09-25 17:14:01.050
178.0, -187500.02235174447, 17989.46624868706, -54839.826207140235, -45789.53782195304, -27327.44393675851, -8234.449712568488, -187500.02235174447, -12658.619899585236, 5076.9305320895355, 10111.884488092004, -21267.953070158135, -29694.046639686425, 34476.69410427739, -9118.595316242614, -19987.153409380127, -30209.299052870163, -0.002, 1.012, -0.126, 192.0, 127.5, 120.0, 15.5, 80.0, 126.0, 8.0, 0.0, 0.0, 0.0, 1.695680041050057E9, 0.0, 2023-09-25 17:14:01.050
180.0, -187500.02235174447, 17987.365184708262, -54853.77369568035, -45791.750644654116, -27316.871561631153, -8224.033799652314, -187500.02235174447, -12647.98046922451, 5064.435906939019, 10126.793101643694, -21196.963929768077, -29641.0953570718, 34564.89408789803, -9111.599220228103, -19949.66953392858, -30196.849131208557, -0.002, 1.012, -0.126, 192.0, 0.0, 0.0, 0.0, 0.0, 0.0, 0.0, 0.0, 0.0, 0.0, 1.695680041110292E9, 0.0, 2023-09-25 17:14:01.110
182.0, -187500.02235174447, 17968.12033273224, -54839.02154433985, -45817.49985426663, -27330.640236215622, -8243.591576050709, -187500.02235174447, -12668.924053779132, 5059.4961714143965, 10098.294627463178, -21271.01525914851, -29694.40426759771, 34475.12948216552, -9127.67012449147, -19993.63541527217, -30208.896721469966, -0.002, 1.012, -0.126, 192.0, 0.0, 0.0, 0.0, 0.0, 0.0, 0.0, 0.0, 0.0, 0.0, 1.695680041110305E9, 0.0, 2023-09-25 17:14:01.110
184.0, -187500.02235174447, 17973.730620590522, -54839.49093097341, -45811.28606930805, -27327.86861990316, -8245.022087695848, -187500.02235174447, -12670.13104797972, 5054.8023050787815, 10108.24115374579, -21190.392516898217, -29639.68719717112, 34575.712332214396, -9115.957810396887, -19936.973743077964, -30201.006555677242, -0.002, 1.012, -0.126, 192.0, 0.0, 0.0, 0.0, 0.0, 0.0, 0.0, 0.0, 0.0, 0.0, 1.69568004111031E9, 0.0, 2023-09-25 17:14:01.110
186.0, -187500.02235174447, 17979.117391004253, -54846.35291652119, -45788.42023473028, -27318.279721531835, -8237.266032369856, -187500.02235174447, -12659.715135063547, 5069.934436075025, 10126.301363265678, -21258.051247364434, -29690.64917452922, 34492.586194585114, -9140.567081042182, -19972.557720250814, -30213.612939550036, -0.002, 1.012, -0.126, 192.0, 0.0, 0.0, 0.0, 0.0, 0.0, 0.0, 0.0, 0.0, 0.0, 1.695680041110318E9, 0.0, 2023-09-25 17:14:01.110
188.0, -187500.02235174447, 17967.874463543234, -54822.79417786529, -45820.24911883463, -27326.371053024657, -8249.224215653447, -187500.02235174447, -12672.74620208099, 5061.57488364874, 10096.931171051405, -21193.544112866417, -29643.062310583868, 34575.645276981035, -9128.720656480868, -19936.213783766485, -30197.586738775582, -0.002, 1.012, -0.122, 192.0, 127.5, 120.0, 15.5, 80.0, 126.0, 24.0, 0.0, 0.0, 0.0, 1.695680041110329E9, 0.0, 2023-09-25 17:14:01.110
190.0, -187500.02235174447, 17972.07659150083, -54843.98363160892, -45786.34152249593, -27312.781192395832, -8246.25143364089, -187500.02235174447, -12668.924053779132, 5066.626377895639, 10093.064319260637, -21261.046381121443, -29694.896005975726, 34499.40347664398, -9122.261002333284, -19971.41778128359, -30221.99484372078, -0.002, 1.012, -0.122, 192.0, 0.0, 0.0, 0.0, 0.0, 0.0, 0.0, 0.0, 0.0, 0.0, 1.695680041110332E9, 0.0, 2023-09-25 17:14:01.110
192.0, -187500.02235174447, 17961.258347184463, -54807.259715468856, -45801.22778430316, -27327.06395710277, -8251.10176218769, -187500.02235174447, -12676.724812594035, 5074.203619265988, 10120.087578307102, -21212.54309565343, -29658.57442123585, 34559.57437271767, -9128.18421461394, -19950.384789751148, -30214.998747706268, -0.002, 1.012, -0.122, 192.0, 0.0, 0.0, 0.0, 0.0, 0.0, 0.0, 0.0, 0.0, 0.0, 1.695680041110335E9, 0.0, 2023-09-25 17:14:01.110
194.0, -187500.02235174447, 17965.639289097704, -54852.209073568476, -45792.085920820944, -27317.944445365007, -8243.278651628334, -187500.02235174447, -12668.275853189929, 5053.90823530057, 10096.148859995468, -21246.02600884748, -29682.87076745877, 34519.25182572029, -9130.218223359374, -19959.683115444557, -30214.663471539436, -0.002, 1.012, -0.122, 192.0, 0.0, 0.0, 0.0, 0.0, 0.0, 0.0, 0.0, 0.0, 0.0, 1.695680041110338E9, 0.0, 2023-09-25 17:14:01.110
196.0, -187500.02235174447, 17975.40700142467, -54830.729047146924, -45795.72925516716, -27314.25640752988, -8226.514843286854, -187500.02235174447, -12656.563539095348, 5085.7371194049265, 10131.352857512577, -21233.799604630425, -29674.242994099022, 34535.5015439393, -9111.599220228103, -19967.752095192922, -30222.285416398696, -0.002, 1.012, -0.122, 192.0, 0.0, 0.0, 0.0, 0.0, 0.0, 0.0, 0.0, 0.0, 0.0, 1.695680041170166E9, 0.0, 2023-09-25 17:14:01.170
198.0, -187500.02235174447, 17959.447855883584, -54857.70760270448, -45791.41536848729, -27330.461422259978, -8232.371000334144, -187500.02235174447, -12659.692783319091, 5075.321206488754, 10114.320828237633, -21269.20476784763, -29695.2089303981, 34485.5900985706, -9111.33099929464, -19991.824923971286, -30210.70721277085, -0.002, 1.008, -0.12, 192.0, 127.5, 120.0, 15.5, 64.0, 126.0, 32.0, 0.0, 0.0, 0.0, 1.695680041170175E9, 0.0, 2023-09-25 17:14:01.170
200.0, -187500.02235174447, 17959.224338439028, -54819.8884510861, -45790.94598185372, -27336.250524073905, -8243.122189417147, -187500.02235174447, -12666.599472355781, 5062.759526104871, 10100.909781564449, -21219.762709112492, -29660.4519677701, 34536.350910228604, -9131.112293137587, -19949.289554272837, -30188.288413082173, -0.002, 1.008, -0.12, 192.0, 0.0, 0.0, 0.0, 0.0, 0.0, 0.0, 0.0, 0.0, 0.0, 1.695680041170179E9, 0.0, 2023-09-25 17:14:01.170
202.0, -187500.02235174447, 17960.923071017634, -54860.300405061294, -45784.64278991733, -27326.281646046835, -8240.864663227161, -187500.02235174447, -12660.810370541856, 5068.950959318991, 10118.1876800284, -21245.735436169558, -29677.774569722962, 34503.60560460158, -9129.95000242591, -19968.176778337573, -30195.575081774605, -0.002, 1.008, -0.12, 192.0, 0.0, 0.0, 0.0, 0.0, 0.0, 0.0, 0.0, 0.0, 0.0, 1.695680041170182E9, 0.0, 2023-09-25 17:14:01.170
204.0, -187500.02235174447, 17957.615012838247, -54811.05951202626, -45806.011057616604, -27334.395329284114, -8260.824771025751, -187500.02235174447, -12676.948330038587, 5063.0948022717, 10124.513223709253, -21226.021197559978, -29662.888307915728, 34520.324709454144, -9113.119138851063, -19947.702580416513, -30189.160131115932, -0.002, 1.008, -0.12, 192.0, 0.0, 0.0, 0.0, 0.0, 0.0, 0.0, 0.0, 0.0, 0.0, 1.695680041170185E9, 0.0, 2023-09-25 17:14:01.170
206.0, -187500.02235174447, 17970.243748455494, -54871.498629033405, -45773.39986245631, -27303.50521844688, -8234.002677679382, -187500.02235174447, -12653.680164060614, 5065.598197650695, 10112.935020081404, -21237.10766280981, -29672.745427220518, 34507.02542150324, -9119.064702876176, -19962.36532477919, -30206.21451213533, -0.002, 1.008, -0.12, 192.0, 0.0, 0.0, 0.0, 0.0, 0.0, 0.0, 0.0, 0.0, 0.0, 1.695680041170189E9, 0.0, 2023-09-25 17:14:01.170
208.0, -187500.02235174447, 17965.661640842158, -54807.863212569144, -45796.712731923195, -27321.587779711223, -8244.53034931783, -187500.02235174447, -12665.034850243908, 5075.254151255388, 10120.24404051829, -21255.167872329697, -29680.859110457794, 34479.17514791193, -9100.356292767083, -19975.977537152474, -30205.49925631276, -0.004, 1.008, -0.12, 192.0, 127.5, 112.0, 15.5, 64.0, 126.0, 32.0, 0.0, 0.0, 0.0, 1.695680041170192E9, 0.0, 2023-09-25 17:14:01.170
210.0, -187500.02235174447, 17963.04648674089, -54857.439381771015, -45791.325961509465, -27314.390517996613, -8232.371000334144, -187500.02235174447, -12657.971698996033, 5071.096726786701, 10118.679418406418, -21228.323427238873, -29659.96022939208, 34510.132313982525, -9110.749853938802, -19961.359496278703, -30196.31268934163, -0.004, 1.008, -0.12, 192.0, 0.0, 0.0, 0.0, 0.0, 0.0, 0.0, 0.0, 0.0, 0.0, 1.695680041229469E9, 0.0, 2023-09-25 17:14:01.229
212.0, -187500.02235174447, 17969.21556821055, -54809.24902072537, -45793.561135954995, -27317.83268664273, -8235.902575958084, -187500.02235174447, -12663.134951965209, 5076.6399594116165, 10106.944752567382, -21257.0677706084, -29690.06802917338, 34474.86126123205, -9107.195926570408, -19974.681135974068, -30200.961852188335, -0.004, 1.008, -0.12, 192.0, 0.0, 0.0, 0.0, 0.0, 0.0, 0.0, 0.0, 0.0, 0.0, 1.695680041229482E9, 0.0, 2023-09-25 17:14:01.229
214.0, -187500.02235174447, 17968.477960643526, -54851.96320437947, -45788.24142077463, -27311.484791217423, -8227.29715434279, -187500.02235174447, -12652.048486715375, 5063.944168561002, 10112.420929958931, -21226.021197559978, -29666.911621917683, 34512.702764594884, -9093.181382796929, -19963.393505024138, -30200.73833474378, -0.004, 1.008, -0.12, 192.0, 0.0, 0.0, 0.0, 0.0, 0.0, 0.0, 0.0, 0.0, 0.0, 1.695680041229486E9, 0.0, 2023-09-25 17:14:01.229
216.0, -187500.02235174447, 17957.145626204685, -54802.8340700667, -45812.850691419924, -27322.034814600327, -8250.453561598488, -187500.02235174447, -12671.159228224664, 5067.5427994183065, 10078.602740598053, -21267.14840735774, -29704.462552602596, 34449.179106852906, -9112.158013839486, -19988.069830902798, -30209.187294147887, -0.004, 1.008, -0.12, 192.0, 0.0, 0.0, 0.0, 0.0, 0.0, 0.0, 0.0, 0.0, 0.0, 1.695680041229489E9, 0.0, 2023-09-25 17:14:01.229
218.0, -187500.02235174447, 17978.42448692614, -54850.465637500965, -45775.612685157386, -27293.469285186446, -8221.642162995597, -187500.02235174447, -12644.873576745222, 5052.343613188697, 10075.361737652032, -21209.167982240677, -29668.49859577401, 34513.73094483983, -9113.163842339975, -19960.353667778214, -30207.510913313738, -0.004, 1.008, -0.122, 192.0, 127.5, 112.0, 15.5, 64.0, 126.0, 24.0, 0.0, 0.0, 0.0, 1.695680041229493E9, 0.0, 2023-09-25 17:14:01.229
220.0, -187500.02235174447, 17951.289469157397, -54803.616381122636, -45823.93715666976, -27324.091175090216, -8254.20865466698, -187500.02235174447, -12670.93571078011, 5057.819790580248, 10084.056566245148, -21266.254337579532, -29710.698689305627, 34433.59994096756, -9107.911182392978, -19999.871551975197, -30205.812180735134, -0.004, 1.008, -0.122, 192.0, 0.0, 0.0, 0.0, 0.0, 0.0, 0.0, 0.0, 0.0, 0.0, 1.695680041229496E9, 0.0, 2023-09-25 17:14:01.229
222.0, -187500.02235174447, 17969.953175777577, -54862.58028299574, -45799.95373486921, -27306.030965570328, -8229.889956699606, -187500.02235174447, -12657.45760887356, 5020.179452917511, 10074.445316129366, -21185.966871496068, -29663.78237769394, 34527.14199151302, -9101.451528245394, -19946.76380714939, -30197.586738775582, -0.004, 1.008, -0.122, 192.0, 0.0, 0.0, 0.0, 0.0, 0.0, 0.0, 0.0, 0.0, 0.0, 1.695680041229499E9, 0.0, 2023-09-25 17:14:01.229
224.0, -187500.02235174447, 17962.152416962675, -54832.42777972553, -45826.708772982216, -27321.386614011124, -8245.335012118223, -187500.02235174447, -12665.8395130443, 5044.632261351617, 10067.762144537228, -21261.895747410745, -29729.541209881452, 34424.569836207615, -9092.019092085255, -20002.66552003211, -30218.418564607928, -0.004, 1.008, -0.122, 192.0, 0.0, 0.0, 0.0, 0.0, 0.0, 0.0, 0.0, 0.0, 0.0, 1.695680041229502E9, 0.0, 2023-09-25 17:14:01.229
226.0, -187500.02235174447, 17981.71019336107, -54858.1993410825, -45794.544612711026, -27310.724831905944, -8239.72472425994, -187500.02235174447, -12659.826893785823, 5026.6838105540055, 10058.106190932536, -21173.114618434265, -29671.404322553197, 34522.291662966214, -9082.430193713928, -19952.821129896776, -30204.91811095692, -0.004, 1.008, -0.122, 192.0, 0.0, 0.0, 0.0, 0.0, 0.0, 0.0, 0.0, 0.0, 0.0, 1.695680041289845E9, 0.0, 2023-09-25 17:14:01.289
228.0, -187500.02235174447, 17981.061992771865, -54835.95935534947, -45811.88956640835, -27319.44201224351, -8250.073581942748, -187500.02235174447, -12669.862827046256, 5054.467028911952, 10080.100307476558, -21251.97157287259, -29729.429451159176, 34418.37840299349, -9106.123042836552, -20011.874438747698, -30223.671224554924, 0.002, 1.0, -0.12, 192.0, 0.0, 8.0, 15.5, 32.0, 126.0, 32.0, 0.0, 0.0, 0.0, 1.695680041289856E9, 0.0, 2023-09-25 17:14:01.289
230.0, -187500.02235174447, 17989.600359153792, -54844.162445564565, -45812.381304786366, -27324.60526521269, -8249.023049953348, -187500.02235174447, -12668.611129356757, 5035.80332229177, 10064.476438102298, -21161.51406306196, -29664.452930027597, 34528.9524828139, -9102.546763723703, -19953.402275252614, -30202.88410221149, 0.002, 1.0, -0.12, 192.0, 0.0, 0.0, 0.0, 0.0, 0.0, 0.0, 0.0, 0.0, 0.0, 1.695680041289859E9, 0.0, 2023-09-25 17:14:01.289
232.0, -187500.02235174447, 17994.964777823065, -54846.77759966584, -45826.37349681539, -27329.16502108157, -8251.437038354521, -187500.02235174447, -12669.192274712595, 5039.6031188491725, 10063.4259061129, -21227.652874905216, -29715.12433470778, 34447.18980159638, -9103.172612568453, -19992.00373792693, -30221.324291387118, 0.002, 1.0, -0.12, 192.0, 0.0, 0.0, 0.0, 0.0, 0.0, 0.0, 0.0, 0.0, 0.0, 1.695680041289862E9, 0.0, 2023-09-25 17:14:01.289
234.0, -187500.02235174447, 18006.520629706458, -54846.688192688016, -45824.339488069956, -27334.730605450943, -8252.196997666002, -187500.02235174447, -12672.41092591416, 5050.153142232078, 10084.481249389799, -21151.813405968358, -29666.263421328476, 34542.38588123154, -9066.895731317489, -19947.166138549583, -30213.769401761223, 0.002, 1.0, -0.12, 192.0, 0.0, 0.0, 0.0, 0.0, 0.0, 0.0, 0.0, 0.0, 0.0, 1.695680041289866E9, 0.0, 2023-09-25 17:14:01.289
236.0, -187500.02235174447, 18020.490469991026, -54852.834922413225, -45795.4610342337, -27310.5460179503, -8233.890918957106, -187500.02235174447, -12651.199120426074, 5062.066622026757, 10082.08961273308, -21234.783081386457, -29722.567465611395, 34448.28503707469, -9105.676007947446, -20003.33607236577, -30231.539038603194, 0.002, 1.0, -0.12, 192.0, 0.0, 0.0, 0.0, 0.0, 0.0, 0.0, 0.0, 0.0, 0.0, 1.695680041289869E9, 0.0, 2023-09-25 17:14:01.289
238.0, -187500.02235174447, 18008.197010540607, -54827.733913389915, -45821.456113035216, -27325.36522452417, -8247.883110986128, -187500.02235174447, -12664.27489093243, 5049.549645131784, 10090.493868648276, -21173.025211456446, -29677.573404022864, 34526.2479217348, -9076.663443644458, -19971.529540005868, -30209.813142992636, 0.002, 1.006, -0.12, 192.0, 0.0, 8.0, 15.5, 56.0, 126.0, 32.0, 0.0, 0.0, 0.0, 1.695680041289872E9, 0.0, 2023-09-25 17:14:01.289
240.0, -187500.02235174447, 18007.45940297358, -54845.45884674297, -45817.052819377524, -27328.6509309591, -8249.49243658691, -187500.02235174447, -12672.098001491786, 5036.85385428117, 10059.559054322131, -21214.420642187673, -29709.044660215935, 34474.34717110958, -9073.377737209528, -19989.43328731457, -30213.232959894296, 0.002, 1.006, -0.12, 192.0, 0.0, 0.0, 0.0, 0.0, 0.0, 0.0, 0.0, 0.0, 0.0, 1.695680041350025E9, 0.0, 2023-09-25 17:14:01.350
242.0, -187500.02235174447, 18017.674150189658, -54825.27522149983, -45826.52995902657, -27334.574143239755, -8254.789800022818, -187500.02235174447, -12680.479905662527, 5037.166778703544, 10068.924435248904, -21151.925164690634, -29664.564688749873, 34552.95825635889, -9089.023958328242, -19942.65108616961, -30203.822875478614, 0.002, 1.006, -0.12, 192.0, 0.0, 0.0, 0.0, 0.0, 0.0, 0.0, 0.0, 0.0, 0.0, 1.695680041350042E9, 0.0, 2023-09-25 17:14:01.350
244.0, -187500.02235174447, 18024.245563059518, -54859.45103877199, -45828.653374749825, -27334.21651532847, -8251.749962776896, -187500.02235174447, -12675.473114904538, 5041.61477585015, 10092.99726402727, -21202.216589715077, -29699.83574150035, 34497.7941510432, -9067.02984178422, -19972.133037106163, -30224.989977477788, 0.002, 1.006, -0.12, 192.0, 0.0, 0.0, 0.0, 0.0, 0.0, 0.0, 0.0, 0.0, 0.0, 1.695680041350046E9, 0.0, 2023-09-25 17:14:01.350
246.0, -187500.02235174447, 18038.0589411329, -54822.905936587566, -45806.2122233167, -27334.484736261933, -8246.564358063264, -187500.02235174447, -12669.013460756954, 5053.95293878948, 10099.613380386041, -21158.04954267139, -29670.197328352613, 34552.5559249587, -9096.958827609877, -19941.399388480117, -30208.472038325315, 0.002, 1.006, -0.12, 192.0, 0.0, 0.0, 0.0, 0.0, 0.0, 0.0, 0.0, 0.0, 0.0, 1.695680041350049E9, 0.0, 2023-09-25 17:14:01.350
248.0, -187500.02235174447, 18040.160005111695, -54867.698832476, -45795.01399934459, -27317.385651753626, -8236.3943143361, -187500.02235174447, -12651.512044848449, 5058.490342913908, 10076.456973130344, -21194.14760996671, -29692.63847978574, 34511.83104656113, -9097.003531098788, -19966.008659125408, -30213.210608149842, 0.002, 1.002, -0.12, 192.0, 0.0, 8.0, 15.5, 40.0, 126.0, 32.0, 0.0, 0.0, 0.0, 1.695680041350052E9, 0.0, 2023-09-25 17:14:01.350
250.0, -187500.02235174447, 18029.632333473248, -54812.914706816046, -45821.74668571314, -27336.630503729644, -8254.92391048955, -187500.02235174447, -12665.79480955539, 5062.267787726854, 10093.511354149741, -21175.796827768903, -29674.690028988127, 34539.144878285515, -9088.219295527852, -19949.535423461846, -30195.619785263516, 0.002, 1.002, -0.12, 192.0, 0.0, 0.0, 0.0, 0.0, 0.0, 0.0, 0.0, 0.0, 0.0, 1.695680041350056E9, 0.0, 2023-09-25 17:14:01.350
252.0, -187500.02235174447, 18029.47587126206, -54872.057422644786, -45825.434723548264, -27320.11256457717, -8246.162026663069, -187500.02235174447, -12658.418733885139, 5042.7100113284605, 10082.402537155454, -21182.368240638763, -29679.629764512752, 34538.96606432987, -9093.51665896376, -19945.33329550425, -30202.68293651139, 0.002, 1.002, -0.12, 192.0, 0.0, 0.0, 0.0, 0.0, 0.0, 0.0, 0.0, 0.0, 0.0, 1.695680041350059E9, 0.0, 2023-09-25 17:14:01.350
254.0, -187500.02235174447, 18035.510842264994, -54819.441416197, -45818.08099962247, -27321.87835238914, -8253.426343611043, -187500.02235174447, -12658.016402484942, 5046.442752652497, 10089.644502358973, -21191.08542097633, -29690.738581507037, 34531.47822993735, -9081.670234402447, -19950.04951358432, -30207.26504412473, 0.002, 1.002, -0.12, 192.0, 0.0, 0.0, 0.0, 0.0, 0.0, 0.0, 0.0, 0.0, 0.0, 1.695680041350062E9, 0.0, 2023-09-25 17:14:01.350
0.0, -187500.02235174447, 18038.99771440002, -54876.460716302485, -45805.094636093934, -27309.137858049617, -8234.852043968684, -187500.02235174447, -12643.845396500277, 5054.914063801059, 10085.688243590384, -21191.063069231877, -29689.21866288408, 34536.01563406177, -9104.401958513494, -19957.38088576566, -30204.895759212468, 0.002, 1.002, -0.12, 192.0, 0.0, 0.0, 0.0, 0.0, 0.0, 0.0, 0.0, 0.0, 0.0, 1.695680041410286E9, 0.0, 2023-09-25 17:14:01.410
2.0, -187500.02235174447, 18037.56720275488, -54818.54734641878, -45815.84582517693, -27317.251541286892, -8243.3457068617, -187500.02235174447, -12651.735562293, 5060.1443720036, 10116.198374771879, -21215.448822432616, -29710.20695092761, 34500.342249911104, -9086.162935037963, -19981.945452922042, -30207.510913313738, 0.002, 1.01, -0.128, 192.0, 0.0, 8.0, 15.5, 72.0, 126.0, 0.0, 0.0, 0.0, 0.0, 1.695680041410296E9, 0.0, 2023-09-25 17:14:01.410
4.0, -187500.02235174447, 18027.754786939, -54863.42964928504, -45808.55915648451, -27323.867657645664, -8249.78300926483, -187500.02235174447, -12664.163132210153, 5052.701241099982, 10093.220781471824, -21178.724906292548, -29680.92616569116, 34544.174020787956, -9082.497248947293, -19959.012563110897, -30194.25632885174, 0.002, 1.01, -0.128, 192.0, 0.0, 0.0, 0.0, 0.0, 0.0, 0.0, 0.0, 0.0, 0.0, 1.6956800414103E9, 0.0, 2023-09-25 17:14:01.410
6.0, -187500.02235174447, 18026.480737505048, -54811.61830563764, -45832.363764329406, -27332.763651938876, -8263.082297215737, -187500.02235174447, -12678.445896917094, 5056.165761490555, 10081.28494993269, -21210.732604352546, -29704.619014813783, 34506.19840695839, -9091.08031881813, -19969.964917893998, -30204.135799900985, 0.002, 1.01, -0.128, 192.0, 0.0, 0.0, 0.0, 0.0, 0.0, 0.0, 0.0, 0.0, 0.0, 1.695680041410303E9, 0.0, 2023-09-25 17:14:01.410
8.0, -187500.02235174447, 18029.498223006514, -54860.032184127835, -45796.5115662231, -27330.193201326514, -8249.380677864632, -187500.02235174447, -12670.55573112437, 5044.5875578627065, 10086.179981968402, -21162.743409007002, -29666.64340098422, 34569.342085044635, -9093.717824663858, -19936.996094822418, -30198.190235875874, 0.002, 1.01, -0.128, 192.0, 0.0, 0.0, 0.0, 0.0, 0.0, 0.0, 0.0, 0.0, 0.0, 1.695680041410307E9, 0.0, 2023-09-25 17:14:01.410
10.0, -187500.02235174447, 18024.938467137632, -54821.453073197976, -45810.10142685192, -27331.534305993835, -8247.503131330388, -187500.02235174447, -12665.973623511032, 5073.980101821435, 10099.389862941487, -21236.16888954269, -29721.226360944078, 34483.26551714725, -9086.252342015785, -19989.09801114774, -30219.446744852874, 0.002, 1.01, -0.128, 192.0, 0.0, 0.0, 0.0, 0.0, 0.0, 0.0, 0.0, 0.0, 0.0, 1.69568004141031E9, 0.0, 2023-09-25 17:14:01.410
12.0, -187500.02235174447, 18015.506030977493, -54866.2012655975, -45798.6126302019, -27331.42254727156, -8245.402067351588, -187500.02235174447, -12666.621824100235, 5056.009299279368, 10095.634769872997, -21168.554862565383, -29665.3022963169, 34566.637523965546, -9099.596333455604, -19942.51697570288, -30196.089171897078, 0.002, 1.01, -0.122, 192.0, 0.0, 8.0, 15.5, 72.0, 126.0, 24.0, 0.0, 0.0, 0.0, 1.695680041410313E9, 0.0, 2023-09-25 17:14:01.410
14.0, -187500.02235174447, 17996.529399934938, -54836.115817560654, -45831.40263931783, -27336.02700662935, -8260.020108225359, -187500.02235174447, -12676.478943405027, 5057.6186248801505, 10092.684339604895, -21238.9628575996, -29718.007709742513, 34480.87388049053, -9116.360141797084, -19986.43815355756, -30210.64015753748, 0.002, 1.01, -0.122, 192.0, 0.0, 0.0, 0.0, 0.0, 0.0, 0.0, 0.0, 0.0, 0.0, 1.695680041469624E9, 0.0, 2023-09-25 17:14:01.469
16.0, -187500.02235174447, 17995.635330156725, -54867.944701665016, -45826.03822064856, -27329.679111204045, -8255.683869801029, -187500.02235174447, -12677.730641094524, 5035.9597845029575, 10084.168324967424, -21170.968850966558, -29674.913546432683, 34566.905744899006, -9107.106519592586, -19945.355647248703, -30204.538131301182, 0.002, 1.01, -0.122, 192.0, 0.0, 0.0, 0.0, 0.0, 0.0, 0.0, 0.0, 0.0, 0.0, 1.695680041469635E9, 0.0, 2023-09-25 17:14:01.469
18.0, -187500.02235174447, 17990.80735335438, -54844.47536998694, -45825.61353750391, -27331.199029827003, -8267.06090772878, -187500.02235174447, -12682.670376619146, 5040.564243860751, 10082.022557499715, -21237.10766280981, -29715.236093430056, 34489.70281955037, -9115.801348185701, -19974.077638873772, -30216.22809365131, 0.002, 1.01, -0.122, 192.0, 0.0, 0.0, 0.0, 0.0, 0.0, 0.0, 0.0, 0.0, 0.0, 1.695680041469639E9, 0.0, 2023-09-25 17:14:01.469
20.0, -187500.02235174447, 17996.95408307959, -54867.40825979808, -45809.07324660698, -27320.51489597737, -8249.715954031462, -187500.02235174447, -12668.767591567945, 5050.466066654452, 10080.972025510315, -21182.010612727478, -29674.690028988127, 34566.8610414101, -9124.89850817901, -19947.344952505227, -30217.0327564517, 0.002, 1.01, -0.122, 192.0, 0.0, 0.0, 0.0, 0.0, 0.0, 0.0, 0.0, 0.0, 0.0, 1.695680041469642E9, 0.0, 2023-09-25 17:14:01.469
22.0, -187500.02235174447, 17997.401117968693, -54855.494780003406, -45821.21024384621, -27324.135878579127, -8257.114381446168, -187500.02235174447, -12672.947367781087, 5050.175493976533, 10075.317034163123, -21258.386523531262, -29723.774459811983, 34477.96815371134, -9125.166729112474, -19987.06400240231, -30227.023986223223, 0.004, 1.008, -0.122, 192.0, 0.0, 16.0, 15.5, 64.0, 126.0, 24.0, 0.0, 0.0, 0.0, 1.695680041469645E9, 0.0, 2023-09-25 17:14:01.469
24.0, -187500.02235174447, 18004.061937816376, -54857.57349223775, -45819.24329033415, -27328.226247814448, -8248.955994719981, -187500.02235174447, -12671.315690435851, 5060.390241192608, 10111.415101458442, -21193.901740777703, -29676.992258667025, 34560.73666342934, -9105.608952714081, -19951.8600048852, -30220.74314603128, 0.004, 1.008, -0.122, 192.0, 0.0, 0.0, 0.0, 0.0, 0.0, 0.0, 0.0, 0.0, 0.0, 1.695680041469649E9, 0.0, 2023-09-25 17:14:01.469
26.0, -187500.02235174447, 17983.118353261754, -54840.02737284033, -45837.28114810958, -27343.805413699796, -8269.899579274605, -187500.02235174447, -12685.12906850923, 5064.927645317036, 10086.962293024337, -21260.554642743427, -29718.052413231424, 34482.25968864676, -9114.527298751747, -19989.27682510338, -30228.834477524102, 0.004, 1.008, -0.122, 192.0, 0.0, 0.0, 0.0, 0.0, 0.0, 0.0, 0.0, 0.0, 0.0, 1.695680041469652E9, 0.0, 2023-09-25 17:14:01.469
28.0, -187500.02235174447, 18004.263103516474, -54845.74941942089, -45803.82058665998, -27318.83851514322, -8242.496340572397, -187500.02235174447, -12662.397344398183, 5060.725517359438, 10090.51622039273, -21190.750144809503, -29668.856223685292, 34569.900878656015, -9118.70707496489, -19943.545155947824, -30219.044413452677, 0.004, 1.008, -0.122, 192.0, 0.0, 0.0, 0.0, 0.0, 0.0, 0.0, 0.0, 0.0, 0.0, 1.695680041469655E9, 0.0, 2023-09-25 17:14:01.469
30.0, -187500.02235174447, 17992.148458021697, -54853.326660791245, -45826.44055204875, -27327.153364080594, -8253.716916288962, -187500.02235174447, -12670.779248568922, 5047.8732642976365, 10094.673644861417, -21269.942375414656, -29723.841515045347, 34477.275249633225, -9135.672049006469, -20000.318586864305, -30231.47198336983, 0.004, 1.008, -0.122, 192.0, 0.0, 0.0, 0.0, 0.0, 0.0, 0.0, 0.0, 0.0, 0.0, 1.695680041529361E9, 0.0, 2023-09-25 17:14:01.529
32.0, -187500.02235174447, 18007.66056867368, -54820.96133481996, -45803.2617930486, -27328.829744914743, -8253.716916288962, -187500.02235174447, -12669.438143901605, 5070.694395386505, 10105.313075222144, -21211.269046219477, -29675.047656899413, 34550.58897144663, -9110.012246371776, -19966.65685971461, -30217.770364018725, 0.004, 1.006, -0.122, 192.0, 0.0, 16.0, 15.5, 56.0, 126.0, 24.0, 0.0, 0.0, 0.0, 1.695680041529371E9, 0.0, 2023-09-25 17:14:01.529
34.0, -187500.02235174447, 18001.13385929273, -54847.85048339969, -45814.035333876054, -27336.250524073905, -8259.908349503083, -187500.02235174447, -12683.139763252708, 5059.160895247566, 10094.360720439045, -21242.516784967993, -29693.93488096415, 34507.42775290344, -9118.170633097963, -19974.792894696344, -30209.723736014814, 0.004, 1.006, -0.122, 192.0, 0.0, 0.0, 0.0, 0.0, 0.0, 0.0, 0.0, 0.0, 0.0, 1.695680041529374E9, 0.0, 2023-09-25 17:14:01.529
36.0, -187500.02235174447, 18013.963760610077, -54824.49291044389, -45807.24040356164, -27329.053262359295, -8246.385544107621, -187500.02235174447, -12673.372050925738, 5074.33772973272, 10089.733909336795, -21194.773458811458, -29663.49180501602, 34563.1059483416, -9105.161917824975, -19948.41783623908, -30210.304881370652, 0.004, 1.006, -0.122, 192.0, 0.0, 0.0, 0.0, 0.0, 0.0, 0.0, 0.0, 0.0, 0.0, 1.695680041529378E9, 0.0, 2023-09-25 17:14:01.529
38.0, -187500.02235174447, 18023.552658981404, -54856.65707071508, -45786.788557385036, -27311.417735984058, -8228.01241016536, -187500.02235174447, -12649.50038784747, 5093.537878219829, 10109.694017135384, -21248.775273415482, -29696.706497276606, 34498.06237197666, -9112.672103961957, -19988.449810558537, -30218.865599497036, 0.004, 1.006, -0.122, 192.0, 0.0, 0.0, 0.0, 0.0, 0.0, 0.0, 0.0, 0.0, 0.0, 1.695680041529381E9, 0.0, 2023-09-25 17:14:01.529
40.0, -187500.02235174447, 18008.28641751843, -54806.49975615738, -45810.19083382974, -27334.283570561838, -8243.256299883878, -187500.02235174447, -12665.817161299845, 5077.355215234186, 10111.862136347549, -21213.034834031445, -29671.471377786565, 34530.338290970125, -9109.9004876495, -19966.90272890362, -30197.810256220135, 0.004, 1.006, -0.122, 192.0, 0.0, 0.0, 0.0, 0.0, 0.0, 0.0, 0.0, 0.0, 0.0, 1.695680041529384E9, 0.0, 2023-09-25 17:14:01.529
42.0, -187500.02235174447, 18008.174658796153, -54856.21003582598, -45791.84005163194, -27319.26319828787, -8228.660610754563, -187500.02235174447, -12650.260347158952, 5057.730383602427, 10083.52012437822, -21231.609133673803, -29686.82702622736, 34507.15953196997, -9125.434950045938, -19977.162179608607, -30206.438029579884, 0.002, 1.01, -0.124, 192.0, 0.0, 8.0, 15.5, 72.0, 126.0, 16.0, 0.0, 0.0, 0.0, 1.695680041529387E9, 0.0, 2023-09-25 17:14:01.529
44.0, -187500.02235174447, 18019.551696723902, -54809.696055614484, -45797.91972612378, -27325.253465801892, -8223.609116507663, -187500.02235174447, -12652.406114626661, 5065.218217994955, 10123.306229508666, -21211.269046219477, -29676.165244122178, 34526.80671534619, -9099.819850900156, -19959.638411955646, -30191.37295381701, 0.002, 1.01, -0.124, 192.0, 0.0, 0.0, 0.0, 0.0, 0.0, 0.0, 0.0, 0.0, 0.0, 1.695680041589798E9, 0.0, 2023-09-25 17:14:01.589
46.0, -187500.02235174447, 18018.791737412423, -54862.28971031782, -45784.262810261585, -27318.905570376584, -8217.261221082357, -187500.02235174447, -12644.471245345027, 5071.364947720164, 10099.300455963667, -21236.14653779823, -29690.26919487348, 34500.96809875585, -9102.233839301329, -19987.153409380127, -30200.045430665665, 0.002, 1.01, -0.124, 192.0, 0.0, 0.0, 0.0, 0.0, 0.0, 0.0, 0.0, 0.0, 0.0, 1.69568004158981E9, 0.0, 2023-09-25 17:14:01.589
48.0, -187500.02235174447, 18015.058996088388, -54808.48906141389, -45801.96539187019, -27329.54500073731, -8231.946317189493, -187500.02235174447, -12655.177730939118, 5071.811982609271, 10095.657121617453, -21233.30786625241, -29687.989316939038, 34500.36460165556, -9113.23089757334, -19982.77246746689, -30181.515834512214, 0.002, 1.01, -0.124, 192.0, 0.0, 0.0, 0.0, 0.0, 0.0, 0.0, 0.0, 0.0, 0.0, 1.695680041589814E9, 0.0, 2023-09-25 17:14:01.589
50.0, -187500.02235174447, 18017.13770832273, -54853.93015789153, -45784.91101085079, -27316.536285464324, -8225.82193920874, -187500.02235174447, -12645.745294778979, 5071.297892486798, 10098.786365841195, -21218.04162478943, -29674.64532549922, 34515.45202916289, -9112.493290006316, -19975.08346737426, -30180.30884031163, 0.002, 1.01, -0.124, 192.0, 0.0, 0.0, 0.0, 0.0, 0.0, 0.0, 0.0, 0.0, 0.0, 1.695680041589817E9, 0.0, 2023-09-25 17:14:01.589
52.0, -187500.02235174447, 18006.61003668428, -54795.54740137427, -45799.95373486921, -27328.785041425832, -8240.484683571422, -187500.02235174447, -12656.138855950698, 5066.156991262078, 10106.81064210065, -21241.935639612155, -29684.345982592822, 34482.34909562458, -9112.068606861665, -19985.253511101426, -30177.850148421545, -0.002, 1.006, -0.13, 192.0, 127.5, 120.0, 15.5, 56.0, 125.5, 120.0, 0.0, 0.0, 0.0, 1.695680041589821E9, 0.0, 2023-09-25 17:14:01.589
54.0, -187500.02235174447, 18002.407908726684, -54851.27030030135, -45795.237516789144, -27323.77825066784, -8232.348648589688, -187500.02235174447, -12647.756951779957, 5046.219235207944, 10095.545362895175, -21204.67528160516, -29658.708531702585, 34526.896122324004, -9104.983103869332, -19961.09127534524, -30171.9716396298, -0.002, 1.006, -0.13, 192.0, 0.0, 0.0, 0.0, 0.0, 0.0, 0.0, 0.0, 0.0, 0.0, 1.695680041589824E9, 0.0, 2023-09-25 17:14:01.589
56.0, -187500.02235174447, 17996.864676101766, -54798.11785198663, -45815.68936296575, -27345.057111389295, -8252.15229417709, -187500.02235174447, -12668.231149701018, 5061.284310970821, 10099.926304808416, -21242.1144535678, -29684.100113403812, 34479.219851400834, -9111.822737672655, -19977.162179608607, -30176.039657120666, -0.002, 1.006, -0.13, 192.0, 0.0, 0.0, 0.0, 0.0, 0.0, 0.0, 0.0, 0.0, 0.0, 1.695680041589827E9, 0.0, 2023-09-25 17:14:01.589
58.0, -187500.02235174447, 18003.52549594945, -54853.48312300243, -45786.363874240385, -27333.613018228178, -8240.909366716072, -187500.02235174447, -12666.577120611326, 5042.598252606184, 10088.079880247102, -21187.553845352395, -29646.839755396817, 34551.237172035835, -9130.397037315017, -19937.957219834, -30169.15531982843, -0.002, 1.006, -0.13, 192.0, 0.0, 0.0, 0.0, 0.0, 0.0, 0.0, 0.0, 0.0, 0.0, 1.69568004158983E9, 0.0, 2023-09-25 17:14:01.589
60.0, -187500.02235174447, 18004.017234327464, -54806.209183479456, -45791.41536848729, -27338.776271197352, -8252.956956977481, -187500.02235174447, -12674.109658492764, 5068.5933314077065, 10106.85534558956, -21252.35155252833, -29692.996107697025, 34471.262630374746, -9125.300839579206, -19983.71124073401, -30185.382686302983, -0.002, 1.006, -0.13, 192.0, 0.0, 0.0, 0.0, 0.0, 0.0, 0.0, 0.0, 0.0, 0.0, 1.6956800416514E9, 0.0, 2023-09-25 17:14:01.651
62.0, -187500.02235174447, 17989.533303920427, -54842.061381585765, -45797.20447030121, -27334.484736261933, -8256.175608179046, -187500.02235174447, -12677.328309694329, 5058.423287680542, 10088.2810459472, -21186.078630218344, -29639.575438448843, 34555.68516918244, -9133.503929794304, -19944.66274317059, -30176.374933287494, -0.004, 1.008, -0.124, 192.0, 127.5, 112.0, 15.5, 64.0, 126.0, 16.0, 0.0, 0.0, 0.0, 1.69568004165141E9, 0.0, 2023-09-25 17:14:01.651
64.0, -187500.02235174447, 17977.08338225882, -54808.75728234736, -45811.666048963794, -27340.36324505368, -8262.836428026727, -187500.02235174447, -12679.384670184216, 5049.594348620695, 10091.454993659854, -21248.39529375974, -29683.45191281461, 34484.137235181006, -9130.821720459668, -19974.077638873772, -30192.267023595217, -0.004, 1.008, -0.124, 192.0, 0.0, 0.0, 0.0, 0.0, 0.0, 0.0, 0.0, 0.0, 0.0, 1.695680041651414E9, 0.0, 2023-09-25 17:14:01.651
66.0, -187500.02235174447, 17976.18931248061, -54849.057477600276, -45799.439644746744, -27317.899741876096, -8237.042514925304, -187500.02235174447, -12660.564501352848, 5046.6439183525945, 10096.305322206656, -21182.72586855005, -29637.452022725585, 34571.80077693472, -9124.295011078717, -19927.742472617923, -30181.381724045485, -0.004, 1.008, -0.124, 192.0, 0.0, 0.0, 0.0, 0.0, 0.0, 0.0, 0.0, 0.0, 0.0, 1.695680041651417E9, 0.0, 2023-09-25 17:14:01.651
68.0, -187500.02235174447, 17944.27102139843, -54820.2907824863, -45811.464883263696, -27337.16694559657, -8248.486608086421, -187500.02235174447, -12665.79480955539, 5057.506866157873, 10083.967159267326, -21277.58667201837, -29708.776439282472, 34462.67956050391, -9129.167691369974, -19996.563493795813, -30206.818009235623, -0.004, 1.008, -0.124, 192.0, 0.0, 0.0, 0.0, 0.0, 0.0, 0.0, 0.0, 0.0, 0.0, 1.69568004165142E9, 0.0, 2023-09-25 17:14:01.651
70.0, -187500.02235174447, 17935.576192805314, -54854.95833813648, -45793.65054293282, -27331.22138157146, -8242.071657427747, -187500.02235174447, -12662.240882186996, 5022.124054685122, 10058.016783954714, -21189.65490933119, -29646.795051907906, 34572.292515312736, -9147.987860201343, -19922.93684756003, -30181.292317067662, -0.004, 1.008, -0.124, 192.0, 0.0, 0.0, 0.0, 0.0, 0.0, 0.0, 0.0, 0.0, 0.0, 1.695680041651424E9, 0.0, 2023-09-25 17:14:01.651
72.0, -187500.02235174447, 17909.02232039241, -54842.77663740834, -45807.30745879501, -27335.51291650688, -8245.58088130723, -187500.02235174447, -12659.491617618993, 5029.745999544382, 10062.397725867955, -21287.287329111976, -29715.68312831916, 34464.3335895936, -9139.628307775058, -19989.209769870016, -30206.84036098008, -0.004, 1.008, -0.124, 192.0, 0.0, 0.0, 15.5, 64.0, 126.0, 8.0, 0.0, 0.0, 0.0, 1.695680041651427E9, 0.0, 2023-09-25 17:14:01.651
74.0, -187500.02235174447, 17899.701642954547, -54842.08373333022, -45802.88181339286, -27335.69173046252, -8242.094009172202, -187500.02235174447, -12661.16799845314, 5028.337839643698, 10054.284042630678, -21217.035796288943, -29667.224546340058, 34552.712387169886, -9136.789636229234, -19943.925135603564, -30189.629517749494, -0.004, 1.008, -0.124, 192.0, 0.0, 0.0, 0.0, 0.0, 0.0, 0.0, 0.0, 0.0, 0.0, 1.695680041710304E9, 0.0, 2023-09-25 17:14:01.710
76.0, -187500.02235174447, 17871.896072852145, -54848.90101538909, -45819.53386301206, -27345.392387556123, -8256.466180856965, -187500.02235174447, -12671.919187536143, 5002.320409097721, 10048.673754772397, -21292.763506503525, -29724.69088133465, 34463.506575048756, -9149.418371846483, -19991.78022048238, -30210.193122648376, -0.004, 1.008, -0.124, 192.0, 0.0, 0.0, 0.0, 0.0, 0.0, 0.0, 0.0, 0.0, 0.0, 1.695680041710317E9, 0.0, 2023-09-25 17:14:01.710
78.0, -187500.02235174447, 17869.996174573444, -54858.31109980478, -45797.91972612378, -27342.08432937674, -8249.49243658691, -187500.02235174447, -12673.50616139247, 4988.015292646324, 10053.65819378593, -21232.123223796276, -29683.11663664778, 34542.31882599817, -9147.339659612138, -19949.289554272837, -30201.252424866252, -0.004, 1.008, -0.124, 192.0, 0.0, 0.0, 0.0, 0.0, 0.0, 0.0, 0.0, 0.0, 0.0, 1.69568004171032E9, 0.0, 2023-09-25 17:14:01.710
80.0, -187500.02235174447, 17831.707636321502, -54877.60065526971, -45821.50081652413, -27346.509974778888, -8269.743117063417, -187500.02235174447, -12687.408946443671, 4993.1785456155, 10030.74765571924, -21315.36112014784, -29741.58880014286, 34449.044996386176, -9163.567026086692, -20006.845296245254, -30231.02494848072, -0.004, 1.008, -0.124, 192.0, 0.0, 0.0, 0.0, 0.0, 0.0, 0.0, 0.0, 0.0, 0.0, 1.695680041710323E9, 0.0, 2023-09-25 17:14:01.710
82.0, -187500.02235174447, 17821.62699957216, -54855.628890470136, -45823.892453180844, -27352.656704504097, -8269.385489152133, -187500.02235174447, -12686.872504576744, 4981.9579698989355, 10014.050902611125, -21262.49924451104, -29709.894026505237, 34521.62111063256, -9173.357090158117, -19968.57910973777, -30220.094945442077, 0.008, 1.004, -0.128, 192.0, 0.0, 32.0, 15.5, 48.0, 126.0, 0.0, 0.0, 0.0, 0.0, 1.695680041710326E9, 0.0, 2023-09-25 17:14:01.710
84.0, -187500.02235174447, 17795.184885881532, -54890.2070391425, -45850.31221512702, -27362.04443717533, -8280.695471846519, -187500.02235174447, -12697.690748893112, 4965.149458068545, 10003.970265861783, -21308.566189833426, -29747.13203276778, 34470.212098385346, -9170.205494189919, -19996.362328095714, -30230.60026533607, 0.008, 1.004, -0.128, 192.0, 0.0, 0.0, 0.0, 0.0, 0.0, 0.0, 0.0, 0.0, 0.0, 1.69568004171033E9, 0.0, 2023-09-25 17:14:01.710
86.0, -187500.02235174447, 17800.23638012843, -54866.0000998974, -45840.52215105559, -27367.69942852252, -8285.858724815695, -187500.02235174447, -12703.211629773574, 4966.2223418024, 10004.104376328514, -21282.012317420522, -29731.75403258253, 34510.80286631618, -9176.441630892949, -19976.558682508312, -30231.18141069191, 0.008, 1.004, -0.128, 192.0, 0.0, 0.0, 0.0, 0.0, 0.0, 0.0, 0.0, 0.0, 0.0, 1.695680041710333E9, 0.0, 2023-09-25 17:14:01.710
88.0, -187500.02235174447, 17813.870944246166, -54903.59573407123, -45821.85844443541, -27355.160099883095, -8275.934550277538, -187500.02235174447, -12693.868600591255, 4958.801562643238, 10000.304579771111, -21317.953922504657, -29751.69178863666, 34470.77089199673, -9183.05774725172, -20001.749098509445, -30242.75961431976, 0.008, 1.004, -0.128, 192.0, 0.0, 0.0, 0.0, 0.0, 0.0, 0.0, 0.0, 0.0, 0.0, 1.695680041710336E9, 0.0, 2023-09-25 17:14:01.710
90.0, -187500.02235174447, 17820.911743749588, -54855.58418698123, -45822.46194153571, -27358.714027251488, -8275.845143299717, -187500.02235174447, -12691.61107440127, 4976.526495996296, 10020.667018969896, -21297.41266935023, -29732.044605260446, 34498.50940686576, -9176.19576170394, -19987.891016947153, -30231.22611418082, 0.008, 1.004, -0.128, 192.0, 0.0, 0.0, 0.0, 0.0, 0.0, 0.0, 0.0, 0.0, 0.0, 1.69568004176971E9, 0.0, 2023-09-25 17:14:01.769
92.0, -187500.02235174447, 17825.940886252032, -54905.3615218832, -45821.1655403573, -27345.92882942305, -8257.069677957259, -187500.02235174447, -12678.155324239175, 4970.156248826534, 10019.348266047033, -21321.41844289523, -29749.59072465786, 34473.430749586914, -9165.9139592545, -20012.612046314724, -30237.775175306226, 0.01, 1.008, -0.128, 192.0, 0.0, 40.0, 15.5, 64.0, 126.0, 0.0, 0.0, 0.0, 0.0, 1.695680041769723E9, 0.0, 2023-09-25 17:14:01.769
94.0, -187500.02235174447, 17814.452089602004, -54844.83299789822, -45841.75149700064, -27369.17464365657, -8274.191114210023, -187500.02235174447, -12696.863734348266, 4976.41473727402, 10043.443446569854, -21308.297968899962, -29740.270047219998, 34486.707685793364, -9151.519435825281, -19999.089240919264, -30220.02789020871, 0.01, 1.008, -0.128, 192.0, 0.0, 0.0, 0.0, 0.0, 0.0, 0.0, 0.0, 0.0, 0.0, 1.695680041769727E9, 0.0, 2023-09-25 17:14:01.769
96.0, -187500.02235174447, 17833.33931366674, -54904.17687942707, -45805.29580179403, -27339.98326539794, -8243.01043069487, -187500.02235174447, -12672.030946258421, 4971.407946516031, 10012.732149688263, -21301.234817652086, -29732.715157594106, 34497.03419173172, -9195.328854957683, -19992.070793160296, -30226.196971678375, 0.01, 1.008, -0.128, 192.0, 0.0, 0.0, 0.0, 0.0, 0.0, 0.0, 0.0, 0.0, 0.0, 1.69568004176973E9, 0.0, 2023-09-25 17:14:01.769
98.0, -187500.02235174447, 17827.01376998589, -54836.22757628293, -45842.95849120122, -27366.783006999853, -8269.83252404124, -187500.02235174447, -12690.56054241187, 4988.8199554467155, 10011.592210721043, -21306.800402021458, -29732.916323294205, 34489.16637768345, -9184.510610641315, -19992.026089671384, -30213.79175350568, 0.01, 1.008, -0.128, 192.0, 0.0, 0.0, 0.0, 0.0, 0.0, 0.0, 0.0, 0.0, 0.0, 1.695680041769733E9, 0.0, 2023-09-25 17:14:01.769
100.0, -187500.02235174447, 17842.77174982688, -54892.9563037105, -45808.73797044015, -27343.246620088416, -8244.932680718026, -187500.02235174447, -12671.203931713573, 4983.70140596645, 10033.452216798332, -21289.053116923944, -29721.092250477344, 34517.463686163865, -9187.796317076245, -19982.48189478897, -30218.239750652287, 0.01, 1.008, -0.128, 192.0, 0.0, 0.0, 0.0, 0.0, 0.0, 0.0, 0.0, 0.0, 0.0, 1.695680041769737E9, 0.0, 2023-09-25 17:14:01.769
102.0, -187500.02235174447, 17829.606572342705, -54831.86898611415, -45842.04206967856, -27368.817015745284, -8269.899579274605, -187500.02235174447, -12694.963836069564, 4994.586705516184, 10033.385161564966, -21313.84120152488, -29736.000864029036, 34485.12071193704, -9181.761346073312, -19991.690813504556, -30212.584759305093, 0.012, 1.004, -0.134, 192.0, 0.0, 48.0, 15.5, 48.0, 125.5, 104.0, 0.0, 0.0, 0.0, 1.69568004176974E9, 0.0, 2023-09-25 17:14:01.769
104.0, -187500.02235174447, 17855.422837188584, -54890.028225186856, -45807.50862449511, -27347.940486424028, -8245.558529562775, -187500.02235174447, -12676.769516082944, 4987.523554268308, 10012.709797943808, -21261.046381121443, -29700.193369411634, 34548.9572941014, -9188.757442087823, -19951.412969996094, -30205.029869679198, 0.012, 1.004, -0.134, 192.0, 0.0, 0.0, 0.0, 0.0, 0.0, 0.0, 0.0, 0.0, 0.0, 1.695680041830468E9, 0.0, 2023-09-25 17:14:01.830
106.0, -187500.02235174447, 17858.797950601336, -54830.66199191356, -45807.73214193966, -27351.65087600361, -8257.986099479926, -187500.02235174447, -12676.07661200483, 5009.830595234704, 10044.672792514897, -21320.300855672464, -29734.011558772512, 34474.66009553195, -9179.526171627782, -19991.981386182473, -30208.136762158487, 0.012, 1.004, -0.134, 192.0, 0.0, 0.0, 0.0, 0.0, 0.0, 0.0, 0.0, 0.0, 0.0, 1.69568004183048E9, 0.0, 2023-09-25 17:14:01.830
108.0, -187500.02235174447, 17862.262470991907, -54875.38783256863, -45796.310400523, -27340.720872964965, -8246.452599340988, -187500.02235174447, -12669.818123557345, 5003.415644576031, 10041.901176202438, -21262.67805846668, -29689.620994284272, 34546.49860221131, -9185.62819786408, -19951.457673485, -30188.221357848808, 0.012, 1.004, -0.134, 192.0, 0.0, 0.0, 0.0, 0.0, 0.0, 0.0, 0.0, 0.0, 0.0, 1.695680041830483E9, 0.0, 2023-09-25 17:14:01.830
110.0, -187500.02235174447, 17853.031200531866, -54832.15955879207, -45816.270508321584, -27348.812204457787, -8262.098820459703, -187500.02235174447, -12673.863789303756, 5004.242659120877, 10035.642687754953, -21325.642922597282, -29732.245770960544, 34468.178089639914, -9173.468848880393, -19989.612101270213, -30196.178578874897, 0.012, 1.004, -0.134, 192.0, 0.0, 0.0, 0.0, 0.0, 0.0, 0.0, 0.0, 0.0, 0.0, 1.695680041830486E9, 0.0, 2023-09-25 17:14:01.830
112.0, -187500.02235174447, 17875.137075798164, -54872.57151276726, -45783.838127116935, -27324.091175090216, -8230.135825888614, -187500.02235174447, -12648.852187258266, 4998.833536962693, 10039.755408734729, -21262.275727066484, -29685.48592156004, 34545.64923592201, -9171.121915712585, -19951.792949651834, -30182.25344207924, 0.012, 1.008, -0.13, 192.0, 0.0, 48.0, 15.5, 64.0, 125.5, 120.0, 0.0, 0.0, 0.0, 1.69568004183049E9, 0.0, 2023-09-25 17:14:01.830
114.0, -187500.02235174447, 17877.68517466607, -54841.86021588567, -45796.980952856655, -27327.06395710277, -8239.456503326477, -187500.02235174447, -12651.9367279931, 5029.209557677455, 10047.958498949827, -21336.930553547212, -29744.98626530007, 34445.69223471788, -9161.175389429975, -20006.845296245254, -30189.763628216224, 0.012, 1.008, -0.13, 192.0, 0.0, 0.0, 0.0, 0.0, 0.0, 0.0, 0.0, 0.0, 0.0, 1.695680041830493E9, 0.0, 2023-09-25 17:14:01.830
116.0, -187500.02235174447, 17885.128305569688, -54858.62402422715, -45807.35216228392, -27322.459497744978, -8239.098875415191, -187500.02235174447, -12651.623803570725, 5014.502109825863, 10053.166455407913, -21266.857834679824, -29688.41400008369, 34523.87863682254, -9141.23763337584, -19965.494569002934, -30169.98233437328, 0.012, 1.008, -0.13, 192.0, 0.0, 0.0, 0.0, 0.0, 0.0, 0.0, 0.0, 0.0, 0.0, 1.695680041830496E9, 0.0, 2023-09-25 17:14:01.830
118.0, -187500.02235174447, 17895.96890163051, -54840.250890284886, -45810.906089652315, -27320.06786108826, -8248.486608086421, -187500.02235174447, -12654.820103027834, 5007.953048700458, 10049.768990250706, -21333.51073664555, -29736.64906461824, 34436.460964257836, -9143.76338049929, -20006.75588926743, -30181.202910089843, 0.012, 1.008, -0.13, 192.0, 0.0, 0.0, 0.0, 0.0, 0.0, 0.0, 0.0, 0.0, 0.0, 1.695680041830499E9, 0.0, 2023-09-25 17:14:01.830
120.0, -187500.02235174447, 17924.109747899744, -54852.25377705738, -45803.64177270434, -27316.268064530857, -8245.826750496239, -187500.02235174447, -12658.50814086296, 5030.66242106705, 10057.547397321154, -21257.604212475326, -29676.098188888813, 34520.45881992088, -9117.455377275393, -19966.52274924788, -30169.132968083977, 0.012, 1.008, -0.13, 192.0, 0.0, 0.0, 0.0, 0.0, 0.0, 0.0, 0.0, 0.0, 0.0, 1.695680041889804E9, 0.0, 2023-09-25 17:14:01.889
122.0, -187500.02235174447, 17931.865803225734, -54839.66974492905, -45804.55819422701, -27322.88418088963, -8255.549759334297, -187500.02235174447, -12662.889082776199, 5029.209557677455, 10081.821391799616, -21316.903390515257, -29720.01936674349, 34438.33851079208, -9143.159883398996, -20007.404089856638, -30180.197081589355, 0.01, 1.002, -0.134, 192.0, 0.0, 40.0, 15.5, 40.0, 125.5, 104.0, 0.0, 0.0, 0.0, 1.695680041889813E9, 0.0, 2023-09-25 17:14:01.889
124.0, -187500.02235174447, 17970.17669322213, -54845.36943976515, -45785.96154284019, -27309.987224338918, -8239.031820181826, -187500.02235174447, -12646.907585490655, 5037.077371725723, 10079.161534209436, -21259.97349738759, -29685.3071076044, 34512.300433194694, -9121.99278139982, -19982.34778432224, -30178.140721099466, 0.01, 1.002, -0.134, 192.0, 0.0, 0.0, 0.0, 0.0, 0.0, 0.0, 0.0, 0.0, 0.0, 1.695680041889816E9, 0.0, 2023-09-25 17:14:01.889
126.0, -187500.02235174447, 17974.80350432438, -54842.17314030804, -45815.21997633219, -27321.230151799937, -8247.950166219493, -187500.02235174447, -12654.909510005655, 5040.6536508385725, 10077.395746397466, -21323.430099896206, -29725.495544135043, 34428.34728102056, -9102.300894534696, -20032.48274713549, -30189.048372393656, 0.01, 1.002, -0.134, 192.0, 0.0, 0.0, 0.0, 0.0, 0.0, 0.0, 0.0, 0.0, 0.0, 1.69568004188982E9, 0.0, 2023-09-25 17:14:01.889
128.0, -187500.02235174447, 17978.871521815243, -54829.49970120189, -45827.9157671828, -27336.56344849628, -8268.44671588501, -187500.02235174447, -12676.456591660572, 5028.941336743991, 10082.313130177634, -21233.10670055231, -29669.102092874302, 34529.46657293637, -9096.891772376512, -19971.753057450424, -30170.675238451393, 0.01, 1.002, -0.134, 192.0, 0.0, 0.0, 0.0, 0.0, 0.0, 0.0, 0.0, 0.0, 0.0, 1.695680041889823E9, 0.0, 2023-09-25 17:14:01.889
130.0, -187500.02235174447, 17979.206797982075, -54846.822303154746, -45822.66310723581, -27340.944390409517, -8276.06866074427, -187500.02235174447, -12678.512952150459, 5031.288269911798, 10077.440449886377, -21283.956919188135, -29707.30122414842, 34466.859336717054, -9118.818833687166, -20004.5207148219, -30199.30782309864, 0.01, 1.002, -0.134, 192.0, 0.0, 0.0, 0.0, 0.0, 0.0, 0.0, 0.0, 0.0, 0.0, 1.695680041889826E9, 0.0, 2023-09-25 17:14:01.889
132.0, -187500.02235174447, 17991.03087079893, -54837.23340478342, -45814.057685620515, -27338.753919452898, -8269.363137407678, -187500.02235174447, -12681.03869927391, 5014.569165059229, 10069.349118393555, -21203.177714726655, -29653.657037455683, 34558.434433750444, -9116.069569119165, -19940.23709776844, -30179.526529255694, 0.004, 1.004, -0.134, 192.0, 0.0, 16.0, 15.5, 48.0, 125.5, 104.0, 0.0, 0.0, 0.0, 1.695680041889829E9, 0.0, 2023-09-25 17:14:01.889
134.0, -187500.02235174447, 18009.71692916357, -54874.851390701704, -45794.25404003311, -27325.767555924365, -8254.365116878167, -187500.02235174447, -12666.063030488853, 5039.558415360262, 10059.223778155301, -21268.333049813875, -29708.418811371186, 34484.91954623694, -9124.317362823173, -19997.27874961838, -30210.0813639261, 0.004, 1.004, -0.134, 192.0, 0.0, 0.0, 0.0, 0.0, 0.0, 0.0, 0.0, 0.0, 0.0, 1.695680041949988E9, 0.0, 2023-09-25 17:14:01.949
136.0, -187500.02235174447, 18015.640141444223, -54827.84567211219, -45834.97891843068, -27357.41762607308, -8276.4039369111, -187500.02235174447, -12693.443917446604, 5048.186188720011, 10102.653217631963, -21220.67913063516, -29673.863014443283, 34537.87082885156, -9093.695472919402, -19968.310888804306, -30195.01628816322, 0.004, 1.004, -0.134, 192.0, 0.0, 0.0, 0.0, 0.0, 0.0, 0.0, 0.0, 0.0, 0.0, 1.69568004195E9, 0.0, 2023-09-25 17:14:01.950
138.0, -187500.02235174447, 18028.872374161765, -54871.85625694469, -45795.86336563389, -27326.236942557927, -8250.67707904304, -187500.02235174447, -12666.688879333602, 5035.378639147119, 10100.418043186432, -21242.29326752344, -29697.868787988282, 34509.93114828243, -9103.999627113299, -19989.43328731457, -30211.48952382678, 0.004, 1.004, -0.134, 192.0, 0.0, 0.0, 0.0, 0.0, 0.0, 0.0, 0.0, 0.0, 0.0, 1.695680041950004E9, 0.0, 2023-09-25 17:14:01.950
140.0, -187500.02235174447, 18035.890821920733, -54805.650389868075, -45797.51739472358, -27340.497355520412, -8266.792686795317, -187500.02235174447, -12676.970681783043, 5051.494246899396, 10094.80775532815, -21219.24861899002, -29674.86884294377, 34535.88152359504, -9104.04433060221, -19976.871606930687, -30194.41279106293, 0.004, 1.004, -0.134, 192.0, 0.0, 0.0, 0.0, 0.0, 0.0, 0.0, 0.0, 0.0, 0.0, 1.695680041950007E9, 0.0, 2023-09-25 17:14:01.950
142.0, -187500.02235174447, 18037.99188589953, -54862.28971031782, -45795.97512435617, -27327.89097164762, -8251.146465676602, -187500.02235174447, -12665.392478155194, 5055.450505667985, 10096.573543140119, -21219.04745328992, -29674.95824992159, 34541.4024044755, -9121.970429655365, -19975.821074941286, -30197.050296908656, 0.002, 1.004, -0.138, 192.0, 0.0, 8.0, 15.5, 48.0, 125.5, 88.0, 0.0, 0.0, 0.0, 1.69568004195001E9, 0.0, 2023-09-25 17:14:01.950
144.0, -187500.02235174447, 18032.068673618876, -54805.3374654457, -45829.569796272495, -27349.08042539125, -8273.83348629874, -187500.02235174447, -12687.096022021296, 5060.52435165934, 10068.94678699336, -21223.227229503063, -29684.994183182025, 34540.73185214184, -9095.461260731372, -19980.269072087893, -30197.765552731224, 0.002, 1.004, -0.138, 192.0, 0.0, 0.0, 0.0, 0.0, 0.0, 0.0, 0.0, 0.0, 0.0, 1.695680041950013E9, 0.0, 2023-09-25 17:14:01.950
146.0, -187500.02235174447, 18050.888842450244, -54861.41799228406, -45797.98678135715, -27335.155288595593, -8262.702317559995, -187500.02235174447, -12679.071745761841, 5069.62151165265, 10101.356816453555, -21209.68207236315, -29672.052523142404, 34559.66377969549, -9095.438908986916, -19979.531464520867, -30210.349584859563, 0.002, 1.004, -0.138, 192.0, 0.0, 0.0, 0.0, 0.0, 0.0, 0.0, 0.0, 0.0, 0.0, 1.695680041950017E9, 0.0, 2023-09-25 17:14:01.950
148.0, -187500.02235174447, 18029.207650328597, -54802.141165988585, -45828.29574683854, -27361.41858833058, -8291.40195744061, -187500.02235174447, -12708.307827509383, 5065.799363350793, 10094.494830905776, -21211.827839830858, -29667.82804344035, 34548.93494235694, -9121.299877321706, -19979.777333709877, -30207.957948202846, 0.002, 1.004, -0.138, 192.0, 0.0, 0.0, 0.0, 0.0, 0.0, 0.0, 0.0, 0.0, 0.0, 1.69568004195002E9, 0.0, 2023-09-25 17:14:01.950
150.0, -187500.02235174447, 18053.168720384685, -54873.89026569013, -45793.96346735519, -27323.84530590121, -8258.321375646756, -187500.02235174447, -12677.41771667215, 5063.363023205165, 10070.064374216125, -21194.90756927819, -29665.14583410571, 34574.438282780444, -9135.180310628451, -19976.357516808213, -30227.247503667775, 0.002, 1.004, -0.138, 192.0, 0.0, 0.0, 0.0, 0.0, 0.0, 0.0, 0.0, 0.0, 0.0, 1.695680042010265E9, 0.0, 2023-09-25 17:14:02.010
152.0, -187500.02235174447, 18056.00739193051, -54809.18196549201, -45801.27248779208, -27343.112509621682, -8266.524465861854, -187500.02235174447, -12683.676205119635, 5091.570924707762, 10121.205165529867, -21247.098892581333, -29697.935843221647, 34512.47924715033, -9098.970484610854, -20022.469165619514, -30231.69550081438, 0.002, 1.006, -0.138, 192.0, 0.0, 8.0, 15.5, 56.0, 125.5, 88.0, 0.0, 0.0, 0.0, 1.695680042010276E9, 0.0, 2023-09-25 17:14:02.010
154.0, -187500.02235174447, 18056.119150652787, -54856.321794548254, -45801.78657791455, -27342.956047410495, -8262.165875693068, -187500.02235174447, -12687.297187721395, 5070.761450619871, 10077.485153375286, -21186.346851151808, -29648.851412397795, 34579.42272179398, -9088.375757739039, -19990.506171048426, -30216.473962840315, 0.002, 1.006, -0.138, 192.0, 0.0, 0.0, 0.0, 0.0, 0.0, 0.0, 0.0, 0.0, 0.0, 1.69568004201028E9, 0.0, 2023-09-25 17:14:02.010
156.0, -187500.02235174447, 18053.30283085142, -54814.00994229435, -45800.19960405822, -27345.37003581167, -8264.088125716225, -187500.02235174447, -12688.973568555542, 5088.776956650849, 10113.404406714966, -21236.504165709517, -29684.658907015197, 34515.586139629624, -9093.404900241483, -20025.039616231876, -30230.332044402607, 0.002, 1.006, -0.138, 192.0, 0.0, 0.0, 0.0, 0.0, 0.0, 0.0, 0.0, 0.0, 0.0, 1.695680042010283E9, 0.0, 2023-09-25 17:14:02.010
158.0, -187500.02235174447, 18047.178452870663, -54854.86893115866, -45797.58444995695, -27353.260201604393, -8262.72466930445, -187500.02235174447, -12691.923998823644, 5072.951921576491, 10096.350025695567, -21179.082534203833, -29638.61431343726, 34585.54709977473, -9097.629379943535, -19996.362328095714, -30219.93848323089, 0.002, 1.006, -0.138, 192.0, 0.0, 0.0, 0.0, 0.0, 0.0, 0.0, 0.0, 0.0, 0.0, 1.695680042010286E9, 0.0, 2023-09-25 17:14:02.010
160.0, -187500.02235174447, 18043.04338014643, -54821.721294131436, -45804.51349073809, -27351.49441379242, -8267.284425173333, -187500.02235174447, -12690.851115089788, 5075.723537888949, 10105.603647900063, -21235.453633720117, -29681.529662791454, 34518.22364547535, -9120.495214521316, -20029.308799422837, -30227.18044843441, 0.002, 1.006, -0.138, 192.0, 0.0, 0.0, 0.0, 0.0, 0.0, 0.0, 0.0, 0.0, 0.0, 1.695680042010307E9, 0.0, 2023-09-25 17:14:02.010
162.0, -187500.02235174447, 18052.18524362865, -54859.65220447209, -45783.30168525001, -27329.388538526124, -8242.786913250317, -187500.02235174447, -12668.879350290223, 5088.285218272832, 10106.900049078471, -21181.138894693722, -29640.983598349525, 34589.45865505441, -9108.179403326441, -20006.6217788007, -30221.816029765134, 0.008, 1.006, -0.136, 192.0, 0.0, 32.0, 15.5, 56.0, 125.5, 96.0, 0.0, 0.0, 0.0, 1.69568004201031E9, 0.0, 2023-09-25 17:14:02.010
164.0, -187500.02235174447, 18027.911249150187, -54819.2402504969, -45824.607709003416, -27350.06390214728, -8271.44184964202, -187500.02235174447, -12690.113507522763, 5080.305645502287, 10091.544400637675, -21250.764578672002, -29689.39747683972, 34497.21300568736, -9105.094862591608, -20059.103674781763, -30233.6848060709, 0.008, 1.006, -0.136, 192.0, 0.0, 0.0, 0.0, 0.0, 0.0, 0.0, 0.0, 0.0, 0.0, 1.695680042070634E9, 0.0, 2023-09-25 17:14:02.070
166.0, -187500.02235174447, 18030.682865462644, -54852.79021892431, -45815.9128804103, -27337.301056063305, -8261.383564637134, -187500.02235174447, -12682.46921091905, 5076.818773367259, 10086.470554646321, -21174.925109735144, -29642.257647783477, 34589.905689943516, -9118.528261009247, -20011.986197469974, -30230.510858358248, 0.008, 1.006, -0.136, 192.0, 0.0, 0.0, 0.0, 0.0, 0.0, 0.0, 0.0, 0.0, 0.0, 1.695680042070648E9, 0.0, 2023-09-25 17:14:02.070
168.0, -187500.02235174447, 18010.812164641877, -54836.89812861659, -45807.754493684115, -27342.50901252139, -8273.408803154089, -187500.02235174447, -12689.510010422471, 5074.136564032622, 10089.37628142551, -21251.122206583288, -29698.1593606662, 34497.86120627656, -9144.299822366218, -20065.49627369598, -30243.56427712015, 0.008, 1.006, -0.136, 192.0, 0.0, 0.0, 0.0, 0.0, 0.0, 0.0, 0.0, 0.0, 0.0, 1.695680042070652E9, 0.0, 2023-09-25 17:14:02.070
170.0, -187500.02235174447, 17996.775269123944, -54828.7397418904, -45827.826360204985, -27355.316562094282, -8279.77905032385, -187500.02235174447, -12693.80154535789, 5061.865456326658, 10087.2305139578, -21173.986336468024, -29647.756176919484, 34595.73949524635, -9133.23570886084, -20018.557610339834, -30215.7810587622, 0.008, 1.006, -0.136, 192.0, 0.0, 0.0, 0.0, 0.0, 0.0, 0.0, 0.0, 0.0, 0.0, 1.695680042070655E9, 0.0, 2023-09-25 17:14:02.070
172.0, -187500.02235174447, 18000.21743777006, -54837.63573618361, -45809.296764051534, -27346.46527128998, -8267.507942617887, -187500.02235174447, -12684.391460942205, 5060.971386548446, 10067.248054414757, -21241.466252978596, -29697.958194966104, 34521.397593188, -9135.895566451021, -20056.600279402766, -30230.577913591616, 0.008, 1.006, -0.14400000000000002, 192.0, 0.0, 32.0, 15.5, 56.0, 125.5, 64.0, 0.0, 0.0, 0.0, 1.695680042070658E9, 0.0, 2023-09-25 17:14:02.070
174.0, -187500.02235174447, 17998.585760424827, -54827.82332036774, -45813.47654026467, -27352.969628926472, -8262.63526232663, -187500.02235174447, -12684.480867920027, 5059.160895247566, 10080.681452832396, -21174.589833568316, -29647.62206645275, 34602.78029474978, -9123.624458745058, -20016.903581250142, -30209.477866825804, 0.008, 1.006, -0.14400000000000002, 192.0, 0.0, 0.0, 0.0, 0.0, 0.0, 0.0, 0.0, 0.0, 0.0, 1.695680042070661E9, 0.0, 2023-09-25 17:14:02.070
176.0, -187500.02235174447, 18006.319464006363, -54846.48702698792, -45781.51354569358, -27343.224268343958, -8254.92391048955, -187500.02235174447, -12676.233074216017, 5063.81005809427, 10090.270351203722, -21244.10375882432, -29702.763820023993, 34515.943767540906, -9125.837281446133, -20071.26302376545, -30226.375785634016, 0.008, 1.006, -0.14400000000000002, 192.0, 0.0, 0.0, 0.0, 0.0, 0.0, 0.0, 0.0, 0.0, 0.0, 1.695680042070665E9, 0.0, 2023-09-25 17:14:02.070
178.0, -187500.02235174447, 18003.793716882912, -54817.09448302919, -45797.02565634557, -27353.863698704685, -8262.590558837719, -187500.02235174447, -12682.089231263308, 5069.599159908194, 10115.773691627228, -21188.403211641697, -29652.83002291084, 34581.27791658377, -9118.304743564695, -20042.67514260711, -30203.01821267822, 0.008, 1.006, -0.14400000000000002, 192.0, 0.0, 0.0, 0.0, 0.0, 0.0, 0.0, 0.0, 0.0, 0.0, 1.695680042070668E9, 0.0, 2023-09-25 17:14:02.070
180.0, -187500.02235174447, 18004.37486223875, -54844.0953903312, -45786.81090912949, -27347.716968979475, -8253.06871569976, -187500.02235174447, -12679.205856228573, 5065.508790672874, 10075.115868463025, -21238.895802366234, -29686.11177040479, 34516.770782085754, -9145.305650866705, -20077.342698257293, -30211.623634293515, 0.008, 1.006, -0.14400000000000002, 192.0, 0.0, 0.0, 0.0, 0.0, 0.0, 0.0, 0.0, 0.0, 0.0, 1.695680042129429E9, 0.0, 2023-09-25 17:14:02.129
182.0, -187500.02235174447, 17987.543998663903, -54808.936096303005, -45802.2112610592, -27363.966687198485, -8268.267901929368, -187500.02235174447, -12688.973568555542, 5073.488363443418, 10096.126508251013, -21184.2010836841, -29643.3975867507, 34585.412989308, -9134.822682717167, -20036.997799515462, -30190.25536659424, 0.004, 1.008, -0.138, 192.0, 0.0, 16.0, 15.5, 64.0, 125.5, 88.0, 0.0, 0.0, 0.0, 1.69568004212944E9, 0.0, 2023-09-25 17:14:02.129
184.0, -187500.02235174447, 18002.497315704502, -54854.8465794142, -45797.897374379325, -27344.833593944742, -8258.2990239023, -187500.02235174447, -12678.8929318062, 5058.177418491533, 10083.989511011781, -21216.298188721918, -29668.29743007391, 34552.153593558505, -9136.052028662209, -20053.7839596014, -30200.60422427705, 0.004, 1.008, -0.138, 192.0, 0.0, 0.0, 0.0, 0.0, 0.0, 0.0, 0.0, 0.0, 0.0, 1.695680042129443E9, 0.0, 2023-09-25 17:14:02.129
186.0, -187500.02235174447, 18019.775214168458, -54821.25190749788, -45767.700167620205, -27321.87835238914, -8244.44094234001, -187500.02235174447, -12659.02223098543, 5085.267732771365, 10110.655142146963, -21203.87061880477, -29659.423787525153, 34564.9611431314, -9124.786749456734, -20058.76839861493, -30206.102753413055, 0.004, 1.008, -0.138, 192.0, 0.0, 0.0, 0.0, 0.0, 0.0, 0.0, 0.0, 0.0, 0.0, 1.695680042129447E9, 0.0, 2023-09-25 17:14:02.129
188.0, -187500.02235174447, 18003.57019943836, -54852.85727415768, -45786.4085777293, -27325.476983246444, -8249.268919142356, -187500.02235174447, -12661.100943219775, 5087.838183383726, 10101.401519942465, -21241.086273322853, -29681.507311046997, 34519.698860609395, -9122.551575011203, -20102.331948558327, -30210.483695326293, 0.004, 1.008, -0.138, 192.0, 0.0, 0.0, 0.0, 0.0, 0.0, 0.0, 0.0, 0.0, 0.0, 1.69568004212945E9, 0.0, 2023-09-25 17:14:02.129
190.0, -187500.02235174447, 17991.142629521208, -54797.7825758198, -45821.23259559066, -27353.818995215774, -8274.414631654578, -187500.02235174447, -12685.263178975962, 5076.036462311324, 10100.99918854227, -21215.20295324361, -29665.883441672737, 34542.34117774262, -9111.554516739192, -20082.908282626664, -30194.099866640554, 0.004, 1.008, -0.138, 192.0, 0.0, 0.0, 0.0, 0.0, 0.0, 0.0, 0.0, 0.0, 0.0, 1.695680042129453E9, 0.0, 2023-09-25 17:14:02.129
192.0, -187500.02235174447, 17996.685862146125, -54853.93015789153, -45787.19088878523, -27330.17084958206, -8256.53323609033, -187500.02235174447, -12670.958062524565, 5062.714822615961, 10071.472534116809, -21200.96489202558, -29657.92622064665, 34561.74249192983, -9141.885833965043, -20067.306764996858, -30195.351564330052, 0.004, 1.004, -0.14400000000000002, 192.0, 0.0, 16.0, 15.5, 48.0, 125.5, 64.0, 0.0, 0.0, 0.0, 1.695680042129456E9, 0.0, 2023-09-25 17:14:02.129
194.0, -187500.02235174447, 18006.341815750817, -54807.05854976876, -45802.18890931475, -27323.77825066784, -8247.413724352566, -187500.02235174447, -12659.759838552456, 5090.498040973907, 10102.496755420776, -21224.38952021474, -29677.193424367124, 34534.942750327915, -9113.029731873243, -20088.36210827376, -30205.32044235712, 0.004, 1.004, -0.14400000000000002, 192.0, 0.0, 0.0, 0.0, 0.0, 0.0, 0.0, 0.0, 0.0, 0.0, 1.695680042189727E9, 0.0, 2023-09-25 17:14:02.189
196.0, -187500.02235174447, 18000.195086025607, -54845.86117814317, -45765.86732457487, -27328.51682049237, -8244.910328973572, -187500.02235174447, -12656.518835606437, 5089.738081662426, 10088.951598280859, -21218.779232356457, -29671.896060931216, 34537.71436664038, -9125.859633190588, -20099.6944427126, -30203.93463420089, 0.004, 1.004, -0.14400000000000002, 192.0, 0.0, 0.0, 0.0, 0.0, 0.0, 0.0, 0.0, 0.0, 0.0, 1.695680042189738E9, 0.0, 2023-09-25 17:14:02.189
198.0, -187500.02235174447, 18001.156211037185, -54798.095500242176, -45789.00138008611, -27336.339931051723, -8252.733439532929, -187500.02235174447, -12665.07955373282, 5083.323131003754, 10112.085653792103, -21239.119319810787, -29684.614203526286, 34508.56769187065, -9123.04331338922, -20110.244466095504, -30191.9764509173, 0.004, 1.004, -0.14400000000000002, 192.0, 0.0, 0.0, 0.0, 0.0, 0.0, 0.0, 0.0, 0.0, 0.0, 1.695680042189742E9, 0.0, 2023-09-25 17:14:02.189
200.0, -187500.02235174447, 17997.155248779687, -54840.42970424053, -45767.02961528655, -27339.715044464476, -8252.509922088377, -187500.02235174447, -12672.567388125348, 5079.098651301701, 10099.14399375248, -21203.96002578259, -29655.646342712207, 34549.98547434634, -9129.458264047893, -20093.368899031746, -30187.39434330396, 0.004, 1.004, -0.14400000000000002, 192.0, 0.0, 0.0, 0.0, 0.0, 0.0, 0.0, 0.0, 0.0, 0.0, 1.695680042189745E9, 0.0, 2023-09-25 17:14:02.189
202.0, -187500.02235174447, 17989.8462283428, -54798.56488687574, -45796.91389762329, -27349.773329469364, -8266.54681760631, -187500.02235174447, -12682.737431852513, 5083.569000192761, 10087.275217446711, -21240.505127967015, -29681.060276157892, 34504.70084007989, -9147.674935778969, -20112.926675430142, -30196.670317252916, 0.006, 1.008, -0.14400000000000002, 192.0, 0.0, 24.0, 15.5, 64.0, 125.5, 64.0, 0.0, 0.0, 0.0, 1.695680042189748E9, 0.0, 2023-09-25 17:14:02.189
204.0, -187500.02235174447, 17985.532341662925, -54845.54825372079, -45804.26762154909, -27349.795681213818, -8262.992890237914, -187500.02235174447, -12686.447821432093, 5062.915988316058, 10091.454993659854, -21184.916339506668, -29641.67650242764, 34571.06316936769, -9135.850862962112, -20081.142494814696, -30190.702401483348, 0.006, 1.008, -0.14400000000000002, 192.0, 0.0, 0.0, 0.0, 0.0, 0.0, 0.0, 0.0, 0.0, 0.0, 1.695680042189751E9, 0.0, 2023-09-25 17:14:02.189
206.0, -187500.02235174447, 17989.55565566488, -54810.16544224804, -45794.321095266474, -27345.07946313375, -8262.590558837719, -187500.02235174447, -12678.401193428183, 5074.158915777078, 10078.42392664241, -21244.841366391345, -29692.817293741384, 34494.97783124183, -9148.233729390351, -20118.000521421494, -30213.657643038947, 0.006, 1.008, -0.14400000000000002, 192.0, 0.0, 0.0, 0.0, 0.0, 0.0, 0.0, 0.0, 0.0, 0.0, 1.695680042189754E9, 0.0, 2023-09-25 17:14:02.189
208.0, -187500.02235174447, 17999.99392032551, -54846.62113745465, -45781.20062127121, -27339.35741655319, -8247.704297030485, -187500.02235174447, -12671.18157996912, 5073.510715187874, 10109.179927012912, -21192.51593262147, -29649.611371709274, 34557.875640139064, -9131.291107093228, -20095.201742077083, -30201.83357022209, 0.006, 1.008, -0.14400000000000002, 192.0, 0.0, 0.0, 0.0, 0.0, 0.0, 0.0, 0.0, 0.0, 0.0, 1.695680042189757E9, 0.0, 2023-09-25 17:14:02.189
210.0, -187500.02235174447, 17989.242731242506, -54801.82824156621, -45800.624287202874, -27361.75386449741, -8272.917064776071, -187500.02235174447, -12685.21847548705, 5085.804174638292, 10124.33440975361, -21258.811206675913, -29694.046639686425, 34474.52598506522, -9134.867386206077, -20133.736149518034, -30204.404020834452, 0.006, 1.008, -0.14400000000000002, 192.0, 0.0, 0.0, 0.0, 0.0, 0.0, 0.0, 0.0, 0.0, 0.0, 1.695680042250119E9, 0.0, 2023-09-25 17:14:02.250
212.0, -187500.02235174447, 17986.09113527431, -54840.42970424053, -45790.38718824234, -27344.11833812217, -8261.20475068149, -187500.02235174447, -12681.41867892965, 5078.942189090513, 10088.57161862512, -21181.407115627186, -29632.266418011957, 34571.018465878784, -9159.275491151273, -20077.722677913032, -30185.226224091795, 0.008, 1.0, -0.14200000000000002, 192.0, 0.0, 32.0, 15.5, 32.0, 125.5, 72.0, 0.0, 0.0, 0.0, 1.69568004225013E9, 0.0, 2023-09-25 17:14:02.250
214.0, -187500.02235174447, 17974.155303735173, -54809.22666898092, -45806.703961694715, -27354.98128592745, -8278.25913170089, -187500.02235174447, -12685.531399909425, 5088.821660139759, 10092.684339604895, -21263.169796844697, -29688.21283438359, 34474.25776413176, -9136.253194362307, -20129.93635296063, -30199.464285309827, 0.008, 1.0, -0.14200000000000002, 192.0, 0.0, 0.0, 0.0, 0.0, 0.0, 0.0, 0.0, 0.0, 0.0, 1.695680042250133E9, 0.0, 2023-09-25 17:14:02.250
216.0, -187500.02235174447, 17976.904568303176, -54831.46665471395, -45782.385263727345, -27343.246620088416, -8264.512808860876, -187500.02235174447, -12680.345795195795, 5055.7410783459045, 10079.273292931712, -21174.746295779503, -29621.738746373507, 34586.396466064034, -9179.615578605602, -20060.62359340472, -30172.083398352075, 0.008, 1.0, -0.14200000000000002, 192.0, 0.0, 0.0, 0.0, 0.0, 0.0, 0.0, 0.0, 0.0, 0.0, 1.695680042250136E9, 0.0, 2023-09-25 17:14:02.250
218.0, -187500.02235174447, 17972.45657115657, -54818.12266327413, -45782.161746282785, -27335.177640340047, -8267.68675657353, -187500.02235174447, -12680.256388217973, 5070.493229686407, 10082.156667966447, -21262.25337532203, -29682.49078780303, 34482.21498515785, -9162.427087119471, -20120.347454589304, -30196.02211666371, 0.008, 1.0, -0.14200000000000002, 192.0, 0.0, 0.0, 0.0, 0.0, 0.0, 0.0, 0.0, 0.0, 0.0, 1.695680042250139E9, 0.0, 2023-09-25 17:14:02.250
220.0, -187500.02235174447, 17970.914300789154, -54825.09640754419, -45785.53685969554, -27334.5517914953, -8267.932625762538, -187500.02235174447, -12686.693690621101, 5068.749793618893, 10085.08474649009, -21189.72196456456, -29631.1935342781, 34569.632657722555, -9165.66809006549, -20072.291204010395, -30181.135854856475, 0.008, 1.0, -0.14200000000000002, 192.0, 0.0, 0.0, 0.0, 0.0, 0.0, 0.0, 0.0, 0.0, 0.0, 1.695680042250143E9, 0.0, 2023-09-25 17:14:02.250
222.0, -187500.02235174447, 17957.07857097132, -54828.76209363486, -45796.37745575637, -27343.783061955342, -8275.621625855163, -187500.02235174447, -12690.627597645236, 5074.360081477175, 10047.444408827354, -21269.62945099228, -29684.413037826187, 34476.82821474412, -9187.550447887237, -20122.962608690574, -30202.9288057004, 0.004, 1.002, -0.14200000000000002, 192.0, 0.0, 16.0, 15.5, 40.0, 125.5, 72.0, 0.0, 0.0, 0.0, 1.695680042250146E9, 0.0, 2023-09-25 17:14:02.250
224.0, -187500.02235174447, 17968.388553665704, -54820.536651675306, -45785.08982480643, -27343.69365497752, -8274.816963054773, -187500.02235174447, -12688.884161577722, 5079.590389679717, 10065.102286947047, -21203.42358391566, -29638.86018262627, 34555.863983138086, -9176.173409959485, -20080.941329114597, -30190.992974161265, 0.004, 1.002, -0.14200000000000002, 192.0, 0.0, 0.0, 0.0, 0.0, 0.0, 0.0, 0.0, 0.0, 0.0, 1.695680042311726E9, 0.0, 2023-09-25 17:14:02.311
226.0, -187500.02235174447, 17957.682068071612, -54838.28393677282, -45790.834223131445, -27351.27089634787, -8279.890809046126, -187500.02235174447, -12692.639254646214, 5076.058814055778, 10060.22960665579, -21260.64404972125, -29677.595755767317, 34482.34909562458, -9190.903209555532, -20117.5981900213, -30205.07457316811, 0.004, 1.002, -0.14200000000000002, 192.0, 0.0, 0.0, 0.0, 0.0, 0.0, 0.0, 0.0, 0.0, 0.0, 1.695680042311738E9, 0.0, 2023-09-25 17:14:02.311
228.0, -187500.02235174447, 17966.846283298288, -54818.88262258561, -45799.52905172456, -27353.439015560034, -8279.913160790582, -187500.02235174447, -12692.527495923936, 5080.953846091491, 10074.1770951959, -21213.97360729857, -29640.804784393884, 34546.54330570022, -9171.233674434861, -20088.943253629597, -30194.815122463126, 0.004, 1.002, -0.14200000000000002, 192.0, 0.0, 0.0, 0.0, 0.0, 0.0, 0.0, 0.0, 0.0, 0.0, 1.695680042311742E9, 0.0, 2023-09-25 17:14:02.311
230.0, -187500.02235174447, 17956.02803898192, -54834.50649195987, -45819.60091824543, -27367.900594222618, -8295.514678420386, -187500.02235174447, -12707.570219942358, 5071.43200295353, 10057.905025232438, -21268.19893934714, -29677.48399704504, 34489.725171294835, -9173.938235513955, -20125.823631980853, -30209.20964589234, 0.004, 1.002, -0.14200000000000002, 192.0, 0.0, 0.0, 0.0, 0.0, 0.0, 0.0, 0.0, 0.0, 0.0, 1.695680042311745E9, 0.0, 2023-09-25 17:14:02.311
232.0, -187500.02235174447, 17960.453684384072, -54803.549325889275, -45796.288048778544, -27366.201861644015, -8293.88300107515, -187500.02235174447, -12714.678074679146, 5080.775032135848, 10067.09159220357, -21204.943502538623, -29633.987502335014, 34565.09525359813, -9188.243351965351, -20071.330078998813, -30194.16692187392, 0.008, 1.004, -0.134, 192.0, 0.0, 32.0, 15.5, 48.0, 125.5, 104.0, 0.0, 0.0, 0.0, 1.695680042311748E9, 0.0, 2023-09-25 17:14:02.311
234.0, -187500.02235174447, 17952.965849991542, -54845.52590197634, -45794.36579875539, -27354.64600976062, -8285.568152137776, -187500.02235174447, -12704.7986036299, 5086.117099060667, 10068.209179426334, -21261.135788099265, -29670.152624863702, 34501.10220922258, -9195.15004100204, -20116.681768498634, -30219.93848323089, 0.008, 1.004, -0.134, 192.0, 0.0, 0.0, 0.0, 0.0, 0.0, 0.0, 0.0, 0.0, 0.0, 1.695680042311751E9, 0.0, 2023-09-25 17:14:02.311
236.0, -187500.02235174447, 17944.829815009813, -54807.50558465786, -45804.24526980463, -27361.97738194196, -8291.916047563082, -187500.02235174447, -12711.079443821842, 5072.415479709563, 10054.84283624206, -21225.529459181962, -29641.654150683185, 34542.922323098464, -9196.982884047377, -20085.05405009437, -30193.988107918278, 0.008, 1.004, -0.134, 192.0, 0.0, 0.0, 0.0, 0.0, 0.0, 0.0, 0.0, 0.0, 0.0, 1.695680042311754E9, 0.0, 2023-09-25 17:14:02.311
238.0, -187500.02235174447, 17941.45470159706, -54869.08464063223, -45807.39686577283, -27341.03379738734, -8274.72755607695, -187500.02235174447, -12692.505144179482, 5069.330938974731, 10046.84091172706, -21254.67613395168, -29668.92327891866, 34509.506465137776, -9203.44253819496, -20109.55156201739, -30211.757744760245, 0.008, 1.004, -0.134, 192.0, 0.0, 0.0, 0.0, 0.0, 0.0, 0.0, 0.0, 0.0, 0.0, 1.695680042311757E9, 0.0, 2023-09-25 17:14:02.311
240.0, -187500.02235174447, 17934.726826516013, -54817.96620106295, -45810.97314488568, -27360.926849952564, -8284.338806192733, -187500.02235174447, -12701.781118128434, 5067.185171507022, 10058.933205477382, -21256.084293852367, -29673.125406876257, 34515.4967326518, -9193.54071540126, -20101.840210180308, -30206.236863879785, 0.008, 1.004, -0.134, 192.0, 0.0, 0.0, 0.0, 0.0, 0.0, 0.0, 0.0, 0.0, 0.0, 1.695680042370498E9, 0.0, 2023-09-25 17:14:02.370
242.0, -187500.02235174447, 17941.387646363695, -54872.21388485598, -45788.956676597205, -27341.346721809714, -8258.120209946657, -187500.02235174447, -12679.630539373225, 5062.424249938042, 10055.066353686614, -21263.72859045608, -29676.992258667025, 34512.18867447242, -9204.113090528619, -20108.679843983635, -30210.953081959855, 0.006, 0.994, -0.136, 192.0, 0.0, 24.0, 15.5, 8.0, 125.5, 96.0, 0.0, 0.0, 0.0, 1.695680042370508E9, 0.0, 2023-09-25 17:14:02.370
244.0, -187500.02235174447, 17919.88526819769, -54811.685360871, -45825.233557848165, -27376.55071932682, -8291.245495229423, -187500.02235174447, -12707.23494377553, 5064.637072639117, 10070.019670727215, -21278.100762140843, -29687.475226816565, 34492.11680795155, -9172.373613402082, -20117.642893510212, -30203.331137100595, 0.006, 0.994, -0.136, 192.0, 0.0, 0.0, 0.0, 0.0, 0.0, 0.0, 0.0, 0.0, 0.0, 1.695680042370512E9, 0.0, 2023-09-25 17:14:02.370
246.0, -187500.02235174447, 17932.961038704045, -54872.23623660043, -45787.23559227414, -27350.823861458764, -8275.085183988236, -187500.02235174447, -12697.199010515096, 5062.647767382595, 10049.277251872689, -21247.791796659447, -29662.3518660488, 34529.44422119191, -9210.103358042641, -20095.78288743292, -30199.821913221112, 0.006, 0.994, -0.136, 192.0, 0.0, 0.0, 0.0, 0.0, 0.0, 0.0, 0.0, 0.0, 0.0, 1.695680042370515E9, 0.0, 2023-09-25 17:14:02.370
