%OpenBCI Raw EXG Data
%Number of channels = 16
%Sample Rate = 125 Hz
%Board = OpenBCI_GUI$BoardCytonSerialDaisy
Sample Index, EXG Channel 0, EXG Channel 1, EXG Channel 2, EXG Channel 3, EXG Channel 4, EXG Channel 5, EXG Channel 6, EXG Channel 7, EXG Channel 8, EXG Channel 9, EXG Channel 10, EXG Channel 11, EXG Channel 12, EXG Channel 13, EXG Channel 14, EXG Channel 15, Accel Channel 0, Accel Channel 1, Accel Channel 2, Other, Other, Other, Other, Other, Other, Other, Analog Channel 0, Analog Channel 1, Analog Channel 2, Timestamp, Other, Timestamp (Formatted)
208.0, -72767.10990275264, 72113.03080475699, -5368.39727978674, 14428.743949978823, 57607.821536996555, 47311.669267615, -187500.02235174447, 54033.911709059685, 64364.01627826885, 80097.11862768157, 34030.30741576045, 9078.093955289598, 62575.11676253281, 42082.09867264017, 10263.004632354336, 26621.687605582192, 0.0, 0.0, 0.0, 192.0, 0.0, 0.0, 0.0, 0.0, 0.0, 0.0, 0.0, 0.0, 0.0, 1.695422713204145E9, 0.0, 2023-09-22 17:45:13.204
210.0, -72833.7404529739, 72057.62083025227, -5380.78014621498, 14457.287127648251, 57631.447330885814, 47312.272764715286, -187500.02235174447, 54043.59001440883, 64187.72806974984, 79996.55812937715, 34025.6806046582, 9090.677987417936, 62586.09146906036, 42090.8382047222, 10146.708505953373, 26518.310787476395, 0.0, 0.0, 0.0, 192.0, 0.0, 0.0, 0.0, 0.0, 0.0, 0.0, 0.0, 0.0, 0.0, 1.695422713204153E9, 0.0, 2023-09-22 17:45:13.204
212.0, -72736.97975122687, 72135.78488061248, -5367.927893153178, 14428.90041219001, 57611.62133355395, 47301.990962265845, -187500.02235174447, 54036.10218001631, 64368.039592270805, 80086.47919732085, 34038.935189120195, 9081.670234402447, 62578.91655909021, 42079.26000109434, 10283.635292486584, 26634.74102434409, 0.0, 0.0, 0.0, 192.0, 0.0, 0.0, 0.0, 0.0, 0.0, 0.0, 0.0, 0.0, 0.0, 1.695422713204157E9, 0.0, 2023-09-22 17:45:13.204
214.0, -72833.40517680708, 72054.62569649526, -5377.919122924701, 14441.864423974088, 57637.035266999635, 47309.32233444719, -187500.02235174447, 54021.886470542726, 64191.63962502952, 80005.74469634828, 34028.16164829274, 9087.74990889429, 62588.930140606186, 42091.66521926704, 10167.026241663247, 26527.407947469706, 0.1, 1.008, 0.084, 192.0, 1.5, 16.0, 15.5, 64.0, 1.0, 80.0, 0.0, 0.0, 0.0, 1.69542271320416E9, 0.0, 2023-09-22 17:45:13.204
216.0, -72706.69313748994, 72152.63809593179, -5369.716032709603, 14438.33284835015, 57618.930353990836, 47305.3660756786, -187500.02235174447, 54045.78048536545, 64361.6916968455, 80086.36743859857, 34039.04694784248, 9093.94134210841, 62581.308195746926, 42083.2833150963, 10299.348568838665, 26636.059777266953, 0.1, 1.008, 0.084, 192.0, 0.0, 0.0, 0.0, 0.0, 0.0, 0.0, 0.0, 0.0, 0.0, 1.695422713204164E9, 0.0, 2023-09-22 17:45:13.204
218.0, -72879.27095642936, 72022.19331529061, -5347.744267910036, 14426.508775533293, 57654.73784860824, 47323.180416009476, -187500.02235174447, 53994.125603929235, 64184.84469471511, 80018.95457732136, 34034.50954371805, 9111.532164994736, 62604.12932683579, 42104.942155473494, 10182.404241848499, 26531.900648105224, 0.1, 1.008, 0.084, 192.0, 0.0, 0.0, 0.0, 0.0, 0.0, 0.0, 0.0, 0.0, 0.0, 1.695422713204167E9, 0.0, 2023-09-22 17:45:13.204
220.0, -72745.45106237543, 72139.94230508117, -5366.475029763584, 14459.567005582692, 57624.71945580476, 47318.08421827367, -187500.02235174447, 54057.11281980429, 64323.649027782565, 80074.43160705944, 34068.32773307893, 9115.823699930155, 62610.85720191684, 42101.00824844936, 10250.442951970454, 26588.092933665866, 0.1, 1.008, 0.084, 192.0, 0.0, 0.0, 0.0, 0.0, 0.0, 0.0, 0.0, 0.0, 0.0, 1.695422713204177E9, 0.0, 2023-09-22 17:45:13.204
222.0, -72882.5566628643, 72040.54409748843, -5362.921102395189, 14427.76047322279, 57637.97404026676, 47316.184319994965, -187500.02235174447, 53996.718406286054, 64212.002064228305, 80026.82239136963, 34042.31030253295, 9104.692531191413, 62601.804745412446, 42095.19679489098, 10178.716204013373, 26523.20581951211, 0.1, 1.008, 0.084, 192.0, 0.0, 0.0, 0.0, 0.0, 0.0, 0.0, 0.0, 0.0, 0.0, 1.69542271320418E9, 0.0, 2023-09-22 17:45:13.204
224.0, -72712.77281198178, 72170.74300894058, -5377.650901991236, 14460.282261405262, 57615.66699930037, 47313.63622112706, -187500.02235174447, 54055.77171513697, 64346.91719376054, 80066.65319998898, 34057.040102128994, 9093.918990363954, 62586.65026267175, 42075.19198360348, 10284.194086097967, 26609.394146131774, 0.098, 1.006, 0.084, 192.0, 1.5, 8.0, 15.5, 56.0, 1.0, 80.0, 0.0, 0.0, 0.0, 1.695422713204184E9, 0.0, 2023-09-22 17:45:13.204
0.0, -35962.79453787739, 36069.18884148465, -2700.604820323565, 7241.294651185829, 28765.823395946434, 23669.11157001395, -93750.01117587223, 26974.62165053149, 32154.906648982367, 40034.38830785612, 17016.13718463626, 4549.339955966468, 31296.33144096511, 21045.463805850006, 5134.150997895122, 13295.957540983862, 0.099, 1.005, 0.081, 192.0, 1.5, 16.0, 15.5, 48.0, 1.0, 56.0, 0.0, 0.0, 0.0, 1.695422713345452E9, 0.0, 2023-09-22 17:45:13.345
2.0, -71812.53395229983, 72230.48922186962, -5406.059969193932, 14494.703947866434, 57514.212431217726, 47326.06379104422, -187500.02235174447, 53984.492002069, 64169.75726720778, 79739.35660592993, 34272.55562216707, 9119.221165087363, 62595.367443009316, 41931.8949499005, 10753.692478381692, 26221.23375192091, 0.099, 1.005, 0.081, 192.0, 0.0, 0.0, 0.0, 0.0, 0.0, 0.0, 0.0, 0.0, 0.0, 1.695422713345464E9, 0.0, 2023-09-22 17:45:13.345
4.0, -71953.72992202401, 72125.0783950184, -5403.087187181376, 14452.213281656896, 57520.20269873175, 47311.24458447035, -187500.02235174447, 53925.30458275135, 64077.31045214063, 79710.58991081595, 34241.17377295181, 9103.150260823997, 62583.29750100345, 41922.95425211838, 10684.960864181623, 26165.913184394027, 0.099, 1.005, 0.081, 192.0, 0.0, 0.0, 0.0, 0.0, 0.0, 0.0, 0.0, 0.0, 0.0, 1.695422713345468E9, 0.0, 2023-09-22 17:45:13.345
6.0, -71791.81388518977, 72247.92358254475, -5419.158091444742, 14500.53775316927, 57504.28825667957, 47314.53029090528, -187500.02235174447, 54001.92636274414, 64161.28595605922, 79735.93678902827, 34265.71598836374, 9101.809156156678, 62577.84367535635, 41906.41396122146, 10753.737181870601, 26222.306635654764, 0.099, 1.005, 0.081, 192.0, 0.0, 0.0, 0.0, 0.0, 0.0, 0.0, 0.0, 0.0, 0.0, 1.695422713345473E9, 0.0, 2023-09-22 17:45:13.345
8.0, -71943.87280271921, 72136.00839805703, -5400.516736569016, 14439.8080634842, 57508.93741952627, 47307.89182280205, -187500.02235174447, 53900.36003593922, 64099.952769273856, 79725.16324820081, 34241.598456096464, 9099.886906133523, 62577.48604744507, 41912.60539443557, 10712.542916839471, 26186.56619627073, 0.1, 1.006, 0.084, 192.0, 1.5, 16.0, 15.5, 56.0, 1.0, 80.0, 0.0, 0.0, 0.0, 1.695422713345478E9, 0.0, 2023-09-22 17:45:13.345
10.0, -71797.71474572597, 72243.20736446469, -5421.88500426829, 14504.53871542677, 57495.1687449418, 47303.2650116998, -187500.02235174447, 53984.44729858009, 64147.338467519105, 79718.14480044185, 34265.62658138592, 9098.679911932935, 62576.3684602223, 41903.37412397553, 10743.298917209973, 26206.90628372506, 0.1, 1.006, 0.084, 192.0, 0.0, 0.0, 0.0, 0.0, 0.0, 0.0, 0.0, 0.0, 0.0, 1.695422713345483E9, 0.0, 2023-09-22 17:45:13.345
12.0, -71937.6813695051, 72139.53997368098, -5397.387492345273, 14434.063665159187, 57499.34852115495, 47295.73247381836, -187500.02235174447, 53887.53013462188, 64124.003246307766, 79722.30222491053, 34243.31954041953, 9093.159031052475, 62574.69207938816, 41905.29637399869, 10732.681838593702, 26198.18910338749, 0.1, 1.006, 0.084, 192.0, 0.0, 0.0, 0.0, 0.0, 0.0, 0.0, 0.0, 0.0, 0.0, 1.695422713345488E9, 0.0, 2023-09-22 17:45:13.345
14.0, -71809.29294935381, 72233.3502451599, -5429.2387281940855, 14506.080985794186, 57498.119175209904, 47297.43120639696, -187500.02235174447, 53974.65723450867, 64117.23066773781, 79698.47526532118, 34260.79860458358, 9094.500135719793, 62579.18478002367, 41899.2390512513, 10721.662428577236, 26185.917995681524, 0.1, 1.006, 0.084, 192.0, 0.0, 0.0, 0.0, 0.0, 0.0, 0.0, 0.0, 0.0, 0.0, 1.695422713345493E9, 0.0, 2023-09-22 17:45:13.345
16.0, -71908.11001159073, 72159.70124717966, -5412.005533219044, 14422.351351064606, 57485.57984657048, 47277.73931953184, -187500.02235174447, 53868.933483235065, 64165.21986308335, 79725.29735866754, 34227.76272627863, 9075.165876765952, 62562.19745423764, 41888.04082727919, 10756.262928994052, 26220.697310053984, 0.1, 1.006, 0.084, 192.0, 0.0, 0.0, 0.0, 0.0, 0.0, 0.0, 0.0, 0.0, 0.0, 1.695422713405725E9, 0.0, 2023-09-22 17:45:13.405
18.0, -71821.4522983375, 72220.296826398, -5432.032696250999, 14493.385194943572, 57498.99089324366, 47295.0619214847, -187500.02235174447, 53947.00812661745, 64102.79144081968, 79684.12544538087, 34250.53915387859, 9081.692586146903, 62574.26739624351, 41892.10884477006, 10706.396187114262, 26176.46320777693, 0.094, 1.004, 0.084, 192.0, 1.0, 120.0, 15.5, 48.0, 1.0, 80.0, 0.0, 0.0, 0.0, 1.695422713405735E9, 0.0, 2023-09-22 17:45:13.405
20.0, -71925.32085482132, 72146.02197957301, -5402.103710425343, 14415.467013772372, 57497.96271299872, 47290.70333131592, -187500.02235174447, 53858.22699764097, 64168.05853462918, 79732.24875119314, 34227.71802278972, 9069.60029239658, 62569.484122930065, 41896.266269238746, 10743.298917209973, 26213.05301345027, 0.094, 1.004, 0.084, 192.0, 0.0, 0.0, 0.0, 0.0, 0.0, 0.0, 0.0, 0.0, 0.0, 1.695422713405738E9, 0.0, 2023-09-22 17:45:13.405
22.0, -71852.90120278612, 72191.15015162827, -5436.547748630971, 14495.799183344745, 57501.337826411465, 47303.108549488614, -187500.02235174447, 53959.033365134404, 64072.43777184937, 79681.3091255795, 34243.16307820834, 9072.774240109235, 62572.03222179798, 41892.01943779224, 10667.370041295295, 26144.053178316735, 0.094, 1.004, 0.084, 192.0, 0.0, 0.0, 0.0, 0.0, 0.0, 0.0, 0.0, 0.0, 0.0, 1.695422713405742E9, 0.0, 2023-09-22 17:45:13.405
24.0, -71909.36170928022, 72152.90631686525, -5405.657637793736, 14425.771167966268, 57489.536105339066, 47303.332066933166, -187500.02235174447, 53891.03935850136, 64183.72710749235, 79742.12822224239, 34223.80646751004, 9068.706222618368, 62561.52690190398, 41894.27696398222, 10753.781885359513, 26226.866391523647, 0.094, 1.004, 0.084, 192.0, 0.0, 0.0, 0.0, 0.0, 0.0, 0.0, 0.0, 0.0, 0.0, 1.695422713405745E9, 0.0, 2023-09-22 17:45:13.405
26.0, -71880.10327578822, 72168.10550309486, -5429.797521805468, 14502.661168892524, 57502.47776537869, 47315.424360683486, -187500.02235174447, 53962.00614714696, 64045.30275408063, 79665.08175910494, 34240.838496784985, 9080.79851636869, 62577.53075093398, 41898.367333217546, 10650.226253298075, 26136.297122990745, 0.094, 1.004, 0.084, 192.0, 0.0, 0.0, 0.0, 0.0, 0.0, 0.0, 0.0, 0.0, 0.0, 1.695422713405749E9, 0.0, 2023-09-22 17:45:13.405
28.0, -71880.66206939961, 72169.84893916237, -5403.802443003946, 14444.233708886351, 57482.33884362446, 47307.377732679575, -187500.02235174447, 53904.226887729994, 64193.695985519415, 79746.7773850891, 34234.691767059776, 9075.32233897714, 62565.70667811712, 41885.850356322575, 10760.375649973828, 26239.495127140897, 0.098, 1.006, 0.08, 192.0, 1.5, 8.0, 15.5, 56.0, 1.0, 64.0, 0.0, 0.0, 0.0, 1.695422713405753E9, 0.0, 2023-09-22 17:45:13.405
30.0, -71890.40742998212, 72155.16384305524, -5419.31455365593, 14499.77779385779, 57499.393224643856, 47317.90540431803, -187500.02235174447, 53954.25009182097, 64046.19682385884, 79664.299448049, 34239.229171184204, 9081.692586146903, 62574.98265206607, 41892.265306981244, 10653.44490449964, 26146.310704506723, 0.098, 1.006, 0.08, 192.0, 0.0, 0.0, 0.0, 0.0, 0.0, 0.0, 0.0, 0.0, 0.0, 1.695422713464928E9, 0.0, 2023-09-22 17:45:13.464
32.0, -71851.42598765207, 72190.25608185006, -5406.059969193932, 14452.10152293462, 57473.599311542435, 47305.701351845426, -187500.02235174447, 53924.38816122868, 64215.69010206343, 79756.63450439388, 34241.598456096464, 9073.735365120812, 62567.271300229, 41890.00778079126, 10774.300786769485, 26253.219098236455, 0.098, 1.006, 0.08, 192.0, 0.0, 0.0, 0.0, 0.0, 0.0, 0.0, 0.0, 0.0, 0.0, 1.695422713464942E9, 0.0, 2023-09-22 17:45:13.464
34.0, -71901.7174126765, 72143.4738807051, -5409.949172729155, 14494.05574727723, 57507.23868694767, 47312.65274437103, -187500.02235174447, 53939.36383001374, 64041.52530926768, 79669.21683182918, 34241.50904911865, 9080.239722757307, 62579.989442824066, 41896.37802796102, 10664.866645916301, 26156.03371334478, 0.098, 1.006, 0.08, 192.0, 0.0, 0.0, 0.0, 0.0, 0.0, 0.0, 0.0, 0.0, 0.0, 1.695422713464945E9, 0.0, 2023-09-22 17:45:13.464
36.0, -71833.74575778792, 72197.22982612012, -5397.052216178443, 14462.159807939508, 57483.85876224742, 47296.02304649628, -187500.02235174447, 53918.88963209267, 64208.403433371, 79761.70835038523, 34244.03479624209, 9071.857818586566, 62573.46273344311, 41889.09135926859, 10786.527190986537, 26260.885746584627, 0.098, 1.006, 0.08, 192.0, 0.0, 0.0, 0.0, 0.0, 0.0, 0.0, 0.0, 0.0, 0.0, 1.695422713464948E9, 0.0, 2023-09-22 17:45:13.464
38.0, -71908.64645345765, 72128.92289506471, -5407.401073861251, 14488.423107674493, 57502.388358400865, 47306.0142762678, -187500.02235174447, 53925.550451940355, 64026.97432362728, 79675.38591329884, 34239.34092990648, 9080.910275090966, 62580.30236724644, 41892.57823140362, 10662.922044148689, 26152.815062143214, 0.10400000000000001, 1.004, 0.08600000000000001, 192.0, 1.5, 32.0, 15.5, 48.0, 1.0, 88.0, 0.0, 0.0, 0.0, 1.695422713464951E9, 0.0, 2023-09-22 17:45:13.464
40.0, -71829.43187110804, 72189.51847428305, -5393.386530087773, 14459.745819538335, 57491.81598327351, 47306.818939068195, -187500.02235174447, 53924.14229203967, 64199.59684605561, 79744.76572808811, 34252.55081087957, 9069.332071463117, 62574.602672410336, 41882.7881673322, 10786.303673541985, 26254.940182559512, 0.10400000000000001, 1.004, 0.08600000000000001, 192.0, 0.0, 0.0, 0.0, 0.0, 0.0, 0.0, 0.0, 0.0, 0.0, 1.695422713464954E9, 0.0, 2023-09-22 17:45:13.464
42.0, -71945.30331436436, 72093.45067661413, -5418.934574000189, 14473.469790633893, 57504.981160757685, 47309.70231410293, -187500.02235174447, 53918.62141115921, 64020.91700087989, 79666.10993934989, 34247.78988931059, 9080.440888457404, 62588.28194001698, 41899.0378855512, 10636.68109615816, 26125.612989141107, 0.10400000000000001, 1.004, 0.08600000000000001, 192.0, 0.0, 0.0, 0.0, 0.0, 0.0, 0.0, 0.0, 0.0, 0.0, 1.695422713464958E9, 0.0, 2023-09-22 17:45:13.464
44.0, -71800.03932714932, 72201.34254709989, -5425.863614781334, 14470.251139432328, 57476.460334832715, 47300.672209342985, -187500.02235174447, 53966.92353092713, 64211.84560201712, 79736.4732308952, 34233.44006937028, 9053.663498599946, 62559.068210013895, 41866.24787643527, 10776.066574581453, 26249.978095290437, 0.10400000000000001, 1.004, 0.08600000000000001, 192.0, 0.0, 0.0, 0.0, 0.0, 0.0, 0.0, 0.0, 0.0, 0.0, 1.695422713464961E9, 0.0, 2023-09-22 17:45:13.464
46.0, -71953.10407317926, 72082.18539740866, -5412.385512874784, 14460.170502682986, 57500.95784675573, 47311.98219203737, -187500.02235174447, 53932.83712063279, 64040.653591233924, 79672.5025382641, 34223.6276535544, 9073.333033720617, 62571.74164912006, 41894.031094793216, 10661.312718547908, 26153.575021454697, 0.10400000000000001, 1.004, 0.08600000000000001, 192.0, 0.0, 0.0, 0.0, 0.0, 0.0, 0.0, 0.0, 0.0, 0.0, 1.69542271352471E9, 0.0, 2023-09-22 17:45:13.524
48.0, -71786.27065256485, 72211.66905303825, -5422.332039157395, 14493.742822854856, 57468.816038229, 47311.33399144817, -187500.02235174447, 54004.2956476564, 64197.607540799094, 79740.60830361943, 34245.57706660951, 9069.26501622975, 62561.593957137346, 41881.29060045369, 10768.109353555365, 26246.58063013323, 0.098, 1.006, 0.084, 192.0, 1.5, 8.0, 15.5, 56.0, 1.0, 80.0, 0.0, 0.0, 0.0, 1.695422713524722E9, 0.0, 2023-09-22 17:45:13.524
50.0, -71944.1857271416, 72089.1144381898, -5412.944306486167, 14466.652508575024, 57488.79849777204, 47312.831558326674, -187500.02235174447, 53929.23848977548, 64065.128751412485, 79692.93203269626, 34228.54503733457, 9080.619702413047, 62569.37236420779, 41898.94847857338, 10682.323358335896, 26173.065742619725, 0.098, 1.006, 0.084, 192.0, 0.0, 0.0, 0.0, 0.0, 0.0, 0.0, 0.0, 0.0, 0.0, 1.695422713524726E9, 0.0, 2023-09-22 17:45:13.524
52.0, -71799.63699574913, 72197.29688135348, -5428.992859005077, 14500.135421769075, 57464.59155852695, 47302.773273321785, -187500.02235174447, 53984.02261543544, 64171.00896489727, 79726.01261449012, 34246.359377665445, 9076.328167477628, 62562.219805982095, 41879.77068183073, 10746.472864922627, 26225.547638600787, 0.098, 1.006, 0.084, 192.0, 0.0, 0.0, 0.0, 0.0, 0.0, 0.0, 0.0, 0.0, 0.0, 1.695422713524729E9, 0.0, 2023-09-22 17:45:13.524
54.0, -71955.65217204716, 72074.8093217384, -5418.576946088904, 14447.362953110094, 57475.00747144312, 47301.27570644328, -187500.02235174447, 53897.85664056023, 64076.461085851326, 79686.13710238185, 34219.447877341256, 9067.722745862335, 62559.7164106031, 41882.45289116537, 10673.53912276496, 26166.002591371845, 0.098, 1.006, 0.084, 192.0, 0.0, 0.0, 0.0, 0.0, 0.0, 0.0, 0.0, 0.0, 0.0, 1.695422713524733E9, 0.0, 2023-09-22 17:45:13.524
56.0, -71807.25894060839, 72188.11031438236, -5422.756722302047, 14503.622293904102, 57470.76063999661, 47307.511843146305, -187500.02235174447, 53975.37249033123, 64150.95945012086, 79701.1127711669, 34239.385633395395, 9070.561417408158, 62558.42000942469, 41870.78528055969, 10721.617725088327, 26206.682766280504, 0.098, 1.006, 0.084, 192.0, 0.0, 0.0, 0.0, 0.0, 0.0, 0.0, 0.0, 0.0, 0.0, 1.695422713524737E9, 0.0, 2023-09-22 17:45:13.524
58.0, -71942.7775672409, 72088.64505155625, -5403.310704625929, 14454.448456102427, 57474.023994687086, 47302.79562506624, -187500.02235174447, 53898.86246906072, 64114.414347936436, 79703.4150008458, 34227.76272627863, 9078.183362267418, 62566.91367231771, 41882.89992605447, 10687.397204327252, 26181.60410900165, 0.096, 1.008, 0.08600000000000001, 192.0, 1.5, 0.0, 15.5, 64.0, 1.0, 88.0, 0.0, 0.0, 0.0, 1.69542271352474E9, 0.0, 2023-09-22 17:45:13.524
60.0, -71806.67779525254, 72186.76920971504, -5414.553632086949, 14517.905058611042, 57476.92972146627, 47309.903479803026, -187500.02235174447, 53989.990531205, 64142.0411040832, 79706.94657646974, 34251.4332236568, 9076.954016322377, 62568.18772175166, 41873.22162070532, 10713.660504062236, 26197.876178965114, 0.096, 1.008, 0.08600000000000001, 192.0, 0.0, 0.0, 0.0, 0.0, 0.0, 0.0, 0.0, 0.0, 0.0, 1.695422713585051E9, 0.0, 2023-09-22 17:45:13.585
62.0, -71927.55602926684, 72092.51190334701, -5396.024035933499, 14448.43583684395, 57476.035651688064, 47298.52644187528, -187500.02235174447, 53911.29003897787, 64147.42787449693, 79716.49077135215, 34228.99207222367, 9069.55558890767, 62568.7688671075, 41878.72014984133, 10711.335922638884, 26201.76538250034, 0.096, 1.008, 0.08600000000000001, 192.0, 0.0, 0.0, 0.0, 0.0, 0.0, 0.0, 0.0, 0.0, 0.0, 1.695422713585064E9, 0.0, 2023-09-22 17:45:13.585
64.0, -71798.8993881821, 72184.91401492525, -5420.543899600971, 14520.20728828994, 57474.38162259837, 47302.013314010306, -187500.02235174447, 54010.50943261498, 64129.12179578803, 79691.52387279557, 34241.97843575221, 9066.158123750463, 62565.88549207276, 41869.46652763683, 10703.512812079527, 26194.009327174346, 0.096, 1.008, 0.08600000000000001, 192.0, 0.0, 0.0, 0.0, 0.0, 0.0, 0.0, 0.0, 0.0, 0.0, 1.695422713585067E9, 0.0, 2023-09-22 17:45:13.585
66.0, -71904.71254643353, 72111.17560996719, -5396.649884778248, 14439.875118717566, 57463.1610468818, 47295.17368020698, -187500.02235174447, 53915.849794846756, 64165.868063672555, 79726.43729763477, 34224.32055763251, 9060.816056825644, 62556.18483497916, 41873.62395210552, 10743.433027676705, 26232.163754959554, 0.096, 1.008, 0.08600000000000001, 192.0, 0.0, 0.0, 0.0, 0.0, 0.0, 0.0, 0.0, 0.0, 0.0, 1.695422713585071E9, 0.0, 2023-09-22 17:45:13.585
68.0, -71832.94109498753, 72160.81883440242, -5413.1007686973535, 14515.44636672096, 57480.6177593014, 47311.60221238163, -187500.02235174447, 53993.365644617756, 64086.89935051196, 79676.72701796616, 34251.20970621225, 9074.160048265463, 62570.08762003036, 41873.266324194235, 10684.133849636775, 26177.491388021874, 0.10400000000000001, 1.012, 0.08600000000000001, 192.0, 1.5, 32.0, 15.5, 80.0, 1.0, 88.0, 0.0, 0.0, 0.0, 1.695422713585074E9, 0.0, 2023-09-22 17:45:13.585
70.0, -71896.2188835405, 72114.88599954676, -5400.650847035748, 14442.7584937523, 57462.44579105923, 47294.2125551954, -187500.02235174447, 53921.5271379384, 64181.71545049137, 79734.93096052778, 34237.552790350055, 9067.65569062897, 62563.80677983842, 41869.95826601485, 10735.609917117348, 26229.325083413733, 0.10400000000000001, 1.012, 0.08600000000000001, 192.0, 0.0, 0.0, 0.0, 0.0, 0.0, 0.0, 0.0, 0.0, 0.0, 1.695422713585078E9, 0.0, 2023-09-22 17:45:13.585
72.0, -71858.15386273312, 72137.3271509799, -5419.515719356027, 14509.098471295652, 57474.7168987652, 47306.528366390274, -187500.02235174447, 53988.24709513749, 64075.85758875103, 79667.048712617, 34249.39921491137, 9071.142562763996, 62567.271300229, 41866.51609736873, 10664.218445327097, 26168.148358839557, 0.10400000000000001, 1.012, 0.08600000000000001, 192.0, 0.0, 0.0, 0.0, 0.0, 0.0, 0.0, 0.0, 0.0, 0.0, 1.695422713585087E9, 0.0, 2023-09-22 17:45:13.585
74.0, -71910.23342731399, 72104.87241803079, -5396.49342256706, 14445.016019942286, 57466.871436461384, 47299.621677353585, -187500.02235174447, 53917.593230914266, 64195.19355239792, 79740.9659315307, 34243.20778169725, 9065.196998738886, 62564.9690705501, 41870.00296950376, 10727.02684724651, 26227.983978746415, 0.10400000000000001, 1.012, 0.08600000000000001, 192.0, 0.0, 0.0, 0.0, 0.0, 0.0, 0.0, 0.0, 0.0, 0.0, 1.69542271358509E9, 0.0, 2023-09-22 17:45:13.585
76.0, -71898.9681481085, 72112.60612161233, -5423.494329869071, 14515.714587654424, 57480.68481453477, 47310.0152385253, -187500.02235174447, 53985.3413683583, 64064.145274656454, 79665.17116608277, 34244.57123810902, 9072.237798242308, 62567.98655605156, 41873.959228272346, 10618.017389537978, 26139.22520151439, 0.10400000000000001, 1.012, 0.08600000000000001, 192.0, 0.0, 0.0, 0.0, 0.0, 0.0, 0.0, 0.0, 0.0, 0.0, 1.695422713645391E9, 0.0, 2023-09-22 17:45:13.645
78.0, -71898.85638938623, 72122.75381359505, -5398.527431312494, 14455.297822391729, 57461.95405268122, 47296.5147848743, -187500.02235174447, 53932.16656829913, 64219.221677687376, 79747.55969614502, 34232.56835133652, 9061.754830092768, 62554.84373031184, 41860.36936764352, 10726.60216410186, 26242.646723109094, 0.106, 1.014, 0.09, 192.0, 1.5, 40.0, 15.5, 88.0, 1.0, 104.0, 0.0, 0.0, 0.0, 1.695422713645401E9, 0.0, 2023-09-22 17:45:13.645
80.0, -71924.09150887627, 72101.74317380704, -5416.140605943276, 14517.167451044019, 57474.426326087276, 47310.68579085896, -187500.02235174447, 53972.42206006314, 64052.879995450974, 79665.43938701623, 34249.578028867014, 9078.451583200882, 62574.33445147687, 41875.501498639765, 10599.95718001809, 26135.246591001345, 0.106, 1.014, 0.09, 192.0, 0.0, 0.0, 0.0, 0.0, 0.0, 0.0, 0.0, 0.0, 0.0, 1.695422713645404E9, 0.0, 2023-09-22 17:45:13.645
82.0, -71869.93323206106, 72151.16288079774, -5395.979332444588, 14472.553369111225, 57439.691715203735, 47293.63140983956, -187500.02235174447, 53938.49211197998, 64230.24108770384, 79762.22244050771, 34250.82972655651, 9072.103687775576, 62559.02350652499, 41865.75613805725, 10738.202719474164, 26262.33860997422, 0.106, 1.014, 0.09, 192.0, 0.0, 0.0, 0.0, 0.0, 0.0, 0.0, 0.0, 0.0, 0.0, 1.695422713645408E9, 0.0, 2023-09-22 17:45:13.645
84.0, -71945.90681146465, 72088.60034806732, -5406.127024427298, 14507.936180583976, 57468.03372717306, 47309.478796658375, -187500.02235174447, 53950.96438538604, 64041.65941973442, 79680.07977963446, 34255.74711033668, 9088.196943783396, 62578.04484105645, 41878.027245763216, 10606.327427187853, 26151.093977820157, 0.106, 1.014, 0.09, 192.0, 0.0, 0.0, 0.0, 0.0, 0.0, 0.0, 0.0, 0.0, 0.0, 1.695422713645411E9, 0.0, 2023-09-22 17:45:13.645
86.0, -71852.52122313037, 72166.07149434942, -5403.645980792759, 14474.475619134382, 57445.8607966734, 47288.423453381474, -187500.02235174447, 53953.69129820959, 64228.56470686969, 79766.33516148748, 34249.17569746682, 9067.208655739863, 62563.44915192714, 41857.30717865314, 10739.74498984158, 26268.127711788144, 0.106, 1.014, 0.09, 192.0, 0.0, 0.0, 0.0, 0.0, 0.0, 0.0, 0.0, 0.0, 0.0, 1.695422713645415E9, 0.0, 2023-09-22 17:45:13.645
88.0, -71945.61623878674, 72090.38848762376, -5408.138681428276, 14492.558180398724, 57471.72176500819, 47294.27961042877, -187500.02235174447, 53950.56205398584, 64046.91207968141, 79669.39564578483, 34247.81224105504, 9072.863647087055, 62580.72705039109, 41868.930085769905, 10617.615058137782, 26153.284448776776, 0.106, 1.016, 0.08, 192.0, 1.5, 40.0, 15.5, 96.0, 1.0, 64.0, 0.0, 0.0, 0.0, 1.695422713645418E9, 0.0, 2023-09-22 17:45:13.645
90.0, -71816.93724595752, 72188.40088706027, -5396.873402222801, 14475.570854612692, 57448.36419205239, 47285.96476149139, -187500.02235174447, 53961.78262970241, 64240.41113143101, 79756.32157997151, 34251.6343893569, 9057.642109112992, 62561.593957137346, 41847.96414947083, 10763.840170364401, 26281.42699973905, 0.106, 1.016, 0.08, 192.0, 0.0, 0.0, 0.0, 0.0, 0.0, 0.0, 0.0, 0.0, 0.0, 1.695422713706993E9, 0.0, 2023-09-22 17:45:13.706
92.0, -71954.15460516866, 72078.00562119551, -5395.621704533303, 14476.19670345744, 57481.24360814615, 47301.47687214338, -187500.02235174447, 53922.01887631642, 64056.21040537482, 79675.27415457656, 34236.4799066162, 9079.613873912558, 62580.70469864663, 41875.54620212867, 10633.685962401149, 26167.81308267273, 0.106, 1.016, 0.08, 192.0, 0.0, 0.0, 0.0, 0.0, 0.0, 0.0, 0.0, 0.0, 0.0, 1.695422713707007E9, 0.0, 2023-09-22 17:45:13.707
94.0, -71790.47278052244, 72201.70017501118, -5408.45160585065, 14490.881799564577, 57463.40691607081, 47292.44676738343, -187500.02235174447, 53977.89823745468, 64216.45006137491, 79737.27789369559, 34245.35354916496, 9065.17464699443, 62559.87287281429, 41860.36936764352, 10754.139513270798, 26270.049961811303, 0.106, 1.016, 0.08, 192.0, 0.0, 0.0, 0.0, 0.0, 0.0, 0.0, 0.0, 0.0, 0.0, 1.695422713707011E9, 0.0, 2023-09-22 17:45:13.707
96.0, -71931.31112233533, 72089.36030737881, -5406.462300594128, 14470.832284788166, 57491.19013442876, 47300.3145814317, -187500.02235174447, 53921.974172827504, 64065.57578630159, 79677.26345983309, 34228.07565070101, 9071.790763353201, 62568.18772175166, 41881.26824870923, 10661.15625633672, 26187.817893960226, 0.106, 1.016, 0.08, 192.0, 0.0, 0.0, 0.0, 0.0, 0.0, 0.0, 0.0, 0.0, 0.0, 1.695422713707015E9, 0.0, 2023-09-22 17:45:13.707
98.0, -71778.98398387241, 72205.85759947987, -5420.633306578792, 14495.463907177915, 57479.34370986745, 47306.349552434636, -187500.02235174447, 53978.322920599334, 64186.83399997163, 79720.08940220946, 34256.46236615925, 9073.422440698438, 62567.15954150672, 41881.491766153784, 10746.294050966984, 26261.422188451554, 0.10200000000000001, 1.012, 0.08, 192.0, 1.5, 24.0, 15.5, 80.0, 1.0, 64.0, 0.0, 0.0, 0.0, 1.695422713707018E9, 0.0, 2023-09-22 17:45:13.707
100.0, -71931.51228803543, 72084.0629439429, -5421.281507167996, 14458.471770104381, 57493.62647457439, 47307.17656697948, -187500.02235174447, 53914.352227968244, 64068.30269912514, 79684.75129422561, 34243.11837471943, 9080.351481479584, 62572.45690494263, 41901.653039652476, 10660.038669113956, 26189.404867816553, 0.10200000000000001, 1.012, 0.08, 192.0, 0.0, 0.0, 0.0, 0.0, 0.0, 0.0, 0.0, 0.0, 0.0, 1.695422713707022E9, 0.0, 2023-09-22 17:45:13.707
102.0, -71773.3960477586, 72201.23078837762, -5439.073495754421, 14500.53775316927, 57490.05019546154, 47308.33885769115, -187500.02235174447, 53989.811717249366, 64172.305366075685, 79720.17880918727, 34264.30782846306, 9078.853914601077, 62564.90201531673, 41891.48299592531, 10727.965620513633, 26245.86537431066, 0.10200000000000001, 1.012, 0.08, 192.0, 0.0, 0.0, 0.0, 0.0, 0.0, 0.0, 0.0, 0.0, 0.0, 1.695422713707025E9, 0.0, 2023-09-22 17:45:13.707
104.0, -71919.01766288491, 72091.46137135761, -5424.254289180552, 14450.805121756212, 57509.384454415376, 47310.43992166995, -187500.02235174447, 53907.937277309575, 64098.72342332881, 79702.94561421224, 34250.628560856414, 9088.487516461315, 62570.57935840838, 41910.1914060344, 10669.11347736281, 26195.819818475225, 0.10200000000000001, 1.012, 0.08, 192.0, 0.0, 0.0, 0.0, 0.0, 0.0, 0.0, 0.0, 0.0, 0.0, 1.695422713707029E9, 0.0, 2023-09-22 17:45:13.707
106.0, -71799.83816144922, 72182.16475035725, -5429.126969471809, 14501.521229925303, 57517.40873067483, 47322.688677631464, -187500.02235174447, 53977.272388609934, 64152.03233385472, 79720.58114058747, 34271.818014600045, 9095.662426431469, 62576.21199801112, 41910.81725487915, 10700.40591960024, 26220.47379260943, 0.10200000000000001, 1.012, 0.08, 192.0, 0.0, 0.0, 0.0, 0.0, 0.0, 0.0, 0.0, 0.0, 0.0, 1.695422713764943E9, 0.0, 2023-09-22 17:45:13.764
108.0, -71946.26443937594, 72075.23400488305, -5415.961791987633, 14438.24344137233, 57523.62251563341, 47318.19597699594, -187500.02235174447, 53892.08989049076, 64118.83999333859, 79717.58600683046, 34251.6343893569, 9100.311589278173, 62579.408297468224, 41922.261348040265, 10657.244701057041, 26186.99087941538, 0.094, 1.01, 0.08, 192.0, 1.0, 120.0, 15.5, 72.0, 1.0, 64.0, 0.0, 0.0, 0.0, 1.695422713764953E9, 0.0, 2023-09-22 17:45:13.764
110.0, -71796.53010326983, 72185.62927074781, -5445.779019091013, 14507.556200928237, 57519.68860860928, 47316.69841011744, -187500.02235174447, 53990.415214349654, 64136.90020285848, 79699.36933509939, 34265.224249985724, 9103.440833501916, 62577.24017825606, 41907.77741763323, 10676.310739077418, 26196.289205108787, 0.094, 1.01, 0.08, 192.0, 0.0, 0.0, 0.0, 0.0, 0.0, 0.0, 0.0, 0.0, 0.0, 1.695422713764956E9, 0.0, 2023-09-22 17:45:13.764
112.0, -71906.99242436796, 72105.40885989773, -5427.02590549301, 14430.263868601784, 57517.565192886024, 47301.32040993219, -187500.02235174447, 53900.76236733942, 64148.92544137543, 79722.57044584399, 34237.44103162778, 9101.8985631345, 62575.072059043894, 41902.88238559751, 10699.400091099751, 26212.896551239082, 0.094, 1.01, 0.08, 192.0, 0.0, 0.0, 0.0, 0.0, 0.0, 0.0, 0.0, 0.0, 0.0, 1.69542271376496E9, 0.0, 2023-09-22 17:45:13.764
114.0, -71792.99852764589, 72188.62440450482, -5441.532187644504, 14497.564971156715, 57526.21531799022, 47311.22223272589, -187500.02235174447, 53996.62899930823, 64110.569847890125, 79688.59579427193, 34253.86956380243, 9099.194002055407, 62583.81159112592, 41898.25557449527, 10685.83258221538, 26191.99767017337, 0.094, 1.01, 0.08, 192.0, 0.0, 0.0, 0.0, 0.0, 0.0, 0.0, 0.0, 0.0, 0.0, 1.695422713764963E9, 0.0, 2023-09-22 17:45:13.764
116.0, -71883.45603745652, 72127.33592120837, -5412.07258845241, 14424.988856910331, 57518.16868998631, 47302.415645410496, -187500.02235174447, 53910.32891396629, 64165.06340087216, 79724.31388191151, 34251.14265097889, 9103.060853846175, 62586.20322778264, 41907.15156878848, 10727.675047835713, 26228.207496190968, 0.094, 1.01, 0.08, 192.0, 0.0, 0.0, 0.0, 0.0, 0.0, 0.0, 0.0, 0.0, 0.0, 1.695422713764967E9, 0.0, 2023-09-22 17:45:13.764
118.0, -71793.42321079054, 72188.66910799374, -5442.292146955985, 14498.123764768097, 57524.538937156074, 47314.08325601617, -187500.02235174447, 53990.77284226094, 64085.893522011465, 79673.44131153123, 34259.703369105264, 9101.607990456581, 62579.765925379514, 41904.782283876215, 10686.59254152686, 26185.22509160341, 0.096, 1.002, 0.082, 192.0, 1.5, 0.0, 15.5, 40.0, 1.0, 72.0, 0.0, 0.0, 0.0, 1.69542271376497E9, 0.0, 2023-09-22 17:45:13.764
120.0, -71852.65533359711, 72149.10652030785, -5422.175576946209, 14427.067569144676, 57515.888812051875, 47303.30971518871, -187500.02235174447, 53905.38917844167, 64175.7475347218, 79725.00678598962, 34242.26900843013, 9100.736272422824, 62575.27322474399, 41912.47128396884, 10758.252234250574, 26243.741958587405, 0.096, 1.002, 0.082, 192.0, 0.0, 0.0, 0.0, 0.0, 0.0, 0.0, 0.0, 0.0, 0.0, 1.695422713824847E9, 0.0, 2023-09-22 17:45:13.824
122.0, -71823.53101057184, 72164.88685189329, -5440.79458007748, 14497.319101967705, 57539.49225419668, 47318.73241886287, -187500.02235174447, 53960.44152503509, 64052.38825707296, 79665.57349748295, 34252.75197657967, 9107.844127159611, 62583.051631814444, 41915.39936249249, 10680.892846690756, 26165.55555648274, 0.096, 1.002, 0.082, 192.0, 0.0, 0.0, 0.0, 0.0, 0.0, 0.0, 0.0, 0.0, 0.0, 1.695422713824862E9, 0.0, 2023-09-22 17:45:13.824
124.0, -71852.208298708, 72153.3310000099, -5425.751856059058, 14432.14141513603, 57519.55449814254, 47308.428264668975, -187500.02235174447, 53899.35420743874, 64177.669784744954, 79737.94844602924, 34247.11933697693, 9111.398054528005, 62576.65903290022, 41913.00772583577, 10762.476713952627, 26233.728377071428, 0.096, 1.002, 0.082, 192.0, 0.0, 0.0, 0.0, 0.0, 0.0, 0.0, 0.0, 0.0, 0.0, 1.695422713824866E9, 0.0, 2023-09-22 17:45:13.824
126.0, -71849.19081320653, 72150.4252732307, -5454.227978495119, 14491.462944920415, 57539.35814372994, 47315.200843238934, -187500.02235174447, 53966.20827510456, 64033.031646374664, 79652.47537523216, 34247.07463348802, 9108.335865537629, 62579.564759679415, 41912.58304269112, 10663.279672059974, 26146.288352762265, 0.096, 1.002, 0.082, 192.0, 0.0, 0.0, 0.0, 0.0, 0.0, 0.0, 0.0, 0.0, 0.0, 1.69542271382487E9, 0.0, 2023-09-22 17:45:13.824
128.0, -71803.1015161397, 72189.27260509404, -5438.715867843136, 14433.683685503447, 57514.681817851284, 47297.99000000835, -187500.02235174447, 53930.75840839844, 64212.18087818395, 79736.58498961748, 34235.89876126037, 9081.55847568017, 62557.03420126846, 41892.75704535926, 10804.296827828506, 26270.742865889417, 0.1, 1.008, 0.076, 192.0, 1.5, 16.0, 15.5, 64.0, 1.0, 48.0, 0.0, 0.0, 0.0, 1.695422713824875E9, 0.0, 2023-09-22 17:45:13.824
130.0, -71873.8671390852, 72132.85680208883, -5436.346582930873, 14481.471715148893, 57542.934422842794, 47324.61092765462, -187500.02235174447, 53940.99550735897, 64023.0627683476, 79645.81455538447, 34247.02992999911, 9107.978237626343, 62587.34316674986, 41918.05922008267, 10675.573131510393, 26149.059969074726, 0.1, 1.008, 0.076, 192.0, 0.0, 0.0, 0.0, 0.0, 0.0, 0.0, 0.0, 0.0, 0.0, 1.695422713824878E9, 0.0, 2023-09-22 17:45:13.824
132.0, -71803.86147545118, 72195.77696273052, -5433.507911385049, 14449.307554877705, 57514.078320750996, 47306.77423557929, -187500.02235174447, 53919.69429489307, 64208.716357793375, 79739.066033252, 34257.02115977063, 9104.536068980226, 62579.832980612875, 41905.96692633235, 10790.036414866021, 26246.848851066694, 0.1, 1.008, 0.076, 192.0, 0.0, 0.0, 0.0, 0.0, 0.0, 0.0, 0.0, 0.0, 0.0, 1.695422713824882E9, 0.0, 2023-09-22 17:45:13.824
134.0, -71873.9118425741, 72140.34463648137, -5442.962699289644, 14474.140342967552, 57535.446588450264, 47308.3165059467, -187500.02235174447, 53919.895460593165, 64036.92084990989, 79655.53756422253, 34242.96191250824, 9099.909257877976, 62581.4199544692, 41904.84933910958, 10686.59254152686, 26154.84907088865, 0.1, 1.008, 0.076, 192.0, 0.0, 0.0, 0.0, 0.0, 0.0, 0.0, 0.0, 0.0, 0.0, 1.695422713824885E9, 0.0, 2023-09-22 17:45:13.824
136.0, -71800.75458297189, 72204.62825353483, -5423.695495569169, 14452.034467701253, 57519.308628953535, 47304.717875089395, -187500.02235174447, 53909.613658143724, 64208.89517174902, 79740.9212280418, 34252.32729343502, 9100.311589278173, 62577.37428872279, 41898.367333217546, 10807.80605170799, 26253.86729882566, 0.1, 1.008, 0.076, 192.0, 0.0, 0.0, 0.0, 0.0, 0.0, 0.0, 0.0, 0.0, 0.0, 1.695422713885086E9, 0.0, 2023-09-22 17:45:13.885
138.0, -71891.16738929361, 72129.77226135401, -5436.212472464142, 14473.58154935617, 57536.07243729501, 47304.36024717811, -187500.02235174447, 53913.167585512114, 64033.612791730506, 79659.47147124667, 34244.97356950922, 9108.380569026538, 62589.555989450935, 41909.900833356485, 10677.808305955925, 26136.632399157574, 0.1, 1.012, 0.076, 192.0, 1.5, 16.0, 15.5, 80.0, 1.0, 48.0, 0.0, 0.0, 0.0, 1.695422713885098E9, 0.0, 2023-09-22 17:45:13.885
140.0, -71743.82468984422, 72242.17918421974, -5434.692553841181, 14462.696249806435, 57510.39028291587, 47294.167851706494, -187500.02235174447, 53939.050905591364, 64211.64443631702, 79716.53547484106, 34246.58289511, 9087.012301327266, 62569.23825374106, 41883.41401617695, 10833.354095620405, 26265.736075131426, 0.1, 1.012, 0.076, 192.0, 0.0, 0.0, 0.0, 0.0, 0.0, 0.0, 0.0, 0.0, 0.0, 1.695422713885101E9, 0.0, 2023-09-22 17:45:13.885
142.0, -71893.02258408339, 72124.56430489592, -5429.529300872005, 14443.697267019425, 57538.754646629655, 47306.90834604602, -187500.02235174447, 53895.10737599223, 64037.099663865534, 79639.8466396149, 34232.25542691415, 9096.489440976315, 62580.92821609118, 41906.79394087719, 10724.881079778801, 26164.5273762378, 0.1, 1.012, 0.076, 192.0, 0.0, 0.0, 0.0, 0.0, 0.0, 0.0, 0.0, 0.0, 0.0, 1.695422713885104E9, 0.0, 2023-09-22 17:45:13.885
144.0, -71741.85773633215, 72241.55333537499, -5444.907301057256, 14464.774962040778, 57511.08318699398, 47302.59445936614, -187500.02235174447, 53954.004222631964, 64193.91950296397, 79696.24009087564, 34247.476964888214, 9090.588580440115, 62570.71346887511, 41889.60544939106, 10824.011066438088, 26243.160813231567, 0.1, 1.012, 0.076, 192.0, 0.0, 0.0, 0.0, 0.0, 0.0, 0.0, 0.0, 0.0, 0.0, 1.695422713885107E9, 0.0, 2023-09-22 17:45:13.885
146.0, -71906.61244471221, 72115.60125536934, -5435.072533496921, 14436.209432626896, 57534.552518672055, 47312.42922692648, -187500.02235174447, 53891.48639339047, 64058.80320773163, 79654.21881129967, 34235.317615904525, 9107.262981803773, 62582.96222483662, 41910.99606883479, 10720.83541403239, 26151.764530153818, 0.1, 1.012, 0.076, 192.0, 0.0, 0.0, 0.0, 0.0, 0.0, 0.0, 0.0, 0.0, 0.0, 1.69542271388511E9, 0.0, 2023-09-22 17:45:13.885
148.0, -71744.49524217787, 72240.77102431907, -5453.512722672549, 14472.128685966574, 57511.820794561005, 47306.79658732374, -187500.02235174447, 53969.672795495135, 64187.28103486074, 79696.5083118091, 34250.1815259673, 9099.886906133523, 62568.724163618586, 41891.41594069194, 10807.314313329973, 26225.927618256526, 0.088, 1.008, 0.078, 192.0, 1.0, 96.0, 15.5, 64.0, 1.0, 56.0, 0.0, 0.0, 0.0, 1.695422713885113E9, 0.0, 2023-09-22 17:45:13.885
150.0, -71887.90403460313, 72131.69451137717, -5446.360164446851, 14430.174461623963, 57521.20852723224, 47293.966686006395, -187500.02235174447, 53905.29977146385, 64083.45718186584, 79663.04775035952, 34225.86282799993, 9097.361159010072, 62568.52299791849, 41892.44412093689, 10749.31153646845, 26173.75864669784, 0.088, 1.008, 0.078, 192.0, 0.0, 0.0, 0.0, 0.0, 0.0, 0.0, 0.0, 0.0, 0.0, 1.695422713945426E9, 0.0, 2023-09-22 17:45:13.945
152.0, -71737.76736709684, 72242.35799817539, -5451.702231371669, 14481.963453526909, 57512.49134689467, 47301.298058187735, -187500.02235174447, 53973.852571708274, 64160.43658976992, 79688.95342218321, 34252.32729343502, 9096.712958420869, 62567.29365197345, 41880.12830974202, 10812.075234898954, 26222.194876932488, 0.088, 1.008, 0.078, 192.0, 0.0, 0.0, 0.0, 0.0, 0.0, 0.0, 0.0, 0.0, 0.0, 1.69542271394545E9, 0.0, 2023-09-22 17:45:13.945
154.0, -71889.87098811519, 72126.91123806372, -5425.774207803513, 14426.70994123339, 57524.71775111172, 47298.146462219534, -187500.02235174447, 53884.33383516477, 64099.48338264029, 79677.7551982111, 34242.9842642527, 9104.290199791218, 62575.228521255085, 41893.181728503914, 10765.382440731817, 26183.258138091343, 0.088, 1.008, 0.078, 192.0, 0.0, 0.0, 0.0, 0.0, 0.0, 0.0, 0.0, 0.0, 0.0, 1.695422713945453E9, 0.0, 2023-09-22 17:45:13.945
156.0, -71746.55160266777, 72234.95957076068, -5442.985051034099, 14488.333700696672, 57518.28044870859, 47300.71691283189, -187500.02235174447, 53967.370565816236, 64135.246173768785, 79680.68327673475, 34261.55856389506, 9103.7984614132, 62575.69790788864, 41882.00585627626, 10788.091813098408, 26194.545769041273, 0.088, 1.008, 0.078, 192.0, 0.0, 0.0, 0.0, 0.0, 0.0, 0.0, 0.0, 0.0, 0.0, 1.695422713945457E9, 0.0, 2023-09-22 17:45:13.945
158.0, -71882.9195955896, 72137.14833702426, -5420.208623434141, 14427.00051391131, 57514.681817851284, 47294.525479617776, -187500.02235174447, 53873.49323910395, 64117.49888867127, 79697.78236124305, 34242.73839506369, 9104.156089324486, 62576.61432941131, 41893.9863913043, 10772.579702446426, 26181.626460746105, 0.092, 1.006, 0.078, 192.0, 1.0, 112.0, 15.5, 56.0, 1.0, 56.0, 0.0, 0.0, 0.0, 1.69542271394546E9, 0.0, 2023-09-22 17:45:13.945
160.0, -71740.06959677572, 72238.51349812908, -5444.639080123792, 14499.956607813432, 57509.71973058221, 47296.44772964093, -187500.02235174447, 53977.04887116538, 64122.55038291817, 79680.97384941267, 34253.10960449095, 9098.27758053274, 62574.64737589924, 41882.51994639873, 10781.18512406172, 26182.74404796887, 0.092, 1.006, 0.078, 192.0, 0.0, 0.0, 0.0, 0.0, 0.0, 0.0, 0.0, 0.0, 0.0, 1.695422713945464E9, 0.0, 2023-09-22 17:45:13.945
162.0, -71843.69228407054, 72161.86936639182, -5416.140605943276, 14419.624438241059, 57509.96559977122, 47285.38361613556, -187500.02235174447, 53878.20945718401, 64158.737857191314, 79699.83872173294, 34233.03773797009, 9089.716862406358, 62569.685288630164, 41879.61421961954, 10825.553336805504, 26218.082155952714, 0.092, 1.006, 0.078, 192.0, 0.0, 0.0, 0.0, 0.0, 0.0, 0.0, 0.0, 0.0, 0.0, 1.695422713945467E9, 0.0, 2023-09-22 17:45:13.945
164.0, -71731.3747681826, 72242.46975689767, -5454.786772106501, 14501.521229925303, 57513.161899228326, 47294.88310752906, -187500.02235174447, 53966.49884778248, 64088.24045517927, 79654.3529217664, 34256.641180114886, 9098.791670655211, 62578.84950385684, 41883.36931268803, 10780.693385683702, 26169.66827746252, 0.092, 1.006, 0.078, 192.0, 0.0, 0.0, 0.0, 0.0, 0.0, 0.0, 0.0, 0.0, 0.0, 1.69542271394547E9, 0.0, 2023-09-22 17:45:13.945
166.0, -71818.94890295851, 72177.44853227718, -5422.712018813136, 14418.886830674033, 57509.943248026764, 47292.98320925036, -187500.02235174447, 53876.264855416404, 64161.464770014856, 79711.03694570505, 34234.35649089295, 9085.693548404402, 62569.417067696704, 41887.37027494553, 10851.436656884749, 26228.90040026908, 0.092, 1.006, 0.078, 192.0, 0.0, 0.0, 0.0, 0.0, 0.0, 0.0, 0.0, 0.0, 0.0, 1.695422714005634E9, 0.0, 2023-09-22 17:45:14.005
168.0, -71739.75667235335, 72225.03539622252, -5460.531170431515, 14496.961474056421, 57523.44370167777, 47300.62750585408, -187500.02235174447, 53968.21993210554, 64048.65551574893, 79652.72124442116, 34255.948276036775, 9091.37089149605, 62579.18478002367, 41884.82217607763, 10771.350356501383, 26155.676085433493, 0.092, 1.01, 0.082, 192.0, 1.0, 112.0, 15.5, 72.0, 1.0, 72.0, 0.0, 0.0, 0.0, 1.695422714005643E9, 0.0, 2023-09-22 17:45:14.005
170.0, -71782.76142868536, 72197.92273019823, -5428.724638071613, 14416.94222890642, 57513.31836143952, 47293.117319717094, -187500.02235174447, 53892.60398061323, 64176.97688066684, 79705.24784389113, 34228.902665245856, 9074.763545365757, 62563.22563448258, 41869.71239682584, 10874.77187809609, 26246.446519666497, 0.092, 1.01, 0.082, 192.0, 0.0, 0.0, 0.0, 0.0, 0.0, 0.0, 0.0, 0.0, 0.0, 1.695422714005646E9, 0.0, 2023-09-22 17:45:14.005
172.0, -71794.98783290242, 72189.58552951641, -5437.464170153638, 14490.188895486463, 57537.92763208481, 47317.32425896219, -187500.02235174447, 53950.942033641586, 64020.67113169088, 79628.22373249814, 34255.74711033668, 9104.916048635967, 62595.30038777595, 41896.22156574984, 10747.79161784549, 26127.334073464164, 0.092, 1.01, 0.082, 192.0, 0.0, 0.0, 0.0, 0.0, 0.0, 0.0, 0.0, 0.0, 0.0, 1.69542271400565E9, 0.0, 2023-09-22 17:45:14.005
174.0, -71766.10937906615, 72217.92754148574, -5427.852920037856, 14439.584546039647, 57501.74015781166, 47291.731511560865, -187500.02235174447, 53919.6272396597, 64179.05559290118, 79702.69974502323, 34251.50027889017, 9089.068661817153, 62572.54631192044, 41873.467489894334, 10857.136351720852, 26228.43101363552, 0.092, 1.01, 0.082, 192.0, 0.0, 0.0, 0.0, 0.0, 0.0, 0.0, 0.0, 0.0, 0.0, 1.695422714005654E9, 0.0, 2023-09-22 17:45:14.005
176.0, -71789.28813806632, 72194.41350631876, -5430.624536350315, 14496.737956611867, 57523.24253597767, 47310.68579085896, -187500.02235174447, 53954.563016243344, 64017.40777700041, 79635.93508433523, 34257.51289814865, 9105.251324802795, 62584.83977137086, 41886.610315634054, 10758.766324373046, 26139.40401547003, 0.092, 1.01, 0.082, 192.0, 0.0, 0.0, 0.0, 0.0, 0.0, 0.0, 0.0, 0.0, 0.0, 1.695422714005657E9, 0.0, 2023-09-22 17:45:14.005
178.0, -71750.4855096919, 72229.88572476932, -5412.9219547417115, 14446.714752520891, 57497.023939731596, 47294.32431391768, -187500.02235174447, 53910.3736174552, 64190.85731397359, 79729.20891394722, 34259.14457549388, 9099.350464266594, 62575.04970729944, 41878.988370774794, 10877.275273475085, 26244.501917898884, 0.09, 1.01, 0.08, 192.0, 1.0, 104.0, 15.5, 72.0, 1.0, 64.0, 0.0, 0.0, 0.0, 1.69542271400566E9, 0.0, 2023-09-22 17:45:14.005
180.0, -71817.51839131337, 72172.46409326364, -5427.607050848848, 14490.568875142202, 57517.31932369701, 47306.84129081265, -187500.02235174447, 53925.416341473625, 64013.47386997627, 79629.98952031012, 34263.905497062864, 9110.571039983159, 62594.54042846447, 41892.73469361481, 10743.589489887892, 26125.009492040816, 0.09, 1.01, 0.08, 192.0, 0.0, 0.0, 0.0, 0.0, 0.0, 0.0, 0.0, 0.0, 0.0, 1.695422714065307E9, 0.0, 2023-09-22 17:45:14.065
182.0, -71729.2290007149, 72241.799204564, -5418.375780388807, 14460.550482338725, 57496.2192769312, 47298.146462219534, -187500.02235174447, 53917.83910010327, 64211.107994450096, 79719.97764348717, 34261.42445342833, 9089.56040019517, 62577.84367535635, 41875.076815495115, 10872.20142748373, 26240.545659130297, 0.09, 1.01, 0.08, 192.0, 0.0, 0.0, 0.0, 0.0, 0.0, 0.0, 0.0, 0.0, 0.0, 1.69542271406533E9, 0.0, 2023-09-22 17:45:14.065
184.0, -71827.59902806272, 72156.90727912275, -5419.158091444742, 14484.846828561644, 57530.48450118119, 47314.016200782804, -187500.02235174447, 53911.6253151447, 64027.95780038331, 79635.62215991285, 34254.62952311391, 9098.098766577097, 62592.72993716359, 41890.90185056947, 10749.60210914637, 26135.626570657085, 0.09, 1.01, 0.08, 192.0, 0.0, 0.0, 0.0, 0.0, 0.0, 0.0, 0.0, 0.0, 0.0, 1.695422714065333E9, 0.0, 2023-09-22 17:45:14.065
186.0, -71717.65079708706, 72240.97219001917, -5425.081303725398, 14472.888645278055, 57504.02003574611, 47301.74509307684, -187500.02235174447, 53928.992620586476, 64207.889343248535, 79705.94074796925, 34260.99977028368, 9097.65173168799, 62588.773678395, 41878.988370774794, 10865.831180313968, 26240.09862424119, 0.09, 1.01, 0.08, 192.0, 0.0, 0.0, 0.0, 0.0, 0.0, 0.0, 0.0, 0.0, 0.0, 1.695422714065337E9, 0.0, 2023-09-22 17:45:14.065
188.0, -71844.18402244855, 72134.28731373398, -5433.887891040789, 14473.559197611714, 57531.557384915046, 47305.343723934144, -187500.02235174447, 53904.450405174546, 64036.183242342864, 79633.52109593405, 34245.77823230961, 9102.99379861281, 62600.39658551176, 41894.47812968232, 10738.359181685351, 26130.262151987812, 0.098, 1.01, 0.08, 192.0, 1.5, 8.0, 15.5, 72.0, 1.0, 64.0, 0.0, 0.0, 0.0, 1.69542271406534E9, 0.0, 2023-09-22 17:45:14.065
190.0, -71700.1270294341, 72247.36478893338, -5439.1629027322415, 14476.48727613536, 57498.5215066101, 47289.965723748894, -187500.02235174447, 53941.80017015937, 64196.53465706523, 79698.38585834335, 34256.12708999242, 9090.432118228928, 62581.26349225802, 41875.61325736204, 10859.662098844303, 26232.09669972619, 0.098, 1.01, 0.08, 192.0, 0.0, 0.0, 0.0, 0.0, 0.0, 0.0, 0.0, 0.0, 0.0, 1.695422714065343E9, 0.0, 2023-09-22 17:45:14.065
192.0, -71835.26567641088, 72139.07058704742, -5434.781960819002, 14462.562139339703, 57513.363064928424, 47296.55948836321, -187500.02235174447, 53899.30950394982, 64043.98400115776, 79650.03903508652, 34242.671339830325, 9095.662426431469, 62581.84463761385, 41882.16231848745, 10763.639004664303, 26151.60806794263, 0.098, 1.01, 0.08, 192.0, 0.0, 0.0, 0.0, 0.0, 0.0, 0.0, 0.0, 0.0, 0.0, 1.695422714065346E9, 0.0, 2023-09-22 17:45:14.065
194.0, -71719.88597153258, 72228.34345440191, -5430.870405539323, 14484.712718094912, 57501.203715944735, 47307.4671396574, -187500.02235174447, 53946.874016150716, 64173.28884283172, 79704.48788457965, 34263.6372761294, 9103.038502101721, 62579.564759679415, 41881.3353039426, 10842.71947654718, 26220.943179242993, 0.098, 1.01, 0.08, 192.0, 0.0, 0.0, 0.0, 0.0, 0.0, 0.0, 0.0, 0.0, 0.0, 1.695422714065349E9, 0.0, 2023-09-22 17:45:14.065
196.0, -71847.82735679476, 72128.85583983133, -5437.8665015538345, 14455.789560769745, 57501.628399089386, 47298.59349710864, -187500.02235174447, 53898.81776557181, 64056.54568154165, 79663.27126780407, 34242.89485727488, 9100.713920678369, 62577.95543407863, 41886.81148133415, 10746.22699573362, 26140.566306181707, 0.098, 1.01, 0.08, 192.0, 0.0, 0.0, 0.0, 0.0, 0.0, 0.0, 0.0, 0.0, 0.0, 1.695422714125563E9, 0.0, 2023-09-22 17:45:14.125
198.0, -71680.16692163551, 72249.93523954574, -5442.247443467074, 14495.86623857811, 57492.128907695886, 47303.37677042207, -187500.02235174447, 53972.84674320779, 64164.37049679405, 79690.36158208389, 34253.95897078025, 9086.386452482517, 62571.07109678639, 41871.232315448804, 10841.981868980154, 26222.61956007714, 0.10200000000000001, 1.014, 0.08, 192.0, 1.5, 24.0, 15.5, 88.0, 1.0, 64.0, 0.0, 0.0, 0.0, 1.695422714125573E9, 0.0, 2023-09-22 17:45:14.125
200.0, -71836.15974618909, 72127.26886597501, -5417.951097244156, 14451.319211878683, 57501.00255024464, 47306.93069779047, -187500.02235174447, 53886.50195437694, 64071.36488811552, 79663.78535792654, 34239.67620607331, 9092.242609529807, 62579.207131768126, 41881.156489986955, 10780.648682194791, 26174.13862635358, 0.10200000000000001, 1.014, 0.08, 192.0, 0.0, 0.0, 0.0, 0.0, 0.0, 0.0, 0.0, 0.0, 0.0, 1.695422714125577E9, 0.0, 2023-09-22 17:45:14.125
202.0, -71698.74122127786, 72232.07619572595, -5430.64688809477, 14514.328779498193, 57497.783899043076, 47319.58178515217, -187500.02235174447, 53970.32099608434, 64136.095540058086, 79677.57638425546, 34272.4885669337, 9101.585638712126, 62583.85629461483, 41881.60352487607, 10813.081063399442, 26200.066649921733, 0.10200000000000001, 1.014, 0.08, 192.0, 0.0, 0.0, 0.0, 0.0, 0.0, 0.0, 0.0, 0.0, 0.0, 1.69542271412558E9, 0.0, 2023-09-22 17:45:14.125
204.0, -71813.96446394497, 72144.83733711689, -5425.751856059058, 14449.95575546691, 57488.15029718284, 47295.12897671807, -187500.02235174447, 53899.95770453903, 64114.906086314455, 79683.29843083602, 34241.10671771845, 9091.929685107432, 62573.79800960994, 41878.854260308064, 10793.411528278772, 26187.214396859934, 0.10200000000000001, 1.014, 0.08, 192.0, 0.0, 0.0, 0.0, 0.0, 0.0, 0.0, 0.0, 0.0, 0.0, 1.695422714125584E9, 0.0, 2023-09-22 17:45:14.125
206.0, -71683.18440713697, 72238.08881498442, -5435.899548041767, 14509.232581762384, 57493.313550152016, 47303.73439833336, -187500.02235174447, 53981.92155145664, 64134.08388305711, 79678.51515752259, 34258.16109873785, 9083.726594892334, 62577.50839918952, 41866.985484002296, 10823.80990073799, 26205.22990289091, 0.10200000000000001, 1.014, 0.08, 192.0, 0.0, 0.0, 0.0, 0.0, 0.0, 0.0, 0.0, 0.0, 0.0, 1.695422714125587E9, 0.0, 2023-09-22 17:45:14.125
208.0, -71808.93532144252, 72145.50788945054, -5413.190175675175, 14447.072380432175, 57494.45348911924, 47296.961819763404, -187500.02235174447, 53889.1171084782, 64131.044045811184, 79689.28869835004, 34245.21943869823, 9088.107536805575, 62581.509361447024, 41879.681274852905, 10818.37842683535, 26205.296958124276, 0.10200000000000001, 1.004, 0.08, 192.0, 1.5, 24.0, 15.5, 48.0, 1.0, 64.0, 0.0, 0.0, 0.0, 1.69542271412559E9, 0.0, 2023-09-22 17:45:14.125
210.0, -71693.8238374977, 72222.93433224372, -5431.898585784267, 14524.476471480904, 57496.71101530922, 47311.19988098143, -187500.02235174447, 53974.67958625312, 64113.40851943595, 79648.07208157446, 34267.21355524225, 9099.08224333313, 62580.92821609118, 41877.110824240546, 10805.123842373354, 26188.153170127058, 0.10200000000000001, 1.004, 0.08, 192.0, 0.0, 0.0, 0.0, 0.0, 0.0, 0.0, 0.0, 0.0, 0.0, 1.695422714185826E9, 0.0, 2023-09-22 17:45:14.185
212.0, -71793.49026602392, 72150.55938369744, -5414.486576853583, 14449.57577581117, 57485.91512273731, 47295.911287774004, -187500.02235174447, 53883.93150376457, 64157.66497345746, 79696.2624426201, 34247.52166837712, 9095.595371198104, 62574.043878798955, 41878.94366728588, 10838.182072422753, 26218.842115264193, 0.10200000000000001, 1.004, 0.08, 192.0, 0.0, 0.0, 0.0, 0.0, 0.0, 0.0, 0.0, 0.0, 0.0, 1.695422714185836E9, 0.0, 2023-09-22 17:45:14.185
214.0, -71721.31648317772, 72198.41446857626, -5435.810141063946, 14514.48524170938, 57490.20665767272, 47310.84225307015, -187500.02235174447, 53957.82637093382, 64083.45718186584, 79657.14688982331, 34259.658665616356, 9094.947170608899, 62573.37332646529, 41867.588981102585, 10790.304635799484, 26173.579832742194, 0.10200000000000001, 1.004, 0.08, 192.0, 0.0, 0.0, 0.0, 0.0, 0.0, 0.0, 0.0, 0.0, 0.0, 1.69542271418584E9, 0.0, 2023-09-22 17:45:14.185
216.0, -71802.96740567296, 72144.45735746114, -5415.827681520901, 14441.640906529536, 57477.75673601112, 47303.75675007782, -187500.02235174447, 53883.43976538656, 64164.7951799387, 79713.24976840612, 34251.36616842344, 9095.70712992038, 62578.268358501, 41877.021417262724, 10826.849737983912, 26211.868370994136, 0.10200000000000001, 1.004, 0.08, 192.0, 0.0, 0.0, 0.0, 0.0, 0.0, 0.0, 0.0, 0.0, 0.0, 1.695422714185843E9, 0.0, 2023-09-22 17:45:14.185
218.0, -71739.04141653079, 72184.62344224734, -5444.236748723597, 14516.720416154913, 57482.33884362446, 47310.037590269756, -187500.02235174447, 53978.56878978835, 64071.63310904898, 79636.91856109125, 34256.90940104835, 9093.60606594158, 62574.35680322132, 41868.52775436971, 10752.820760347935, 26151.250440031345, 0.096, 1.008, 0.08, 192.0, 1.5, 0.0, 15.5, 64.0, 1.0, 64.0, 0.0, 0.0, 0.0, 1.695422714185847E9, 0.0, 2023-09-22 17:45:14.185
220.0, -71753.12301553763, 72177.11325611034, -5417.727579799603, 14447.899394977021, 57465.75384923862, 47295.151328462525, -187500.02235174447, 53912.45232968954, 64208.448136859915, 79704.55493981301, 34241.01731074063, 9076.730498877823, 62559.29172745845, 41858.62593157601, 10861.271424445084, 26248.56993538975, 0.096, 1.008, 0.08, 192.0, 0.0, 0.0, 0.0, 0.0, 0.0, 0.0, 0.0, 0.0, 0.0, 1.695422714185851E9, 0.0, 2023-09-22 17:45:14.185
222.0, -71748.11622477963, 72169.29014555099, -5439.654641110259, 14507.44444220596, 57488.50792509412, 47302.72856983287, -187500.02235174447, 53953.020745875925, 64056.21040537482, 79628.96134006517, 34258.16109873785, 9090.767394395756, 62574.20034101014, 41869.64534159248, 10760.777981374024, 26156.90543137854, 0.096, 1.008, 0.08, 192.0, 0.0, 0.0, 0.0, 0.0, 0.0, 0.0, 0.0, 0.0, 0.0, 1.695422714185854E9, 0.0, 2023-09-22 17:45:14.185
224.0, -71719.41658489902, 72189.87610219432, -5418.509890855538, 14449.642831044535, 57471.006509185616, 47286.72472080287, -187500.02235174447, 53905.09860576375, 64215.712453807886, 79715.79786727404, 34249.68978758929, 9068.058022029165, 62557.77180883549, 41849.43936460488, 10879.44339268725, 26262.91975533006, 0.096, 1.008, 0.08, 192.0, 0.0, 0.0, 0.0, 0.0, 0.0, 0.0, 0.0, 0.0, 0.0, 1.695422714185858E9, 0.0, 2023-09-22 17:45:14.185
226.0, -71759.06857956274, 72151.05112207546, -5426.668277581725, 14504.650474149046, 57501.80721304503, 47306.55071813473, -187500.02235174447, 53939.27442303592, 64041.54766101213, 79628.8942848318, 34256.015331270144, 9084.08422280362, 62577.463695700615, 41867.2313531913, 10757.894606339289, 26154.2232220439, 0.096, 1.008, 0.08, 192.0, 0.0, 0.0, 0.0, 0.0, 0.0, 0.0, 0.0, 0.0, 0.0, 1.695422714245241E9, 0.0, 2023-09-22 17:45:14.245
228.0, -71693.44385784195, 72202.90716921177, -5412.497271597061, 14466.808970786211, 57469.71010800721, 47293.89963077303, -187500.02235174447, 53920.029571059895, 64226.64245684654, 79724.58210284497, 34264.039607529594, 9075.501152932782, 62561.75041934853, 41856.346053641566, 10884.405479956327, 26263.031514052334, 0.098, 1.01, 0.08600000000000001, 192.0, 1.5, 8.0, 15.5, 72.0, 1.0, 88.0, 0.0, 0.0, 0.0, 1.695422714245257E9, 0.0, 2023-09-22 17:45:14.245
230.0, -71767.3834285001, 72135.94134282367, -5426.489463626082, 14504.315197982216, 57495.90635250883, 47308.20474722442, -187500.02235174447, 53916.27447799141, 64048.00731515972, 79640.74070939311, 34260.64214237239, 9088.219295527852, 62579.67651840169, 41873.75806257225, 10755.167693515741, 26151.13868130907, 0.098, 1.01, 0.08600000000000001, 192.0, 0.0, 0.0, 0.0, 0.0, 0.0, 0.0, 0.0, 0.0, 0.0, 1.695422714245261E9, 0.0, 2023-09-22 17:45:14.245
232.0, -71673.64021225456, 72208.71862277015, -5417.504062355049, 14478.588340114158, 57471.45354407472, 47299.21934595339, -187500.02235174447, 53908.205498243035, 64234.0632360057, 79717.1166201969, 34256.90940104835, 9069.063850529654, 62560.051686769926, 41850.33343438309, 10888.495849191648, 26268.10536004369, 0.098, 1.01, 0.08600000000000001, 192.0, 0.0, 0.0, 0.0, 0.0, 0.0, 0.0, 0.0, 0.0, 0.0, 1.695422714245264E9, 0.0, 2023-09-22 17:45:14.245
234.0, -71768.74688491189, 72128.25234273105, -5425.55069035896, 14501.96826481441, 57496.733367053675, 47307.55654663522, -187500.02235174447, 53908.60782964323, 64051.78475997267, 79647.02154958506, 34250.02506375612, 9084.017167570253, 62576.07788754439, 41869.3324171701, 10760.822684862935, 26153.88794587707, 0.098, 1.01, 0.08600000000000001, 192.0, 0.0, 0.0, 0.0, 0.0, 0.0, 0.0, 0.0, 0.0, 0.0, 1.695422714245267E9, 0.0, 2023-09-22 17:45:14.245
236.0, -71652.94249688894, 72216.11705018485, -5418.375780388807, 14488.043128018753, 57480.729518023676, 47309.43409316947, -187500.02235174447, 53926.62333567421, 64227.603581858115, 79719.28473940906, 34260.86565981694, 9079.613873912558, 62568.41123919621, 41856.16723968592, 10887.981759069176, 26264.01499080837, 0.098, 1.01, 0.08600000000000001, 192.0, 0.0, 0.0, 0.0, 0.0, 0.0, 0.0, 0.0, 0.0, 0.0, 1.69542271424527E9, 0.0, 2023-09-22 17:45:14.245
238.0, -71788.81875143276, 72106.88407503178, -5418.934574000189, 14487.640796618558, 57504.064739235015, 47305.99192452335, -187500.02235174447, 53891.173468968096, 64046.6662104924, 79655.76108166708, 34252.371996923925, 9091.952036851888, 62582.828114369884, 41874.36155967254, 10760.12978078482, 26151.518660964808, 0.108, 1.014, 0.09, 192.0, 1.5, 48.0, 15.5, 88.0, 1.0, 104.0, 0.0, 0.0, 0.0, 1.695422714245273E9, 0.0, 2023-09-22 17:45:14.245
240.0, -71644.3147235292, 72220.00625372009, -5419.605126333849, 14494.68159612198, 57476.79561099954, 47295.55365986272, -187500.02235174447, 53933.15004505516, 64214.32664565166, 79721.58696908796, 34273.427340200826, 9082.899580347488, 62565.86314032831, 41853.552085584655, 10877.968177553199, 26252.079159269233, 0.108, 1.014, 0.09, 192.0, 0.0, 0.0, 0.0, 0.0, 0.0, 0.0, 0.0, 0.0, 0.0, 1.695422714304896E9, 0.0, 2023-09-22 17:45:14.304
242.0, -71802.98975741741, 72096.42345862668, -5409.412730862228, 14473.112162722608, 57502.90244852334, 47301.52157563229, -187500.02235174447, 53881.27164617439, 64063.809998489625, 79666.33345679444, 34268.62171514294, 9094.813060142167, 62578.69304164565, 41869.220658447826, 10765.382440731817, 26153.79853889925, 0.108, 1.014, 0.09, 192.0, 0.0, 0.0, 0.0, 0.0, 0.0, 0.0, 0.0, 0.0, 0.0, 1.695422714304907E9, 0.0, 2023-09-22 17:45:14.304
244.0, -71675.74127623336, 72196.291052853, -5412.541975085971, 14504.046977048753, 57489.55845708352, 47298.571145364185, -187500.02235174447, 53940.95080387006, 64193.204247141395, 79700.59868104443, 34288.85004387498, 9092.08614731862, 62574.51326543251, 41857.865972264524, 10841.244261413129, 26217.076327452225, 0.108, 1.014, 0.09, 192.0, 0.0, 0.0, 0.0, 0.0, 0.0, 0.0, 0.0, 0.0, 0.0, 1.69542271430491E9, 0.0, 2023-09-22 17:45:14.304
246.0, -71820.24530413692, 72087.4157056112, -5407.445777350161, 14464.618499829592, 57496.57690484249, 47286.322389402674, -187500.02235174447, 53874.78964028235, 64097.47172563931, 79663.49478524862, 34263.32435170703, 9083.7936501257, 62570.31113747491, 41855.94372224137, 10764.533074442515, 26151.11632956461, 0.108, 1.014, 0.09, 192.0, 0.0, 0.0, 0.0, 0.0, 0.0, 0.0, 0.0, 0.0, 0.0, 1.695422714304914E9, 0.0, 2023-09-22 17:45:14.304
248.0, -71644.33707527365, 72218.5980938194, -5424.298992669463, 14518.620314433612, 57474.225160387185, 47288.5128603593, -187500.02235174447, 53964.129562870214, 64191.237293629325, 79687.07587564897, 34277.69652339179, 9075.076469788131, 62562.8680065713, 41841.035108689684, 10839.94786023472, 26211.488391338396, 0.10400000000000001, 1.016, 0.082, 192.0, 1.5, 32.0, 15.5, 96.0, 1.0, 72.0, 0.0, 0.0, 0.0, 1.695422714304917E9, 0.0, 2023-09-22 17:45:14.304
250.0, -71784.86249266416, 72106.5711506094, -5400.159108657731, 14466.585453341659, 57482.607064557924, 47292.64793308353, -187500.02235174447, 53883.819745042296, 64115.397824692474, 79678.3586953114, 34255.523592892125, 9076.41757445545, 62565.1702362502, 41854.446155362864, 10809.393025564317, 26188.644908505074, 0.10400000000000001, 1.016, 0.082, 192.0, 0.0, 0.0, 0.0, 0.0, 0.0, 0.0, 0.0, 0.0, 0.0, 1.695422714304921E9, 0.0, 2023-09-22 17:45:14.304
252.0, -71653.59069747814, 72204.47179132364, -5404.9423819711665, 14529.63972445008, 57486.384509370866, 47307.869471057595, -187500.02235174447, 53957.513446511446, 64156.81560716816, 79684.79599771452, 34287.754808396676, 9090.543876951204, 62572.92629157619, 41859.94468449887, 10841.91481374679, 26215.0870221957, 0.10400000000000001, 1.016, 0.082, 192.0, 0.0, 0.0, 0.0, 0.0, 0.0, 0.0, 0.0, 0.0, 0.0, 1.695422714304924E9, 0.0, 2023-09-22 17:45:14.304
254.0, -71797.40182130359, 72100.64793832874, -5388.200925374142, 14476.554331368725, 57480.84127674595, 47309.43409316947, -187500.02235174447, 53866.541846578344, 64124.29381898569, 79695.07780016397, 34274.85785184596, 9104.334903280129, 62580.50353294653, 41883.86105106605, 10801.9498946607, 26191.550635284264, 0.10400000000000001, 1.016, 0.082, 192.0, 0.0, 0.0, 0.0, 0.0, 0.0, 0.0, 0.0, 0.0, 0.0, 1.695422714304927E9, 0.0, 2023-09-22 17:45:14.304
0.0, -71684.39140133756, 72185.20458760316, -5410.798539018458, 14537.798111176267, 57472.32526210848, 47312.5186339043, -187500.02235174447, 53947.27634755091, 64136.430816224914, 79679.4539307897, 34291.01816308715, 9101.518583478759, 62577.95543407863, 41874.026283505715, 10806.397891807306, 26193.09290565168, 0.10400000000000001, 1.016, 0.082, 192.0, 0.0, 0.0, 0.0, 0.0, 0.0, 0.0, 0.0, 0.0, 0.0, 1.695422714365142E9, 0.0, 2023-09-22 17:45:14.365
2.0, -71819.7535657589, 72089.49441784555, -5397.253381878541, 14463.366802140094, 57465.17270388278, 47290.189241193446, -187500.02235174447, 53842.53607303335, 64144.11981631754, 79701.64921303383, 34270.834537844006, 9101.272714289751, 62580.07884980188, 41876.0826439956, 10790.32698754394, 26181.157074112547, 0.10400000000000001, 1.014, 0.082, 192.0, 1.5, 32.0, 15.5, 88.0, 1.0, 72.0, 0.0, 0.0, 0.0, 1.695422714365151E9, 0.0, 2023-09-22 17:45:14.365
4.0, -71688.05708742823, 72181.82947419041, -5433.083228240398, 14537.909869898544, 57461.484666047654, 47292.22324993888, -187500.02235174447, 53944.214158560535, 64118.035330538194, 79667.13811959483, 34276.8918605914, 9088.979254839332, 62569.417067696704, 41849.506419838246, 10776.826533892934, 26165.488501249376, 0.10400000000000001, 1.014, 0.082, 192.0, 0.0, 0.0, 0.0, 0.0, 0.0, 0.0, 0.0, 0.0, 0.0, 1.695422714365154E9, 0.0, 2023-09-22 17:45:14.365
6.0, -71776.12296058214, 72118.50698214854, -5393.833564976879, 14455.163711924997, 57462.64695675933, 47293.474947628376, -187500.02235174447, 53856.64002378465, 64182.11778189156, 79712.57921607247, 34254.897744047375, 9074.338862221106, 62560.63283212577, 41845.41605060292, 10845.356982392907, 26226.017025234345, 0.10400000000000001, 1.014, 0.082, 192.0, 0.0, 0.0, 0.0, 0.0, 0.0, 0.0, 0.0, 0.0, 0.0, 1.695422714365157E9, 0.0, 2023-09-22 17:45:14.365
8.0, -71724.06574774573, 72154.51564246602, -5414.553632086949, 14532.992486118375, 57478.986081956165, 47309.5682036362, -187500.02235174447, 53928.05384731935, 64079.031536463684, 79661.21490731418, 34284.26793626165, 9093.986045597321, 62578.38011722328, 41857.82126877562, 10766.678841910225, 26152.54684120975, 0.10400000000000001, 1.014, 0.082, 192.0, 0.0, 0.0, 0.0, 0.0, 0.0, 0.0, 0.0, 0.0, 0.0, 1.69542271436516E9, 0.0, 2023-09-22 17:45:14.365
10.0, -71760.09675980768, 72133.46029918913, -5402.438986592172, 14463.72443005138, 57451.80636069851, 47286.747072547325, -187500.02235174447, 53860.75274476442, 64184.35295633709, 79707.70653578121, 34273.40498845637, 9087.682853660925, 62567.42776244018, 41847.69592853736, 10838.137368933842, 26216.89751349658, 0.10400000000000001, 1.014, 0.082, 192.0, 0.0, 0.0, 0.0, 0.0, 0.0, 0.0, 0.0, 0.0, 0.0, 1.695422714365164E9, 0.0, 2023-09-22 17:45:14.365
12.0, -71747.0880445347, 72138.66825564722, -5413.614858819826, 14520.497860967858, 57477.287349377555, 47299.86754654259, -187500.02235174447, 53912.29586747836, 64058.35617284253, 79635.80097386849, 34276.51188093566, 9088.308702505672, 62577.55310267844, 41848.455887848846, 10755.547673171483, 26140.65571315953, 0.106, 1.012, 0.08, 192.0, 1.5, 40.0, 15.5, 80.0, 1.0, 64.0, 0.0, 0.0, 0.0, 1.695422714365167E9, 0.0, 2023-09-22 17:45:14.365
14.0, -71758.35332374017, 72134.08614803388, -5395.0182074330105, 14459.298784649229, 57453.08041013246, 47286.16592719149, -187500.02235174447, 53854.89658771713, 64194.47829657535, 79706.85716949191, 34261.91619180634, 9071.36608020855, 62566.71250661761, 41839.358727855535, 10843.345325391929, 26215.399946618076, 0.106, 1.012, 0.08, 192.0, 0.0, 0.0, 0.0, 0.0, 0.0, 0.0, 0.0, 0.0, 0.0, 1.695422714425435E9, 0.0, 2023-09-22 17:45:14.425
16.0, -71773.48545473641, 72114.99775826905, -5410.239745407074, 14523.8282708917, 57470.89475046334, 47301.83450005466, -187500.02235174447, 53915.559222168835, 64042.30762032362, 79637.7455756361, 34273.20382275627, 9087.772260638745, 62580.99527132455, 41853.261512906734, 10732.8830042938, 26115.711166347406, 0.106, 1.012, 0.08, 192.0, 0.0, 0.0, 0.0, 0.0, 0.0, 0.0, 0.0, 0.0, 0.0, 1.695422714425447E9, 0.0, 2023-09-22 17:45:14.425
18.0, -71742.438881688, 72146.24549701756, -5392.872439965301, 14473.179217955974, 57443.62562222787, 47293.65376158402, -187500.02235174447, 53883.260951430915, 64208.738709537836, 79723.73273655567, 34269.582840154515, 9075.165876765952, 62562.711544360114, 41842.13034416799, 10847.011011482598, 26223.53598159981, 0.106, 1.012, 0.08, 192.0, 0.0, 0.0, 0.0, 0.0, 0.0, 0.0, 0.0, 0.0, 0.0, 1.69542271442545E9, 0.0, 2023-09-22 17:45:14.425
20.0, -71790.69629796699, 72101.85493252933, -5412.340809385873, 14524.789395903277, 57467.027898672575, 47306.64012511255, -187500.02235174447, 53914.26282099043, 64026.92962013837, 79639.75723263709, 34273.87437508993, 9089.493344961804, 62572.12162877579, 41854.06617570713, 10727.093902479875, 26116.22525646988, 0.106, 1.012, 0.08, 192.0, 0.0, 0.0, 0.0, 0.0, 0.0, 0.0, 0.0, 0.0, 0.0, 1.695422714425453E9, 0.0, 2023-09-22 17:45:14.425
22.0, -71722.03173900029, 72158.60601170135, -5402.9754284591, 14491.038261775764, 57447.3583635519, 47292.3126569167, -187500.02235174447, 53902.349341195746, 64208.917523493474, 79726.95138775723, 34276.37777046893, 9076.596388411092, 62553.681439600165, 41841.99623370126, 10854.185921452752, 26230.643836336596, 0.108, 1.008, 0.08, 192.0, 1.5, 48.0, 15.5, 64.0, 1.0, 64.0, 0.0, 0.0, 0.0, 1.695422714425456E9, 0.0, 2023-09-22 17:45:14.425
24.0, -71810.18701913202, 72084.6664410432, -5406.574059316405, 14517.30156151075, 57470.53712255206, 47309.70231410293, -187500.02235174447, 53903.33281795178, 64029.902402150925, 79636.0915465464, 34268.35349420947, 9082.631359414025, 62566.980727551076, 41855.295521652166, 10733.464149649639, 26124.115422262603, 0.108, 1.008, 0.08, 192.0, 0.0, 0.0, 0.0, 0.0, 0.0, 0.0, 0.0, 0.0, 0.0, 1.69542271442546E9, 0.0, 2023-09-22 17:45:14.425
26.0, -71721.80822155574, 72158.9859913571, -5401.835489491879, 14497.587322901169, 57447.80539844101, 47305.008447767315, -187500.02235174447, 53898.68365510508, 64206.12355543656, 79730.70648082573, 34279.574069926035, 9082.65371115848, 62563.560910649416, 41844.79020175817, 10845.155816692808, 26217.366900130142, 0.108, 1.008, 0.08, 192.0, 0.0, 0.0, 0.0, 0.0, 0.0, 0.0, 0.0, 0.0, 0.0, 1.695422714425463E9, 0.0, 2023-09-22 17:45:14.425
28.0, -71831.5552868313, 72069.7578274915, -5410.195041918164, 14513.166488786519, 57467.13965739485, 47310.46227341441, -187500.02235174447, 53879.10352696223, 64025.67792244887, 79649.14496530831, 34273.36028496746, 9094.701301419891, 62572.09927703134, 41861.62106533302, 10714.956905240644, 26100.98136675136, 0.108, 1.008, 0.08, 192.0, 0.0, 0.0, 0.0, 0.0, 0.0, 0.0, 0.0, 0.0, 0.0, 1.695422714425466E9, 0.0, 2023-09-22 17:45:14.425
30.0, -71686.40305833853, 72180.30955556745, -5411.804367518946, 14507.846773606156, 57440.02699137056, 47298.727607575376, -187500.02235174447, 53908.96545755452, 64207.37525312606, 79722.65985282182, 34276.37777046893, 9073.51184767626, 62556.497759401536, 41837.3247191101, 10849.961441750698, 26220.697310053984, 0.108, 1.008, 0.08, 192.0, 0.0, 0.0, 0.0, 0.0, 0.0, 0.0, 0.0, 0.0, 0.0, 1.695422714485767E9, 0.0, 2023-09-22 17:45:14.485
32.0, -71868.23449948245, 72040.78996667743, -5385.943399184156, 14497.408508945528, 57477.644977288845, 47317.726590362385, -187500.02235174447, 53850.80621848181, 64033.43397777486, 79652.54243046552, 34271.035703544105, 9094.075452575142, 62583.99040508156, 41866.069062479626, 10716.610934330338, 26104.378831908565, 0.108, 1.016, 0.076, 192.0, 1.5, 48.0, 15.5, 96.0, 1.0, 48.0, 0.0, 0.0, 0.0, 1.695422714485776E9, 0.0, 2023-09-22 17:45:14.485
34.0, -71718.678977332, 72159.85770939085, -5401.053178435944, 14517.458023721938, 57454.13094212186, 47296.35832266311, -187500.02235174447, 53909.613658143724, 64198.07692743265, 79703.88438747935, 34290.66053517587, 9082.98898732531, 62571.49577993104, 41841.63860578997, 10806.733167974135, 26186.745010226372, 0.108, 1.016, 0.076, 192.0, 0.0, 0.0, 0.0, 0.0, 0.0, 0.0, 0.0, 0.0, 0.0, 1.695422714485779E9, 0.0, 2023-09-22 17:45:14.485
36.0, -71832.78463277634, 72069.5119583025, -5406.462300594128, 14491.507648409326, 57467.81020972851, 47290.2115929379, -187500.02235174447, 53861.82562849828, 64078.38333587448, 79662.24308755912, 34260.977418539216, 9077.915141333955, 62567.58422465137, 41838.39760284396, 10733.911184538745, 26129.479840931876, 0.108, 1.016, 0.076, 192.0, 0.0, 0.0, 0.0, 0.0, 0.0, 0.0, 0.0, 0.0, 0.0, 1.695422714485782E9, 0.0, 2023-09-22 17:45:14.485
38.0, -71681.95506119193, 72180.8907009233, -5405.635286049282, 14514.552296942747, 57458.80245671302, 47294.100796473125, -187500.02235174447, 53919.49312919297, 64200.04388094472, 79692.35088734042, 34278.25531700317, 9068.907388318466, 62562.488026915555, 41829.90393995094, 10836.729209033158, 26214.550580328774, 0.108, 1.016, 0.076, 192.0, 0.0, 0.0, 0.0, 0.0, 0.0, 0.0, 0.0, 0.0, 0.0, 1.695422714485785E9, 0.0, 2023-09-22 17:45:14.485
40.0, -71843.06643522579, 72058.80547270841, -5398.102748167843, 14468.977089998376, 57476.90736972182, 47299.80049130923, -187500.02235174447, 53848.21341612499, 64089.8274290356, 79657.12453807886, 34272.6897326338, 9077.401051211484, 62579.65416665723, 41851.60748381704, 10749.736219613102, 26136.02890205728, 0.108, 1.016, 0.076, 192.0, 0.0, 0.0, 0.0, 0.0, 0.0, 0.0, 0.0, 0.0, 0.0, 1.695422714485789E9, 0.0, 2023-09-22 17:45:14.485
42.0, -71696.21547415442, 72168.77605542852, -5411.1561669297425, 14517.502727210847, 57471.58765454146, 47296.58184010766, -187500.02235174447, 53919.135501281686, 64171.56775850866, 79674.89417492082, 34286.86073861847, 9072.707184875868, 62571.42872469768, 41843.00206220175, 10809.214211608674, 26180.75474271235, 0.106, 1.01, 0.078, 192.0, 1.5, 40.0, 15.5, 72.0, 1.0, 56.0, 0.0, 0.0, 0.0, 1.695422714485792E9, 0.0, 2023-09-22 17:45:14.485
44.0, -71840.69715031351, 72060.16892912018, -5408.652771550747, 14462.159807939508, 57478.65080578933, 47281.40500562251, -187500.02235174447, 53837.3057648308, 64111.486269412795, 79664.65707596029, 34267.99586629819, 9081.469068702349, 62578.648338156745, 41862.87276302252, 10751.636117891803, 26133.905486334024, 0.106, 1.01, 0.078, 192.0, 0.0, 0.0, 0.0, 0.0, 0.0, 0.0, 0.0, 0.0, 0.0, 1.695422714545112E9, 0.0, 2023-09-22 17:45:14.545
46.0, -71691.58866305217, 72169.44660776218, -5428.635231093792, 14516.720416154913, 57476.862666232904, 47296.06774998519, -187500.02235174447, 53920.25308850445, 64156.279165301225, 79663.31597129298, 34286.3913519849, 9072.617777898047, 62561.23632922606, 41846.93596922588, 10796.406662035783, 26169.04242861777, 0.106, 1.01, 0.078, 192.0, 0.0, 0.0, 0.0, 0.0, 0.0, 0.0, 0.0, 0.0, 0.0, 1.69542271454513E9, 0.0, 2023-09-22 17:45:14.545
48.0, -71842.48528986995, 72061.33121983186, -5407.870460494812, 14455.700153791924, 57493.40295712984, 47302.348590177135, -187500.02235174447, 53824.744084446924, 64123.98089456331, 79665.23822131613, 34281.29515424909, 9094.835411886623, 62571.60753865333, 41880.86591730904, 10767.684670410714, 26145.193117283958, 0.106, 1.01, 0.078, 192.0, 0.0, 0.0, 0.0, 0.0, 0.0, 0.0, 0.0, 0.0, 0.0, 1.695422714545134E9, 0.0, 2023-09-22 17:45:14.545
50.0, -71713.3816138961, 72156.46024423365, -5439.095847498876, 14525.370541259115, 57503.21537294571, 47309.52350014728, -187500.02235174447, 53925.95278334055, 64121.477499184315, 79655.76108166708, 34301.61288995897, 9099.909257877976, 62568.18772175166, 41875.05446375066, 10764.84599886489, 26137.861745102615, 0.106, 1.01, 0.078, 192.0, 0.0, 0.0, 0.0, 0.0, 0.0, 0.0, 0.0, 0.0, 0.0, 1.695422714545137E9, 0.0, 2023-09-22 17:45:14.545
52.0, -71808.64474876461, 72091.66253705771, -5422.242632179575, 14444.166653652985, 57496.08516646447, 47292.80439529472, -187500.02235174447, 53839.58564276525, 64160.347182792095, 79689.75808498361, 34277.87533734743, 9096.154164809486, 62562.57743389338, 41875.54620212867, 10796.585475991425, 26169.288297806776, 0.10400000000000001, 1.006, 0.07200000000000001, 192.0, 1.5, 32.0, 15.5, 56.0, 1.0, 32.0, 0.0, 0.0, 0.0, 1.695422714545141E9, 0.0, 2023-09-22 17:45:14.545
54.0, -71720.57887561069, 72160.12593032431, -5445.242577224085, 14508.986712573376, 57509.69737883775, 47304.427302411474, -187500.02235174447, 53915.24629774646, 64094.8789232825, 79640.27132275955, 34296.069657334054, 9104.156089324486, 62574.245044499046, 41876.0826439956, 10761.873216852335, 26132.3185124777, 0.10400000000000001, 1.006, 0.07200000000000001, 192.0, 0.0, 0.0, 0.0, 0.0, 0.0, 0.0, 0.0, 0.0, 0.0, 1.695422714545144E9, 0.0, 2023-09-22 17:45:14.545
56.0, -71790.96451890047, 72112.89669429025, -5426.31064967044, 14434.488348303837, 57502.63422758988, 47296.87241278558, -187500.02235174447, 53835.651735741114, 64168.7961421962, 79690.94272743973, 34280.132863537416, 9104.603124213592, 62573.93212007667, 41876.44027190689, 10813.975133177655, 26172.976335641903, 0.10400000000000001, 1.006, 0.07200000000000001, 192.0, 0.0, 0.0, 0.0, 0.0, 0.0, 0.0, 0.0, 0.0, 0.0, 1.695422714545148E9, 0.0, 2023-09-22 17:45:14.545
58.0, -71703.25627365784, 72168.21726181713, -5445.689612113191, 14506.103337538641, 57518.414559175326, 47298.66055234201, -187500.02235174447, 53919.69429489307, 64079.16564693042, 79628.62606389834, 34291.21932878725, 9105.787766669722, 62574.89324508826, 41865.95730375735, 10769.405754733772, 26125.344768207644, 0.10400000000000001, 1.006, 0.07200000000000001, 192.0, 0.0, 0.0, 0.0, 0.0, 0.0, 0.0, 0.0, 0.0, 0.0, 1.695422714545152E9, 0.0, 2023-09-22 17:45:14.545
60.0, -71744.04820728877, 72146.96075284014, -5415.492405354072, 14431.359104080095, 57516.96169578573, 47287.93171500346, -187500.02235174447, 53838.7586282204, 64196.28878787623, 79690.13806463934, 34285.49728220669, 9100.669217189457, 62572.52396017599, 41870.181783459404, 10861.651404100825, 26199.306690610254, 0.10400000000000001, 1.006, 0.07200000000000001, 192.0, 0.0, 0.0, 0.0, 0.0, 0.0, 0.0, 0.0, 0.0, 0.0, 1.6954227146048E9, 0.0, 2023-09-22 17:45:14.604
62.0, -71743.5341171663, 72144.59146792788, -5435.296050941473, 14496.894418823054, 57540.431027463805, 47306.394255923544, -187500.02235174447, 53886.546657865845, 64052.120036139495, 79618.29955795998, 34305.233872560726, 9125.703170979401, 62594.272207531, 41887.81730983464, 10750.943213813689, 26090.54310209073, 0.10200000000000001, 1.01, 0.074, 192.0, 1.5, 24.0, 15.5, 72.0, 1.0, 40.0, 0.0, 0.0, 0.0, 1.695422714604812E9, 0.0, 2023-09-22 17:45:14.604
64.0, -71736.3815589406, 72163.21047105915, -5418.867518766823, 14440.031580928753, 57515.598239373954, 47293.65376158402, -187500.02235174447, 53833.99770665142, 64209.74453803832, 79697.51414030959, 34297.50016897919, 9114.37083654056, 62579.47535270159, 41878.67544635242, 10858.43275289926, 26184.979222414404, 0.10200000000000001, 1.01, 0.074, 192.0, 0.0, 0.0, 0.0, 0.0, 0.0, 0.0, 0.0, 0.0, 0.0, 1.695422714604817E9, 0.0, 2023-09-22 17:45:14.604
66.0, -71730.05601525975, 72163.81396815943, -5447.835379580901, 14505.25397124934, 57525.745931356665, 47310.32816294768, -187500.02235174447, 53888.73712882247, 64050.39895181644, 79628.42489819824, 34303.57984347103, 9124.764397712279, 62588.90778886173, 41888.73373135731, 10752.59724290338, 26087.078581700156, 0.10200000000000001, 1.01, 0.074, 192.0, 0.0, 0.0, 0.0, 0.0, 0.0, 0.0, 0.0, 0.0, 0.0, 1.695422714604822E9, 0.0, 2023-09-22 17:45:14.604
68.0, -71678.82581696818, 72213.1442681723, -5431.831530550901, 14451.363915367594, 57504.02003574611, 47299.73343607586, -187500.02235174447, 53864.55254132182, 64226.46364289089, 79709.65113754882, 34295.19793930029, 9113.208545828886, 62569.975861308085, 41877.22258296282, 10900.409328986327, 26208.47090583693, 0.10200000000000001, 1.01, 0.074, 192.0, 0.0, 0.0, 0.0, 0.0, 0.0, 0.0, 0.0, 0.0, 0.0, 1.695422714604827E9, 0.0, 2023-09-22 17:45:14.604
70.0, -71774.62539370364, 72138.69060739168, -5424.142530458275, 14485.383270428572, 57547.11419905594, 47317.41366594001, -187500.02235174447, 53871.302768147325, 64029.23184981726, 79620.17710449423, 34309.346593540504, 9129.011229158787, 62590.85239062934, 41897.27209773923, 10770.344528000895, 26085.715125288385, 0.10200000000000001, 1.01, 0.074, 192.0, 0.0, 0.0, 0.0, 0.0, 0.0, 0.0, 0.0, 0.0, 0.0, 1.69542271460483E9, 0.0, 2023-09-22 17:45:14.604
72.0, -71698.45064859994, 72206.88577972482, -5427.74116131558, 14460.394020127538, 57519.3756841869, 47302.54975587723, -187500.02235174447, 53874.20849492651, 64201.250875145306, 79694.87663446387, 34317.30381456659, 9122.350409311106, 62588.773678395, 41884.39749293298, 10872.871979817388, 26174.049219375756, 0.106, 1.008, 0.074, 192.0, 1.5, 40.0, 15.5, 64.0, 1.0, 40.0, 0.0, 0.0, 0.0, 1.695422714604834E9, 0.0, 2023-09-22 17:45:14.604
74.0, -71815.99847269041, 72116.16004898072, -5432.680896840203, 14476.442572646449, 57544.00730657665, 47311.848081570635, -187500.02235174447, 53864.77605876637, 64018.570067712084, 79618.81364808246, 34302.97634637074, 9127.491310535826, 62596.23916104307, 41892.064141281146, 10747.165769000741, 26057.462520296875, 0.106, 1.008, 0.074, 192.0, 0.0, 0.0, 0.0, 0.0, 0.0, 0.0, 0.0, 0.0, 0.0, 1.695422714665123E9, 0.0, 2023-09-22 17:45:14.665
76.0, -71717.04729998676, 72201.83428547792, -5436.368934675328, 14463.031525973265, 57519.465091164726, 47298.90642153101, -187500.02235174447, 53873.00150072593, 64185.82817147114, 79695.79305598653, 34314.48749476522, 9115.555478996692, 62589.89126561776, 41881.89409755398, 10852.040153985043, 26147.808271385227, 0.106, 1.008, 0.074, 192.0, 0.0, 0.0, 0.0, 0.0, 0.0, 0.0, 0.0, 0.0, 0.0, 1.695422714665134E9, 0.0, 2023-09-22 17:45:14.665
78.0, -71830.34829263072, 72115.64595885825, -5445.890777813289, 14461.064572461197, 57537.03356230659, 47305.61194486761, -187500.02235174447, 53849.24159636994, 64018.81593690109, 79626.45794468618, 34286.436055473816, 9109.542859738214, 62588.30429176144, 41886.31974295613, 10742.136626498297, 26051.271087082754, 0.106, 1.008, 0.074, 192.0, 0.0, 0.0, 0.0, 0.0, 0.0, 0.0, 0.0, 0.0, 0.0, 1.695422714665138E9, 0.0, 2023-09-22 17:45:14.665
80.0, -71694.29322413125, 72228.4999166131, -5454.742068617591, 14464.283223662762, 57507.30574218104, 47294.34666566213, -187500.02235174447, 53881.07048047429, 64181.89426444701, 79669.90973590729, 34293.0968753215, 9097.025882843243, 62576.50257068904, 41871.54523987118, 10855.683488331259, 26146.04248357326, 0.106, 1.008, 0.074, 192.0, 0.0, 0.0, 0.0, 0.0, 0.0, 0.0, 0.0, 0.0, 0.0, 1.695422714665141E9, 0.0, 2023-09-22 17:45:14.665
82.0, -71822.88280998264, 72131.85097358836, -5443.812065578945, 14454.783732269256, 57532.317344226525, 47307.936526290956, -187500.02235174447, 53838.80333170931, 64035.847966176036, 79626.65911038627, 34275.55075592408, 9108.738196937824, 62582.73870739207, 41884.866879566536, 10758.922786584233, 26061.93286918794, 0.1, 1.006, 0.08, 192.0, 1.5, 16.0, 15.5, 56.0, 1.0, 64.0, 0.0, 0.0, 0.0, 1.695422714665145E9, 0.0, 2023-09-22 17:45:14.665
84.0, -71696.08136368768, 72229.70691081368, -5435.676030597214, 14478.364822669606, 57526.08120752349, 47314.284421716264, -187500.02235174447, 53886.256085187924, 64170.047839885694, 79684.0583901475, 34300.2941370361, 9101.384473012027, 62576.055535799926, 41874.69683583937, 10866.926415792277, 26151.026922586792, 0.1, 1.006, 0.08, 192.0, 0.0, 0.0, 0.0, 0.0, 0.0, 0.0, 0.0, 0.0, 0.0, 1.695422714665148E9, 0.0, 2023-09-22 17:45:14.665
86.0, -71833.18696417654, 72129.90637182073, -5446.494274913583, 14459.276432904773, 57538.28525999609, 47308.38356118007, -187500.02235174447, 53845.710020745995, 64033.07634986358, 79632.33645347792, 34289.431189230825, 9107.218278314862, 62586.270283016005, 41894.76870236024, 10758.9898418176, 26054.757959217783, 0.1, 1.006, 0.08, 192.0, 0.0, 0.0, 0.0, 0.0, 0.0, 0.0, 0.0, 0.0, 0.0, 1.695422714665156E9, 0.0, 2023-09-22 17:45:14.665
88.0, -71644.1135578291, 72272.19757702322, -5455.3008622289735, 14495.732128111378, 57514.39124517337, 47304.47200590039, -187500.02235174447, 53929.819635131316, 64155.69801994539, 79671.18378534124, 34296.33787826751, 9090.409766484472, 62563.65031762723, 41863.52096361172, 10881.008014799121, 26157.68774243447, 0.1, 1.006, 0.08, 192.0, 0.0, 0.0, 0.0, 0.0, 0.0, 0.0, 0.0, 0.0, 0.0, 1.69542271466516E9, 0.0, 2023-09-22 17:45:14.665
90.0, -71812.37749008865, 72149.59825868586, -5426.064780481432, 14443.496101319326, 57533.70315238275, 47306.8636425571, -187500.02235174447, 53840.50206428791, 64059.96549844331, 79643.08764256092, 34285.76550314015, 9105.899525392, 62583.118687047805, 41885.224507477826, 10826.08977867243, 26108.379794166067, 0.1, 1.006, 0.08, 192.0, 0.0, 0.0, 0.0, 0.0, 0.0, 0.0, 0.0, 0.0, 0.0, 1.695422714725426E9, 0.0, 2023-09-22 17:45:14.725
92.0, -71691.20868339643, 72246.0460360105, -5435.452513152661, 14503.15290727054, 57534.03842854958, 47324.141541021054, -187500.02235174447, 53911.066521533314, 64118.10238577156, 79650.88840137582, 34311.40295403039, 9117.231859830841, 62590.83003888489, 41891.32653371412, 10852.800113296524, 26128.451660686933, 0.098, 1.006, 0.082, 192.0, 1.5, 8.0, 15.5, 56.0, 1.0, 72.0, 0.0, 0.0, 0.0, 1.695422714725434E9, 0.0, 2023-09-22 17:45:14.725
94.0, -71811.5504755438, 72165.06566584893, -5429.194024705175, 14451.878005490067, 57535.26777449463, 47311.713971103905, -187500.02235174447, 53844.36891607868, 64087.32403365661, 79648.2508955301, 34291.241680531704, 9122.797444200212, 62583.521018448, 41892.555879659165, 10825.598040294415, 26110.92789303397, 0.098, 1.006, 0.082, 192.0, 0.0, 0.0, 0.0, 0.0, 0.0, 0.0, 0.0, 0.0, 0.0, 1.695422714725438E9, 0.0, 2023-09-22 17:45:14.725
96.0, -71658.73159870287, 72275.39387648033, -5436.83832130889, 14512.987674830876, 57536.00538206165, 47314.68675311646, -187500.02235174447, 53937.508635223945, 64118.325903216115, 79645.25576177309, 34314.35338429849, 9120.38345579904, 62574.98265206607, 41879.74833008627, 10872.849628072934, 26144.50021320584, 0.098, 1.006, 0.082, 192.0, 0.0, 0.0, 0.0, 0.0, 0.0, 0.0, 0.0, 0.0, 0.0, 1.695422714725441E9, 0.0, 2023-09-22 17:45:14.725
98.0, -71779.3416117837, 72188.31148008246, -5417.369951888318, 14444.81485424219, 57530.7303703702, 47308.22709896888, -187500.02235174447, 53846.64879401312, 64114.83903108109, 79669.59681148491, 34302.61871845945, 9121.411636043982, 62581.375250980294, 41895.282792482714, 10875.15185775183, 26141.594486426653, 0.098, 1.006, 0.082, 192.0, 0.0, 0.0, 0.0, 0.0, 0.0, 0.0, 0.0, 0.0, 0.0, 1.695422714725444E9, 0.0, 2023-09-22 17:45:14.725
100.0, -71649.54503173173, 72280.02068758258, -5450.674051126725, 14512.697102152957, 57520.96265804323, 47304.18143322247, -187500.02235174447, 53933.44061773308, 64099.28221694019, 79630.68242438823, 34313.03463137563, 9114.773167940757, 62578.13424803427, 41873.556896872156, 10873.9672152957, 26130.79859385474, 0.098, 1.006, 0.082, 192.0, 0.0, 0.0, 0.0, 0.0, 0.0, 0.0, 0.0, 0.0, 0.0, 1.695422714725447E9, 0.0, 2023-09-22 17:45:14.725
102.0, -71741.2318874874, 72215.67001529575, -5432.7032485846585, 14437.95286869441, 57510.993780016164, 47291.88797377205, -187500.02235174447, 53834.668258985075, 64137.973086592334, 79669.552107996, 34285.78785488461, 9107.173574825953, 62575.00500381053, 41874.585077117095, 10915.273239049106, 26159.31941977971, 0.10200000000000001, 1.002, 0.084, 192.0, 1.5, 24.0, 15.5, 40.0, 1.0, 80.0, 0.0, 0.0, 0.0, 1.69542271472545E9, 0.0, 2023-09-22 17:45:14.725
104.0, -71681.44097106946, 72256.64076288232, -5444.728487101614, 14507.8244218617, 57523.62251563341, 47309.814072825204, -187500.02235174447, 53896.51553589291, 64061.53012055518, 79609.56002587796, 34297.56722421256, 9112.806214428689, 62578.04484105645, 41873.75806257225, 10870.189770482752, 26112.045480256736, 0.10200000000000001, 1.002, 0.084, 192.0, 0.0, 0.0, 0.0, 0.0, 0.0, 0.0, 0.0, 0.0, 0.0, 1.695422714785673E9, 0.0, 2023-09-22 17:45:14.785
106.0, -71742.72945436591, 72218.95572173069, -5437.486521898094, 14440.009229184298, 57493.782936785574, 47292.26795342779, -187500.02235174447, 53820.81017742278, 64154.960412378365, 79669.552107996, 34291.06286657606, 9109.408749271483, 62576.18964626666, 41877.244934707276, 10910.8252419025, 26146.333056251176, 0.10200000000000001, 1.002, 0.084, 192.0, 0.0, 0.0, 0.0, 0.0, 0.0, 0.0, 0.0, 0.0, 0.0, 1.695422714785685E9, 0.0, 2023-09-22 17:45:14.785
108.0, -71710.92292200601, 72237.79824230651, -5447.298937713974, 14504.851639849145, 57512.55840212803, 47306.617773368096, -187500.02235174447, 53884.24442818695, 64042.19586160134, 79601.4910461296, 34301.90346263689, 9108.42527251545, 62576.122591033294, 41876.46262365134, 10838.226775911662, 26075.50037807231, 0.10200000000000001, 1.002, 0.084, 192.0, 0.0, 0.0, 0.0, 0.0, 0.0, 0.0, 0.0, 0.0, 0.0, 1.695422714785689E9, 0.0, 2023-09-22 17:45:14.785
110.0, -71723.21638145643, 72235.04897773851, -5424.813082791935, 14447.899394977021, 57491.79363152905, 47293.40789239501, -187500.02235174447, 53824.63232572465, 64178.54150277872, 79677.39757029981, 34296.96372711226, 9102.166784067964, 62568.031259540476, 41873.42278640542, 10922.224631574707, 26151.2727917758, 0.10200000000000001, 1.002, 0.084, 192.0, 0.0, 0.0, 0.0, 0.0, 0.0, 0.0, 0.0, 0.0, 0.0, 1.695422714785693E9, 0.0, 2023-09-22 17:45:14.785
112.0, -71711.05703247275, 72236.47948938364, -5437.464170153638, 14514.552296942747, 57513.05014050605, 47302.25918319931, -187500.02235174447, 53883.43976538656, 64039.37954179997, 79590.53869134649, 34312.766410442164, 9114.303781307195, 62586.94083534966, 41880.24006846429, 10827.989676951132, 26065.844424467618, 0.108, 1.008, 0.084, 192.0, 1.5, 48.0, 15.5, 64.0, 1.0, 80.0, 0.0, 0.0, 0.0, 1.695422714785697E9, 0.0, 2023-09-22 17:45:14.785
114.0, -71706.83255277069, 72248.05769301149, -5415.157129187242, 14450.469845589381, 57495.03463447507, 47289.65279932652, -187500.02235174447, 53826.17459609206, 64193.89715121951, 79685.48890179263, 34317.92966341134, 9108.827603915644, 62581.33054749138, 41869.198306703365, 10938.161425371341, 26167.81308267273, 0.108, 1.008, 0.084, 192.0, 0.0, 0.0, 0.0, 0.0, 0.0, 0.0, 0.0, 0.0, 0.0, 1.695422714785703E9, 0.0, 2023-09-22 17:45:14.785
116.0, -71733.52053565033, 72221.63793106531, -5432.747952073569, 14503.756404370833, 57516.49230915217, 47297.54296511924, -187500.02235174447, 53859.4116400971, 64024.9626666263, 79607.32485143244, 34317.63909073342, 9112.8509179176, 62590.047727828955, 41865.95730375735, 10819.80893848049, 26056.59080226312, 0.108, 1.008, 0.084, 192.0, 0.0, 0.0, 0.0, 0.0, 0.0, 0.0, 0.0, 0.0, 0.0, 1.695422714785711E9, 0.0, 2023-09-22 17:45:14.785
118.0, -71656.3623137906, 72281.69706841673, -5419.895699011767, 14467.859502775611, 57491.413651873314, 47283.193145178935, -187500.02235174447, 53849.17454113657, 64208.26932290427, 79688.48403554966, 34319.67309947885, 9105.720711436357, 62580.01179456852, 41849.7299372828, 10953.204149389763, 26164.79559717126, 0.108, 1.008, 0.084, 192.0, 0.0, 0.0, 0.0, 0.0, 0.0, 0.0, 0.0, 0.0, 0.0, 1.695422714785714E9, 0.0, 2023-09-22 17:45:14.785
120.0, -71723.97634076791, 72223.18020143274, -5424.097826969365, 14500.91773282501, 57518.36985568641, 47299.822843053684, -187500.02235174447, 53860.21630289749, 64036.22794583177, 79599.32292691743, 34315.850951176995, 9114.639057474025, 62600.44128900067, 41858.89415250947, 10839.567880578981, 26060.658819753986, 0.108, 1.008, 0.084, 192.0, 0.0, 0.0, 0.0, 0.0, 0.0, 0.0, 0.0, 0.0, 0.0, 1.695422714845139E9, 0.0, 2023-09-22 17:45:14.845
122.0, -71654.86474691209, 72283.17228355078, -5407.825757005901, 14474.140342967552, 57502.120137467406, 47301.05218899873, -187500.02235174447, 53853.42137258308, 64208.33637813764, 79667.49574750612, 34329.82079146156, 9112.359179539584, 62592.88639937477, 41855.83196351909, 10958.389754103393, 26160.884041891582, 0.10200000000000001, 1.008, 0.076, 192.0, 1.5, 24.0, 15.5, 64.0, 1.0, 48.0, 0.0, 0.0, 0.0, 1.695422714845162E9, 0.0, 2023-09-22 17:45:14.845
124.0, -71755.87228010563, 72201.16373314426, -5424.880138025301, 14491.664110620513, 57522.99666678866, 47327.449599200445, -187500.02235174447, 53852.4602475715, 64026.616695715995, 79596.64071758279, 34319.36017505648, 9118.66237147598, 62597.602617454846, 41868.55010611416, 10824.905136216299, 26041.861002667072, 0.10200000000000001, 1.008, 0.076, 192.0, 0.0, 0.0, 0.0, 0.0, 0.0, 0.0, 0.0, 0.0, 0.0, 1.695422714845165E9, 0.0, 2023-09-22 17:45:14.845
126.0, -71657.65871496902, 72281.04886782753, -5423.203757191152, 14477.895436036044, 57499.527335110586, 47325.057962543724, -187500.02235174447, 53868.6652623016, 64197.94281696592, 79658.37623576836, 34317.92966341134, 9104.826641658145, 62585.59973068235, 41857.82126877562, 10944.59872777447, 26141.169803282002, 0.10200000000000001, 1.008, 0.076, 192.0, 0.0, 0.0, 0.0, 0.0, 0.0, 0.0, 0.0, 0.0, 0.0, 1.695422714845168E9, 0.0, 2023-09-22 17:45:14.845
128.0, -71766.84698663319, 72192.78182897352, -5431.02686775051, 14477.470752891393, 57516.49230915217, 47327.62841315608, -187500.02235174447, 53849.353355092215, 64025.72262593778, 79594.42789488172, 34303.28927079312, 9109.453452760394, 62588.14782955025, 41866.896077024474, 10831.364790363883, 26040.34108404411, 0.10200000000000001, 1.008, 0.076, 192.0, 0.0, 0.0, 0.0, 0.0, 0.0, 0.0, 0.0, 0.0, 0.0, 1.695422714845171E9, 0.0, 2023-09-22 17:45:14.845
130.0, -71630.56840068918, 72293.78936216705, -5431.160978217242, 14485.316215195206, 57499.3708728994, 47327.024916055794, -187500.02235174447, 53883.08213747527, 64182.11778189156, 79654.64349444432, 34313.347555798005, 9095.237743286818, 62579.832980612875, 41858.04478622017, 10953.11474241194, 26141.70624514893, 0.10200000000000001, 1.008, 0.076, 192.0, 0.0, 0.0, 0.0, 0.0, 0.0, 0.0, 0.0, 0.0, 0.0, 1.695422714845174E9, 0.0, 2023-09-22 17:45:14.845
132.0, -71808.66710050906, 72158.31543902343, -5416.319419898918, 14468.664165576001, 57528.2269749912, 47344.59338719767, -187500.02235174447, 53819.93845938903, 64029.20949807281, 79595.4337233822, 34301.50113123669, 9110.503984749792, 62598.80961165543, 41881.00002777577, 10831.722418275169, 26040.519897999755, 0.1, 1.01, 0.076, 192.0, 1.5, 16.0, 15.5, 72.0, 1.0, 48.0, 0.0, 0.0, 0.0, 1.695422714845177E9, 0.0, 2023-09-22 17:45:14.845
134.0, -71636.98335134785, 72294.97400462317, -5441.688649855691, 14512.317122497216, 57498.00741648763, 47334.04336381476, -187500.02235174447, 53906.7749865979, 64167.32092706215, 79637.52205819155, 34320.88009367944, 9103.306723035184, 62585.845599871354, 41860.391719387975, 10909.171212812807, 26109.944416277936, 0.1, 1.01, 0.076, 192.0, 0.0, 0.0, 0.0, 0.0, 0.0, 0.0, 0.0, 0.0, 0.0, 1.695422714904865E9, 0.0, 2023-09-22 17:45:14.904
136.0, -71771.60790820216, 72191.4407243062, -5424.254289180552, 14470.675822576979, 57508.400977659345, 47332.70225914744, -187500.02235174447, 53838.13277937565, 64068.86149273652, 79598.56296760595, 34291.46519797626, 9101.719749178857, 62581.26349225802, 41859.4305943764, 10855.012935997598, 26065.82207272316, 0.1, 1.01, 0.076, 192.0, 0.0, 0.0, 0.0, 0.0, 0.0, 0.0, 0.0, 0.0, 0.0, 1.695422714904878E9, 0.0, 2023-09-22 17:45:14.904
138.0, -71600.66176660798, 72316.05169964454, -5435.944251530677, 14518.419148733516, 57495.258151919625, 47333.46221845892, -187500.02235174447, 53909.90423082164, 64162.0459153707, 79636.85150585789, 34319.09195412302, 9101.22801080084, 62574.62502415479, 41850.400489616455, 10933.556966013548, 26125.70239611893, 0.1, 1.01, 0.076, 192.0, 0.0, 0.0, 0.0, 0.0, 0.0, 0.0, 0.0, 0.0, 0.0, 1.695422714904882E9, 0.0, 2023-09-22 17:45:14.904
140.0, -71750.06082654725, 72202.48248606712, -5412.541975085971, 14466.451342874927, 57503.14831771235, 47327.382543967076, -187500.02235174447, 53815.311648286784, 64084.68652781088, 79620.60178763888, 34313.16874184236, 9114.504947007294, 62580.70469864663, 41866.65020783546, 10890.038119559065, 26087.726782289363, 0.1, 1.01, 0.076, 192.0, 0.0, 0.0, 0.0, 0.0, 0.0, 0.0, 0.0, 0.0, 0.0, 1.695422714904885E9, 0.0, 2023-09-22 17:45:14.904
142.0, -71608.84250507862, 72304.85347567243, -5431.9432892731775, 14525.750520914857, 57496.174573442295, 47324.25329974334, -187500.02235174447, 53901.09764350625, 64125.657275397454, 79620.33356670542, 34339.70026251081, 9118.774130198257, 62581.75523063603, 41861.82223103312, 10913.328637281495, 26102.79185805224, 0.09, 1.008, 0.076, 192.0, 1.0, 104.0, 15.5, 64.0, 1.0, 48.0, 0.0, 0.0, 0.0, 1.695422714904889E9, 0.0, 2023-09-22 17:45:14.904
144.0, -71765.19295754349, 72187.50681728206, -5402.036655191977, 14454.895490991532, 57512.75956782813, 47326.93550907797, -187500.02235174447, 53799.866592868166, 64094.990682004776, 79637.52205819155, 34313.03463137563, 9114.907278407489, 62581.73287889158, 41873.31102768314, 10891.982721326676, 26086.11745668858, 0.09, 1.008, 0.076, 192.0, 0.0, 0.0, 0.0, 0.0, 0.0, 0.0, 0.0, 0.0, 0.0, 1.695422714904892E9, 0.0, 2023-09-22 17:45:14.904
146.0, -71655.40118877903, 72268.01780081008, -5437.419466664728, 14529.997352361364, 57502.90244852334, 47330.0200498128, -187500.02235174447, 53886.412547399115, 64078.629205063495, 79614.03037476902, 34339.02971017715, 9130.732313481845, 62593.86987613081, 41874.33920792809, 10858.745677321635, 26053.193337105913, 0.09, 1.008, 0.076, 192.0, 0.0, 0.0, 0.0, 0.0, 0.0, 0.0, 0.0, 0.0, 0.0, 1.695422714904895E9, 0.0, 2023-09-22 17:45:14.904
148.0, -71765.6846959215, 72188.11031438236, -5422.063818223932, 14438.779883239256, 57496.37573914239, 47308.83059606917, -187500.02235174447, 53795.5974096772, 64113.00618803575, 79640.4501367152, 34304.40685801588, 9099.551629966692, 62571.27226248649, 41854.64732106296, 10886.01480555711, 26083.30113688721, 0.09, 1.008, 0.076, 192.0, 0.0, 0.0, 0.0, 0.0, 0.0, 0.0, 0.0, 0.0, 0.0, 1.695422714904898E9, 0.0, 2023-09-22 17:45:14.904
150.0, -71673.43904655446, 72250.58344013494, -5448.796504592479, 14504.717529382413, 57499.23676243267, 47317.05603802873, -187500.02235174447, 53875.99663448294, 64052.745884984244, 79593.2879559145, 34318.66727097837, 9095.684778175924, 62581.97874808058, 41848.232370404294, 10843.814712025489, 26044.87848816854, 0.09, 1.008, 0.076, 192.0, 0.0, 0.0, 0.0, 0.0, 0.0, 0.0, 0.0, 0.0, 0.0, 1.695422714965128E9, 0.0, 2023-09-22 17:45:14.965
152.0, -71758.46508246244, 72190.05491614997, -5424.097826969365, 14427.626362756058, 57486.76448902661, 47304.1143779891, -187500.02235174447, 53788.109575284674, 64135.31322900215, 79634.16929652325, 34292.158102054374, 9078.764507623257, 62568.41123919621, 41833.74843999725, 10903.002131343143, 26102.25541618531, 0.094, 1.004, 0.08, 192.0, 1.0, 120.0, 15.5, 48.0, 1.0, 64.0, 0.0, 0.0, 0.0, 1.695422714965137E9, 0.0, 2023-09-22 17:45:14.965
154.0, -71701.51283759033, 72227.18116369023, -5452.909225572255, 14506.840945105667, 57495.14639319735, 47314.999677538835, -187500.02235174447, 53863.14438142114, 64032.38344578546, 79574.28897312749, 34310.531235996634, 9093.673121174947, 62586.58320743838, 41845.147829669455, 10824.167528649275, 26028.651121693983, 0.094, 1.004, 0.08, 192.0, 0.0, 0.0, 0.0, 0.0, 0.0, 0.0, 0.0, 0.0, 0.0, 1.69542271496514E9, 0.0, 2023-09-22 17:45:14.965
156.0, -71735.9345240515, 72207.31046286947, -5435.363106174839, 14435.114197148587, 57475.61096854341, 47302.10272098812, -187500.02235174447, 53793.85397360969, 64142.77871165022, 79631.35297672189, 34283.73149439472, 9080.46324020186, 62566.53369266197, 41833.86019871953, 10908.38890175687, 26107.64218659904, 0.094, 1.004, 0.08, 192.0, 0.0, 0.0, 0.0, 0.0, 0.0, 0.0, 0.0, 0.0, 0.0, 1.695422714965144E9, 0.0, 2023-09-22 17:45:14.965
158.0, -71721.27177968882, 72209.47858208163, -5450.204664493163, 14501.29771248075, 57489.55845708352, 47325.214424754915, -187500.02235174447, 53844.36891607868, 64012.51274496469, 79568.70103701366, 34295.510863722666, 9092.197906040896, 62582.068155058405, 41843.47144883531, 10815.673865756258, 26018.995168089292, 0.094, 1.004, 0.08, 192.0, 0.0, 0.0, 0.0, 0.0, 0.0, 0.0, 0.0, 0.0, 0.0, 1.695422714965147E9, 0.0, 2023-09-22 17:45:14.965
160.0, -71721.65175934456, 72216.07234669595, -5429.797521805468, 14445.843034487134, 57462.9151776928, 47311.98219203737, -187500.02235174447, 53802.05706382478, 64164.258738071774, 79633.58815116742, 34291.39814274289, 9084.50890594827, 62568.85827408532, 41836.58711154308, 10908.9253436238, 26104.177666208467, 0.094, 1.004, 0.08, 192.0, 0.0, 0.0, 0.0, 0.0, 0.0, 0.0, 0.0, 0.0, 0.0, 1.69542271496515E9, 0.0, 2023-09-22 17:45:14.965
162.0, -71716.48850637538, 72206.21522739115, -5443.588548134393, 14504.53871542677, 57479.254302889625, 47324.90150033254, -187500.02235174447, 53855.03069818386, 64021.788718913645, 79554.99941766256, 34300.09297133601, 9088.755737394778, 62574.021527054494, 41840.07398367811, 10822.915830959777, 26026.393595504, 0.096, 1.01, 0.076, 192.0, 1.5, 0.0, 15.5, 72.0, 1.0, 48.0, 0.0, 0.0, 0.0, 1.695422714965153E9, 0.0, 2023-09-22 17:45:14.965
164.0, -71661.77143594879, 72251.58926863543, -5433.843187551879, 14461.422200372483, 57451.09110487594, 47308.47296815789, -187500.02235174447, 53822.33009604575, 64197.29461637672, 79641.2995030045, 34303.915119637866, 9086.65467341598, 62563.22563448258, 41833.815495230614, 10948.040896420587, 26133.681968889472, 0.096, 1.01, 0.076, 192.0, 0.0, 0.0, 0.0, 0.0, 0.0, 0.0, 0.0, 0.0, 0.0, 1.695422715025439E9, 0.0, 2023-09-22 17:45:15.025
166.0, -71702.7198317909, 72209.00919544807, -5439.297013198974, 14507.220924761406, 57477.39910809984, 47328.45542770093, -187500.02235174447, 53846.73820099094, 64024.62739045947, 79573.529013816, 34305.21152081627, 9097.092938076608, 62568.52299791849, 41841.728012767795, 10846.251052171117, 26043.42562477894, 0.096, 1.01, 0.076, 192.0, 0.0, 0.0, 0.0, 0.0, 0.0, 0.0, 0.0, 0.0, 0.0, 1.695422715025451E9, 0.0, 2023-09-22 17:45:15.025
168.0, -71629.51786869978, 72266.22966125366, -5419.560422844937, 14476.844904046644, 57460.27767184707, 47320.05117178574, -187500.02235174447, 53828.78975019333, 64197.69694777691, 79649.48024147515, 34305.77031442765, 9092.935513607921, 62561.19162573715, 41835.022489431205, 10974.147733944385, 26150.713998164418, 0.096, 1.01, 0.076, 192.0, 0.0, 0.0, 0.0, 0.0, 0.0, 0.0, 0.0, 0.0, 0.0, 1.695422715025455E9, 0.0, 2023-09-22 17:45:15.025
170.0, -71731.62063737163, 72176.95679389915, -5419.113387955831, 14507.39973871705, 57488.95495998323, 47339.36307899512, -187500.02235174447, 53827.18042459255, 64003.326177993564, 79572.61259229334, 34311.31354705257, 9114.840223174122, 62586.6726144162, 41860.90580951045, 10834.963421221188, 26024.694862925397, 0.096, 1.01, 0.076, 192.0, 0.0, 0.0, 0.0, 0.0, 0.0, 0.0, 0.0, 0.0, 0.0, 1.695422715025458E9, 0.0, 2023-09-22 17:45:15.025
172.0, -71645.4099590075, 72246.4036639218, -5414.620687320315, 14491.8205728317, 57460.2106166137, 47326.399067211045, -187500.02235174447, 53832.47778802846, 64182.430706313935, 79655.80578515599, 34327.83148620504, 9113.163842339975, 62581.174085280196, 41855.653149563455, 10934.451035791759, 26114.101840746625, 0.094, 1.01, 0.076, 192.0, 1.0, 120.0, 15.5, 72.0, 1.0, 48.0, 0.0, 0.0, 0.0, 1.695422715025462E9, 0.0, 2023-09-22 17:45:15.025
174.0, -71732.80527982775, 72168.12785483932, -5431.362143917339, 14495.240389733362, 57471.98998594165, 47317.74894210684, -187500.02235174447, 53824.945250147015, 64022.079291591566, 79586.3365633889, 34310.397125529904, 9101.8985631345, 62578.40246896774, 41843.404393601944, 10820.054807669498, 26018.01169133326, 0.094, 1.01, 0.076, 192.0, 0.0, 0.0, 0.0, 0.0, 0.0, 0.0, 0.0, 0.0, 0.0, 1.695422715025465E9, 0.0, 2023-09-22 17:45:15.025
176.0, -71625.42749946445, 72248.3482656894, -5418.465187366627, 14483.259854705317, 57458.645994501836, 47318.50890141832, -187500.02235174447, 53848.593395780736, 64186.25285461579, 79644.62991292834, 34326.31156758208, 9085.961769337866, 62569.707640374625, 41822.147884624945, 10942.184739373295, 26118.728651848873, 0.094, 1.01, 0.076, 192.0, 0.0, 0.0, 0.0, 0.0, 0.0, 0.0, 0.0, 0.0, 0.0, 1.695422715025469E9, 0.0, 2023-09-22 17:45:15.025
178.0, -71786.44946652048, 72125.30191246295, -5416.095902454365, 14479.415354659004, 57485.87041924839, 47327.76252362282, -187500.02235174447, 53811.15422381809, 64012.825669387064, 79581.19566216417, 34313.816942431564, 9101.920914878954, 62588.19253303916, 41843.337338368576, 10802.575743505447, 25991.90485380946, 0.094, 1.01, 0.076, 192.0, 0.0, 0.0, 0.0, 0.0, 0.0, 0.0, 0.0, 0.0, 0.0, 1.695422715025472E9, 0.0, 2023-09-22 17:45:15.025
180.0, -71651.51198524381, 72229.52809685805, -5425.438931636683, 14499.934256068977, 57459.74122998014, 47327.583709667175, -187500.02235174447, 53859.74691626393, 64162.60470898208, 79638.61729366986, 34334.604064775, 9099.573981711148, 62575.988480566564, 41827.825227716596, 10892.049776560043, 26069.755979747293, 0.094, 1.01, 0.076, 192.0, 0.0, 0.0, 0.0, 0.0, 0.0, 0.0, 0.0, 0.0, 0.0, 1.695422715085484E9, 0.0, 2023-09-22 17:45:15.085
182.0, -71778.35813502767, 72124.56430489592, -5425.4836351255935, 14471.01109874381, 57467.20671262821, 47318.285383973765, -187500.02235174447, 53805.387473748626, 64046.64385874795, 79585.24132791058, 34311.55941624158, 9089.873324617545, 62571.652242142234, 41825.90297769344, 10808.431900552738, 25999.079763779613, 0.09, 1.008, 0.084, 192.0, 1.0, 104.0, 15.5, 64.0, 1.0, 80.0, 0.0, 0.0, 0.0, 1.695422715085493E9, 0.0, 2023-09-22 17:45:15.085
184.0, -71642.48188048386, 72226.57766658995, -5422.466149624128, 14498.704910123935, 57459.048325902026, 47319.98411655237, -187500.02235174447, 53860.395116853135, 64165.577490994634, 79621.29469171699, 34330.49134379523, 9084.732423392823, 62569.841750841355, 41818.862178190015, 10892.765032382613, 26067.990191935325, 0.09, 1.008, 0.084, 192.0, 0.0, 0.0, 0.0, 0.0, 0.0, 0.0, 0.0, 0.0, 0.0, 1.695422715085497E9, 0.0, 2023-09-22 17:45:15.085
186.0, -71786.91885315406, 72116.96471178111, -5424.991896747577, 14456.124836936575, 57461.082334647464, 47307.0648082572, -187500.02235174447, 53792.98225557593, 64061.910100210924, 79590.76220879104, 34308.02784061764, 9084.352443737083, 62576.16729452221, 41830.954471940335, 10807.917810430266, 25998.498618423775, 0.09, 1.008, 0.084, 192.0, 0.0, 0.0, 0.0, 0.0, 0.0, 0.0, 0.0, 0.0, 0.0, 1.6954227150855E9, 0.0, 2023-09-22 17:45:15.085
188.0, -71615.52567667076, 72241.03924525253, -5438.201777720664, 14504.96339857142, 57448.140674607836, 47309.03176176927, -187500.02235174447, 53879.058823473315, 64148.72427567533, 79608.6436043553, 34317.393221544415, 9068.706222618368, 62563.896186816244, 41809.87677691899, 10883.422003200294, 26062.245793610313, 0.09, 1.008, 0.084, 192.0, 0.0, 0.0, 0.0, 0.0, 0.0, 0.0, 0.0, 0.0, 0.0, 1.695422715085504E9, 0.0, 2023-09-22 17:45:15.085
190.0, -71755.87228010563, 72132.52152592201, -5414.1513006867535, 14453.822607257678, 57450.800532198016, 47312.22806122638, -187500.02235174447, 53791.64115090861, 64077.60102481855, 79594.04791522598, 34309.16777958486, 9076.574036666636, 62573.06040204292, 41826.975861427294, 10842.160682935797, 26030.573371717142, 0.09, 1.008, 0.084, 192.0, 0.0, 0.0, 0.0, 0.0, 0.0, 0.0, 0.0, 0.0, 0.0, 1.695422715085507E9, 0.0, 2023-09-22 17:45:15.085
192.0, -71593.01747000426, 72247.14127148883, -5432.7032485846585, 14525.370541259115, 57449.83940718644, 47315.4690641724, -187500.02235174447, 53879.52821010688, 64114.83903108109, 79603.07801998593, 34334.13467814144, 9080.977330324333, 62570.400544452736, 41820.80677995763, 10877.521142664093, 26061.150558132, 0.092, 1.008, 0.078, 192.0, 1.0, 112.0, 15.5, 64.0, 1.0, 56.0, 0.0, 0.0, 0.0, 1.69542271508551E9, 0.0, 2023-09-22 17:45:15.085
194.0, -71728.26787570333, 72144.4797092056, -5403.1765941591975, 14450.313383378194, 57454.645032244334, 47306.416607668, -187500.02235174447, 53783.5945229047, 64102.322054186116, 79625.51917141904, 34318.26493957817, 9082.385490225017, 62573.194512509646, 41827.44524806085, 10875.688299618758, 26061.195261620913, 0.092, 1.008, 0.078, 192.0, 0.0, 0.0, 0.0, 0.0, 0.0, 0.0, 0.0, 0.0, 0.0, 1.695422715145902E9, 0.0, 2023-09-22 17:45:15.145
196.0, -71624.3546157306, 72214.8430007509, -5423.606088591348, 14523.962381358431, 57458.02014565709, 47322.59927065364, -187500.02235174447, 53874.18614318206, 64077.39985911845, 79590.22576692412, 34345.288198624636, 9096.377682254039, 62584.05746031493, 41831.40150682945, 10850.609642339903, 26032.003883362282, 0.092, 1.008, 0.078, 192.0, 0.0, 0.0, 0.0, 0.0, 0.0, 0.0, 0.0, 0.0, 0.0, 1.695422715145914E9, 0.0, 2023-09-22 17:45:15.145
198.0, -71722.67993958949, 72140.81402311493, -5405.54587907146, 14455.789560769745, 57450.442904286734, 47310.0152385253, -187500.02235174447, 53792.66933115356, 64122.84095559609, 79617.24902597058, 34326.55743677109, 9092.756699652278, 62573.552140420936, 41831.55796904063, 10869.921549549288, 26054.86971794006, 0.092, 1.008, 0.078, 192.0, 0.0, 0.0, 0.0, 0.0, 0.0, 0.0, 0.0, 0.0, 0.0, 1.695422715145917E9, 0.0, 2023-09-22 17:45:15.145
200.0, -71639.64320893804, 72194.94994818568, -5421.706190312647, 14529.706779683445, 57463.13869513735, 47320.67702063049, -187500.02235174447, 53876.64483507214, 64066.69337352436, 79585.44249361068, 34343.52241081267, 9096.265923531762, 62576.279053244485, 41829.38984982847, 10825.28511587204, 26013.943673842394, 0.092, 1.008, 0.078, 192.0, 0.0, 0.0, 0.0, 0.0, 0.0, 0.0, 0.0, 0.0, 0.0, 1.695422715145921E9, 0.0, 2023-09-22 17:45:15.145
202.0, -71720.17654421051, 72133.48265093358, -5399.01916969051, 14453.196758412929, 57450.5099595201, 47306.751883834826, -187500.02235174447, 53793.20577302048, 64149.90891813146, 79633.96813082315, 34321.237721590725, 9083.592484425602, 62572.702774131634, 41823.75721022573, 10872.58140713947, 26056.72491272985, 0.098, 1.006, 0.08, 192.0, 1.5, 8.0, 15.5, 56.0, 1.0, 64.0, 0.0, 0.0, 0.0, 1.695422715145924E9, 0.0, 2023-09-22 17:45:15.145
204.0, -71660.43033128147, 72166.42912226071, -5429.015210749532, 14521.883669124089, 57455.38263981136, 47319.827654341185, -187500.02235174447, 53873.44853561503, 64042.97817265728, 79559.46976655362, 34333.30766359659, 9083.547780936693, 62577.19547476715, 41829.43455331738, 10789.298807298996, 25981.399533915464, 0.098, 1.006, 0.08, 192.0, 0.0, 0.0, 0.0, 0.0, 0.0, 0.0, 0.0, 0.0, 0.0, 1.695422715145928E9, 0.0, 2023-09-22 17:45:15.145
206.0, -71705.96083473694, 72135.24843874556, -5401.0084749470325, 14451.878005490067, 57433.72379943416, 47311.11047400361, -187500.02235174447, 53796.20090677749, 64176.12751437754, 79643.26645651656, 34320.63422449043, 9073.60125465408, 62563.47150367159, 41823.980727670285, 10878.05758453102, 26064.25745061129, 0.098, 1.006, 0.08, 192.0, 0.0, 0.0, 0.0, 0.0, 0.0, 0.0, 0.0, 0.0, 0.0, 1.695422715145931E9, 0.0, 2023-09-22 17:45:15.145
208.0, -71686.44776182744, 72135.91899107922, -5440.928690544211, 14513.479413208892, 57444.36322979489, 47312.56333739321, -187500.02235174447, 53852.6614132716, 64035.78091094267, 79559.84974620937, 34332.05596590709, 9087.861667616568, 62572.836884598364, 41823.354878825536, 10770.299824511985, 25969.687219820884, 0.098, 1.006, 0.08, 192.0, 0.0, 0.0, 0.0, 0.0, 0.0, 0.0, 0.0, 0.0, 0.0, 1.695422715145934E9, 0.0, 2023-09-22 17:45:15.145
210.0, -71688.3700118506, 72130.28635147648, -5425.3048211699515, 14436.790577982734, 57423.12907256235, 47287.663494069995, -187500.02235174447, 53787.84135435121, 64183.190665625414, 79623.28399697352, 34301.16585506986, 9052.12122823253, 62549.90399478722, 41797.85153840203, 10881.656215388324, 26071.365305348078, 0.098, 1.006, 0.08, 192.0, 0.0, 0.0, 0.0, 0.0, 0.0, 0.0, 0.0, 0.0, 0.0, 1.695422715204898E9, 0.0, 2023-09-22 17:45:15.204
212.0, -71733.20761122795, 72080.30785087441, -5448.640042381292, 14490.859447820121, 57446.821921684976, 47302.92973553297, -187500.02235174447, 53821.659543712085, 63995.637177900935, 79518.47666722258, 34306.351459783495, 9057.843274813089, 62571.89811133124, 41806.32284955059, 10735.431103161705, 25944.072120675104, 0.10200000000000001, 1.014, 0.074, 192.0, 1.5, 24.0, 15.5, 88.0, 1.0, 40.0, 0.0, 0.0, 0.0, 1.695422715204908E9, 0.0, 2023-09-22 17:45:15.204
214.0, -71669.32632557469, 72127.55943865293, -5438.581757376404, 14442.914955963488, 57412.914325346275, 47281.13678468905, -187500.02235174447, 53799.77718589034, 64183.88356970353, 79595.90311001577, 34294.72855266673, 9028.78600702119, 62542.013828994495, 41773.46578520129, 10865.115924491398, 26064.21274712238, 0.10200000000000001, 1.014, 0.074, 192.0, 0.0, 0.0, 0.0, 0.0, 0.0, 0.0, 0.0, 0.0, 0.0, 1.695422715204911E9, 0.0, 2023-09-22 17:45:15.204
216.0, -71726.21151521344, 72068.260260613, -5447.7906760919905, 14487.663148363014, 57443.3574012944, 47302.32623843268, -187500.02235174447, 53820.78782567833, 63999.77225062517, 79509.11128629581, 34296.561395712066, 9044.722800817824, 62557.99532628004, 41792.15184356592, 10742.628364876315, 25956.633801058986, 0.10200000000000001, 1.014, 0.074, 192.0, 0.0, 0.0, 0.0, 0.0, 0.0, 0.0, 0.0, 0.0, 0.0, 1.695422715204915E9, 0.0, 2023-09-22 17:45:15.204
218.0, -71639.75496766031, 72132.36506371082, -5442.158036489253, 14454.38140086906, 57412.4002352238, 47288.46815687039, -187500.02235174447, 53818.731465188444, 64182.74363073631, 79598.3841536503, 34300.71882018075, 9025.768521519723, 62543.690209828645, 41777.17617478087, 10877.38703219736, 26071.097084414614, 0.10200000000000001, 1.014, 0.074, 192.0, 0.0, 0.0, 0.0, 0.0, 0.0, 0.0, 0.0, 0.0, 0.0, 1.695422715204918E9, 0.0, 2023-09-22 17:45:15.204
220.0, -71762.37663774213, 72031.71515842857, -5437.732391087102, 14473.514494122803, 57439.334087292445, 47303.533232633265, -187500.02235174447, 53796.93851434452, 63978.314575948076, 79510.69826015214, 34299.154198068885, 9048.544949119681, 62564.879663572276, 41806.32284955059, 10731.296030437474, 25939.24414387276, 0.10200000000000001, 1.014, 0.074, 192.0, 0.0, 0.0, 0.0, 0.0, 0.0, 0.0, 0.0, 0.0, 0.0, 1.695422715204921E9, 0.0, 2023-09-22 17:45:15.204
222.0, -71635.55283970271, 72129.61579914282, -5443.275623712018, 14466.697212063935, 57409.18158402224, 47287.70819755891, -187500.02235174447, 53827.26983157037, 64168.259700329276, 79586.71654304463, 34304.71978243825, 9034.97744023531, 62543.28787842845, 41778.807852126105, 10851.838988284944, 26055.40615980699, 0.098, 1.012, 0.078, 192.0, 1.5, 8.0, 15.5, 80.0, 1.0, 56.0, 0.0, 0.0, 0.0, 1.695422715204925E9, 0.0, 2023-09-22 17:45:15.204
224.0, -71767.67400117803, 72024.42848973615, -5436.972431775622, 14460.282261405262, 57436.115436090884, 47294.100796473125, -187500.02235174447, 53798.30197075629, 63997.02298605716, 79510.29592875195, 34290.50407296468, 9040.431265882406, 62554.173177978184, 41788.01677084169, 10736.07930375091, 25960.523004594208, 0.098, 1.012, 0.078, 192.0, 0.0, 0.0, 0.0, 0.0, 0.0, 0.0, 0.0, 0.0, 0.0, 1.695422715265101E9, 0.0, 2023-09-22 17:45:15.265
226.0, -71632.87063036808, 72127.53708690847, -5439.609937621348, 14469.044145231743, 57410.58974392292, 47285.987113235846, -187500.02235174447, 53840.88204394365, 64152.591127466105, 79573.05962718245, 34310.57593948555, 9035.35741989105, 62548.942869775645, 41778.94196259284, 10840.551357335014, 26051.338142316123, 0.098, 1.012, 0.078, 192.0, 0.0, 0.0, 0.0, 0.0, 0.0, 0.0, 0.0, 0.0, 0.0, 1.695422715265112E9, 0.0, 2023-09-22 17:45:15.265
228.0, -71786.98590838742, 72004.244864493, -5433.753780574058, 14456.19189216994, 57434.439055256735, 47291.4632906274, -187500.02235174447, 53784.756813616375, 63996.35243372351, 79508.97717582907, 34299.62358470244, 9042.398219394472, 62561.70571585962, 41792.241250543746, 10725.730446068103, 25955.762083025227, 0.098, 1.012, 0.078, 192.0, 0.0, 0.0, 0.0, 0.0, 0.0, 0.0, 0.0, 0.0, 0.0, 1.695422715265115E9, 0.0, 2023-09-22 17:45:15.265
230.0, -71600.46060090789, 72142.28923824898, -5453.445667439183, 14487.752555340834, 57402.18548800773, 47277.98518872085, -187500.02235174447, 53855.8130092398, 64144.25392678427, 79557.32399908591, 34306.73143943923, 9025.50030058626, 62543.399637150724, 41772.83993635654, 10838.62910731186, 26056.613154007573, 0.098, 1.012, 0.078, 192.0, 0.0, 0.0, 0.0, 0.0, 0.0, 0.0, 0.0, 0.0, 0.0, 1.695422715265119E9, 0.0, 2023-09-22 17:45:15.265
232.0, -71757.79453012878, 72016.6500826657, -5435.296050941473, 14446.468883331881, 57421.87737487285, 47292.58087785017, -187500.02235174447, 53781.694624626, 64017.877163633966, 79527.73028942708, 34289.20767178627, 9033.435169867895, 62550.59689886533, 41787.01094234121, 10760.12978078482, 25990.072010764125, 0.098, 1.012, 0.08600000000000001, 192.0, 1.5, 8.0, 15.5, 80.0, 1.0, 88.0, 0.0, 0.0, 0.0, 1.695422715265122E9, 0.0, 2023-09-22 17:45:15.265
234.0, -71603.96982478736, 72130.39811019876, -5446.248405724574, 14492.133497254074, 57404.04068279752, 47298.772311064284, -187500.02235174447, 53853.711945261, 64121.14222301749, 79553.90418218424, 34315.53802675462, 9034.26218441274, 62546.6629918412, 41780.774805638175, 10827.676752528758, 26049.885278926526, 0.098, 1.012, 0.08600000000000001, 192.0, 0.0, 0.0, 0.0, 0.0, 0.0, 0.0, 0.0, 0.0, 0.0, 1.695422715265125E9, 0.0, 2023-09-22 17:45:15.265
236.0, -71753.39123647108, 72014.05728030889, -5431.049219494966, 14441.015057684786, 57405.918229331764, 47300.3145814317, -187500.02235174447, 53777.73836585741, 64036.22794583177, 79541.74483320056, 34289.721761908746, 9031.825844267112, 62547.64646859723, 41793.44824474433, 10768.489333211104, 26002.81250510365, 0.098, 1.012, 0.08600000000000001, 192.0, 0.0, 0.0, 0.0, 0.0, 0.0, 0.0, 0.0, 0.0, 0.0, 1.695422715265128E9, 0.0, 2023-09-22 17:45:15.265
238.0, -71603.0981067536, 72123.89375256226, -5447.656565625259, 14506.639779405568, 57408.153403777294, 47311.89278505955, -187500.02235174447, 53857.668204029585, 64091.749679058754, 79552.60778100583, 34311.514712752665, 9036.899690258466, 62550.08280874286, 41789.62609644247, 10799.938237659722, 26031.065110095158, 0.098, 1.012, 0.08600000000000001, 192.0, 0.0, 0.0, 0.0, 0.0, 0.0, 0.0, 0.0, 0.0, 0.0, 1.695422715265131E9, 0.0, 2023-09-22 17:45:15.265
240.0, -71735.17456474001, 72023.82499263585, -5424.164882202731, 14447.027676943264, 57410.321522989456, 47305.61194486761, -187500.02235174447, 53760.773391815834, 64065.48637932377, 79554.19475486217, 34290.54877645359, 9035.379771635506, 62549.99340176504, 41792.80004415513, 10779.151115316286, 26020.984473345816, 0.098, 1.012, 0.08600000000000001, 192.0, 0.0, 0.0, 0.0, 0.0, 0.0, 0.0, 0.0, 0.0, 0.0, 1.695422715326299E9, 0.0, 2023-09-22 17:45:15.326
242.0, -71593.55391187119, 72125.23485722957, -5440.191082977186, 14517.25685802184, 57408.66749389977, 47316.29607871724, -187500.02235174447, 53859.501047074926, 64081.981966731786, 79548.56211525942, 34317.5496837556, 9039.559547848648, 62552.72031458859, 41782.78646263915, 10793.61269397887, 26034.86490665256, 0.10400000000000001, 1.006, 0.076, 192.0, 1.5, 32.0, 15.5, 56.0, 1.0, 48.0, 0.0, 0.0, 0.0, 1.69542271532631E9, 0.0, 2023-09-22 17:45:15.326
244.0, -71723.57400936772, 72031.80456540639, -5410.1056349403425, 14443.116121663586, 57412.199069523704, 47310.19405248095, -187500.02235174447, 53774.005624533376, 64083.83716152158, 79576.94883071767, 34298.81892190206, 9046.198015951875, 62551.40156166573, 41793.1129685775, 10795.333778301929, 26041.43631952242, 0.10400000000000001, 1.006, 0.076, 192.0, 0.0, 0.0, 0.0, 0.0, 0.0, 0.0, 0.0, 0.0, 0.0, 1.695422715326314E9, 0.0, 2023-09-22 17:45:15.326
246.0, -71613.11168826958, 72108.49340063255, -5437.084190497898, 14521.838965635177, 57415.39536898081, 47315.625526383585, -187500.02235174447, 53863.412602354605, 64048.7672744712, 79560.20737412064, 34318.309643067085, 9051.629489854515, 62557.16831173519, 41800.757265181215, 10761.806161618968, 26009.92035984044, 0.10400000000000001, 1.006, 0.076, 192.0, 0.0, 0.0, 0.0, 0.0, 0.0, 0.0, 0.0, 0.0, 0.0, 1.695422715326318E9, 0.0, 2023-09-22 17:45:15.326
248.0, -71687.61005253912, 72053.5081092725, -5413.480748353094, 14446.513586820793, 57403.72775837514, 47301.096892487636, -187500.02235174447, 53782.29812172629, 64107.842935066576, 79589.62226982383, 34289.81116888657, 9037.0338007252, 62545.791273807445, 41787.03329408566, 10811.270572098563, 26060.63646800953, 0.10400000000000001, 1.006, 0.076, 192.0, 0.0, 0.0, 0.0, 0.0, 0.0, 0.0, 0.0, 0.0, 0.0, 1.695422715326322E9, 0.0, 2023-09-22 17:45:15.326
250.0, -71613.91635106997, 72105.87824653128, -5429.439893894183, 14519.715549911924, 57425.09602607442, 47320.56526190821, -187500.02235174447, 53874.07438445978, 64019.95587586831, 79538.14620234325, 34316.52150351066, 9052.344745677085, 62561.54925364844, 41804.37824778298, 10751.636117891803, 26007.931054583914, 0.10400000000000001, 1.006, 0.076, 192.0, 0.0, 0.0, 0.0, 0.0, 0.0, 0.0, 0.0, 0.0, 0.0, 1.695422715326325E9, 0.0, 2023-09-22 17:45:15.326
252.0, -71670.60037500864, 72069.84723446933, -5406.9763907166, 14445.083075175653, 57415.7529968921, 47305.008447767315, -187500.02235174447, 53812.18240406304, 64122.46097594035, 79601.4910461296, 34306.26205280567, 9044.78985605119, 62552.58620412186, 41811.240233330755, 10823.742845504625, 26076.886186228538, 0.098, 1.012, 0.074, 192.0, 1.5, 8.0, 15.5, 80.0, 1.0, 40.0, 0.0, 0.0, 0.0, 1.695422715326329E9, 0.0, 2023-09-22 17:45:15.326
254.0, -71614.09516502562, 72102.92781626318, -5438.022963765021, 14523.15771855804, 57438.37296228087, 47314.95497404993, -187500.02235174447, 53892.4698701465, 64014.07736707656, 79532.4241557627, 34323.13761986943, 9063.341803949095, 62565.371401950295, 41815.598823499546, 10734.894661294778, 26001.270234736236, 0.098, 1.012, 0.074, 192.0, 0.0, 0.0, 0.0, 0.0, 0.0, 0.0, 0.0, 0.0, 0.0, 1.695422715326333E9, 0.0, 2023-09-22 17:45:15.326
0.0, -71623.59465641913, 72099.03861272796, -5410.552669829449, 14456.258947403307, 57433.053247100506, 47303.242659955344, -187500.02235174447, 53834.243575840424, 64165.59984273909, 79622.18876149521, 34315.51567501017, 9055.831617812111, 62551.22274771008, 41817.252852589234, 10846.228700426664, 26102.54598886323, 0.098, 1.012, 0.074, 192.0, 0.0, 0.0, 0.0, 0.0, 0.0, 0.0, 0.0, 0.0, 0.0, 1.695422715386608E9, 0.0, 2023-09-22 17:45:15.386
2.0, -71650.52850848777, 72073.02118218198, -5424.656620580748, 14518.128576055597, 57476.79561099954, 47326.98021256688, -187500.02235174447, 53880.19876244054, 63999.481677947246, 79537.83327792089, 34339.767317744176, 9084.866533859557, 62580.50353294653, 41849.081736693595, 10719.628419831804, 25985.08757175059, 0.098, 1.012, 0.074, 192.0, 0.0, 0.0, 0.0, 0.0, 0.0, 0.0, 0.0, 0.0, 0.0, 1.695422715386617E9, 0.0, 2023-09-22 17:45:15.386
4.0, -71616.62091214907, 72109.18630471067, -5421.639135079281, 14463.053877717719, 57457.4613520457, 47308.27180245779, -187500.02235174447, 53849.912148703595, 64174.09350563211, 79626.12266851934, 34337.97917818775, 9082.340786736106, 62563.47150367159, 41842.04093719017, 10826.335647861439, 26082.764695020283, 0.098, 1.012, 0.074, 192.0, 0.0, 0.0, 0.0, 0.0, 0.0, 0.0, 0.0, 0.0, 0.0, 1.695422715386621E9, 0.0, 2023-09-22 17:45:15.386
