%OpenBCI Raw EXG Data
%Number of channels = 16
%Sample Rate = 125 Hz
%Board = OpenBCI_GUI$BoardCytonSerialDaisy
Sample Index, EXG Channel 0, EXG Channel 1, EXG Channel 2, EXG Channel 3, EXG Channel 4, EXG Channel 5, EXG Channel 6, EXG Channel 7, EXG Channel 8, EXG Channel 9, EXG Channel 10, EXG Channel 11, EXG Channel 12, EXG Channel 13, EXG Channel 14, EXG Channel 15, Accel Channel 0, Accel Channel 1, Accel Channel 2, Other, Other, Other, Other, Other, Other, Other, Analog Channel 0, Analog Channel 1, Analog Channel 2, Timestamp, Other, Timestamp (Formatted)
204.0, -187500.02235174447, 18449.263983877183, -19995.11063040622, -34832.556227750334, 1432.9703370297357, 8735.061733134, -187500.02235174447, -3933.080009589197, 18872.471913393965, 11427.26229754237, -24750.17604233933, -4748.94103395236, 22563.527234021098, -3721.0290099416984, 14758.007497549952, -15943.164043803697, 0.0, 0.0, 0.0, 192.0, 0.0, 0.0, 0.0, 0.0, 0.0, 0.0, 0.0, 0.0, 0.0, 1.69567772191363E9, 0.0, 2023-09-25 16:35:21.913
206.0, -187500.02235174447, 18467.435952119347, -19987.533389035867, -34819.45810549952, 1463.1004885554896, 8738.660363991305, -187500.02235174447, -3924.6981054184566, 18876.361116929187, 11470.915254463585, -24711.68633838729, -4703.11995781898, 22634.225801733235, -3638.5510729016155, 14762.433142952103, -15965.068753369898, 0.0, 0.0, 0.0, 192.0, 0.0, 0.0, 0.0, 0.0, 0.0, 0.0, 0.0, 0.0, 0.0, 1.69567772191364E9, 0.0, 2023-09-25 16:35:21.913
208.0, -187500.02235174447, 18477.382478401956, -19974.77054295189, -34809.73509666146, 1395.218240644722, 8751.154989141822, -187500.02235174447, -3914.863337858121, 18867.59923310271, 11424.758902163376, -24760.27903083313, -4771.672758063407, 22549.199765825244, -3712.602402282048, 14764.310689486349, -15927.942505829635, 0.0, 0.0, 0.0, 192.0, 0.0, 0.0, 0.0, 0.0, 0.0, 0.0, 0.0, 0.0, 0.0, 1.695677721913644E9, 0.0, 2023-09-25 16:35:21.913
210.0, -187500.02235174447, 18464.41846661788, -19988.740383236454, -34819.636919455166, 1442.0227935341352, 8747.534006540061, -187500.02235174447, -3928.7884746537775, 18875.86937855117, 11459.69467874702, -24720.627036169415, -4772.902104008449, 22556.307620562035, -3680.147669332942, 14768.78103837741, -15951.657706696715, 0.0, 0.0, 0.0, 192.0, 0.0, 0.0, 0.0, 0.0, 0.0, 0.0, 0.0, 0.0, 0.0, 1.695677721913647E9, 0.0, 2023-09-25 16:35:21.913
212.0, -187500.02235174447, 18479.55059761412, -19974.032935384865, -34794.60296566522, 1373.8499729454486, 8759.894521223847, -187500.02235174447, -3904.805052853233, 18864.78291330134, 11428.223422553949, -24754.534632508115, -4801.489985166787, 22494.750916332116, -3717.9444692068664, 14761.44966619607, -15925.841441850835, 0.094, 0.451, 0.211, 192.0, 2.5, 112.0, 14.0, 24.0, 6.5, 24.0, 0.0, 0.0, 0.0, 1.695677721913651E9, 0.0, 2023-09-25 16:35:21.913
214.0, -187500.02235174447, 18459.389324115436, -19987.823961713788, -34809.24335828345, 1432.0539155070683, 8751.087933908455, -187500.02235174447, -3924.6981054184566, 18878.73040184145, 11461.102838647705, -24738.150803822376, -4829.653183180473, 22475.77428528956, -3707.7073702463354, 14776.224169281028, -15940.258317024509, 0.094, 0.451, 0.211, 192.0, 0.0, 0.0, 0.0, 0.0, 0.0, 0.0, 0.0, 0.0, 0.0, 1.695677721913654E9, 0.0, 2023-09-25 16:35:21.913
216.0, -187500.02235174447, 18463.099713695017, -19980.269072087893, -34801.77787563537, 1360.1260018498901, 8749.791532730047, -187500.02235174447, -3918.8866518600767, 18849.673134049553, 11435.420684268556, -24759.586126755017, -4842.3713257755435, 22447.074645408946, -3717.83271048459, 14757.739276616488, -15930.222383764076, 0.094, 0.451, 0.211, 192.0, 0.0, 0.0, 0.0, 0.0, 0.0, 0.0, 0.0, 0.0, 0.0, 1.695677721913657E9, 0.0, 2023-09-25 16:35:21.913
218.0, -187500.02235174447, 18472.710963810798, -19977.296290075337, -34803.49895995843, 1422.0179822466353, 8754.574806043483, -187500.02235174447, -3923.4464077289595, 18867.621584847162, 11439.958088392985, -24750.265449317154, -4894.473242100864, 22414.619912459842, -3739.35744039505, 14765.227111009017, -15938.82780537937, 0.094, 0.451, 0.211, 192.0, 0.0, 0.0, 0.0, 0.0, 0.0, 0.0, 0.0, 0.0, 0.0, 1.695677721913661E9, 0.0, 2023-09-25 16:35:21.913
220.0, -187500.02235174447, 18464.105542195506, -19981.364307566204, -34807.11994256019, 1348.7042604332282, 8734.167663355787, -187500.02235174447, -3925.882747874588, 18864.760561556883, 11443.400257039102, -24743.694036447294, -4893.579172322652, 22399.733650652608, -3730.908480990944, 14758.432180694603, -15935.363284988796, 0.094, 0.451, 0.211, 192.0, 0.0, 0.0, 0.0, 0.0, 0.0, 0.0, 0.0, 0.0, 0.0, 1.695677721913664E9, 0.0, 2023-09-25 16:35:21.913
0.0, -93750.01117587223, 9182.454250151426, -9980.4562306948, -17400.05074740061, 615.8352632326202, 4073.9183514020865, -93750.01117587223, -2074.018368007942, 9430.91624151662, 5711.205984497784, -12380.474791583394, -2488.822041609531, 11163.198788547372, -1898.2218978669523, 7377.416774918649, -7979.863343222541, 0.192, 0.904, 0.418, 192.0, 3.0, 0.0, 14.0, 32.0, 6.5, 8.0, 0.0, 0.0, 0.0, 1.695677722046873E9, 0.0, 2023-09-25 16:35:22.046
2.0, -187500.02235174447, 18342.333238402993, -19987.19811286904, -34831.08101261628, 1289.1592132042902, 8153.134066240081, -187500.02235174447, -4175.9093613516525, 18136.67483766971, 10984.206018949273, -24694.117867245423, -4696.816765882583, 22380.779371354507, -3642.3285177145626, 14499.10724152413, -16103.358996314884, 0.192, 0.904, 0.418, 192.0, 0.0, 0.0, 0.0, 0.0, 0.0, 0.0, 0.0, 0.0, 0.0, 1.695677722046891E9, 0.0, 2023-09-25 16:35:22.046
4.0, -187500.02235174447, 18355.38665716489, -19981.990156410953, -34818.54168397685, 1281.3137509004773, 8143.65692659103, -187500.02235174447, -4175.015291573441, 18139.312343515438, 11040.890042887931, -24647.134500400367, -4602.648866492375, 22478.63530857984, -3538.482312975206, 14497.989654301366, -16121.66507502378, 0.192, 0.904, 0.418, 192.0, 0.0, 0.0, 0.0, 0.0, 0.0, 0.0, 0.0, 0.0, 0.0, 1.695677722046894E9, 0.0, 2023-09-25 16:35:22.046
6.0, -187500.02235174447, 18356.280726943103, -19979.531464520867, -34818.631090954674, 1263.4770588251424, 8152.105885995136, -187500.02235174447, -4174.478849706513, 18132.852689367854, 10969.230350164218, -24697.98471903619, -4680.12001277447, 22387.887226091294, -3630.4820931532495, 14490.367709442105, -16107.874048694855, 0.192, 0.904, 0.418, 192.0, 0.0, 0.0, 0.0, 0.0, 0.0, 0.0, 0.0, 0.0, 0.0, 1.695677722046898E9, 0.0, 2023-09-25 16:35:22.046
8.0, -187500.02235174447, 18356.705410087754, -19978.972670909487, -34820.598044466744, 1290.9920562496254, 8142.4052289015335, -187500.02235174447, -4180.044434075884, 18136.384264991793, 11028.976563093252, -24643.357055587418, -4612.640096263897, 22467.302974141, -3541.052763587566, 14500.850677591645, -16126.425996592761, 0.192, 0.908, 0.418, 192.0, 3.0, 0.0, 14.0, 48.0, 6.5, 8.0, 0.0, 0.0, 0.0, 1.695677722046901E9, 0.0, 2023-09-25 16:35:22.046
10.0, -187500.02235174447, 18361.309869445548, -19971.887167917153, -34818.74284967695, 1259.3866895898211, 8157.671470364508, -187500.02235174447, -4176.490506707491, 18128.047064309965, 10976.047632223086, -24687.63586135338, -4673.414489437877, 22393.296348249478, -3618.501558125205, 14494.391023444061, -16099.536848013026, 0.192, 0.908, 0.418, 192.0, 0.0, 0.0, 0.0, 0.0, 0.0, 0.0, 0.0, 0.0, 0.0, 1.695677722046904E9, 0.0, 2023-09-25 16:35:22.046
12.0, -187500.02235174447, 18359.34291593348, -19975.35168830773, -34818.65344269913, 1295.417701651776, 8147.9261097819945, -187500.02235174447, -4179.530343953413, 18144.140320317783, 11025.065007813575, -24644.966381188202, -4621.96077370176, 22464.06197119498, -3543.4667519887394, 14498.816668846212, -16130.270496639074, 0.192, 0.908, 0.418, 192.0, 0.0, 0.0, 0.0, 0.0, 0.0, 0.0, 0.0, 0.0, 0.0, 1.695677722046907E9, 0.0, 2023-09-25 16:35:22.046
14.0, -187500.02235174447, 18359.521729889122, -19976.491627274947, -34823.50377124593, 1251.9659104306593, 8158.342022698167, -187500.02235174447, -4188.225172546527, 18134.21614577963, 10977.522847357137, -24694.497846901162, -4682.757518620196, 22393.452810460665, -3621.183767459842, 14502.728224125889, -16101.70496722519, 0.192, 0.908, 0.418, 192.0, 0.0, 0.0, 0.0, 0.0, 0.0, 0.0, 0.0, 0.0, 0.0, 1.695677722046911E9, 0.0, 2023-09-25 16:35:22.046
16.0, -187500.02235174447, 18360.616965367433, -19981.878397688677, -34823.123791590195, 1302.6596668552957, 8156.933862797483, -187500.02235174447, -4190.952085370074, 18145.995515107574, 11032.798711395111, -24648.810881234513, -4639.261023910168, 22453.757817001086, -3562.6669004758483, 14506.170392772006, -16131.701008284213, 0.192, 0.908, 0.418, 192.0, 0.0, 0.0, 0.0, 0.0, 0.0, 0.0, 0.0, 0.0, 0.0, 1.695677722108548E9, 0.0, 2023-09-25 16:35:22.108
18.0, -187500.02235174447, 18372.10576201746, -19967.90855740411, -34809.80215189483, 1239.225416091134, 8160.107810510137, -187500.02235174447, -4166.856904847254, 18142.7321604171, 10990.643321352401, -24684.327803173997, -4671.514591159176, 22400.29244426399, -3612.243069677719, 14499.263703735318, -16094.731222955135, 0.192, 0.91, 0.41000000000000003, 192.0, 3.0, 0.0, 14.0, 56.0, 6.0, 104.0, 0.0, 0.0, 0.0, 1.695677722108557E9, 0.0, 2023-09-25 16:35:22.108
20.0, -187500.02235174447, 18355.6325263539, -19984.15827562312, -34830.07518411579, 1314.9978297946252, 8143.433409146477, -187500.02235174447, -4188.851021391275, 18142.35218076136, 11030.652943927402, -24645.34636084394, -4658.081192741536, 22438.75979647157, -3574.312159337063, 14507.869125350611, -16126.314237870485, 0.192, 0.91, 0.41000000000000003, 192.0, 0.0, 0.0, 0.0, 0.0, 0.0, 0.0, 0.0, 0.0, 0.0, 1.695677722108561E9, 0.0, 2023-09-25 16:35:22.108
22.0, -187500.02235174447, 18372.530445162112, -19963.348801535227, -34807.83519838276, 1242.3993638037878, 8156.03979301927, -187500.02235174447, -4173.808297372853, 18132.606820178848, 10989.190457962806, -24671.341439645465, -4653.990823506216, 22425.974598643137, -3583.7892989861134, 14492.736994354367, -16101.503801525094, 0.192, 0.91, 0.41000000000000003, 192.0, 0.0, 0.0, 0.0, 0.0, 0.0, 0.0, 0.0, 0.0, 0.0, 1.695677722108565E9, 0.0, 2023-09-25 16:35:22.108
24.0, -187500.02235174447, 18357.644183354878, -19981.565473266302, -34826.90123640314, 1310.9298123037593, 8150.965947027916, -187500.02235174447, -4192.0473208483845, 18142.64275343928, 10995.113670243463, -24654.622334792894, -4669.011195780182, 22430.377892300832, -3580.056557662077, 14502.080023536686, -16121.9556477017, 0.192, 0.91, 0.41000000000000003, 192.0, 0.0, 0.0, 0.0, 0.0, 0.0, 0.0, 0.0, 0.0, 0.0, 1.695677722108568E9, 0.0, 2023-09-25 16:35:22.108
26.0, -187500.02235174447, 18375.704392874766, -19950.071865328773, -34801.08497155726, 1226.19434907369, 8150.340098183167, -187500.02235174447, -4171.371957227225, 18131.332770744895, 10987.759946317667, -24673.93424200228, -4652.850884538994, 22434.2447440916, -3571.4958395356944, 14488.49016290786, -16106.912923683278, 0.192, 0.91, 0.41000000000000003, 192.0, 0.0, 0.0, 0.0, 0.0, 0.0, 0.0, 0.0, 0.0, 0.0, 1.695677722108571E9, 0.0, 2023-09-25 16:35:22.108
28.0, -187500.02235174447, 18359.521729889122, -19974.05528712932, -34827.14710559215, 1315.1095885169016, 8150.965947027916, -187500.02235174447, -4190.97443711453, 18156.92551814622, 10996.454774910782, -24662.043113952055, -4699.3201612615785, 22408.540237967998, -3601.1119009389763, 14501.096546780653, -16117.194726132719, 0.196, 0.914, 0.40800000000000003, 192.0, 3.0, 16.0, 14.0, 72.0, 6.0, 96.0, 0.0, 0.0, 0.0, 1.695677722108575E9, 0.0, 2023-09-25 16:35:22.108
30.0, -187500.02235174447, 18366.584881137, -19962.968821879487, -34818.87696014368, 1245.8415324499051, 8141.04177248976, -187500.02235174447, -4185.431204489613, 18124.135509030286, 11012.682141385334, -24662.55720407453, -4632.264927895657, 22458.49638682561, -3548.1382665798983, 14484.466848905904, -16119.340493600428, 0.196, 0.914, 0.40800000000000003, 192.0, 0.0, 0.0, 0.0, 0.0, 0.0, 0.0, 0.0, 0.0, 0.0, 1.695677722167474E9, 0.0, 2023-09-25 16:35:22.167
32.0, -187500.02235174447, 18353.307944930548, -19977.5645110088, -34835.908989418625, 1317.255355984611, 8138.761894555319, -187500.02235174447, -4204.229021576527, 18128.516450943524, 10994.644283609901, -24665.954669231734, -4667.044242268114, 22433.171860357746, -3588.192592643809, 14496.022700789297, -16128.996447205122, 0.196, 0.914, 0.40800000000000003, 192.0, 0.0, 0.0, 0.0, 0.0, 0.0, 0.0, 0.0, 0.0, 0.0, 1.695677722167487E9, 0.0, 2023-09-25 16:35:22.167
34.0, -187500.02235174447, 18370.83171258351, -19955.078656086764, -34809.42217223909, 1232.9222241547375, 8139.790074800262, -187500.02235174447, -4173.3836142282025, 18121.945038073663, 11013.106824529985, -24653.10241616993, -4600.4136920468445, 22490.63819535234, -3530.7709611381247, 14484.377441928083, -16119.564011044982, 0.196, 0.914, 0.40800000000000003, 192.0, 0.0, 0.0, 0.0, 0.0, 0.0, 0.0, 0.0, 0.0, 0.0, 1.69567772216749E9, 0.0, 2023-09-25 16:35:22.167
36.0, -187500.02235174447, 18364.327354947014, -19974.994060396442, -34824.53195149088, 1315.4672164281865, 8158.587891887176, -187500.02235174447, -4173.584779928301, 18141.97220110562, 10980.629739836424, -24673.55426234654, -4684.769175621173, 22422.264209063556, -3612.1089592109875, 14505.857468349634, -16106.108260882887, 0.196, 0.914, 0.40800000000000003, 192.0, 0.0, 0.0, 0.0, 0.0, 0.0, 0.0, 0.0, 0.0, 0.0, 1.695677722167494E9, 0.0, 2023-09-25 16:35:22.167
38.0, -187500.02235174447, 18399.129021063927, -19946.294420515827, -34787.45040743952, 1247.4508580506872, 8163.259406478335, -187500.02235174447, -4139.8112940563315, 18129.58933467738, 11023.388626979426, -24647.514480056107, -4596.166860600336, 22506.03854728205, -3527.1723302808205, 14499.174296757496, -16098.262798579073, 0.196, 0.916, 0.40800000000000003, 192.0, 3.0, 16.0, 14.0, 80.0, 6.0, 96.0, 0.0, 0.0, 0.0, 1.695677722167497E9, 0.0, 2023-09-25 16:35:22.167
40.0, -187500.02235174447, 18376.196131252782, -19982.794819211344, -34828.018823625905, 1318.8199780964826, 8170.210799003935, -187500.02235174447, -4158.832628587798, 18146.30843952995, 10993.638455109412, -24670.17914893379, -4688.479565200754, 22413.547028725985, -3615.148796456909, 14519.11205281163, -16084.695289694702, 0.196, 0.916, 0.40800000000000003, 192.0, 0.0, 0.0, 0.0, 0.0, 0.0, 0.0, 0.0, 0.0, 0.0, 1.695677722167501E9, 0.0, 2023-09-25 16:35:22.167
42.0, -187500.02235174447, 18400.291311775603, -19958.409066010605, -34799.922680845586, 1260.8619047238715, 8163.639386134075, -187500.02235174447, -4133.396343397659, 18131.82450912291, 11049.875444158966, -24639.691369496748, -4579.648921447864, 22515.22511425318, -3500.640809612371, 14502.795279359256, -16100.162696857775, 0.196, 0.916, 0.40800000000000003, 192.0, 0.0, 0.0, 0.0, 0.0, 0.0, 0.0, 0.0, 0.0, 0.0, 1.695677722167504E9, 0.0, 2023-09-25 16:35:22.167
44.0, -187500.02235174447, 18388.221369769737, -19974.591728996245, -34826.36479453621, 1315.422512939276, 8171.551903671254, -187500.02235174447, -4147.723811593511, 18164.391000794294, 10989.481030640725, -24686.965309019724, -4690.804146624106, 22403.4887437211, -3607.9738864867554, 14516.295733010262, -16078.548559969493, 0.196, 0.916, 0.40800000000000003, 192.0, 0.0, 0.0, 0.0, 0.0, 0.0, 0.0, 0.0, 0.0, 0.0, 1.695677722167508E9, 0.0, 2023-09-25 16:35:22.167
46.0, -187500.02235174447, 18405.991006611708, -19967.617984726192, -34814.13839031916, 1271.3895763623211, 8152.239996461868, -187500.02235174447, -4146.226244715005, 18140.765206905035, 11047.707324946801, -24634.282247338564, -4585.415671517333, 22506.01619553759, -3493.2647339421196, 14504.337549726672, -16105.013025404576, 0.196, 0.916, 0.40800000000000003, 192.0, 0.0, 0.0, 0.0, 0.0, 0.0, 0.0, 0.0, 0.0, 0.0, 1.695677722226359E9, 0.0, 2023-09-25 16:35:22.226
48.0, -187500.02235174447, 18405.83454440052, -19979.822037198788, -34829.18111433758, 1296.7811580635498, 8157.067973264215, -187500.02235174447, -4155.524570408413, 18149.05770409795, 10976.204094434273, -24694.341384689975, -4679.225942996257, 22408.71905192364, -3596.7756625146467, 14502.303540981238, -16092.317234553962, 0.196, 0.912, 0.41200000000000003, 192.0, 3.0, 16.0, 14.0, 64.0, 6.0, 112.0, 0.0, 0.0, 0.0, 1.695677722226368E9, 0.0, 2023-09-25 16:35:22.226
50.0, -187500.02235174447, 18422.732463208733, -19971.082505116763, -34812.484361229464, 1277.5586578319858, 8154.005784273838, -187500.02235174447, -4135.922090521109, 18144.050913339965, 11032.932821861843, -24648.743826001148, -4584.946284883772, 22515.850963097928, -3488.3026466730416, 14500.224828746896, -16100.006234646587, 0.196, 0.912, 0.41200000000000003, 192.0, 0.0, 0.0, 0.0, 0.0, 0.0, 0.0, 0.0, 0.0, 0.0, 1.695677722226372E9, 0.0, 2023-09-25 16:35:22.226
52.0, -187500.02235174447, 18415.110518349473, -19986.102877390727, -34831.05866087182, 1286.745224803117, 8158.543188398265, -187500.02235174447, -4145.332174936792, 18149.21416630914, 10989.637492851913, -24697.850608569457, -4667.1560009903915, 22426.354578298877, -3582.9399326968114, 14498.235523490373, -16083.980033872132, 0.196, 0.912, 0.41200000000000003, 192.0, 0.0, 0.0, 0.0, 0.0, 0.0, 0.0, 0.0, 0.0, 0.0, 1.695677722226375E9, 0.0, 2023-09-25 16:35:22.226
54.0, -187500.02235174447, 18403.68877693281, -19994.462429817013, -34835.5737132518, 1289.2039166932007, 8144.9309760249835, -187500.02235174447, -4147.477942404502, 18142.910974372742, 11042.700534188813, -24648.274439367586, -4581.012377859638, 22523.562314935007, -3480.457184369229, 14499.554276413237, -16104.47658353765, 0.196, 0.912, 0.41200000000000003, 192.0, 0.0, 0.0, 0.0, 0.0, 0.0, 0.0, 0.0, 0.0, 0.0, 1.695677722226379E9, 0.0, 2023-09-25 16:35:22.226
56.0, -187500.02235174447, 18418.64209397341, -19977.028069141874, -34821.84974215624, 1259.9007797122931, 8161.85124657765, -187500.02235174447, -4129.14951195115, 18133.098558556863, 10977.388736890405, -24709.22764649721, -4653.342622917012, 22439.855031949883, -3576.0779471490323, 14489.339529197161, -16084.94115888371, 0.196, 0.912, 0.41200000000000003, 192.0, 0.0, 0.0, 0.0, 0.0, 0.0, 0.0, 0.0, 0.0, 0.0, 1.695677722226383E9, 0.0, 2023-09-25 16:35:22.226
58.0, -187500.02235174447, 18412.96475088176, -19991.19907512654, -34831.48334401647, 1298.7481115756168, 8157.783229086785, -187500.02235174447, -4142.96289002453, 18161.127646103818, 11047.729676691257, -24654.39881734834, -4603.3864740594, 22510.68771012875, -3500.8196235680134, 14507.466793950414, -16098.575723001448, 0.196, 0.914, 0.40800000000000003, 192.0, 3.0, 16.0, 14.0, 72.0, 6.0, 96.0, 0.0, 0.0, 0.0, 1.695677722226386E9, 0.0, 2023-09-25 16:35:22.226
60.0, -187500.02235174447, 18423.805346942587, -19984.046516900842, -34826.208332325026, 1256.5703697884524, 8162.879426822595, -187500.02235174447, -4140.168921967616, 18130.706921900146, 11001.08158601303, -24695.302509701552, -4645.430105379833, 22460.932726971238, -3560.3870225414066, 14488.91484605251, -16080.671975692747, 0.196, 0.914, 0.40800000000000003, 192.0, 0.0, 0.0, 0.0, 0.0, 0.0, 0.0, 0.0, 0.0, 0.0, 1.695677722286657E9, 0.0, 2023-09-25 16:35:22.286
62.0, -187500.02235174447, 18409.410823513368, -19995.334147850772, -34836.13250686318, 1294.3001144290108, 8143.500464379843, -187500.02235174447, -4161.917169322631, 18131.10925330034, 11047.819083669077, -24660.009105206624, -4609.264982851146, 22514.04047179705, -3504.3959026808625, 14494.01104378832, -16108.544601028516, 0.196, 0.914, 0.40800000000000003, 192.0, 0.0, 0.0, 0.0, 0.0, 0.0, 0.0, 0.0, 0.0, 0.0, 1.695677722286666E9, 0.0, 2023-09-25 16:35:22.286
64.0, -187500.02235174447, 18405.722785678245, -19990.975557681984, -34837.585370252775, 1230.4635322646538, 8144.774513813796, -187500.02235174447, -4162.364204211736, 18118.547572916457, 10989.145754473897, -24699.0799545145, -4642.837303023017, 22455.38949434632, -3559.4258975298285, 14478.051898247231, -16102.867257936867, 0.196, 0.914, 0.40800000000000003, 192.0, 0.0, 0.0, 0.0, 0.0, 0.0, 0.0, 0.0, 0.0, 0.0, 1.69567772228667E9, 0.0, 2023-09-25 16:35:22.286
66.0, -187500.02235174447, 18401.610064698467, -19992.33901409376, -34840.84872494325, 1294.7024458292062, 8147.054391748237, -187500.02235174447, -4168.06389904784, 18132.87504111231, 11025.154414791396, -24658.44448309475, -4622.698381268786, 22493.901550042814, -3520.131530777399, 14487.640796618558, -16121.776833746057, 0.196, 0.914, 0.40800000000000003, 192.0, 0.0, 0.0, 0.0, 0.0, 0.0, 0.0, 0.0, 0.0, 0.0, 1.695677722286673E9, 0.0, 2023-09-25 16:35:22.286
68.0, -187500.02235174447, 18427.716902222266, -19967.372115537182, -34808.572805949785, 1225.8590729068605, 8167.059203035737, -187500.02235174447, -4138.29137543337, 18121.654465395746, 10989.279864940629, -24685.624204352403, -4633.494273840699, 22462.117369427368, -3546.7524584236694, 14479.571816870191, -16092.361938042874, 0.194, 0.912, 0.398, 192.0, 3.0, 8.0, 14.0, 64.0, 6.0, 56.0, 0.0, 0.0, 0.0, 1.695677722286677E9, 0.0, 2023-09-25 16:35:22.286
70.0, -187500.02235174447, 18414.03763461562, -19988.136886136163, -34829.047003870844, 1304.4478064117202, 8157.559711642231, -187500.02235174447, -4167.415698458636, 18140.02759933801, 11018.046560054609, -24658.06450343901, -4656.315404929567, 22458.630497292343, -3542.08094383251, 14502.43765144797, -16094.284188066029, 0.194, 0.912, 0.398, 192.0, 0.0, 0.0, 0.0, 0.0, 0.0, 0.0, 0.0, 0.0, 0.0, 1.69567772228668E9, 0.0, 2023-09-25 16:35:22.286
72.0, -187500.02235174447, 18424.520602765155, -19972.490665017445, -34815.3677362642, 1231.3352502984108, 8144.819217302706, -187500.02235174447, -4160.39725069967, 18110.657407123734, 11004.479051170238, -24671.36379138992, -4628.956869716271, 22461.312706626977, -3536.2247867852197, 14475.503799379327, -16101.772022458557, 0.194, 0.912, 0.398, 192.0, 0.0, 0.0, 0.0, 0.0, 0.0, 0.0, 0.0, 0.0, 0.0, 1.695677722286684E9, 0.0, 2023-09-25 16:35:22.286
74.0, -187500.02235174447, 18412.003625870184, -19982.638357000156, -34830.65632947163, 1303.4419779112313, 8154.229301718391, -187500.02235174447, -4175.372919484726, 18131.489232956083, 11008.07768202754, -24660.612602306916, -4657.388288663422, 22444.951229685692, -3551.6251387149264, 14501.029491547286, -16099.358034057384, 0.194, 0.912, 0.398, 192.0, 0.0, 0.0, 0.0, 0.0, 0.0, 0.0, 0.0, 0.0, 0.0, 1.695677722286687E9, 0.0, 2023-09-25 16:35:22.286
76.0, -187500.02235174447, 18414.819945671552, -19970.56841499429, -34816.79824790934, 1220.7628751710506, 8143.634574846576, -187500.02235174447, -4178.435108475102, 18103.706014598134, 11007.675350627345, -24673.621317579906, -4616.641058521397, 22461.290354882523, -3522.7466848786694, 14481.918750038, -16098.441612534716, 0.194, 0.912, 0.398, 192.0, 0.0, 0.0, 0.0, 0.0, 0.0, 0.0, 0.0, 0.0, 0.0, 1.695677722348345E9, 0.0, 2023-09-25 16:35:22.348
78.0, -187500.02235174447, 18400.984215853718, -19989.09801114774, -34837.49596327495, 1295.5071086295973, 8139.164225955514, -187500.02235174447, -4185.319445767337, 18108.891619311766, 10998.086452256019, -24675.99060249217, -4652.627367094442, 22430.064967878458, -3549.1664468248428, 14489.697157108445, -16119.049920922509, 0.196, 0.912, 0.398, 192.0, 3.0, 16.0, 14.0, 64.0, 6.0, 56.0, 0.0, 0.0, 0.0, 1.695677722348353E9, 0.0, 2023-09-25 16:35:22.348
80.0, -187500.02235174447, 18414.194096826806, -19966.813321925798, -34813.065506585306, 1218.1253693253243, 8138.404266644034, -187500.02235174447, -4163.191218756583, 18107.326997199893, 11012.235106496228, -24665.21706166471, -4588.254343063158, 22475.886044011837, -3499.389111922874, 14472.039278988754, -16104.99067366012, 0.196, 0.912, 0.398, 192.0, 0.0, 0.0, 0.0, 0.0, 0.0, 0.0, 0.0, 0.0, 0.0, 1.695677722348357E9, 0.0, 2023-09-25 16:35:22.348
82.0, -187500.02235174447, 18395.93272160682, -19982.28072908887, -34834.925512662594, 1295.037721996036, 8151.27887145029, -187500.02235174447, -4176.44580321858, 18123.129680529797, 11001.819193580055, -24673.286041413074, -4650.1910269488135, 22425.57226724294, -3559.671766718837, 14489.96537804191, -16102.464926536672, 0.196, 0.912, 0.398, 192.0, 0.0, 0.0, 0.0, 0.0, 0.0, 0.0, 0.0, 0.0, 0.0, 1.695677722348361E9, 0.0, 2023-09-25 16:35:22.348
84.0, -187500.02235174447, 18411.444832258803, -19958.990211366443, -34809.08689607226, 1213.9679448566371, 8137.443141632455, -187500.02235174447, -4158.162076254139, 18107.639921622267, 11026.27200201416, -24659.338552872963, -4573.681005678297, 22494.437991909745, -3486.5592106055274, 14474.229749945373, -16111.629141763347, 0.196, 0.912, 0.398, 192.0, 0.0, 0.0, 0.0, 0.0, 0.0, 0.0, 0.0, 0.0, 0.0, 1.695677722348364E9, 0.0, 2023-09-25 16:35:22.348
86.0, -187500.02235174447, 18395.12805880643, -19975.70931621901, -34831.68450971657, 1286.0299689805472, 8149.133103982581, -187500.02235174447, -4169.025024059418, 18129.72344514411, 10967.26339665215, -24700.197541737267, -4695.050978070614, 22389.116572036335, -3598.5190985821605, 14492.267607720805, -16094.731222955135, 0.196, 0.912, 0.398, 192.0, 0.0, 0.0, 0.0, 0.0, 0.0, 0.0, 0.0, 0.0, 0.0, 1.695677722348367E9, 0.0, 2023-09-25 16:35:22.348
88.0, -187500.02235174447, 18383.035765056105, -19986.795781468845, -34838.926474920096, 1233.548072999486, 8112.833870987162, -187500.02235174447, -4187.420509746135, 18104.39891867625, 10998.086452256019, -24654.10824467042, -4599.273753079624, 22489.475904640665, -3494.0246932536, 14471.681651077468, -16124.883726225344, 0.2, 0.912, 0.4, 192.0, 3.0, 32.0, 14.0, 64.0, 6.0, 64.0, 0.0, 0.0, 0.0, 1.69567772234837E9, 0.0, 2023-09-25 16:35:22.348
90.0, -187500.02235174447, 18370.764657350144, -19997.077583918286, -34856.56200129533, 1273.5576955744857, 8123.652115303531, -187500.02235174447, -4196.204745317072, 18095.234703449572, 10933.556966013548, -24701.717460360225, -4681.215248252779, 22410.328377524424, -3585.0409966756106, 14466.451342874927, -16129.734054772147, 0.2, 0.912, 0.4, 192.0, 0.0, 0.0, 0.0, 0.0, 0.0, 0.0, 0.0, 0.0, 0.0, 1.695677722407254E9, 0.0, 2023-09-25 16:35:22.407
92.0, -187500.02235174447, 18387.86374185845, -19972.62477548418, -34831.97508239449, 1233.4810177661202, 8122.221603658391, -187500.02235174447, -4177.54103869689, 18100.040328507464, 10975.622949078435, -24664.367695375407, -4592.590581487487, 22496.449648910722, -3496.5727921215052, 14468.395944642538, -16133.533851329548, 0.2, 0.912, 0.4, 192.0, 0.0, 0.0, 0.0, 0.0, 0.0, 0.0, 0.0, 0.0, 0.0, 1.695677722407264E9, 0.0, 2023-09-25 16:35:22.407
94.0, -187500.02235174447, 18373.603328895966, -19980.04555464334, -34844.93909417857, 1277.5586578319858, 8141.868787034606, -187500.02235174447, -4192.181431315116, 18100.085031996376, 10918.69305595077, -24701.382184193397, -4690.714739646285, 22393.989252327592, -3602.6541713063925, 14481.091735493153, -16110.936237685233, 0.2, 0.912, 0.4, 192.0, 0.0, 0.0, 0.0, 0.0, 0.0, 0.0, 0.0, 0.0, 0.0, 1.695677722407268E9, 0.0, 2023-09-25 16:35:22.407
96.0, -187500.02235174447, 18384.39922146788, -19975.508150518912, -34831.39393703866, 1246.1097533833688, 8127.787188027763, -187500.02235174447, -4187.442861490591, 18099.883866296277, 10969.07388795303, -24644.273477110088, -4589.617799474931, 22498.93069254526, -3484.994588493656, 14472.396906900038, -16135.52315658607, 0.2, 0.912, 0.4, 192.0, 0.0, 0.0, 0.0, 0.0, 0.0, 0.0, 0.0, 0.0, 0.0, 1.695677722407271E9, 0.0, 2023-09-25 16:35:22.407
98.0, -187500.02235174447, 18366.36136369245, -19991.95903443802, -34853.14218439367, 1275.0552624529914, 8137.644307332553, -187500.02235174447, -4204.810166932365, 18096.44169765016, 10905.952561611242, -24697.26946321362, -4679.672977885363, 22405.90273212227, -3584.28103736413, 14476.017889501798, -16114.847792964913, 0.2, 0.912, 0.404, 192.0, 3.0, 32.0, 14.0, 64.0, 6.0, 80.0, 0.0, 0.0, 0.0, 1.695677722407275E9, 0.0, 2023-09-25 16:35:22.407
100.0, -187500.02235174447, 18384.60038716798, -19972.42360978408, -34825.09074510226, 1259.4313930787318, 8132.950440996939, -187500.02235174447, -4184.8277073893205, 18083.365927143805, 10972.180780432318, -24650.26374462411, -4572.80928764454, 22514.01812005259, -3477.059719212022, 14468.507703364814, -16145.067351468488, 0.2, 0.912, 0.404, 192.0, 0.0, 0.0, 0.0, 0.0, 0.0, 0.0, 0.0, 0.0, 0.0, 1.695677722407278E9, 0.0, 2023-09-25 16:35:22.407
102.0, -187500.02235174447, 18375.21265449675, -19968.95908939351, -34830.544570749356, 1249.9989569185923, 8141.578214356687, -187500.02235174447, -4188.7616144134545, 18092.91012202622, 10903.24800053215, -24709.27234998612, -4677.281341228645, 22393.676327905217, -3591.433595589828, 14475.324985423684, -16109.751595229101, 0.2, 0.912, 0.404, 192.0, 0.0, 0.0, 0.0, 0.0, 0.0, 0.0, 0.0, 0.0, 0.0, 1.695677722407282E9, 0.0, 2023-09-25 16:35:22.407
104.0, -187500.02235174447, 18367.657764870855, -19980.358479065715, -34842.27923658839, 1279.0338729660361, 8132.436350874466, -187500.02235174447, -4189.119242324739, 18108.869267567312, 10968.895073997388, -24645.614581777405, -4607.409788061355, 22478.165921946278, -3501.221954968209, 14480.309424437217, -16134.629086807858, 0.2, 0.912, 0.404, 192.0, 0.0, 0.0, 0.0, 0.0, 0.0, 0.0, 0.0, 0.0, 0.0, 1.695677722407285E9, 0.0, 2023-09-25 16:35:22.407
106.0, -187500.02235174447, 18363.05330551306, -19974.14469410714, -34841.787498210375, 1255.3410238434105, 8137.599603843642, -187500.02235174447, -4186.057053334362, 18090.786706302966, 10912.233401803185, -24695.861303312937, -4642.747896045196, 22424.43232827572, -3568.6124645009595, 14468.418296386993, -16121.195688390218, 0.2, 0.912, 0.404, 192.0, 0.0, 0.0, 0.0, 0.0, 0.0, 0.0, 0.0, 0.0, 0.0, 1.695677722467626E9, 0.0, 2023-09-25 16:35:22.467
108.0, -187500.02235174447, 18370.742305605687, -19972.602423739725, -34836.825410941296, 1287.326370158955, 8130.089417706659, -187500.02235174447, -4189.119242324739, 18105.8741338103, 10962.055440194064, -24648.07327366749, -4583.71693893873, 22490.77230581907, -3504.530013147594, 14477.448401146938, -16136.95366823121, 0.2, 0.906, 0.404, 192.0, 3.0, 32.0, 14.0, 40.0, 6.0, 80.0, 0.0, 0.0, 0.0, 1.695677722467644E9, 0.0, 2023-09-25 16:35:22.467
110.0, -187500.02235174447, 18377.805456853566, -19967.10389460372, -34832.80209693934, 1239.873616680338, 8134.626821831086, -187500.02235174447, -4180.513820709446, 18090.563188858414, 10911.384035513884, -24699.37052719242, -4639.305727399079, 22415.983368871613, -3578.7154529947584, 14468.95473825392, -16115.09366215392, 0.2, 0.906, 0.404, 192.0, 0.0, 0.0, 0.0, 0.0, 0.0, 0.0, 0.0, 0.0, 0.0, 1.695677722467648E9, 0.0, 2023-09-25 16:35:22.467
112.0, -187500.02235174447, 18366.16019799235, -19981.252548843928, -34848.44831805806, 1292.4672713836756, 8126.2672694048015, -187500.02235174447, -4201.055073863873, 18100.174438974194, 10964.089448939498, -24661.283154640576, -4615.2105468762575, 22449.622744276854, -3526.322963991519, 14482.00815701582, -16129.778758261056, 0.2, 0.906, 0.404, 192.0, 0.0, 0.0, 0.0, 0.0, 0.0, 0.0, 0.0, 0.0, 0.0, 1.695677722467651E9, 0.0, 2023-09-25 16:35:22.467
114.0, -187500.02235174447, 18373.648032384877, -19962.074752101274, -34834.05379462884, 1224.3838577728102, 8129.642382817553, -187500.02235174447, -4190.437995247602, 18077.24154916305, 10934.8310154475, -24696.88948355788, -4621.826663235029, 22428.232124833125, -3549.2558538026638, 14459.857578260611, -16126.090720425931, 0.2, 0.906, 0.404, 192.0, 0.0, 0.0, 0.0, 0.0, 0.0, 0.0, 0.0, 0.0, 0.0, 1.695677722467655E9, 0.0, 2023-09-25 16:35:22.467
116.0, -187500.02235174447, 18356.548947876567, -19984.068868645296, -34858.28308561839, 1290.9250010162593, 8123.629763559075, -187500.02235174447, -4208.632315234222, 18104.041290764962, 10958.345050614484, -24662.870128496903, -4623.123064413437, 22452.573174544952, -3522.9031470898567, 14495.888590322566, -16135.791377519534, 0.2, 0.906, 0.404, 192.0, 0.0, 0.0, 0.0, 0.0, 0.0, 0.0, 0.0, 0.0, 0.0, 1.695677722467658E9, 0.0, 2023-09-25 16:35:22.467
118.0, -187500.02235174447, 18364.752038091665, -19964.734609691455, -34835.014919640416, 1212.4033227447658, 8123.719170536897, -187500.02235174447, -4186.8840678792085, 18070.871301993287, 10924.63861997588, -24689.111076487432, -4608.728540984219, 22449.1980611322, -3530.8156646270354, 14473.939177267453, -16128.61646754938, 0.196, 0.908, 0.402, 192.0, 3.0, 16.0, 14.0, 48.0, 6.0, 72.0, 0.0, 0.0, 0.0, 1.695677722467662E9, 0.0, 2023-09-25 16:35:22.467
120.0, -187500.02235174447, 18353.933793775297, -19978.63739474266, -34850.19175412557, 1289.87446902686, 8126.043751960248, -187500.02235174447, -4198.372864529236, 18102.16374423072, 10927.49964326616, -24675.387105391874, -4634.477750596732, 22441.06202615047, -3539.2199205422307, 14485.271511706294, -16134.964362974688, 0.196, 0.908, 0.402, 192.0, 0.0, 0.0, 0.0, 0.0, 0.0, 0.0, 0.0, 0.0, 0.0, 1.695677722527479E9, 0.0, 2023-09-25 16:35:22.527
122.0, -187500.02235174447, 18367.613061381944, -19954.8104351533, -34823.99550962395, 1216.270174535534, 8130.782321784774, -187500.02235174447, -4173.405965972658, 18089.959691758122, 10915.653218704847, -24678.58340484898, -4610.874308451928, 22441.352598828387, -3533.252004772664, 14480.018851759298, -16115.317179598473, 0.196, 0.908, 0.402, 192.0, 0.0, 0.0, 0.0, 0.0, 0.0, 0.0, 0.0, 0.0, 0.0, 1.695677722527495E9, 0.0, 2023-09-25 16:35:22.527
124.0, -187500.02235174447, 18357.286555443592, -19972.691830717544, -34842.16747786611, 1301.586783121441, 8135.3644293981115, -187500.02235174447, -4192.248486548482, 18099.90621804073, 10920.481195507193, -24664.144177930855, -4640.646832066397, 22425.61697073185, -3551.3345660370073, 14503.577590415192, -16123.877897724857, 0.196, 0.908, 0.402, 192.0, 0.0, 0.0, 0.0, 0.0, 0.0, 0.0, 0.0, 0.0, 0.0, 1.695677722527499E9, 0.0, 2023-09-25 16:35:22.527
126.0, -187500.02235174447, 18353.57616586401, -19973.272976073382, -34843.106251133235, 1218.9970873590812, 8115.203155899425, -187500.02235174447, -4200.250411063482, 18078.448543363636, 10930.986515401188, -24677.577576348493, -4599.117290868437, 22453.668410023263, -3520.6903243887814, 14482.969282027398, -16128.057673937998, 0.196, 0.908, 0.402, 192.0, 0.0, 0.0, 0.0, 0.0, 0.0, 0.0, 0.0, 0.0, 0.0, 1.695677722527503E9, 0.0, 2023-09-25 16:35:22.527
128.0, -187500.02235174447, 18358.582956622, -19964.19816782453, -34841.474573788, 1290.2991521715107, 8130.938783995961, -187500.02235174447, -4186.593495201289, 18088.082145223874, 10922.179928085796, -24692.106210244445, -4645.4971606131985, 22423.068871863947, -3562.219865586742, 14484.891532050555, -16138.875918254367, 0.202, 0.912, 0.404, 192.0, 3.0, 40.0, 14.0, 64.0, 6.0, 80.0, 0.0, 0.0, 0.0, 1.695677722527507E9, 0.0, 2023-09-25 16:35:22.527
130.0, -187500.02235174447, 18369.758828849655, -19940.259449512894, -34816.395916509144, 1213.9008896232713, 8129.351810139634, -187500.02235174447, -4171.126088038217, 18081.555435842925, 10935.792140459078, -24673.911890257823, -4598.5361455125985, 22467.414732863275, -3514.5882981524824, 14494.167505999507, -16114.579572031447, 0.202, 0.912, 0.404, 192.0, 0.0, 0.0, 0.0, 0.0, 0.0, 0.0, 0.0, 0.0, 0.0, 1.69567772252751E9, 0.0, 2023-09-25 16:35:22.527
132.0, -187500.02235174447, 18342.780273292097, -19976.312813319306, -34854.639751272174, 1301.3632656768877, 8131.341115396156, -187500.02235174447, -4209.21346059006, 18087.255130679026, 10898.218858029706, -24689.26753869862, -4681.349358719512, 22409.791935657497, -3584.5269065531384, 14503.86816309311, -16119.72047325617, 0.202, 0.912, 0.404, 192.0, 0.0, 0.0, 0.0, 0.0, 0.0, 0.0, 0.0, 0.0, 0.0, 1.695677722527514E9, 0.0, 2023-09-25 16:35:22.527
134.0, -187500.02235174447, 18360.10287524496, -19959.973688122474, -34833.65146322864, 1226.8201979184387, 8118.13123442307, -187500.02235174447, -4184.760652155955, 18067.38442985826, 10930.807701445545, -24666.580518076484, -4577.704319680252, 22513.101698529925, -3483.2288006816866, 14497.944950812454, -16136.9089647423, 0.202, 0.912, 0.404, 192.0, 0.0, 0.0, 0.0, 0.0, 0.0, 0.0, 0.0, 0.0, 0.0, 1.695677722527518E9, 0.0, 2023-09-25 16:35:22.527
136.0, -187500.02235174447, 18341.305058158046, -19967.819150426287, -34845.90021919015, 1286.7675765475724, 8139.030115488782, -187500.02235174447, -4190.080367336317, 18069.32903162587, 10885.34425322345, -24707.55126566306, -4670.598169636509, 22425.080528864924, -3577.37434832744, 14520.900192368055, -16125.9566099592, 0.202, 0.912, 0.404, 192.0, 0.0, 0.0, 0.0, 0.0, 0.0, 0.0, 0.0, 0.0, 0.0, 1.695677722588017E9, 0.0, 2023-09-25 16:35:22.588
138.0, -187500.02235174447, 18369.58001489401, -19943.61221118119, -34813.98192810797, 1230.3741252868326, 8136.3702578986, -187500.02235174447, -4163.057108289851, 18069.73136302607, 10930.986515401188, -24667.16166343232, -4591.182421586803, 22493.186294220246, -3490.917800774312, 14520.989599345876, -16117.842926721924, 0.2, 0.91, 0.40800000000000003, 192.0, 3.0, 32.0, 14.0, 56.0, 6.0, 96.0, 0.0, 0.0, 0.0, 1.695677722588029E9, 0.0, 2023-09-25 16:35:22.588
140.0, -187500.02235174447, 18339.673380812812, -19969.316717304795, -34846.391957568165, 1283.8618497683824, 8139.365391655611, -187500.02235174447, -4189.678035936122, 18082.181284687675, 10876.224741485685, -24701.963329549235, -4690.044187312626, 22397.92315935173, -3589.824269989046, 14524.8788028811, -16110.37744407385, 0.2, 0.91, 0.40800000000000003, 192.0, 0.0, 0.0, 0.0, 0.0, 0.0, 0.0, 0.0, 0.0, 0.0, 1.695677722588032E9, 0.0, 2023-09-25 16:35:22.588
142.0, -187500.02235174447, 18340.142767446374, -19965.606327725214, -34841.13929762117, 1242.3546603148773, 8113.03503668726, -187500.02235174447, -4202.351475042281, 18066.57976705787, 10938.273184093618, -24654.868203981903, -4579.939494125783, 22511.93940781825, -3472.92464648779, 14501.320064225205, -16139.76998803258, 0.2, 0.91, 0.40800000000000003, 192.0, 0.0, 0.0, 0.0, 0.0, 0.0, 0.0, 0.0, 0.0, 0.0, 1.695677722588036E9, 0.0, 2023-09-25 16:35:22.588
144.0, -187500.02235174447, 18337.39350287837, -19968.623813226677, -34842.838030199775, 1260.4148698347653, 8123.808577514717, -187500.02235174447, -4205.704236710577, 18052.67698200667, 10878.951654309232, -24711.03813779809, -4655.935425273827, 22425.99695038759, -3571.18291511332, 14494.838058333167, -16138.160662431797, 0.2, 0.91, 0.40800000000000003, 192.0, 0.0, 0.0, 0.0, 0.0, 0.0, 0.0, 0.0, 0.0, 0.0, 1.695677722588039E9, 0.0, 2023-09-25 16:35:22.588
146.0, -187500.02235174447, 18364.975555536217, -19948.909574617097, -34818.9663671215, 1238.9795469021258, 8131.788150285262, -187500.02235174447, -4184.514782966946, 18087.81392429041, 10926.940849654777, -24663.40657036383, -4591.830622176007, 22493.968605276183, -3493.9576380202343, 14514.239372520373, -16124.43669133624, 0.2, 0.91, 0.40800000000000003, 192.0, 0.0, 0.0, 0.0, 0.0, 0.0, 0.0, 0.0, 0.0, 0.0, 1.695677722588042E9, 0.0, 2023-09-25 16:35:22.588
148.0, -187500.02235174447, 18343.96491574823, -19966.94743239253, -34845.207315112035, 1252.971738931148, 8134.448007875444, -187500.02235174447, -4203.670227965144, 18070.53602582646, 10872.648462372836, -24707.931245318803, -4681.036434297137, 22395.66563316174, -3594.428729346839, 14509.25493350684, -16121.15098490131, 0.194, 0.912, 0.402, 192.0, 3.0, 8.0, 14.0, 64.0, 6.0, 72.0, 0.0, 0.0, 0.0, 1.695677722588045E9, 0.0, 2023-09-25 16:35:22.588
150.0, -187500.02235174447, 18351.944488518773, -19962.85706315721, -34839.03823364237, 1256.458611066176, 8116.633667544565, -187500.02235174447, -4208.654666978678, 18075.542816584446, 10946.476274308716, -24655.494052826652, -4595.652770477864, 22489.29709068502, -3502.585411379983, 14506.863296850122, -16144.128578201364, 0.194, 0.912, 0.402, 192.0, 0.0, 0.0, 0.0, 0.0, 0.0, 0.0, 0.0, 0.0, 0.0, 1.695677722646835E9, 0.0, 2023-09-25 16:35:22.646
152.0, -187500.02235174447, 18339.829843024, -19961.58301372326, -34838.70295747554, 1244.612186504863, 8127.250746160835, -187500.02235174447, -4203.916097154152, 18066.333897868863, 10888.205276513729, -24704.444373183775, -4662.819762566061, 22409.121383323836, -3590.8748019784457, 14504.158735771029, -16121.218040134674, 0.194, 0.912, 0.402, 192.0, 0.0, 0.0, 0.0, 0.0, 0.0, 0.0, 0.0, 0.0, 0.0, 1.695677722646846E9, 0.0, 2023-09-25 16:35:22.646
154.0, -187500.02235174447, 18350.938660018284, -19954.475158986468, -34827.21416082551, 1261.5324570575306, 8126.468435104899, -187500.02235174447, -4186.749957412477, 18075.989851473554, 10949.672573765823, -24651.537794058062, -4591.852973920461, 22494.415640165287, -3502.7865770800804, 14514.284076009284, -16136.86426125339, 0.194, 0.912, 0.402, 192.0, 0.0, 0.0, 0.0, 0.0, 0.0, 0.0, 0.0, 0.0, 0.0, 1.69567772264685E9, 0.0, 2023-09-25 16:35:22.646
156.0, -187500.02235174447, 18338.600497078955, -19971.082505116763, -34847.174268624105, 1240.6335759918186, 8128.927126994983, -187500.02235174447, -4190.683864436611, 18067.764409514002, 10907.181907556285, -24699.258768470143, -4651.487428127221, 22422.19715383019, -3578.760156483669, 14511.758328885833, -16115.80891797649, 0.194, 0.912, 0.402, 192.0, 0.0, 0.0, 0.0, 0.0, 0.0, 0.0, 0.0, 0.0, 0.0, 1.695677722646853E9, 0.0, 2023-09-25 16:35:22.646
158.0, -187500.02235174447, 18339.740436046177, -19971.842464428242, -34844.73792847848, 1276.5081258425864, 8117.1701094114915, -187500.02235174447, -4187.599323701778, 18058.37667684277, 10949.337297598995, -24652.588326047462, -4581.928799382305, 22501.568198390985, -3502.6524666133487, 14509.657264907035, -16149.045961981532, 0.19, 0.91, 0.406, 192.0, 2.5, 120.0, 14.0, 56.0, 6.0, 88.0, 0.0, 0.0, 0.0, 1.695677722646856E9, 0.0, 2023-09-25 16:35:22.646
160.0, -187500.02235174447, 18348.05528498355, -19959.6607637001, -34836.333672563276, 1219.555880970464, 8130.000010728838, -187500.02235174447, -4175.149402040172, 18053.61575527379, 10879.376337453883, -24698.834085325492, -4636.467055853254, 22425.974598643137, -3573.239275603208, 14504.449308448948, -16112.702025497203, 0.19, 0.91, 0.406, 192.0, 0.0, 0.0, 0.0, 0.0, 0.0, 0.0, 0.0, 0.0, 0.0, 1.69567772264686E9, 0.0, 2023-09-25 16:35:22.646
162.0, -187500.02235174447, 18340.6792093133, -19973.943528407042, -34853.85744021624, 1281.291399156022, 8118.958248967916, -187500.02235174447, -4198.864602907253, 18071.072467693386, 10917.128433838896, -24662.244279652154, -4623.726561513729, 22463.07849443895, -3536.60476644096, 14513.68057890899, -16141.245203166629, 0.19, 0.91, 0.406, 192.0, 0.0, 0.0, 0.0, 0.0, 0.0, 0.0, 0.0, 0.0, 0.0, 1.695677722646863E9, 0.0, 2023-09-25 16:35:22.646
164.0, -187500.02235174447, 18353.15148271936, -19959.90663288911, -34836.08780337427, 1218.684162936707, 8127.921298494494, -187500.02235174447, -4189.767442913943, 18060.455389077117, 10885.947750323743, -24693.089687000476, -4640.602128577487, 22435.407034803276, -3572.5240197806384, 14505.097509038153, -16124.995484947622, 0.19, 0.91, 0.406, 192.0, 0.0, 0.0, 0.0, 0.0, 0.0, 0.0, 0.0, 0.0, 0.0, 1.695677722646866E9, 0.0, 2023-09-25 16:35:22.646
166.0, -187500.02235174447, 18331.023255708606, -19995.24474087295, -34869.749530523964, 1286.0746724694577, 8104.407263327511, -187500.02235174447, -4230.581728289334, 18065.99862170203, 10923.096349608464, -24666.759332032125, -4636.4000006198885, 22461.804445004993, -3547.6241764574265, 14507.44444220596, -16158.634860352859, 0.19, 0.91, 0.406, 192.0, 0.0, 0.0, 0.0, 0.0, 0.0, 0.0, 0.0, 0.0, 0.0, 1.695677722707232E9, 0.0, 2023-09-25 16:35:22.707
168.0, -187500.02235174447, 18356.30307868756, -19973.027106884376, -34847.598951768756, 1215.2866977795004, 8114.286734376757, -187500.02235174447, -4202.195012831094, 18043.289249335437, 10902.86802087641, -24696.241282968676, -4623.3912853469, 22453.757817001086, -3553.6144439714485, 14481.806991315723, -16144.933241001754, 0.188, 0.908, 0.418, 192.0, 2.5, 112.0, 14.0, 48.0, 6.5, 8.0, 0.0, 0.0, 0.0, 1.695677722707242E9, 0.0, 2023-09-25 16:35:22.707
170.0, -187500.02235174447, 18352.4809303857, -19979.330298820772, -34850.63878901467, 1291.550849861008, 8126.602545571631, -187500.02235174447, -4193.433129004613, 18064.366944356792, 10924.124529853409, -24671.274384412096, -4642.993765234204, 22454.428369334742, -3557.3918887843956, 14507.48914569487, -16145.022647979577, 0.188, 0.908, 0.418, 192.0, 0.0, 0.0, 0.0, 0.0, 0.0, 0.0, 0.0, 0.0, 0.0, 1.695677722707245E9, 0.0, 2023-09-25 16:35:22.707
172.0, -187500.02235174447, 18347.317677416526, -19990.215598370505, -34860.294742619364, 1218.4382937476987, 8115.1137489216035, -187500.02235174447, -4202.507937253468, 18038.84125218883, 10911.272276791606, -24679.723343816204, -4620.217337634246, 22462.854976994393, -3541.1868740542977, 14496.357976956127, -16134.785549019045, 0.188, 0.908, 0.418, 192.0, 0.0, 0.0, 0.0, 0.0, 0.0, 0.0, 0.0, 0.0, 0.0, 1.695677722707248E9, 0.0, 2023-09-25 16:35:22.707
174.0, -187500.02235174447, 18339.896898257364, -19994.797705983845, -34868.967219468024, 1295.0153702515806, 8120.567574568699, -187500.02235174447, -4209.369922801247, 18033.70035096411, 10900.20816328623, -24685.22187295221, -4656.605977607486, 22440.3467703279, -3570.8252872020353, 14486.590264629158, -16157.137293474352, 0.188, 0.908, 0.418, 192.0, 0.0, 0.0, 0.0, 0.0, 0.0, 0.0, 0.0, 0.0, 0.0, 1.695677722707251E9, 0.0, 2023-09-25 16:35:22.707
176.0, -187500.02235174447, 18356.347782176468, -19971.775409194877, -34847.174268624105, 1218.3488867698775, 8117.393626856045, -187500.02235174447, -4190.125070825228, 18037.209574843597, 10911.965180869722, -24673.30839315753, -4599.698436224275, 22481.429276636754, -3520.735027877692, 14482.969282027398, -16147.011953236099, 0.188, 0.908, 0.418, 192.0, 0.0, 0.0, 0.0, 0.0, 0.0, 0.0, 0.0, 0.0, 0.0, 1.695677722707255E9, 0.0, 2023-09-25 16:35:22.707
178.0, -187500.02235174447, 18352.123302474418, -19986.527560535378, -34865.681513033094, 1281.2690474115668, 8111.850394231128, -187500.02235174447, -4220.12111188425, 18049.74890348302, 10890.283988748073, -24683.54549211806, -4660.763402076173, 22434.356502813876, -3572.4346128028174, 14499.39781420205, -16152.823406794478, 0.192, 0.902, 0.422, 192.0, 3.0, 0.0, 14.0, 24.0, 6.5, 24.0, 0.0, 0.0, 0.0, 1.695677722707258E9, 0.0, 2023-09-25 16:35:22.707
180.0, -187500.02235174447, 18364.64027936939, -19974.435266785058, -34854.08095766079, 1205.0943023078803, 8102.4626615599, -187500.02235174447, -4218.780007216931, 18045.81499645889, 10905.34906451095, -24669.843872766956, -4608.952058428772, 22482.323346414967, -3521.115007533432, 14488.288997207761, -16150.945860260234, 0.192, 0.902, 0.422, 192.0, 0.0, 0.0, 0.0, 0.0, 0.0, 0.0, 0.0, 0.0, 0.0, 1.695677722768999E9, 0.0, 2023-09-25 16:35:22.768
182.0, -187500.02235174447, 18332.856098753942, -20010.578037569292, -34895.65520234766, 1274.58587581943, 8092.359673066101, -187500.02235174447, -4253.805190778397, 18034.102682364308, 10878.281101975574, -24685.825370052502, -4669.838210325028, 22429.193249844702, -3584.370444341951, 14484.48920065036, -16179.936072818766, 0.192, 0.902, 0.422, 192.0, 0.0, 0.0, 0.0, 0.0, 0.0, 0.0, 0.0, 0.0, 0.0, 1.695677722769011E9, 0.0, 2023-09-25 16:35:22.769
184.0, -187500.02235174447, 18378.565416165045, -19980.693755232543, -34855.958504195034, 1209.3411337543887, 8096.025359156771, -187500.02235174447, -4223.049190407895, 18030.548754995914, 10918.49189025067, -24663.272459897096, -4578.933665625294, 22514.84513459744, -3500.663161356826, 14471.927520266478, -16175.175151249785, 0.192, 0.902, 0.422, 192.0, 0.0, 0.0, 0.0, 0.0, 0.0, 0.0, 0.0, 0.0, 0.0, 1.695677722769015E9, 0.0, 2023-09-25 16:35:22.769
186.0, -187500.02235174447, 18337.862889511933, -19988.986252425464, -34871.51531833593, 1273.6694542967623, 8110.151661652525, -187500.02235174447, -4232.146350401205, 18032.605115485803, 10887.44531720225, -24697.35887019144, -4666.977187034749, 22430.802575445483, -3592.819403746057, 14486.299691951239, -16161.71940108769, 0.192, 0.902, 0.422, 192.0, 0.0, 0.0, 0.0, 0.0, 0.0, 0.0, 0.0, 0.0, 0.0, 1.695677722769019E9, 0.0, 2023-09-25 16:35:22.769
188.0, -187500.02235174447, 18357.66653509933, -19977.5645110088, -34853.253943115946, 1227.2225293186343, 8093.544315522232, -187500.02235174447, -4228.16773988816, 18025.810185171387, 10933.40050380236, -24658.802111006036, -4571.468182977222, 22528.45734697072, -3489.1073094734325, 14483.662186105514, -16167.083819756965, 0.192, 0.902, 0.426, 192.0, 3.0, 0.0, 14.0, 24.0, 6.5, 40.0, 0.0, 0.0, 0.0, 1.695677722769022E9, 0.0, 2023-09-25 16:35:22.769
190.0, -187500.02235174447, 18360.438151411792, -19973.742362706944, -34852.404576826644, 1260.1690006457568, 8119.874670490583, -187500.02235174447, -4222.400989818691, 18035.734359709546, 10877.901122319832, -24705.249035984165, -4665.770192834162, 22428.992084144604, -3594.2499153911967, 14484.668014606003, -16153.695124828235, 0.192, 0.902, 0.426, 192.0, 0.0, 0.0, 0.0, 0.0, 0.0, 0.0, 0.0, 0.0, 0.0, 1.695677722769026E9, 0.0, 2023-09-25 16:35:22.769
192.0, -187500.02235174447, 18365.042610769586, -19959.549004977824, -34843.62034125571, 1235.6938404671957, 8108.631743029564, -187500.02235174447, -4212.588574002812, 18045.725589481066, 10940.150730627864, -24651.157814402322, -4582.845220904973, 22514.666320641794, -3496.863364799424, 14500.314235724716, -16150.543528860037, 0.192, 0.902, 0.426, 192.0, 0.0, 0.0, 0.0, 0.0, 0.0, 0.0, 0.0, 0.0, 0.0, 1.695677722769033E9, 0.0, 2023-09-25 16:35:22.769
194.0, -187500.02235174447, 18365.31083170305, -19963.728781190966, -34856.47259431751, 1254.0893261539134, 8111.336304108657, -187500.02235174447, -4217.282440338426, 18036.784891698946, 10884.070203789497, -24697.202407980254, -4669.748803347207, 22417.3915287723, -3589.801918244591, 14499.844849091156, -16143.77095029008, 0.192, 0.902, 0.426, 192.0, 0.0, 0.0, 0.0, 0.0, 0.0, 0.0, 0.0, 0.0, 0.0, 1.695677722769039E9, 0.0, 2023-09-25 16:35:22.769
196.0, -187500.02235174447, 18367.747171848678, -19965.762789936398, -34853.03042567139, 1249.1272388848352, 8103.088510404648, -187500.02235174447, -4214.868451937253, 18048.586612771345, 10945.090466152486, -24646.799224233535, -4593.775223943619, 22504.719794359185, -3495.343446176463, 14502.258837492329, -16155.706781829213, 0.192, 0.902, 0.426, 192.0, 0.0, 0.0, 0.0, 0.0, 0.0, 0.0, 0.0, 0.0, 0.0, 1.695677722826955E9, 0.0, 2023-09-25 16:35:22.826
198.0, -187500.02235174447, 18348.368209405926, -19977.586862753258, -34867.715521778526, 1249.5966255183966, 8101.1439086370365, -187500.02235174447, -4227.541891043412, 18030.52640325146, 10879.309282220518, -24689.021669509613, -4653.96847176176, 22441.129081383835, -3578.7154529947584, 14479.460058147915, -16155.237395195652, 0.196, 0.904, 0.41400000000000003, 192.0, 3.0, 16.0, 14.0, 32.0, 6.0, 120.0, 0.0, 0.0, 0.0, 1.695677722826963E9, 0.0, 2023-09-25 16:35:22.826
200.0, -187500.02235174447, 18362.986250279697, -19964.600499224725, -34849.02946341389, 1242.779343459528, 8092.158507366003, -187500.02235174447, -4222.155120629683, 18037.47779577706, 10938.183777115795, -24648.721474256694, -4580.677101692808, 22527.831498125972, -3500.350236934452, 14485.427973917482, -16173.051735526531, 0.196, 0.904, 0.41400000000000003, 192.0, 0.0, 0.0, 0.0, 0.0, 0.0, 0.0, 0.0, 0.0, 0.0, 1.695677722826967E9, 0.0, 2023-09-25 16:35:22.826
202.0, -187500.02235174447, 18370.049401527573, -19957.24677529893, -34837.6747772306, 1225.6579072067627, 8114.577307054676, -187500.02235174447, -4212.096835624795, 18040.96466791209, 10883.891389833856, -24703.2820824721, -4684.277437243157, 22417.57034272794, -3614.277078423152, 14497.609674645624, -16131.745711773125, 0.196, 0.904, 0.41400000000000003, 192.0, 0.0, 0.0, 0.0, 0.0, 0.0, 0.0, 0.0, 0.0, 0.0, 1.695677722826971E9, 0.0, 2023-09-25 16:35:22.826
204.0, -187500.02235174447, 18357.91240428834, -19982.86187444471, -34853.63392277169, 1266.5615995599746, 8087.084661374648, -187500.02235174447, -4240.282385382937, 18046.642011003736, 10944.26345160764, -24643.759386987615, -4623.793616747095, 22493.87919829836, -3511.8613853289353, 14499.598979902146, -16168.760200591112, 0.196, 0.904, 0.41400000000000003, 192.0, 0.0, 0.0, 0.0, 0.0, 0.0, 0.0, 0.0, 0.0, 0.0, 1.695677722826974E9, 0.0, 2023-09-25 16:35:22.826
206.0, -187500.02235174447, 18356.72776183221, -19968.914385904598, -34840.78166970988, 1222.5063112385644, 8102.060330159704, -187500.02235174447, -4231.40874283418, 18019.50699323499, 10884.651349145335, -24697.403573680353, -4665.054937011592, 22437.664560993264, -3576.6814442493255, 14476.889607535555, -16152.354020160918, 0.196, 0.904, 0.41400000000000003, 192.0, 0.0, 0.0, 0.0, 0.0, 0.0, 0.0, 0.0, 0.0, 0.0, 1.695677722826978E9, 0.0, 2023-09-25 16:35:22.826
208.0, -187500.02235174447, 18361.95807003475, -19965.67338295858, -34835.59606499625, 1267.0533379379915, 8104.876649961073, -187500.02235174447, -4232.280460867937, 18038.081292877352, 10921.867003663421, -24657.63982029436, -4630.1191604279475, 22490.79465756353, -3525.540652935583, 14496.357976956127, -16162.121732487885, 0.194, 0.904, 0.41200000000000003, 192.0, 3.0, 8.0, 14.0, 32.0, 6.0, 112.0, 0.0, 0.0, 0.0, 1.695677722826981E9, 0.0, 2023-09-25 16:35:22.826
210.0, -187500.02235174447, 18355.319601931526, -19960.800702667322, -34839.28410283138, 1213.6997239231735, 8106.1954028839355, -187500.02235174447, -4235.141484158216, 18024.223211315064, 10887.892352091356, -24695.74954459066, -4672.810992337584, 22433.954171413683, -3580.771813484647, 14487.372575685094, -16140.686409555246, 0.194, 0.904, 0.41200000000000003, 192.0, 0.0, 0.0, 0.0, 0.0, 0.0, 0.0, 0.0, 0.0, 0.0, 1.695677722886782E9, 0.0, 2023-09-25 16:35:22.886
212.0, -187500.02235174447, 18357.66653509933, -19969.629641727166, -34841.74279472146, 1276.2622566535779, 8107.089472662148, -187500.02235174447, -4238.293080126415, 18028.62650497276, 10916.815509416523, -24657.43865459426, -4650.213378693268, 22472.577985832453, -3539.6222519424264, 14491.082965264675, -16166.502674401127, 0.194, 0.904, 0.41200000000000003, 192.0, 0.0, 0.0, 0.0, 0.0, 0.0, 0.0, 0.0, 0.0, 0.0, 1.695677722886799E9, 0.0, 2023-09-25 16:35:22.886
214.0, -187500.02235174447, 18355.051380998062, -19965.85219691422, -34837.741832463966, 1212.5597849559529, 8098.864030702595, -187500.02235174447, -4239.433019093635, 18025.988999127032, 10897.883581862878, -24682.673774084305, -4643.664317567864, 22453.131968156336, -3542.1703508103315, 14477.001366257831, -16155.975002762676, 0.194, 0.904, 0.41200000000000003, 192.0, 0.0, 0.0, 0.0, 0.0, 0.0, 0.0, 0.0, 0.0, 0.0, 1.695677722886803E9, 0.0, 2023-09-25 16:35:22.886
216.0, -187500.02235174447, 18350.06694198453, -19968.266185315395, -34843.19565811106, 1285.359416646888, 8109.324647107679, -187500.02235174447, -4238.740115015521, 18036.56137425439, 10911.227573302696, -24668.16749193281, -4658.103544485992, 22456.618840291365, -3542.9750136107227, 14497.00617754533, -16153.113979472397, 0.194, 0.904, 0.41200000000000003, 192.0, 0.0, 0.0, 0.0, 0.0, 0.0, 0.0, 0.0, 0.0, 0.0, 1.695677722886806E9, 0.0, 2023-09-25 16:35:22.886
218.0, -187500.02235174447, 18360.77342757862, -19945.445054226526, -34821.69327994505, 1205.9883720860926, 8104.988408683349, -187500.02235174447, -4215.226079848538, 18017.495336234017, 10902.689206920768, -24685.735963074683, -4643.552558845587, 22461.2009479047, -3539.063458331044, 14480.756459326323, -16146.855491024911, 0.196, 0.904, 0.41600000000000004, 192.0, 3.0, 16.0, 14.0, 32.0, 6.5, 0.0, 0.0, 0.0, 0.0, 1.695677722886809E9, 0.0, 2023-09-25 16:35:22.886
220.0, -187500.02235174447, 18343.137901203383, -19971.37307779468, -34851.26463785942, 1292.4449196392202, 8098.662865002498, -187500.02235174447, -4236.571995803356, 18030.749920696013, 10900.811660386522, -24669.665058811315, -4681.148193019413, 22441.352598828387, -3558.80004868508, 14504.404604960038, -16161.115903987398, 0.196, 0.904, 0.41600000000000004, 192.0, 0.0, 0.0, 0.0, 0.0, 0.0, 0.0, 0.0, 0.0, 0.0, 1.695677722886813E9, 0.0, 2023-09-25 16:35:22.886
222.0, -187500.02235174447, 18355.945450776275, -19964.555795735814, -34839.90995167613, 1219.9805641151147, 8094.460737044899, -187500.02235174447, -4219.6964287395995, 18020.579876968848, 10898.241209774162, -24671.117922200912, -4634.991840719204, 22471.72861954315, -3524.9818593242003, 14491.954683298432, -16151.661116082803, 0.196, 0.904, 0.41600000000000004, 192.0, 0.0, 0.0, 0.0, 0.0, 0.0, 0.0, 0.0, 0.0, 0.0, 1.695677722886816E9, 0.0, 2023-09-25 16:35:22.886
224.0, -187500.02235174447, 18341.573279091514, -19987.84631345824, -34865.94973396656, 1303.9784197781587, 8092.002045154816, -187500.02235174447, -4243.098705184306, 18022.144499080718, 10896.564828940014, -24670.98381173418, -4664.049108511103, 22452.59552628941, -3554.374403282929, 14488.266645463305, -16174.638709382858, 0.196, 0.904, 0.41600000000000004, 192.0, 0.0, 0.0, 0.0, 0.0, 0.0, 0.0, 0.0, 0.0, 0.0, 1.695677722886819E9, 0.0, 2023-09-25 16:35:22.886
226.0, -187500.02235174447, 18370.563491650046, -19958.453769499512, -34829.98577713797, 1219.3994187592768, 8100.294542347735, -187500.02235174447, -4202.016198875452, 18016.400100755705, 10918.916573395321, -24663.45127385274, -4591.33888379799, 22514.353396219423, -3495.477556643195, 14476.599034857636, -16157.00318300762, 0.196, 0.904, 0.41600000000000004, 192.0, 0.0, 0.0, 0.0, 0.0, 0.0, 0.0, 0.0, 0.0, 0.0, 1.695677722947007E9, 0.0, 2023-09-25 16:35:22.947
228.0, -187500.02235174447, 18364.617927624935, -19979.307947076315, -34852.11400414872, 1296.6023441079074, 8099.802803969718, -187500.02235174447, -4224.144425886206, 18039.064769633387, 10891.692148648757, -24687.25588169764, -4681.841097097528, 22432.68012197973, -3573.529848281127, 14494.860410077621, -16149.537700359548, 0.192, 0.912, 0.40800000000000003, 192.0, 3.0, 0.0, 14.0, 64.0, 6.0, 96.0, 0.0, 0.0, 0.0, 1.695677722947032E9, 0.0, 2023-09-25 16:35:22.947
230.0, -187500.02235174447, 18373.11159051795, -19948.149615305618, -34821.31330028931, 1228.2730613080337, 8098.528754535766, -187500.02235174447, -4186.928771368119, 18027.285400305438, 10919.028332117598, -24660.478491840186, -4599.251401335168, 22511.380614206864, -3489.2637716846198, 14490.591226886658, -16147.660153825302, 0.192, 0.912, 0.40800000000000003, 192.0, 0.0, 0.0, 0.0, 0.0, 0.0, 0.0, 0.0, 0.0, 0.0, 1.695677722947035E9, 0.0, 2023-09-25 16:35:22.947
232.0, -187500.02235174447, 18355.096084486973, -19974.77054295189, -34857.61253328473, 1301.8326523104492, 8105.591905783643, -187500.02235174447, -4214.019085647951, 18045.23385110305, 10865.540607636049, -24694.587253878984, -4704.751635164218, 22419.783165429017, -3584.5269065531384, 14508.226753261895, -16135.657267052802, 0.192, 0.912, 0.40800000000000003, 192.0, 0.0, 0.0, 0.0, 0.0, 0.0, 0.0, 0.0, 0.0, 0.0, 1.695677722947039E9, 0.0, 2023-09-25 16:35:22.947
234.0, -187500.02235174447, 18365.981384036706, -19963.19233932404, -34838.81471619782, 1244.3663173158548, 8092.247914343824, -187500.02235174447, -4196.472966250535, 18024.603190970804, 10918.40248327285, -24653.907078970326, -4590.467165764233, 22535.118166818404, -3470.9800447201783, 14487.77490708529, -16155.460912640205, 0.192, 0.912, 0.40800000000000003, 192.0, 0.0, 0.0, 0.0, 0.0, 0.0, 0.0, 0.0, 0.0, 0.0, 1.695677722947042E9, 0.0, 2023-09-25 16:35:22.947
236.0, -187500.02235174447, 18371.07758177252, -19963.728781190966, -34842.50275403294, 1288.8462887819157, 8118.444158845444, -187500.02235174447, -4195.73535868351, 18028.782967183946, 10853.872997030378, -24701.940977804778, -4691.78762338014, 22442.581944773432, -3577.486107049717, 14495.307444966727, -16132.19274666223, 0.192, 0.912, 0.40800000000000003, 192.0, 0.0, 0.0, 0.0, 0.0, 0.0, 0.0, 0.0, 0.0, 0.0, 1.695677722947046E9, 0.0, 2023-09-25 16:35:22.947
238.0, -187500.02235174447, 18382.096991788985, -19962.745304434935, -34839.64173074266, 1257.620901777852, 8100.920391192483, -187500.02235174447, -4197.881126151219, 18036.740188210035, 10915.764977427123, -24649.414378334808, -4602.715921725741, 22540.035550598568, -3466.6214545513935, 14498.816668846212, -16140.351133388416, 0.192, 0.912, 0.402, 192.0, 3.0, 0.0, 14.0, 64.0, 6.0, 72.0, 0.0, 0.0, 0.0, 1.69567772294705E9, 0.0, 2023-09-25 16:35:22.947
240.0, -187500.02235174447, 18349.083465228494, -19977.877435431175, -34859.55713505234, 1289.0251027375582, 8106.977713939872, -187500.02235174447, -4210.331047812825, 18020.401063013203, 10851.593119095936, -24691.882692799893, -4680.790565108128, 22458.429331592244, -3555.402583527873, 14492.066442020709, -16141.044037466532, 0.192, 0.912, 0.402, 192.0, 0.0, 0.0, 0.0, 0.0, 0.0, 0.0, 0.0, 0.0, 0.0, 1.695677723007748E9, 0.0, 2023-09-25 16:35:23.007
242.0, -187500.02235174447, 18360.6840206008, -19964.488740502446, -34837.49596327495, 1263.454707080687, 8104.4296150719665, -187500.02235174447, -4190.929733625619, 18028.827670672854, 10901.415157486816, -24651.40368359133, -4588.3213982965235, 22551.591402481965, -3455.7585067461146, 14492.893456565555, -16146.810787536, 0.192, 0.912, 0.402, 192.0, 0.0, 0.0, 0.0, 0.0, 0.0, 0.0, 0.0, 0.0, 0.0, 1.695677723007787E9, 0.0, 2023-09-25 16:35:23.007
244.0, -187500.02235174447, 18343.987267492685, -19983.599482011734, -34861.99347519797, 1280.2408671666226, 8108.765853496297, -187500.02235174447, -4216.410722304669, 18011.460365231083, 10845.535796348548, -24702.142143504876, -4676.588437150531, 22457.87053798086, -3554.709679449759, 14498.213171745918, -16127.074197181964, 0.192, 0.912, 0.402, 192.0, 0.0, 0.0, 0.0, 0.0, 0.0, 0.0, 0.0, 0.0, 0.0, 1.695677723007793E9, 0.0, 2023-09-25 16:35:23.007
246.0, -187500.02235174447, 18364.908500302852, -19963.728781190966, -34842.16747786611, 1268.1709251607567, 8099.355769080612, -187500.02235174447, -4196.696483695088, 18010.722757664058, 10909.685302935279, -24664.07712269749, -4589.461337263744, 22551.65845771533, -3455.9149689573014, 14490.904151309032, -16157.204348707719, 0.192, 0.912, 0.402, 192.0, 0.0, 0.0, 0.0, 0.0, 0.0, 0.0, 0.0, 0.0, 0.0, 1.695677723007796E9, 0.0, 2023-09-25 16:35:23.007
248.0, -187500.02235174447, 18361.935718290297, -19962.655897457113, -34844.40265231164, 1266.941579215715, 8115.851356488629, -187500.02235174447, -4196.741187183999, 18012.17562105365, 10869.943901293744, -24704.377317950406, -4677.616617395475, 22459.54691881501, -3544.338470022496, 14497.29675022325, -16125.7554442591, 0.198, 0.912, 0.406, 192.0, 3.0, 24.0, 14.0, 64.0, 6.0, 88.0, 0.0, 0.0, 0.0, 1.695677723007799E9, 0.0, 2023-09-25 16:35:23.007
250.0, -187500.02235174447, 18357.800645566065, -19968.08737135975, -34843.82150695581, 1287.907515514793, 8100.9650946813945, -187500.02235174447, -4209.325219312336, 18018.27764728995, 10940.418951561327, -24642.82061372049, -4605.621648504931, 22546.785777424073, -3450.0141084211004, 14503.219962503907, -16146.788435791546, 0.198, 0.912, 0.406, 192.0, 0.0, 0.0, 0.0, 0.0, 0.0, 0.0, 0.0, 0.0, 0.0, 1.695677723007802E9, 0.0, 2023-09-25 16:35:23.007
252.0, -187500.02235174447, 18365.579052636513, -19962.342973034738, -34838.83706794227, 1253.6646430092626, 8105.614257528098, -187500.02235174447, -4208.051169878384, 17995.50121968999, 10889.367567225405, -24692.486189900184, -4658.438820652821, 22474.455532366697, -3530.1227605489207, 14495.732128111378, -16130.76223501709, 0.198, 0.912, 0.406, 192.0, 0.0, 0.0, 0.0, 0.0, 0.0, 0.0, 0.0, 0.0, 0.0, 1.695677723007806E9, 0.0, 2023-09-25 16:35:23.007
254.0, -187500.02235174447, 18349.530500117602, -19972.714182462, -34851.46580355952, 1285.806451535994, 8085.69885321842, -187500.02235174447, -4226.021972420451, 18021.831574658343, 10938.317887582527, -24650.666076024303, -4622.2513463796795, 22523.249390512632, -3473.706957543726, 14506.639779405568, -16152.421075394283, 0.198, 0.912, 0.406, 192.0, 0.0, 0.0, 0.0, 0.0, 0.0, 0.0, 0.0, 0.0, 0.0, 1.695677723007809E9, 0.0, 2023-09-25 16:35:23.007
0.0, -187500.02235174447, 18359.521729889122, -19956.777388665367, -34838.39003305317, 1235.939709656204, 8092.3373213216455, -187500.02235174447, -4224.658516008677, 18003.07846106034, 10883.220837500196, -24688.954614276245, -4649.5428263596095, 22475.707230056196, -3523.774865123614, 14483.013985516309, -16143.994467734632, 0.198, 0.912, 0.406, 192.0, 0.0, 0.0, 0.0, 0.0, 0.0, 0.0, 0.0, 0.0, 0.0, 1.695677723068275E9, 0.0, 2023-09-25 16:35:23.068
2.0, -187500.02235174447, 18362.360401434948, -19960.107798589208, -34839.686434231575, 1290.7238353161617, 8092.784356210752, -187500.02235174447, -4223.719742741554, 18019.976379868553, 10913.976837870698, -24651.046055680046, -4624.330058614023, 22517.572047420985, -3482.312379159019, 14510.998369574354, -16151.638764338348, 0.198, 0.91, 0.41000000000000003, 192.0, 3.0, 24.0, 14.0, 56.0, 6.0, 104.0, 0.0, 0.0, 0.0, 1.695677723068283E9, 0.0, 2023-09-25 16:35:23.068
4.0, -187500.02235174447, 18361.466331656735, -19959.48194974446, -34838.18886735307, 1231.9834508876147, 8091.644417243531, -187500.02235174447, -4218.489434539012, 18001.357376737284, 10881.544456666048, -24683.32197467351, -4640.780942533129, 22479.909358013792, -3519.2598127436418, 14493.161677499018, -16141.736941544646, 0.198, 0.91, 0.41000000000000003, 192.0, 0.0, 0.0, 0.0, 0.0, 0.0, 0.0, 0.0, 0.0, 0.0, 1.695677723068287E9, 0.0, 2023-09-25 16:35:23.068
6.0, -187500.02235174447, 18347.34002916098, -19980.716106977, -34854.86326871673, 1309.5216524030748, 8092.426728299467, -187500.02235174447, -4228.659478266177, 17994.405984211684, 10907.628942445392, -24656.321067371497, -4620.82083473454, 22515.158059019814, -3486.8721350279015, 14500.560104913726, -16160.154778975819, 0.198, 0.91, 0.41000000000000003, 192.0, 0.0, 0.0, 0.0, 0.0, 0.0, 0.0, 0.0, 0.0, 0.0, 1.69567772306829E9, 0.0, 2023-09-25 16:35:23.068
8.0, -187500.02235174447, 18360.058171756053, -19961.89593814563, -34837.94299816406, 1235.7385439561062, 8101.970923181882, -187500.02235174447, -4206.866527422253, 17978.133914248217, 10887.691186391257, -24678.15872170433, -4597.284447823101, 22514.39809970833, -3486.290989672064, 14488.624273374591, -16146.162586946797, 0.198, 0.91, 0.41000000000000003, 192.0, 0.0, 0.0, 0.0, 0.0, 0.0, 0.0, 0.0, 0.0, 0.0, 1.695677723068294E9, 0.0, 2023-09-25 16:35:23.068
10.0, -187500.02235174447, 18345.194261693272, -19970.94839465003, -34851.59991402625, 1302.9725912776698, 8099.467527802888, -187500.02235174447, -4213.259126336471, 17996.37293772375, 10895.000206828143, -24672.906061757334, -4633.5166255851545, 22500.62942512386, -3508.150995749354, 14507.466793950414, -16149.962383504198, 0.198, 0.91, 0.41000000000000003, 192.0, 0.0, 0.0, 0.0, 0.0, 0.0, 0.0, 0.0, 0.0, 0.0, 1.695677723068297E9, 0.0, 2023-09-25 16:35:23.068
12.0, -187500.02235174447, 18359.007639766653, -19954.89984213112, -34833.2714835729, 1227.5131019965534, 8099.802803969718, -187500.02235174447, -4197.2105738175605, 17986.493466674503, 10893.01090157162, -24688.328765431495, -4612.5059857971655, 22513.59343690794, -3499.478518900695, 14493.20638098793, -16137.177185675764, 0.194, 0.908, 0.41000000000000003, 192.0, 3.0, 8.0, 14.0, 48.0, 6.0, 104.0, 0.0, 0.0, 0.0, 1.695677723068301E9, 0.0, 2023-09-25 16:35:23.068
14.0, -187500.02235174447, 18351.11747397393, -19963.6617259576, -34844.93909417857, 1300.2233267096672, 8103.379083082567, -187500.02235174447, -4210.018123390451, 17998.13872553572, 10886.01480555711, -24681.757352561635, -4662.372727676956, 22482.54686385952, -3539.2422722866863, 14503.175259014995, -16143.033342723054, 0.194, 0.908, 0.41000000000000003, 192.0, 0.0, 0.0, 0.0, 0.0, 0.0, 0.0, 0.0, 0.0, 0.0, 1.695677723127181E9, 0.0, 2023-09-25 16:35:23.127
16.0, -187500.02235174447, 18345.97657274921, -19967.126246348173, -34844.089727889266, 1217.0077821025588, 8078.255722314802, -187500.02235174447, -4223.295059596903, 17982.626614883735, 10897.481250462683, -24669.888576255868, -4612.170709630336, 22520.813050367004, -3492.504774630639, 14489.786564086267, -16147.660153825302, 0.194, 0.908, 0.41000000000000003, 192.0, 0.0, 0.0, 0.0, 0.0, 0.0, 0.0, 0.0, 0.0, 0.0, 1.695677723127194E9, 0.0, 2023-09-25 16:35:23.127
18.0, -187500.02235174447, 18356.034857754097, -19965.04753411383, -34845.87786744569, 1282.1184137008684, 8094.281923089257, -187500.02235174447, -4226.334896842825, 17985.711155618566, 10881.477401432681, -24692.150913733356, -4672.520419659665, 22477.562424845986, -3546.7748101681245, 14494.34631995515, -16153.359848661406, 0.194, 0.908, 0.41000000000000003, 192.0, 0.0, 0.0, 0.0, 0.0, 0.0, 0.0, 0.0, 0.0, 0.0, 1.695677723127197E9, 0.0, 2023-09-25 16:35:23.127
20.0, -187500.02235174447, 18368.21655848224, -19949.825996139767, -34829.91872190461, 1224.9650031286483, 8087.844620686129, -187500.02235174447, -4213.817919947854, 17997.021138312954, 10923.49868100866, -24670.804997778538, -4624.732390014218, 22521.371843978388, -3496.3269229324965, 14500.358939213627, -16142.541604345037, 0.194, 0.908, 0.41000000000000003, 192.0, 0.0, 0.0, 0.0, 0.0, 0.0, 0.0, 0.0, 0.0, 0.0, 1.695677723127201E9, 0.0, 2023-09-25 16:35:23.127
22.0, -187500.02235174447, 18358.784122322097, -19960.219557311484, -34842.99449241096, 1303.2631639555889, 8098.774623724774, -187500.02235174447, -4220.210518862071, 17996.842324357312, 10894.910799850322, -24685.735963074683, -4685.797355866117, 22465.000744462104, -3555.447287016784, 14509.299636995751, -16142.362790389394, 0.194, 0.906, 0.41400000000000003, 192.0, 3.0, 8.0, 14.0, 40.0, 6.0, 120.0, 0.0, 0.0, 0.0, 1.695677723127205E9, 0.0, 2023-09-25 16:35:23.127
24.0, -187500.02235174447, 18361.242814212183, -19950.8094728958, -34829.78461143787, 1242.19819810369, 8086.615274741087, -187500.02235174447, -4219.2270421060375, 17984.772382351446, 10923.319867053016, -24656.812805749512, -4603.475881037221, 22533.687655173264, -3477.529105845583, 14505.522192182803, -16146.251993924618, 0.194, 0.906, 0.41400000000000003, 192.0, 0.0, 0.0, 0.0, 0.0, 0.0, 0.0, 0.0, 0.0, 0.0, 1.695677723127208E9, 0.0, 2023-09-25 16:35:23.127
26.0, -187500.02235174447, 18348.412912894837, -19963.751132935424, -34845.72140523451, 1289.2039166932007, 8097.254705101813, -187500.02235174447, -4235.677926025143, 17978.335079948316, 10881.410346199316, -24681.757352561635, -4675.426146438855, 22461.96090721618, -3557.8836271624123, 14502.482354936881, -16149.045961981532, 0.194, 0.906, 0.41400000000000003, 192.0, 0.0, 0.0, 0.0, 0.0, 0.0, 0.0, 0.0, 0.0, 0.0, 1.695677723127212E9, 0.0, 2023-09-25 16:35:23.127
28.0, -187500.02235174447, 18356.928927532306, -19950.13892056214, -34830.61162598272, 1237.459628279165, 8085.452984029411, -187500.02235174447, -4229.039457921917, 17989.33213822033, 10916.368474527417, -24643.580573031973, -4583.560476727543, 22544.148271578346, -3458.0160329361, 14505.96922707191, -16149.604755592914, 0.194, 0.906, 0.41400000000000003, 192.0, 0.0, 0.0, 0.0, 0.0, 0.0, 0.0, 0.0, 0.0, 0.0, 1.695677723127215E9, 0.0, 2023-09-25 16:35:23.127
30.0, -187500.02235174447, 18348.77054080612, -19963.304098046316, -34845.40848081213, 1278.0503962100026, 8096.673559745975, -187500.02235174447, -4236.46023708108, 17983.677146873135, 10854.454142386216, -24688.954614276245, -4675.850829583505, 22448.035770420527, -3563.024528387133, 14503.532886926281, -16142.765121789591, 0.194, 0.906, 0.41400000000000003, 192.0, 0.0, 0.0, 0.0, 0.0, 0.0, 0.0, 0.0, 0.0, 0.0, 1.695677723187455E9, 0.0, 2023-09-25 16:35:23.187
32.0, -187500.02235174447, 18378.699526631775, -19939.76771113488, -34819.03342235487, 1249.5295702850308, 8084.961245651394, -187500.02235174447, -4206.866527422253, 17992.86371384427, 10911.249925047152, -24640.36192183041, -4579.201886558758, 22544.349437278444, -3453.0092421781114, 14506.01393056082, -16145.648496824326, 0.192, 0.906, 0.41200000000000003, 192.0, 3.0, 0.0, 14.0, 40.0, 6.0, 112.0, 0.0, 0.0, 0.0, 1.695677723187462E9, 0.0, 2023-09-25 16:35:23.187
34.0, -187500.02235174447, 18366.629584625913, -19954.229289797462, -34837.585370252775, 1280.911419500282, 8102.105033648615, -187500.02235174447, -4225.709047998077, 18001.558542437382, 10851.280194673562, -24684.104285729445, -4684.858582598994, 22429.036787633515, -3559.247083574186, 14525.102320325652, -16119.675769767258, 0.192, 0.906, 0.41200000000000003, 192.0, 0.0, 0.0, 0.0, 0.0, 0.0, 0.0, 0.0, 0.0, 0.0, 1.695677723187465E9, 0.0, 2023-09-25 16:35:23.187
36.0, -187500.02235174447, 18371.21169223925, -19950.250679284418, -34831.304530060836, 1266.0922129264134, 8078.054556614704, -187500.02235174447, -4217.260088593971, 17987.99103355301, 10925.823262432012, -24630.59420950344, -4579.246590047668, 22543.544774478054, -3437.2959658260306, 14517.636837677579, -16151.43759863825, 0.192, 0.906, 0.41200000000000003, 192.0, 0.0, 0.0, 0.0, 0.0, 0.0, 0.0, 0.0, 0.0, 0.0, 1.695677723187469E9, 0.0, 2023-09-25 16:35:23.187
38.0, -187500.02235174447, 18350.782197807097, -19965.494569002934, -34853.745681493965, 1267.746242016106, 8087.062309630193, -187500.02235174447, -4231.565205045367, 17985.867617829754, 10872.000261783633, -24689.06637299852, -4661.277492198646, 22454.674238523752, -3529.340449492985, 14508.137346284075, -16135.277287397063, 0.192, 0.906, 0.41200000000000003, 192.0, 0.0, 0.0, 0.0, 0.0, 0.0, 0.0, 0.0, 0.0, 0.0, 1.695677723187472E9, 0.0, 2023-09-25 16:35:23.187
40.0, -187500.02235174447, 18369.311793960547, -19951.14474906263, -34836.89246617466, 1268.3720908608545, 8079.775640937763, -187500.02235174447, -4216.969515916052, 17994.71890863406, 10929.824224689512, -24641.45715730872, -4575.3797382569, 22554.765350194615, -3434.3455355579304, 14504.225791004395, -16160.177130720274, 0.192, 0.906, 0.41200000000000003, 192.0, 0.0, 0.0, 0.0, 0.0, 0.0, 0.0, 0.0, 0.0, 0.0, 1.695677723187476E9, 0.0, 2023-09-25 16:35:23.187
42.0, -187500.02235174447, 18352.793854808075, -19970.210787083004, -34856.673760017606, 1256.2574453660782, 8082.234332827847, -187500.02235174447, -4240.50590282749, 17984.995899796, 10871.687337361258, -24694.60960562344, -4658.081192741536, 22460.686857782228, -3532.916728605834, 14506.460965449925, -16136.618392064382, 0.192, 0.906, 0.406, 192.0, 3.0, 0.0, 14.0, 40.0, 6.0, 88.0, 0.0, 0.0, 0.0, 1.695677723187479E9, 0.0, 2023-09-25 16:35:23.187
44.0, -187500.02235174447, 18369.468256171735, -19963.14763583513, -34844.40265231164, 1280.8667160113712, 8075.729975191352, -187500.02235174447, -4230.917004456163, 17986.113487018763, 10937.669686993324, -24643.960552687713, -4576.787898157585, 22547.74690243565, -3444.4932275406395, 14500.716567124911, -16165.407438922817, 0.192, 0.906, 0.406, 192.0, 0.0, 0.0, 0.0, 0.0, 0.0, 0.0, 0.0, 0.0, 0.0, 1.695677723247724E9, 0.0, 2023-09-25 16:35:23.247
46.0, -187500.02235174447, 18365.86962531443, -19962.8123596683, -34851.778727981895, 1246.9591196726703, 8086.391757296534, -187500.02235174447, -4234.068600424362, 17979.050335770888, 10882.080898532975, -24686.74179157517, -4629.1803871608245, 22476.57894808995, -3519.215109254731, 14497.699081623447, -16142.698066556224, 0.192, 0.906, 0.406, 192.0, 0.0, 0.0, 0.0, 0.0, 0.0, 0.0, 0.0, 0.0, 0.0, 1.695677723247748E9, 0.0, 2023-09-25 16:35:23.247
48.0, -187500.02235174447, 18363.857968313452, -19967.08154285926, -34853.65627451614, 1288.198088192712, 8079.0156816262825, -187500.02235174447, -4238.114266170772, 17991.589664410312, 10921.464672263226, -24644.362884087906, -4587.784956429596, 22531.564239450006, -3461.5923120489497, 14506.617427661113, -16162.278194699073, 0.192, 0.906, 0.406, 192.0, 0.0, 0.0, 0.0, 0.0, 0.0, 0.0, 0.0, 0.0, 0.0, 1.695677723247752E9, 0.0, 2023-09-25 16:35:23.247
50.0, -187500.02235174447, 18361.488683401192, -19971.753057450424, -34862.01582694243, 1227.9824886301146, 8066.610463453587, -187500.02235174447, -4242.405801106191, 17976.770457836446, 10870.949729794233, -24689.89338754337, -4625.380590603422, 22478.68001206875, -3517.0022865536557, 14487.752555340834, -16152.443427138738, 0.192, 0.906, 0.406, 192.0, 0.0, 0.0, 0.0, 0.0, 0.0, 0.0, 0.0, 0.0, 0.0, 1.695677723247755E9, 0.0, 2023-09-25 16:35:23.247
52.0, -187500.02235174447, 18369.311793960547, -19965.785141680855, -34851.24228611497, 1282.0737102119579, 8070.276149544257, -187500.02235174447, -4239.097742926806, 17992.5954929108, 10902.733910409679, -24654.77879700408, -4608.52737528412, 22519.56135267751, -3486.7603763056254, 14490.367709442105, -16184.473476943193, 0.196, 0.904, 0.41000000000000003, 192.0, 3.0, 16.0, 14.0, 32.0, 6.0, 104.0, 0.0, 0.0, 0.0, 1.695677723247759E9, 0.0, 2023-09-25 16:35:23.247
54.0, -187500.02235174447, 18354.24671819767, -19955.0116008534, -34841.25105634345, 1225.7026106956735, 8085.050652629216, -187500.02235174447, -4230.291155611415, 17981.33021370533, 10878.683433375769, -24682.651422339848, -4631.281451139624, 22488.335965673443, -3519.3715714659184, 14499.286055479772, -16140.462892110694, 0.196, 0.904, 0.41000000000000003, 192.0, 0.0, 0.0, 0.0, 0.0, 0.0, 0.0, 0.0, 0.0, 0.0, 1.695677723247762E9, 0.0, 2023-09-25 16:35:23.247
56.0, -187500.02235174447, 18338.846366267964, -19987.44398205805, -34873.594030570275, 1297.4964138861196, 8059.614367439076, -187500.02235174447, -4271.574827620367, 17975.854036313776, 10904.9243813663, -24657.30454412753, -4622.497215568687, 22522.60118992343, -3491.2307251966868, 14496.961474056421, -16182.327709475483, 0.196, 0.904, 0.41000000000000003, 192.0, 0.0, 0.0, 0.0, 0.0, 0.0, 0.0, 0.0, 0.0, 0.0, 1.695677723247766E9, 0.0, 2023-09-25 16:35:23.247
58.0, -187500.02235174447, 18361.01929676763, -19957.80556891031, -34840.379338309685, 1228.6083374748632, 8070.343204777623, -187500.02235174447, -4233.509806812979, 17954.105788958765, 10892.139183537864, -24678.337535659975, -4582.979331371705, 22544.014161111612, -3477.506754101128, 14481.114087237607, -16169.229587224674, 0.196, 0.904, 0.41000000000000003, 192.0, 0.0, 0.0, 0.0, 0.0, 0.0, 0.0, 0.0, 0.0, 0.0, 1.695677723247769E9, 0.0, 2023-09-25 16:35:23.247
60.0, -187500.02235174447, 18359.365267677935, -19965.29340330284, -34846.391957568165, 1301.7879488215387, 8079.93210314895, -187500.02235174447, -4232.459274823579, 17977.17278923664, 10911.629904702892, -24667.94397448826, -4611.611916018953, 22528.345588248445, -3496.8857165438794, 14512.786509130778, -16160.266537698095, 0.196, 0.904, 0.41000000000000003, 192.0, 0.0, 0.0, 0.0, 0.0, 0.0, 0.0, 0.0, 0.0, 0.0, 1.695677723308134E9, 0.0, 2023-09-25 16:35:23.308
62.0, -187500.02235174447, 18387.461410458258, -19946.629696682656, -34824.55430323533, 1220.3828955153103, 8082.4131467834895, -187500.02235174447, -4221.909251440675, 17969.930824033123, 10917.240192561174, -24677.287003670575, -4598.67025597933, 22530.334893504965, -3488.839088539969, 14495.39685194455, -16139.613525821393, 0.194, 0.914, 0.41000000000000003, 192.0, 3.0, 8.0, 14.0, 72.0, 6.0, 104.0, 0.0, 0.0, 0.0, 1.695677723308143E9, 0.0, 2023-09-25 16:35:23.308
64.0, -187500.02235174447, 18359.700543844767, -19973.541197006845, -34856.71846350652, 1310.0804460144575, 8078.322777548168, -187500.02235174447, -4246.250301152504, 17972.680088601122, 10909.551192468547, -24676.437637381274, -4652.806181050084, 22498.729526845163, -3523.5960511679714, 14498.615503146113, -16164.312203444506, 0.194, 0.914, 0.41000000000000003, 192.0, 0.0, 0.0, 0.0, 0.0, 0.0, 0.0, 0.0, 0.0, 0.0, 1.695677723308147E9, 0.0, 2023-09-25 16:35:23.308
66.0, -187500.02235174447, 18369.311793960547, -19951.994115351932, -34836.13250686318, 1235.0903433669023, 8074.724146690864, -187500.02235174447, -4224.055018908384, 17953.79286453639, 10924.236288575685, -24668.815692522014, -4578.799555158563, 22557.89459441836, -3461.0782219264775, 14490.34535769765, -16150.8117497935, 0.194, 0.914, 0.41000000000000003, 192.0, 0.0, 0.0, 0.0, 0.0, 0.0, 0.0, 0.0, 0.0, 0.0, 1.69567772330815E9, 0.0, 2023-09-25 16:35:23.308
68.0, -187500.02235174447, 18362.40510492386, -19953.245813041427, -34839.28410283138, 1297.362303419388, 8085.721204962874, -187500.02235174447, -4233.107475412783, 17965.88515828671, 10901.169288297808, -24686.138294474877, -4647.173541447347, 22497.053146011014, -3524.803045368558, 14499.934256068977, -16151.214081193697, 0.194, 0.914, 0.41000000000000003, 192.0, 0.0, 0.0, 0.0, 0.0, 0.0, 0.0, 0.0, 0.0, 0.0, 1.695677723308153E9, 0.0, 2023-09-25 16:35:23.308
70.0, -187500.02235174447, 18371.323450961525, -19944.863908870688, -34825.51542824691, 1222.461607749654, 8070.298501288713, -187500.02235174447, -4228.614774777267, 17964.32053617484, 10939.100198638464, -24649.727302757183, -4575.402090001356, 22557.961649651726, -3456.987852691156, 14497.095584523153, -16147.213118936197, 0.194, 0.914, 0.41000000000000003, 192.0, 0.0, 0.0, 0.0, 0.0, 0.0, 0.0, 0.0, 0.0, 0.0, 1.695677723308164E9, 0.0, 2023-09-25 16:35:23.308
72.0, -187500.02235174447, 18360.840482811986, -19967.439170770547, -34853.20923962704, 1285.1806026912454, 8075.506457746799, -187500.02235174447, -4251.45825761059, 17959.336097161307, 10891.625093415392, -24684.819541552013, -4673.2580272266905, 22467.258270652088, -3554.1285340939207, 14499.733090368878, -16147.928374758767, 0.194, 0.912, 0.402, 192.0, 3.0, 8.0, 14.0, 64.0, 6.0, 72.0, 0.0, 0.0, 0.0, 1.695677723308167E9, 0.0, 2023-09-25 16:35:23.308
74.0, -187500.02235174447, 18367.09897125947, -19957.42558925457, -34839.261751086924, 1227.8707299078383, 8058.563835449677, -187500.02235174447, -4251.927644244152, 17944.11455918724, 10950.007849932654, -24653.571802803493, -4568.7189184092185, 22563.41547529882, -3453.5680357894944, 14486.277340206783, -16166.212101723208, 0.194, 0.912, 0.402, 192.0, 0.0, 0.0, 0.0, 0.0, 0.0, 0.0, 0.0, 0.0, 0.0, 1.69567772336685E9, 0.0, 2023-09-25 16:35:23.366
76.0, -187500.02235174447, 18352.078598985507, -19969.249662071426, -34857.433719329085, 1280.419681122265, 8079.865047915584, -187500.02235174447, -4253.6040250783, 17946.237974910495, 10904.231477288185, -24695.101344001454, -4655.846018296006, 22472.600337576907, -3552.5862637265045, 14492.424069931993, -16158.970136519687, 0.194, 0.912, 0.402, 192.0, 0.0, 0.0, 0.0, 0.0, 0.0, 0.0, 0.0, 0.0, 0.0, 1.695677723366868E9, 0.0, 2023-09-25 16:35:23.366
78.0, -187500.02235174447, 18372.128113761915, -19947.121435060675, -34826.342442791756, 1236.3643928008548, 8075.126478091059, -187500.02235174447, -4223.585632274822, 17949.054294711863, 10945.179873130308, -24652.565974303005, -4559.308833993535, 22560.018010141615, -3457.0772596689776, 14500.068366535708, -16157.919604530289, 0.194, 0.912, 0.402, 192.0, 0.0, 0.0, 0.0, 0.0, 0.0, 0.0, 0.0, 0.0, 0.0, 1.695677723366871E9, 0.0, 2023-09-25 16:35:23.366
80.0, -187500.02235174447, 18362.718029346233, -19947.344952505227, -34836.55719000783, 1271.9036664847931, 8086.3470538076235, -187500.02235174447, -4228.637126521722, 17949.389570878695, 10880.069241531997, -24700.9798527932, -4664.898474800405, 22450.71797975516, -3560.0070428856666, 14504.873991593598, -16135.210232163696, 0.194, 0.912, 0.402, 192.0, 0.0, 0.0, 0.0, 0.0, 0.0, 0.0, 0.0, 0.0, 0.0, 1.695677723366875E9, 0.0, 2023-09-25 16:35:23.366
82.0, -187500.02235174447, 18374.653860885366, -19939.119510545675, -34822.56499797881, 1248.7919627180056, 8080.31208280469, -187500.02235174447, -4221.797492718398, 17948.02611446692, 10936.015657903632, -24649.615544034907, -4592.456471020755, 22529.03849232656, -3459.938282959257, 14508.696139895457, -16148.129540458864, 0.194, 0.912, 0.404, 192.0, 3.0, 8.0, 14.0, 64.0, 6.0, 80.0, 0.0, 0.0, 0.0, 1.695677723366878E9, 0.0, 2023-09-25 16:35:23.366
84.0, -187500.02235174447, 18349.01640999513, -19955.79391190933, -34844.80498371184, 1263.6558727807849, 8089.9903881538385, -187500.02235174447, -4236.035553936428, 17952.094131957787, 10875.53183740757, -24696.375393435406, -4690.133594290447, 22428.500345766588, -3564.6785574768255, 14509.903134096043, -16128.325894871461, 0.194, 0.912, 0.404, 192.0, 0.0, 0.0, 0.0, 0.0, 0.0, 0.0, 0.0, 0.0, 0.0, 1.695677723366881E9, 0.0, 2023-09-25 16:35:23.366
86.0, -187500.02235174447, 18342.66851456982, -19963.99700212443, -34852.0245971709, 1257.0621081664692, 8060.061402328182, -187500.02235174447, -4251.480609355046, 17942.281716141908, 10938.429646304805, -24643.558221287516, -4595.988046644694, 22536.101643574435, -3450.550550288028, 14495.307444966727, -16172.001203537131, 0.194, 0.912, 0.404, 192.0, 0.0, 0.0, 0.0, 0.0, 0.0, 0.0, 0.0, 0.0, 0.0, 1.695677723366885E9, 0.0, 2023-09-25 16:35:23.366
88.0, -187500.02235174447, 18338.645200567866, -19968.57910973777, -34856.04791117286, 1252.4352970642205, 8074.478277501855, -187500.02235174447, -4252.262920410982, 17939.532451573905, 10871.843799572445, -24697.64944286936, -4672.833344082039, 22442.760758729073, -3552.2286358152196, 14490.591226886658, -16151.102322471419, 0.194, 0.912, 0.404, 192.0, 0.0, 0.0, 0.0, 0.0, 0.0, 0.0, 0.0, 0.0, 0.0, 1.695677723366888E9, 0.0, 2023-09-25 16:35:23.366
90.0, -187500.02235174447, 18347.474139627713, -19965.785141680855, -34847.33073083529, 1263.9240937142486, 8058.899111616506, -187500.02235174447, -4244.864492996275, 17944.74040803199, 10933.534614269092, -24640.78660497506, -4577.592560957975, 22551.479643759685, -3440.9393001722456, 14488.132534996574, -16180.181942007774, 0.194, 0.912, 0.404, 192.0, 0.0, 0.0, 0.0, 0.0, 0.0, 0.0, 0.0, 0.0, 0.0, 1.695677723427173E9, 0.0, 2023-09-25 16:35:23.427
92.0, -187500.02235174447, 18358.67236359982, -19953.245813041427, -34836.959521408025, 1232.4975410100867, 8076.512286247288, -187500.02235174447, -4231.7887224899205, 17929.809442735845, 10871.955558294721, -24690.13925673238, -4638.813989021062, 22480.959890003192, -3525.4959494466725, 14493.899285066043, -16148.464816625694, 0.196, 0.914, 0.406, 192.0, 3.0, 16.0, 14.0, 72.0, 6.0, 88.0, 0.0, 0.0, 0.0, 1.695677723427183E9, 0.0, 2023-09-25 16:35:23.427
94.0, -187500.02235174447, 18367.367192192938, -19945.80268213781, -34826.76712593641, 1263.968797203159, 8076.735803691841, -187500.02235174447, -4224.8596817087755, 17940.627687052212, 10937.177948615306, -24643.714683498703, -4590.333055297501, 22547.88101290238, -3462.933416716268, 14512.54063994177, -16155.48326438466, 0.196, 0.914, 0.406, 192.0, 0.0, 0.0, 0.0, 0.0, 0.0, 0.0, 0.0, 0.0, 0.0, 1.695677723427187E9, 0.0, 2023-09-25 16:35:23.427
96.0, -187500.02235174447, 18363.120360746427, -19943.209879780996, -34821.4697625005, 1231.3799537873215, 8091.845582943629, -187500.02235174447, -4214.756693214977, 17941.611163808248, 10894.754337639135, -24685.087762485477, -4651.375669404944, 22480.53520685854, -3536.403600740862, 14517.860355122133, -16127.320066370972, 0.196, 0.914, 0.406, 192.0, 0.0, 0.0, 0.0, 0.0, 0.0, 0.0, 0.0, 0.0, 0.0, 1.69567772342719E9, 0.0, 2023-09-25 16:35:23.427
98.0, -187500.02235174447, 18362.293346201583, -19957.24677529893, -34832.958559150524, 1286.0523207250026, 8076.758155436297, -187500.02235174447, -4227.586594532322, 17949.680143556612, 10947.951489442765, -24635.86922119489, -4605.800462460574, 22546.182280323777, -3474.6904342997595, 14525.772872659312, -16154.835063795455, 0.196, 0.914, 0.406, 192.0, 0.0, 0.0, 0.0, 0.0, 0.0, 0.0, 0.0, 0.0, 0.0, 1.695677723427194E9, 0.0, 2023-09-25 16:35:23.427
100.0, -187500.02235174447, 18374.609157396455, -19948.462539727992, -34819.72632643298, 1219.3100117814556, 8083.2401613283355, -187500.02235174447, -4229.531196299934, 17944.94157373209, 10902.331579009484, -24673.06252396852, -4628.085151682514, 22506.105602515414, -3514.320077219019, 14515.267552765317, -16128.169432660276, 0.196, 0.914, 0.406, 192.0, 0.0, 0.0, 0.0, 0.0, 0.0, 0.0, 0.0, 0.0, 0.0, 1.695677723427198E9, 0.0, 2023-09-25 16:35:23.427
102.0, -187500.02235174447, 18359.49937814467, -19966.29923180333, -34841.13929762117, 1279.0785764549466, 8067.057498342693, -187500.02235174447, -4234.739152758021, 17945.522719087927, 10923.252811819651, -24642.910020698313, -4617.177500388325, 22529.127899304378, -3478.892562257357, 14516.273381265806, -16161.67469759878, 0.198, 0.91, 0.41000000000000003, 192.0, 3.0, 24.0, 14.0, 56.0, 6.0, 104.0, 0.0, 0.0, 0.0, 1.695677723427201E9, 0.0, 2023-09-25 16:35:23.427
104.0, -187500.02235174447, 18357.5324246326, -19957.559699721303, -34836.8701144302, 1205.3401714968886, 8071.684309444941, -187500.02235174447, -4227.251318365493, 17925.36144558924, 10897.168326040308, -24666.535814587573, -4613.221241619735, 22515.60509390892, -3494.4940798871617, 14497.833192090178, -16144.083874712453, 0.198, 0.91, 0.41000000000000003, 192.0, 0.0, 0.0, 0.0, 0.0, 0.0, 0.0, 0.0, 0.0, 0.0, 1.695677723487991E9, 0.0, 2023-09-25 16:35:23.487
106.0, -187500.02235174447, 18356.39248566538, -19964.265223057893, -34845.43083255659, 1281.4702131116644, 8071.907826889495, -187500.02235174447, -4239.9471092161075, 17934.816233493835, 10913.418044259315, -24654.97996270418, -4622.139587657402, 22529.39612023784, -3491.208373452231, 14509.120823040108, -16163.127560988374, 0.198, 0.91, 0.41000000000000003, 192.0, 0.0, 0.0, 0.0, 0.0, 0.0, 0.0, 0.0, 0.0, 0.0, 1.695677723488016E9, 0.0, 2023-09-25 16:35:23.488
108.0, -187500.02235174447, 18361.645145612376, -19947.635525183145, -34828.82348642629, 1199.819290616428, 8070.2090943108915, -187500.02235174447, -4223.339763085814, 17930.92702995861, 10892.96619808271, -24667.9216227438, -4609.868479951439, 22531.69834991674, -3490.4260623962955, 14502.68352063698, -16142.273383411573, 0.198, 0.91, 0.41000000000000003, 192.0, 0.0, 0.0, 0.0, 0.0, 0.0, 0.0, 0.0, 0.0, 0.0, 1.69567772348802E9, 0.0, 2023-09-25 16:35:23.488
110.0, -187500.02235174447, 18348.77054080612, -19965.628679469668, -34850.79525122586, 1286.9910939921253, 8081.1838008384475, -187500.02235174447, -4238.449542337602, 17934.59271604928, 10889.032291058576, -24665.038247709068, -4659.087021242025, 22501.188218735246, -3527.328792492008, 14520.117881312119, -16152.823406794478, 0.198, 0.91, 0.41000000000000003, 192.0, 0.0, 0.0, 0.0, 0.0, 0.0, 0.0, 0.0, 0.0, 0.0, 1.695677723488024E9, 0.0, 2023-09-25 16:35:23.488
112.0, -187500.02235174447, 18368.797703838078, -19945.243888526427, -34821.96150087852, 1208.4023604872657, 8073.785373423741, -187500.02235174447, -4218.176510116638, 17921.092262398277, 10904.969084855209, -24653.817671992503, -4594.691645466286, 22551.010257126127, -3476.8809052563797, 14504.337549726672, -16149.917680015289, 0.196, 0.9, 0.40800000000000003, 192.0, 3.0, 16.0, 14.0, 16.0, 6.0, 96.0, 0.0, 0.0, 0.0, 1.695677723488037E9, 0.0, 2023-09-25 16:35:23.488
114.0, -187500.02235174447, 18350.49162512918, -19961.784179423354, -34839.7758412094, 1285.001788735603, 8081.295559560724, -187500.02235174447, -4235.990850447518, 17936.55966956135, 10882.662043888813, -24658.332724372474, -4666.284282956634, 22498.77423033407, -3537.767057152636, 14524.521174969814, -16143.748598545624, 0.196, 0.9, 0.40800000000000003, 192.0, 0.0, 0.0, 0.0, 0.0, 0.0, 0.0, 0.0, 0.0, 0.0, 1.69567772348804E9, 0.0, 2023-09-25 16:35:23.488
116.0, -187500.02235174447, 18368.59653813798, -19935.006789565898, -34813.2666722854, 1204.3790464853105, 8073.695966445919, -187500.02235174447, -4214.220251348049, 17924.82500372231, 10913.887430892877, -24643.669980009792, -4602.827680448017, 22554.49712926115, -3476.858553511924, 14505.768061371811, -16137.087778697942, 0.196, 0.9, 0.40800000000000003, 192.0, 0.0, 0.0, 0.0, 0.0, 0.0, 0.0, 0.0, 0.0, 0.0, 1.695677723488044E9, 0.0, 2023-09-25 16:35:23.488
118.0, -187500.02235174447, 18338.801662779053, -19958.118493332684, -34847.733062235486, 1273.7588612745835, 8073.517152490277, -187500.02235174447, -4246.026783707951, 17931.999913692467, 10881.410346199316, -24668.88274775538, -4691.050015813114, 22473.941442244228, -3557.4365922733064, 14518.553259200247, -16141.267554911085, 0.196, 0.9, 0.40800000000000003, 192.0, 0.0, 0.0, 0.0, 0.0, 0.0, 0.0, 0.0, 0.0, 0.0, 1.695677723488047E9, 0.0, 2023-09-25 16:35:23.488
120.0, -187500.02235174447, 18357.778293821608, -19936.727873888954, -34817.737021176465, 1214.169110556735, 8068.6221204545645, -187500.02235174447, -4220.948126429096, 17909.871686681712, 10922.939887397277, -24640.853660208424, -4600.860726935951, 22552.64193447136, -3466.1967714067428, 14505.008102060332, -16157.271403941084, 0.196, 0.9, 0.40800000000000003, 192.0, 0.0, 0.0, 0.0, 0.0, 0.0, 0.0, 0.0, 0.0, 0.0, 1.695677723547659E9, 0.0, 2023-09-25 16:35:23.547
122.0, -187500.02235174447, 18339.360456390437, -19951.412969996094, -34835.79723069635, 1279.7044252996952, 8082.726071205863, -187500.02235174447, -4236.929623714641, 17926.747253745467, 10886.10421253493, -24677.041134481566, -4699.610733939497, 22457.44585483621, -3561.884589419912, 14523.805919147244, -16129.57759256096, 0.198, 0.9, 0.41600000000000004, 192.0, 3.0, 24.0, 14.0, 16.0, 6.5, 0.0, 0.0, 0.0, 0.0, 1.695677723547672E9, 0.0, 2023-09-25 16:35:23.547
124.0, -187500.02235174447, 18346.848290782964, -19944.729798403954, -34818.65344269913, 1229.10007585288, 8065.582283208643, -187500.02235174447, -4219.8752426952415, 17907.435346536084, 10946.431570819805, -24640.741901486148, -4595.652770477864, 22558.118111862914, -3450.863474710402, 14506.751538127844, -16152.555185861014, 0.198, 0.9, 0.41600000000000004, 192.0, 0.0, 0.0, 0.0, 0.0, 0.0, 0.0, 0.0, 0.0, 0.0, 1.695677723547675E9, 0.0, 2023-09-25 16:35:23.547
126.0, -187500.02235174447, 18336.275915655606, -19948.529594961357, -34829.762259693416, 1263.9240937142486, 8082.3013880612125, -187500.02235174447, -4226.4466555651015, 17911.39160530467, 10885.05368054553, -24695.727192846203, -4694.983922837248, 22453.78016874554, -3561.3704992974403, 14511.266590507817, -16133.913830985288, 0.198, 0.9, 0.41600000000000004, 192.0, 0.0, 0.0, 0.0, 0.0, 0.0, 0.0, 0.0, 0.0, 0.0, 1.695677723547679E9, 0.0, 2023-09-25 16:35:23.547
128.0, -187500.02235174447, 18333.906630743342, -19948.730760661456, -34834.90316091814, 1232.2740235655338, 8064.30823377469, -187500.02235174447, -4234.247414380004, 17904.104936612242, 10936.507396281648, -24648.319142856497, -4612.260116608157, 22543.27655354459, -3465.056832439522, 14501.610636903124, -16152.108150971908, 0.198, 0.9, 0.41600000000000004, 192.0, 0.0, 0.0, 0.0, 0.0, 0.0, 0.0, 0.0, 0.0, 0.0, 1.695677723547682E9, 0.0, 2023-09-25 16:35:23.547
130.0, -187500.02235174447, 18316.181697390282, -19967.6626882151, -34860.04887343036, 1256.5256662995419, 8063.905902374495, -187500.02235174447, -4248.731344787043, 17886.424706748094, 10876.15768625232, -24697.73884984718, -4688.725434389762, 22469.851073008904, -3548.250025302175, 14486.791430329256, -16156.869072540889, 0.198, 0.9, 0.41600000000000004, 192.0, 0.0, 0.0, 0.0, 0.0, 0.0, 0.0, 0.0, 0.0, 0.0, 1.695677723547685E9, 0.0, 2023-09-25 16:35:23.547
132.0, -187500.02235174447, 18348.25645068365, -19933.889202343133, -34820.88861714466, 1232.72105845464, 8068.912693132484, -187500.02235174447, -4212.990905403007, 17901.310968555328, 10935.412160803338, -24656.119901671398, -4592.635284976397, 22566.85764394494, -3446.840160708447, 14491.842924576154, -16160.870034798389, 0.202, 0.908, 0.41400000000000003, 192.0, 3.0, 40.0, 14.0, 48.0, 6.0, 120.0, 0.0, 0.0, 0.0, 1.695677723547688E9, 0.0, 2023-09-25 16:35:23.547
134.0, -187500.02235174447, 18323.177793404793, -19958.923156133074, -34854.438585572076, 1245.036869649514, 8064.822323897162, -187500.02235174447, -4243.992774962518, 17911.25749483794, 10869.094535004442, -24702.969158049724, -4706.472719487277, 22449.645096021308, -3567.5842842560155, 14508.562029428726, -16134.740845530136, 0.202, 0.908, 0.41400000000000003, 192.0, 0.0, 0.0, 0.0, 0.0, 0.0, 0.0, 0.0, 0.0, 0.0, 1.69567772360716E9, 0.0, 2023-09-25 16:35:23.607
136.0, -187500.02235174447, 18317.723967757698, -19960.644240456135, -34856.00320768395, 1250.9824336746258, 8047.455018455389, -187500.02235174447, -4250.988870977029, 17893.085526595776, 10922.49285250817, -24652.16364290281, -4599.765491457641, 22564.018972399113, -3459.155971903321, 14493.54165715476, -16182.037136797564, 0.202, 0.908, 0.41400000000000003, 192.0, 0.0, 0.0, 0.0, 0.0, 0.0, 0.0, 0.0, 0.0, 0.0, 1.695677723607186E9, 0.0, 2023-09-25 16:35:23.607
138.0, -187500.02235174447, 18333.169023176317, -19941.13116754665, -34840.111117376226, 1223.8250641614277, 8074.858257157595, -187500.02235174447, -4237.644879537211, 17889.039860849367, 10852.710706318701, -24706.79130635158, -4668.675919613352, 22479.216453935678, -3554.9108451498564, 14488.691328607956, -16153.270441683584, 0.202, 0.908, 0.41400000000000003, 192.0, 0.0, 0.0, 0.0, 0.0, 0.0, 0.0, 0.0, 0.0, 0.0, 1.695677723607197E9, 0.0, 2023-09-25 16:35:23.607
140.0, -187500.02235174447, 18338.891069756875, -19938.448958212015, -34835.59606499625, 1250.1107156408686, 8072.868951901073, -187500.02235174447, -4232.12399865675, 17919.147660630664, 10905.371416255406, -24652.92360221429, -4621.714904512752, 22541.98015236618, -3488.280294928586, 14513.077081808697, -16153.873938783878, 0.202, 0.908, 0.41400000000000003, 192.0, 0.0, 0.0, 0.0, 0.0, 0.0, 0.0, 0.0, 0.0, 0.0, 1.695677723607201E9, 0.0, 2023-09-25 16:35:23.607
142.0, -187500.02235174447, 18336.432377866793, -19943.6569146701, -34840.8263731988, 1229.457703764165, 8078.211018825891, -187500.02235174447, -4237.041382436917, 17899.54518074336, 10869.72038384919, -24692.732059089194, -4670.687576614329, 22483.21741619318, -3553.390926526896, 14502.929389825988, -16137.490110098137, 0.198, 0.902, 0.41200000000000003, 192.0, 3.0, 24.0, 14.0, 24.0, 6.0, 112.0, 0.0, 0.0, 0.0, 1.695677723607204E9, 0.0, 2023-09-25 16:35:23.607
144.0, -187500.02235174447, 18336.410026122336, -19953.268164785884, -34847.867172702216, 1266.1816199042346, 8063.034184340738, -187500.02235174447, -4236.907271970185, 17902.897942411655, 10914.468576248715, -24648.63206727887, -4622.7207330132405, 22551.636105970872, -3487.185059450276, 14503.48818343737, -16167.419095923793, 0.198, 0.902, 0.41200000000000003, 192.0, 0.0, 0.0, 0.0, 0.0, 0.0, 0.0, 0.0, 0.0, 0.0, 1.695677723607207E9, 0.0, 2023-09-25 16:35:23.607
146.0, -187500.02235174447, 18325.748244017155, -19961.18068232306, -34857.61253328473, 1218.6171077033412, 8066.4540012423995, -187500.02235174447, -4237.734286515032, 17904.30610231234, 10874.458953673715, -24697.31416670253, -4666.3960416789105, 22491.487561641643, -3546.2607200456528, 14494.01104378832, -16146.587270091448, 0.198, 0.902, 0.41200000000000003, 192.0, 0.0, 0.0, 0.0, 0.0, 0.0, 0.0, 0.0, 0.0, 0.0, 1.69567772360721E9, 0.0, 2023-09-25 16:35:23.607
148.0, -187500.02235174447, 18330.71033128623, -19970.635470227655, -34867.80492875635, 1276.1281461868462, 8055.367535992567, -187500.02235174447, -4237.086085925828, 17901.60154123325, 10917.888393150377, -24661.21609940721, -4620.10557891197, 22556.151158350847, -3488.704978073237, 14493.362843199116, -16182.081840286475, 0.198, 0.902, 0.41200000000000003, 192.0, 0.0, 0.0, 0.0, 0.0, 0.0, 0.0, 0.0, 0.0, 0.0, 1.695677723607214E9, 0.0, 2023-09-25 16:35:23.607
150.0, -187500.02235174447, 18341.126244202405, -19960.13015033366, -34855.39971058365, 1206.6365726752965, 8060.597844195109, -187500.02235174447, -4220.076408395339, 17902.49561101146, 10889.479325947683, -24698.856437069946, -4630.454436594777, 22521.237733511654, -3522.2996499895635, 14488.937197796966, -16151.48230212716, 0.198, 0.902, 0.41200000000000003, 192.0, 0.0, 0.0, 0.0, 0.0, 0.0, 0.0, 0.0, 0.0, 0.0, 1.695677723666883E9, 0.0, 2023-09-25 16:35:23.666
152.0, -187500.02235174447, 18337.05822671154, -19962.76765617939, -34860.294742619364, 1280.1514601888014, 8079.820344426674, -187500.02235174447, -4218.690600239111, 17919.415881564128, 10912.859250647933, -24681.198558950255, -4645.228939679735, 22524.70225390223, -3511.995495795667, 14505.611599160624, -16157.9643080192, 0.194, 0.912, 0.41000000000000003, 192.0, 3.0, 8.0, 14.0, 64.0, 6.0, 104.0, 0.0, 0.0, 0.0, 1.695677723666891E9, 0.0, 2023-09-25 16:35:23.666
154.0, -187500.02235174447, 18343.316715159024, -19948.060208327795, -34850.77289948141, 1207.8882703647937, 8068.59976871011, -187500.02235174447, -4212.387408302714, 17904.88724766818, 10892.58621842697, -24693.201445722752, -4632.622555806942, 22516.208591009214, -3485.5980855939492, 14497.944950812454, -16146.073179968977, 0.194, 0.912, 0.41000000000000003, 192.0, 0.0, 0.0, 0.0, 0.0, 0.0, 0.0, 0.0, 0.0, 0.0, 1.695677723666895E9, 0.0, 2023-09-25 16:35:23.666
156.0, -187500.02235174447, 18321.456709081736, -19978.682098231566, -34887.47446387702, 1291.2826289275442, 8057.379192993545, -187500.02235174447, -4247.837275008831, 17918.342997830274, 10897.816526629511, -24689.424000909807, -4663.356204432989, 22508.20666649421, -3496.282219443586, 14509.746671884855, -16162.05467725452, 0.194, 0.912, 0.41000000000000003, 192.0, 0.0, 0.0, 0.0, 0.0, 0.0, 0.0, 0.0, 0.0, 0.0, 1.695677723666898E9, 0.0, 2023-09-25 16:35:23.666
158.0, -187500.02235174447, 18344.702523315256, -19960.37601952267, -34858.14897515166, 1206.5471656974753, 8056.395716237512, -187500.02235174447, -4215.673114737644, 17891.565607972814, 10882.550285166537, -24697.001242280156, -4596.1892123447915, 22557.671076973806, -3451.6681375107933, 14480.443534903949, -16168.000241279631, 0.194, 0.912, 0.41000000000000003, 192.0, 0.0, 0.0, 0.0, 0.0, 0.0, 0.0, 0.0, 0.0, 0.0, 1.695677723666901E9, 0.0, 2023-09-25 16:35:23.666
160.0, -187500.02235174447, 18340.120415701916, -19964.511092246903, -34864.295704876866, 1281.9843032341366, 8075.21588506888, -187500.02235174447, -4216.790701960409, 17921.49459379847, 10864.937110535755, -24708.46768718573, -4663.713832344274, 22509.45836418371, -3509.4921004166727, 14510.618389918613, -16148.464816625694, 0.194, 0.912, 0.41000000000000003, 192.0, 0.0, 0.0, 0.0, 0.0, 0.0, 0.0, 0.0, 0.0, 0.0, 1.695677723666905E9, 0.0, 2023-09-25 16:35:23.666
162.0, -187500.02235174447, 18360.77342757862, -19938.247792511916, -34835.73017546299, 1201.1156917948356, 8073.673614701464, -187500.02235174447, -4193.500184237979, 17921.807518220845, 10885.970102068199, -24697.224759724708, -4618.093921910992, 22546.674018701797, -3467.716690029704, 14509.63491316258, -16135.456101352705, 0.192, 0.908, 0.406, 192.0, 3.0, 0.0, 14.0, 48.0, 6.0, 88.0, 0.0, 0.0, 0.0, 1.695677723666908E9, 0.0, 2023-09-25 16:35:23.666
164.0, -187500.02235174447, 18337.97464823421, -19962.275917801373, -34863.62515254321, 1277.2010299207009, 8077.652225214509, -187500.02235174447, -4220.009353161973, 17934.0339224379, 10886.171267768297, -24718.056585557057, -4698.694312416829, 22483.083305726446, -3530.994478582678, 14526.890459882077, -16135.14317693033, 0.192, 0.908, 0.406, 192.0, 0.0, 0.0, 0.0, 0.0, 0.0, 0.0, 0.0, 0.0, 0.0, 1.695677723728693E9, 0.0, 2023-09-25 16:35:23.728
166.0, -187500.02235174447, 18348.85994778394, -19949.62483043967, -34849.09651864726, 1208.6035261873635, 8067.616291954076, -187500.02235174447, -4209.794605945898, 17910.810459948832, 10930.941811912277, -24695.302509701552, -4623.123064413437, 22549.490338503165, -3452.3610415889075, 14507.131517783586, -16144.419150879283, 0.192, 0.908, 0.406, 192.0, 0.0, 0.0, 0.0, 0.0, 0.0, 0.0, 0.0, 0.0, 0.0, 1.695677723728717E9, 0.0, 2023-09-25 16:35:23.728
168.0, -187500.02235174447, 18317.880429968885, -19982.72776397798, -34887.45211213257, 1275.7481665311059, 8082.949588650416, -187500.02235174447, -4241.556434816889, 17907.88238142519, 10891.468631204205, -24718.391861723885, -4695.699178659818, 22488.268910440078, -3531.642679171882, 14510.618389918613, -16153.538662617048, 0.192, 0.908, 0.406, 192.0, 0.0, 0.0, 0.0, 0.0, 0.0, 0.0, 0.0, 0.0, 0.0, 1.69567772372872E9, 0.0, 2023-09-25 16:35:23.728
170.0, -187500.02235174447, 18339.695732557266, -19957.202071810018, -34855.08678616128, 1214.4820349791094, 8095.019530656283, -187500.02235174447, -4218.31062058337, 17898.405241776138, 10922.850480419456, -24687.144122975365, -4597.329151312012, 22578.033516172592, -3444.359117073908, 14497.743785112356, -16158.299584186028, 0.192, 0.908, 0.406, 192.0, 0.0, 0.0, 0.0, 0.0, 0.0, 0.0, 0.0, 0.0, 0.0, 1.695677723728724E9, 0.0, 2023-09-25 16:35:23.728
172.0, -187500.02235174447, 18318.14865090235, -19982.839522700255, -34885.52986210941, 1261.9347884577262, 8106.55303079522, -187500.02235174447, -4246.8761499972525, 17899.187552832074, 10873.67664261778, -24725.678530416317, -4686.870239599972, 22489.900587785316, -3534.3695919954293, 14503.309369481727, -16154.365677161895, 0.2, 0.902, 0.41000000000000003, 192.0, 3.0, 32.0, 14.0, 24.0, 6.0, 104.0, 0.0, 0.0, 0.0, 1.695677723728728E9, 0.0, 2023-09-25 16:35:23.728
174.0, -187500.02235174447, 18334.890107499374, -19954.56456596429, -34855.5785245393, 1211.7998256444723, 8107.692969762442, -187500.02235174447, -4217.237736849515, 17887.58699745977, 10924.102178108953, -24688.440524153775, -4594.490479766188, 22583.532045308595, -3433.876148924369, 14485.9197122955, -16165.161569733807, 0.2, 0.902, 0.41000000000000003, 192.0, 0.0, 0.0, 0.0, 0.0, 0.0, 0.0, 0.0, 0.0, 0.0, 1.695677723728731E9, 0.0, 2023-09-25 16:35:23.728
176.0, -187500.02235174447, 18319.176831147295, -19972.647127228633, -34881.551251596364, 1247.3838028173213, 8124.769702526296, -187500.02235174447, -4239.589481304823, 17896.43828826407, 10857.985718010154, -24730.975893852225, -4703.745806663729, 22474.433180622244, -3544.584339211505, 14499.666035135513, -16146.229642180162, 0.2, 0.902, 0.41000000000000003, 192.0, 0.0, 0.0, 0.0, 0.0, 0.0, 0.0, 0.0, 0.0, 0.0, 1.695677723728734E9, 0.0, 2023-09-25 16:35:23.728
178.0, -187500.02235174447, 18328.564563818523, -19972.222444083982, -34870.84476600227, 1228.3177647969444, 8115.761949510807, -187500.02235174447, -4236.6614027811775, 17883.54133171336, 10915.072073349009, -24683.16551246232, -4617.691590510797, 22566.075332889002, -3446.281367097064, 14495.44155543346, -16166.212101723208, 0.2, 0.902, 0.41000000000000003, 192.0, 0.0, 0.0, 0.0, 0.0, 0.0, 0.0, 0.0, 0.0, 0.0, 1.695677723728737E9, 0.0, 2023-09-25 16:35:23.728
180.0, -187500.02235174447, 18323.691883527266, -19974.591728996245, -34880.34425739578, 1243.651061493285, 8131.60933632962, -187500.02235174447, -4237.577824303845, 17885.843561392256, 10862.34430817894, -24729.23245778471, -4693.665169914386, 22473.002668977104, -3537.6105949414487, 14488.601921630136, -16156.869072540889, 0.2, 0.902, 0.41000000000000003, 192.0, 0.0, 0.0, 0.0, 0.0, 0.0, 0.0, 0.0, 0.0, 0.0, 1.69567772378752E9, 0.0, 2023-09-25 16:35:23.787
182.0, -187500.02235174447, 18308.984435675673, -19964.46638875799, -34872.72231253652, 1244.8357039494163, 8118.935897223461, -187500.02235174447, -4228.391257332713, 17885.55298871434, 10917.329599538994, -24676.92937575929, -4608.259154350657, 22564.778931710593, -3440.4699135386845, 14502.996445059354, -16163.39578192184, 0.196, 0.9, 0.426, 192.0, 3.0, 16.0, 14.0, 16.0, 6.5, 40.0, 0.0, 0.0, 0.0, 1.695677723787535E9, 0.0, 2023-09-25 16:35:23.787
184.0, -187500.02235174447, 18291.90770291182, -19974.56937725179, -34886.938022010094, 1232.1846165877125, 8125.730827537875, -187500.02235174447, -4247.613757564278, 17858.417970945593, 10842.294793402529, -24730.864135129945, -4680.947027319316, 22480.579910347453, -3532.2014727832643, 14493.63106413258, -16157.517273130094, 0.196, 0.9, 0.426, 192.0, 0.0, 0.0, 0.0, 0.0, 0.0, 0.0, 0.0, 0.0, 0.0, 1.695677723787538E9, 0.0, 2023-09-25 16:35:23.787
186.0, -187500.02235174447, 18305.363453073915, -19956.062132842795, -34868.98957121248, 1240.0747823804359, 8132.928089252483, -187500.02235174447, -4223.6303357637335, 17873.036011819364, 10886.864171846411, -24694.8778265569, -4628.755704016174, 22548.037475113568, -3466.2638266401086, 14497.54261941226, -16164.58042437797, 0.196, 0.9, 0.426, 192.0, 0.0, 0.0, 0.0, 0.0, 0.0, 0.0, 0.0, 0.0, 0.0, 1.695677723787541E9, 0.0, 2023-09-25 16:35:23.787
188.0, -187500.02235174447, 18286.52093249809, -19963.482912001957, -34874.510452092945, 1218.237128047601, 8146.540301625765, -187500.02235174447, -4218.489434539012, 17859.334392468263, 10832.772950264567, -24737.23438229971, -4697.844946127528, 22472.086247454437, -3543.667917688837, 14502.884686337076, -16139.792339777034, 0.196, 0.9, 0.426, 192.0, 0.0, 0.0, 0.0, 0.0, 0.0, 0.0, 0.0, 0.0, 0.0, 1.695677723787545E9, 0.0, 2023-09-25 16:35:23.787
190.0, -187500.02235174447, 18283.436391763258, -19982.124266877683, -34885.50751036495, 1258.5373233005196, 8125.194385670947, -187500.02235174447, -4245.9373767301295, 17856.808645344812, 10876.96234905271, -24692.150913733356, -4641.406791377877, 22546.338742534965, -3465.995605706645, 14501.565933414215, -16168.335517446461, 0.196, 0.9, 0.426, 192.0, 0.0, 0.0, 0.0, 0.0, 0.0, 0.0, 0.0, 0.0, 0.0, 1.695677723787548E9, 0.0, 2023-09-25 16:35:23.787
192.0, -187500.02235174447, 18283.90577839682, -19981.699583733032, -34882.93705975259, 1210.168148299235, 8124.948516481939, -187500.02235174447, -4244.328051129348, 17838.793139313835, 10831.297735130518, -24742.308228291062, -4675.224980738757, 22492.851018053418, -3519.438626699284, 14478.118953480596, -16154.946822517733, 0.198, 0.902, 0.418, 192.0, 3.0, 24.0, 14.0, 24.0, 6.5, 8.0, 0.0, 0.0, 0.0, 1.695677723787551E9, 0.0, 2023-09-25 16:35:23.787
194.0, -187500.02235174447, 18280.731830684166, -19990.684985004067, -34891.497777878976, 1260.0572419234804, 8123.629763559075, -187500.02235174447, -4256.4426966241235, 17850.63956387515, 10867.373450681383, -24706.143105762378, -4637.137608186914, 22547.56808848001, -3469.4601260972177, 14485.830305317677, -16181.321880974994, 0.198, 0.902, 0.418, 192.0, 0.0, 0.0, 0.0, 0.0, 0.0, 0.0, 0.0, 0.0, 0.0, 1.695677723847762E9, 0.0, 2023-09-25 16:35:23.847
196.0, -187500.02235174447, 18296.400403547337, -19965.628679469668, -34866.77674851141, 1192.197345757168, 8139.499502122343, -187500.02235174447, -4238.158969659683, 17844.358723683206, 10826.737979261636, -24737.681417188815, -4661.165733476369, 22503.3116344585, -3515.7729406086137, 14475.392040657049, -16156.48909288515, 0.198, 0.902, 0.418, 192.0, 0.0, 0.0, 0.0, 0.0, 0.0, 0.0, 0.0, 0.0, 0.0, 1.695677723847772E9, 0.0, 2023-09-25 16:35:23.847
198.0, -187500.02235174447, 18291.10304011143, -19976.983365652963, -34877.12560619421, 1255.0504511654915, 8138.851301533139, -187500.02235174447, -4252.151161688705, 17872.432514719072, 10867.14993323683, -24703.88557957239, -4660.383422420433, 22523.629370168375, -3499.970257278712, 14498.72726186839, -16168.603738379925, 0.198, 0.902, 0.418, 192.0, 0.0, 0.0, 0.0, 0.0, 0.0, 0.0, 0.0, 0.0, 0.0, 1.695677723847777E9, 0.0, 2023-09-25 16:35:23.847
200.0, -187500.02235174447, 18307.039833908064, -19955.19041480904, -34856.673760017606, 1183.4578136751431, 8138.136045710569, -187500.02235174447, -4232.83925447932, 17849.834901074755, 10843.23356666965, -24727.9360566063, -4663.356204432989, 22501.188218735246, -3518.857481343446, 14487.260816962817, -16152.510482372105, 0.198, 0.902, 0.418, 192.0, 0.0, 0.0, 0.0, 0.0, 0.0, 0.0, 0.0, 0.0, 0.0, 1.695677723847781E9, 0.0, 2023-09-25 16:35:23.847
202.0, -187500.02235174447, 18294.880484924375, -19967.841502170744, -34872.69996079206, 1267.3439106159105, 8143.61222310212, -187500.02235174447, -4252.419382622169, 17868.766828628402, 10862.366659923395, -24708.64650114137, -4692.145251291425, 22485.989032505637, -3524.065437801533, 14514.39583473156, -16151.52700561607, 0.2, 0.902, 0.422, 192.0, 3.0, 32.0, 14.0, 24.0, 6.5, 24.0, 0.0, 0.0, 0.0, 1.695677723847786E9, 0.0, 2023-09-25 16:35:23.847
204.0, -187500.02235174447, 18299.037909393064, -19961.404199767614, -34866.463824089034, 1192.8231946019166, 8129.016533972805, -187500.02235174447, -4253.358155889292, 17843.62111611618, 10854.074162730476, -24714.592065166482, -4656.941253774316, 22507.804335094017, -3499.0091322671337, 14485.852657062132, -16160.087723742454, 0.2, 0.902, 0.422, 192.0, 0.0, 0.0, 0.0, 0.0, 0.0, 0.0, 0.0, 0.0, 0.0, 1.695677723847795E9, 0.0, 2023-09-25 16:35:23.847
206.0, -187500.02235174447, 18296.758031458623, -19970.680173716566, -34879.405484128656, 1269.4002711057988, 8139.141874211058, -187500.02235174447, -4272.468897398579, 17861.48015993597, 10848.508578361105, -24716.335501233996, -4700.92948686236, 22480.177578947256, -3527.1499785363653, 14500.090718280164, -16166.972061034689, 0.2, 0.902, 0.422, 192.0, 0.0, 0.0, 0.0, 0.0, 0.0, 0.0, 0.0, 0.0, 0.0, 1.695677723847799E9, 0.0, 2023-09-25 16:35:23.847
208.0, -187500.02235174447, 18318.774499747098, -19946.89791761612, -34854.08095766079, 1187.302313721456, 8133.375124141589, -187500.02235174447, -4260.756583303998, 17846.34802893973, 10856.711668576201, -24704.64553888387, -4635.170654674846, 22528.390291737356, -3476.0985942004436, 14477.046069746742, -16166.659136612314, 0.2, 0.902, 0.422, 192.0, 0.0, 0.0, 0.0, 0.0, 0.0, 0.0, 0.0, 0.0, 0.0, 1.695677723847802E9, 0.0, 2023-09-25 16:35:23.847
210.0, -187500.02235174447, 18303.24003735066, -19972.602423739725, -34884.367571397735, 1268.1262216718462, 8136.124388709592, -187500.02235174447, -4279.688510857643, 17873.63950891966, 10841.758351535602, -24715.284969244596, -4691.720568146774, 22485.966680761183, -3537.2753187746193, 14490.524171653293, -16169.900139558333, 0.2, 0.902, 0.422, 192.0, 0.0, 0.0, 0.0, 0.0, 0.0, 0.0, 0.0, 0.0, 0.0, 1.695677723907062E9, 0.0, 2023-09-25 16:35:23.907
212.0, -187500.02235174447, 18316.427566579292, -19952.95524036351, -34858.79717574086, 1179.590961884375, 8121.908679236017, -187500.02235174447, -4250.586539576833, 17850.63956387515, 10862.210197712207, -24700.689280115283, -4609.15322412887, 22550.40676002583, -3469.482477841673, 14479.907093037022, -16169.453104669226, 0.192, 0.912, 0.41400000000000003, 192.0, 3.0, 0.0, 14.0, 64.0, 6.0, 120.0, 0.0, 0.0, 0.0, 1.695677723907071E9, 0.0, 2023-09-25 16:35:23.907
214.0, -187500.02235174447, 18308.649159508845, -19958.09614158823, -34870.1295101797, 1258.4926198116088, 8144.2827754357795, -187500.02235174447, -4247.010260463984, 17877.886340366167, 10825.195708894218, -24724.60564668246, -4700.6165624399855, 22474.36612538888, -3557.727164951225, 14503.957570070932, -16148.531871859059, 0.192, 0.912, 0.41400000000000003, 192.0, 0.0, 0.0, 0.0, 0.0, 0.0, 0.0, 0.0, 0.0, 0.0, 1.695677723907075E9, 0.0, 2023-09-25 16:35:23.907
216.0, -187500.02235174447, 18317.58985729097, -19946.160310049094, -34852.404576826644, 1193.4490434466652, 8127.697781049941, -187500.02235174447, -4239.142446415716, 17865.43641870456, 10861.204369211719, -24695.45897191274, -4620.798482990084, 22551.501995504143, -3474.265751155109, 14495.955645555932, -16156.28792718505, 0.192, 0.912, 0.41400000000000003, 192.0, 0.0, 0.0, 0.0, 0.0, 0.0, 0.0, 0.0, 0.0, 0.0, 1.695677723907078E9, 0.0, 2023-09-25 16:35:23.907
218.0, -187500.02235174447, 18299.440240793258, -19962.074752101274, -34872.09646369177, 1254.3351953429217, 8147.56848187071, -187500.02235174447, -4253.514618100478, 17869.34797398424, 10810.890592442822, -24730.439451985294, -4720.464911516298, 22456.328267613444, -3572.926351180834, 14505.790413116267, -16145.983772991154, 0.192, 0.912, 0.41400000000000003, 192.0, 0.0, 0.0, 0.0, 0.0, 0.0, 0.0, 0.0, 0.0, 0.0, 1.695677723907081E9, 0.0, 2023-09-25 16:35:23.907
220.0, -187500.02235174447, 18312.270142110603, -19951.122397318173, -34857.433719329085, 1207.5529941979642, 8130.827025273684, -187500.02235174447, -4239.433019093635, 17852.38299994266, 10872.9166833063, -24683.657250840337, -4619.144453900391, 22557.626373484894, -3459.4018410923295, 14491.194723986951, -16163.127560988374, 0.192, 0.912, 0.41400000000000003, 192.0, 0.0, 0.0, 0.0, 0.0, 0.0, 0.0, 0.0, 0.0, 0.0, 1.695677723907085E9, 0.0, 2023-09-25 16:35:23.907
222.0, -187500.02235174447, 18295.215761091204, -19974.122342362683, -34883.04881847487, 1248.2555208510782, 8140.751199811841, -187500.02235174447, -4264.735193817043, 17849.38786618565, 10810.622371509358, -24733.971027609234, -4719.2802690601675, 22457.714075769672, -3557.213074828753, 14502.705872381435, -16151.549357360525, 0.186, 0.906, 0.42, 192.0, 2.5, 104.0, 14.0, 40.0, 6.5, 16.0, 0.0, 0.0, 0.0, 1.695677723907088E9, 0.0, 2023-09-25 16:35:23.907
224.0, -187500.02235174447, 18308.112717641918, -19966.366287036693, -34864.60862929924, 1212.4703779781316, 8129.620031073097, -187500.02235174447, -4249.737173287532, 17854.8640435772, 10867.015822770098, -24691.212140466232, -4613.087131153004, 22558.02870488509, -3449.187093876254, 14491.306482709228, -16168.96136629121, 0.186, 0.906, 0.42, 192.0, 0.0, 0.0, 0.0, 0.0, 0.0, 0.0, 0.0, 0.0, 0.0, 1.695677723966833E9, 0.0, 2023-09-25 16:35:23.966
226.0, -187500.02235174447, 18309.118546142407, -19960.13015033366, -34866.039140944384, 1234.330384055422, 8153.625804618097, -187500.02235174447, -4243.143408673216, 17846.213918472997, 10804.319179572962, -24743.917553891846, -4709.691370688841, 22459.16693915927, -3557.257778317664, 14496.089756022664, -16141.736941544646, 0.186, 0.906, 0.42, 192.0, 0.0, 0.0, 0.0, 0.0, 0.0, 0.0, 0.0, 0.0, 0.0, 1.695677723966842E9, 0.0, 2023-09-25 16:35:23.966
228.0, -187500.02235174447, 18305.609322262924, -19960.644240456135, -34862.14993740916, 1225.6579072067627, 8124.143853681548, -187500.02235174447, -4250.139504687727, 17844.939869039044, 10885.567770668004, -24684.260747940632, -4610.427273562822, 22572.579690525497, -3447.7118787422037, 14504.762232871322, -16166.726191845679, 0.186, 0.906, 0.42, 192.0, 0.0, 0.0, 0.0, 0.0, 0.0, 0.0, 0.0, 0.0, 0.0, 1.695677723966845E9, 0.0, 2023-09-25 16:35:23.966
230.0, -187500.02235174447, 18321.188488148273, -19938.404254723104, -34844.51441103392, 1226.7531426850728, 8156.062144763726, -187500.02235174447, -4231.900481212197, 17856.048686033333, 10828.637877540335, -24745.169251581345, -4705.355132264511, 22478.344735901923, -3560.0740981190324, 14505.388081716072, -16126.247182637118, 0.186, 0.906, 0.42, 192.0, 0.0, 0.0, 0.0, 0.0, 0.0, 0.0, 0.0, 0.0, 0.0, 1.695677723966848E9, 0.0, 2023-09-25 16:35:23.966
232.0, -187500.02235174447, 18327.022293451108, -19937.13020528915, -34842.56980926631, 1242.3099568259665, 8144.036906246771, -187500.02235174447, -4237.242548137016, 17870.376154229183, 10901.772785398101, -24680.59506184996, -4629.381552860922, 22566.455312544742, -3462.0393469380556, 14521.458985979438, -16145.559089846503, 0.19, 0.91, 0.41400000000000003, 192.0, 2.5, 120.0, 14.0, 56.0, 6.0, 120.0, 0.0, 0.0, 0.0, 1.695677723966851E9, 0.0, 2023-09-25 16:35:23.966
234.0, -187500.02235174447, 18322.440185837768, -19939.968876834977, -34852.404576826644, 1224.5626717284526, 8151.100057494647, -187500.02235174447, -4250.675946554655, 17860.764904113403, 10841.646592813326, -24734.75333866517, -4710.496033489231, 22469.985183475637, -3553.1674090823426, 14514.753462642844, -16127.90121172681, 0.19, 0.91, 0.41400000000000003, 192.0, 0.0, 0.0, 0.0, 0.0, 0.0, 0.0, 0.0, 0.0, 0.0, 1.695677723966854E9, 0.0, 2023-09-25 16:35:23.966
236.0, -187500.02235174447, 18307.57627577499, -19941.309981502294, -34854.930323950095, 1249.7977912184945, 8135.140911953558, -187500.02235174447, -4255.347461145814, 17864.989383815453, 10881.902084577332, -24686.764143319626, -4638.322250643045, 22554.921812405802, -3460.608835292916, 14521.034302834787, -16157.830197552466, 0.19, 0.91, 0.41400000000000003, 192.0, 0.0, 0.0, 0.0, 0.0, 0.0, 0.0, 0.0, 0.0, 0.0, 1.695677723966857E9, 0.0, 2023-09-25 16:35:23.966
238.0, -187500.02235174447, 18310.3702438319, -19937.46548145598, -34853.2762948604, 1219.0864943369024, 8141.444103889955, -187500.02235174447, -4255.41451637918, 17850.684267364057, 10816.277362856552, -24721.386995480898, -4679.114184273981, 22491.085230241446, -3526.680591902804, 14507.176221272495, -16144.933241001754, 0.19, 0.91, 0.41400000000000003, 192.0, 0.0, 0.0, 0.0, 0.0, 0.0, 0.0, 0.0, 0.0, 0.0, 1.695677723966861E9, 0.0, 2023-09-25 16:35:23.966
240.0, -187500.02235174447, 18308.425642064292, -19943.70161815901, -34858.68541701858, 1259.1855238897233, 8138.448970132944, -187500.02235174447, -4255.9733099905625, 17870.934947840567, 10874.637767629358, -24677.84579728196, -4626.29701212609, 22554.854757172438, -3464.3192248724968, 14515.133442298586, -16156.48909288515, 0.19, 0.91, 0.41400000000000003, 192.0, 0.0, 0.0, 0.0, 0.0, 0.0, 0.0, 0.0, 0.0, 0.0, 1.695677724028053E9, 0.0, 2023-09-25 16:35:24.028
242.0, -187500.02235174447, 18323.58012480499, -19929.84353659672, -34843.91091393363, 1198.656999904752, 8150.161284227524, -187500.02235174447, -4241.8246557503535, 17859.803779101825, 10829.353133362905, -24715.709652389247, -4657.92473053035, 22501.724660602173, -3522.478463945206, 14498.34728221265, -16138.71945604318, 0.194, 0.91, 0.41400000000000003, 192.0, 3.0, 8.0, 14.0, 56.0, 6.0, 120.0, 0.0, 0.0, 0.0, 1.695677724028063E9, 0.0, 2023-09-25 16:35:24.028
244.0, -187500.02235174447, 18319.467403825212, -19953.71519967499, -34861.501736819955, 1259.3643378453658, 8130.581156084676, -187500.02235174447, -4266.791554306931, 17882.557854957326, 10880.426869443283, -24677.823445537502, -4638.210491920769, 22538.4709284867, -3481.9100477588236, 14511.959494585932, -16164.222796466685, 0.194, 0.91, 0.41400000000000003, 192.0, 0.0, 0.0, 0.0, 0.0, 0.0, 0.0, 0.0, 0.0, 0.0, 1.695677724028067E9, 0.0, 2023-09-25 16:35:24.028
