%OpenBCI Raw EXG Data
%Number of channels = 16
%Sample Rate = 125 Hz
%Board = OpenBCI_GUI$BoardCytonSerialDaisy
Sample Index, EXG Channel 0, EXG Channel 1, EXG Channel 2, EXG Channel 3, EXG Channel 4, EXG Channel 5, EXG Channel 6, EXG Channel 7, EXG Channel 8, EXG Channel 9, EXG Channel 10, EXG Channel 11, EXG Channel 12, EXG Channel 13, EXG Channel 14, EXG Channel 15, Accel Channel 0, Accel Channel 1, Accel Channel 2, Other, Other, Other, Other, Other, Other, Other, Analog Channel 0, Analog Channel 1, Analog Channel 2, Timestamp, Other, Timestamp (Formatted)
18.0, -23565.7124001637, -45643.91620682672, -55857.12115253462, -31894.173549911207, -74769.98266815933, -60042.44059830196, 71242.63152392287, -65817.57257194193, -33101.77124759808, -42763.08927096001, -54522.47613936379, -55639.169292350925, -65810.04003406048, -54181.09794629788, -48028.37795357442, -59903.3903960455, 0.067, 0.492, 0.116, 192.0, 2.0, 24.0, 15.0, 96.0, 3.5, 32.0, 0.0, 0.0, 0.0, 1.695338170719158E9, 0.0, 2023-09-21 18:16:10.719
20.0, -23576.03890610205, -45654.75680288754, -55866.82180962823, -31910.199750685664, -74782.09731365411, -60053.951746696446, 71315.81113526954, -65827.9884848581, -33095.04337251704, -42751.242846398694, -54514.85419450453, -55629.96037363534, -65819.42776673172, -54176.247617751076, -48018.87846218091, -59897.31072155365, 0.067, 0.492, 0.116, 192.0, 0.0, 0.0, 0.0, 0.0, 0.0, 0.0, 0.0, 0.0, 0.0, 1.695338170719167E9, 0.0, 2023-09-21 18:16:10.719
22.0, -23562.069065817486, -45641.859846336825, -55858.66342290204, -31898.733305780093, -74768.93213616993, -60038.439636044466, 71358.45826369026, -65816.58909518589, -33108.5661779125, -42767.35845415097, -54531.46154063482, -55647.551196521665, -65817.61727543084, -54186.97645508963, -48034.927014699824, -59914.02982640622, 0.067, 0.492, 0.116, 192.0, 0.0, 0.0, 0.0, 0.0, 0.0, 0.0, 0.0, 0.0, 0.0, 1.695338170719173E9, 0.0, 2023-09-21 18:16:10.719
24.0, -23542.555992908, -45622.771456571994, -55834.568242379224, -31878.616735770316, -74747.45210974838, -60023.08398760367, 71389.70600243879, -65798.99827229956, -33075.35148565191, -42728.71228798775, -54499.789118741646, -55613.33067576059, -65783.10618199184, -54144.10580922435, -48001.377046272406, -59881.59744520157, 0.067, 0.492, 0.116, 192.0, 0.0, 0.0, 0.0, 0.0, 0.0, 0.0, 0.0, 0.0, 0.0, 1.695338170719178E9, 0.0, 2023-09-21 18:16:10.719
26.0, -23547.741597621633, -45624.60429961733, -55840.29028895978, -31887.892709719268, -74760.03614187671, -60033.43284528647, 71430.72145351427, -65810.71058639414, -33075.86557577438, -42732.13210488941, -54501.17492689788, -55616.86225138453, -65773.38317315378, -54148.7326203266, -48006.51794749713, -59892.61685521804, 0.067, 0.492, 0.116, 192.0, 0.0, 0.0, 0.0, 0.0, 0.0, 0.0, 0.0, 0.0, 0.0, 1.695338170719182E9, 0.0, 2023-09-21 18:16:10.719
28.0, -23570.875653132876, -45645.16790451621, -55861.77031538133, -31911.60791058635, -74785.80770323369, -60058.69031652097, 71470.5746138781, -65835.29750529498, -33092.47292190468, -42744.9396544623, -54513.80366251513, -55624.43949275488, -65804.87678109131, -54168.75978335855, -48021.87359593792, -59907.86074493656, 0.1005, 0.738, 0.17200000000000001, 192.0, 2.0, 24.0, 15.0, 96.0, 3.5, 16.0, 0.0, 0.0, 0.0, 1.695338170719188E9, 0.0, 2023-09-21 18:16:10.719
30.0, -23543.450062686214, -45621.49740713804, -55839.50797790384, -31888.607965541836, -74769.46857803686, -60037.9702494109, 71512.88646613198, -65821.0370923325, -33099.290203963545, -42754.260331900165, -54516.73174103877, -55630.496815502265, -65814.532734696, -54176.76170787355, -48032.758895487656, -59917.38258807452, 0.1005, 0.738, 0.17200000000000001, 192.0, 0.0, 0.0, 0.0, 0.0, 0.0, 0.0, 0.0, 0.0, 0.0, 1.695338170719192E9, 0.0, 2023-09-21 18:16:10.719
32.0, -23535.068158515474, -45607.192290686646, -55833.89769004556, -31882.282421860986, -74762.0477988777, -60028.2695923173, 71526.16340233844, -65818.24312427558, -33066.9025262478, -42718.00580239365, -54489.30615059211, -55599.047911053654, -65780.87100754632, -54143.01057374604, -48008.10492135345, -59889.26409354974, 0.1005, 0.738, 0.17200000000000001, 192.0, 0.0, 0.0, 0.0, 0.0, 0.0, 0.0, 0.0, 0.0, 0.0, 1.695338170719196E9, 0.0, 2023-09-21 18:16:10.719
34.0, -23525.769832822065, -45600.59852607233, -55823.99586725186, -31875.912174691224, -74751.18485107242, -60017.33958927865, 71562.37322835604, -65808.65422590426, -33065.29320064702, -42717.69287797128, -54489.0602814031, -55599.6737598984, -65784.26847270352, -54143.591719101874, -48005.75798818564, -59886.85010514857, 0.1005, 0.738, 0.17200000000000001, 192.0, 0.0, 0.0, 0.0, 0.0, 0.0, 0.0, 0.0, 0.0, 0.0, 1.6953381707192E9, 0.0, 2023-09-21 18:16:10.719
0.0, -8971.610244704514, -17792.27915910234, -21618.204905772796, -10497.519135179416, -32168.429454377827, -25846.50675612769, 50877.46541231459, -28223.748889416325, -16531.573716589657, -21360.601050925383, -27244.4295578515, -27800.764477344095, -32890.39080028424, -27071.002372622774, -24000.11855365259, -29942.285113607064, 0.12525, 0.861, 0.203, 192.0, 2.0, 88.0, 15.0, 96.0, 3.5, 40.0, 0.0, 0.0, 0.0, 1.695338170858668E9, 0.0, 2023-09-21 18:16:10.858
2.0, -17939.30893412935, -35578.344533246105, -43225.77038118486, -20978.475627717453, -64321.86088822614, -51677.23318066993, 101752.02509784998, -56432.38799958087, -23320.84903965581, -31139.91393326687, -45955.07484138905, -44758.22833278517, -56403.59895272243, -43360.70786246155, -36599.57338566463, -49246.45861941083, 0.12525, 0.861, 0.203, 192.0, 0.0, 0.0, 0.0, 0.0, 0.0, 0.0, 0.0, 0.0, 0.0, 1.69533817085868E9, 0.0, 2023-09-21 18:16:10.858
4.0, -17945.902698743666, -35588.760446162276, -43236.02983188985, -20990.47851448995, -64328.25348714036, -51683.15639295059, 101750.12519957128, -56438.91470896181, -23323.195972823618, -31137.92462801035, -45959.52283853565, -44757.80364964052, -56406.75054869063, -43349.93432163409, -36594.14191176199, -49237.54027337316, 0.12525, 0.861, 0.203, 192.0, 0.0, 0.0, 0.0, 0.0, 0.0, 0.0, 0.0, 0.0, 0.0, 1.695338170858684E9, 0.0, 2023-09-21 18:16:10.858
6.0, -17957.25738492696, -35599.98102187884, -43245.439916305535, -21013.67962523456, -64342.82682452522, -51699.76373908088, 101752.24861529453, -56448.5259590776, -23328.76155719299, -31156.722445097264, -45960.88629494742, -44772.84637365894, -56414.663066227804, -43369.13447012121, -36604.51312118925, -49250.34782294605, 0.12525, 0.861, 0.203, 192.0, 0.0, 0.0, 0.0, 0.0, 0.0, 0.0, 0.0, 0.0, 0.0, 1.695338170858688E9, 0.0, 2023-09-21 18:16:10.858
8.0, -17951.781207535412, -35591.46500724137, -43243.71883198248, -21014.59604675723, -64333.84142325418, -51700.36723618117, 101770.26412132551, -56451.2752236456, -23339.579801509357, -31164.322038212067, -45971.123393907954, -44785.20688834273, -56429.07994140148, -43384.73598775101, -36616.53835970621, -49266.75400337625, 0.164, 0.98, 0.23600000000000002, 192.0, 2.5, 16.0, 15.0, 80.0, 3.5, 48.0, 0.0, 0.0, 0.0, 1.695338170858692E9, 0.0, 2023-09-21 18:16:10.858
10.0, -17950.50715810146, -35592.604946208594, -43241.729526725954, -21014.238418845944, -64334.17669942102, -51697.28269544634, 101755.08728684037, -56444.54734856455, -23324.201801324107, -31150.620418860963, -45957.31001583458, -44767.88428638987, -56421.100368630934, -43372.80015621187, -36600.51215893176, -49251.30894795763, 0.164, 0.98, 0.23600000000000002, 192.0, 0.0, 0.0, 0.0, 0.0, 0.0, 0.0, 0.0, 0.0, 0.0, 1.695338170858696E9, 0.0, 2023-09-21 18:16:10.858
12.0, -17941.27588764142, -35582.70312341489, -43235.82866618975, -21000.469744261474, -64330.086330185695, -51691.76181456588, 101766.57608349039, -56441.77573225209, -23331.08613861634, -31150.531011883144, -45959.41107981338, -44766.40907125582, -56440.546386307054, -43375.616476013245, -36602.21089151036, -49252.381831691484, 0.164, 0.98, 0.23600000000000002, 192.0, 0.0, 0.0, 0.0, 0.0, 0.0, 0.0, 0.0, 0.0, 0.0, 1.695338170858699E9, 0.0, 2023-09-21 18:16:10.858
14.0, -17945.12038768773, -35587.017010094765, -43234.91224466709, -20997.407555271096, -64345.039647226295, -51697.43915765753, 101753.09798158384, -56450.671726545304, -23319.7538041775, -31141.724424567754, -45949.129277363936, -44753.40035598283, -56407.48815625765, -43371.39199631119, -36599.68514438691, -49244.290500198666, 0.164, 0.98, 0.23600000000000002, 192.0, 0.0, 0.0, 0.0, 0.0, 0.0, 0.0, 0.0, 0.0, 0.0, 1.695338170858703E9, 0.0, 2023-09-21 18:16:10.858
16.0, -17935.620896294226, -35577.226946023344, -43218.61782295917, -20984.33178476474, -64333.95318197647, -51688.00672149739, 101777.70725222913, -56444.56970030901, -23322.592475723326, -31144.719558324763, -45951.78913495412, -44754.27207401658, -56404.58242947846, -43367.569848009334, -36605.22837701182, -49247.307985700136, 0.164, 0.98, 0.23600000000000002, 192.0, 0.0, 0.0, 0.0, 0.0, 0.0, 0.0, 0.0, 0.0, 0.0, 1.695338170918862E9, 0.0, 2023-09-21 18:16:10.918
18.0, -17935.375027105216, -35578.25512626828, -43206.88315712013, -20982.47658997495, -64318.619885280124, -51681.32354990525, 101740.64805992223, -56430.823377468994, -23306.588626693327, -31129.229799417237, -45933.68422194532, -44740.95043432122, -56397.63103695286, -43348.704975689056, -36579.926202288414, -49226.00677323422, 0.168, 0.974, 0.234, 192.0, 2.5, 32.0, 15.0, 56.0, 3.5, 40.0, 0.0, 0.0, 0.0, 1.695338170918873E9, 0.0, 2023-09-21 18:16:10.918
20.0, -17941.20883240805, -35583.06075132618, -43211.15234031109, -20992.49017149093, -64328.8346324962, -51693.37114016666, 101778.55661851843, -56442.2227671412, -23317.56333322088, -31144.585447858033, -45947.85522792998, -44754.51794320559, -56424.58724076596, -43365.133507863706, -36583.03309476771, -49235.43920939436, 0.168, 0.974, 0.234, 192.0, 0.0, 0.0, 0.0, 0.0, 0.0, 0.0, 0.0, 0.0, 0.0, 1.695338170918878E9, 0.0, 2023-09-21 18:16:10.918
22.0, -17924.82500372231, -35572.10839654307, -43202.88219486263, -20979.61556668467, -64316.78704223479, -51686.017416240866, 101749.02996409297, -56436.79129323856, -23306.85684762679, -31137.991683243716, -45937.439315013806, -44746.94070183524, -56392.17721130577, -43363.05479562936, -36584.77653083522, -49235.908596027926, 0.168, 0.974, 0.234, 192.0, 0.0, 0.0, 0.0, 0.0, 0.0, 0.0, 0.0, 0.0, 0.0, 1.695338170918882E9, 0.0, 2023-09-21 18:16:10.918
24.0, -17933.27396312642, -35581.987867592325, -43219.98127937094, -20981.828389385748, -64334.9366587325, -51690.487765131926, 101797.71206351664, -56443.74268576416, -23304.55461794789, -31129.967406984262, -45934.488884745704, -44740.48104768766, -56405.74472019014, -43355.276388558916, -36585.312972702144, -49231.12532271449, 0.168, 0.974, 0.234, 192.0, 0.0, 0.0, 0.0, 0.0, 0.0, 0.0, 0.0, 0.0, 0.0, 1.695338170918885E9, 0.0, 2023-09-21 18:16:10.918
26.0, -17939.35363761826, -35584.87124262706, -43227.37970678565, -20982.85656963069, -64337.6859233005, -51688.36434940867, 101779.65185399674, -56444.30147937554, -23315.216400053072, -31133.76720354166, -45946.178847095834, -44747.38773672435, -56411.511470259604, -43355.09757460327, -36598.120522275036, -49231.8182267926, 0.168, 0.974, 0.234, 192.0, 0.0, 0.0, 0.0, 0.0, 0.0, 0.0, 0.0, 0.0, 0.0, 1.695338170918889E9, 0.0, 2023-09-21 18:16:10.918
28.0, -17932.759873003946, -35578.36688499056, -43214.259232790384, -20977.514502705875, -64326.01831269483, -51680.22831442694, 101800.95306646265, -56432.7679792366, -23308.04149008292, -31129.363909883967, -45939.406268525876, -44741.12924827686, -56406.37056903489, -43348.03442335539, -36591.07972277162, -49223.27986041068, 0.164, 0.97, 0.232, 192.0, 2.5, 16.0, 15.0, 40.0, 3.5, 32.0, 0.0, 0.0, 0.0, 1.695338170918892E9, 0.0, 2023-09-21 18:16:10.918
30.0, -17945.567422576838, -35590.23566129633, -43221.16592182707, -20987.997470855415, -64324.699559771965, -51686.41974764106, 101791.18535413568, -56439.138226406365, -23313.092984329818, -31139.53395361113, -45954.13606812192, -44754.070908316484, -56420.78744420856, -43359.70203396107, -36591.70557161636, -49231.25943318122, 0.164, 0.97, 0.232, 192.0, 0.0, 0.0, 0.0, 0.0, 0.0, 0.0, 0.0, 0.0, 0.0, 1.695338170978317E9, 0.0, 2023-09-21 18:16:10.978
32.0, -17935.755006760955, -35579.43976872442, -43206.905508864584, -20975.97223233846, -64308.405138064045, -51674.260398657374, 101819.34855214937, -56428.67761000129, -23308.913208116675, -31139.69041582232, -45950.917416920354, -44753.98150133866, -56383.571789690475, -43350.448411756566, -36584.977696535316, -49228.59957559104, 0.164, 0.97, 0.232, 192.0, 0.0, 0.0, 0.0, 0.0, 0.0, 0.0, 0.0, 0.0, 0.0, 1.695338170978333E9, 0.0, 2023-09-21 18:16:10.978
34.0, -17930.34588460277, -35571.81782386516, -43203.3962849851, -20975.748714893904, -64302.14664961656, -51675.22152366895, 101782.26700809802, -56429.25875535712, -23300.03956556792, -31125.2958923931, -45942.2449400717, -44741.39746921033, -56403.95658063371, -43341.39595525217, -36572.12544347352, -49217.78133127467, 0.164, 0.97, 0.232, 192.0, 0.0, 0.0, 0.0, 0.0, 0.0, 0.0, 0.0, 0.0, 0.0, 1.695338170978338E9, 0.0, 2023-09-21 18:16:10.978
36.0, -17932.044617181375, -35572.77894887674, -43199.082398305225, -20978.72149690646, -64308.695710741966, -51676.294407402806, 101821.71783706163, -56433.59499378145, -23301.939463846622, -31123.395994114402, -45943.83191392803, -44741.844504099434, -56385.40463273581, -43339.29489127337, -36574.60648710805, -49222.65401156593, 0.164, 0.97, 0.232, 192.0, 0.0, 0.0, 0.0, 0.0, 0.0, 0.0, 0.0, 0.0, 0.0, 1.695338170978342E9, 0.0, 2023-09-21 18:16:10.978
38.0, -17930.41293983614, -35568.33095173013, -43204.98325884143, -20974.608775926685, -64309.99211192037, -51669.90180848859, 101816.62163932582, -56424.14020587686, -23301.693594657612, -31122.43486910282, -45945.86592267346, -44743.40912621131, -56396.155821818815, -43338.222007539516, -36581.06614125564, -49226.40910463442, 0.168, 0.976, 0.234, 192.0, 2.5, 32.0, 15.0, 64.0, 3.5, 40.0, 0.0, 0.0, 0.0, 1.695338170978345E9, 0.0, 2023-09-21 18:16:10.978
40.0, -17916.465451296026, -35554.27170446774, -43194.12031103615, -20958.359057707676, -64301.45374553845, -51655.261415870365, 101826.8363865419, -56412.852574926925, -23290.115391029765, -31107.01216542866, -45932.90191088938, -44728.18758823724, -56379.503772199605, -43322.46402769852, -36568.66092308294, -49209.24296489274, 0.168, 0.976, 0.234, 192.0, 0.0, 0.0, 0.0, 0.0, 0.0, 0.0, 0.0, 0.0, 0.0, 1.695338170978349E9, 0.0, 2023-09-21 18:16:10.978
42.0, -17929.898849713667, -35567.369826718554, -43213.81219790127, -20971.501883447396, -64315.02125442282, -51670.907636989075, 101844.7401338506, -56425.34720007744, -23301.17950453514, -31115.25995913267, -45939.47332375924, -44734.53548366255, -56402.63782771085, -43333.28227201489, -36577.80278656516, -49216.619040563, 0.168, 0.976, 0.234, 192.0, 0.0, 0.0, 0.0, 0.0, 0.0, 0.0, 0.0, 0.0, 0.0, 1.695338170978352E9, 0.0, 2023-09-21 18:16:10.978
44.0, -17914.654959995147, -35549.46607940985, -43197.02603781534, -20952.592307638206, -64298.05628038124, -51658.3459566052, 101847.51175016306, -56413.74664470514, -23295.32334748785, -31110.11905790795, -45934.31007079007, -44728.43345742625, -56399.843859653934, -43324.96742307752, -36570.71728357283, -49211.142863171444, 0.168, 0.976, 0.234, 192.0, 0.0, 0.0, 0.0, 0.0, 0.0, 0.0, 0.0, 0.0, 0.0, 1.695338170978356E9, 0.0, 2023-09-21 18:16:10.978
46.0, -17908.955265159042, -35542.7382043288, -43186.3419039657, -20939.404778409575, -64296.51401001382, -51649.36055533416, 101853.61377639936, -56407.77872893557, -23286.18148400563, -31100.083124647514, -45925.548186963584, -44719.11277998838, -56394.54649621803, -43312.964536305015, -36561.7318823018, -49204.504395068216, 0.168, 0.976, 0.234, 192.0, 0.0, 0.0, 0.0, 0.0, 0.0, 0.0, 0.0, 0.0, 0.0, 1.695338171038327E9, 0.0, 2023-09-21 18:16:11.038
48.0, -17910.49753552646, -35544.07930899612, -43178.00470328387, -20937.72839757543, -64297.05045188075, -51647.93004368902, 101860.27459624704, -56406.437624268256, -23276.011440278464, -31086.828540185517, -45913.65705891336, -44704.6512013258, -56369.75841161709, -43299.93346928757, -36548.074966439606, -49186.66770299288, 0.176, 0.974, 0.232, 192.0, 2.5, 64.0, 15.0, 56.0, 3.5, 32.0, 0.0, 0.0, 0.0, 1.69533817103834E9, 0.0, 2023-09-21 18:16:11.038
50.0, -17903.00970113393, -35539.49720138278, -43168.59461886819, -20935.62733359663, -64281.31482378422, -51639.21286335145, 101860.40870671377, -56393.563019461995, -23274.73739084451, -31098.652613002374, -45914.72994264722, -44711.89316652932, -56358.94016730072, -43310.08116127028, -36549.41607110692, -49188.65700824941, 0.176, 0.974, 0.232, 192.0, 0.0, 0.0, 0.0, 0.0, 0.0, 0.0, 0.0, 0.0, 0.0, 1.695338171038344E9, 0.0, 2023-09-21 18:16:11.038
52.0, -17911.16808786012, -35546.91798054195, -43184.08437777572, -20952.793473338304, -64283.19237031846, -51650.902825701574, 101851.22213974263, -56400.82733640997, -23273.865672810756, -31090.62833674292, -45912.9865065797, -44708.60746009439, -56370.004280806104, -43306.10255075724, -36544.45398383784, -49186.757109970706, 0.176, 0.974, 0.232, 192.0, 0.0, 0.0, 0.0, 0.0, 0.0, 0.0, 0.0, 0.0, 0.0, 1.695338171038348E9, 0.0, 2023-09-21 18:16:11.038
54.0, -17900.461602266027, -35537.12791647052, -43175.255438715874, -20953.262859971866, -64270.943614356955, -51648.28767160031, 101784.63629301028, -56392.244266539135, -23280.37003044725, -31098.16087462436, -45921.74839040618, -44715.491797386625, -56386.365757747386, -43316.02672529539, -36548.99138796227, -49199.00586593222, 0.176, 0.974, 0.232, 192.0, 0.0, 0.0, 0.0, 0.0, 0.0, 0.0, 0.0, 0.0, 0.0, 1.695338171038352E9, 0.0, 2023-09-21 18:16:11.038
56.0, -17893.264340551417, -35529.37186114453, -43161.64322634259, -20945.037418012314, -64254.40332346003, -51633.289651070794, 101677.63849230272, -56380.26373151109, -23268.277736696928, -31084.548662251076, -45904.1352157754, -44700.31496290147, -56367.99262380513, -43305.1190740012, -36529.76888773071, -49185.416005303385, 0.176, 0.974, 0.232, 192.0, 0.0, 0.0, 0.0, 0.0, 0.0, 0.0, 0.0, 0.0, 0.0, 1.695338171038355E9, 0.0, 2023-09-21 18:16:11.038
58.0, -17891.47620099499, -35529.59537858908, -43155.51884836183, -20941.885822044114, -64251.94463156994, -51629.42279928003, 101621.82618639783, -56384.64467342433, -23262.063951738353, -31080.279479060115, -45900.46952968473, -44695.33052388794, -56355.76621958807, -43300.04522800985, -36522.34810857155, -49182.26440933519, 0.176, 0.974, 0.232, 192.0, 2.5, 64.0, 15.0, 56.0, 3.5, 32.0, 0.0, 0.0, 0.0, 1.695338171038359E9, 0.0, 2023-09-21 18:16:11.038
60.0, -17905.714262213023, -35540.50302988327, -43166.49355488939, -20955.073351272746, -64267.47909396638, -51642.386811064105, 101563.04109848036, -56397.273409041576, -23259.918184270646, -31081.77704593862, -45900.04484654008, -44697.34218088892, -56344.143312471315, -43295.977210518984, -36526.259663851226, -49187.47236579328, 0.176, 0.974, 0.232, 192.0, 0.0, 0.0, 0.0, 0.0, 0.0, 0.0, 0.0, 0.0, 0.0, 1.695338171098398E9, 0.0, 2023-09-21 18:16:11.098
62.0, -17905.803669190846, -35543.63227410702, -43181.51392716336, -20956.57091815125, -64275.838646392665, -51650.47814255692, 101563.48813336946, -56405.29768530103, -23278.581890890826, -31097.15504612387, -45915.17697753632, -44711.26731768457, -56372.530027929555, -43311.04228628186, -36543.06817568161, -49200.16815664389, 0.176, 0.974, 0.232, 192.0, 0.0, 0.0, 0.0, 0.0, 0.0, 0.0, 0.0, 0.0, 0.0, 1.69533817109841E9, 0.0, 2023-09-21 18:16:11.098
64.0, -17879.897997367145, -35521.59345407408, -43163.16314496555, -20925.94902824748, -64259.09718979564, -51631.50151151437, 101488.38627199964, -56387.14806880332, -23268.9929925195, -31090.67304023183, -45909.99137282269, -44701.0525704685, -56378.22972276565, -43303.64385886715, -36540.83300123608, -49189.618133260985, 0.176, 0.974, 0.232, 192.0, 0.0, 0.0, 0.0, 0.0, 0.0, 0.0, 0.0, 0.0, 0.0, 1.695338171098414E9, 0.0, 2023-09-21 18:16:11.098
66.0, -17885.865913136713, -35524.02979421971, -43168.66167410155, -20929.793528293794, -64263.321669497695, -51636.0389156388, 101490.62144644516, -56391.73017641666, -23256.744236557992, -31075.943240635785, -45896.7814918496, -44685.47340458315, -56354.44746666521, -43288.019989492896, -36526.79610571815, -49173.01078713069, 0.176, 0.974, 0.232, 192.0, 0.0, 0.0, 0.0, 0.0, 0.0, 0.0, 0.0, 0.0, 0.0, 1.695338171098418E9, 0.0, 2023-09-21 18:16:11.098
68.0, -17862.977726814475, -35504.96375619934, -43151.897865760075, -20920.18227817801, -64245.82025358919, -51615.944697373474, 101419.22997465491, -56374.78755411954, -23258.93470751461, -31073.305734790058, -45898.74844536167, -44686.970971461655, -56353.978080031644, -43289.495204626946, -36531.557027287134, -49174.95538889831, 0.17400000000000002, 0.972, 0.23, 192.0, 2.5, 56.0, 15.0, 48.0, 3.5, 24.0, 0.0, 0.0, 0.0, 1.695338171098421E9, 0.0, 2023-09-21 18:16:11.098
70.0, -17868.520959439393, -35518.084230194596, -43156.994063495884, -20939.784758065314, -64259.94655608494, -51628.26050856835, 101408.81406173874, -56383.37062399038, -23240.919201483634, -31057.14542354887, -45881.69406434227, -44674.16342188876, -56344.120960726854, -43270.63033230667, -36519.688250981366, -49165.63471146044, 0.17400000000000002, 0.972, 0.23, 192.0, 0.0, 0.0, 0.0, 0.0, 0.0, 0.0, 0.0, 0.0, 0.0, 1.695338171098425E9, 0.0, 2023-09-21 18:16:11.098
72.0, -17867.179854772075, -35524.99091923129, -43148.94743549197, -20943.22692671143, -64254.179806015476, -51630.60744173616, 101361.0260320933, -56379.30260649951, -23250.8880795107, -31073.305734790058, -45893.33932320349, -44688.155613917785, -56338.421265890756, -43287.170623203594, -36529.43361156388, -49180.09629012302, 0.17400000000000002, 0.972, 0.23, 192.0, 0.0, 0.0, 0.0, 0.0, 0.0, 0.0, 0.0, 0.0, 0.0, 1.695338171098429E9, 0.0, 2023-09-21 18:16:11.098
74.0, -17876.187607787564, -35537.15026821497, -43143.06892670023, -20956.548566406796, -64252.12344552558, -51641.80566570827, 101381.50023001435, -56391.2607897831, -23245.523660841427, -31083.319316306035, -45891.774701091614, -44695.3975791213, -56334.75557980008, -43292.15506221713, -36520.448210292845, -49182.15265061291, 0.17400000000000002, 0.972, 0.23, 192.0, 0.0, 0.0, 0.0, 0.0, 0.0, 0.0, 0.0, 0.0, 0.0, 1.695338171098432E9, 0.0, 2023-09-21 18:16:11.098
76.0, -17872.924253097088, -35535.295073425186, -43141.30313888826, -20960.70599087548, -64253.732771126364, -51646.18660762151, 101338.38371496007, -56398.033368353055, -23251.223355677528, -31089.421342542333, -45895.03805578209, -44699.912631501276, -56338.84594903541, -43302.213347222016, -36527.13138188498, -49194.580220530064, 0.17400000000000002, 0.972, 0.23, 192.0, 0.0, 0.0, 0.0, 0.0, 0.0, 0.0, 0.0, 0.0, 0.0, 1.695338171158431E9, 0.0, 2023-09-21 18:16:11.158
78.0, -17870.510264695917, -35528.61190183305, -43146.242874412885, -20951.519423904352, -64253.95628857092, -51643.59380526469, 101358.9249681145, -56396.155821818815, -23241.522698583925, -31083.229909328213, -45888.04195976758, -44690.882526741334, -56344.344478171406, -43298.25708845343, -36525.76792547321, -49192.769729229185, 0.176, 0.972, 0.232, 192.0, 2.5, 64.0, 15.0, 48.0, 3.5, 32.0, 0.0, 0.0, 0.0, 1.695338171158437E9, 0.0, 2023-09-21 18:16:11.158
80.0, -17839.642505603137, -35502.7285817538, -43121.94652818996, -20914.169658919534, -64229.81640455919, -51613.28483978329, 101293.03202546026, -56369.28902498353, -23232.15731765715, -31065.884955630896, -45868.95357000275, -44673.02348292154, -56343.33864967092, -43280.33098940027, -36515.46377127931, -49177.01174938819, 0.176, 0.972, 0.232, 192.0, 0.0, 0.0, 0.0, 0.0, 0.0, 0.0, 0.0, 0.0, 0.0, 1.695338171158441E9, 0.0, 2023-09-21 18:16:11.158
82.0, -17856.830997089266, -35518.19598891687, -43136.229292896904, -20922.46215611245, -64250.00002980233, -51627.52290100133, 101305.23607793284, -56384.04117632403, -23225.049462920364, -31053.412682224833, -45861.108107698936, -44660.2382850931, -56339.22592869114, -43265.55648631531, -36503.57264322909, -49162.214894558776, 0.176, 0.972, 0.232, 192.0, 0.0, 0.0, 0.0, 0.0, 0.0, 0.0, 0.0, 0.0, 0.0, 1.695338171158445E9, 0.0, 2023-09-21 18:16:11.158
84.0, -17850.237232474952, -35510.86461673553, -43123.08646715718, -20912.62738855212, -64247.85426233462, -51617.59872646317, 101272.78134498374, -56374.407574463796, -23229.69862576707, -31060.252316028156, -45866.36076764593, -44666.5414770295, -56334.979097244635, -43273.46900385249, -36509.048820620636, -49163.399537014906, 0.176, 0.972, 0.232, 192.0, 0.0, 0.0, 0.0, 0.0, 0.0, 0.0, 0.0, 0.0, 0.0, 1.695338171158449E9, 0.0, 2023-09-21 18:16:11.158
86.0, -17852.45005517603, -35512.54099756968, -43121.05245841175, -20908.51466757234, -64249.6647536355, -51618.202223563465, 101291.98149347086, -56373.11117328539, -23231.956151957056, -31057.815975882528, -45864.93025600079, -44665.82622120693, -56332.20748093218, -43275.32419864228, -36505.1149135965, -49156.67166193386, 0.176, 0.972, 0.232, 192.0, 0.0, 0.0, 0.0, 0.0, 0.0, 0.0, 0.0, 0.0, 0.0, 1.695338171158453E9, 0.0, 2023-09-21 18:16:11.158
88.0, -17853.85821507671, -35508.76355275673, -43123.82407472421, -20895.170676132522, -64249.17301525748, -51617.017581107335, 101266.03111815824, -56371.16657151778, -23232.82786999081, -31058.821804383017, -45865.53375310108, -44665.580352017925, -56332.83332977693, -43274.452480608525, -36504.93609964086, -49150.63669093093, 0.18, 0.984, 0.228, 192.0, 2.5, 80.0, 15.0, 96.0, 3.5, 16.0, 0.0, 0.0, 0.0, 1.695338171158457E9, 0.0, 2023-09-21 18:16:11.158
90.0, -17850.483101663962, -35499.95696544134, -43122.43826656798, -20885.984109161393, -64243.18274774346, -51618.42574100802, 101261.8513419451, -56370.563074417485, -23233.20784964655, -31051.19985952376, -45859.38702337587, -44654.62799723483, -56336.85664377888, -43265.645893293135, -36499.683439693865, -49141.33836523752, 0.18, 0.984, 0.228, 192.0, 0.0, 0.0, 0.0, 0.0, 0.0, 0.0, 0.0, 0.0, 0.0, 1.695338171218276E9, 0.0, 2023-09-21 18:16:11.218
92.0, -17845.409255672606, -35497.58768052908, -43112.29057458527, -20882.18431260399, -64241.97575354287, -51620.95148813147, 101233.8446061426, -56370.853647095406, -23225.116518153733, -31043.846135597963, -45853.128534928386, -44647.810715175954, -56336.99075424561, -43260.99673044643, -36497.73883792625, -49141.76304838217, 0.18, 0.984, 0.228, 192.0, 0.0, 0.0, 0.0, 0.0, 0.0, 0.0, 0.0, 0.0, 0.0, 1.695338171218287E9, 0.0, 2023-09-21 18:16:11.218
94.0, -17852.114779009196, -35495.79954097266, -43103.14871110305, -20878.45157127995, -64239.15943374151, -51618.67161019702, 101234.71632417636, -56363.566978402974, -23220.623817518215, -31041.566257663522, -45847.36178485892, -44644.70382269667, -56308.38052134282, -43260.750861257424, -36491.25683203421, -49136.264519246164, 0.18, 0.984, 0.228, 192.0, 0.0, 0.0, 0.0, 0.0, 0.0, 0.0, 0.0, 0.0, 0.0, 1.69533817121829E9, 0.0, 2023-09-21 18:16:11.218
96.0, -17868.05157280583, -35501.856863720044, -43103.7745599478, -20890.99089991938, -64240.99227678684, -51630.11570335814, 101227.72022816185, -56374.87696109736, -23234.794823502878, -31047.91415308883, -45858.73882278667, -44653.6892239677, -56326.48543435162, -43267.90341948312, -36497.00123035923, -49146.16634203987, 0.18, 0.984, 0.228, 192.0, 0.0, 0.0, 0.0, 0.0, 0.0, 0.0, 0.0, 0.0, 0.0, 1.695338171218294E9, 0.0, 2023-09-21 18:16:11.218
98.0, -17868.47625595048, -35498.39234332947, -43104.37805704809, -20894.298958098767, -64242.981582043365, -51634.22842433792, 101218.0419228127, -56375.54751343102, -23231.17384090112, -31040.2251529962, -45858.872933253406, -44648.74948844308, -56320.986905215614, -43269.982131717465, -36494.27431753568, -49147.10511530699, 0.17400000000000002, 0.98, 0.232, 192.0, 2.5, 56.0, 15.0, 80.0, 3.5, 32.0, 0.0, 0.0, 0.0, 1.695338171218297E9, 0.0, 2023-09-21 18:16:11.218
100.0, -17852.941793554044, -35485.853014690045, -43096.84551916665, -20877.624556735107, -64234.89025055054, -51620.77267417582, 101199.04294002568, -56365.466876681676, -23221.584942529793, -31031.351510447446, -45848.81464824852, -44640.38993601679, -56306.99471318659, -43266.91994272709, -36492.59793670153, -49138.924376836345, 0.17400000000000002, 0.98, 0.232, 192.0, 0.0, 0.0, 0.0, 0.0, 0.0, 0.0, 0.0, 0.0, 0.0, 1.6953381712183E9, 0.0, 2023-09-21 18:16:11.218
102.0, -17857.166273256098, -35482.008514643734, -43098.65601046753, -20872.975393888402, -64230.7104743374, -51617.88929914109, 101175.03716648069, -56361.823542335456, -23220.422651818117, -31019.08040274148, -45841.997366189644, -44629.92931961171, -56323.28913489451, -43252.03368091985, -36490.04983783363, -49130.18484475432, 0.17400000000000002, 0.98, 0.232, 192.0, 0.0, 0.0, 0.0, 0.0, 0.0, 0.0, 0.0, 0.0, 0.0, 1.695338171218304E9, 0.0, 2023-09-21 18:16:11.218
104.0, -17874.041840319853, -35497.45357006235, -43104.40040879255, -20877.333984057186, -64247.49663442333, -51627.88052891261, 101191.21982946632, -56369.98192906164, -23232.090262423786, -31031.709138358732, -45850.2228081492, -44640.88167439481, -56340.47762638064, -43260.48264032396, -36498.11881758199, -49138.097362291504, 0.17400000000000002, 0.98, 0.232, 192.0, 0.0, 0.0, 0.0, 0.0, 0.0, 0.0, 0.0, 0.0, 0.0, 1.695338171218307E9, 0.0, 2023-09-21 18:16:11.218
106.0, -17868.9679943285, -35491.48565429278, -43087.27897253978, -20859.69845768195, -64240.388779686546, -51621.89026139859, 101169.02454722222, -56362.35998420239, -23219.953265184555, -31028.15521099034, -45842.95849120122, -44632.90210162426, -56306.61473353085, -43252.8606954647, -36490.13924481145, -49127.189710997314, 0.17400000000000002, 0.98, 0.232, 192.0, 0.0, 0.0, 0.0, 0.0, 0.0, 0.0, 0.0, 0.0, 0.0, 1.695338171278637E9, 0.0, 2023-09-21 18:16:11.278
108.0, -17878.378078744183, -35501.81216023114, -43094.58799297667, -20865.398152518053, -64242.556898898714, -51624.17013933303, 101187.37532942001, -56365.466876681676, -23225.138869898186, -31032.893780814862, -45853.26264539512, -44640.79226741699, -56308.78285274302, -43253.21832337598, -36493.22378554628, -49129.089609276016, 0.17, 0.972, 0.23800000000000002, 192.0, 2.5, 40.0, 15.0, 48.0, 3.5, 56.0, 0.0, 0.0, 0.0, 1.695338171278647E9, 0.0, 2023-09-21 18:16:11.278
110.0, -17867.11279953871, -35485.40597980094, -43087.90482138453, -20856.993896602857, -64228.56470686969, -51613.84363339468, 101163.12368668601, -56350.51355964108, -23221.808459974345, -31026.970568534205, -45853.46381109522, -44639.54056972749, -56307.28528586451, -43251.4078320751, -36485.780654642665, -49123.03228652862, 0.17, 0.972, 0.23800000000000002, 192.0, 0.0, 0.0, 0.0, 0.0, 0.0, 0.0, 0.0, 0.0, 0.0, 1.695338171278651E9, 0.0, 2023-09-21 18:16:11.278
112.0, -17866.62106116069, -35485.04835188966, -43089.78236791878, -20864.548786228752, -64232.31979993818, -51623.164310832544, 101182.45794563985, -56355.028612021044, -23213.001872658955, -31016.554655618034, -45845.55129355804, -44629.77285740052, -56308.02289343154, -43249.016195418386, -36475.54355568213, -49119.05367601558, 0.17, 0.972, 0.23800000000000002, 192.0, 0.0, 0.0, 0.0, 0.0, 0.0, 0.0, 0.0, 0.0, 0.0, 1.695338171278654E9, 0.0, 2023-09-21 18:16:11.278
114.0, -17874.086543808764, -35486.769436212715, -43088.15069057354, -20868.147417086057, -64232.18568947145, -51625.57829923371, 101159.12272442851, -56358.180207989244, -23212.51013428094, -31022.36610917641, -45847.942930214755, -44632.790342901986, -56318.1929371587, -43256.39227108863, -36481.06443656259, -49127.30146971959, 0.17, 0.972, 0.23800000000000002, 192.0, 0.0, 0.0, 0.0, 0.0, 0.0, 0.0, 0.0, 0.0, 0.0, 1.695338171278657E9, 0.0, 2023-09-21 18:16:11.278
116.0, -17882.557854957326, -35495.66543050593, -43082.58510620417, -20874.271795066812, -64236.94661104043, -51631.32269755873, 101192.5832858781, -56366.96444356018, -23225.384739087196, -31034.927789560294, -45859.9234652428, -44642.513351740046, -56299.50687879406, -43263.477774080966, -36489.200471544325, -49137.78443786913, 0.17, 0.972, 0.23800000000000002, 192.0, 0.0, 0.0, 0.0, 0.0, 0.0, 0.0, 0.0, 0.0, 0.0, 1.695338171278661E9, 0.0, 2023-09-21 18:16:11.278
118.0, -17874.712392653513, -35489.11636938052, -43075.343141000645, -20869.957908386936, -64224.22846844536, -51627.075866112216, 101147.9245004564, -56357.73317310014, -23211.549009269358, -31023.304882443535, -45848.524075570596, -44631.605700445856, -56291.057919389954, -43252.10073615322, -36476.616439415986, -49127.30146971959, 0.17, 0.97, 0.23800000000000002, 192.0, 2.5, 40.0, 15.0, 40.0, 3.5, 56.0, 0.0, 0.0, 0.0, 1.695338171278664E9, 0.0, 2023-09-21 18:16:11.278
120.0, -17879.62977643368, -35488.1775961134, -43088.37420801809, -20877.982184646393, -64234.2644017058, -51632.21676733694, 101173.94193100238, -56363.00818479159, -23217.74044248348, -31030.3233302025, -45853.55321807304, -44634.15379931376, -56316.91888772475, -43260.750861257424, -36485.154805797916, -49135.72807737924, 0.17, 0.97, 0.23800000000000002, 192.0, 0.0, 0.0, 0.0, 0.0, 0.0, 0.0, 0.0, 0.0, 0.0, 1.69533817133889E9, 0.0, 2023-09-21 18:16:11.338
122.0, -17875.69586940955, -35484.57896525609, -43091.7716731753, -20880.530283514297, -64237.97479128538, -51632.70850571496, 101150.56200630212, -56364.63986213683, -23214.11945988172, -31030.278626713593, -45855.162543673825, -44633.05856383545, -56312.31442836695, -43262.20372464701, -36490.9662593563, -49137.27034774666, 0.17, 0.97, 0.23800000000000002, 192.0, 0.0, 0.0, 0.0, 0.0, 0.0, 0.0, 0.0, 0.0, 0.0, 1.695338171338899E9, 0.0, 2023-09-21 18:16:11.338
124.0, -17877.953395599532, -35486.612974001524, -43095.05737961023, -20876.149341601056, -64239.89704130853, -51632.48498827041, 101178.12170721553, -56366.718574371174, -23220.40030007366, -31027.52936214559, -45855.38606111838, -44632.8350463909, -56310.52628881053, -43258.18041064506, -36494.54253846914, -49136.95742332428, 0.17, 0.97, 0.23800000000000002, 192.0, 0.0, 0.0, 0.0, 0.0, 0.0, 0.0, 0.0, 0.0, 0.0, 1.695338171338902E9, 0.0, 2023-09-21 18:16:11.338
126.0, -17877.93104385508, -35489.07166589161, -43094.87856565459, -20875.925824156504, -64245.88730882255, -51635.16719760504, 101147.70098301185, -56369.1549145168, -23224.31185535334, -31030.14451624686, -45858.850581508945, -44634.24320629158, -56321.9927337161, -43260.8626199797, -36497.85059664853, -49136.86801634646, 0.17, 0.97, 0.23800000000000002, 192.0, 0.0, 0.0, 0.0, 0.0, 0.0, 0.0, 0.0, 0.0, 0.0, 1.695338171338906E9, 0.0, 2023-09-21 18:16:11.338
128.0, -17867.336316983263, -35475.90648840743, -43082.540402715254, -20864.593489717663, -64232.25274470482, -51625.041857366785, 101162.58724481908, -56358.22491147815, -23210.006738901942, -31025.115373744415, -45850.6251395494, -44630.9351481122, -56292.86841069084, -43254.00063443192, -36488.708733166306, -49128.46376043127, 0.178, 0.97, 0.23600000000000002, 192.0, 2.5, 72.0, 15.0, 40.0, 3.5, 48.0, 0.0, 0.0, 0.0, 1.69533817133891E9, 0.0, 2023-09-21 18:16:11.338
130.0, -17883.04959333534, -35487.663505990924, -43097.2702023113, -20877.13281835709, -64240.09820700863, -51635.54717726078, 101150.74082025776, -56367.23266449365, -23215.147640126663, -31027.90934180133, -45857.665939052815, -44637.17128481523, -56301.85381196187, -43260.549695557325, -36491.39094250095, -49133.53760642262, 0.178, 0.97, 0.23600000000000002, 192.0, 0.0, 0.0, 0.0, 0.0, 0.0, 0.0, 0.0, 0.0, 0.0, 1.695338171338914E9, 0.0, 2023-09-21 18:16:11.338
132.0, -17889.86687539421, -35487.529395524194, -43098.991286634366, -20873.467132266418, -64239.09237850814, -51631.054476625264, 101174.63483508049, -56368.26084473859, -23228.715149011034, -31033.117298259414, -45870.115860714424, -44642.98273837361, -56323.66911455025, -43260.57204730178, -36493.89433787994, -49134.878711089936, 0.178, 0.97, 0.23600000000000002, 192.0, 0.0, 0.0, 0.0, 0.0, 0.0, 0.0, 0.0, 0.0, 0.0, 1.695338171338918E9, 0.0, 2023-09-21 18:16:11.338
134.0, -17890.380965516684, -35491.68681999288, -43092.03989410876, -20875.679954967494, -64239.18178548596, -51633.22259583743, 101157.62515755, -56370.406612206294, -23227.038768176888, -31026.85880981193, -45869.24414268066, -44638.60179646037, -56311.93444871122, -43250.29024485234, -36490.116893066996, -49134.2975657341, 0.178, 0.97, 0.23600000000000002, 192.0, 0.0, 0.0, 0.0, 0.0, 0.0, 0.0, 0.0, 0.0, 0.0, 1.695338171338922E9, 0.0, 2023-09-21 18:16:11.338
136.0, -17890.31391028332, -35491.664468248426, -43079.99230384735, -20876.506969512342, -64234.242049961336, -51629.668668469036, 101182.2791316842, -56362.6058533914, -23232.15731765715, -31039.554600662545, -45874.11682297192, -44649.218875076636, -56323.69146629471, -43263.209553147506, -36490.854500634014, -49140.466647203764, 0.178, 0.97, 0.23600000000000002, 192.0, 0.0, 0.0, 0.0, 0.0, 0.0, 0.0, 0.0, 0.0, 0.0, 1.695338171399187E9, 0.0, 2023-09-21 18:16:11.399
138.0, -17880.412087489618, -35479.147491353455, -43076.125452056585, -20869.443818264463, -64223.334398667146, -51620.504453242356, 101165.73884078728, -56356.369716688365, -23212.51013428094, -31027.551713890043, -45861.39868037685, -44640.07701159442, -56289.76151821155, -43250.58081753026, -36476.88466034945, -49127.21206274177, 0.178, 0.972, 0.23, 192.0, 2.5, 72.0, 15.0, 48.0, 3.5, 24.0, 0.0, 0.0, 0.0, 1.695338171399194E9, 0.0, 2023-09-21 18:16:11.399
140.0, -17889.844523649757, -35488.1775961134, -43092.08459759767, -20883.927748671504, -64247.04959953423, -51634.3848865491, 101185.81070730815, -56370.76424011758, -23219.84150646228, -31026.747051089653, -45862.71743329972, -44640.188770316694, -56302.881992206814, -43251.63134951965, -36483.72429415277, -49128.82138834255, 0.178, 0.972, 0.23, 192.0, 0.0, 0.0, 0.0, 0.0, 0.0, 0.0, 0.0, 0.0, 0.0, 1.695338171399198E9, 0.0, 2023-09-21 18:16:11.399
142.0, -17874.19830253104, -35471.90552614993, -43085.37907426108, -20868.125065341603, -64231.62689586007, -51616.61524970714, 101166.58820707658, -56351.85466430839, -23223.35073034176, -31029.80924008003, -45867.36659614642, -44642.24513080659, -56313.67788477873, -43256.72754725547, -36497.47061699279, -49137.51621693566, 0.178, 0.972, 0.23, 192.0, 0.0, 0.0, 0.0, 0.0, 0.0, 0.0, 0.0, 0.0, 0.0, 1.695338171399201E9, 0.0, 2023-09-21 18:16:11.399
144.0, -17876.92521535459, -35474.63243897348, -43082.62980969308, -20868.147417086057, -64234.15264298352, -51616.794063662775, 101166.54350358767, -56352.54756838651, -23210.923160424612, -31013.04543173855, -45853.88849423987, -44625.77189514302, -56299.395120071786, -43239.98609065844, -36479.186890028344, -49117.824330070536, 0.178, 0.972, 0.23, 192.0, 0.0, 0.0, 0.0, 0.0, 0.0, 0.0, 0.0, 0.0, 0.0, 1.695338171399205E9, 0.0, 2023-09-21 18:16:11.399
146.0, -17869.52678793988, -35467.01049411422, -43073.19737353294, -20857.865614636616, -64229.03409350325, -51605.59583969067, 101159.25683489523, -56342.26576593707, -23213.538314525882, -31016.733469573675, -45856.905979741336, -44630.39870624527, -56306.61473353085, -43243.4059075601, -36482.271430763176, -49118.27136495965, 0.178, 0.972, 0.23, 192.0, 0.0, 0.0, 0.0, 0.0, 0.0, 0.0, 0.0, 0.0, 0.0, 1.695338171399209E9, 0.0, 2023-09-21 18:16:11.399
148.0, -17877.036974076866, -35467.16695632541, -43079.43351023597, -20863.565309472717, -64222.060349233194, -51607.11575831363, 101146.31517485561, -56340.924661269746, -23201.133096353187, -31006.3175566575, -45846.914749969816, -44619.89338635128, -56305.85477421937, -43233.057049877294, -36466.8040236001, -49104.16741420834, 0.178, 0.97, 0.23600000000000002, 192.0, 2.5, 72.0, 15.0, 40.0, 3.5, 48.0, 0.0, 0.0, 0.0, 1.695338171399213E9, 0.0, 2023-09-21 18:16:11.399
150.0, -17873.952433342034, -35460.93081962238, -43074.11379505561, -20859.65375419304, -64223.826137045166, -51602.42189197802, 101154.58532030408, -56336.029629234035, -23213.761831970434, -31011.547864860044, -45861.01870072111, -44629.504636467056, -56299.57393402743, -43234.666375478075, -36472.637828902945, -49109.6882950888, 0.178, 0.97, 0.23600000000000002, 192.0, 0.0, 0.0, 0.0, 0.0, 0.0, 0.0, 0.0, 0.0, 0.0, 1.695338171459959E9, 0.0, 2023-09-21 18:16:11.459
152.0, -17868.655069906126, -35451.00664508422, -43067.38591997456, -20849.528413954784, -64217.99233174233, -51596.230458763894, 101139.14026488547, -56332.453350121184, -23206.095183622263, -31001.04254496605, -45851.78743026107, -44618.57463342841, -56284.71002396465, -43222.50702649439, -36467.653389889405, -49102.46868162974, 0.178, 0.97, 0.23600000000000002, 192.0, 0.0, 0.0, 0.0, 0.0, 0.0, 0.0, 0.0, 0.0, 0.0, 1.695338171459966E9, 0.0, 2023-09-21 18:16:11.459
154.0, -17878.802761888834, -35462.87542138999, -43077.28774276826, -20862.246556549857, -64228.497651636324, -51609.90972637054, 101160.79910526266, -56345.81969330546, -23213.851238948257, -31002.450704866733, -45856.52600008559, -44618.75344738406, -56321.56805057145, -43225.45745676249, -36470.961448068796, -49110.202385211276, 0.178, 0.97, 0.23600000000000002, 192.0, 0.0, 0.0, 0.0, 0.0, 0.0, 0.0, 0.0, 0.0, 0.0, 1.69533817145997E9, 0.0, 2023-09-21 18:16:11.459
156.0, -17868.945642584044, -35453.89002011895, -43059.831030348665, -20853.59643144565, -64214.66192181849, -51598.331522742694, 101137.06155265112, -56335.29202166701, -23208.21859934552, -31003.99297523415, -45854.33552912898, -44617.01001131654, -56295.95295142567, -43224.31751779527, -36463.4065584429, -49106.693161331794, 0.178, 0.97, 0.23600000000000002, 192.0, 0.0, 0.0, 0.0, 0.0, 0.0, 0.0, 0.0, 0.0, 0.0, 1.695338171459973E9, 0.0, 2023-09-21 18:16:11.459
158.0, -17871.605500174224, -35455.63345618647, -43059.29458848174, -20855.116350068613, -64212.27028516177, -51599.247944265364, 101155.65820403793, -56336.40960888978, -23197.579168984794, -31001.891911255352, -45843.830209234984, -44612.69612463667, -56286.43110828771, -43221.45649450499, -36453.057700760095, -49097.73011180522, 0.178, 0.974, 0.23, 192.0, 2.5, 72.0, 15.0, 56.0, 3.5, 24.0, 0.0, 0.0, 0.0, 1.695338171459977E9, 0.0, 2023-09-21 18:16:11.459
160.0, -17886.35765151473, -35466.38464526947, -43076.97481834589, -20866.918071141015, -64228.4082446585, -51616.16821481803, 101141.48719805328, -56353.95572828719, -23213.627721503704, -31014.56535036151, -45859.65524430934, -44625.950709098666, -56295.8858961923, -43237.34858481272, -36467.8545555895, -49111.47643464523, 0.178, 0.974, 0.23, 192.0, 0.0, 0.0, 0.0, 0.0, 0.0, 0.0, 0.0, 0.0, 0.0, 1.69533817145998E9, 0.0, 2023-09-21 18:16:11.459
162.0, -17885.798857903344, -35460.193212055354, -43073.44324272194, -20862.85005365015, -64226.262477190794, -51616.25762179585, 101174.16544844693, -56354.559225387486, -23222.210791374542, -31019.70625158623, -45866.763099046126, -44630.80103764547, -56309.00637018757, -43244.16586687158, -36478.784558628155, -49123.16639699536, 0.178, 0.974, 0.23, 192.0, 0.0, 0.0, 0.0, 0.0, 0.0, 0.0, 0.0, 0.0, 0.0, 1.695338171459984E9, 0.0, 2023-09-21 18:16:11.459
164.0, -17878.311023510818, -35453.711206163316, -43063.51906818379, -20853.931707612483, -64217.70175906441, -51607.138110058084, 101133.59703226054, -56344.7468095716, -23206.586922000282, -30999.656736809822, -45852.81561050601, -44612.383200214295, -56298.29988459348, -43224.809256173285, -36466.98283755575, -49109.53183287762, 0.178, 0.974, 0.23, 192.0, 0.0, 0.0, 0.0, 0.0, 0.0, 0.0, 0.0, 0.0, 0.0, 1.695338171459987E9, 0.0, 2023-09-21 18:16:11.459
166.0, -17871.180817029574, -35448.391490982955, -43053.30432096771, -20845.706265652927, -64211.152697939004, -51601.37135998862, 101129.05962813612, -56335.71670481166, -23203.815305687822, -31002.47305661119, -45852.636796550374, -44613.769008370524, -56282.00546288556, -43224.40692477309, -36463.339503209536, -49107.76604506565, 0.178, 0.974, 0.23, 192.0, 0.0, 0.0, 0.0, 0.0, 0.0, 0.0, 0.0, 0.0, 0.0, 1.695338171518226E9, 0.0, 2023-09-21 18:16:11.518
168.0, -17855.132264510663, -35432.231179741764, -43042.10609699561, -20829.568306156198, -64198.74747976631, -51585.68043538099, 101057.08701099003, -56319.55639357047, -23195.34399453926, -30989.441989593746, -45842.04206967856, -44599.82151983041, -56290.61088450085, -43215.376820013145, -36449.99551176972, -49092.11982394694, 0.176, 0.976, 0.23600000000000002, 192.0, 2.5, 64.0, 15.0, 64.0, 3.5, 48.0, 0.0, 0.0, 0.0, 1.695338171518236E9, 0.0, 2023-09-21 18:16:11.518
170.0, -17865.704639638025, -35443.67527290288, -43049.77274534378, -20839.157204527524, -64203.46369784638, -51594.73289188539, 101069.04519427363, -56329.1452919418, -23181.06122983232, -30978.489634810645, -45828.83218870547, -44587.52806037999, -56290.6332362453, -43204.80444488578, -36436.897389518905, -49080.40750985235, 0.176, 0.976, 0.23600000000000002, 192.0, 0.0, 0.0, 0.0, 0.0, 0.0, 0.0, 0.0, 0.0, 0.0, 1.695338171518241E9, 0.0, 2023-09-21 18:16:11.518
172.0, -17877.48400896597, -35457.80157539863, -43050.3091872107, -20844.54397494125, -64208.738709537836, -51598.063301809234, 101035.78579852413, -56332.72157105465, -23198.74145969647, -30999.90260599883, -45847.607654047926, -44609.34336296837, -56274.31646279293, -43220.54007298232, -36451.13545073694, -49093.99737048118, 0.176, 0.976, 0.23600000000000002, 192.0, 0.0, 0.0, 0.0, 0.0, 0.0, 0.0, 0.0, 0.0, 0.0, 1.695338171518245E9, 0.0, 2023-09-21 18:16:11.518
174.0, -17880.38973574516, -35459.34384576605, -43054.935998312954, -20850.534242455273, -64206.36942462557, -51602.73481640039, 101055.88001678945, -56333.70504781068, -23201.714241709025, -31007.345736902447, -45853.01677620611, -44615.937127582685, -56295.70708223666, -43224.74220093992, -36453.102404249, -49095.517289104144, 0.176, 0.976, 0.23600000000000002, 192.0, 0.0, 0.0, 0.0, 0.0, 0.0, 0.0, 0.0, 0.0, 0.0, 1.695338171518248E9, 0.0, 2023-09-21 18:16:11.518
176.0, -17877.036974076866, -35453.845316630046, -43046.33057669766, -20846.376817986587, -64201.519096078766, -51600.4772902104, 101019.46902507175, -56332.85568152138, -23203.614139987727, -31005.4681903682, -45855.38606111838, -44614.97600257111, -56292.98016941312, -43223.93753813953, -36451.247209459216, -49096.25489667117, 0.176, 0.976, 0.23600000000000002, 192.0, 0.0, 0.0, 0.0, 0.0, 0.0, 0.0, 0.0, 0.0, 0.0, 1.695338171518251E9, 0.0, 2023-09-21 18:16:11.518
178.0, -17876.209959532018, -35453.8676683745, -43043.93894004094, -20847.203832531435, -64211.66678806148, -51603.517127456325, 101030.86841474396, -56339.47179788015, -23197.78033468489, -30998.002707720127, -45848.14409591485, -44608.96338331263, -56283.65949197525, -43215.26506129087, -36444.04994774461, -49089.929352990315, 0.17, 0.97, 0.232, 192.0, 2.5, 40.0, 15.0, 40.0, 3.5, 32.0, 0.0, 0.0, 0.0, 1.695338171518255E9, 0.0, 2023-09-21 18:16:11.518
180.0, -17880.568549700805, -35459.72382542179, -43054.39955644603, -20852.9705826009, -64213.76785204028, -51608.8815461256, 101018.53025180462, -56341.617565347864, -23200.30608180834, -31007.12221945789, -45851.78743026107, -44619.781627629, -56287.794564699485, -43221.07651484925, -36458.46682291828, -49103.94389676379, 0.17, 0.97, 0.232, 192.0, 0.0, 0.0, 0.0, 0.0, 0.0, 0.0, 0.0, 0.0, 0.0, 1.695338171578584E9, 0.0, 2023-09-21 18:16:11.578
182.0, -17879.316852011307, -35453.979427096776, -43052.03027153376, -20849.70722791043, -64213.90196250701, -51606.84753738017, 101031.47191184424, -56339.516501369064, -23194.96401488352, -31004.32825140098, -45853.30734888403, -44619.06637180643, -56278.920922150726, -43220.67418344905, -36456.23164847275, -49100.43467288431, 0.17, 0.97, 0.232, 192.0, 0.0, 0.0, 0.0, 0.0, 0.0, 0.0, 0.0, 0.0, 0.0, 1.695338171578611E9, 0.0, 2023-09-21 18:16:11.578
184.0, -17883.9213113691, -35457.51100272072, -43059.98749255985, -20848.343771498654, -64214.304293907204, -51603.383016989595, 101009.7907197226, -56338.15304495729, -23198.339128296273, -31003.568292089498, -45858.56000883103, -44617.322935738914, -56285.693500720685, -43220.204796815495, -36459.45029967431, -49099.160623450356, 0.17, 0.97, 0.232, 192.0, 0.0, 0.0, 0.0, 0.0, 0.0, 0.0, 0.0, 0.0, 0.0, 1.695338171578614E9, 0.0, 2023-09-21 18:16:11.578
186.0, -17888.7716399159, -35460.34967426654, -43058.936960570456, -20843.35933248512, -64209.87864850505, -51596.655141908544, 101021.10070241698, -56333.10155071039, -23209.559704012838, -31004.976451990184, -45867.36659614642, -44618.90990959524, -56319.77991101503, -43216.87438689165, -36458.80209908511, -49096.88074551592, 0.17, 0.97, 0.232, 192.0, 0.0, 0.0, 0.0, 0.0, 0.0, 0.0, 0.0, 0.0, 0.0, 1.695338171578618E9, 0.0, 2023-09-21 18:16:11.578
188.0, -17874.891206609154, -35448.86087761651, -43046.397631931024, -20834.26217249181, -64203.01666295728, -51585.278103980796, 100997.25139108318, -56322.126844182836, -23199.948453897054, -30999.12029494289, -45857.93415998628, -44611.80205485845, -56286.54286700999, -43205.31853500826, -36450.21902921427, -49085.07902444351, 0.182, 0.972, 0.23, 192.0, 2.5, 88.0, 15.0, 48.0, 3.5, 24.0, 0.0, 0.0, 0.0, 1.695338171578622E9, 0.0, 2023-09-21 18:16:11.578
190.0, -17875.807628131824, -35448.23502877176, -43052.700823867424, -20849.46135872142, -64209.498668849315, -51600.54434544377, 100996.0891003715, -56333.235661177125, -23183.765790911413, -30989.017306449095, -45846.132438913875, -44605.051828032956, -56272.058936602945, -43199.48472970542, -36443.66996808886, -49082.84384999798, 0.182, 0.972, 0.23, 192.0, 0.0, 0.0, 0.0, 0.0, 0.0, 0.0, 0.0, 0.0, 0.0, 1.695338171578626E9, 0.0, 2023-09-21 18:16:11.578
192.0, -17887.899921882145, -35453.82296488559, -43052.94669305643, -20846.46622496441, -64202.59197981263, -51598.44328146497, 101006.37090282094, -56328.65355356378, -23197.802686429346, -30999.589681576454, -45858.090622197466, -44614.64072640428, -56299.66334100525, -43213.81219790127, -36453.54943913811, -49097.752463549674, 0.182, 0.972, 0.23, 192.0, 0.0, 0.0, 0.0, 0.0, 0.0, 0.0, 0.0, 0.0, 0.0, 1.695338171578629E9, 0.0, 2023-09-21 18:16:11.578
194.0, -17876.858160121225, -35441.97654032428, -43037.814562060186, -20840.27479175029, -64199.932122222446, -51591.268371494814, 100998.48073702822, -56323.91498373926, -23204.88818942168, -30990.291355883048, -45857.84475300846, -44607.24229898957, -56298.52340203803, -43204.044485574304, -36440.339558165026, -49085.99544596618, 0.182, 0.972, 0.23, 192.0, 0.0, 0.0, 0.0, 0.0, 0.0, 0.0, 0.0, 0.0, 0.0, 1.695338171578633E9, 0.0, 2023-09-21 18:16:11.578
196.0, -17872.29840425234, -35437.23797049975, -43033.52302712477, -20832.921067824493, -64196.065270431674, -51583.64642663556, 100999.84419343999, -56318.48350983662, -23187.811456657822, -30981.03773367855, -45846.11008716942, -44598.01102852953, -56269.399079012765, -43195.43906395901, -36435.95861625178, -49081.18982090829, 0.182, 0.972, 0.23, 192.0, 0.0, 0.0, 0.0, 0.0, 0.0, 0.0, 0.0, 0.0, 0.0, 1.695338171638857E9, 0.0, 2023-09-21 18:16:11.638
198.0, -17880.926177612087, -35444.56934268109, -43036.406402159504, -20836.966733570902, -64201.40733735649, -51589.033197049284, 101003.6886934863, -56324.697294795194, -23192.751192182448, -30985.284565125057, -45849.88753198237, -44598.614525629826, -56276.104602349355, -43195.61787791466, -36436.40565114089, -49078.99934995167, 0.178, 0.966, 0.228, 192.0, 2.5, 72.0, 15.0, 24.0, 3.5, 16.0, 0.0, 0.0, 0.0, 1.695338171638874E9, 0.0, 2023-09-21 18:16:11.638
200.0, -17872.320755996796, -35431.91825531939, -43040.92145453948, -20835.960905070413, -64195.32766286465, -51584.004054546844, 101015.95980119226, -56319.82461450394, -23198.07090736281, -30985.61984129189, -45852.88266573938, -44600.1791477417, -56279.34560529538, -43197.56247968227, -36439.601950598, -49082.91090523135, 0.178, 0.966, 0.228, 192.0, 0.0, 0.0, 0.0, 0.0, 0.0, 0.0, 0.0, 0.0, 0.0, 1.695338171638878E9, 0.0, 2023-09-21 18:16:11.638
202.0, -17863.245947747942, -35420.22829296927, -43034.81942830318, -20830.84235559015, -64199.66390128898, -51581.09832776765, 100999.50891727317, -56316.69537028019, -23186.000965356943, -30971.828814962962, -45842.89143596786, -44588.332723180385, -56293.65072174677, -43187.54889816629, -36436.98679649673, -49077.6358935399, 0.178, 0.966, 0.228, 192.0, 0.0, 0.0, 0.0, 0.0, 0.0, 0.0, 0.0, 0.0, 0.0, 1.695338171638881E9, 0.0, 2023-09-21 18:16:11.638
204.0, -17871.270224007396, -35427.269092472685, -43038.641576605034, -20838.061969049213, -64207.08468044814, -51591.31307498373, 101031.91894673335, -56330.3969896313, -23187.185607813073, -30977.841434221442, -45845.52894181359, -44593.6747901052, -56279.09973610637, -43190.99106681241, -36443.78172681114, -49084.65434129886, 0.178, 0.966, 0.228, 192.0, 0.0, 0.0, 0.0, 0.0, 0.0, 0.0, 0.0, 0.0, 0.0, 1.695338171638885E9, 0.0, 2023-09-21 18:16:11.638
206.0, -17865.57052917129, -35421.03295576965, -43032.360736413095, -20828.875402078083, -64194.388889597525, -51581.74652835686, 101004.20278360878, -56319.51169008156, -23187.319718279807, -30978.37787608837, -45843.047898179044, -44589.45031040315, -56286.20759084316, -43191.683970890525, -36437.27736917465, -49080.631027296906, 0.178, 0.966, 0.228, 192.0, 0.0, 0.0, 0.0, 0.0, 0.0, 0.0, 0.0, 0.0, 0.0, 1.695338171638889E9, 0.0, 2023-09-21 18:16:11.638
208.0, -17876.47818046548, -35435.85216234352, -43042.01669001779, -20840.922992339492, -64206.905866492496, -51599.87379311011, 101012.02589416814, -56335.85081527839, -23184.570453711804, -30978.646097021832, -45842.846732478945, -44588.66799934721, -56276.50693374955, -43192.510985435365, -36433.16464819487, -49080.00517845216, 0.17400000000000002, 0.97, 0.226, 192.0, 2.5, 56.0, 15.0, 40.0, 3.5, 8.0, 0.0, 0.0, 0.0, 1.695338171638892E9, 0.0, 2023-09-21 18:16:11.638
210.0, -17884.837732891767, -35439.853124601024, -43051.918512811484, -20849.617820932606, -64215.37717764106, -51610.33440951519, 100984.10856534346, -56353.95572828719, -23199.523770752403, -30993.532358829067, -45859.49878209815, -44605.11888326632, -56283.81595418644, -43203.30687800728, -36454.82348857206, -49105.32970492002, 0.17400000000000002, 0.97, 0.226, 192.0, 0.0, 0.0, 0.0, 0.0, 0.0, 0.0, 0.0, 0.0, 0.0, 1.695338171699137E9, 0.0, 2023-09-21 18:16:11.699
212.0, -17877.193436288053, -35431.27005473019, -43042.351966184615, -20839.31366673871, -64205.721224036366, -51593.88352559609, 100992.62457998093, -56340.298812425, -23197.109782351232, -30990.89485298334, -45858.82822976449, -44602.19080474268, -56292.7343002241, -43198.00951457137, -36454.376453682955, -49103.76508280815, 0.17400000000000002, 0.97, 0.226, 192.0, 0.0, 0.0, 0.0, 0.0, 0.0, 0.0, 0.0, 0.0, 0.0, 1.695338171699144E9, 0.0, 2023-09-21 18:16:11.699
214.0, -17876.209959532018, -35431.65003438593, -43030.3043759232, -20836.98908531536, -64195.84175298712, -51587.87090633761, 100953.73254462868, -56332.83332977693, -23186.760924668422, -30983.027038935074, -45849.418145348805, -44593.80890057193, -56268.72852667911, -43187.16891851055, -36437.72440406375, -49082.95560872026, 0.17400000000000002, 0.97, 0.226, 192.0, 0.0, 0.0, 0.0, 0.0, 0.0, 0.0, 0.0, 0.0, 0.0, 1.695338171699148E9, 0.0, 2023-09-21 18:16:11.699
216.0, -17879.40625898913, -35439.04846180063, -43026.482227621345, -20840.990047572857, -64198.21103789938, -51596.386920975085, 100979.99584436367, -56335.537890856016, -23182.11176182172, -30987.743257015143, -45846.467715080704, -44595.954668039645, -56261.06187833093, -43191.058122045775, -36430.191866182315, -49082.933256975804, 0.17400000000000002, 0.97, 0.226, 192.0, 0.0, 0.0, 0.0, 0.0, 0.0, 0.0, 0.0, 0.0, 0.0, 1.695338171699152E9, 0.0, 2023-09-21 18:16:11.699
218.0, -17868.67742165058, -35428.185513995355, -43022.19069268593, -20833.189288757956, -64179.39086906802, -51584.54049641377, 100931.89489029585, -56319.51169008156, -23173.8192646288, -30981.685934267753, -45835.89533995335, -44589.69617959216, -56263.27470103201, -43185.179613254026, -36420.4465055998, -49074.35018710497, 0.178, 0.978, 0.234, 192.0, 2.5, 72.0, 15.0, 72.0, 3.5, 40.0, 0.0, 0.0, 0.0, 1.695338171699155E9, 0.0, 2023-09-21 18:16:11.699
220.0, -17880.34503225625, -35437.14856352193, -43037.68045159346, -20847.22618427589, -64193.53952330822, -51592.184793017484, 100963.18733253329, -56325.1443296843, -23184.995136856454, -30985.441027336245, -45845.55129355804, -44596.4240546732, -56307.19587888669, -43190.49932843439, -36426.615587069464, -49081.34628311948, 0.178, 0.978, 0.234, 192.0, 0.0, 0.0, 0.0, 0.0, 0.0, 0.0, 0.0, 0.0, 0.0, 1.695338171699159E9, 0.0, 2023-09-21 18:16:11.699
222.0, -17889.464543994018, -35449.10674680552, -43045.369451686085, -20863.252385050346, -64216.204192185905, -51608.83684263669, 100953.79959986206, -56341.30464092549, -23190.53836948137, -30995.678126296774, -45847.87587498139, -44605.96824955562, -56283.4359745307, -43204.13389255213, -36440.56307560958, -49094.19853618128, 0.178, 0.978, 0.234, 192.0, 0.0, 0.0, 0.0, 0.0, 0.0, 0.0, 0.0, 0.0, 0.0, 1.695338171699163E9, 0.0, 2023-09-21 18:16:11.699
224.0, -17871.58314842977, -35431.24770298573, -43028.449181133416, -20843.046408062746, -64200.535619322734, -51589.949618571954, 100970.69751867028, -56320.33870462641, -23177.30613676383, -30987.542091315045, -45840.812723733514, -44599.53094715249, -56259.474904474606, -43194.187366269514, -36437.76910755266, -49088.56589657854, 0.178, 0.978, 0.234, 192.0, 0.0, 0.0, 0.0, 0.0, 0.0, 0.0, 0.0, 0.0, 0.0, 1.695338171699166E9, 0.0, 2023-09-21 18:16:11.699
226.0, -17870.018526317897, -35427.49260991724, -43027.13042821055, -20841.191213272956, -64192.62310178556, -51584.54049641377, 100935.44881766425, -56313.789643501004, -23177.753171652934, -30982.89292846834, -45835.33654634196, -44592.02076101551, -56275.903436649256, -43185.58194465422, -36429.633072570934, -49078.06057668455, 0.178, 0.978, 0.234, 192.0, 0.0, 0.0, 0.0, 0.0, 0.0, 0.0, 0.0, 0.0, 0.0, 1.695338171758548E9, 0.0, 2023-09-21 18:16:11.758
228.0, -17877.662822921615, -35437.19326701084, -43031.48901837933, -20849.036675576768, -64194.098316919604, -51593.45884245144, 100954.60426266245, -56326.41837911825, -23173.506340206426, -30979.718980755686, -45829.770961972594, -44587.68452259118, -56264.861674888336, -43187.347732466194, -36424.84979925749, -49076.160678405846, 0.178, 0.974, 0.23600000000000002, 192.0, 2.5, 72.0, 15.0, 56.0, 3.5, 48.0, 0.0, 0.0, 0.0, 1.695338171758554E9, 0.0, 2023-09-21 18:16:11.758
230.0, -17865.39171521565, -35422.68698485935, -43022.39185838603, -20836.251477748334, -64186.02933717124, -51578.907856811034, 100920.22727969018, -56318.48350983662, -23180.994174598956, -30986.715076770197, -45838.108162654426, -44593.6747901052, -56283.391271041786, -43188.197098755496, -36436.74092730772, -49085.4366523548, 0.178, 0.974, 0.23600000000000002, 192.0, 0.0, 0.0, 0.0, 0.0, 0.0, 0.0, 0.0, 0.0, 0.0, 1.695338171758558E9, 0.0, 2023-09-21 18:16:11.758
232.0, -17868.811532117314, -35424.5645313936, -43019.26261416228, -20839.85010860564, -64189.650319773, -51581.38890044557, 100935.2253002197, -56321.05396044898, -23163.425703457084, -30970.21948936218, -45821.85844443541, -44579.101452720344, -56258.782000396495, -43167.5887903677, -36424.514523090664, -49070.14805914737, 0.178, 0.974, 0.23600000000000002, 192.0, 0.0, 0.0, 0.0, 0.0, 0.0, 0.0, 0.0, 0.0, 0.0, 1.695338171758561E9, 0.0, 2023-09-21 18:16:11.758
234.0, -17860.653145391127, -35416.40614466741, -43007.77381751226, -20833.83748934716, -64182.63187201403, -51579.26548472232, 100904.29048589355, -56316.22598364663, -23163.380999968173, -30967.93961142774, -45821.56787175749, -44577.022740486, -56268.19208481218, -43167.05234850077, -36423.598101568, -49068.09169865748, 0.178, 0.974, 0.23600000000000002, 192.0, 0.0, 0.0, 0.0, 0.0, 0.0, 0.0, 0.0, 0.0, 0.0, 1.695338171758564E9, 0.0, 2023-09-21 18:16:11.758
236.0, -17867.29161349435, -35427.15733375041, -43009.11492217957, -20840.922992339492, -64191.393755840516, -51593.45884245144, 100917.14273895536, -56328.43003611923, -23163.671572646093, -30974.533376042054, -45822.55134851353, -44580.219039943106, -56255.697459661664, -43179.234049228915, -36424.380412623934, -49076.026567939116, 0.178, 0.974, 0.23600000000000002, 192.0, 0.0, 0.0, 0.0, 0.0, 0.0, 0.0, 0.0, 0.0, 0.0, 1.695338171758568E9, 0.0, 2023-09-21 18:16:11.758
238.0, -17867.0680960498, -35426.48678141675, -43014.79226527122, -20834.820966103194, -64186.476372060344, -51590.575467416704, 100905.9668667277, -56325.83723376242, -23165.77263662489, -30976.65679176531, -45825.859406692914, -44579.68259807618, -56259.16198005223, -43185.42548244304, -36426.05679345808, -49080.16164066335, 0.178, 0.972, 0.23, 192.0, 2.5, 72.0, 15.0, 48.0, 3.5, 24.0, 0.0, 0.0, 0.0, 1.695338171758571E9, 0.0, 2023-09-21 18:16:11.758
240.0, -17875.897035109643, -35432.25353148622, -43017.27330890576, -20835.580925414673, -64190.7008517624, -51596.029293063795, 100901.85414574793, -56331.849853020896, -23158.307153976817, -30965.257402093102, -45818.75155195613, -44568.79729852644, -56255.4292387282, -43170.04748225778, -36414.41153459687, -49070.59509403647, 0.178, 0.972, 0.23, 192.0, 0.0, 0.0, 0.0, 0.0, 0.0, 0.0, 0.0, 0.0, 0.0, 1.695338171818369E9, 0.0, 2023-09-21 18:16:11.818
242.0, -17894.247817307452, -35452.235991029265, -43035.7582015703, -20851.383608744574, -64203.93308447994, -51606.06522632423, 100925.23407044818, -56342.35517291489, -23181.26239553242, -30988.994954704638, -45845.59599704695, -44596.513461651026, -56287.10166062137, -43193.6956278915, -36434.77397379565, -49093.52798384762, 0.178, 0.972, 0.23, 192.0, 0.0, 0.0, 0.0, 0.0, 0.0, 0.0, 0.0, 0.0, 0.0, 1.695338171818375E9, 0.0, 2023-09-21 18:16:11.818
244.0, -17885.15065731414, -35440.1660490234, -43017.4521228614, -20835.580925414673, -64190.18676163993, -51590.374301716605, 100919.33320991197, -56325.47960585113, -23185.06219208982, -30988.07853318197, -45841.34916560044, -44597.698104107156, -56280.21732332913, -43187.54889816629, -36428.13550569242, -49085.25783839916, 0.178, 0.972, 0.23, 192.0, 0.0, 0.0, 0.0, 0.0, 0.0, 0.0, 0.0, 0.0, 0.0, 1.695338171818379E9, 0.0, 2023-09-21 18:16:11.818
246.0, -17884.569511958303, -35438.310854233605, -43016.87097750557, -20830.03769278976, -64193.4501163304, -51591.693054639465, 100918.48384362267, -56324.0937976949, -23167.985459325966, -30975.114521397893, -45829.25687185012, -44584.130595222785, -56271.991881369584, -43172.50617414787, -36412.645746784896, -49066.6835387568, 0.178, 0.972, 0.23, 192.0, 0.0, 0.0, 0.0, 0.0, 0.0, 0.0, 0.0, 0.0, 0.0, 1.695338171818382E9, 0.0, 2023-09-21 18:16:11.818
248.0, -17906.004834890944, -35453.68885441886, -43042.061393506694, -20848.41082673202, -64222.909715522495, -51618.93983113049, 100940.25444272214, -56358.403725433796, -23191.343032281762, -30992.280661139568, -45852.36857561691, -44604.604793143844, -56267.096849333866, -43195.26025000337, -36440.2501511872, -49087.15773667786, 0.182, 0.98, 0.23600000000000002, 192.0, 2.5, 88.0, 15.0, 80.0, 3.5, 48.0, 0.0, 0.0, 0.0, 1.695338171818386E9, 0.0, 2023-09-21 18:16:11.818
250.0, -17915.817250706823, -35467.14460458096, -43041.100268495116, -20845.236879019365, -64220.85335503261, -51620.05741835325, 100961.17567553231, -56348.613661362375, -23201.11074460873, -31000.059068210016, -45858.53765708657, -44612.74082812558, -56280.41848902923, -43211.86759613366, -36456.43281417285, -49096.3890071379, 0.182, 0.98, 0.23600000000000002, 192.0, 0.0, 0.0, 0.0, 0.0, 0.0, 0.0, 0.0, 0.0, 0.0, 1.69533817181839E9, 0.0, 2023-09-21 18:16:11.818
252.0, -17926.903715956654, -35475.504157007235, -43026.415172387984, -20825.947323554436, -64196.31113962068, -51607.361627502636, 100931.91724204032, -56328.0947599524, -23197.89209340717, -31002.47305661119, -45851.69802328325, -44606.236470489086, -56291.59436125689, -43201.4963867064, -36432.717613305766, -49070.66214926984, 0.182, 0.98, 0.23600000000000002, 192.0, 0.0, 0.0, 0.0, 0.0, 0.0, 0.0, 0.0, 0.0, 0.0, 1.695338171818393E9, 0.0, 2023-09-21 18:16:11.818
254.0, -17951.825911024323, -35496.1795206284, -43041.793172573234, -20843.11346329611, -64220.18280269895, -51630.138055102594, 100973.02210009363, -56345.953803772194, -23208.30800632334, -31004.060030467517, -45863.544447844564, -44612.33849672538, -56299.01514041605, -43203.03865707382, -36439.04315698661, -49077.39002435089, 0.182, 0.98, 0.23600000000000002, 192.0, 0.0, 0.0, 0.0, 0.0, 0.0, 0.0, 0.0, 0.0, 0.0, 1.695338171818397E9, 0.0, 2023-09-21 18:16:11.818
0.0, -17968.075629243333, -35512.22807314731, -43032.76306781329, -20841.32532373969, -64216.09243346363, -51632.84261618169, 100956.70532664125, -56346.24437645011, -23220.668521007126, -31015.727641073187, -45874.74267181667, -44622.32972649691, -56276.886913405295, -43217.7014014365, -36449.45906990279, -49086.97892272221, 0.182, 0.98, 0.23600000000000002, 192.0, 0.0, 0.0, 0.0, 0.0, 0.0, 0.0, 0.0, 0.0, 0.0, 1.695338171878756E9, 0.0, 2023-09-21 18:16:11.878
2.0, -18004.687786661125, -35544.995730518785, -43035.154704470006, -20845.326285997187, -64219.53460210975, -51634.83192143821, 100973.96087336075, -56348.121922984355, -23218.96978842852, -31018.320443430002, -45874.89913402786, -44621.10038055186, -56267.298015033964, -43210.21356704397, -36445.41340415638, -49082.374463364424, 0.178, 0.974, 0.24, 192.0, 2.5, 72.0, 15.0, 56.0, 3.5, 64.0, 0.0, 0.0, 0.0, 1.695338171878767E9, 0.0, 2023-09-21 18:16:11.878
4.0, -18012.846173387312, -35545.57687587463, -43025.6552130765, -20831.04352129025, -64205.56476182518, -51619.72214218642, 100931.24668970665, -56334.3979518888, -23236.02416944792, -31028.222266223704, -45885.069177755024, -44629.05760157795, -56281.67018671873, -43212.47109323396, -36451.26956120367, -49086.33072213301, 0.178, 0.974, 0.24, 192.0, 0.0, 0.0, 0.0, 0.0, 0.0, 0.0, 0.0, 0.0, 0.0, 1.695338171878771E9, 0.0, 2023-09-21 18:16:11.878
6.0, -18022.792699669924, -35555.61280913506, -43038.26159694929, -20842.73348364037, -64213.79020378473, -51630.69684871398, 100953.82195160651, -56343.42805664874, -23232.7831665019, -31015.32530967299, -45881.40349166435, -44618.14995028376, -56283.14540185278, -43201.0940553062, -36436.94209300782, -49070.840963225484, 0.178, 0.974, 0.24, 192.0, 0.0, 0.0, 0.0, 0.0, 0.0, 0.0, 0.0, 0.0, 0.0, 1.695338171878775E9, 0.0, 2023-09-21 18:16:11.878
8.0, -18004.218400027563, -35537.4855443818, -43034.48415213635, -20842.867594107105, -64219.221677687376, -51635.01073539385, 100934.84532056395, -56346.71376308367, -23234.59365780278, -31025.137725488872, -45890.120672001925, -44630.86809287883, -56304.20074512968, -43216.69557293601, -36454.734081594244, -49084.31906513203, 0.178, 0.974, 0.24, 192.0, 0.0, 0.0, 0.0, 0.0, 0.0, 0.0, 0.0, 0.0, 0.0, 1.695338171878778E9, 0.0, 2023-09-21 18:16:11.878
10.0, -17983.520684661948, -35516.25138714926, -43029.74558231182, -20835.69268413695, -64224.00495100081, -51637.02239239483, 100972.55271346006, -56349.82065556296, -23224.580076286802, -31012.441934638256, -45880.15179397485, -44621.525063696514, -56297.42816655972, -43215.801503157796, -36459.91968630787, -49088.320027389535, 0.178, 0.974, 0.24, 192.0, 0.0, 0.0, 0.0, 0.0, 0.0, 0.0, 0.0, 0.0, 0.0, 1.695338171878782E9, 0.0, 2023-09-21 18:16:11.878
12.0, -17968.589719365802, -35504.06968642112, -43028.00214624431, -20829.41184394501, -64224.09435797863, -51635.90480517207, 100947.8316840925, -56347.2502049506, -23212.353672069752, -31000.908434499317, -45870.56289560353, -44610.349191468864, -56265.93455862219, -43204.759741396876, -36456.16459323938, -49084.65434129886, 0.17200000000000001, 0.97, 0.24, 192.0, 2.5, 48.0, 15.0, 40.0, 3.5, 64.0, 0.0, 0.0, 0.0, 1.695338171878786E9, 0.0, 2023-09-21 18:16:11.878
14.0, -17973.26123395696, -35509.769381257225, -43038.79803881622, -20841.168861528502, -64232.78918657175, -51644.08554364271, 100995.70912071576, -56358.06844926697, -23217.047538405364, -31010.765553804107, -45877.871916040414, -44620.16160728474, -56285.60409374286, -43207.73252340943, -36457.55040139561, -49089.12469018992, 0.17200000000000001, 0.97, 0.24, 192.0, 0.0, 0.0, 0.0, 0.0, 0.0, 0.0, 0.0, 0.0, 0.0, 1.695338171938938E9, 0.0, 2023-09-21 18:16:11.938
16.0, -17941.924088230622, -35479.99685764276, -43015.015782715775, -20819.197096728934, -64212.96318923989, -51625.935927145, 100961.01921332112, -56342.44457989271, -23210.45377379105, -31013.55952186102, -45875.34616891696, -44622.21796777463, -56277.512762250044, -43211.465264733466, -36457.08101476205, -49090.73401579071, 0.17200000000000001, 0.97, 0.24, 192.0, 0.0, 0.0, 0.0, 0.0, 0.0, 0.0, 0.0, 0.0, 0.0, 1.695338171938953E9, 0.0, 2023-09-21 18:16:11.938
18.0, -17940.180652163108, -35476.80055818565, -43014.5016925933, -20820.44879441843, -64219.64636083203, -51628.72989520191, 100987.84130666748, -56341.50580662559, -23184.771619411902, -30989.956079716216, -45855.073136696, -44598.25689771854, -56262.09005857588, -43193.06977904675, -36435.53393310713, -49071.60092253696, 0.17200000000000001, 0.97, 0.24, 192.0, 0.0, 0.0, 0.0, 0.0, 0.0, 0.0, 0.0, 0.0, 0.0, 1.695338171938957E9, 0.0, 2023-09-21 18:16:11.938
20.0, -17944.248669653975, -35478.14166285296, -43028.8068090447, -20828.74129161135, -64235.5608028842, -51638.341145317696, 100987.46132701176, -56351.22881546364, -23202.004814386943, -30999.164998431803, -45865.35493914544, -44606.39293270027, -56280.41848902923, -43204.98325884143, -36450.84487805902, -49084.699044787776, 0.17200000000000001, 0.97, 0.24, 192.0, 0.0, 0.0, 0.0, 0.0, 0.0, 0.0, 0.0, 0.0, 0.0, 1.695338171938961E9, 0.0, 2023-09-21 18:16:11.938
22.0, -17912.799765205356, -35447.85504911602, -43002.61056454308, -20803.796744799227, -64207.37525312606, -51610.60263044866, 100985.58378047751, -56327.67007680775, -23188.43730550257, -30986.625669792378, -45856.50364834114, -44593.4736244051, -56294.65655024726, -43193.36035172467, -36445.726328578756, -49076.69712027277, 0.166, 0.97, 0.24, 192.0, 2.5, 24.0, 15.0, 40.0, 3.5, 64.0, 0.0, 0.0, 0.0, 1.695338171938965E9, 0.0, 2023-09-21 18:16:11.938
24.0, -17929.027131679908, -35466.16112782492, -43020.44725661841, -20822.058120019214, -64221.859183533095, -51627.23232832341, 100965.64602442337, -56342.15400721479, -23179.228386786985, -30977.774378988073, -45849.909883726825, -44586.96926676861, -56262.492389976076, -43184.6431713871, -36436.78563079663, -49069.18693413579, 0.166, 0.97, 0.24, 192.0, 0.0, 0.0, 0.0, 0.0, 0.0, 0.0, 0.0, 0.0, 0.0, 1.695338171938969E9, 0.0, 2023-09-21 18:16:11.938
26.0, -17927.88719271269, -35471.30202904964, -43012.06535244767, -20827.377835199575, -64213.87961076255, -51631.23329058091, 100977.91713212934, -56339.58355660243, -23185.91155837912, -30986.066876180994, -45859.54348558706, -44596.26759246202, -56272.416564514235, -43194.29912499179, -36439.57959885354, -49077.16650690634, 0.166, 0.97, 0.24, 192.0, 0.0, 0.0, 0.0, 0.0, 0.0, 0.0, 0.0, 0.0, 0.0, 1.695338171938973E9, 0.0, 2023-09-21 18:16:11.938
28.0, -17935.330323616305, -35476.19706108535, -43022.347154897114, -20837.078492293178, -64227.71534058039, -51637.96116566195, 100972.1280303154, -56349.97711777415, -23196.752154439946, -30994.627594307378, -45869.15473570285, -44606.10236002235, -56268.75087842356, -43200.60231692819, -36443.044119244114, -49085.302541888064, 0.166, 0.97, 0.24, 192.0, 0.0, 0.0, 0.0, 0.0, 0.0, 0.0, 0.0, 0.0, 0.0, 1.695338171938976E9, 0.0, 2023-09-21 18:16:11.938
30.0, -17916.73367222949, -35463.03188360118, -43004.823387244156, -20825.165012498503, -64207.01762521477, -51628.618136479636, 100964.43903022278, -56335.58259434493, -23183.519921722404, -30987.43033259277, -45857.64358730836, -44598.525118652, -56264.302881276955, -43199.238860516416, -36437.56794185257, -49078.97699820722, 0.166, 0.97, 0.24, 192.0, 0.0, 0.0, 0.0, 0.0, 0.0, 0.0, 0.0, 0.0, 0.0, 1.695338171999179E9, 0.0, 2023-09-21 18:16:11.999
32.0, -17912.844468694268, -35463.81419465711, -43005.18101515544, -20825.27677122078, -64204.02249145776, -51630.02629638032, 100958.13583828638, -56335.94022225621, -23172.992250083953, -30986.625669792378, -45852.7262035282, -44595.30646745044, -56271.83541915839, -43200.37879948364, -36431.22004642726, -49075.55718130555, 0.162, 0.9580000000000001, 0.25, 192.0, 2.5, 8.0, 14.5, 120.0, 3.5, 104.0, 0.0, 0.0, 0.0, 1.695338171999193E9, 0.0, 2023-09-21 18:16:11.999
34.0, -17913.224448350007, -35461.40020625594, -43001.29181162021, -20818.50419265082, -64204.91656123598, -51625.24302306688, 100966.1824662903, -56333.32506815494, -23173.998078584442, -30981.484768567654, -45849.015813948616, -44591.59607787086, -56260.860712630834, -43192.60039241319, -36427.42024986986, -49070.68450101429, 0.162, 0.9580000000000001, 0.25, 192.0, 0.0, 0.0, 0.0, 0.0, 0.0, 0.0, 0.0, 0.0, 0.0, 1.695338171999199E9, 0.0, 2023-09-21 18:16:11.999
36.0, -17912.44213729407, -35460.08145333308, -43006.52211982276, -20826.751986354826, -64208.11286069309, -51631.12153185863, 100976.95600711775, -56337.88482402382, -23178.8707588757, -30988.83849249345, -45853.329700628485, -44595.15000523925, -56257.26208177353, -43202.47986346243, -36432.292930161115, -49076.89828597287, 0.162, 0.9580000000000001, 0.25, 192.0, 0.0, 0.0, 0.0, 0.0, 0.0, 0.0, 0.0, 0.0, 0.0, 1.695338171999204E9, 0.0, 2023-09-21 18:16:11.999
38.0, -17896.482991752982, -35440.769546123694, -42989.646552759004, -20809.921122779982, -64196.6017122986, -51622.20318582096, 100967.18829479079, -56329.63703031982, -23165.906747091623, -30979.60722203341, -45843.58434004597, -44585.69521733466, -56269.77905866851, -43187.83947084421, -36424.335709135026, -49071.66797777033, 0.162, 0.9580000000000001, 0.25, 192.0, 0.0, 0.0, 0.0, 0.0, 0.0, 0.0, 0.0, 0.0, 0.0, 1.69533817199921E9, 0.0, 2023-09-21 18:16:11.999
40.0, -17906.74244245797, -35446.93862759336, -43003.07995117664, -20819.331207195664, -64217.96997999788, -51634.18372084901, 100995.15032710438, -56351.608795119384, -23166.130264536176, -30973.616954519388, -45841.59503478945, -44581.8730690328, -56244.65569790074, -43187.772415610845, -36428.82840977054, -49072.60675103745, 0.162, 0.9580000000000001, 0.25, 192.0, 0.0, 0.0, 0.0, 0.0, 0.0, 0.0, 0.0, 0.0, 0.0, 1.695338171999215E9, 0.0, 2023-09-21 18:16:11.999
42.0, -17900.93098889959, -35436.232141999266, -42999.5483755527, -20810.099936735623, -64211.7561950393, -51624.79598817778, 100993.63040848142, -56345.886748538825, -23169.326563993283, -30971.78411147405, -45841.997366189644, -44579.5708393539, -56260.458381230645, -43186.96775281045, -36436.40565114089, -49074.37253884942, 0.176, 0.968, 0.25, 192.0, 2.5, 64.0, 15.0, 32.0, 3.5, 104.0, 0.0, 0.0, 0.0, 1.695338171999221E9, 0.0, 2023-09-21 18:16:11.999
44.0, -17901.78035518889, -35440.09899379003, -42999.570727297156, -20810.278750691265, -64201.6532065455, -51623.27606955482, 101018.41849308235, -56339.8964810248, -23170.175930282585, -30972.45466380771, -45844.27724412409, -44578.65441783123, -56251.227110770604, -43186.25249698788, -36428.090802203515, -49070.505687058656, 0.176, 0.968, 0.25, 192.0, 0.0, 0.0, 0.0, 0.0, 0.0, 0.0, 0.0, 0.0, 0.0, 1.695338172059449E9, 0.0, 2023-09-21 18:16:12.059
46.0, -17901.512134255427, -35442.35651998002, -42991.99348592681, -20814.883210049058, -64194.321834364164, -51626.29355505628, 100988.78007993462, -56337.147216456804, -23161.235232500465, -30969.593640517433, -45838.242273121155, -44574.65345557374, -56246.98027932409, -43180.95513355197, -36418.32308987655, -49064.94010268928, 0.176, 0.968, 0.25, 192.0, 0.0, 0.0, 0.0, 0.0, 0.0, 0.0, 0.0, 0.0, 0.0, 1.695338172059466E9, 0.0, 2023-09-21 18:16:12.059
48.0, -17915.951361173557, -35459.097976577046, -43003.41522734347, -20829.903582323026, -64206.078851947655, -51635.815398194245, 101036.88103400244, -56344.61269910487, -23176.85910187472, -30994.940518729753, -45855.81074426303, -44598.63687737428, -56268.99674761257, -43210.12416006615, -36432.69526156131, -49084.98961746569, 0.176, 0.968, 0.25, 192.0, 0.0, 0.0, 0.0, 0.0, 0.0, 0.0, 0.0, 0.0, 0.0, 1.695338172059472E9, 0.0, 2023-09-21 18:16:12.059
50.0, -17921.718111243023, -35463.54597372365, -43003.906965721486, -20829.12127126709, -64200.55797106719, -51636.77652320582, 101019.62548728293, -56346.1996729612, -23170.198282027042, -30991.498350083635, -45854.60375006244, -44595.61939187282, -56262.358279509346, -43204.98325884143, -36424.6486335574, -49073.81374523804, 0.176, 0.968, 0.25, 192.0, 0.0, 0.0, 0.0, 0.0, 0.0, 0.0, 0.0, 0.0, 0.0, 1.695338172059478E9, 0.0, 2023-09-21 18:16:12.059
52.0, -17911.905695427144, -35450.53725845066, -42994.20630862789, -20816.313721694198, -64185.090563904116, -51627.768770190334, 101048.99567949721, -56336.096684467404, -23176.568529196804, -30987.47503608168, -45852.703851783735, -44592.40074067125, -56260.0784015749, -43196.40018897059, -36419.37362186595, -49073.94785570477, 0.168, 0.97, 0.254, 192.0, 2.5, 32.0, 15.0, 40.0, 3.5, 120.0, 0.0, 0.0, 0.0, 1.695338172059483E9, 0.0, 2023-09-21 18:16:12.059
54.0, -17911.43630879358, -35447.67623516038, -42993.58045978314, -20818.101861250623, -64186.40931682698, -51626.874700412125, 101029.50495833218, -56337.01310599007, -23176.814398385814, -30979.115483655394, -45849.93223547128, -44585.471699890106, -56276.35047153837, -43192.242764501905, -36412.77985725163, -49067.845829468475, 0.168, 0.97, 0.254, 192.0, 0.0, 0.0, 0.0, 0.0, 0.0, 0.0, 0.0, 0.0, 0.0, 1.695338172059489E9, 0.0, 2023-09-21 18:16:12.059
56.0, -17901.936817400077, -35441.23893275725, -42979.38710205402, -20813.49740189283, -64185.24702611531, -51622.046723609776, 101077.18122925535, -56332.65451582128, -23169.751247137934, -30986.335097114457, -45849.97693896019, -44589.85264180334, -56233.524529161994, -43197.67423840454, -36413.98685145222, -49072.60675103745, 0.168, 0.97, 0.254, 192.0, 0.0, 0.0, 0.0, 0.0, 0.0, 0.0, 0.0, 0.0, 0.0, 1.695338172059495E9, 0.0, 2023-09-21 18:16:12.059
58.0, -17898.092317353763, -35436.433307699364, -42978.56008750917, -20809.541143124243, -64180.955491179884, -51617.62107820762, 101065.31245294958, -56332.05101872099, -23155.759055108912, -30974.5110242976, -45839.33750859946, -44578.96734225361, -56227.64602037025, -43183.88321207562, -36400.2405286122, -49058.65926249734, 0.168, 0.97, 0.254, 192.0, 0.0, 0.0, 0.0, 0.0, 0.0, 0.0, 0.0, 0.0, 0.0, 1.695338172059501E9, 0.0, 2023-09-21 18:16:12.059
60.0, -17905.91542791312, -35439.294330989644, -42989.914773692464, -20813.475050148376, -64192.06430817417, -51624.97480213342, 101185.14015497449, -56341.37169615885, -23161.190529011554, -30972.007628918607, -45838.868121965905, -44575.86044977432, -56255.45159047265, -43184.55376440928, -36404.39795308089, -49059.732146231196, 0.168, 0.97, 0.254, 192.0, 0.0, 0.0, 0.0, 0.0, 0.0, 0.0, 0.0, 0.0, 0.0, 1.69533817211827E9, 0.0, 2023-09-21 18:16:12.118
62.0, -17904.88724766818, -35441.64126415745, -42991.72526499334, -20812.5139251368, -64199.32862512215, -51627.8358254237, 101335.32152596969, -56344.143312471315, -23167.963107581512, -30972.588774274445, -45842.578511545486, -44577.849755030846, -56253.43993347167, -43185.4925376764, -36416.78081950913, -49065.61065502294, 0.17400000000000002, 0.97, 0.262, 192.0, 2.5, 56.0, 15.0, 40.0, 4.0, 24.0, 0.0, 0.0, 0.0, 1.695338172118283E9, 0.0, 2023-09-21 18:16:12.118
64.0, -17890.403317261138, -35428.252569228716, -42978.805956698176, -20799.058174974703, -64186.901055205, -51617.10698808515, 101483.75946089739, -56334.129730955334, -23162.28576448986, -30969.906564939807, -45835.425953319784, -44573.8711445178, -56248.18727352468, -43185.85016558769, -36416.266729386654, -49063.9789776777, 0.17400000000000002, 0.97, 0.262, 192.0, 0.0, 0.0, 0.0, 0.0, 0.0, 0.0, 0.0, 0.0, 0.0, 1.695338172118289E9, 0.0, 2023-09-21 18:16:12.118
66.0, -17895.365404530217, -35433.30406347562, -42990.74178823731, -20808.043576245735, -64194.43359308644, -51622.3372962877, 101549.63005180718, -56340.52232986955, -23152.339238207252, -30961.837585191442, -45825.56883401499, -44563.164658923706, -56243.046372299956, -43180.46339517396, -36410.18705489481, -49057.631082252396, 0.17400000000000002, 0.97, 0.262, 192.0, 0.0, 0.0, 0.0, 0.0, 0.0, 0.0, 0.0, 0.0, 0.0, 1.695338172118294E9, 0.0, 2023-09-21 18:16:12.118
68.0, -17891.319738783808, -35430.17481925188, -42982.873974189046, -20807.17185821198, -64200.58032281165, -51622.046723609776, 101644.89318667569, -56339.181225202236, -23159.648258644138, -30964.4080358038, -45834.6212905194, -44570.47367936059, -56264.25817778805, -43184.66552313155, -36420.848837, -49068.248160868665, 0.17400000000000002, 0.97, 0.262, 192.0, 0.0, 0.0, 0.0, 0.0, 0.0, 0.0, 0.0, 0.0, 0.0, 1.6953381721183E9, 0.0, 2023-09-21 18:16:12.118
70.0, -17890.179799816586, -35427.827886084066, -42980.45998578787, -20804.199076199424, -64194.0536134307, -51618.761017174846, 101670.10595442128, -56336.67782982324, -23139.263467700897, -30944.26911404957, -45817.52220601108, -44552.79344949644, -56213.184441707665, -43158.44692688548, -36403.45917981377, -49050.94791066026, 0.17400000000000002, 0.97, 0.262, 192.0, 0.0, 0.0, 0.0, 0.0, 0.0, 0.0, 0.0, 0.0, 0.0, 1.695338172118305E9, 0.0, 2023-09-21 18:16:12.118
72.0, -17899.232256320985, -35440.30015949013, -42985.46677654586, -20809.809364057706, -64198.54631406621, -51620.370342775626, 101744.98429834656, -56338.398914146295, -23166.040857558353, -30971.337076584947, -45845.55129355804, -44578.85558353133, -56250.13187529229, -43184.0396742868, -36420.51356083317, -49071.131535903405, 0.166, 0.968, 0.258, 192.0, 2.5, 24.0, 15.0, 32.0, 4.0, 8.0, 0.0, 0.0, 0.0, 1.69533817211831E9, 0.0, 2023-09-21 18:16:12.118
74.0, -17909.312893070328, -35450.336092750564, -42985.60088701259, -20815.129079238068, -64204.42482285796, -51631.38975279209, 101767.60426373534, -56351.899367797305, -23157.30132547633, -30973.169919630283, -45843.9196162128, -44578.58736259787, -56240.677087387696, -43182.89973531959, -36416.02086019765, -49065.70006200076, 0.166, 0.968, 0.258, 192.0, 0.0, 0.0, 0.0, 0.0, 0.0, 0.0, 0.0, 0.0, 0.0, 1.695338172180034E9, 0.0, 2023-09-21 18:16:12.180
76.0, -17899.54518074336, -35436.857990844015, -42967.92065714844, -20804.221427943878, -64188.733898250335, -51622.73962768789, 101790.91713320222, -56334.73322805563, -23159.44709294404, -30969.50423353961, -45835.33654634196, -44574.98873174057, -56260.4807329751, -43176.59654338319, -36402.20748212427, -49060.60386426495, 0.166, 0.968, 0.258, 192.0, 0.0, 0.0, 0.0, 0.0, 0.0, 0.0, 0.0, 0.0, 0.0, 1.695338172180055E9, 0.0, 2023-09-21 18:16:12.180
78.0, -17896.30417779734, -35430.01835704069, -42971.85456417258, -20803.819096543684, -64194.97003495337, -51624.10308409966, 101818.49918586007, -56341.058771736476, -23152.473348673982, -30966.553803271512, -45829.6144997614, -44571.43480437217, -56233.63628788427, -43179.97165679594, -36400.01701116765, -49060.51445728713, 0.166, 0.968, 0.258, 192.0, 0.0, 0.0, 0.0, 0.0, 0.0, 0.0, 0.0, 0.0, 0.0, 1.695338172180061E9, 0.0, 2023-09-21 18:16:12.180
80.0, -17904.663730223623, -35436.00862455471, -42993.37929408304, -20809.965826268894, -64205.587113569636, -51626.651182967566, 101855.91600607825, -56340.298812425, -23159.380037710675, -30966.330285826956, -45836.74470624265, -44573.04412997295, -56251.18240728169, -43181.044540529794, -36412.73515376272, -49062.9284456883, 0.166, 0.968, 0.258, 192.0, 0.0, 0.0, 0.0, 0.0, 0.0, 0.0, 0.0, 0.0, 0.0, 1.695338172180066E9, 0.0, 2023-09-21 18:16:12.180
82.0, -17902.987349389477, -35435.33807222105, -42999.88365171953, -20808.915294279494, -64205.18478216944, -51622.91844164353, 101881.55345696848, -56337.95187925719, -23163.15748252362, -30964.43038754826, -45840.20922663322, -44570.093699704856, -56249.193102025165, -43180.01636028485, -36416.78081950913, -49059.7768497201, 0.164, 0.966, 0.268, 192.0, 2.5, 16.0, 15.0, 24.0, 4.0, 48.0, 0.0, 0.0, 0.0, 1.695338172180072E9, 0.0, 2023-09-21 18:16:12.180
84.0, -17894.560741729827, -35429.41485994039, -42985.712645734864, -20802.142715709535, -64197.58518905463, -51619.16334857504, 101889.84595416141, -56331.268707665055, -23158.977706310478, -30965.056236393004, -45839.40456383283, -44567.702063048135, -56247.20379676865, -43180.08341551822, -36412.19871189579, -49055.19474210677, 0.164, 0.966, 0.268, 192.0, 0.0, 0.0, 0.0, 0.0, 0.0, 0.0, 0.0, 0.0, 0.0, 1.695338172180078E9, 0.0, 2023-09-21 18:16:12.180
86.0, -17913.760890216934, -35447.36331073801, -42995.9497446954, -20816.64899786103, -64207.263494403785, -51628.30521205726, 101909.87311719336, -56344.63505084933, -23161.548156922836, -30973.41578881929, -45846.132438913875, -44579.503784120534, -56255.920977106216, -43180.97748529643, -36414.456238085775, -49059.441573553275, 0.164, 0.966, 0.268, 192.0, 0.0, 0.0, 0.0, 0.0, 0.0, 0.0, 0.0, 0.0, 0.0, 1.695338172180093E9, 0.0, 2023-09-21 18:16:12.180
88.0, -17901.78035518889, -35437.95322632232, -42980.03530264322, -20807.2612651898, -64192.310177363186, -51621.82320616522, 101901.44650953371, -56337.281326923534, -23161.68226738957, -30972.65582950781, -45843.98667144617, -44579.70494982063, -56243.962793822626, -43180.55280215178, -36407.124865904436, -49055.75353571815, 0.164, 0.966, 0.268, 192.0, 0.0, 0.0, 0.0, 0.0, 0.0, 0.0, 0.0, 0.0, 0.0, 1.695338172180099E9, 0.0, 2023-09-21 18:16:12.180
90.0, -17913.44796579456, -35447.609179927014, -42994.541584794715, -20822.616913630594, -64202.41316585698, -51635.61423249415, 101932.78365526005, -56349.08304799593, -23155.624944642183, -30969.057198650506, -45838.711659754714, -44576.19572594115, -56240.18534900968, -43180.418691685045, -36401.82750246853, -49057.94400667477, 0.164, 0.966, 0.268, 192.0, 0.0, 0.0, 0.0, 0.0, 0.0, 0.0, 0.0, 0.0, 0.0, 1.695338172239307E9, 0.0, 2023-09-21 18:16:12.239
92.0, -17895.901846397144, -35430.86772332999, -42978.2918665757, -20802.567398854186, -64189.53856105072, -51610.222650792915, 101913.89643119532, -56323.49030059461, -23166.107912791722, -30976.455626065213, -45849.79812500455, -44581.96247601062, -56257.91028236274, -43190.87930809013, -36411.43875258431, -49063.88957069988, 0.162, 0.966, 0.264, 192.0, 2.5, 8.0, 15.0, 24.0, 4.0, 32.0, 0.0, 0.0, 0.0, 1.695338172239323E9, 0.0, 2023-09-21 18:16:12.239
94.0, -17896.125363841697, -35431.87355183048, -42969.284113560214, -20800.041651730735, -64186.699889504904, -51605.327618757205, 101941.65729780881, -56321.03160870452, -23145.29843870383, -30952.248686820116, -45823.40071480283, -44556.369728609294, -56232.38459019478, -43160.436232142005, -36392.97621166423, -49039.257948310136, 0.162, 0.966, 0.264, 192.0, 0.0, 0.0, 0.0, 0.0, 0.0, 0.0, 0.0, 0.0, 0.0, 1.69533817223933E9, 0.0, 2023-09-21 18:16:12.239
96.0, -17911.346901815763, -35445.306950248116, -42972.368654295045, -20810.815192558195, -64189.11387790607, -51611.697865926966, 101945.1665216883, -56328.43003611923, -23155.423778942084, -30966.64321024933, -45835.40360157533, -44568.97611248209, -56249.57308168091, -43168.28169444582, -36394.67494424283, -49044.44355302377, 0.162, 0.966, 0.264, 192.0, 0.0, 0.0, 0.0, 0.0, 0.0, 0.0, 0.0, 0.0, 0.0, 1.695338172239336E9, 0.0, 2023-09-21 18:16:12.239
98.0, -17896.974730130998, -35432.05236578612, -42961.50570648977, -20799.505209863808, -64188.376270339046, -51607.16046180254, 101971.02749002309, -56322.79739651649, -23147.086578260252, -30959.64711423482, -45831.33558408447, -44564.30459789093, -56226.819005825404, -43165.331264177716, -36390.3387058185, -49042.096619855954, 0.162, 0.966, 0.264, 192.0, 0.0, 0.0, 0.0, 0.0, 0.0, 0.0, 0.0, 0.0, 0.0, 1.695338172239342E9, 0.0, 2023-09-21 18:16:12.239
100.0, -17892.817305662313, -35426.03974652765, -42967.7418431928, -20799.326395908167, -64191.594921540614, -51609.61915369263, 101995.61440892392, -56328.20651867468, -23147.466557915996, -30958.5071752676, -45830.6650317508, -44562.82938275688, -56228.80831108193, -43170.60627586917, -36400.48639780121, -49049.09271587047, 0.162, 0.966, 0.264, 192.0, 0.0, 0.0, 0.0, 0.0, 0.0, 0.0, 0.0, 0.0, 0.0, 1.695338172239349E9, 0.0, 2023-09-21 18:16:12.239
102.0, -17889.44219224956, -35421.457638914304, -42963.22679081283, -20793.06790746068, -64185.291729604214, -51603.91945885652, 102064.72600277973, -56325.278440151036, -23139.710502590002, -30945.297294294513, -45821.679630479775, -44551.22882738458, -56218.66061909922, -43154.82594428372, -36391.36688606344, -49038.58739597647, 0.162, 0.966, 0.27, 192.0, 2.5, 8.0, 15.0, 24.0, 4.0, 56.0, 0.0, 0.0, 0.0, 1.695338172239355E9, 0.0, 2023-09-21 18:16:12.239
104.0, -17894.471334752005, -35420.38475518045, -42968.36769203755, -20793.58199758315, -64185.20232262639, -51606.71342691343, 102075.32072965155, -56329.18999543071, -23138.570563622783, -30948.493593751624, -45824.1159706254, -44555.475658831085, -56218.437101654665, -43155.340034406196, -36389.4893395292, -49041.58252973349, 0.162, 0.966, 0.27, 192.0, 0.0, 0.0, 0.0, 0.0, 0.0, 0.0, 0.0, 0.0, 0.0, 1.695338172299065E9, 0.0, 2023-09-21 18:16:12.299
106.0, -17913.87264893921, -35436.54506642164, -42989.847718459096, -20809.1611634685, -64193.8524477306, -51624.0360288663, 102145.0134688632, -56342.310469425975, -23154.373246952684, -30958.998913645617, -45836.431781820276, -44563.58934206836, -56248.142570035765, -43164.66071184406, -36391.948031419284, -49046.656375724844, 0.162, 0.966, 0.27, 192.0, 0.0, 0.0, 0.0, 0.0, 0.0, 0.0, 0.0, 0.0, 0.0, 1.695338172299078E9, 0.0, 2023-09-21 18:16:12.299
108.0, -17924.668541511124, -35447.92210434939, -42995.18978538392, -20821.298160707734, -64206.548238581214, -51635.815398194245, 102155.04940212362, -56356.14619924381, -23166.62200291419, -30982.803521490518, -45854.380232617885, -44585.76227256802, -56257.08326781789, -43185.76075860987, -36412.511636318166, -49068.82930622451, 0.162, 0.966, 0.27, 192.0, 0.0, 0.0, 0.0, 0.0, 0.0, 0.0, 0.0, 0.0, 0.0, 1.695338172299082E9, 0.0, 2023-09-21 18:16:12.299
110.0, -17917.11365188523, -35436.12038327699, -42981.465814288356, -20814.994968771338, -64196.93698846543, -51625.332430044706, 102193.36029212002, -56343.2492426931, -23161.43639820056, -30982.33413485696, -45851.18393316078, -44585.29288593446, -56217.36421792081, -43183.7938050978, -36409.33768860551, -49067.01881492363, 0.162, 0.966, 0.27, 192.0, 0.0, 0.0, 0.0, 0.0, 0.0, 0.0, 0.0, 0.0, 0.0, 1.695338172299085E9, 0.0, 2023-09-21 18:16:12.299
112.0, -17892.906712640135, -35411.80168530961, -42955.33662502011, -20794.476067361364, -64166.628022984034, -51598.84561286517, 102140.36430601649, -56319.109358681366, -23144.896107303633, -30958.529527012055, -45831.13441838437, -44565.042205457954, -56214.592601608354, -43162.604351354166, -36390.29400232959, -49044.063573368025, 0.152, 0.974, 0.272, 192.0, 2.0, 96.0, 15.0, 56.0, 4.0, 64.0, 0.0, 0.0, 0.0, 1.695338172299089E9, 0.0, 2023-09-21 18:16:12.299
114.0, -17913.24680009446, -35431.180647752364, -42969.306465304675, -20814.2126577154, -64189.359747095084, -51619.69979044197, 102185.09014667156, -56334.64382107781, -23141.431586913062, -30953.92506765426, -45827.334621826965, -44559.14134492175, -56218.83943305486, -43158.335168163205, -36381.308601058554, -49040.59905297745, 0.152, 0.974, 0.272, 192.0, 0.0, 0.0, 0.0, 0.0, 0.0, 0.0, 0.0, 0.0, 0.0, 1.695338172299092E9, 0.0, 2023-09-21 18:16:12.299
116.0, -17908.575285503302, -35425.0115662827, -42970.66992171644, -20808.177686712468, -64184.44236331491, -51609.88737462609, 102183.54787630415, -56321.9927337161, -23152.853328329722, -30962.396378802823, -45837.83994172096, -44565.958626980624, -56223.24272671255, -43163.54312462129, -36388.25999358416, -49044.64471872387, 0.152, 0.974, 0.272, 192.0, 0.0, 0.0, 0.0, 0.0, 0.0, 0.0, 0.0, 0.0, 0.0, 1.695338172299096E9, 0.0, 2023-09-21 18:16:12.299
118.0, -17921.338131587283, -35439.47314494528, -42985.511480034766, -20820.3146839517, -64196.53465706523, -51622.71727594343, 102230.17361523792, -56338.331858912934, -23161.570508667293, -30971.538242285045, -45848.859351737425, -44574.206420684626, -56236.36320070782, -43174.56253463776, -36396.284269843614, -49051.93138741629, 0.152, 0.974, 0.272, 192.0, 0.0, 0.0, 0.0, 0.0, 0.0, 0.0, 0.0, 0.0, 0.0, 1.695338172299099E9, 0.0, 2023-09-21 18:16:12.299
120.0, -17909.44700353706, -35426.39737443893, -42977.57661075314, -20810.412861157998, -64180.5978632686, -51613.240136294386, 102211.73342606229, -56330.151120442286, -23158.44126444355, -30972.70053299672, -45845.439534835765, -44575.10049046284, -56232.4739971726, -43172.30500844777, -36395.81488321005, -49052.04314613857, 0.152, 0.974, 0.272, 192.0, 0.0, 0.0, 0.0, 0.0, 0.0, 0.0, 0.0, 0.0, 0.0, 1.695338172360858E9, 0.0, 2023-09-21 18:16:12.360
122.0, -17911.123384371207, -35428.43138318436, -42971.519288005744, -20813.095070492636, -64184.35295633709, -51616.391732262586, 102215.42146389741, -56333.95091699969, -23154.462653930506, -30965.23505034865, -45837.10233415393, -44570.11605144931, -56235.625593140794, -43164.79482231079, -36390.85279594098, -49047.81866643651, 0.162, 0.976, 0.264, 192.0, 2.5, 8.0, 15.0, 64.0, 4.0, 32.0, 0.0, 0.0, 0.0, 1.695338172360869E9, 0.0, 2023-09-21 18:16:12.360
124.0, -17910.78810820438, -35426.19620873883, -42963.919694890945, -20810.658730347008, -64184.73293599283, -51612.949563616465, 102201.54103059067, -56335.06850422246, -23147.53361314936, -30966.5090997826, -45832.67668875178, -44571.09952820534, -56205.83071778187, -43168.70637759047, -36391.09866512998, -49049.65150948185, 0.162, 0.976, 0.264, 192.0, 0.0, 0.0, 0.0, 0.0, 0.0, 0.0, 0.0, 0.0, 0.0, 1.695338172360873E9, 0.0, 2023-09-21 18:16:12.360
126.0, -17912.240971593972, -35423.67046161538, -42967.87595365953, -20808.60236985712, -64191.84079072962, -51612.92721187201, 102209.38649289448, -56333.861510021874, -23147.31009570481, -30961.41290204679, -45829.59214801695, -44565.131612435776, -56211.373950406785, -43162.33613042071, -36391.00925815216, -49044.86823616842, 0.162, 0.976, 0.264, 192.0, 0.0, 0.0, 0.0, 0.0, 0.0, 0.0, 0.0, 0.0, 0.0, 1.695338172360876E9, 0.0, 2023-09-21 18:16:12.360
128.0, -17929.965904947032, -35440.18840076785, -42985.62323875705, -20816.470183905385, -64201.92142747896, -51620.146825331074, 102232.18527223889, -56343.6962775822, -23167.58312792577, -30973.594602774934, -45843.964319701714, -44569.311388648915, -56235.64794488525, -43170.0921857467, -36403.86151121396, -49052.601939749955, 0.162, 0.976, 0.264, 192.0, 0.0, 0.0, 0.0, 0.0, 0.0, 0.0, 0.0, 0.0, 0.0, 1.69533817236088E9, 0.0, 2023-09-21 18:16:12.360
130.0, -17918.991198419477, -35434.08637453155, -42981.97990441083, -20810.88224779156, -64198.456907088395, -51612.16725256053, 102225.52445239121, -56337.03545773452, -23170.35474423823, -30968.923088183772, -45844.41135459082, -44563.05290020143, -56255.697459661664, -43166.31474093375, -36405.515540303655, -49049.98678564868, 0.162, 0.976, 0.264, 192.0, 0.0, 0.0, 0.0, 0.0, 0.0, 0.0, 0.0, 0.0, 0.0, 1.695338172360884E9, 0.0, 2023-09-21 18:16:12.360
132.0, -17911.45866053804, -35427.02322328368, -42960.633988456015, -20802.45564013191, -64190.00794768429, -51601.55017394426, 102215.55557436415, -56324.51848083955, -23150.126415506176, -30956.339056055436, -45830.910900939816, -44552.882856474265, -56208.870555027795, -43152.36725239363, -36394.22790935372, -49037.648622709356, 0.16, 0.966, 0.266, 192.0, 2.5, 0.0, 15.0, 24.0, 4.0, 40.0, 0.0, 0.0, 0.0, 1.695338172360889E9, 0.0, 2023-09-21 18:16:12.360
134.0, -17915.16905011762, -35432.789973353145, -42962.310369290164, -20809.898771035525, -64187.45984881638, -51610.89320312658, 102207.73246380479, -56330.352286142384, -23148.71825560549, -30961.14468111333, -45832.81079921852, -44561.890609489754, -56210.323418417385, -43158.58103735221, -36395.07727564302, -49040.75551518864, 0.16, 0.966, 0.266, 192.0, 0.0, 0.0, 0.0, 0.0, 0.0, 0.0, 0.0, 0.0, 0.0, 1.695338172418898E9, 0.0, 2023-09-21 18:16:12.418
136.0, -17906.407166291137, -35420.429458669365, -42959.516401233246, -20803.64028258804, -64172.573587009145, -51605.10410131265, 102185.31366411611, -56322.260954649566, -23145.410197426107, -30953.768605443074, -45827.826360204985, -44559.23075189957, -56218.05712199892, -43151.36142389315, -36385.53308076061, -49037.425105264796, 0.16, 0.966, 0.266, 192.0, 0.0, 0.0, 0.0, 0.0, 0.0, 0.0, 0.0, 0.0, 0.0, 1.695338172418911E9, 0.0, 2023-09-21 18:16:12.418
138.0, -17905.423689535106, -35422.41876392588, -42959.851677400075, -20804.556704110706, -64167.70090671789, -51604.768825145824, 102155.362326546, -56321.545698826994, -23139.844613056735, -30948.78416642954, -45823.35601131392, -44556.660301287215, -56222.39336042325, -43144.65590055656, -36377.84408066799, -49032.50772148463, 0.16, 0.966, 0.266, 192.0, 0.0, 0.0, 0.0, 0.0, 0.0, 0.0, 0.0, 0.0, 0.0, 1.695338172418914E9, 0.0, 2023-09-21 18:16:12.418
140.0, -17916.711320485036, -35428.23021748426, -42966.93718039241, -20807.59654135663, -64168.68438347393, -51608.36745600313, 102173.44488781034, -56325.63606806232, -23144.985514281456, -30958.306009567503, -45828.92159568329, -44563.87991474628, -56214.659656841715, -43157.64226408509, -36380.4368830248, -49038.65445120984, 0.16, 0.966, 0.266, 192.0, 0.0, 0.0, 0.0, 0.0, 0.0, 0.0, 0.0, 0.0, 0.0, 1.695338172418918E9, 0.0, 2023-09-21 18:16:12.418
142.0, -17923.685064755093, -35431.62768264147, -42970.53581124971, -20805.3613669111, -64176.50749403328, -51614.51418572834, 102140.92309962788, -56333.928565255235, -23150.282877717364, -30959.155375856804, -45831.670860251295, -44563.499935090535, -56228.76360759301, -43156.32351116223, -36381.6885807143, -49040.777866933095, 0.166, 0.97, 0.264, 192.0, 2.5, 24.0, 15.0, 40.0, 4.0, 32.0, 0.0, 0.0, 0.0, 1.695338172418921E9, 0.0, 2023-09-21 18:16:12.418
144.0, -17926.344922345274, -35442.89296184695, -42973.12861360653, -20804.26613143279, -64189.94089245092, -51623.74545618838, 102171.8132104651, -56346.95963227268, -23160.87760458918, -30970.957096929207, -45843.80785749052, -44574.072310217896, -56219.10765398832, -43168.41580491255, -36397.267746599646, -49054.03245139509, 0.166, 0.97, 0.264, 192.0, 0.0, 0.0, 0.0, 0.0, 0.0, 0.0, 0.0, 0.0, 0.0, 1.695338172418925E9, 0.0, 2023-09-21 18:16:12.418
146.0, -17909.20113434805, -35424.542179649136, -42954.80018315318, -20783.568416067174, -64180.88843594652, -51614.000095605865, 102135.46927398078, -56336.74488505661, -23138.548211878326, -30953.768605443074, -45824.49595028114, -44557.0179291985, -56215.82194755339, -43153.931874505506, -36384.683714471306, -49036.933366886784, 0.166, 0.97, 0.264, 192.0, 0.0, 0.0, 0.0, 0.0, 0.0, 0.0, 0.0, 0.0, 0.0, 1.695338172418928E9, 0.0, 2023-09-21 18:16:12.418
148.0, -17915.101994884255, -35423.91633080439, -42951.045090084684, -20780.282709632243, -64184.71058424838, -51622.47140675443, 102160.34676555953, -56347.4513706507, -23136.33538917725, -30947.018378617573, -45818.2151100892, -44550.33475760636, -56199.95220899013, -43153.82011578323, -36382.29207781459, -49031.03250635058, 0.166, 0.97, 0.264, 192.0, 0.0, 0.0, 0.0, 0.0, 0.0, 0.0, 0.0, 0.0, 0.0, 1.695338172418932E9, 0.0, 2023-09-21 18:16:12.418
150.0, -17925.942590945077, -35430.688909374345, -42957.92942737692, -20791.615044071084, -64199.39568035551, -51640.8892441856, 102148.03095436466, -56364.08106852545, -23155.9155173201, -30955.13206185485, -45829.1674648723, -44557.62142629879, -56229.41180818222, -43167.81230781225, -36398.318278589046, -49044.13062860139, 0.166, 0.97, 0.264, 192.0, 0.0, 0.0, 0.0, 0.0, 0.0, 0.0, 0.0, 0.0, 0.0, 1.695338172478514E9, 0.0, 2023-09-21 18:16:12.478
152.0, -17925.473204311515, -35430.04070878514, -42959.11406983305, -20790.184532425945, -64194.523000064255, -51639.57049126273, 102178.33991984605, -56354.559225387486, -23151.087540517754, -30955.534393255046, -45826.30644158202, -44558.0684611879, -56228.13775874827, -43170.80744156927, -36399.61467976745, -49044.53296000158, 0.168, 0.98, 0.26, 192.0, 2.5, 32.0, 15.0, 80.0, 4.0, 16.0, 0.0, 0.0, 0.0, 1.695338172478527E9, 0.0, 2023-09-21 18:16:12.478
154.0, -17923.148622888162, -35422.82109532608, -42958.331758777116, -20779.299232876212, -64182.006023169284, -51629.69102021349, 102140.4537129943, -56335.38142864483, -23151.780444595868, -30951.08639610844, -45825.97116541519, -44554.31336811941, -56222.8180435679, -43161.553819364766, -36393.87028144244, -49034.85465465244, 0.168, 0.98, 0.26, 192.0, 0.0, 0.0, 0.0, 0.0, 0.0, 0.0, 0.0, 0.0, 0.0, 1.695338172478531E9, 0.0, 2023-09-21 18:16:12.478
156.0, -17942.25936439745, -35442.40122346893, -42975.14027060751, -20798.29821566322, -64198.300444877204, -51647.19243612199, 102187.41472809491, -56342.98102175964, -23165.862043602712, -30960.831756690954, -45837.459962065215, -44560.370690866795, -56226.79665408095, -43173.51200264836, -36396.88776694391, -49037.40275352034, 0.168, 0.98, 0.26, 192.0, 0.0, 0.0, 0.0, 0.0, 0.0, 0.0, 0.0, 0.0, 0.0, 1.695338172478534E9, 0.0, 2023-09-21 18:16:12.478
158.0, -17936.470262583527, -35440.00958681221, -42964.9925786248, -20795.750116795316, -64195.26060763128, -51646.54423553279, 102180.77625999169, -56340.72349556965, -23163.068075545798, -30961.904640424807, -45834.64364226385, -44557.82259199889, -56216.15722372022, -43175.72482534943, -36401.00048792368, -49040.353183788444, 0.168, 0.98, 0.26, 192.0, 0.0, 0.0, 0.0, 0.0, 0.0, 0.0, 0.0, 0.0, 0.0, 1.695338172478538E9, 0.0, 2023-09-21 18:16:12.478
160.0, -17930.34588460277, -35437.99792981123, -42953.50378197477, -20790.54216033723, -64179.5473312792, -51639.88341568511, 102222.5293186342, -56334.710876311176, -23162.039895300855, -30964.18451835925, -45831.42499106228, -44558.85077224383, -56230.43998842716, -43175.34484569369, -36400.39699082339, -49041.71664020022, 0.168, 0.98, 0.26, 192.0, 0.0, 0.0, 0.0, 0.0, 0.0, 0.0, 0.0, 0.0, 0.0, 1.695338172478541E9, 0.0, 2023-09-21 18:16:12.478
162.0, -17922.522774043417, -35425.70447036081, -42949.54752320618, -20777.131113664047, -64170.29370907471, -51629.60161323567, 102199.28350440068, -56324.58553607292, -23152.07101727379, -30947.89009665133, -45821.322002568486, -44544.6127110258, -56207.48474687157, -43161.03972924229, -36384.70606621577, -49026.80802664853, 0.162, 0.966, 0.262, 192.0, 2.5, 8.0, 15.0, 24.0, 4.0, 24.0, 0.0, 0.0, 0.0, 1.695338172478545E9, 0.0, 2023-09-21 18:16:12.478
164.0, -17933.922163715622, -35432.32058671959, -42957.68355818791, -20781.69086953293, -64182.40835456948, -51639.07875288472, 102233.21345248383, -56335.58259434493, -23155.893165575646, -30946.68310245074, -45825.41237180381, -44542.80221972492, -56223.44389241265, -43163.431365899014, -36389.2881738291, -49028.618517949406, 0.162, 0.966, 0.262, 192.0, 0.0, 0.0, 0.0, 0.0, 0.0, 0.0, 0.0, 0.0, 0.0, 1.695338172539019E9, 0.0, 2023-09-21 18:16:12.539
166.0, -17922.96980893252, -35417.568435379086, -42945.34539524858, -20764.81530246917, -64176.95452892239, -51624.147787588576, 102207.93362950489, -56326.88776575182, -23156.876642331677, -30949.007683874093, -45830.08388639497, -44545.618539526295, -56220.247592955544, -43164.92893277752, -36392.797397708586, -49029.95962261673, 0.162, 0.966, 0.262, 192.0, 0.0, 0.0, 0.0, 0.0, 0.0, 0.0, 0.0, 0.0, 0.0, 1.695338172539032E9, 0.0, 2023-09-21 18:16:12.539
168.0, -17930.569402047327, -35418.35074643502, -42944.56308419265, -20766.67049725896, -64186.18579938243, -51626.80764517876, 102238.44376068638, -56331.93925999871, -23146.617191626694, -30940.245800047614, -45821.99255490214, -44534.509722532006, -56201.092147957344, -43150.04267097029, -36383.61083073745, -49019.27548876709, 0.162, 0.966, 0.262, 192.0, 0.0, 0.0, 0.0, 0.0, 0.0, 0.0, 0.0, 0.0, 0.0, 1.695338172539036E9, 0.0, 2023-09-21 18:16:12.539
170.0, -17933.318666615327, -35419.513037146695, -42945.74772664878, -20773.44307582892, -64190.03029942874, -51632.395581292585, 102230.12891174901, -56338.06363797947, -23151.936906807055, -30936.289541279024, -45829.34627882794, -44535.22497835457, -56206.72478756008, -43149.953263992466, -36386.27068832763, -49021.778884146086, 0.162, 0.966, 0.262, 192.0, 0.0, 0.0, 0.0, 0.0, 0.0, 0.0, 0.0, 0.0, 0.0, 1.69533817253904E9, 0.0, 2023-09-21 18:16:12.539
172.0, -17933.78805324889, -35418.14958073492, -42946.73120340481, -20775.63354678554, -64192.220770385364, -51639.21286335145, 102252.2347870153, -56342.82455954845, -23160.43056970007, -30942.54802972651, -45837.392906831854, -44540.63410051276, -56223.91327904622, -43162.82786879872, -36394.741999476195, -49035.92753838629, 0.16, 0.966, 0.262, 192.0, 2.5, 0.0, 15.0, 24.0, 4.0, 24.0, 0.0, 0.0, 0.0, 1.695338172539043E9, 0.0, 2023-09-21 18:16:12.539
174.0, -17931.686989270092, -35414.416839410886, -42942.30555800266, -20772.906633961993, -64192.220770385364, -51636.307136572264, 102254.2911475052, -56339.06946647996, -23160.318810977795, -30937.89886687981, -45836.23061612018, -44539.047126656435, -56224.583831379874, -43154.5353716058, -36398.40768556687, -49035.86048315293, 0.16, 0.966, 0.262, 192.0, 0.0, 0.0, 0.0, 0.0, 0.0, 0.0, 0.0, 0.0, 0.0, 1.695338172539047E9, 0.0, 2023-09-21 18:16:12.539
176.0, -17926.300218856362, -35406.660784084896, -42937.87991260051, -20762.91540419047, -64178.67561324545, -51622.672572454525, 102256.4369149729, -56322.462120349664, -23150.282877717364, -30933.339111010926, -45826.68642123776, -44532.85569344231, -56220.20288946664, -43146.89107500209, -36383.76729294864, -49023.589375446965, 0.16, 0.966, 0.262, 192.0, 0.0, 0.0, 0.0, 0.0, 0.0, 0.0, 0.0, 0.0, 0.0, 1.69533817253905E9, 0.0, 2023-09-21 18:16:12.539
178.0, -17945.54507083238, -35424.743345349234, -42951.44742148488, -20779.992136954326, -64182.36365108057, -51635.6365842386, 102270.67497619093, -56329.23469891962, -23150.10406376172, -30939.709358180688, -45832.45317130723, -44537.97424292257, -56209.65286608373, -43149.26035991435, -36375.452444011265, -49016.30270675453, 0.16, 0.966, 0.262, 192.0, 0.0, 0.0, 0.0, 0.0, 0.0, 0.0, 0.0, 0.0, 0.0, 1.695338172539053E9, 0.0, 2023-09-21 18:16:12.539
180.0, -17952.36235289125, -35429.25839772921, -42948.56404645015, -20783.881340489548, -64181.82720921365, -51634.51899701584, 102281.8955519075, -56328.407684374775, -23167.42666571458, -30961.41290204679, -45853.486162839676, -44559.29780713294, -56229.836491326874, -43167.3876246676, -36385.55543250507, -49028.976145860695, 0.16, 0.966, 0.262, 192.0, 0.0, 0.0, 0.0, 0.0, 0.0, 0.0, 0.0, 0.0, 0.0, 1.695338172599236E9, 0.0, 2023-09-21 18:16:12.599
182.0, -17936.090282927787, -35416.04851675612, -42930.36972646353, -20765.843482714117, -64164.37049679405, -51617.35285727416, 102283.86250541956, -56311.19684114419, -23154.52970916387, -30952.248686820116, -45845.52894181359, -44550.982958195564, -56214.70436033063, -43159.20688619696, -36376.65943821186, -49016.593279432454, 0.162, 0.97, 0.266, 192.0, 2.5, 8.0, 15.0, 40.0, 4.0, 40.0, 0.0, 0.0, 0.0, 1.695338172599247E9, 0.0, 2023-09-21 18:16:12.599
184.0, -17943.13108243121, -35423.223426726276, -42932.91782533143, -20771.654936272495, -64174.65229924349, -51628.41697077954, 102290.2998078227, -56319.62344880384, -23145.72312184848, -30939.73170992514, -45834.665994008305, -44538.5106847895, -56194.5654385764, -43150.89203725959, -36366.221173551225, -49009.57483167349, 0.162, 0.97, 0.266, 192.0, 0.0, 0.0, 0.0, 0.0, 0.0, 0.0, 0.0, 0.0, 0.0, 1.695338172599252E9, 0.0, 2023-09-21 18:16:12.599
186.0, -17945.902698743666, -35429.370156451485, -42941.88087485801, -20778.96395670938, -64179.144999879005, -51636.105970872166, 102317.23365989134, -56333.168605943756, -23152.853328329722, -30948.962980385186, -45841.25975862262, -44546.66907151569, -56220.404055166735, -43158.31281641875, -36379.162833590846, -49022.18121554628, 0.162, 0.97, 0.266, 192.0, 0.0, 0.0, 0.0, 0.0, 0.0, 0.0, 0.0, 0.0, 0.0, 1.695338172599256E9, 0.0, 2023-09-21 18:16:12.599
188.0, -17959.917242517145, -35443.071775802586, -42961.8409826566, -20797.426497629465, -64197.07109893216, -51655.46258157046, 102321.21227040437, -56353.374582931356, -23165.862043602712, -30965.436216048747, -45855.96720647421, -44566.942103736656, -56239.38068620929, -43171.410938669556, -36400.419342567846, -49040.39788727735, 0.162, 0.97, 0.266, 192.0, 0.0, 0.0, 0.0, 0.0, 0.0, 0.0, 0.0, 0.0, 0.0, 1.695338172599259E9, 0.0, 2023-09-21 18:16:12.599
190.0, -17944.11455918724, -35427.91729306189, -42947.200590038374, -20778.807494498193, -64190.27616861775, -51640.08458138521, 102343.36284915959, -56338.600079846394, -23167.739590136956, -30967.71609398319, -45860.54931408755, -44570.58543808287, -56231.512872161016, -43173.60140962618, -36407.66130777136, -49046.49991351365, 0.162, 0.97, 0.266, 192.0, 0.0, 0.0, 0.0, 0.0, 0.0, 0.0, 0.0, 0.0, 0.0, 1.695338172599263E9, 0.0, 2023-09-21 18:16:12.599
192.0, -17923.729768244, -35407.01841199618, -42933.990709065285, -20761.30607858969, -64175.90399693299, -51624.21484282194, 102308.94116269841, -56318.416454603255, -23137.095348488732, -30938.36825351337, -45829.21216836121, -44536.85665569981, -56195.303046143425, -43147.31575814674, -36379.654571968866, -49016.3697619879, 0.164, 0.964, 0.266, 192.0, 2.5, 16.0, 15.0, 16.0, 4.0, 40.0, 0.0, 0.0, 0.0, 1.695338172599272E9, 0.0, 2023-09-21 18:16:12.599
194.0, -17932.134024159197, -35411.891092287435, -42944.898360359475, -20768.68215425994, -64173.8476364431, -51633.06613362624, 102333.59513683262, -56327.20069017419, -23137.967066522488, -30931.618026687865, -45827.98282241617, -44529.83820794085, -56213.00562775203, -43144.03005171181, -36375.98888587819, -49014.82749162048, 0.164, 0.964, 0.266, 192.0, 0.0, 0.0, 0.0, 0.0, 0.0, 0.0, 0.0, 0.0, 0.0, 1.695338172659431E9, 0.0, 2023-09-21 18:16:12.659
196.0, -17930.457643325048, -35408.471275385775, -42936.44940095537, -20764.569433280165, -64174.8981684325, -51632.77556094832, 102312.38333134454, -56327.26774540755, -23153.63563938566, -30941.341035525926, -45844.29959586854, -44543.49512380304, -56224.941459291156, -43153.59659833868, -36388.170586606335, -49027.70209642674, 0.164, 0.964, 0.266, 192.0, 0.0, 0.0, 0.0, 0.0, 0.0, 0.0, 0.0, 0.0, 0.0, 1.695338172659443E9, 0.0, 2023-09-21 18:16:12.659
198.0, -17928.222468879518, -35402.7045253163, -42932.60490090906, -20758.91444193297, -64172.148903864494, -51626.56177598975, 102349.57663411816, -56319.84696624839, -23142.43741541355, -30929.673424920253, -45830.50856953962, -44532.36395506429, -56218.66061909922, -43142.37602262211, -36374.96070563325, -49013.39697997535, 0.164, 0.964, 0.266, 192.0, 0.0, 0.0, 0.0, 0.0, 0.0, 0.0, 0.0, 0.0, 0.0, 1.695338172659447E9, 0.0, 2023-09-21 18:16:12.659
200.0, -17918.119480385718, -35392.91446124488, -42920.423200180914, -20752.410084296476, -64172.864159687066, -51624.08073235521, 102322.59807856061, -56319.176413914734, -23139.86696480119, -30929.516962709065, -45821.76903745759, -44527.5583300064, -56218.48180514357, -43144.32062438973, -36373.17256607683, -49010.98299157417, 0.164, 0.964, 0.266, 192.0, 0.0, 0.0, 0.0, 0.0, 0.0, 0.0, 0.0, 0.0, 0.0, 1.69533817265945E9, 0.0, 2023-09-21 18:16:12.659
202.0, -17917.091300140775, -35392.48977810023, -42919.12679900251, -20752.2983255742, -64166.784485195225, -51623.3878282771, 102353.24232020884, -56317.90236448078, -23130.68039783006, -30922.654977161288, -45813.67770596477, -44522.28331831495, -56193.98429322056, -43134.17293240702, -36367.29405728508, -49005.819738604994, 0.17, 0.9560000000000001, 0.262, 192.0, 2.5, 40.0, 14.5, 112.0, 4.0, 24.0, 0.0, 0.0, 0.0, 1.695338172659454E9, 0.0, 2023-09-21 18:16:12.659
204.0, -17924.64618976667, -35399.19530143682, -42928.40277295146, -20753.125340119048, -64166.851540428586, -51618.3810375191, 102320.07233143716, -56314.72841676813, -23131.708578075002, -30921.582093427434, -45818.0139443891, -44522.886815415244, -56205.3166276594, -43132.58595855069, -36366.5340979736, -49000.63413389136, 0.17, 0.9560000000000001, 0.262, 192.0, 0.0, 0.0, 0.0, 0.0, 0.0, 0.0, 0.0, 0.0, 0.0, 1.695338172659458E9, 0.0, 2023-09-21 18:16:12.659
206.0, -17928.87066946872, -35403.12920846095, -42926.59228165058, -20752.43243604093, -64168.43851428491, -51618.09046484119, 102352.37060217507, -56314.92958246823, -23142.213897968995, -30931.036881332027, -45832.02848816258, -44532.878045186764, -56213.810290552414, -43139.64910979856, -36369.75274917516, -49002.98106705917, 0.17, 0.9560000000000001, 0.262, 192.0, 0.0, 0.0, 0.0, 0.0, 0.0, 0.0, 0.0, 0.0, 0.0, 1.695338172659466E9, 0.0, 2023-09-21 18:16:12.659
208.0, -17934.70447477156, -35405.07381022857, -42926.18995025039, -20753.013581396768, -64169.62315674104, -51621.21970906493, 102344.36867766008, -56313.67788477873, -23141.431586913062, -30930.92512260975, -45833.816627719, -44532.43101029766, -56208.31176141641, -43136.653976041554, -36365.01417935064, -49003.13752927036, 0.17, 0.9560000000000001, 0.262, 192.0, 0.0, 0.0, 0.0, 0.0, 0.0, 0.0, 0.0, 0.0, 0.0, 1.69533817265947E9, 0.0, 2023-09-21 18:16:12.659
210.0, -17938.906602729156, -35407.353688163006, -42931.84494159758, -20758.556814021686, -64174.02645039874, -51626.29355505628, 102391.84378288315, -56316.04716969099, -23147.48890966045, -30938.211791302183, -45840.52215105559, -44536.946062677634, -56225.3214389469, -43140.90080748806, -36368.612810207946, -49008.72546538418, 0.17, 0.9560000000000001, 0.262, 192.0, 0.0, 0.0, 0.0, 0.0, 0.0, 0.0, 0.0, 0.0, 0.0, 1.6953381727186E9, 0.0, 2023-09-21 18:16:12.718
212.0, -17926.099053156264, -35395.06022871259, -42922.09958101506, -20751.180738351435, -64166.27039507275, -51618.470444496925, 102364.93228255896, -56312.76146325606, -23145.790177081846, -30935.708395923186, -45836.610595775914, -44534.46501904309, -56233.27865997299, -43140.81140051024, -36370.5350602311, -49008.971334573194, 0.168, 0.96, 0.262, 192.0, 2.5, 32.0, 15.0, 0.0, 4.0, 24.0, 0.0, 0.0, 0.0, 1.695338172718607E9, 0.0, 2023-09-21 18:16:12.718
214.0, -17928.624800279715, -35397.38481013594, -42923.06070602664, -20754.35468606409, -64170.830150941634, -51626.248851567376, 102380.35498623313, -56319.310524381464, -23130.747453063424, -30928.89111386432, -45822.93132816927, -44525.054934627406, -56208.64703758324, -43135.49168532988, -36360.65558918186, -49003.65161939283, 0.168, 0.96, 0.262, 192.0, 0.0, 0.0, 0.0, 0.0, 0.0, 0.0, 0.0, 0.0, 0.0, 1.695338172718611E9, 0.0, 2023-09-21 18:16:12.718
216.0, -17924.22150662202, -35395.462560112785, -42919.48442691379, -20750.3984272955, -64166.73978170631, -51619.6327352086, 102369.87201808358, -56312.38148360032, -23139.53168863436, -30933.60733194439, -45827.893415438346, -44529.23471084055, -56211.75393006253, -43141.571359821726, -36363.11428107194, -49007.49611943914, 0.168, 0.96, 0.262, 192.0, 0.0, 0.0, 0.0, 0.0, 0.0, 0.0, 0.0, 0.0, 0.0, 1.695338172718614E9, 0.0, 2023-09-21 18:16:12.718
218.0, -17917.381872818696, -35391.46159785528, -42905.268717440216, -20738.77552017874, -64164.41520028296, -51608.322752514214, 102385.60764618011, -56300.80327997247, -23127.461746628494, -30927.661767919275, -45815.04116237655, -44517.27652755696, -56196.01830196599, -43130.440191082984, -36348.85386810945, -48992.92278205428, 0.168, 0.96, 0.262, 192.0, 0.0, 0.0, 0.0, 0.0, 0.0, 0.0, 0.0, 0.0, 0.0, 1.695338172718617E9, 0.0, 2023-09-21 18:16:12.718
220.0, -17915.481974539995, -35392.109798444486, -42902.608859850036, -20736.42858701093, -64160.10131360309, -51605.9311158575, 102382.45605021191, -56300.75857648356, -23124.779537293856, -30926.99121558562, -45811.64369721934, -44514.16963507768, -56190.29625538543, -43124.226406124406, -36344.763498874134, -48986.194906973236, 0.168, 0.96, 0.262, 192.0, 0.0, 0.0, 0.0, 0.0, 0.0, 0.0, 0.0, 0.0, 0.0, 1.695338172718621E9, 0.0, 2023-09-21 18:16:12.718
222.0, -17916.510154784937, -35390.74634203271, -42901.759493560734, -20734.081653843125, -64158.76020893577, -51603.45007222296, 102394.86126838461, -56300.020968916535, -23117.49286860143, -30913.893093334806, -45804.13351108236, -44504.55838496189, -56204.89194451475, -43113.69873448595, -36335.71104236973, -48975.778994057066, 0.17, 0.96, 0.266, 192.0, 2.5, 40.0, 15.0, 0.0, 4.0, 40.0, 0.0, 0.0, 0.0, 1.695338172718624E9, 0.0, 2023-09-21 18:16:12.718
224.0, -17921.31577984283, -35392.936812989334, -42906.56511861862, -20736.897973644493, -64166.784485195225, -51607.89806936956, 102400.00216960933, -56307.4417480757, -23128.847554784723, -30917.98346257013, -45813.25302282012, -44510.95098387611, -56202.81323228041, -43114.74926647535, -36346.931618086295, -48983.93738078325, 0.17, 0.96, 0.266, 192.0, 0.0, 0.0, 0.0, 0.0, 0.0, 0.0, 0.0, 0.0, 0.0, 1.695338172778832E9, 0.0, 2023-09-21 18:16:12.778
226.0, -17915.750195473458, -35386.164234419375, -42898.406731892435, -20734.685150943416, -64159.922499647444, -51607.20516529145, 102387.88752411456, -56307.933486453716, -23121.739700047936, -30909.623910143844, -45807.64273496184, -44505.51950997347, -56210.323418417385, -43111.843539696165, -36346.1269552859, -48983.57975287196, 0.17, 0.96, 0.266, 192.0, 0.0, 0.0, 0.0, 0.0, 0.0, 0.0, 0.0, 0.0, 0.0, 1.695338172778859E9, 0.0, 2023-09-21 18:16:12.778
228.0, -17918.924143186112, -35388.466464098274, -42909.69436284237, -20744.698732459394, -64163.16350259346, -51614.000095605865, 102393.34134976166, -56314.86252723486, -23119.459822113495, -30911.143828766806, -45809.47557800717, -44508.849919897315, -56195.16893567669, -43117.54323453227, -36349.18914427628, -48990.53114539757, 0.17, 0.96, 0.266, 192.0, 0.0, 0.0, 0.0, 0.0, 0.0, 0.0, 0.0, 0.0, 0.0, 1.695338172778863E9, 0.0, 2023-09-21 18:16:12.778
230.0, -17901.847410422255, -35372.730836001734, -42893.39994113445, -20732.96406662036, -64153.08286584412, -51603.15949954504, 102395.91180037402, -56304.0889864074, -23118.09636570172, -30911.881436333828, -45808.805025673515, -44508.559347219394, -56194.85601125431, -43119.44313281097, -36353.81595537853, -48996.45435767822, 0.17, 0.96, 0.266, 192.0, 0.0, 0.0, 0.0, 0.0, 0.0, 0.0, 0.0, 0.0, 0.0, 1.695338172778866E9, 0.0, 2023-09-21 18:16:12.778
232.0, -17898.338186542773, -35372.68613251283, -42892.5729265896, -20733.232287553823, -64148.12077857504, -51605.30526701275, 102413.86025117163, -56305.09481490789, -23089.75435373239, -30889.082656989416, -45785.13452829535, -44486.811099864375, -56181.08733666984, -43094.94562088795, -36331.79948709005, -48978.282389436055, 0.17200000000000001, 0.9560000000000001, 0.272, 192.0, 2.5, 48.0, 14.5, 112.0, 4.0, 64.0, 0.0, 0.0, 0.0, 1.69533817277887E9, 0.0, 2023-09-21 18:16:12.778
234.0, -17910.005797148442, -35382.9008797289, -42902.85472903904, -20742.217688824858, -64154.31221178916, -51615.52001422882, 102409.83693716968, -56315.689541779706, -23105.780554506848, -30908.103991520882, -45801.674819192274, -44503.731370417045, -56203.64024682525, -43112.71525772992, -36344.60703666294, -48991.69343610924, 0.17200000000000001, 0.9560000000000001, 0.272, 192.0, 0.0, 0.0, 0.0, 0.0, 0.0, 0.0, 0.0, 0.0, 0.0, 1.695338172778874E9, 0.0, 2023-09-21 18:16:12.778
236.0, -17898.74051794297, -35368.685170255325, -42890.62832482199, -20730.460671241366, -64153.59695596659, -51608.412159492036, 102429.5288240348, -56304.0889864074, -23098.672699770057, -30905.891168819806, -45795.796310400525, -44501.69736167161, -56191.30208388592, -43111.66472574052, -36343.17652501781, -48988.005398274116, 0.17200000000000001, 0.9560000000000001, 0.272, 192.0, 0.0, 0.0, 0.0, 0.0, 0.0, 0.0, 0.0, 0.0, 0.0, 1.695338172778878E9, 0.0, 2023-09-21 18:16:12.778
238.0, -17905.580151746293, -35373.08846391302, -42893.69051381237, -20728.67253168494, -64160.190720580904, -51607.8310141362, 102421.41514079752, -56306.167698641744, -23103.008938194387, -30908.796895598996, -45800.24430754713, -44504.73719891754, -56192.95611297561, -43117.43147580999, -36344.58468491849, -48985.479651150665, 0.17200000000000001, 0.9560000000000001, 0.272, 192.0, 0.0, 0.0, 0.0, 0.0, 0.0, 0.0, 0.0, 0.0, 0.0, 1.695338172778885E9, 0.0, 2023-09-21 18:16:12.778
240.0, -17889.464543994018, -35352.56956250305, -42881.10648168403, -20710.634673909506, -64153.59695596659, -51592.29655173976, 102458.22846391541, -56296.82466945943, -23094.47057181246, -30894.424723914235, -45789.87309811987, -44490.54384118842, -56178.516886057485, -43101.494682013355, -36334.548751658054, -48972.42623238877, 0.17200000000000001, 0.9560000000000001, 0.272, 192.0, 0.0, 0.0, 0.0, 0.0, 0.0, 0.0, 0.0, 0.0, 0.0, 1.695338172840366E9, 0.0, 2023-09-21 18:16:12.840
242.0, -17898.807573176335, -35358.828050950535, -42889.175461432395, -20714.769746633738, -64153.149921077485, -51593.57060117371, 102434.80383572626, -56299.97626542763, -23088.52500778735, -30879.225537684626, -45780.88769684883, -44475.52346891445, -56183.74719426003, -43082.49569922635, -36325.89862655385, -48958.34463338192, 0.17, 0.964, 0.28, 192.0, 2.5, 40.0, 15.0, 16.0, 4.0, 96.0, 0.0, 0.0, 0.0, 1.695338172840378E9, 0.0, 2023-09-21 18:16:12.840
244.0, -17907.636512236182, -35367.65699001038, -42890.4718626108, -20722.23522928181, -64151.51824373225, -51594.30820874074, 102442.1799113965, -56298.99278867159, -23103.85830448369, -30895.676421603734, -45799.640810446836, -44492.689608656125, -56196.73355778856, -43093.76097843182, -36335.55458015855, -48972.85091553342, 0.17, 0.964, 0.28, 192.0, 0.0, 0.0, 0.0, 0.0, 0.0, 0.0, 0.0, 0.0, 0.0, 1.695338172840382E9, 0.0, 2023-09-21 18:16:12.840
