%OpenBCI Raw EXG Data
%Number of channels = 16
%Sample Rate = 125 Hz
%Board = OpenBCI_GUI$BoardCytonSerialDaisy
Sample Index, EXG Channel 0, EXG Channel 1, EXG Channel 2, EXG Channel 3, EXG Channel 4, EXG Channel 5, EXG Channel 6, EXG Channel 7, EXG Channel 8, EXG Channel 9, EXG Channel 10, EXG Channel 11, EXG Channel 12, EXG Channel 13, EXG Channel 14, EXG Channel 15, Accel Channel 0, Accel Channel 1, Accel Channel 2, Other, Other, Other, Other, Other, Other, Other, Analog Channel 0, Analog Channel 1, Analog Channel 2, Timestamp, Other, Timestamp (Formatted)
194.0, -187500.02235174447, 8845.524054232128, -14623.427644184549, -31834.29322651544, -12993.471383270191, -31328.786173914217, -187500.02235174447, -39084.707389439034, -8078.814515926185, -8899.458813602783, -43341.10538257425, -40547.49495357215, -29344.71122559443, -34684.207699800456, -25769.504996479154, -32990.638374166294, 0.0, 0.0, 0.0, 192.0, 0.0, 0.0, 0.0, 0.0, 0.0, 0.0, 0.0, 0.0, 0.0, 1.695676664398859E9, 0.0, 2023-09-25 16:17:44.398
196.0, -187500.02235174447, 8843.80296990907, -14622.488870917425, -31835.50022071603, -12997.829973438977, -31323.824086645138, -187500.02235174447, -39072.771557899905, -8114.577307054676, -8895.591961812015, -43339.56311220683, -40544.7233372597, -29341.24670520386, -34679.312667764745, -25760.273726019113, -33013.303043043976, 0.0, 0.0, 0.0, 192.0, 0.0, 0.0, 0.0, 0.0, 0.0, 0.0, 0.0, 0.0, 0.0, 1.69567666439887E9, 0.0, 2023-09-25 16:17:44.398
198.0, -187500.02235174447, 8854.688269458804, -14625.327542463248, -31833.77913639297, -12996.757089705121, -31326.43924074641, -187500.02235174447, -39077.33131376879, -8084.916542162484, -8893.625008299949, -43336.92560636111, -40545.684462271274, -29339.57032436971, -34678.64211543109, -25761.324258008513, -32996.315717257945, 0.0, 0.0, 0.0, 192.0, 0.0, 0.0, 0.0, 0.0, 0.0, 0.0, 0.0, 0.0, 0.0, 1.695676664398876E9, 0.0, 2023-09-25 16:17:44.398
200.0, -187500.02235174447, 8854.37534503643, -14619.381978438138, -31828.34766249033, -12989.313958801504, -31328.361490769566, -187500.02235174447, -39071.989246843965, -8119.897022235039, -8893.647360044404, -43338.51258021744, -40547.67376752779, -29343.772452327306, -34681.92782186602, -25761.413664986332, -33019.00273788008, 0.016, 0.9540000000000001, 0.318, 192.0, 0.0, 64.0, 14.5, 104.0, 4.5, 120.0, 0.0, 0.0, 0.0, 1.69567666439888E9, 0.0, 2023-09-25 16:17:44.398
202.0, -187500.02235174447, 8856.766981693147, -14619.449033671503, -31826.24659851153, -12990.699766957732, -31326.618054702052, -187500.02235174447, -39065.6189996742, -8088.626931742065, -8886.85242972999, -43327.67198415661, -40536.07321215549, -29334.317664422713, -34672.49538570588, -25750.640124158876, -33006.28459528501, 0.016, 0.9540000000000001, 0.318, 192.0, 0.0, 0.0, 0.0, 0.0, 0.0, 0.0, 0.0, 0.0, 0.0, 1.695676664398884E9, 0.0, 2023-09-25 16:17:44.398
204.0, -187500.02235174447, 8851.156693834864, -14618.353798193193, -31828.660586912705, -12994.588970492956, -31328.80852565867, -187500.02235174447, -39079.00769460293, -8110.7104552639075, -8893.04386294411, -43333.68460341509, -40544.99155819316, -29340.17382147, -34681.74900791037, -25754.57403118301, -33014.93472038922, 0.016, 0.9540000000000001, 0.318, 192.0, 0.0, 0.0, 0.0, 0.0, 0.0, 0.0, 0.0, 0.0, 0.0, 1.695676664398888E9, 0.0, 2023-09-25 16:17:44.398
206.0, -187500.02235174447, 8850.977879879223, -14614.08461500223, -31820.569255419883, -12994.007825137118, -31324.382880256522, -187500.02235174447, -39072.86096487772, -8077.965149636883, -8896.821307757058, -43326.91202484513, -40542.8681424699, -29340.12911798109, -34682.84424338868, -25755.08812130548, -32991.89007185579, 0.016, 0.9540000000000001, 0.318, 192.0, 0.0, 0.0, 0.0, 0.0, 0.0, 0.0, 0.0, 0.0, 0.0, 1.695676664398892E9, 0.0, 2023-09-25 16:17:44.398
208.0, -187500.02235174447, 8850.08381010101, -14614.688112102524, -31818.468191441083, -12993.940769903753, -31327.109793080068, -187500.02235174447, -39071.83278463278, -8109.145833152036, -8891.61335129897, -43328.54370219036, -40541.415279080305, -29341.313760437224, -34676.74221715239, -25748.650818902355, -33013.90654014427, 0.016, 0.9540000000000001, 0.318, 192.0, 0.0, 0.0, 0.0, 0.0, 0.0, 0.0, 0.0, 0.0, 0.0, 1.695676664398896E9, 0.0, 2023-09-25 16:17:44.398
210.0, -187500.02235174447, 8841.23251929671, -14621.259524972384, -31823.877313599267, -12995.103060615429, -31325.3440052681, -187500.02235174447, -39082.69573243806, -8071.594902467121, -8905.024397972154, -43332.52231270341, -40550.24421814016, -29346.454661661945, -34689.303897536265, -25756.563336439533, -32983.21759500713, 0.012, 0.9580000000000001, 0.318, 192.0, 0.0, 48.0, 14.5, 120.0, 4.5, 120.0, 0.0, 0.0, 0.0, 1.695676664398906E9, 0.0, 2023-09-25 16:17:44.398
212.0, -187500.02235174447, 8838.885586128901, -14611.93884753452, -31818.69170888564, -12989.559827990512, -31335.670511206452, -187500.02235174447, -39079.16415681412, -8112.27507737578, -8895.122575178453, -43336.56797844982, -40545.326834359985, -29344.688873849977, -34679.69264742049, -25750.014275314126, -33008.92210113074, 0.012, 0.9580000000000001, 0.318, 192.0, 0.0, 0.0, 0.0, 0.0, 0.0, 0.0, 0.0, 0.0, 0.0, 1.695676664398918E9, 0.0, 2023-09-25 16:17:44.398
214.0, -187500.02235174447, 8844.965260620746, -14618.152632493095, -31825.48663920005, -12997.405290294326, -31321.141877310503, -187500.02235174447, -39073.21859278901, -8076.579341480654, -8903.504479349194, -43329.66128941313, -40543.225770381185, -29342.967789526916, -34687.560461468755, -25749.72370263621, -32993.20882477866, 0.012, 0.9580000000000001, 0.318, 192.0, 0.0, 0.0, 0.0, 0.0, 0.0, 0.0, 0.0, 0.0, 0.0, 1.695676664398922E9, 0.0, 2023-09-25 16:17:44.398
216.0, -187500.02235174447, 8843.110065830955, -14614.46459465797, -31820.032813552956, -12991.549133247034, -31334.910551894973, -187500.02235174447, -39073.08448232228, -8101.881516204062, -8909.226525929753, -43340.39012675168, -40554.20047690874, -29357.563478656233, -34689.81798765874, -25758.127958551402, -32999.37790624832, 0.012, 0.9580000000000001, 0.318, 192.0, 0.0, 0.0, 0.0, 0.0, 0.0, 0.0, 0.0, 0.0, 0.0, 1.695676664398927E9, 0.0, 2023-09-25 16:17:44.398
218.0, -187500.02235174447, 8849.860292656456, -14613.391710924116, -31819.138743774743, -12988.308130301015, -31321.119525566046, -187500.02235174447, -39070.42462473209, -8079.060385115193, -8908.108938706988, -43330.15302779115, -40547.293787872055, -29345.76175758383, -34689.952098125475, -25748.51670843562, -32997.45565622517, 0.012, 0.9580000000000001, 0.318, 192.0, 0.0, 0.0, 0.0, 0.0, 0.0, 0.0, 0.0, 0.0, 0.0, 1.695676664398932E9, 0.0, 2023-09-25 16:17:44.398
220.0, -187500.02235174447, 8837.119798316931, -14608.966065521965, -31818.02115655198, -12989.604531479423, -31332.16128732697, -187500.02235174447, -39069.97758984299, -8109.235240129858, -8899.52586883615, -43335.65155692716, -40544.65628202633, -29346.633475617586, -34680.8325863877, -25742.973475810704, -33025.35063330539, 0.004, 0.964, 0.318, 192.0, 0.0, 16.0, 15.0, 16.0, 4.5, 120.0, 0.0, 0.0, 0.0, 1.695676664398949E9, 0.0, 2023-09-25 16:17:44.398
222.0, -187500.02235174447, 8828.804949379557, -14611.737681834422, -31824.413755466197, -12989.04573786804, -31315.598644685586, -187500.02235174447, -39077.532479468886, -8086.257646829802, -8911.52875560865, -43331.918815603116, -40543.73986050366, -29344.75592908334, -34688.56628996924, -25742.593496154965, -33014.82296166694, 0.004, 0.964, 0.318, 192.0, 0.0, 0.0, 0.0, 0.0, 0.0, 0.0, 0.0, 0.0, 0.0, 1.695676664398953E9, 0.0, 2023-09-25 16:17:44.398
224.0, -187500.02235174447, 8835.644583182882, -14613.414062668571, -31828.079441556867, -12989.470421012691, -31332.20599081588, -187500.02235174447, -39082.53927022687, -8096.070062645682, -8912.66869457587, -43341.708879674545, -40554.40164260884, -29355.708283866443, -34692.90252839357, -25745.968609567717, -33016.20876982317, 0.004, 0.964, 0.318, 192.0, 0.0, 0.0, 0.0, 0.0, 0.0, 0.0, 0.0, 0.0, 0.0, 1.695676664398957E9, 0.0, 2023-09-25 16:17:44.398
226.0, -187500.02235174447, 8833.074132570522, -14618.219687726461, -31835.790793393946, -12999.036967639562, -31318.97375809834, -187500.02235174447, -39082.40515976014, -8084.134231106548, -8917.563726611583, -43338.087897072786, -40555.69804378725, -29351.729673353395, -34697.2387668179, -25743.979304311193, -33008.85504589737, 0.004, 0.964, 0.318, 192.0, 0.0, 0.0, 0.0, 0.0, 0.0, 0.0, 0.0, 0.0, 0.0, 1.695676664398965E9, 0.0, 2023-09-25 16:17:44.398
228.0, -187500.02235174447, 8834.594051193482, -14608.250809699395, -31824.994900822036, -12991.169153591294, -31336.25165656229, -187500.02235174447, -39076.72781666849, -8086.972902652372, -8915.015627743678, -43347.6320919552, -40560.727186289696, -29359.686894379487, -34695.24946156138, -25748.360246224434, -33000.942528360196, 0.004, 0.964, 0.318, 192.0, 0.0, 0.0, 0.0, 0.0, 0.0, 0.0, 0.0, 0.0, 0.0, 1.695676664398969E9, 0.0, 2023-09-25 16:17:44.398
230.0, -187500.02235174447, 8832.962373848244, -14607.490850387914, -31828.90645610171, -12995.170115848794, -31324.91932212345, -187500.02235174447, -39090.250622063955, -8096.003007412316, -8906.499613106205, -43330.041269068875, -40543.9186744593, -29347.058158762236, -34687.493406235386, -25734.010426284127, -33017.7957436795, 0.004, 0.964, 0.318, 192.0, 0.0, 0.0, 15.0, 0.0, 4.5, 112.0, 0.0, 0.0, 0.0, 1.695676664398972E9, 0.0, 2023-09-25 16:17:44.398
232.0, -187500.02235174447, 8829.22963252421, -14603.780460808333, -31828.459421212607, -12997.13706936086, -31332.071880349147, -187500.02235174447, -39077.46542423552, -8078.099260103615, -8910.120595707966, -43335.24922552696, -40548.09845067244, -29355.127138510605, -34693.17074932704, -25740.626542642898, -33003.40122025028, 0.004, 0.964, 0.318, 192.0, 0.0, 0.0, 0.0, 0.0, 0.0, 0.0, 0.0, 0.0, 0.0, 1.695676664398976E9, 0.0, 2023-09-25 16:17:44.398
234.0, -187500.02235174447, 8834.079961071011, -14607.289684687816, -31835.142592804743, -13003.19439210825, -31322.952368611383, -187500.02235174447, -39088.44013076307, -8088.939856164438, -8914.412130643384, -43333.103458059246, -40552.43468909677, -29352.690798364976, -34692.656659204564, -25737.51965016361, -33006.19518830719, 0.004, 0.964, 0.318, 192.0, 0.0, 0.0, 0.0, 0.0, 0.0, 0.0, 0.0, 0.0, 0.0, 1.695676664398979E9, 0.0, 2023-09-25 16:17:44.398
236.0, -187500.02235174447, 8834.772865149125, -14597.857248527676, -31828.414717723696, -12992.24203732515, -31331.781307671226, -187500.02235174447, -39079.83470914778, -8080.513248504788, -8912.400473642407, -43333.90812085964, -40552.41233735232, -29357.85405133415, -34693.930708638516, -25740.738301365174, -33001.00958359356, 0.004, 0.964, 0.318, 192.0, 0.0, 0.0, 0.0, 0.0, 0.0, 0.0, 0.0, 0.0, 0.0, 1.695676664398982E9, 0.0, 2023-09-25 16:17:44.398
238.0, -187500.02235174447, 8838.304440773063, -14594.258617670372, -31834.24852302653, -12993.42667978128, -31321.946540110894, -187500.02235174447, -39087.389598773676, -8095.488917289844, -8910.52292710816, -43325.14623703316, -40544.298654115046, -29350.254458219348, -34695.16005458356, -25728.981283781683, -33015.02412736704, 0.004, 0.964, 0.318, 192.0, 0.0, 0.0, 0.0, 0.0, 0.0, 0.0, 0.0, 0.0, 0.0, 1.695676664398986E9, 0.0, 2023-09-25 16:17:44.398
240.0, -187500.02235174447, 8850.553196734572, -14589.31888214575, -31830.91811310269, -12992.443203025246, -31329.993168114805, -187500.02235174447, -39085.06501735032, -8073.628911212553, -8900.218772914264, -43323.20163526555, -40537.92840694528, -29344.979446527894, -34686.95696436846, -25726.589647124965, -33005.81520865145, -0.022, 0.96, 0.322, 192.0, 127.5, 40.0, 15.0, 0.0, 5.0, 8.0, 0.0, 0.0, 0.0, 1.695676664398989E9, 0.0, 2023-09-25 16:17:44.398
242.0, -187500.02235174447, 8829.453149968762, -14604.853344542187, -31851.995808124044, -13011.6209997679, -31328.562656469665, -187500.02235174447, -39099.683058224095, -8098.975789424871, -8904.532659594139, -43326.889673100675, -40542.4211075808, -29344.308894194233, -34694.64596446109, -25732.445804172257, -33026.35646180588, -0.022, 0.96, 0.322, 192.0, 0.0, 0.0, 0.0, 0.0, 0.0, 0.0, 0.0, 0.0, 0.0, 1.695676664398992E9, 0.0, 2023-09-25 16:17:44.398
244.0, -187500.02235174447, 8827.732065645703, -14596.359681649172, -31845.647912698736, -13000.713348473711, -31327.936807624916, -187500.02235174447, -39080.54996497035, -8065.291710530724, -8917.29550567812, -43334.153990048646, -40555.13925017587, -29352.824908831706, -34706.380630300126, -25737.072615274505, -32999.13203705932, -0.022, 0.96, 0.322, 192.0, 0.0, 0.0, 0.0, 0.0, 0.0, 0.0, 0.0, 0.0, 0.0, 1.695676664398996E9, 0.0, 2023-09-25 16:17:44.398
246.0, -187500.02235174447, 8838.304440773063, -14581.048736697287, -31836.193124794143, -12988.531647745569, -31319.599606943088, -187500.02235174447, -39058.82406935979, -8103.26732436029, -8902.789223526624, -43326.48734170048, -40541.68350001377, -29346.119385495116, -34688.92391788053, -25709.37880389438, -33015.51586574505, -0.022, 0.96, 0.322, 192.0, 0.0, 0.0, 0.0, 0.0, 0.0, 0.0, 0.0, 0.0, 0.0, 1.695676664398999E9, 0.0, 2023-09-25 16:17:44.398
248.0, -187500.02235174447, 8833.923498859824, -14588.871847256643, -31846.40787201022, -12994.47721177068, -31314.61516792955, -187500.02235174447, -39085.57910747279, -8073.584207723643, -8896.24016240122, -43319.87122534171, -40534.59799702144, -29341.358463926135, -34685.07941783422, -25707.61301608241, -33006.75398191858, -0.022, 0.96, 0.322, 192.0, 0.0, 0.0, 0.0, 0.0, 0.0, 0.0, 0.0, 0.0, 0.0, 1.695676664399002E9, 0.0, 2023-09-25 16:17:44.399
250.0, -187500.02235174447, 8822.501757443162, -14588.111887945162, -31849.291247044952, -12995.013653637607, -31319.309034265167, -187500.02235174447, -39084.88620339468, -8105.323684850179, -8905.225563672253, -43331.650594669656, -40543.941026203756, -29349.405091930046, -34693.59543247169, -25712.66451032931, -33025.70826121667, -0.038, 0.9520000000000001, 0.326, 192.0, 127.0, 104.0, 14.5, 96.0, 5.0, 24.0, 0.0, 0.0, 0.0, 1.695676664399006E9, 0.0, 2023-09-25 16:17:44.399
252.0, -187500.02235174447, 8820.735969631192, -14596.359681649172, -31858.25429657153, -13002.210915352216, -31323.377051756033, -187500.02235174447, -39082.36045627123, -8073.539504234733, -8918.122520222965, -43330.64476616916, -40548.053747183534, -29348.265152962824, -34703.27373782083, -25714.631463841375, -33003.378868505824, -0.038, 0.9520000000000001, 0.326, 192.0, 0.0, 0.0, 0.0, 0.0, 0.0, 0.0, 0.0, 0.0, 0.0, 1.69567666439901E9, 0.0, 2023-09-25 16:17:44.399
254.0, -187500.02235174447, 8829.564908691038, -14584.870884999144, -31850.16296507871, -12994.276046070581, -31323.019423844748, -187500.02235174447, -39082.203994060044, -8115.158452410514, -8907.371331139962, -43336.65738542764, -40544.36570934841, -29345.001798272348, -34693.215452815944, -25712.66451032931, -33036.57120902195, -0.038, 0.9520000000000001, 0.326, 192.0, 0.0, 0.0, 0.0, 0.0, 0.0, 0.0, 0.0, 0.0, 0.0, 1.695676664399013E9, 0.0, 2023-09-25 16:17:44.399
0.0, -187500.02235174447, 8829.31903950203, -14593.789231036812, -31858.030779126977, -13003.373206063892, -31321.47715347733, -187500.02235174447, -39096.24088957797, -8072.287806545235, -8912.825156787057, -43329.50482720195, -40540.9682441912, -29346.924048295507, -34700.16684534155, -25713.871504529896, -33006.97749936313, -0.038, 0.9520000000000001, 0.326, 192.0, 0.0, 0.0, 0.0, 0.0, 0.0, 0.0, 0.0, 0.0, 0.0, 1.695676664399017E9, 0.0, 2023-09-25 16:17:44.399
2.0, -187500.02235174447, 8818.187870763288, -14597.790193294311, -31859.260125072018, -13008.201182866238, -31335.558752484176, -187500.02235174447, -39101.33708731378, -8101.501536548321, -8923.688104592336, -43346.805077410354, -40557.6202938104, -29362.257344991845, -34714.4943135374, -25729.98711228217, -33018.80157217998, -0.038, 0.9520000000000001, 0.326, 192.0, 0.0, 0.0, 0.0, 0.0, 0.0, 0.0, 0.0, 0.0, 0.0, 1.695676664399021E9, 0.0, 2023-09-25 16:17:44.399
4.0, -187500.02235174447, 8831.285993014097, -14585.854361755177, -31840.64112194075, -12994.611322237412, -31324.874618634538, -187500.02235174447, -39095.145654099666, -8077.495763003321, -8912.020493986665, -43337.663213928136, -40547.45025008324, -29354.456586176944, -34703.40784828757, -25721.00171101114, -33010.03968835351, -0.038, 0.9520000000000001, 0.33, 192.0, 127.0, 104.0, 14.5, 96.0, 5.0, 40.0, 0.0, 0.0, 0.0, 1.695676664399024E9, 0.0, 2023-09-25 16:17:44.399
6.0, -187500.02235174447, 8838.192682050787, -14585.832010010721, -31837.82480213938, -12995.661854226812, -31331.91541813796, -187500.02235174447, -39093.20105233205, -8111.068083175192, -8897.625970557448, -43330.98004233599, -40532.65339525383, -29353.070778020716, -34688.94626962498, -25714.922036519296, -33041.689758502216, -0.038, 0.9520000000000001, 0.33, 192.0, 0.0, 0.0, 0.0, 0.0, 0.0, 0.0, 0.0, 0.0, 0.0, 1.695676664399027E9, 0.0, 2023-09-25 16:17:44.399
8.0, -187500.02235174447, 8827.217975523232, -14593.118678703151, -31839.03179633997, -12993.203162336727, -31314.123429551535, -187500.02235174447, -39069.99994158744, -8076.177010080459, -8909.964133496778, -43327.47081845651, -40538.2189796232, -29354.90362106605, -34696.031772617316, -25716.777231309086, -33020.72382220314, -0.038, 0.9520000000000001, 0.33, 192.0, 0.0, 0.0, 0.0, 0.0, 0.0, 0.0, 0.0, 0.0, 0.0, 1.695676664399031E9, 0.0, 2023-09-25 16:17:44.399
10.0, -187500.02235174447, 8835.152844804865, -14587.150762933585, -31831.8121828809, -12988.017557623096, -31325.16519131246, -187500.02235174447, -39073.28564802237, -8100.294542347735, -8905.806709028091, -43338.60198719525, -40541.86231396942, -29360.737426368887, -34692.522548737834, -25715.61494059741, -33024.993005394106, -0.038, 0.9520000000000001, 0.33, 192.0, 0.0, 0.0, 0.0, 0.0, 0.0, 0.0, 0.0, 0.0, 0.0, 1.695676664399034E9, 0.0, 2023-09-25 16:17:44.399
12.0, -187500.02235174447, 8827.642658667883, -14601.210010195973, -31845.290284787454, -13004.28962758656, -31314.659871418462, -187500.02235174447, -39097.11260761173, -8085.721204962874, -8912.266363175675, -43332.16468479213, -40543.15871514782, -29358.591658901176, -34697.61874647364, -25718.073632487492, -33018.622758224345, -0.038, 0.9520000000000001, 0.33, 192.0, 0.0, 0.0, 0.0, 0.0, 0.0, 0.0, 0.0, 0.0, 0.0, 1.695676664399037E9, 0.0, 2023-09-25 16:17:44.399
14.0, -187500.02235174447, 8836.561004705549, -14587.284873400316, -31828.39236597924, -12988.039909367551, -31328.2944355362, -187500.02235174447, -39074.582049200784, -8101.4121295705, -8914.09920622101, -43347.229760555005, -40549.77483150659, -29373.880252108607, -34701.70911570896, -25724.645045357353, -33017.01343262356, -0.026000000000000002, 0.96, 0.334, 192.0, 127.5, 24.0, 15.0, 0.0, 5.0, 56.0, 0.0, 0.0, 0.0, 1.69567666439904E9, 0.0, 2023-09-25 16:17:44.399
16.0, -187500.02235174447, 8842.551272219573, -14584.580312321224, -31824.704328144115, -12993.292569314548, -31314.414002229456, -187500.02235174447, -39082.6733806936, -8097.6793882464635, -8903.90681074939, -43333.28227201489, -40535.626177266386, -29361.497385680366, -34692.388438271104, -25711.189295195258, -33019.56153149146, -0.026000000000000002, 0.96, 0.334, 192.0, 0.0, 0.0, 0.0, 0.0, 0.0, 0.0, 0.0, 0.0, 0.0, 1.695676664399045E9, 0.0, 2023-09-25 16:17:44.399
18.0, -187500.02235174447, 8837.969164606235, -14586.323748388739, -31830.40402298022, -13001.518011274102, -31321.454801732878, -187500.02235174447, -39096.08442736679, -8093.7454812223295, -8906.499613106205, -43339.898388373666, -40540.1188779019, -29367.15237702756, -34694.24363306089, -25715.011443497115, -33011.291386043, -0.026000000000000002, 0.96, 0.334, 192.0, 0.0, 0.0, 0.0, 0.0, 0.0, 0.0, 0.0, 0.0, 0.0, 1.695676664399048E9, 0.0, 2023-09-25 16:17:44.399
20.0, -187500.02235174447, 8839.578490207015, -14580.668757041545, -31821.35156647582, -12997.964083905708, -31314.10107780708, -187500.02235174447, -39084.28270629438, -8088.135193364048, -8914.792110299124, -43341.284196529894, -40548.16550590581, -29370.751007884865, -34702.871406420636, -25719.548847621543, -32997.656821925266, -0.026000000000000002, 0.96, 0.334, 192.0, 0.0, 0.0, 0.0, 0.0, 0.0, 0.0, 0.0, 0.0, 0.0, 1.695676664399052E9, 0.0, 2023-09-25 16:17:44.399
22.0, -187500.02235174447, 8837.477426228217, -14570.02932668082, -31809.482790170052, -12988.28577855656, -31323.757031411773, -187500.02235174447, -39066.893049108156, -8095.22069635638, -8908.24304917372, -43340.77010640742, -40536.92257844479, -29371.734484640896, -34697.32817379572, -25711.345757406445, -32996.740400402596, -0.026000000000000002, 0.96, 0.334, 192.0, 0.0, 0.0, 0.0, 0.0, 0.0, 0.0, 0.0, 0.0, 0.0, 1.695676664399055E9, 0.0, 2023-09-25 16:17:44.399
24.0, -187500.02235174447, 8849.36855427844, -14562.988527177398, -31803.04548776692, -12979.345080774438, -31307.2390922593, -187500.02235174447, -39060.947485083045, -8114.778472754774, -8895.99429321221, -43327.49317020097, -40522.34924105993, -29358.681065879, -34679.71499916494, -25696.07951594347, -33016.38758377881, -0.014, 0.966, 0.342, 192.0, 127.5, 72.0, 15.0, 24.0, 5.0, 88.0, 0.0, 0.0, 0.0, 1.695676664399058E9, 0.0, 2023-09-25 16:17:44.399
26.0, -187500.02235174447, 8853.235406069209, -14567.637690024101, -31813.036717538445, -12982.7648976761, -31318.14674355349, -187500.02235174447, -39064.1214327957, -8098.50640279131, -8894.899057733901, -43329.124847546205, -40522.326889315475, -29358.94928681246, -34679.603240442666, -25695.297204887534, -33011.53725523201, -0.014, 0.966, 0.342, 192.0, 0.0, 0.0, 0.0, 0.0, 0.0, 0.0, 0.0, 0.0, 0.0, 1.695676664399062E9, 0.0, 2023-09-25 16:17:44.399
28.0, -187500.02235174447, 8836.69511517228, -14577.60656805117, -31823.050299054423, -12989.85040066843, -31310.591853927595, -187500.02235174447, -39060.947485083045, -8105.100167405626, -8901.246953159209, -43332.99169933697, -40525.12085737239, -29363.19611825897, -34688.83451090271, -25700.37105087889, -33014.4429820112, -0.014, 0.966, 0.342, 192.0, 0.0, 0.0, 0.0, 0.0, 0.0, 0.0, 0.0, 0.0, 0.0, 1.695676664399065E9, 0.0, 2023-09-25 16:17:44.399
30.0, -187500.02235174447, 8834.996382593677, -14581.652233797578, -31825.531342688962, -12985.827086666475, -31315.643348174497, -187500.02235174447, -39076.884278879676, -8090.772699209774, -8905.806709028091, -43337.9761383505, -40528.18304636276, -29366.973563071915, -34687.851034146675, -25710.09405971695, -33000.18256904872, -0.014, 0.966, 0.342, 192.0, 0.0, 0.0, 0.0, 0.0, 0.0, 0.0, 0.0, 0.0, 0.0, 1.695676664399068E9, 0.0, 2023-09-25 16:17:44.399
32.0, -187500.02235174447, 8821.540632431583, -14590.74939379089, -31837.869505628292, -12994.074880370485, -31308.423734715434, -187500.02235174447, -39060.27693274939, -8105.726016250374, -8915.283848677142, -43343.8322953978, -40536.83317146697, -29373.835548619696, -34699.85392091917, -25718.073632487492, -33003.937662117205, -0.014, 0.966, 0.342, 192.0, 0.0, 0.0, 0.0, 0.0, 0.0, 0.0, 0.0, 0.0, 0.0, 1.695676664399072E9, 0.0, 2023-09-25 16:17:44.399
34.0, -187500.02235174447, 8837.522129717128, -14594.236265925916, -31839.791755651448, -12989.604531479423, -31311.709441150364, -187500.02235174447, -39075.74433991246, -8086.861143930095, -8904.398549127407, -43348.414403011135, -40532.07224989799, -29371.80153987426, -34684.34181026719, -25715.838458041962, -32994.66168816825, -0.006, 0.9560000000000001, 0.35000000000000003, 192.0, 127.5, 104.0, 14.5, 112.0, 5.0, 120.0, 0.0, 0.0, 0.0, 1.695676664399076E9, 0.0, 2023-09-25 16:17:44.399
36.0, -187500.02235174447, 8823.217013265732, -14614.755167335888, -31873.654648501237, -12998.321711816992, -31318.034984831214, -187500.02235174447, -39088.50718599644, -8118.377103612078, -8891.032205943133, -43354.31526354734, -40530.239406852656, -29375.355467242658, -34684.72178992293, -25726.589647124965, -33018.48864775761, -0.006, 0.9560000000000001, 0.35000000000000003, 192.0, 0.0, 0.0, 0.0, 0.0, 0.0, 0.0, 0.0, 0.0, 0.0, 1.695676664399079E9, 0.0, 2023-09-25 16:17:44.399
38.0, -187500.02235174447, 8795.657312352338, -14620.74543484991, -31883.958802695135, -12993.739604203654, -31329.210857058868, -187500.02235174447, -39076.68311317958, -8089.02926314226, -8941.502444923217, -43373.04602540088, -40555.25100889814, -29386.285470281302, -34717.064764149756, -25734.837440828975, -32990.75013288857, -0.006, 0.9560000000000001, 0.35000000000000003, 192.0, 0.0, 0.0, 0.0, 0.0, 0.0, 0.0, 0.0, 0.0, 0.0, 1.695676664399083E9, 0.0, 2023-09-25 16:17:44.399
40.0, -187500.02235174447, 8768.991681217156, -14626.42277794156, -31892.899500477255, -12998.38876705036, -31325.209894801366, -187500.02235174447, -39069.77642414289, -8133.397475886045, -8939.759008855703, -43372.19665911158, -40547.45025008324, -29377.56828994373, -34705.21833958845, -25723.549809879045, -33021.5955402369, -0.006, 0.9560000000000001, 0.35000000000000003, 192.0, 0.0, 0.0, 0.0, 0.0, 0.0, 0.0, 0.0, 0.0, 0.0, 1.695676664399086E9, 0.0, 2023-09-25 16:17:44.399
42.0, -187500.02235174447, 8763.850779992435, -14628.054455286796, -31894.754695267045, -12994.745432704143, -31323.399403500487, -187500.02235174447, -39077.73364516898, -8105.904830206017, -8949.504369438217, -43373.31424633435, -40550.17716290679, -29373.2320515194, -34704.547787254785, -25727.640179114365, -33001.993060349596, -0.006, 0.9560000000000001, 0.35000000000000003, 192.0, 0.0, 0.0, 0.0, 0.0, 0.0, 0.0, 0.0, 0.0, 0.0, 1.695676664399089E9, 0.0, 2023-09-25 16:17:44.399
44.0, -187500.02235174447, 8718.454387003707, -14645.265298517383, -31911.94318675318, -13001.093328129451, -31337.279836807233, -187500.02235174447, -39091.703485453545, -8142.718153323907, -8969.956215614822, -43387.75347325247, -40569.48907011617, -29380.988106845394, -34717.22122636095, -25734.5245164066, -33025.93177866123, -0.002, 0.91, 0.356, 192.0, 127.5, 120.0, 14.0, 56.0, 5.5, 16.0, 0.0, 0.0, 0.0, 1.695676664399093E9, 0.0, 2023-09-25 16:17:44.399
46.0, -187500.02235174447, 8694.806241369992, -14659.257490546404, -31907.07050646192, -13003.373206063892, -31352.277857336743, -187500.02235174447, -39106.61209900524, -8124.188557170458, -8998.432338050883, -43399.71165653606, -40586.230526713196, -29386.66544993704, -34733.22507539095, -25745.94625782326, -33024.68008097173, -0.002, 0.91, 0.356, 192.0, 0.0, 0.0, 0.0, 0.0, 0.0, 0.0, 0.0, 0.0, 0.0, 1.695676664399096E9, 0.0, 2023-09-25 16:17:44.399
48.0, -187500.02235174447, 8657.456476385174, -14681.408069301615, -31918.156971711753, -13017.700674259744, -31361.509127796788, -187500.02235174447, -39118.4361718221, -8167.103906524648, -9020.940544717378, -43419.98468875703, -40606.72707637872, -29397.751915186873, -34749.51949709887, -25758.038551573583, -33054.56436330848, -0.002, 0.91, 0.356, 192.0, 0.0, 0.0, 0.0, 0.0, 0.0, 0.0, 0.0, 0.0, 0.0, 1.695676664399099E9, 0.0, 2023-09-25 16:17:44.399
50.0, -187500.02235174447, 8638.502197087073, -14688.582979271769, -31918.581654856403, -13017.790081237565, -31360.54800278521, -187500.02235174447, -39125.94635795908, -8143.388705657567, -9038.956050748355, -43428.76892432796, -40617.09828580598, -29399.76357218785, -34758.862526281184, -25765.302868521558, -33038.471107300655, -0.002, 0.91, 0.356, 192.0, 0.0, 0.0, 0.0, 0.0, 0.0, 0.0, 0.0, 0.0, 0.0, 1.695676664399103E9, 0.0, 2023-09-25 16:17:44.399
52.0, -187500.02235174447, 8618.542089288485, -14699.177706143584, -31926.404765415762, -13025.00969469663, -31376.238927392835, -187500.02235174447, -39121.45365732356, -8176.670453151519, -9045.058076984653, -43444.16927625767, -40630.129352823424, -29406.737316457908, -34762.371750160666, -25775.24939480417, -33067.17074718127, -0.002, 0.91, 0.356, 192.0, 0.0, 0.0, 0.0, 0.0, 0.0, 0.0, 0.0, 0.0, 0.0, 1.695676664399106E9, 0.0, 2023-09-25 16:17:44.399
54.0, -187500.02235174447, 8624.219432380132, -14707.537258569868, -31928.192904972188, -13035.6267733129, -31370.136901156537, -187500.02235174447, -39131.98132896201, -8149.08840049367, -9058.804399824667, -43448.57256991536, -40637.751297682684, -29409.777153703828, -34770.954820031504, -25785.553548998065, -33056.62072379836, -0.002, 0.91, 0.356, 192.0, 0.0, 0.0, 13.5, 120.0, 5.0, 120.0, 0.0, 0.0, 0.0, 1.695676664399109E9, 0.0, 2023-09-25 16:17:44.399
56.0, -187500.02235174447, 8624.599412035872, -14699.021243932397, -31916.50294262206, -13027.624848797901, -31377.289459382235, -187500.02235174447, -39114.32345084232, -8179.240903763879, -9054.222292211329, -43456.12745954126, -40640.92524539534, -29420.14836313109, -34766.573878118266, -25787.855778676963, -33064.93557273574, -0.002, 0.91, 0.356, 192.0, 0.0, 0.0, 0.0, 0.0, 0.0, 0.0, 0.0, 0.0, 0.0, 1.695676664399113E9, 0.0, 2023-09-25 16:17:44.399
58.0, -187500.02235174447, 8614.161147375244, -14705.369139357703, -31920.74977406857, -13038.130168691894, -31363.63254352004, -187500.02235174447, -39130.6849277836, -8162.946482055961, -9057.955033535365, -43441.822343089865, -40635.85139940398, -29413.085211883215, -34764.517517628374, -25783.05015361907, -33055.36902610886, -0.002, 0.91, 0.356, 192.0, 0.0, 0.0, 0.0, 0.0, 0.0, 0.0, 0.0, 0.0, 0.0, 1.695676664399116E9, 0.0, 2023-09-25 16:17:44.399
60.0, -187500.02235174447, 8636.289374385999, -14680.871627434688, -31897.45925634614, -13018.125357404395, -31380.865738495082, -187500.02235174447, -39120.26901486743, -8185.678206167007, -9050.422495653927, -43450.003081560506, -40638.37714652743, -29420.126011386637, -34761.00829374889, -25785.933528653804, -33065.248497158114, -0.002, 0.91, 0.356, 192.0, 0.0, 0.0, 0.0, 0.0, 0.0, 0.0, 0.0, 0.0, 0.0, 1.695676664399121E9, 0.0, 2023-09-25 16:17:44.399
62.0, -187500.02235174447, 8623.481824813107, -14680.558703012313, -31899.917948236223, -13029.122415676406, -31362.246735363813, -187500.02235174447, -39134.19415166308, -8170.121392026114, -9044.342821162083, -43430.53471213993, -40629.168227811846, -29407.16199960256, -34754.63804657913, -25773.751827925662, -33063.013322712584, -0.002, 0.91, 0.356, 192.0, 0.0, 0.0, 0.0, 0.0, 0.0, 0.0, 0.0, 0.0, 0.0, 1.695676664399124E9, 0.0, 2023-09-25 16:17:44.399
64.0, -187500.02235174447, 8619.838490466893, -14677.183589599561, -31895.469951089617, -13027.513090075623, -31383.570299574174, -187500.02235174447, -39137.8374860093, -8177.788040374285, -9053.954071277865, -43443.52107566847, -40639.360623283465, -29420.5953980202, -34766.23860195144, -25788.57103449953, -33061.58281106744, 0.006, 0.91, 0.332, 192.0, 0.0, 24.0, 14.0, 56.0, 5.0, 48.0, 0.0, 0.0, 0.0, 1.695676664399127E9, 0.0, 2023-09-25 16:17:44.399
66.0, -187500.02235174447, 8651.197987937689, -14662.967880125987, -31876.806244469437, -13015.085520158473, -31367.857023222095, -187500.02235174447, -39094.296287810364, -8172.021290304815, -9042.688792072391, -43428.16542722767, -40629.637614445404, -29409.10660137017, -34755.77798554635, -25775.20469131526, -33057.24657264311, 0.006, 0.91, 0.332, 192.0, 0.0, 0.0, 0.0, 0.0, 0.0, 0.0, 0.0, 0.0, 0.0, 1.695676664399131E9, 0.0, 2023-09-25 16:17:44.399
68.0, -187500.02235174447, 8658.372897907842, -14661.336202780749, -31875.755712480037, -13019.175889393795, -31380.128130928057, -187500.02235174447, -39121.99009919049, -8171.820124604717, -9028.07075119862, -43423.18098821414, -40616.71830615024, -29406.96083390246, -34748.91599999857, -25774.668249448332, -33063.90739249079, 0.006, 0.91, 0.332, 192.0, 0.0, 0.0, 0.0, 0.0, 0.0, 0.0, 0.0, 0.0, 0.0, 1.695676664399135E9, 0.0, 2023-09-25 16:17:44.399
70.0, -187500.02235174447, 8658.864636285858, -14649.84740613072, -31866.479738531085, -13019.913496960819, -31355.049473649204, -187500.02235174447, -39104.89101468218, -8172.490676938377, -9030.64120181098, -43418.10714222278, -40617.813541628544, -29407.63138623612, -34748.670130809565, -25773.282441292104, -33064.95792448019, 0.006, 0.91, 0.332, 192.0, 0.0, 0.0, 0.0, 0.0, 0.0, 0.0, 0.0, 0.0, 0.0, 1.695676664399138E9, 0.0, 2023-09-25 16:17:44.399
72.0, -187500.02235174447, 8651.689726315704, -14644.192414783529, -31865.406854797227, -13022.52865106209, -31369.98043894535, -187500.02235174447, -39119.240834622484, -8161.918301811016, -9030.015352966233, -43417.16836895566, -40621.099248063474, -29412.861694438663, -34748.8489447652, -25781.373772784922, -33047.568267293966, 0.006, 0.91, 0.332, 192.0, 0.0, 0.0, 0.0, 0.0, 0.0, 0.0, 0.0, 0.0, 0.0, 1.695676664399141E9, 0.0, 2023-09-25 16:17:44.399
74.0, -187500.02235174447, 8670.442839913707, -14631.071940788263, -31854.342741291854, -13016.605438781435, -31367.320581355165, -187500.02235174447, -39125.87930272571, -8167.886217580583, -9032.049361711664, -43412.07217121985, -40624.89904462088, -29412.079383382727, -34750.79354653282, -25784.86064491995, -33049.244648128115, 0.006, 0.9520000000000001, 0.312, 192.0, 0.0, 24.0, 14.5, 96.0, 4.5, 96.0, 0.0, 0.0, 0.0, 1.695676664399144E9, 0.0, 2023-09-25 16:17:44.399
76.0, -187500.02235174447, 8678.645930128805, -14636.145786779618, -31855.68384595917, -13024.808528996531, -31369.332238356143, -187500.02235174447, -39136.3399191308, -8147.2779091927905, -9016.514899315227, -43397.23061290153, -40614.125503793424, -29400.098848354683, -34743.79745051831, -25784.4359617753, -33044.751947492594, 0.006, 0.9520000000000001, 0.312, 192.0, 0.0, 0.0, 0.0, 0.0, 0.0, 0.0, 0.0, 0.0, 0.0, 1.695676664399148E9, 0.0, 2023-09-25 16:17:44.399
78.0, -187500.02235174447, 8696.259104759587, -14628.434434942537, -31848.933619133666, -13023.646238284855, -31358.715159739873, -187500.02235174447, -39125.36521260324, -8163.527627411799, -9001.203954363342, -43391.15093840968, -40609.230471757706, -29395.29322329679, -34738.030700448835, -25785.464142020242, -33058.90060173281, 0.006, 0.9520000000000001, 0.312, 192.0, 0.0, 0.0, 0.0, 0.0, 0.0, 0.0, 0.0, 0.0, 0.0, 1.695676664399151E9, 0.0, 2023-09-25 16:17:44.399
80.0, -187500.02235174447, 8693.889819847325, -14630.736664621434, -31846.854906899323, -13025.881412730387, -31365.68890400993, -187500.02235174447, -39124.24762538047, -8128.6142025726085, -9001.136899129975, -43389.5416128089, -40612.60558517046, -29397.34958378668, -34739.7517847719, -25793.510770024153, -33030.58094150793, 0.006, 0.9520000000000001, 0.312, 192.0, 0.0, 0.0, 0.0, 0.0, 0.0, 0.0, 0.0, 0.0, 0.0, 1.695676664399154E9, 0.0, 2023-09-25 16:17:44.399
82.0, -187500.02235174447, 8706.92088686477, -14627.696827375512, -31846.83255515487, -13022.618058039912, -31360.570354529664, -187500.02235174447, -39127.846256237775, -8152.217644717413, -8992.039739136666, -43380.17623188213, -40606.54826242307, -29385.279641780813, -34731.36988060115, -25788.861607177452, -33040.840392212915, 0.006, 0.9520000000000001, 0.312, 192.0, 0.0, 0.0, 0.0, 0.0, 0.0, 0.0, 0.0, 0.0, 0.0, 1.695676664399157E9, 0.0, 2023-09-25 16:17:44.399
84.0, -187500.02235174447, 8713.738168923637, -14620.32075170526, -31838.227133539574, -13012.33625559047, -31367.63350577754, -187500.02235174447, -39121.140732901185, -8127.362504883112, -8980.528590742182, -43377.27050510293, -40602.97198331022, -29379.87051962263, -34723.97145318645, -25787.408743787855, -33026.55762750597, 0.002, 0.982, 0.3, 192.0, 0.0, 8.0, 15.0, 88.0, 4.5, 48.0, 0.0, 0.0, 0.0, 1.695676664399161E9, 0.0, 2023-09-25 16:17:44.399
86.0, -187500.02235174447, 8715.682770691248, -14625.394597696615, -31844.59738070934, -13021.902802217342, -31359.83274696264, -187500.02235174447, -39137.03282320891, -8146.205025458936, -8977.354643029528, -43368.24040034299, -40600.04390478658, -29371.130987540604, -34725.55842704278, -25788.05694437706, -33047.97059869416, 0.002, 0.982, 0.3, 192.0, 0.0, 0.0, 0.0, 0.0, 0.0, 0.0, 0.0, 0.0, 0.0, 1.695676664399164E9, 0.0, 2023-09-25 16:17:44.399
88.0, -187500.02235174447, 8733.765331955592, -14624.142900007118, -31842.74218591955, -13018.348874848947, -31364.81718597617, -187500.02235174447, -39137.502209842474, -8106.4636238174, -8968.995090603245, -43362.40659504016, -40599.39570419738, -29368.068798550226, -34720.43987756251, -25797.757601470665, -33030.73740371912, 0.002, 0.982, 0.3, 192.0, 0.0, 0.0, 0.0, 0.0, 0.0, 0.0, 0.0, 0.0, 0.0, 1.695676664399167E9, 0.0, 2023-09-25 16:17:44.399
90.0, -187500.02235174447, 8733.407704044308, -14622.8017953398, -31842.04928184143, -13018.19241263776, -31362.313790597178, -187500.02235174447, -39126.50515157046, -8137.823121288196, -8959.227378276275, -43363.032443884906, -40593.628954127904, -29364.984257815395, -34715.813066460265, -25796.505903781166, -33051.122194662355, 0.002, 0.982, 0.3, 192.0, 0.0, 0.0, 0.0, 0.0, 0.0, 0.0, 0.0, 0.0, 0.0, 1.69567666439917E9, 0.0, 2023-09-25 16:17:44.399
92.0, -187500.02235174447, 8767.382355616373, -14605.903876531587, -31824.458458955105, -12996.757089705121, -31354.44597654891, -187500.02235174447, -39100.1300931132, -8106.217754628391, -8949.169093271386, -43356.86336241524, -40585.13529123489, -29357.339961211677, -34701.15032209758, -25794.427191546823, -33040.81804046846, 0.002, 0.982, 0.3, 192.0, 0.0, 0.0, 0.0, 0.0, 0.0, 0.0, 0.0, 0.0, 0.0, 1.695676664399174E9, 0.0, 2023-09-25 16:17:44.399
94.0, -187500.02235174447, 8757.659346778315, -14620.410158683082, -31847.167831321698, -13015.197278880749, -31347.271066578756, -187500.02235174447, -39117.45269506606, -8143.969851013405, -8933.075837263565, -43348.16853382213, -40572.79712829556, -29344.979446527894, -34691.963755126446, -25781.463179762744, -33076.82670078596, -0.004, 0.984, 0.28400000000000003, 192.0, 127.5, 112.0, 15.0, 96.0, 4.0, 112.0, 0.0, 0.0, 0.0, 1.695676664399177E9, 0.0, 2023-09-25 16:17:44.399
96.0, -187500.02235174447, 8753.948957198734, -14622.354760450693, -31850.766462179003, -13017.633619026377, -31354.15540387099, -187500.02235174447, -39125.812247492344, -8088.671635230975, -8952.790075873147, -43356.43867927059, -40587.32576219151, -29361.497385680366, -34716.5953775162, -25802.473819550734, -33031.81028745297, -0.004, 0.984, 0.28400000000000003, 192.0, 0.0, 0.0, 0.0, 0.0, 0.0, 0.0, 0.0, 0.0, 0.0, 1.69567666439918E9, 0.0, 2023-09-25 16:17:44.399
98.0, -187500.02235174447, 8763.53785557006, -14620.879545316642, -31850.1182615898, -13021.276953372593, -31358.469290550864, -187500.02235174447, -39124.717012014036, -8121.819272258195, -8938.462607677295, -43352.50477224646, -40579.88263128789, -29360.15628101305, -34707.05118263378, -25797.087049137004, -33049.95990395068, -0.004, 0.984, 0.28400000000000003, 192.0, 0.0, 0.0, 0.0, 0.0, 0.0, 0.0, 0.0, 0.0, 0.0, 1.695676664399216E9, 0.0, 2023-09-25 16:17:44.399
100.0, -187500.02235174447, 8780.994567989655, -14611.648274856601, -31838.003616095022, -13010.726929989689, -31351.02615964725, -187500.02235174447, -39118.54793054437, -8092.69494923293, -8932.114712251987, -43339.250187784455, -40573.31121841803, -29354.657751877043, -34703.18433084301, -25791.320299067535, -33034.000758409595, -0.004, 0.984, 0.28400000000000003, 192.0, 0.0, 0.0, 0.0, 0.0, 0.0, 0.0, 0.0, 0.0, 0.0, 1.695676664399219E9, 0.0, 2023-09-25 16:17:44.399
100.0, -187500.02235174447, 8768.9693294727, -14629.03793204283, -31856.510860504015, -13030.396465110358, -31357.910496939483, -187500.02235174447, -39140.854971510766, -8092.69494923293, -8932.114712251987, -43339.250187784455, -40573.31121841803, -29354.657751877043, -34703.18433084301, -25791.320299067535, -33034.000758409595, -0.004, 0.984, 0.28400000000000003, 192.0, 0.0, 0.0, 0.0, 0.0, 0.0, 0.0, 0.0, 0.0, 0.0, 1.695676664399808E9, 0.0, 2023-09-25 16:17:44.399
104.0, -187500.02235174447, 8778.379413888386, -14625.03696978533, -31850.16296507871, -13024.339142362971, -31357.798738217207, -187500.02235174447, -39139.60327382127, -8097.232353357358, -8938.417904188384, -43344.14521982017, -40574.965247507724, -29365.990086315884, -34713.220264103446, -25808.4417353203, -33027.11642111736, -0.02, 0.968, 0.256, 192.0, 127.5, 48.0, 15.0, 32.0, 4.0, 0.0, 0.0, 0.0, 0.0, 1.695676664399812E9, 0.0, 2023-09-25 16:17:44.399
106.0, -187500.02235174447, 8780.994567989655, -14615.828051069744, -31850.095909845342, -13019.689979516266, -31359.855098707092, -187500.02235174447, -39136.5410848309, -8127.541318838754, -8921.564688869083, -43334.86924587122, -40563.565857835514, -29359.195156001468, -34699.89862440808, -25804.53018004062, -33063.3038953905, -0.02, 0.968, 0.256, 192.0, 0.0, 0.0, 0.0, 0.0, 0.0, 0.0, 0.0, 0.0, 0.0, 1.695676664399815E9, 0.0, 2023-09-25 16:17:44.399
108.0, -187500.02235174447, 8788.460050637728, -14619.56079239378, -31860.668284972704, -13027.133110419883, -31352.791947459216, -187500.02235174447, -39148.1416402032, -8094.348978322623, -8929.588965128538, -43325.19094052207, -40568.66205557133, -29353.96484779893, -34708.63815649011, -25811.280406866124, -33052.44094758522, -0.02, 0.968, 0.256, 192.0, 0.0, 0.0, 0.0, 0.0, 0.0, 0.0, 0.0, 0.0, 0.0, 1.695676664399818E9, 0.0, 2023-09-25 16:17:44.399
110.0, -187500.02235174447, 8783.252094179643, -14614.621056869157, -31860.95885765062, -13026.48490983068, -31360.54800278521, -187500.02235174447, -39153.6401693392, -8109.391702341045, -8921.676447591359, -43334.42221098211, -40570.427843383295, -29360.51390892433, -34709.018136145845, -25815.169610401346, -33066.03080821405, -0.02, 0.968, 0.256, 192.0, 0.0, 0.0, 0.0, 0.0, 0.0, 0.0, 0.0, 0.0, 0.0, 1.695676664399822E9, 0.0, 2023-09-25 16:17:44.399
112.0, -187500.02235174447, 8781.59806508995, -14618.197335982006, -31865.11628211931, -13030.284706388082, -31351.652008491998, -187500.02235174447, -39164.88309680022, -8084.491859017833, -8936.71917160978, -43330.935338847084, -40572.573610851, -29361.050350791258, -34725.312557853766, -25822.411575604867, -33045.28838935952, -0.02, 0.968, 0.256, 192.0, 0.0, 0.0, 0.0, 0.0, 0.0, 0.0, 0.0, 0.0, 0.0, 1.695676664399825E9, 0.0, 2023-09-25 16:17:44.399
114.0, -187500.02235174447, 8791.321073928008, -14609.413100411071, -31857.024950626488, -13021.075787672495, -31367.92407845546, -187500.02235174447, -39159.60808510877, -8103.088510404648, -8924.895098792924, -43337.037365083386, -40568.50559336014, -29363.01730430333, -34718.96466242846, -25820.109345925972, -33055.12315691986, -0.034, 0.968, 0.23, 192.0, 127.0, 120.0, 15.0, 32.0, 3.5, 24.0, 0.0, 0.0, 0.0, 1.695676664399828E9, 0.0, 2023-09-25 16:17:44.399
116.0, -187500.02235174447, 8790.315245427519, -14609.390748666616, -31860.757691950526, -13026.127281919395, -31353.753072470794, -187500.02235174447, -39163.921971788644, -8097.545277779732, -8924.649229603914, -43323.13458003218, -40567.902096259844, -29353.38370244309, -34719.00936591737, -25813.739098756207, -33063.37095062387, -0.034, 0.968, 0.23, 192.0, 0.0, 0.0, 0.0, 0.0, 0.0, 0.0, 0.0, 0.0, 0.0, 1.695676664455438E9, 0.0, 2023-09-25 16:17:44.455
116.0, -187500.02235174447, 8753.97130894319, -14686.638377504156, -31870.480700788583, -13000.422775795792, -31324.315825023157, -187500.02235174447, -39082.74043592697, -8097.545277779732, -8924.649229603914, -43323.13458003218, -40567.902096259844, -29353.38370244309, -34719.00936591737, -25813.739098756207, -33063.37095062387, -0.034, 0.968, 0.23, 192.0, 0.0, 0.0, 0.0, 0.0, 0.0, 0.0, 0.0, 0.0, 0.0, 1.695676664455492E9, 0.0, 2023-09-25 16:17:44.455
218.0, -187500.02235174447, 8743.711858238205, -14690.795801972843, -31868.245526343053, -13000.33336881797, -31323.399403500487, -187500.02235174447, -39077.241906790965, -8036.502663672289, -8997.895896183956, -43418.84474978981, -40533.05572665402, -29473.524328890366, -34710.53805476881, -25739.508955420133, -32960.82114706292, -0.034, 0.968, 0.23, 192.0, 0.0, 0.0, 0.0, 0.0, 0.0, 0.0, 0.0, 0.0, 0.0, 1.695676664455498E9, 0.0, 2023-09-25 16:17:44.455
220.0, -187500.02235174447, 8744.293003594043, -14703.513944567912, -31874.861642701824, -13005.340159575959, -31313.899912106983, -187500.02235174447, -39082.04753184885, -8002.952695244872, -9011.373998090507, -43419.67176433466, -40535.760287733116, -29476.765331836385, -34717.82472346124, -25751.310676492536, -32949.73468181308, -0.014, 0.9480000000000001, 0.322, 192.0, 127.5, 72.0, 14.5, 80.0, 5.0, 8.0, 0.0, 0.0, 0.0, 1.695676664455503E9, 0.0, 2023-09-25 16:17:44.455
222.0, -187500.02235174447, 8749.210387374209, -14699.58003754378, -31869.65368624374, -13001.629769996378, -31324.76285991226, -187500.02235174447, -39081.712255682025, -8043.141131775515, -9007.484794555283, -43427.271357449456, -40539.00129067914, -29476.07242775827, -34712.527360025335, -25748.382597968888, -32985.117493285834, -0.014, 0.9480000000000001, 0.322, 192.0, 0.0, 0.0, 0.0, 0.0, 0.0, 0.0, 0.0, 0.0, 0.0, 1.695676664455508E9, 0.0, 2023-09-25 16:17:44.455
224.0, -187500.02235174447, 8747.757523984614, -14699.937665455063, -31864.132805363275, -13003.842592697454, -31313.609339429062, -187500.02235174447, -39079.79000565887, -8007.177174946925, -9008.8258992226, -43417.771866055955, -40537.48137205617, -29478.285250459347, -34714.0919821372, -25754.171699782815, -32971.86290882384, -0.014, 0.9480000000000001, 0.322, 192.0, 0.0, 0.0, 0.0, 0.0, 0.0, 0.0, 0.0, 0.0, 0.0, 1.695676664455512E9, 0.0, 2023-09-25 16:17:44.455
226.0, -187500.02235174447, 8753.59132928745, -14697.613084031713, -31863.05992162942, -12998.008787394618, -31325.433412245922, -187500.02235174447, -39079.43237774758, -8027.271393212247, -9010.122300401008, -43420.61053760177, -40535.760287733116, -29480.07339001577, -34715.947176926995, -25752.696484648764, -32971.281763468, -0.014, 0.9480000000000001, 0.322, 192.0, 0.0, 0.0, 0.0, 0.0, 0.0, 0.0, 0.0, 0.0, 0.0, 1.695676664455515E9, 0.0, 2023-09-25 16:17:44.455
228.0, -187500.02235174447, 8761.325032868986, -14693.947397941041, -31855.236811070063, -12994.365453048404, -31319.219627287344, -187500.02235174447, -39080.41585450362, -8008.764148803252, -9005.339027087573, -43406.77480778394, -40530.239406852656, -29475.26776495788, -34713.93551992602, -25748.136728779882, -32956.395501660765, -0.014, 0.9480000000000001, 0.322, 192.0, 0.0, 0.0, 0.0, 0.0, 0.0, 0.0, 0.0, 0.0, 0.0, 1.69567666451612E9, 0.0, 2023-09-25 16:17:44.516
230.0, -187500.02235174447, 8755.267710121598, -14689.81232521681, -31855.482680259072, -12987.659929711812, -31332.76478442726, -187500.02235174447, -39080.3264475258, -8033.842806082107, -9005.920172443412, -43409.76994154095, -40531.44640105324, -29478.88874755964, -34713.443781548, -25751.690656148276, -32972.62286813532, -0.002, 0.9540000000000001, 0.324, 192.0, 127.5, 120.0, 14.5, 104.0, 5.0, 16.0, 0.0, 0.0, 0.0, 1.695676664516134E9, 0.0, 2023-09-25 16:17:44.516
232.0, -187500.02235174447, 8758.955747956723, -14689.588807772257, -31855.750901192536, -12987.347005289437, -31322.1924092999, -187500.02235174447, -39080.43820624807, -8017.593087863099, -9008.557678289137, -43401.85742400377, -40528.1159911294, -29469.478663143953, -34713.53318852582, -25745.342760722968, -32966.677304110206, -0.002, 0.9540000000000001, 0.324, 192.0, 0.0, 0.0, 0.0, 0.0, 0.0, 0.0, 0.0, 0.0, 0.0, 1.695676664516138E9, 0.0, 2023-09-25 16:17:44.516
234.0, -187500.02235174447, 8769.058736450523, -14679.686984978556, -31845.35734002082, -12979.210970307706, -31340.945522897902, -187500.02235174447, -39070.08934856526, -8034.334544460124, -9006.009579421232, -43408.2947264069, -40531.17818011978, -29475.558337635797, -34711.70034548049, -25748.784929369085, -32975.349780958866, -0.002, 0.9540000000000001, 0.324, 192.0, 0.0, 0.0, 0.0, 0.0, 0.0, 0.0, 0.0, 0.0, 0.0, 1.695676664516141E9, 0.0, 2023-09-25 16:17:44.516
236.0, -187500.02235174447, 8744.561224527506, -14689.857028705721, -31859.34953204984, -12998.411118794815, -31319.4431447319, -187500.02235174447, -39084.34976152775, -8028.791311835207, -9001.248657852251, -43395.174252411634, -40522.2151305932, -29464.091892730226, -34706.31357506676, -25734.882144317886, -32985.117493285834, -0.002, 0.9540000000000001, 0.324, 192.0, 0.0, 0.0, 0.0, 0.0, 0.0, 0.0, 0.0, 0.0, 0.0, 1.695676664516144E9, 0.0, 2023-09-25 16:17:44.516
238.0, -187500.02235174447, 8762.040288691556, -14673.674365720079, -31846.050244098933, -12988.822220423488, -31347.427528789944, -187500.02235174447, -39074.80556664534, -8032.099370014593, -9013.206841135841, -43416.92249976665, -40540.54356104655, -29489.014087797892, -34720.73045024043, -25751.176566025802, -32979.84248159439, -0.002, 0.9540000000000001, 0.324, 192.0, 0.0, 0.0, 0.0, 0.0, 0.0, 0.0, 0.0, 0.0, 0.0, 1.695676664516148E9, 0.0, 2023-09-25 16:17:44.516
240.0, -187500.02235174447, 8741.655497748316, -14679.6646332341, -31852.755767435527, -13005.608380509422, -31327.668586691452, -187500.02235174447, -39086.65199120665, -8039.386038707023, -9007.909477699934, -43400.82924375883, -40529.948834174735, -29476.541814391832, -34713.95787167047, -25734.211591984225, -32996.89686261379, 0.002, 0.964, 0.312, 192.0, 0.0, 8.0, 15.0, 16.0, 4.5, 96.0, 0.0, 0.0, 0.0, 1.695676664516151E9, 0.0, 2023-09-25 16:17:44.516
242.0, -187500.02235174447, 8750.506788552617, -14666.924138894576, -31840.015273096, -12994.276046070581, -31339.179735085934, -187500.02235174447, -39072.79390964436, -8036.770884605752, -9011.485756812783, -43411.178101441634, -40532.02754640908, -29487.1588930081, -34717.265929849855, -25739.397196697857, -32987.41972296473, 0.002, 0.964, 0.312, 192.0, 0.0, 0.0, 0.0, 0.0, 0.0, 0.0, 0.0, 0.0, 0.0, 1.695676664516154E9, 0.0, 2023-09-25 16:17:44.516
244.0, -187500.02235174447, 8747.01991641759, -14665.292461549338, -31844.217401053596, -12998.38876705036, -31324.025252345236, -187500.02235174447, -39075.9231538681, -8048.058515555682, -9007.954181188845, -43399.75636002498, -40523.310366071506, -29476.050076013813, -34710.426296046535, -25723.214533712213, -33000.227272537624, 0.002, 0.964, 0.312, 192.0, 0.0, 0.0, 0.0, 0.0, 0.0, 0.0, 0.0, 0.0, 0.0, 1.695676664575995E9, 0.0, 2023-09-25 16:17:44.575
246.0, -187500.02235174447, 8758.06167817851, -14653.289574776838, -31838.316540517397, -12987.235246567161, -31339.29149380821, -187500.02235174447, -39071.89983986614, -8027.025524023238, -9015.620829537014, -43403.91378449366, -40528.205398107224, -29484.4096284401, -34718.76349672836, -25730.680016360286, -32978.14374901578, 0.002, 0.964, 0.312, 192.0, 0.0, 0.0, 0.0, 0.0, 0.0, 0.0, 0.0, 0.0, 0.0, 1.695676664576005E9, 0.0, 2023-09-25 16:17:44.576
248.0, -187500.02235174447, 8754.239529876653, -14649.959164852997, -31841.937523119155, -12990.38684253536, -31328.361490769566, -187500.02235174447, -39075.25260153444, -8051.098352801604, -9007.171870132908, -43394.280182633425, -40519.51056951411, -29473.300811445813, -34710.38159255762, -25719.45944064372, -33001.43426673821, 0.002, 0.964, 0.312, 192.0, 0.0, 0.0, 0.0, 0.0, 0.0, 0.0, 0.0, 0.0, 0.0, 1.695676664576008E9, 0.0, 2023-09-25 16:17:44.576
250.0, -187500.02235174447, 8749.25509086312, -14647.746342151922, -31842.853944641825, -12989.04573786804, -31328.38384251402, -187500.02235174447, -39072.771557899905, -8019.783558819719, -9009.272934111706, -43391.486214576515, -40519.532921258564, -29473.59138412373, -34710.225130346436, -25719.414737154813, -32985.899804341774, -0.016, 0.978, 0.304, 192.0, 127.5, 64.0, 15.0, 72.0, 4.5, 64.0, 0.0, 0.0, 0.0, 1.695676664576012E9, 0.0, 2023-09-25 16:17:44.576
252.0, -187500.02235174447, 8751.177340886277, -14646.606403184702, -31844.575028964882, -12991.035043124562, -31321.544208710697, -187500.02235174447, -39071.18458404358, -8034.356896204579, -9018.794777249668, -43399.73400828052, -40527.69130798475, -29478.68758185954, -34717.265929849855, -25720.28645518857, -32988.29144099849, -0.016, 0.978, 0.304, 192.0, 0.0, 0.0, 0.0, 0.0, 0.0, 0.0, 0.0, 0.0, 0.0, 1.695676664576015E9, 0.0, 2023-09-25 16:17:44.576
254.0, -187500.02235174447, 8751.065582164, -14649.780350897356, -31845.334988276365, -12995.393633293348, -31319.845476132094, -187500.02235174447, -39076.99603760195, -8014.352084917079, -9012.938620202378, -43396.716522779054, -40520.7622672036, -29473.680791101553, -34711.476828035935, -25718.341853420956, -32978.344914715875, -0.016, 0.978, 0.304, 192.0, 0.0, 0.0, 0.0, 0.0, 0.0, 0.0, 0.0, 0.0, 0.0, 1.695676664576018E9, 0.0, 2023-09-25 16:17:44.576
0.0, -187500.02235174447, 8758.374602600885, -14647.500472962915, -31841.11050857431, -12996.377110049381, -31317.230322030824, -187500.02235174447, -39077.8230521468, -8035.787407849719, -9018.59361154957, -43405.612517072266, -40523.84680793843, -29482.800302839318, -34717.91413043906, -25725.60617036893, -32989.63254566581, -0.016, 0.978, 0.304, 192.0, 0.0, 0.0, 0.0, 0.0, 0.0, 0.0, 0.0, 0.0, 0.0, 1.695676664576021E9, 0.0, 2023-09-25 16:17:44.576
2.0, -187500.02235174447, 8766.331823626975, -14655.748266666922, -31842.339854519352, -13003.19439210825, -31311.217702772345, -187500.02235174447, -39083.478043494, -7995.375453874523, -9003.081500897588, -43395.42012160065, -40513.095618855434, -29477.033552769848, -34706.47003727794, -25721.672263344797, -32972.15348150176, -0.016, 0.978, 0.304, 192.0, 0.0, 0.0, 0.0, 0.0, 0.0, 0.0, 0.0, 0.0, 0.0, 1.695676664636506E9, 0.0, 2023-09-25 16:17:44.636
4.0, -187500.02235174447, 8760.185093901766, -14648.483949718948, -31840.596418451838, -12993.38197629237, -31309.407211471465, -187500.02235174447, -39075.9231538681, -8032.30053571469, -9000.198125862853, -43394.30253437788, -40510.45811300971, -29474.77602657986, -34699.11631335215, -25711.189295195258, -32990.90659509976, -0.026000000000000002, 0.972, 0.308, 192.0, 127.5, 24.0, 15.0, 48.0, 4.5, 80.0, 0.0, 0.0, 0.0, 1.695676664636518E9, 0.0, 2023-09-25 16:17:44.636
6.0, -187500.02235174447, 8736.134616867856, -14677.585920999756, -31868.15611936523, -13012.693883501755, -31313.743449895795, -187500.02235174447, -39101.67236348061, -7993.453203851367, -9025.12032093052, -43399.868118747254, -40521.03048813707, -29480.96745979398, -34717.17652287203, -25726.03085351358, -32964.71035059814, -0.026000000000000002, 0.972, 0.308, 192.0, 0.0, 0.0, 0.0, 0.0, 0.0, 0.0, 0.0, 0.0, 0.0, 1.695676664636522E9, 0.0, 2023-09-25 16:17:44.636
8.0, -187500.02235174447, 8741.476683792673, -14679.798743700832, -31869.921907177202, -13005.027235153584, -31326.3945372575, -187500.02235174447, -39090.07180810831, -8032.009963036771, -9035.64799256897, -43420.02939224594, -40538.062517412014, -29490.26578548739, -34727.03364217683, -25737.43024318579, -32985.29630724148, -0.026000000000000002, 0.972, 0.308, 192.0, 0.0, 0.0, 0.0, 0.0, 0.0, 0.0, 0.0, 0.0, 0.0, 1.695676664636525E9, 0.0, 2023-09-25 16:17:44.636
10.0, -187500.02235174447, 8740.82848320347, -14692.338072340259, -31881.79068348297, -13009.631694511378, -31323.935845367414, -187500.02235174447, -39102.8793576812, -8005.567849346144, -9035.7821030357, -43412.00511598648, -40534.93327318827, -29485.50486391841, -34726.51955205436, -25739.330141464492, -32973.98632454709, -0.026000000000000002, 0.972, 0.308, 192.0, 0.0, 0.0, 0.0, 0.0, 0.0, 0.0, 0.0, 0.0, 0.0, 1.695676664636528E9, 0.0, 2023-09-25 16:17:44.636
12.0, -187500.02235174447, 8746.192901872742, -14695.132040397173, -31877.901479947745, -13007.19535436575, -31334.597627472598, -187500.02235174447, -39088.01544761842, -8036.4579601833775, -9032.809321023145, -43419.06826723436, -40538.68836625676, -29490.802227354317, -34727.30186311029, -25741.587667654476, -32990.4372084662, -0.026000000000000002, 0.972, 0.308, 192.0, 0.0, 0.0, 0.0, 0.0, 0.0, 0.0, 0.0, 0.0, 0.0, 1.695676664636531E9, 0.0, 2023-09-25 16:17:44.636
14.0, -187500.02235174447, 8740.426151803274, -14712.320531883304, -31887.06569517442, -13020.606401038935, -31329.501429736785, -187500.02235174447, -39106.50034028296, -8011.513413371255, -9031.781140778201, -43410.708714808075, -40530.48527604166, -29488.6117563977, -34725.670185765055, -25745.320408978514, -32978.32256297142, -0.018000000000000002, 0.9560000000000001, 0.306, 192.0, 127.5, 56.0, 14.5, 112.0, 4.5, 72.0, 0.0, 0.0, 0.0, 1.695676664636535E9, 0.0, 2023-09-25 16:17:44.636
16.0, -187500.02235174447, 8753.412515331807, -14721.551802343345, -31889.34557310886, -13023.713293518222, -31335.759918184274, -187500.02235174447, -39096.71027621154, -8036.055628783182, -9033.949259990366, -43420.05174399039, -40536.63200576687, -29497.731268135463, -34727.52538055484, -25754.48462420519, -32989.319621243434, -0.018000000000000002, 0.9560000000000001, 0.306, 192.0, 0.0, 0.0, 0.0, 0.0, 0.0, 0.0, 0.0, 0.0, 0.0, 1.695676664636538E9, 0.0, 2023-09-25 16:17:44.636
18.0, -187500.02235174447, 8762.621434047394, -14716.05327320734, -31872.604116511837, -13005.47427004269, -31330.596665215096, -187500.02235174447, -39082.606325460234, -8010.507584870767, -9034.21748092383, -43413.435627631625, -40535.626177266386, -29500.36877398119, -34728.55356079979, -25757.32329575101, -32968.75601634455, -0.018000000000000002, 0.9560000000000001, 0.306, 192.0, 0.0, 0.0, 0.0, 0.0, 0.0, 0.0, 0.0, 0.0, 0.0, 1.69567666469669E9, 0.0, 2023-09-25 16:17:44.696
20.0, -187500.02235174447, 8756.1170764109, -14719.942476742564, -31873.31937233441, -13002.52383977459, -31331.378976271033, -187500.02235174447, -39078.65006669165, -8043.275242242246, -9019.934716216889, -43406.573642083844, -40522.17042710429, -29486.1083610187, -34710.89568268009, -25743.219344999714, -33001.36721150485, -0.018000000000000002, 0.9560000000000001, 0.306, 192.0, 0.0, 0.0, 0.0, 0.0, 0.0, 0.0, 0.0, 0.0, 0.0, 1.695676664696699E9, 0.0, 2023-09-25 16:17:44.696
22.0, -187500.02235174447, 8742.817788459992, -14738.181500218094, -31884.83052072889, -13011.084557900973, -31325.925150623938, -187500.02235174447, -39092.061113364834, -8010.954619759873, -9035.69269605788, -43412.87683402024, -40535.42501156629, -29492.70212563302, -34727.07834566574, -25754.395217227368, -32979.97659206112, -0.018000000000000002, 0.9560000000000001, 0.306, 192.0, 0.0, 0.0, 0.0, 0.0, 0.0, 0.0, 0.0, 0.0, 0.0, 1.695676664696703E9, 0.0, 2023-09-25 16:17:44.696
24.0, -187500.02235174447, 8744.069486149489, -14739.76847407442, -31880.382523582284, -13010.346950333947, -31341.549019998198, -187500.02235174447, -39091.435264520085, -8036.547367161199, -9036.69852455837, -43425.97495627105, -40539.045994168046, -29503.60977692721, -34722.13861014111, -25763.62648768741, -32987.62088866483, 0.004, 0.9480000000000001, 0.31, 192.0, 0.0, 16.0, 14.5, 80.0, 4.5, 88.0, 0.0, 0.0, 0.0, 1.695676664696706E9, 0.0, 2023-09-25 16:17:44.696
26.0, -187500.02235174447, 8745.298832094531, -14744.909375299141, -31877.02976191399, -13011.039854412062, -31327.512124480265, -187500.02235174447, -39082.0251801044, -8025.058570511172, -9036.78793153619, -43414.910842765676, -40530.97701441968, -29496.703087890517, -34718.83055196173, -25763.179452798304, -32985.94450783068, 0.004, 0.9480000000000001, 0.31, 192.0, 0.0, 0.0, 0.0, 0.0, 0.0, 0.0, 0.0, 0.0, 0.0, 1.695676664696709E9, 0.0, 2023-09-25 16:17:44.696
28.0, -187500.02235174447, 8740.82848320347, -14743.747084587465, -31877.812072969926, -13008.402348566337, -31343.2477525768, -187500.02235174447, -39090.92117439761, -8034.848634582596, -9039.246623426274, -43424.99147951502, -40535.69323249975, -29503.855646116215, -34720.417525818055, -25764.207633043246, -32986.07861829741, 0.004, 0.9480000000000001, 0.31, 192.0, 0.0, 0.0, 0.0, 0.0, 0.0, 0.0, 0.0, 0.0, 0.0, 1.695676664696712E9, 0.0, 2023-09-25 16:17:44.696
30.0, -187500.02235174447, 8739.666192491793, -14734.96284901653, -31871.01714265551, -13001.406252551826, -31337.570409485154, -187500.02235174447, -39089.55771798584, -8035.072152027149, -9044.275765928718, -43422.28691843592, -40538.95658719022, -29501.642823415143, -34727.39127008811, -25759.96080159674, -32983.016429307034, 0.004, 0.9480000000000001, 0.31, 192.0, 0.0, 0.0, 0.0, 0.0, 0.0, 0.0, 0.0, 0.0, 0.0, 1.695676664696716E9, 0.0, 2023-09-25 16:17:44.696
32.0, -187500.02235174447, 8736.134616867856, -14731.63243909269, -31870.50305253304, -13000.847458940443, -31340.0961566086, -187500.02235174447, -39080.30409578134, -8049.4890272008215, -9030.887070999988, -43419.939985268116, -40529.83707545246, -29495.65255590112, -34709.75574371287, -25753.523499193612, -32996.71804865814, 0.004, 0.9480000000000001, 0.31, 192.0, 0.0, 0.0, 0.0, 0.0, 0.0, 0.0, 0.0, 0.0, 0.0, 1.695676664696719E9, 0.0, 2023-09-25 16:17:44.696
34.0, -187500.02235174447, 8716.107453835899, -14740.282564196894, -31880.94131719367, -13011.173964878793, -31329.792002414706, -187500.02235174447, -39084.79679641686, -8054.987556336828, -9041.817074038634, -43420.83405504633, -40538.889531956855, -29492.389201210644, -34717.37768857213, -25755.84808061696, -32996.36042074685, 0.018000000000000002, 0.962, 0.318, 192.0, 0.0, 72.0, 15.0, 8.0, 4.5, 120.0, 0.0, 0.0, 0.0, 1.695676664756491E9, 0.0, 2023-09-25 16:17:44.756
36.0, -187500.02235174447, 8686.692558132716, -14751.838416080287, -31893.726515022103, -13020.6734562723, -31342.711310709874, -187500.02235174447, -39086.36141852873, -8048.237329511325, -9052.389449165994, -43437.64256687672, -40553.32875887499, -29505.777896139374, -34721.959796185474, -25767.292173778078, -32972.3322954574, 0.018000000000000002, 0.962, 0.318, 192.0, 0.0, 0.0, 0.0, 0.0, 0.0, 0.0, 0.0, 0.0, 0.0, 1.695676664756501E9, 0.0, 2023-09-25 16:17:44.756
38.0, -187500.02235174447, 8659.445781641696, -14745.11054099924, -31891.69250627667, -13008.75997647762, -31343.96300839937, -187500.02235174447, -39075.52082246791, -8072.064289100682, -9071.522542419738, -43453.86993335127, -40574.16058470733, -29504.995585083438, -34732.53217131283, -25766.353400510958, -32977.294382726475, 0.018000000000000002, 0.962, 0.318, 192.0, 0.0, 0.0, 0.0, 0.0, 0.0, 0.0, 0.0, 0.0, 0.0, 1.695676664756505E9, 0.0, 2023-09-25 16:17:44.756
40.0, -187500.02235174447, 8626.387551592297, -14750.25144222396, -31900.342631380874, -13011.308075345527, -31348.411005545975, -187500.02235174447, -39076.23607829047, -8063.145943063015, -9076.79755411119, -43454.58518917384, -40569.55612534954, -29495.898425090127, -34728.73237475543, -25760.117263807926, -32975.841519336886, 0.018000000000000002, 0.962, 0.318, 192.0, 0.0, 0.0, 0.0, 0.0, 0.0, 0.0, 0.0, 0.0, 0.0, 1.695676664756509E9, 0.0, 2023-09-25 16:17:44.756
42.0, -187500.02235174447, 8618.497385799574, -14750.653773624155, -31898.375677868808, -13014.280857358082, -31343.851249677093, -187500.02235174447, -39079.85706089223, -8093.097280633126, -9078.742155878801, -43460.3072357544, -40576.95455276425, -29492.70212563302, -34727.63713927712, -25758.351475995958, -32985.72099038613, 0.018000000000000002, 0.962, 0.318, 192.0, 0.0, 0.0, 0.0, 0.0, 0.0, 0.0, 0.0, 0.0, 0.0, 1.695676664756512E9, 0.0, 2023-09-25 16:17:44.756
44.0, -187500.02235174447, 8613.356484574853, -14750.899642813165, -31890.507863820538, -13013.43149106878, -31350.02033114676, -187500.02235174447, -39078.89593588065, -8080.490896760332, -9069.756754607768, -43459.6590351652, -40574.831137040994, -29490.64576514313, -34723.88204620863, -25762.464196975732, -32984.513996185546, 0.01, 0.97, 0.328, 192.0, 0.0, 40.0, 15.0, 40.0, 5.0, 32.0, 0.0, 0.0, 0.0, 1.695676664756515E9, 0.0, 2023-09-25 16:17:44.756
46.0, -187500.02235174447, 8599.900734412759, -14761.024983051419, -31897.191035412674, -13023.534479562579, -31351.07086313616, -187500.02235174447, -39089.334200541285, -8105.144870894536, -9075.232931999319, -43462.38594798875, -40586.141119735374, -29487.98590755295, -34727.23480787692, -25765.86166213294, -33003.13299931681, 0.01, 0.97, 0.328, 192.0, 0.0, 0.0, 0.0, 0.0, 0.0, 0.0, 0.0, 0.0, 0.0, 1.695676664756519E9, 0.0, 2023-09-25 16:17:44.756
48.0, -187500.02235174447, 8601.599466991362, -14759.39330570618, -31891.580747554395, -13019.399406838347, -31358.335180084134, -187500.02235174447, -39087.90368889614, -8078.009853125794, -9074.60708315457, -43466.16339280169, -40590.0303232706, -29488.4105906976, -34731.325177112245, -25773.863586647938, -32987.95616483166, 0.01, 0.97, 0.328, 192.0, 0.0, 0.0, 0.0, 0.0, 0.0, 0.0, 0.0, 0.0, 0.0, 1.695676664816751E9, 0.0, 2023-09-25 16:17:44.816
50.0, -187500.02235174447, 8601.398301291263, -14750.363200946236, -31884.65170677325, -13019.533517305079, -31354.222459104356, -187500.02235174447, -39087.2778400514, -8112.722112264885, -9069.287367974206, -43466.342206757334, -40584.978829023705, -29481.705067361007, -34725.49137180941, -25769.169720312326, -33011.78312442102, 0.01, 0.97, 0.328, 192.0, 0.0, 0.0, 0.0, 0.0, 0.0, 0.0, 0.0, 0.0, 0.0, 1.695676664816763E9, 0.0, 2023-09-25 16:17:44.816
52.0, -187500.02235174447, 8610.294295584476, -14743.210642720538, -31875.711008991126, -13017.38774983737, -31352.814299203674, -187500.02235174447, -39084.372113272206, -8084.827135184662, -9057.060963757154, -43458.384985731245, -40577.625105097904, -29475.558337635797, -34720.48458105142, -25765.973420855218, -32995.46635096864, 0.01, 0.97, 0.328, 192.0, 0.0, 0.0, 0.0, 0.0, 0.0, 0.0, 0.0, 0.0, 0.0, 1.695676664816767E9, 0.0, 2023-09-25 16:17:44.816
54.0, -187500.02235174447, 8614.697589242172, -14748.910337556641, -31883.511767806027, -13028.228345898193, -31352.814299203674, -187500.02235174447, -39093.06694186532, -8110.218716885891, -9062.112458004052, -43459.502572954014, -40583.570669123015, -29474.97719227996, -34726.921883454546, -25768.275650534113, -33011.17962732072, -0.008, 0.96, 0.324, 192.0, 127.5, 96.0, 15.0, 0.0, 5.0, 16.0, 0.0, 0.0, 0.0, 1.695676664816771E9, 0.0, 2023-09-25 16:17:44.816
56.0, -187500.02235174447, 8618.22916486611, -14746.362238688736, -31881.142482893763, -13023.757997007133, -31348.96979915736, -187500.02235174447, -39093.78219768789, -8069.471486743866, -9063.766487093746, -43455.27809325196, -40587.57163138052, -29470.68565734454, -34727.68184276603, -25769.773217412618, -32991.57714743342, -0.008, 0.96, 0.324, 192.0, 0.0, 0.0, 0.0, 0.0, 0.0, 0.0, 0.0, 0.0, 0.0, 1.695676664816775E9, 0.0, 2023-09-25 16:17:44.816
58.0, -187500.02235174447, 8616.821004965426, -14746.228128222005, -31880.31546834892, -13025.34497086346, -31354.468328293366, -187500.02235174447, -39095.63739247768, -8094.438385300445, -9057.753867835268, -43456.12745954126, -40586.789320324584, -29470.864471300185, -34729.31352011127, -25768.096836578472, -33015.98525237862, -0.008, 0.96, 0.324, 192.0, 0.0, 0.0, 0.0, 0.0, 0.0, 0.0, 0.0, 0.0, 0.0, 1.695676664816778E9, 0.0, 2023-09-25 16:17:44.816
60.0, -187500.02235174447, 8634.970621463135, -14744.529395643402, -31871.08419788888, -13018.684151015777, -31347.181659600934, -187500.02235174447, -39090.675305208606, -8056.932158104439, -9058.69264110239, -43454.89811359622, -40586.45404415775, -29472.339686434232, -34728.68767126652, -25775.785836671097, -32995.265185268545, -0.008, 0.96, 0.324, 192.0, 0.0, 0.0, 0.0, 0.0, 0.0, 0.0, 0.0, 0.0, 0.0, 1.695676664816782E9, 0.0, 2023-09-25 16:17:44.816
62.0, -187500.02235174447, 8632.400170850775, -14754.766494603933, -31881.321296849408, -13030.664686043821, -31348.902743923994, -187500.02235174447, -39098.16313960113, -8090.772699209774, -9044.40987639545, -43458.89907585372, -40578.832099298495, -29472.74201783443, -34720.909264196074, -25770.264955790637, -33015.96290063416, -0.008, 0.96, 0.324, 192.0, 0.0, 0.0, 0.0, 0.0, 0.0, 0.0, 0.0, 0.0, 0.0, 1.695676664816785E9, 0.0, 2023-09-25 16:17:44.816
64.0, -187500.02235174447, 8634.590641807396, -14765.920015087131, -31885.59048004037, -13039.806549526043, -31352.948409670404, -187500.02235174447, -39103.48285478149, -8041.554157919188, -9060.905463803467, -43460.821325876874, -40589.91856454832, -29484.32022146228, -34740.51174408338, -25793.756639213163, -32980.35657171685, -0.016, 0.9520000000000001, 0.312, 192.0, 127.5, 64.0, 14.5, 96.0, 4.5, 96.0, 0.0, 0.0, 0.0, 1.695676664876996E9, 0.0, 2023-09-25 16:17:44.876
66.0, -187500.02235174447, 8640.960888977157, -14759.482712684003, -31875.822767713402, -13029.457691843236, -31357.910496939483, -187500.02235174447, -39096.44205527807, -8080.513248504788, -9040.02893448221, -43465.20226779011, -40584.352980178955, -29484.610794140197, -34723.97145318645, -25791.074429878525, -33009.50324648658, -0.016, 0.9520000000000001, 0.312, 192.0, 0.0, 0.0, 0.0, 0.0, 0.0, 0.0, 0.0, 0.0, 0.0, 1.695676664877008E9, 0.0, 2023-09-25 16:17:44.877
68.0, -187500.02235174447, 8669.884046302324, -14757.783980105398, -31873.051151400945, -13026.417854597314, -31347.449880534397, -187500.02235174447, -39093.98336338799, -8047.946756833406, -9040.386562393494, -43449.578398415855, -40575.97107600821, -29479.06756151528, -34725.42431657604, -25786.514674009642, -32994.66168816825, -0.016, 0.9520000000000001, 0.312, 192.0, 0.0, 0.0, 0.0, 0.0, 0.0, 0.0, 0.0, 0.0, 0.0, 1.695676664877015E9, 0.0, 2023-09-25 16:17:44.877
70.0, -187500.02235174447, 8674.577912637938, -14755.280584726404, -31867.463215287116, -13021.142842905861, -31358.24577310631, -187500.02235174447, -39089.200090074555, -8071.036108855737, -9030.484739599793, -43449.868971093776, -40575.56874460802, -29479.53694814884, -34717.66826125005, -25781.887862907395, -33010.77729592053, -0.016, 0.9520000000000001, 0.312, 192.0, 0.0, 0.0, 0.0, 0.0, 0.0, 0.0, 0.0, 0.0, 0.0, 1.695676664877019E9, 0.0, 2023-09-25 16:17:44.877
72.0, -187500.02235174447, 8688.838325600425, -14756.845206838276, -31865.764482708513, -13022.193374895262, -31339.87263916405, -187500.02235174447, -39090.96587788652, -8050.293690001213, -9025.567355819627, -43439.587168644335, -40569.42201488281, -29475.64774461362, -34718.472924050446, -25778.177473327814, -32999.55672020397, -0.016, 0.9520000000000001, 0.312, 192.0, 0.0, 0.0, 0.0, 0.0, 0.0, 0.0, 0.0, 0.0, 0.0, 1.695676664877022E9, 0.0, 2023-09-25 16:17:44.877
74.0, -187500.02235174447, 8695.253276259098, -14758.901567328165, -31865.764482708513, -13022.305133617538, -31352.5013747813, -187500.02235174447, -39082.71808418251, -8055.278129014747, -9024.494472085771, -43445.93506406964, -40571.768948050616, -29482.956765050505, -34721.78098222983, -25782.24549081868, -33000.00375509307, -0.01, 0.9520000000000001, 0.304, 192.0, 127.5, 88.0, 14.5, 96.0, 4.5, 64.0, 0.0, 0.0, 0.0, 1.695676664877025E9, 0.0, 2023-09-25 16:17:44.877
76.0, -187500.02235174447, 8697.846078615914, -14755.906433571154, -31862.07644487339, -13019.220592882704, -31344.477098521842, -187500.02235174447, -39082.74043592697, -8048.214977766869, -9020.337047617084, -43438.31311921038, -40569.62318058291, -29474.708971346496, -34720.61869151815, -25780.636165217897, -33001.076638826926, -0.01, 0.9520000000000001, 0.304, 192.0, 0.0, 0.0, 0.0, 0.0, 0.0, 0.0, 0.0, 0.0, 0.0, 1.695676664877029E9, 0.0, 2023-09-25 16:17:44.877
78.0, -187500.02235174447, 8686.75961336608, -14756.82285509382, -31864.8704129303, -13025.05439818554, -31352.07669163665, -187500.02235174447, -39090.585898230784, -8045.465713198867, -9020.627620295003, -43434.4015639307, -40562.60473282394, -29481.83917782774, -34724.82081947575, -25782.87133966343, -33005.546987717986, -0.01, 0.9520000000000001, 0.304, 192.0, 0.0, 0.0, 0.0, 0.0, 0.0, 0.0, 0.0, 0.0, 0.0, 1.695676664937358E9, 0.0, 2023-09-25 16:17:44.937
80.0, -187500.02235174447, 8711.637104944839, -14748.06097126734, -31855.035645369968, -13015.823127725498, -31349.148613113, -187500.02235174447, -39084.863851650225, -8037.8661200840625, -9028.093102943076, -43429.26066270598, -40565.91279100333, -29479.335782448743, -34733.35918585768, -25783.094857107983, -32989.00669682106, -0.01, 0.9520000000000001, 0.304, 192.0, 0.0, 0.0, 0.0, 0.0, 0.0, 0.0, 0.0, 0.0, 0.0, 1.695676664937372E9, 0.0, 2023-09-25 16:17:44.937
82.0, -187500.02235174447, 8720.644857960327, -14743.031828764895, -31848.330122033374, -13015.264334114116, -31355.49650853831, -187500.02235174447, -39083.679209194095, -8040.235404996325, -9017.49837607126, -43420.72229632406, -40561.755366534635, -29473.099645745715, -34721.15513338508, -25776.366982026935, -32996.941566102694, -0.01, 0.9520000000000001, 0.304, 192.0, 0.0, 0.0, 0.0, 0.0, 0.0, 0.0, 0.0, 0.0, 0.0, 1.695676664937376E9, 0.0, 2023-09-25 16:17:44.937
84.0, -187500.02235174447, 8719.01318061509, -14739.6790670966, -31842.764537664003, -13015.15257539184, -31345.281761322232, -187500.02235174447, -39078.135976569174, -8046.2033207658915, -9013.944448702867, -43413.97206949855, -40556.34624437645, -29469.657477099598, -34721.57981652973, -25778.266880305637, -33002.79772314998, -0.012, 0.962, 0.302, 192.0, 127.5, 80.0, 15.0, 8.0, 4.5, 56.0, 0.0, 0.0, 0.0, 1.695676664937379E9, 0.0, 2023-09-25 16:17:44.937
86.0, -187500.02235174447, 8717.649724203317, -14739.857881052243, -31846.83255515487, -13014.10204340244, -31352.277857336743, -187500.02235174447, -39089.15538658564, -8027.852538568085, -9015.844346981567, -43414.486159621025, -40551.898247229845, -29472.093817245226, -34722.27272060785, -25775.3835052709, -32989.90076659927, -0.012, 0.962, 0.302, 192.0, 0.0, 0.0, 0.0, 0.0, 0.0, 0.0, 0.0, 0.0, 0.0, 1.695676664937382E9, 0.0, 2023-09-25 16:17:44.937
88.0, -187500.02235174447, 8733.653573233316, -14735.454587394546, -31840.574066707384, -13014.794947480554, -31343.314807810166, -187500.02235174447, -39091.994058131466, -8037.732009617331, -9018.191280149375, -43415.044953232406, -40554.26753214211, -29475.468930657975, -34726.13957239861, -25777.305755294055, -32990.88424335531, -0.012, 0.962, 0.302, 192.0, 0.0, 0.0, 0.0, 0.0, 0.0, 0.0, 0.0, 0.0, 0.0, 1.695676664937385E9, 0.0, 2023-09-25 16:17:44.937
90.0, -187500.02235174447, 8734.592346500438, -14726.96092450153, -31834.29322651544, -13013.409139324325, -31347.025197389747, -187500.02235174447, -39076.50429922394, -8017.593087863099, -9013.899745213956, -43412.83213053133, -40544.65628202633, -29478.329953948254, -34721.42335431855, -25777.976307627716, -32978.59078390489, -0.012, 0.962, 0.302, 192.0, 0.0, 0.0, 0.0, 0.0, 0.0, 0.0, 0.0, 0.0, 0.0, 1.695676664937389E9, 0.0, 2023-09-25 16:17:44.937
92.0, -187500.02235174447, 8734.122959866878, -14726.759758801432, -31837.95891260611, -13019.220592882704, -31338.73270019683, -187500.02235174447, -39087.18843307358, -8032.434646181423, -9016.470195826316, -43411.69219156411, -40542.28699711407, -29480.45336967151, -34727.77124974385, -25774.556490726056, -32987.4867781981, -0.012, 0.962, 0.302, 192.0, 0.0, 0.0, 0.0, 0.0, 0.0, 0.0, 0.0, 0.0, 0.0, 1.695676664937392E9, 0.0, 2023-09-25 16:17:44.937
94.0, -187500.02235174447, 8739.666192491793, -14718.511965097425, -31831.521610202984, -13015.33138934748, -31349.238020090823, -187500.02235174447, -39095.43622677759, -8005.791366790697, -9018.258335382741, -43406.73010429503, -40540.81178198002, -29483.493206917432, -34729.93936895602, -25774.869415148427, -32969.94065880068, -0.01, 0.97, 0.302, 192.0, 127.5, 88.0, 15.0, 40.0, 4.5, 56.0, 0.0, 0.0, 0.0, 1.695676664996707E9, 0.0, 2023-09-25 16:17:44.996
96.0, -187500.02235174447, 8732.714799966192, -14706.285560880371, -31825.553694433416, -13007.53063053258, -31347.315770067667, -187500.02235174447, -39090.27297380841, -8043.074076542149, -9010.658742267937, -43399.085807691314, -40529.27828184108, -29473.949012035016, -34723.59147353071, -25756.04924631706, -32997.56741494744, -0.01, 0.97, 0.302, 192.0, 0.0, 0.0, 0.0, 0.0, 0.0, 0.0, 0.0, 0.0, 0.0, 1.695676664996717E9, 0.0, 2023-09-25 16:17:44.996
98.0, -187500.02235174447, 8749.836236218958, -14697.501325309435, -31816.076554784366, -12999.685168228767, -31349.148613113, -187500.02235174447, -39081.51108998193, -8006.81954703564, -9015.397312092462, -43398.884641991215, -40527.73601147366, -29475.178357980058, -34725.513723553864, -25751.914173592828, -32973.06990302443, -0.01, 0.97, 0.302, 192.0, 0.0, 0.0, 0.0, 0.0, 0.0, 0.0, 0.0, 0.0, 0.0, 1.695676664996721E9, 0.0, 2023-09-25 16:17:44.996
100.0, -187500.02235174447, 8755.267710121598, -14689.409993816615, -31812.455572182607, -12997.114717616407, -31345.72879621134, -187500.02235174447, -39083.36628477172, -8049.533730689733, -8995.995997905255, -43390.3909790982, -40515.35314504542, -29464.650686341607, -34706.58179600022, -25737.251429230146, -33009.23502555311, -0.01, 0.97, 0.302, 192.0, 0.0, 0.0, 0.0, 0.0, 0.0, 0.0, 0.0, 0.0, 0.0, 1.695676664996724E9, 0.0, 2023-09-25 16:17:44.996
102.0, -187500.02235174447, 8749.433904818763, -14706.352616113738, -31829.331139246362, -13009.229363111182, -31343.225400832347, -187500.02235174447, -39095.83855817778, -8003.310323156157, -9008.088291655577, -43387.88758371921, -40520.29288057004, -29466.483529386944, -34720.126953140134, -25745.4768711897, -32987.06209505345, -0.01, 0.97, 0.302, 192.0, 0.0, 0.0, 0.0, 0.0, 0.0, 0.0, 0.0, 0.0, 0.0, 1.695676664996727E9, 0.0, 2023-09-25 16:17:44.996
104.0, -187500.02235174447, 8757.301718867031, -14702.86574397871, -31823.20676126561, -13004.513145031113, -31351.4508427919, -187500.02235174447, -39080.527613225895, -8027.584317634621, -9018.437149338382, -43405.97014498355, -40535.469715055195, -29482.21915748348, -34727.21245613247, -25751.981228826193, -32987.10679854236, -0.008, 0.972, 0.3, 192.0, 127.5, 96.0, 15.0, 48.0, 4.5, 48.0, 0.0, 0.0, 0.0, 1.695676664996731E9, 0.0, 2023-09-25 16:17:44.996
106.0, -187500.02235174447, 8748.53983504055, -14706.15145041364, -31826.358357233807, -13009.318770089003, -31337.48100250733, -187500.02235174447, -39076.14667131265, -8004.338503401102, -9007.753015488746, -43397.65529604618, -40517.63302297986, -29474.306639946302, -34717.93648218352, -25739.084272275482, -32972.28759196849, -0.008, 0.972, 0.3, 192.0, 0.0, 0.0, 0.0, 0.0, 0.0, 0.0, 0.0, 0.0, 0.0, 1.695676664996734E9, 0.0, 2023-09-25 16:17:44.996
108.0, -187500.02235174447, 8731.306640065508, -14707.425499847592, -31830.806354380413, -13010.212839867216, -31340.0961566086, -187500.02235174447, -39079.611191703225, -8034.714524115864, -9007.238925366275, -43404.65139206069, -40521.94690965974, -29482.487378416943, -34718.741144983906, -25742.034702543584, -32982.256469995555, -0.008, 0.972, 0.3, 192.0, 0.0, 0.0, 0.0, 0.0, 0.0, 0.0, 0.0, 0.0, 0.0, 1.695676665057482E9, 0.0, 2023-09-25 16:17:45.057
110.0, -187500.02235174447, 8748.025744918079, -14699.24476137695, -31815.942444317636, -12997.449993783235, -31333.3459297831, -187500.02235174447, -39065.59664792975, -8004.562020845655, -9013.765634747224, -43400.94100248111, -40520.382287547865, -29481.12392200517, -34722.07155490775, -25742.258219988136, -32955.94846677166, -0.008, 0.972, 0.3, 192.0, 0.0, 0.0, 0.0, 0.0, 0.0, 0.0, 0.0, 0.0, 0.0, 1.695676665057507E9, 0.0, 2023-09-25 16:17:45.057
112.0, -187500.02235174447, 8750.529140297072, -14704.81034574632, -31824.078479299365, -13007.418871810303, -31334.44116526141, -187500.02235174447, -39072.16806079961, -8039.87777708504, -8996.241867094262, -43395.68834253411, -40508.35704903091, -29474.39604692412, -34705.6430227331, -25731.529382649587, -32983.86579559634, -0.008, 0.972, 0.3, 192.0, 0.0, 0.0, 0.0, 0.0, 0.0, 0.0, 0.0, 0.0, 0.0, 1.695676665057512E9, 0.0, 2023-09-25 16:17:45.057
114.0, -187500.02235174447, 8743.01895416009, -14715.047444706852, -31831.566313691896, -13014.61613352491, -31327.512124480265, -187500.02235174447, -39081.846366148755, -8003.2879714117025, -9010.144652145464, -43402.21505191506, -40521.29870907053, -29479.380485937654, -34718.36116532817, -25745.4768711897, -32952.86392603683, -0.01, 0.966, 0.296, 192.0, 127.5, 88.0, 15.0, 24.0, 4.5, 32.0, 0.0, 0.0, 0.0, 1.695676665057525E9, 0.0, 2023-09-25 16:17:45.057
116.0, -187500.02235174447, 8739.77795121407, -14724.323418655804, -31839.21061029561, -13020.092310916461, -31345.30411306669, -187500.02235174447, -39095.9279651556, -8031.898204314495, -9016.649009781959, -43419.91763352366, -40531.0664213975, -29491.472779687978, -34723.52441829734, -25754.90930734984, -32958.18364121719, -0.01, 0.966, 0.296, 192.0, 0.0, 0.0, 0.0, 0.0, 0.0, 0.0, 0.0, 0.0, 0.0, 1.695676665057529E9, 0.0, 2023-09-25 16:17:45.057
118.0, -187500.02235174447, 8747.913986195801, -14729.441968136069, -31840.529363218473, -13019.444110327258, -31336.363415284566, -187500.02235174447, -39101.8288256918, -8012.072206982638, -9021.856966240044, -43415.6484503327, -40530.73114523067, -29490.84693084323, -34729.26881662236, -25756.250412017158, -32945.95723700014, -0.01, 0.966, 0.296, 192.0, 0.0, 0.0, 0.0, 0.0, 0.0, 0.0, 0.0, 0.0, 0.0, 1.695676665057534E9, 0.0, 2023-09-25 16:17:45.057
120.0, -187500.02235174447, 8747.154026884322, -14724.904564011642, -31834.360281748806, -13011.978627679186, -31347.382825301032, -187500.02235174447, -39090.63060171969, -8038.1566927619815, -9009.630562022992, -43416.6989823221, -40523.48918002715, -29490.064619787292, -34718.316461839255, -25753.14351953787, -32965.91734479873, -0.01, 0.966, 0.296, 192.0, 0.0, 0.0, 0.0, 0.0, 0.0, 0.0, 0.0, 0.0, 0.0, 1.695676665057553E9, 0.0, 2023-09-25 16:17:45.057
122.0, -187500.02235174447, 8748.405724573819, -14727.095034968263, -31833.890895115244, -13011.553944534535, -31338.06214786317, -187500.02235174447, -39093.670438965615, -8020.185890219915, -9017.721893515813, -43411.53572935292, -40528.473619040684, -29488.2094249975, -34726.76542124336, -25755.758673639142, -32959.03300750649, -0.01, 0.966, 0.296, 192.0, 0.0, 0.0, 0.0, 0.0, 0.0, 0.0, 0.0, 0.0, 0.0, 1.695676665057557E9, 0.0, 2023-09-25 16:17:45.057
124.0, -187500.02235174447, 8737.386314557352, -14724.412825633626, -31831.67807241417, -13005.47427004269, -31348.075729379147, -187500.02235174447, -39091.83759592028, -8031.227651980836, -9008.132995144486, -43413.234461931526, -40524.49500852764, -29487.337706963746, -34714.98605191542, -25754.261106760634, -32971.795853590476, -0.004, 0.966, 0.302, 192.0, 127.5, 112.0, 15.0, 24.0, 4.5, 56.0, 0.0, 0.0, 0.0, 1.695676665116663E9, 0.0, 2023-09-25 16:17:45.116
126.0, -187500.02235174447, 8738.034515146555, -14733.420578649115, -31843.54684871994, -13011.95627593473, -31341.146688598, -187500.02235174447, -39093.71514245452, -8025.483253655822, -9013.78798649168, -43409.50172060749, -40524.919691672294, -29483.426151684067, -34720.81985721825, -25751.020103814615, -32972.51110941304, -0.004, 0.966, 0.302, 192.0, 0.0, 0.0, 0.0, 0.0, 0.0, 0.0, 0.0, 0.0, 0.0, 1.695676665116673E9, 0.0, 2023-09-25 16:17:45.116
128.0, -187500.02235174447, 8753.904253709825, -14714.555706328834, -31821.239807753544, -12993.292569314548, -31342.62190373205, -187500.02235174447, -39071.40810148813, -8020.923497786939, -9011.128128901497, -43414.82143578785, -40529.21122660771, -29484.92371856257, -34720.708098495976, -25758.306772507047, -32975.03685653649, -0.004, 0.966, 0.302, 192.0, 0.0, 0.0, 0.0, 0.0, 0.0, 0.0, 0.0, 0.0, 0.0, 1.695676665116676E9, 0.0, 2023-09-25 16:17:45.116
130.0, -187500.02235174447, 8741.499035537128, -14719.96482848702, -31823.922017088178, -12999.551057762035, -31321.745374410795, -187500.02235174447, -39080.5723167148, -8009.993494748294, -9011.172832390408, -43401.79036877041, -40516.940118901744, -29481.21332898299, -34713.8908164371, -25742.90642057734, -32953.48977488158, -0.004, 0.966, 0.302, 192.0, 0.0, 0.0, 0.0, 0.0, 0.0, 0.0, 0.0, 0.0, 0.0, 1.69567666511668E9, 0.0, 2023-09-25 16:17:45.116
132.0, -187500.02235174447, 8758.262843878609, -14712.633456305679, -31817.551769918417, -12993.806659437021, -31333.569447227652, -187500.02235174447, -39078.33714226927, -8011.625172093532, -9004.064977653621, -43406.90891825067, -40513.319136299986, -29481.481549916454, -34707.60997624516, -25746.683865390285, -32950.40523414675, -0.004, 0.966, 0.302, 192.0, 0.0, 0.0, 0.0, 0.0, 0.0, 0.0, 0.0, 0.0, 0.0, 1.695676665116683E9, 0.0, 2023-09-25 16:17:45.116
134.0, -187500.02235174447, 8748.808055974014, -14718.936648242076, -31822.647967654226, -13003.19439210825, -31323.71232792286, -187500.02235174447, -39082.24869754895, -8027.897242056995, -9005.651951509948, -43399.42108385814, -40513.11797059989, -29479.022858026372, -34710.58275825772, -25747.309714235034, -32958.563620872934, 0.002, 0.962, 0.296, 192.0, 0.0, 8.0, 15.0, 8.0, 4.5, 32.0, 0.0, 0.0, 0.0, 1.695676665116686E9, 0.0, 2023-09-25 16:17:45.116
136.0, -187500.02235174447, 8763.02376544759, -14706.330264369282, -31809.371031447776, -12989.090441356951, -31333.122412338547, -187500.02235174447, -39072.07865382179, -8017.078997740627, -9005.294323598662, -43399.13051118023, -40513.69911595573, -29483.537910406343, -34709.241653590405, -25748.51670843562, -32948.17005970122, 0.002, 0.962, 0.296, 192.0, 0.0, 0.0, 0.0, 0.0, 0.0, 0.0, 0.0, 0.0, 0.0, 1.695676665116689E9, 0.0, 2023-09-25 16:17:45.116
138.0, -187500.02235174447, 8759.02280319009, -14715.114499940217, -31817.976453063067, -13002.836764196965, -31322.125354066535, -187500.02235174447, -39077.89010738017, -8030.1771199914365, -9003.886163697978, -43394.43664484461, -40508.89349089783, -29476.765331836385, -34708.43699079001, -25744.33693222248, -32961.26818195202, 0.002, 0.962, 0.296, 192.0, 0.0, 0.0, 0.0, 0.0, 0.0, 0.0, 0.0, 0.0, 0.0, 1.695676665177465E9, 0.0, 2023-09-25 16:17:45.177
140.0, -187500.02235174447, 8749.746829241138, -14721.238877920972, -31826.805392122915, -13009.117604388906, -31329.43437450342, -187500.02235174447, -39084.7744446724, -8004.942000501395, -9012.960971946834, -43403.13147343772, -40519.01883113609, -29488.83527384225, -34717.33298508322, -25756.38452248389, -32940.36930088631, 0.002, 0.962, 0.296, 192.0, 0.0, 0.0, 0.0, 0.0, 0.0, 0.0, 0.0, 0.0, 0.0, 1.695676665177477E9, 0.0, 2023-09-25 16:17:45.177
142.0, -187500.02235174447, 8748.942166440745, -14717.550840085845, -31828.68293865716, -13012.537421290568, -31328.58500821412, -187500.02235174447, -39089.602421474745, -8030.959431047372, -9017.78894874918, -43410.06051421887, -40526.372555061884, -29492.79153261084, -34722.96562468596, -25757.747978895663, -32948.66179807923, 0.002, 0.962, 0.296, 192.0, 0.0, 0.0, 0.0, 0.0, 0.0, 0.0, 0.0, 0.0, 0.0, 1.69567666517748E9, 0.0, 2023-09-25 16:17:45.177
144.0, -187500.02235174447, 8750.707954252715, -14708.654845792635, -31820.569255419883, -13004.28962758656, -31332.317749538157, -187500.02235174447, -39078.65006669165, -8008.406520891967, -9015.039684181176, -43407.93709849562, -40521.45517128172, -29491.986869810447, -34719.098772895195, -25755.781025383596, -32935.40721361723, 0.006, 0.966, 0.292, 192.0, 0.0, 24.0, 15.0, 24.0, 4.5, 16.0, 0.0, 0.0, 0.0, 1.695676665177484E9, 0.0, 2023-09-25 16:17:45.177
146.0, -187500.02235174447, 8747.534006540061, -14698.753022998933, -31817.976453063067, -13000.735700218165, -31326.34983376859, -187500.02235174447, -39077.33131376879, -8045.286899243224, -9010.055245167643, -43400.58337456982, -40516.98482239066, -29485.348401707222, -34712.169732114045, -25743.688731633276, -32962.16225173024, 0.006, 0.966, 0.292, 192.0, 0.0, 0.0, 0.0, 0.0, 0.0, 0.0, 0.0, 0.0, 0.0, 1.695676665177487E9, 0.0, 2023-09-25 16:17:45.177
148.0, -187500.02235174447, 8757.88286422287, -14700.09412766625, -31820.0104618085, -13002.009749652118, -31330.68607219292, -187500.02235174447, -39081.3769795152, -8000.806927777163, -9021.655800539947, -43398.191737913105, -40522.99744164913, -29486.35423020771, -34720.68574675152, -25748.47200494671, -32934.155515927734, 0.006, 0.966, 0.292, 192.0, 0.0, 0.0, 0.0, 0.0, 0.0, 0.0, 0.0, 0.0, 0.0, 1.69567666517749E9, 0.0, 2023-09-25 16:17:45.177
150.0, -187500.02235174447, 8742.862491948903, -14695.132040397173, -31823.430278710162, -13002.47913628568, -31334.01648211676, -187500.02235174447, -39082.762787671425, -8041.397695708, -9011.038721923676, -43397.16355766816, -40518.147113102335, -29481.995640038927, -34711.81210420276, -25737.206725741235, -32964.1292052423, 0.006, 0.966, 0.292, 192.0, 0.0, 0.0, 0.0, 0.0, 0.0, 0.0, 0.0, 0.0, 0.0, 1.695676665177493E9, 0.0, 2023-09-25 16:17:45.177
152.0, -187500.02235174447, 8751.847893219936, -14696.09316540875, -31824.72667988857, -13003.95435141973, -31332.563618727163, -187500.02235174447, -39090.8764709087, -8000.046968465683, -9024.002733707755, -43397.007095456975, -40526.4172585508, -29488.45529418651, -34721.55746478528, -25747.130900279393, -32937.93296074068, 0.006, 0.966, 0.292, 192.0, 0.0, 0.0, 0.0, 0.0, 0.0, 0.0, 0.0, 0.0, 0.0, 1.695676665177496E9, 0.0, 2023-09-25 16:17:45.177
154.0, -187500.02235174447, 8756.094724666444, -14694.103860152229, -31823.78790662145, -13006.591857265455, -31334.10588909458, -187500.02235174447, -39093.804549432345, -8029.126588002037, -9017.11839641552, -43399.46578734706, -40526.50666552862, -29489.282308731355, -34716.438915305014, -25743.487565933177, -32956.99899876106, 0.002, 0.97, 0.29, 192.0, 0.0, 8.0, 15.0, 40.0, 4.5, 8.0, 0.0, 0.0, 0.0, 1.695676665237422E9, 0.0, 2023-09-25 16:17:45.237
156.0, -187500.02235174447, 8756.899387466836, -14693.656825263122, -31822.871485098778, -13006.234229354171, -31322.393575, -187500.02235174447, -39090.384732530685, -8001.67864581092, -9013.765634747224, -43389.1392814087, -40513.56500548899, -29483.090875517235, -34710.73922046891, -25739.71012112023, -32948.88531552378, 0.002, 0.97, 0.29, 192.0, 0.0, 0.0, 0.0, 0.0, 0.0, 0.0, 0.0, 0.0, 0.0, 1.695676665237433E9, 0.0, 2023-09-25 16:17:45.237
158.0, -187500.02235174447, 8744.248300105131, -14702.642226534157, -31833.890895115244, -13016.203107381238, -31334.128240839036, -187500.02235174447, -39104.75690421544, -8026.131454245026, -9024.002733707755, -43402.41621761516, -40525.65729923932, -29497.2618815019, -34720.73045024043, -25752.607077670942, -32958.72008308412, 0.002, 0.97, 0.29, 192.0, 0.0, 0.0, 0.0, 0.0, 0.0, 0.0, 0.0, 0.0, 0.0, 1.695676665237437E9, 0.0, 2023-09-25 16:17:45.237
160.0, -187500.02235174447, 8749.232739118665, -14696.763717742411, -31827.766517134492, -13007.86590669941, -31321.231284288322, -187500.02235174447, -39089.624773219206, -8002.304494655668, -9019.442977838871, -43394.30253437788, -40516.89541541284, -29489.751695364917, -34717.0424124053, -25747.823804357507, -32949.399405646254, 0.002, 0.97, 0.29, 192.0, 0.0, 0.0, 0.0, 0.0, 0.0, 0.0, 0.0, 0.0, 0.0, 1.69567666523744E9, 0.0, 2023-09-25 16:17:45.237
162.0, -187500.02235174447, 8760.073335179488, -14687.688909493556, -31823.83261011036, -12999.059319384018, -31331.513086737763, -187500.02235174447, -39082.71808418251, -8030.244175224802, -9017.476024326805, -43398.750531524485, -40519.57762474747, -29491.69629713253, -34715.455438548976, -25743.599324655454, -32967.99605703307, 0.002, 0.97, 0.29, 192.0, 0.0, 0.0, 0.0, 0.0, 0.0, 0.0, 0.0, 0.0, 0.0, 1.695676665237443E9, 0.0, 2023-09-25 16:17:45.237
164.0, -187500.02235174447, 8750.439733319252, -14691.779278728876, -31830.78400263596, -13003.328502574981, -31318.169095297948, -187500.02235174447, -39087.18843307358, -8014.307381428169, -9012.245716124264, -43385.5406505514, -40510.100485098425, -29477.793512081327, -34707.74408671189, -25733.786908839575, -32968.66660936673, -0.004, 0.974, 0.28600000000000003, 192.0, 127.5, 112.0, 15.0, 56.0, 4.0, 120.0, 0.0, 0.0, 0.0, 1.695676665237446E9, 0.0, 2023-09-25 16:17:45.237
166.0, -187500.02235174447, 8754.641861276848, -14695.802592730832, -31837.377767250273, -13006.18952586526, -31338.375072285544, -187500.02235174447, -39091.90465115364, -8024.879756555529, -9025.880280242, -43401.186871670114, -40525.50083702813, -29496.479570445965, -34724.73141249793, -25747.689693890774, -32969.7841965895, -0.004, 0.974, 0.28600000000000003, 192.0, 0.0, 0.0, 0.0, 0.0, 0.0, 0.0, 0.0, 0.0, 0.0, 1.695676665237449E9, 0.0, 2023-09-25 16:17:45.237
168.0, -187500.02235174447, 8764.051945692534, -14699.267113121405, -31841.043453340943, -13010.391653822859, -31324.226418045335, -187500.02235174447, -39095.413875033126, -8013.659180838965, -9019.375922605506, -43390.838013987304, -40518.50474101362, -29485.4601604295, -34715.27662459334, -25745.298057234057, -32969.873603567314, -0.004, 0.974, 0.28600000000000003, 192.0, 0.0, 0.0, 0.0, 0.0, 0.0, 0.0, 0.0, 0.0, 0.0, 1.695676665297594E9, 0.0, 2023-09-25 16:17:45.297
170.0, -187500.02235174447, 8748.62924201837, -14703.960979457019, -31846.54198247695, -13008.871735199898, -31343.895953166004, -187500.02235174447, -39094.922136655114, -8021.974029776339, -9026.819053509123, -43402.75149378199, -40523.39977304933, -29495.205521012012, -34722.76445898586, -25757.077426562006, -32974.209841991644, -0.004, 0.974, 0.28600000000000003, 192.0, 0.0, 0.0, 0.0, 0.0, 0.0, 0.0, 0.0, 0.0, 0.0, 1.695676665297607E9, 0.0, 2023-09-25 16:17:45.297
172.0, -187500.02235174447, 8744.069486149489, -14702.753985256433, -31847.63721795526, -13009.29641834455, -31326.863923891062, -187500.02235174447, -39096.531462255894, -8014.3297331726235, -9026.394370364473, -43394.05666518887, -40517.990650891144, -29488.83527384225, -34721.892740952106, -25743.7781386111, -32976.93675481519, -0.004, 0.974, 0.28600000000000003, 192.0, 0.0, 0.0, 0.0, 0.0, 0.0, 0.0, 0.0, 0.0, 0.0, 1.695676665297611E9, 0.0, 2023-09-25 16:17:45.297
174.0, -187500.02235174447, 8748.338669340452, -14706.374967858192, -31852.129918590777, -13012.559773035024, -31347.226363089845, -187500.02235174447, -39103.952241415056, -8012.765111060752, -9035.200957679863, -43407.93709849562, -40527.78071496257, -29503.900349605126, -34731.68280502353, -25754.57403118301, -32962.72104534162, -0.008, 0.974, 0.29, 192.0, 127.5, 96.0, 15.0, 56.0, 4.5, 8.0, 0.0, 0.0, 0.0, 1.695676665297614E9, 0.0, 2023-09-25 16:17:45.297
176.0, -187500.02235174447, 8737.96745991319, -14712.320531883304, -31861.763520451015, -13019.533517305079, -31336.095194351103, -187500.02235174447, -39109.383715317694, -8019.783558819719, -9038.129036203509, -43406.55129033939, -40527.80306670703, -29495.920776834584, -34732.15219165709, -25749.43312995829, -32963.391597675276, -0.008, 0.974, 0.29, 192.0, 0.0, 0.0, 0.0, 0.0, 0.0, 0.0, 0.0, 0.0, 0.0, 1.695676665297617E9, 0.0, 2023-09-25 16:17:45.297
178.0, -187500.02235174447, 8731.641916232338, -14719.33897964227, -31867.843194942856, -13022.305133617538, -31343.895953166004, -187500.02235174447, -39111.574186274316, -8010.127605215026, -9040.878300771512, -43415.8496160328, -40534.46388655471, -29507.208407784514, -34735.7508225144, -25757.747978895663, -32957.021350505514, -0.008, 0.974, 0.29, 192.0, 0.0, 0.0, 0.0, 0.0, 0.0, 0.0, 0.0, 0.0, 0.0, 1.69567666529762E9, 0.0, 2023-09-25 16:17:45.297
180.0, -187500.02235174447, 8742.460160548706, -14716.477956351991, -31866.25622108653, -13020.38288359438, -31338.509182752274, -187500.02235174447, -39110.523654284916, -8021.616401865054, -9046.399181651972, -43416.83309278883, -40535.31325284401, -29508.147181051634, -34741.02583420585, -25761.4807202197, -32961.13407148529, -0.008, 0.974, 0.29, 192.0, 0.0, 0.0, 0.0, 0.0, 0.0, 0.0, 0.0, 0.0, 0.0, 1.695676665297624E9, 0.0, 2023-09-25 16:17:45.297
182.0, -187500.02235174447, 8765.035422448567, -14704.38566260167, -31852.688712202158, -13007.083595643473, -31341.258447320277, -187500.02235174447, -39092.39638953166, -8016.453148895878, -9035.31271640214, -43413.18975844261, -40526.663127739805, -29499.631166414165, -34729.782906744826, -25757.05507481755, -32962.78810057499, -0.008, 0.974, 0.29, 192.0, 0.0, 0.0, 0.0, 0.0, 0.0, 0.0, 0.0, 0.0, 0.0, 1.695676665297627E9, 0.0, 2023-09-25 16:17:45.297
184.0, -187500.02235174447, 8765.415402104307, -14700.80938348882, -31847.25723829952, -13012.403310823836, -31328.517952980754, -187500.02235174447, -39094.76567444392, -8031.629983381032, -9022.460463340338, -43398.30349663538, -40516.06840086799, -29490.712820376495, -34716.55067402729, -25746.90738283484, -32980.021295550025, -0.01, 0.972, 0.29, 192.0, 127.5, 88.0, 15.0, 48.0, 4.5, 8.0, 0.0, 0.0, 0.0, 1.695676665356348E9, 0.0, 2023-09-25 16:17:45.356
186.0, -187500.02235174447, 8771.83035276298, -14690.773450228387, -31835.813145138403, -13009.139956133362, -31321.63361568852, -187500.02235174447, -39086.92021214011, -8009.814680792651, -9005.517841043216, -43389.5416128089, -40499.14813031532, -29485.013125540394, -34696.8364354177, -25740.29126647607, -32975.64035363679, -0.01, 0.972, 0.29, 192.0, 0.0, 0.0, 0.0, 0.0, 0.0, 0.0, 0.0, 0.0, 0.0, 1.695676665356358E9, 0.0, 2023-09-25 16:17:45.356
188.0, -187500.02235174447, 8766.130657926877, -14691.891037451154, -31836.52840096097, -13015.309037603027, -31322.840609889106, -187500.02235174447, -39093.536328498885, -8018.330695430124, -9014.816166736624, -43391.687380276606, -40505.630136207365, -29492.45625644401, -34706.82766518923, -25747.443824701768, -32972.891089068784, -0.01, 0.972, 0.29, 192.0, 0.0, 0.0, 0.0, 0.0, 0.0, 0.0, 0.0, 0.0, 0.0, 1.695676665356362E9, 0.0, 2023-09-25 16:17:45.356
190.0, -187500.02235174447, 8761.30268112453, -14694.86381946371, -31840.708177174114, -13015.912534703319, -31334.754089683785, -187500.02235174447, -39097.47023552302, -8004.562020845655, -9017.677190026903, -43392.11206342126, -40506.14422632983, -29494.378506467165, -34710.78392395782, -25749.321371236012, -32966.4314349212, -0.01, 0.972, 0.29, 192.0, 0.0, 0.0, 0.0, 0.0, 0.0, 0.0, 0.0, 0.0, 0.0, 1.695676665356365E9, 0.0, 2023-09-25 16:17:45.356
192.0, -187500.02235174447, 8755.9159107108, -14691.533409539868, -31844.30680803142, -13004.937828175764, -31325.567522712652, -187500.02235174447, -39089.08833135228, -8033.999268293294, -9023.01925695172, -43394.07901693333, -40510.2122438207, -29493.32797447777, -34715.09781063769, -25735.932676307282, -32984.223423507625, -0.01, 0.972, 0.29, 192.0, 0.0, 0.0, 0.0, 0.0, 0.0, 0.0, 0.0, 0.0, 0.0, 1.695676665356368E9, 0.0, 2023-09-25 16:17:45.356
194.0, -187500.02235174447, 8764.186056159266, -14699.20005788804, -31848.911267389212, -13010.548116034046, -31328.87558089204, -187500.02235174447, -39093.312811054326, -7995.375453874523, -9031.02118146672, -43395.15190066718, -40514.88375841186, -29494.758486122908, -34721.49040955191, -25735.70915886273, -32953.5791818594, -0.01, 0.974, 0.29, 192.0, 127.5, 88.0, 15.0, 56.0, 4.5, 8.0, 0.0, 0.0, 0.0, 1.695676665356371E9, 0.0, 2023-09-25 16:17:45.356
196.0, -187500.02235174447, 8753.278404865076, -14690.706394995022, -31846.005540610022, -13005.38486306487, -31329.456726247878, -187500.02235174447, -39081.555793470834, -8034.088675271115, -9026.081445942098, -43400.67278154764, -40513.185025833256, -29496.323108234777, -34714.78488621532, -25728.400138425844, -32974.031028036006, -0.01, 0.974, 0.29, 192.0, 0.0, 0.0, 0.0, 0.0, 0.0, 0.0, 0.0, 0.0, 0.0, 1.695676665356374E9, 0.0, 2023-09-25 16:17:45.356
198.0, -187500.02235174447, 8743.913023938301, -14690.460525806015, -31849.358302278317, -13005.451918298235, -31328.115621580557, -187500.02235174447, -39079.320619025304, -7991.843878250585, -9033.83750126809, -43395.50952857847, -40514.995517134135, -29496.926605335073, -34719.501104295385, -25726.343777935956, -32944.437318377175, -0.01, 0.974, 0.29, 192.0, 0.0, 0.0, 0.0, 0.0, 0.0, 0.0, 0.0, 0.0, 0.0, 1.695676665417101E9, 0.0, 2023-09-25 16:17:45.417
200.0, -187500.02235174447, 8746.081143150466, -14687.375985071181, -31847.726624933082, -13006.636560754367, -31332.58597047162, -187500.02235174447, -39086.29436329536, -8026.667896111953, -9037.54789084767, -43397.72235127954, -40519.15294160282, -29499.40764896961, -34721.468057807455, -25722.38751916737, -32962.0281412635, -0.01, 0.974, 0.29, 192.0, 0.0, 0.0, 0.0, 0.0, 0.0, 0.0, 0.0, 0.0, 0.0, 1.695676665417113E9, 0.0, 2023-09-25 16:17:45.417
202.0, -187500.02235174447, 8739.845006447436, -14702.57517130079, -31859.953029150132, -13021.142842905861, -31330.127278581534, -187500.02235174447, -39097.224366334005, -7984.490154324789, -9046.779161307712, -43393.83314774432, -40516.046049123535, -29502.916872849095, -34730.92284571205, -25727.08138550298, -32932.61324556032, -0.01, 0.974, 0.29, 192.0, 0.0, 0.0, 0.0, 0.0, 0.0, 0.0, 0.0, 0.0, 0.0, 1.695676665417116E9, 0.0, 2023-09-25 16:17:45.417
204.0, -187500.02235174447, 8749.009221674112, -14692.069851406795, -31853.40396802473, -13011.509241045624, -31347.047549134204, -187500.02235174447, -39090.63060171969, -8024.902108299984, -9046.35447816306, -43409.70288630759, -40527.06545914, -29512.259902031412, -34731.23577013442, -25731.507030905133, -32951.34400741387, -0.006, 0.974, 0.298, 192.0, 127.5, 104.0, 15.0, 56.0, 4.5, 40.0, 0.0, 0.0, 0.0, 1.69567666541712E9, 0.0, 2023-09-25 16:17:45.417
206.0, -187500.02235174447, 8754.641861276848, -14688.091240893751, -31850.386482523263, -13008.312941588514, -31341.43726127592, -187500.02235174447, -39087.389598773676, -7997.923552742429, -9041.302983916163, -43394.66016228917, -40517.00717413511, -29499.51940769189, -34725.84899972069, -25726.05320525804, -32952.483946381086, -0.006, 0.974, 0.298, 192.0, 0.0, 0.0, 0.0, 0.0, 0.0, 0.0, 0.0, 0.0, 0.0, 1.695676665417123E9, 0.0, 2023-09-25 16:17:45.417
208.0, -187500.02235174447, 8751.82554147548, -14687.420688560092, -31856.577915737384, -13010.168136378305, -31343.784194443728, -187500.02235174447, -39095.615040733224, -8028.456035668378, -9034.955088490855, -43393.60963029977, -40512.42506652178, -29495.853721601216, -34718.58468277272, -25727.774289581095, -32983.32935372941, -0.006, 0.974, 0.298, 192.0, 0.0, 0.0, 0.0, 0.0, 0.0, 0.0, 0.0, 0.0, 0.0, 1.695676665417126E9, 0.0, 2023-09-25 16:17:45.417
210.0, -187500.02235174447, 8765.795381760046, -14683.129153624674, -31849.11243308931, -12998.18760135026, -31329.210857058868, -187500.02235174447, -39086.182604573085, -7990.368663116535, -9034.150425690465, -43391.910897721165, -40508.64762170883, -29491.852759343717, -34719.366993828655, -25722.5216296341, -32963.21278371964, -0.006, 0.974, 0.298, 192.0, 0.0, 0.0, 0.0, 0.0, 0.0, 0.0, 0.0, 0.0, 0.0, 1.69567666541713E9, 0.0, 2023-09-25 16:17:45.417
212.0, -187500.02235174447, 8747.623413517882, -14696.897828209143, -31865.25039258604, -13008.357645077425, -31335.178772828436, -187500.02235174447, -39086.69669469556, -8018.2636401967575, -9035.133902446498, -43397.02944720143, -40512.08979035495, -29493.864416344695, -34718.96466242846, -25716.84428654245, -32975.50624317006, -0.006, 0.974, 0.298, 192.0, 0.0, 0.0, 0.0, 0.0, 0.0, 0.0, 0.0, 0.0, 0.0, 1.695676665417133E9, 0.0, 2023-09-25 16:17:45.417
214.0, -187500.02235174447, 8746.952861184223, -14693.299197351838, -31858.701331460637, -13002.18856360776, -31327.78034541373, -187500.02235174447, -39080.527613225895, -7999.018788220738, -9047.69558283038, -43406.1936624281, -40525.43378179476, -29503.96740483849, -34730.766383500864, -25723.393347667858, -32947.6783213232, -0.008, 0.968, 0.302, 192.0, 127.5, 96.0, 15.0, 32.0, 4.5, 56.0, 0.0, 0.0, 0.0, 1.69567666547695E9, 0.0, 2023-09-25 16:17:45.476
216.0, -187500.02235174447, 8742.616622759893, -14691.488706050957, -31856.421453526196, -13002.747357219143, -31333.412985016465, -187500.02235174447, -39075.31965676781, -8025.997343778294, -9037.592594336582, -43404.31611589386, -40517.521264257586, -29502.067506559793, -34717.690612994505, -25716.19608595325, -32962.00578951905, -0.008, 0.968, 0.302, 192.0, 0.0, 0.0, 0.0, 0.0, 0.0, 0.0, 0.0, 0.0, 0.0, 1.69567666547696E9, 0.0, 2023-09-25 16:17:45.476
218.0, -187500.02235174447, 8761.146218913344, -14690.639339761656, -31850.632351712273, -13003.037929897062, -31318.079688320126, -187500.02235174447, -39071.00577008793, -8010.73110231532, -9034.239832668285, -43397.0965024348, -40509.20641532021, -29493.037401799847, -34712.236787347414, -25712.552751607032, -32951.96985625861, -0.008, 0.968, 0.302, 192.0, 0.0, 0.0, 0.0, 0.0, 0.0, 0.0, 0.0, 0.0, 0.0, 1.695676665476963E9, 0.0, 2023-09-25 16:17:45.476
220.0, -187500.02235174447, 8762.800248003035, -14691.779278728876, -31851.369959279295, -13002.926171174786, -31323.28764477821, -187500.02235174447, -39072.16806079961, -8021.68345709842, -9022.9298499739, -43398.30349663538, -40504.981935618154, -29492.210387255003, -34703.96664189895, -25716.4196033978, -32954.652065593255, -0.008, 0.968, 0.302, 192.0, 0.0, 0.0, 0.0, 0.0, 0.0, 0.0, 0.0, 0.0, 0.0, 1.695676665476967E9, 0.0, 2023-09-25 16:17:45.476
222.0, -187500.02235174447, 8749.389201329852, -14713.348712128249, -31876.001581669043, -13021.00873243913, -31318.459667975865, -187500.02235174447, -39088.03779936288, -8002.684474311409, -9032.07171345612, -43397.18590941261, -40513.47559851118, -29486.421285441076, -34715.25427284888, -25720.75584182213, -32936.34598688436, -0.008, 0.968, 0.302, 192.0, 0.0, 0.0, 0.0, 0.0, 0.0, 0.0, 0.0, 0.0, 0.0, 1.69567666547697E9, 0.0, 2023-09-25 16:17:45.476
224.0, -187500.02235174447, 8766.912968982813, -14702.57517130079, -31864.132805363275, -13007.418871810303, -31341.325502553645, -187500.02235174447, -39078.40419750264, -8017.056645996171, -9023.9803819633, -43411.334563652825, -40516.64954622383, -29488.79057035334, -34715.83541820472, -25733.2728187171, -32945.71136781113, -0.008, 0.964, 0.308, 192.0, 127.5, 96.0, 15.0, 16.0, 4.5, 80.0, 0.0, 0.0, 0.0, 1.695676665476973E9, 0.0, 2023-09-25 16:17:45.476
226.0, -187500.02235174447, 8759.983928201667, -14703.804517245831, -31853.985113380568, -13004.446089797746, -31319.39844124299, -187500.02235174447, -39075.632581190184, -8016.855480296073, -9008.624733522503, -43394.52605182243, -40499.21518554869, -29473.054942256804, -34700.837397675205, -25719.057109243528, -32953.42271964821, -0.008, 0.964, 0.308, 192.0, 0.0, 0.0, 0.0, 0.0, 0.0, 0.0, 0.0, 0.0, 0.0, 1.695676665476976E9, 0.0, 2023-09-25 16:17:45.476
228.0, -187500.02235174447, 8765.035422448567, -14697.993063687452, -31842.585723708362, -12992.554961747523, -31327.62388320254, -187500.02235174447, -39063.22736301748, -8009.389997648001, -8996.286570583174, -43392.51439482145, -40491.14620580032, -29467.39995090961, -34690.33207778121, -25719.03475749907, -32952.416891147725, -0.008, 0.964, 0.308, 192.0, 0.0, 0.0, 0.0, 0.0, 0.0, 0.0, 0.0, 0.0, 0.0, 1.695676665537203E9, 0.0, 2023-09-25 16:17:45.537
230.0, -187500.02235174447, 8771.986814974167, -14703.446889334547, -31847.167831321698, -12998.768746706099, -31316.135086552513, -187500.02235174447, -39065.66370316311, -8019.4929861417995, -8991.525649014193, -43383.03725517241, -40486.34058074243, -29455.039436225827, -34688.14160682459, -25714.497353374645, -32965.64912386527, -0.008, 0.964, 0.308, 192.0, 0.0, 0.0, 0.0, 0.0, 0.0, 0.0, 0.0, 0.0, 0.0, 1.695676665537215E9, 0.0, 2023-09-25 16:17:45.537
232.0, -187500.02235174447, 8766.957672471723, -14709.258342892927, -31850.58764822336, -12997.092365871951, -31324.449935489887, -187500.02235174447, -39061.6180374167, -7997.67768355342, -8994.341968815563, -43393.45316808858, -40499.55046171552, -29465.075369486258, -34688.20866205796, -25732.021121027607, -32947.54421085647, -0.008, 0.964, 0.308, 192.0, 0.0, 0.0, 0.0, 0.0, 0.0, 0.0, 0.0, 0.0, 0.0, 1.695676665537219E9, 0.0, 2023-09-25 16:17:45.537
234.0, -187500.02235174447, 8760.319204368498, -14714.086319695274, -31860.869450672802, -12993.449031525735, -31314.279891762722, -187500.02235174447, -39064.233191517975, -8014.910878528462, -8987.7705559457, -43387.82052848584, -40500.82451114947, -29454.413587381077, -34683.3359817667, -25723.639216856864, -32958.362455172835, -0.01, 0.9580000000000001, 0.314, 192.0, 127.5, 88.0, 14.5, 120.0, 4.5, 104.0, 0.0, 0.0, 0.0, 1.695676665537222E9, 0.0, 2023-09-25 16:17:45.537
236.0, -187500.02235174447, 8768.16466667231, -14712.05231094984, -31852.59930522434, -12986.609397722412, -31322.125354066535, -187500.02235174447, -39054.376072213185, -7992.715596284342, -8989.804564691134, -43392.939077966104, -40511.776865932574, -29457.900459516106, -34689.34860102518, -25729.607132626432, -32931.31684438191, -0.01, 0.9580000000000001, 0.314, 192.0, 0.0, 0.0, 0.0, 0.0, 0.0, 0.0, 0.0, 0.0, 0.0, 1.695676665537226E9, 0.0, 2023-09-25 16:17:45.537
238.0, -187500.02235174447, 8760.654480535326, -14716.075624951796, -31855.236811070063, -12991.079746613474, -31316.827990630627, -187500.02235174447, -39051.33623496726, -8018.77773031923, -8990.765689702714, -43394.01196169996, -40514.012040378104, -29456.760520548884, -34690.57794697022, -25733.764557095117, -32942.4256613762, -0.01, 0.9580000000000001, 0.314, 192.0, 0.0, 0.0, 0.0, 0.0, 0.0, 0.0, 0.0, 0.0, 0.0, 1.695676665537229E9, 0.0, 2023-09-25 16:17:45.537
240.0, -187500.02235174447, 8776.457163865229, -14704.00568294593, -31840.931694618666, -12979.143915074339, -31321.119525566046, -187500.02235174447, -39044.92128430859, -7997.565924831144, -8981.154439586931, -43394.05666518887, -40507.507682741605, -29453.139537947125, -34683.514795722345, -25728.37778668139, -32930.89216123726, -0.01, 0.9580000000000001, 0.314, 192.0, 0.0, 0.0, 0.0, 0.0, 0.0, 0.0, 0.0, 0.0, 0.0, 1.695676665537232E9, 0.0, 2023-09-25 16:17:45.537
242.0, -187500.02235174447, 8766.845913749446, -14700.563514299813, -31836.68486317216, -12975.433525494758, -31323.10883082257, -187500.02235174447, -39045.413022686604, -8021.236422209314, -8977.645215707447, -43390.435682587115, -40503.43966525074, -29445.562296576776, -34682.39720849958, -25726.23201921368, -32949.64527483526, -0.01, 0.9580000000000001, 0.314, 192.0, 0.0, 0.0, 0.0, 0.0, 0.0, 0.0, 0.0, 0.0, 0.0, 1.695676665537236E9, 0.0, 2023-09-25 16:17:45.537
244.0, -187500.02235174447, 8755.40182058833, -14721.685912810079, -31858.701331460637, -12994.991301893151, -31316.269197019246, -187500.02235174447, -39062.31094149482, -7987.529991570711, -8975.722965684292, -43385.02656042893, -40499.01401984859, -29445.20466866549, -34682.24074628839, -25727.595475625454, -32932.9261699827, -0.012, 0.9540000000000001, 0.316, 192.0, 127.5, 80.0, 14.5, 104.0, 4.5, 112.0, 0.0, 0.0, 0.0, 1.69567666559749E9, 0.0, 2023-09-25 16:17:45.597
246.0, -187500.02235174447, 8761.772067758093, -14722.28940991037, -31865.25039258604, -12994.678377470778, -31324.15936281197, -187500.02235174447, -39058.04175830386, -8018.844785552596, -8987.68114896788, -43405.187833927615, -40518.0130026356, -29461.476738628953, -34692.12021733764, -25743.174641510803, -32944.34791139935, -0.012, 0.9540000000000001, 0.316, 192.0, 0.0, 0.0, 0.0, 0.0, 0.0, 0.0, 0.0, 0.0, 0.0, 1.6956766655975E9, 0.0, 2023-09-25 16:17:45.597
248.0, -187500.02235174447, 8786.716614570214, -14722.53527909938, -31859.79656693895, -12990.923284402286, -31322.080650577624, -187500.02235174447, -39056.03010130288, -7986.077128181116, -8991.436242036372, -43404.65139206069, -40518.616499735894, -29461.320276417766, -34698.64692671859, -25744.94042932277, -32923.71725126711, -0.012, 0.9540000000000001, 0.316, 192.0, 0.0, 0.0, 0.0, 0.0, 0.0, 0.0, 0.0, 0.0, 0.0, 1.695676665597504E9, 0.0, 2023-09-25 16:17:45.597
250.0, -187500.02235174447, 8773.864361508413, -14722.311761654826, -31854.901534903234, -12997.964083905708, -31325.3440052681, -187500.02235174447, -39058.0194065594, -8027.383151934523, -8978.181657574374, -43405.63486881672, -40515.129627600865, -29460.560317106287, -34689.661525447555, -25742.884068832886, -32950.49464112457, -0.012, 0.9540000000000001, 0.316, 192.0, 0.0, 0.0, 0.0, 0.0, 0.0, 0.0, 0.0, 0.0, 0.0, 1.695676665597507E9, 0.0, 2023-09-25 16:17:45.597
252.0, -187500.02235174447, 8763.895483481347, -14726.133909956683, -31857.986075638066, -13004.423738053292, -31318.90670286497, -187500.02235174447, -39064.166136284606, -7993.855535251562, -8980.036852364165, -43401.43274085912, -40508.848787408926, -29459.710950816985, -34692.656659204564, -25743.62167639991, -32938.00001597405, -0.012, 0.9540000000000001, 0.316, 192.0, 0.0, 0.0, 0.0, 0.0, 0.0, 0.0, 0.0, 0.0, 0.0, 1.69567666559751E9, 0.0, 2023-09-25 16:17:45.597
254.0, -187500.02235174447, 8769.349309128442, -14721.82002327681, -31852.554601735428, -13000.623941495889, -31337.10102285159, -187500.02235174447, -39063.38382522867, -8016.117872729048, -8990.631579235982, -43410.842825274805, -40518.2141683357, -29471.53502363384, -34703.02786863183, -25754.305810249545, -32945.86783002232, -0.014, 0.9580000000000001, 0.322, 192.0, 127.5, 72.0, 14.5, 120.0, 5.0, 8.0, 0.0, 0.0, 0.0, 1.695676665597514E9, 0.0, 2023-09-25 16:17:45.597
0.0, -187500.02235174447, 8782.469783123706, -14716.746177285455, -31847.21253481061, -12992.577313491978, -31323.779383156227, -187500.02235174447, -39057.170040270095, -7993.363796873546, -8982.383785531973, -43393.855499488775, -40507.10535134141, -29455.218250181468, -34694.91418539455, -25741.76648161012, -32942.78328928749, -0.014, 0.9580000000000001, 0.322, 192.0, 0.0, 0.0, 0.0, 0.0, 0.0, 0.0, 0.0, 0.0, 0.0, 1.695676665597517E9, 0.0, 2023-09-25 16:17:45.597
2.0, -187500.02235174447, 8794.182097218287, -14698.52950555438, -31828.12414504578, -12975.724098172677, -31318.57142669814, -187500.02235174447, -39037.321691193785, -8017.928364029928, -8974.895951139444, -43395.755397767476, -40503.35025827292, -29455.374712392655, -34686.35346726817, -25732.892839061362, -32953.243905692565, -0.014, 0.9580000000000001, 0.322, 192.0, 0.0, 0.0, 0.0, 0.0, 0.0, 0.0, 0.0, 0.0, 0.0, 1.695676665657129E9, 0.0, 2023-09-25 16:17:45.657
4.0, -187500.02235174447, 8789.845858793959, -14706.48672658047, -31841.356377763317, -12987.145839589339, -31296.33144096511, -187500.02235174447, -39037.90283654962, -7990.122793927526, -8969.173904558886, -43378.63396151471, -40491.436778478244, -29445.338779132224, -34680.787882898796, -25720.554676122032, -32945.33138815539, -0.014, 0.9580000000000001, 0.322, 192.0, 0.0, 0.0, 0.0, 0.0, 0.0, 0.0, 0.0, 0.0, 0.0, 1.695676665657141E9, 0.0, 2023-09-25 16:17:45.657
6.0, -187500.02235174447, 8771.048041707045, -14708.677197537088, -31844.35151152033, -12988.218723323194, -31318.213798786855, -187500.02235174447, -39047.044700031845, -8008.518279614244, -8979.232189563774, -43394.838976244806, -40506.390095518844, -29462.3037531738, -34691.51672023734, -25734.077481517492, -32948.10300446785, -0.014, 0.9580000000000001, 0.322, 192.0, 0.0, 0.0, 0.0, 0.0, 0.0, 0.0, 0.0, 0.0, 0.0, 1.695676665657145E9, 0.0, 2023-09-25 16:17:45.657
8.0, -187500.02235174447, 8778.692338310759, -14715.092148195763, -31846.296113287943, -12993.76195594811, -31314.212836529357, -187500.02235174447, -39054.95721756902, -7986.3229973701245, -8985.44597452235, -43390.61449654275, -40506.97124087468, -29457.565183349274, -34700.569176741745, -25738.413719941822, -32937.01653921801, -0.01, 0.9560000000000001, 0.324, 192.0, 127.5, 88.0, 14.5, 112.0, 5.0, 16.0, 0.0, 0.0, 0.0, 1.695676665657159E9, 0.0, 2023-09-25 16:17:45.657
10.0, -187500.02235174447, 8780.905161011835, -14704.363310857216, -31836.72956666107, -12983.211932565206, -31330.998996615293, -187500.02235174447, -39053.01261580141, -8004.293799912191, -8980.68505295337, -43393.63198204422, -40503.57377571747, -29460.895593273115, -34694.891833650094, -25737.787871097073, -32942.44801312066, -0.01, 0.9560000000000001, 0.324, 192.0, 0.0, 0.0, 0.0, 0.0, 0.0, 0.0, 0.0, 0.0, 0.0, 1.695676665657162E9, 0.0, 2023-09-25 16:17:45.657
12.0, -187500.02235174447, 8787.342463414963, -14707.62666554769, -31840.574066707384, -12985.38005177737, -31315.710403407862, -187500.02235174447, -39053.482002434976, -7996.470689352834, -8976.572331973593, -43382.09848190528, -40494.74483665763, -29447.752767533395, -34688.879214391614, -25729.495373904156, -32950.53934461348, -0.01, 0.9560000000000001, 0.324, 192.0, 0.0, 0.0, 0.0, 0.0, 0.0, 0.0, 0.0, 0.0, 0.0, 1.695676665657165E9, 0.0, 2023-09-25 16:17:45.657
14.0, -187500.02235174447, 8784.995530247155, -14706.66554053611, -31836.371938749784, -12984.95536863272, -31331.11075533757, -187500.02235174447, -39059.136993782166, -8003.332674900613, -8982.316730298608, -43395.55423206738, -40505.09369434043, -29460.537965361833, -34695.85295866167, -25741.05122578755, -32950.80756554694, -0.01, 0.9560000000000001, 0.324, 192.0, 0.0, 0.0, 0.0, 0.0, 0.0, 0.0, 0.0, 0.0, 0.0, 1.695676665657169E9, 0.0, 2023-09-25 16:17:45.657
16.0, -187500.02235174447, 8792.818640806514, -14704.855049235231, -31835.58962769385, -12982.742545931644, -31316.313900508154, -187500.02235174447, -39052.87850533468, -8006.104291213071, -8974.62773020598, -43382.52316504993, -40496.3094587695, -29449.71972104546, -34692.72371443793, -25730.411795426822, -32970.25358322306, -0.01, 0.9560000000000001, 0.324, 192.0, 0.0, 0.0, 0.0, 0.0, 0.0, 0.0, 0.0, 0.0, 0.0, 1.695676665657172E9, 0.0, 2023-09-25 16:17:45.657
18.0, -187500.02235174447, 8776.703033054237, -14712.924028983598, -31842.429261497175, -12994.767784448599, -31331.66954894895, -187500.02235174447, -39064.41200547362, -7990.033386949705, -8988.977550146288, -43392.42498784363, -40512.29095605504, -29470.88682304464, -34703.58666224321, -25743.554621166542, -32950.40523414675, -0.01, 0.9560000000000001, 0.322, 192.0, 127.5, 88.0, 14.5, 112.0, 5.0, 8.0, 0.0, 0.0, 0.0, 1.6956766657168E9, 0.0, 2023-09-25 16:17:45.716
20.0, -187500.02235174447, 8766.443582349251, -14715.941514485065, -31846.273761543485, -13001.897990929841, -31324.852266890084, -187500.02235174447, -39076.191374801565, -8002.639770822499, -8989.938675157866, -43393.989609955504, -40506.054819352015, -29467.98109626545, -34701.73146745342, -25744.828670600495, -32965.693827354175, -0.01, 0.9560000000000001, 0.322, 192.0, 0.0, 0.0, 0.0, 0.0, 0.0, 0.0, 0.0, 0.0, 0.0, 1.69567666571681E9, 0.0, 2023-09-25 16:17:45.716
22.0, -187500.02235174447, 8765.68362303777, -14722.20000293255, -31849.11243308931, -13009.251714855638, -31338.263313563268, -187500.02235174447, -39074.60440094524, -7992.983817217806, -8998.298227584151, -43403.86908100475, -40514.235557822656, -29478.665230115086, -34708.77226695684, -25760.20667078575, -32957.42368190571, -0.01, 0.9560000000000001, 0.322, 192.0, 0.0, 0.0, 0.0, 0.0, 0.0, 0.0, 0.0, 0.0, 0.0, 1.695676665716814E9, 0.0, 2023-09-25 16:17:45.716
24.0, -187500.02235174447, 8777.64180632136, -14724.85986052273, -31847.100776088333, -13003.95435141973, -31323.399403500487, -187500.02235174447, -39070.223459032, -8005.657256323965, -9000.466346796316, -43403.511453093466, -40516.09075261244, -29475.893613802626, -34709.48752277941, -25759.938449852285, -32966.543193643476, -0.01, 0.9560000000000001, 0.322, 192.0, 0.0, 0.0, 0.0, 0.0, 0.0, 0.0, 0.0, 0.0, 0.0, 1.695676665716817E9, 0.0, 2023-09-25 16:17:45.716
26.0, -187500.02235174447, 8782.000396490144, -14715.963866229518, -31840.551714962927, -12996.980607149675, -31328.652063447484, -187500.02235174447, -39061.081595549775, -7988.848744493574, -8997.11358512802, -43401.768017025955, -40514.88375841186, -29480.98981153844, -34706.715906466954, -25755.42339747231, -32954.74147257108, -0.01, 0.9560000000000001, 0.322, 192.0, 0.0, 0.0, 0.0, 0.0, 0.0, 0.0, 0.0, 0.0, 0.0, 1.69567666571682E9, 0.0, 2023-09-25 16:17:45.716
28.0, -187500.02235174447, 8771.919759740802, -14708.677197537088, -31842.429261497175, -12991.459726269213, -31320.20310404338, -187500.02235174447, -39067.36243574172, -8013.905050027973, -8992.531477514682, -43394.995438456, -40510.368706031884, -29471.5573753783, -34704.25721457687, -25740.783004854085, -32973.807510591454, -0.006, 0.9520000000000001, 0.32, 192.0, 127.5, 104.0, 14.5, 96.0, 5.0, 0.0, 0.0, 0.0, 0.0, 1.695676665716824E9, 0.0, 2023-09-25 16:17:45.716
30.0, -187500.02235174447, 8768.25407365013, -14705.302084124338, -31839.858810884813, -12989.939807646253, -31327.512124480265, -187500.02235174447, -39066.49071770796, -7989.720462527331, -8999.549925273648, -43394.548403566885, -40510.83809266545, -29476.27359345837, -34710.09101987971, -25741.453557187746, -32954.80852780444, -0.006, 0.9520000000000001, 0.32, 192.0, 0.0, 0.0, 0.0, 0.0, 0.0, 0.0, 0.0, 0.0, 0.0, 1.695676665716827E9, 0.0, 2023-09-25 16:17:45.716
32.0, -187500.02235174447, 8779.87698076689, -14706.285560880371, -31839.657645184714, -12994.991301893151, -31328.652063447484, -187500.02235174447, -39067.094214808254, -8014.285029683713, -8994.118451371009, -43391.77678725443, -40505.428970507266, -29473.479625401455, -34704.123104110135, -25736.469118174213, -32973.114606513336, -0.006, 0.9520000000000001, 0.32, 192.0, 0.0, 0.0, 0.0, 0.0, 0.0, 0.0, 0.0, 0.0, 0.0, 1.695676665778088E9, 0.0, 2023-09-25 16:17:45.778
34.0, -187500.02235174447, 8774.40080337534, -14725.91039251213, -31855.281514558974, -13013.275028857593, -31330.216685559357, -187500.02235174447, -39087.0766743513, -7980.422136833923, -9001.919210185912, -43394.88367973372, -40508.58056647546, -29475.06659925778, -34709.46517103496, -25746.66151364583, -32954.07092023741, -0.006, 0.9520000000000001, 0.32, 192.0, 0.0, 0.0, 0.0, 0.0, 0.0, 0.0, 0.0, 0.0, 0.0, 1.6956766657781E9, 0.0, 2023-09-25 16:17:45.778
36.0, -187500.02235174447, 8778.804097033037, -14728.503194868947, -31860.60122973934, -13015.063168414017, -31334.307054794677, -187500.02235174447, -39086.49552899546, -8006.953657502372, -9016.06786442612, -43414.70967706558, -40529.59120626345, -29492.299794232822, -34726.45249682099, -25762.754769653653, -32960.888202296286, -0.006, 0.9520000000000001, 0.32, 192.0, 0.0, 0.0, 0.0, 0.0, 0.0, 0.0, 0.0, 0.0, 0.0, 1.695676665778104E9, 0.0, 2023-09-25 16:17:45.778
38.0, -187500.02235174447, 8757.480532822674, -14709.459508593025, -31842.384558008263, -12999.886333928864, -31330.507258237274, -187500.02235174447, -39064.00967407342, -7985.831258992107, -9003.64029450897, -43406.73010429503, -40517.32009855749, -29484.163759251092, -34714.18138911502, -25750.14838578086, -32955.94846677166, -0.006, 0.9560000000000001, 0.322, 192.0, 127.5, 104.0, 14.5, 112.0, 5.0, 8.0, 0.0, 0.0, 0.0, 1.695676665778107E9, 0.0, 2023-09-25 16:17:45.778
