%OpenBCI Raw EXG Data
%Number of channels = 16
%Sample Rate = 125 Hz
%Board = OpenBCI_GUI$BoardCytonSerialDaisy
Sample Index, EXG Channel 0, EXG Channel 1, EXG Channel 2, EXG Channel 3, EXG Channel 4, EXG Channel 5, EXG Channel 6, EXG Channel 7, EXG Channel 8, EXG Channel 9, EXG Channel 10, EXG Channel 11, EXG Channel 12, EXG Channel 13, EXG Channel 14, EXG Channel 15, Accel Channel 0, Accel Channel 1, Accel Channel 2, Other, Other, Other, Other, Other, Other, Other, Analog Channel 0, Analog Channel 1, Analog Channel 2, Timestamp, Other, Timestamp (Formatted)
0.0, 10468.21599819851, 22262.091608296825, 26581.74503824056, -6888.807641125637, 30778.888556824753, 31603.44440978103, -187500.02235174447, 47077.60179967902, 0.0, 0.0, 0.0, 0.0, 0.0, 0.0, 0.0, 0.0, 0.0, 0.0, 0.0, 192.0, 0.0, 0.0, 0.0, 0.0, 0.0, 0.0, 0.0, 0.0, 0.0, 1.6959357059203646E9, 0.0, 2023-09-28 16:15:05.920
184.0, 10459.744687049948, 22208.380366370722, 27006.919921269407, -6827.765027018193, 30750.211268688592, 31726.893094407693, -187500.02235174447, 47461.6494729101, 12933.792225574522, -18201.31608263446, -7359.937710754599, 9381.608293248211, 12176.023385050701, -187500.02235174447, 14095.099460494455, -55474.30282524858, 0.084, 0.5, 0.045, 192.0, 2.5, 32.0, 15.5, 32.0, 1.0, 104.0, 0.0, 0.0, 0.0, 1.6959357059204159E9, 0.0, 2023-09-28 16:15:05.920
186.0, 10480.420050671108, 22270.585271189844, 26566.434093288673, -6920.4800630188065, 30776.85454807932, 31577.404627490596, -187500.02235174447, 47076.14893628943, 12971.47726672617, -18226.528850380048, -7372.946426027588, 9327.673533877556, 12168.960233802823, -187500.02235174447, 14118.144109027877, -55421.10567344495, 0.084, 0.5, 0.045, 192.0, 0.0, 0.0, 0.0, 0.0, 0.0, 0.0, 0.0, 0.0, 0.0, 1.6959357059204388E9, 0.0, 2023-09-28 16:15:05.920
188.0, 10439.426951340074, 22220.6961775656, 27002.606034589535, -6783.955607885791, 30765.164585729195, 31765.271039637453, -187500.02235174447, 47450.92063557156, 12952.94767057272, -18168.101390373875, -7337.9435942105765, 9408.206869150028, 12187.243960767266, -187500.02235174447, 14033.20748009771, -55540.32987836956, 0.084, 0.5, 0.045, 192.0, 0.0, 0.0, 0.0, 0.0, 0.0, 0.0, 0.0, 0.0, 0.0, 1.6959357059204602E9, 0.0, 2023-09-28 16:15:05.920
190.0, 10505.565763183327, 22281.60468120631, 26585.902462709244, -6915.1379960939885, 30783.649478393734, 31585.026572349856, -187500.02235174447, 47090.386997507456, 12944.14108325733, -18202.903056490788, -7375.27100745094, 9350.85229287771, 12152.866977795004, -187500.02235174447, 14153.392810033896, -55387.287484084074, 0.084, 0.5, 0.045, 192.0, 0.0, 0.0, 0.0, 0.0, 0.0, 0.0, 0.0, 0.0, 0.0, 1.6959357059204996E9, 0.0, 2023-09-28 16:15:05.920
192.0, 10450.647527056639, 22229.323950925347, 27006.6740520804, -6770.432802490331, 30766.304524696414, 31775.23991766452, -187500.02235174447, 47451.85940883868, 12936.385027931337, -18158.668954213736, -7348.515969337937, 9407.513965071914, 12168.110867513522, -187500.02235174447, 14010.833383897947, -55563.79921004763, 0.084, 0.5, 0.045, 192.0, 0.0, 0.0, 0.0, 0.0, 0.0, 0.0, 0.0, 0.0, 0.0, 1.6959357059205203E9, 0.0, 2023-09-28 16:15:05.920
194.0, 10462.002213239934, 22284.21983530758, 26627.253189951563, -6909.773577424715, 30795.67471691069, 31594.77193293237, -187500.02235174447, 47132.02829742769, 12917.676617822244, -18191.7942394965, -7362.016422988942, 9363.436325006047, 12151.63763184996, -187500.02235174447, 14204.891229258923, -55333.866814835885, 0.128, 0.75, 0.0695, 192.0, 2.5, 48.0, 15.5, 32.0, 1.0, 120.0, 0.0, 0.0, 0.0, 1.6959357059205427E9, 0.0, 2023-09-28 16:15:05.920
196.0, 10445.64073629865, 22246.110111011283, 26979.203758144828, -6740.548520153585, 30783.94005107165, 31793.121313228767, -187500.02235174447, 47427.45130389349, 12917.006065488586, -18128.49409919907, -7335.842530231778, 9420.500328600447, 12160.511274398717, -187500.02235174447, 13994.784831379036, -55579.132506743976, 0.128, 0.75, 0.0695, 192.0, 0.0, 0.0, 0.0, 0.0, 0.0, 0.0, 0.0, 0.0, 0.0, 1.69593570592057E9, 0.0, 2023-09-28 16:15:05.920
198.0, 10511.533678952896, 22326.062300927915, 26678.19281556521, -6886.885391102481, 30797.99929833404, 31613.279177341366, -187500.02235174447, 47174.071928748126, 12908.467699106659, -18144.67676218471, -7363.7151555675455, 9390.079604396773, 12167.373259946497, -187500.02235174447, 14250.377029225474, -55292.203163171194, 0.128, 0.75, 0.0695, 192.0, 0.0, 0.0, 0.0, 0.0, 0.0, 0.0, 0.0, 0.0, 0.0, 1.6959357059205987E9, 0.0, 2023-09-28 16:15:05.920
200.0, 10464.192684196554, 22284.42100100768, 26946.301990306616, -6718.017961742636, 30796.94876634464, 31804.900682556712, -187500.02235174447, 47386.726425495915, 12930.215946461673, -18092.10545922583, -7324.063160903831, 9435.744218318965, 12187.22160902281, -187500.02235174447, 13976.702270114694, -55607.94390534686, 0.128, 0.75, 0.0695, 192.0, 0.0, 0.0, 0.0, 0.0, 0.0, 0.0, 0.0, 0.0, 0.0, 1.6959357059206223E9, 0.0, 2023-09-28 16:15:05.920
202.0, 10476.910826791624, 22298.770820947986, 26740.643589573338, -6884.3819957234855, 30792.344306986848, 31628.813639737804, -187500.02235174447, 47222.97754561634, 12894.296693121994, -18130.461052711136, -7356.3167281528395, 9405.345845859749, 12146.250861436232, -187500.02235174447, 14274.047526603643, -55280.043814187506, 0.128, 0.75, 0.0695, 192.0, 0.0, 0.0, 0.0, 0.0, 0.0, 0.0, 0.0, 0.0, 0.0, 1.6959357059206462E9, 0.0, 2023-09-28 16:15:05.920
204.0, 10466.830190042281, 22268.819483377873, 26901.84437058501, -6736.413447429353, 30802.71551641411, 31784.314725913377, -187500.02235174447, 47348.639052944076, 12936.60854537589, -18104.309511698426, -7334.903756964655, 9425.14949144715, 12181.276044997698, -187500.02235174447, 13977.171656748254, -55606.24517276826, 0.14800000000000002, 0.874, 0.08175, 192.0, 2.5, 32.0, 15.5, 24.0, 1.0, 120.0, 0.0, 0.0, 0.0, 1.6959357059206703E9, 0.0, 2023-09-28 16:15:05.920
206.0, 10495.194553756066, 22315.13229788927, 26783.06720054951, -6887.22066726931, 30797.798132633943, 31640.347139876743, -187500.02235174447, 47268.41864209397, 12894.497858822091, -18138.999419093063, -7368.051393991876, 9400.830793479776, 12133.085683952057, -187500.02235174447, 14286.363337798517, -55269.22556987114, 0.14800000000000002, 0.874, 0.08175, 192.0, 0.0, 0.0, 0.0, 0.0, 0.0, 0.0, 0.0, 0.0, 0.0, 1.6959357059206915E9, 0.0, 2023-09-28 16:15:05.920
208.0, 10455.453152114529, 22279.280099782958, 26839.08067215451, -6746.985822556713, 30809.309281028425, 31765.695722782104, -187500.02235174447, 47288.17758419247, 12939.067237265974, -18104.91300879872, -7330.098131906764, 9416.208793665028, 12185.74639388876, -187500.02235174447, 13962.955947274679, -55619.79032990817, 0.14800000000000002, 0.874, 0.08175, 192.0, 0.0, 0.0, 0.0, 0.0, 0.0, 0.0, 0.0, 0.0, 0.0, 1.6959357059207127E9, 0.0, 2023-09-28 16:15:05.920
210.0, 10485.471544918008, 22293.115829600792, 26842.724006500724, -6887.22066726931, 30786.152873772728, 31643.476384100486, -187500.02235174447, 47312.09395075965, 12887.099431407385, -18146.621363952323, -7357.4343153756045, 9405.7705290044, 12150.74356207175, -187500.02235174447, 14282.652948218936, -55280.93788396572, 0.14800000000000002, 0.874, 0.08175, 192.0, 0.0, 0.0, 0.0, 0.0, 0.0, 0.0, 0.0, 0.0, 0.0, 1.69593570592074E9, 0.0, 2023-09-28 16:15:05.920
212.0, 10469.512399376918, 22284.46570449659, 26771.31018296602, -6765.738936154716, 30814.181961319682, 31732.033995632413, -187500.02235174447, 47216.83081589113, 12948.678487381756, -18105.53885764347, -7327.237108616485, 9407.223392393995, 12185.947559588858, -187500.02235174447, 13969.370897933353, -55614.24709728326, 0.14800000000000002, 0.874, 0.08175, 192.0, 0.0, 0.0, 0.0, 0.0, 0.0, 0.0, 0.0, 0.0, 0.0, 1.695935705920764E9, 0.0, 2023-09-28 16:15:05.920
214.0, 10481.26941696041, 22291.282986555456, 26899.31862346156, -6870.5239141611955, 30770.685466609655, 31657.44622438505, -187500.02235174447, 47356.70803269244, 12887.747631996588, -18143.425064495215, -7357.635481075702, 9414.10772968623, 12165.071030267602, -187500.02235174447, 14260.323555508085, -55311.00098025811, 0.15900000000000003, 0.937, 0.08987500000000001, 192.0, 2.5, 40.0, 15.5, 32.0, 1.5, 8.0, 0.0, 0.0, 0.0, 1.6959357059208019E9, 0.0, 2023-09-28 16:15:05.920
216.0, 10486.79029784087, 22293.294643556434, 26733.87101100338, -6788.627122476951, 30798.066353567407, 31699.534559194395, -187500.02235174447, 47193.070911535135, 12946.756237358599, -18126.795366620467, -7345.431428603105, 9396.025168421886, 12173.45293443834, -187500.02235174447, 13999.121069803366, -55568.694242083344, 0.15900000000000003, 0.937, 0.08987500000000001, 192.0, 0.0, 0.0, 0.0, 0.0, 0.0, 0.0, 0.0, 0.0, 0.0, 1.6959357059208252E9, 0.0, 2023-09-28 16:15:05.920
218.0, 10463.812704540815, 22284.800980663418, 26946.033769373153, -6846.3393266605535, 30777.39098994625, 31688.403390455653, -187500.02235174447, 47402.97614371493, 12878.628120258823, -18126.616552664826, -7363.782210800911, 9419.427444866591, 12151.525873127684, -187500.02235174447, 14255.942613594845, -55294.03600621653, 0.15900000000000003, 0.937, 0.08987500000000001, 192.0, 0.0, 0.0, 0.0, 0.0, 0.0, 0.0, 0.0, 0.0, 0.0, 1.6959357059208477E9, 0.0, 2023-09-28 16:15:05.920
220.0, 10499.687254391582, 22309.410251308713, 26676.538786475514, -6801.121747627467, 30805.33067051538, 31681.228480485497, -187500.02235174447, 47146.75809702374, 12947.046810036518, -18114.948942059153, -7332.042733674376, 9402.86480222521, 12158.969004031302, -187500.02235174447, 14029.63120098486, -55517.598154258514, 0.15900000000000003, 0.937, 0.08987500000000001, 192.0, 0.0, 0.0, 0.0, 0.0, 0.0, 0.0, 0.0, 0.0, 0.0, 1.6959357059208713E9, 0.0, 2023-09-28 16:15:05.920
222.0, 10486.477373418496, 22285.560939974897, 26960.897679435933, -6827.630916551461, 30770.081969509363, 31713.392640756687, -187500.02235174447, 47402.32794312572, 12890.116916908852, -18128.985837577085, -7357.702536309068, 9430.603317094245, 12141.73580905626, -187500.02235174447, 14217.81053755409, -55323.83088157546, 0.15900000000000003, 0.937, 0.08987500000000001, 192.0, 0.0, 0.0, 0.0, 0.0, 0.0, 0.0, 0.0, 0.0, 0.0, 1.695935705920894E9, 0.0, 2023-09-28 16:15:05.920
224.0, 10489.897190320158, 22309.052623397427, 26630.047158008478, -6819.628992036462, 30795.00416457703, 31667.884489045682, -187500.02235174447, 47095.32673303208, 12942.755275101099, -18110.500944912546, -7341.11754192323, 9399.757909745922, 12167.663832624416, -187500.02235174447, 14043.556337780517, -55490.194915556305, 0.16150000000000003, 0.9675, 0.09393750000000001, 192.0, 2.5, 16.0, 15.5, 24.0, 1.5, 8.0, 0.0, 0.0, 0.0, 1.6959357059209127E9, 0.0, 2023-09-28 16:15:05.920
0.0, 5343.855064374812, 11129.380599186492, 13394.215809609392, -3412.329067269453, 15396.37331919352, 15888.402269888196, -93750.01117587223, 23385.19971194264, 6440.074019440892, -9049.84135029809, -3674.269160541196, 4722.543623750642, 6092.504393160867, -93750.01117587223, 7030.651811439016, -27746.673255762253, 0.15575, 0.98575, 0.10596875, 192.0, 2.0, 88.0, 15.5, 48.0, 1.5, 88.0, 0.0, 0.0, 0.0, 1.6959357065153763E9, 0.0, 2023-09-28 16:15:06.515
2.0, 10669.53816050746, 22226.552334612887, 27075.83034942512, -6909.684170446893, 30737.582533071345, 31760.554821557384, -187500.02235174447, 47044.14123822942, 12967.766877146589, -18143.06743658393, -7342.950384968565, 9429.91041301613, 12214.602495980562, -187500.02235174447, 14208.154583949397, -53862.54088432084, 0.15575, 0.98575, 0.10596875, 192.0, 0.0, 0.0, 0.0, 0.0, 0.0, 0.0, 0.0, 0.0, 0.0, 1.6959357065154104E9, 0.0, 2023-09-28 16:15:06.515
4.0, 10680.468163546106, 22278.967175360583, 26657.204527521673, -6941.513054551251, 30788.745676129543, 31659.703750575038, -187500.02235174447, 46670.06244302541, 13043.092255960973, -18146.420198252225, -7318.944611423566, 9396.360444588714, 12227.387693808996, -187500.02235174447, 14129.387036488895, -53924.38816122868, 0.15575, 0.98575, 0.10596875, 192.0, 0.0, 0.0, 0.0, 0.0, 0.0, 0.0, 0.0, 0.0, 0.0, 1.6959357065154424E9, 0.0, 2023-09-28 16:15:06.515
6.0, 10672.689756475658, 22239.426939419143, 27093.823503711643, -6888.248847514254, 30749.071329721373, 31784.113560213278, -187500.02235174447, 47066.29181698464, 12981.088516841952, -18132.897392856765, -7342.615108801736, 9435.6771630856, 12233.601478767572, -187500.02235174447, 14168.94962417479, -53911.088873277775, 0.15575, 0.98575, 0.10596875, 192.0, 0.0, 0.0, 0.0, 0.0, 0.0, 0.0, 0.0, 0.0, 0.0, 1.6959357065154648E9, 0.0, 2023-09-28 16:15:06.515
8.0, 10704.78686151348, 22291.37239353328, 26661.741931646102, -6964.4459443623955, 30764.5610886289, 31637.79904100884, -187500.02235174447, 46681.86416409781, 13035.224441912706, -18155.472654756624, -7339.619975044725, 9387.710319484511, 12219.765748949738, -187500.02235174447, 14188.820324995557, -53861.08802093125, 0.152, 1.006, 0.126, 192.0, 2.0, 96.0, 15.5, 56.0, 1.5, 120.0, 0.0, 0.0, 0.0, 1.6959357065154817E9, 0.0, 2023-09-28 16:15:06.515
10.0, 10665.023108127489, 22240.946858042105, 27092.72826823333, -6871.529742661684, 30757.162661214195, 31807.33702270234, -187500.02235174447, 47055.853552324006, 13010.302246845038, -18116.938247315677, -7325.963059182533, 9437.599413108755, 12221.308019317154, -187500.02235174447, 14132.449225479273, -53939.8332166473, 0.152, 1.006, 0.126, 192.0, 0.0, 0.0, 0.0, 0.0, 0.0, 0.0, 0.0, 0.0, 0.0, 1.6959357065154982E9, 0.0, 2023-09-28 16:15:06.515
12.0, 10714.35340814035, 22311.17603912068, 26662.099559557388, -6971.732613054826, 30794.19950177664, 31636.703805530527, -187500.02235174447, 46675.18099250567, 13035.984401224185, -18142.419235994726, -7336.490730820982, 9393.678235254078, 12219.765748949738, -187500.02235174447, 14224.449005657318, -53819.49142449992, 0.152, 1.006, 0.126, 192.0, 0.0, 0.0, 0.0, 0.0, 0.0, 0.0, 0.0, 0.0, 0.0, 1.6959357065155149E9, 0.0, 2023-09-28 16:15:06.515
14.0, 10675.975462910588, 22231.78264281543, 27080.300698316183, -6856.0846872430675, 30757.207364703107, 31817.417659451683, -187500.02235174447, 47038.21802594877, 12996.690034471756, -18120.29100898397, -7316.530623022392, 9443.522625389412, 12227.27593508672, -187500.02235174447, 14084.16945745581, -53995.55611557438, 0.152, 1.006, 0.126, 192.0, 0.0, 0.0, 0.0, 0.0, 0.0, 0.0, 0.0, 0.0, 0.0, 1.6959357065155306E9, 0.0, 2023-09-28 16:15:06.515
16.0, 10707.580829570394, 22285.359774274802, 26690.75449594909, -6989.725767341348, 30777.6145073908, 31629.35008160473, -187500.02235174447, 46706.6746004432, 13016.426624825792, -18141.43575923869, -7333.115617408231, 9398.595619034246, 12197.056376583145, -187500.02235174447, 14259.831817130069, -53783.3933572046, 0.152, 1.006, 0.126, 192.0, 0.0, 0.0, 0.0, 0.0, 0.0, 0.0, 0.0, 0.0, 0.0, 1.6959357065155482E9, 0.0, 2023-09-28 16:15:06.515
18.0, 10675.148448365742, 22256.7048378831, 27049.812918879143, -6834.470550354785, 30768.94203054214, 31815.76363036199, -187500.02235174447, 47002.67875226483, 13026.976648208696, -18093.647729593245, -7298.470413502505, 9453.558558649846, 12236.462502057851, -187500.02235174447, 14043.82455871398, -54034.87283407126, 0.15, 1.014, 0.122, 192.0, 2.0, 88.0, 15.5, 88.0, 1.5, 104.0, 0.0, 0.0, 0.0, 1.695935706515564E9, 0.0, 2023-09-28 16:15:06.515
20.0, 10725.97631525711, 22295.17219009068, 26731.300560391017, -6986.730633584337, 30755.62039084678, 31626.377299592175, -187500.02235174447, 46737.765876980535, 13018.795909738054, -18141.346352260873, -7322.297373091862, 9410.419691851102, 12223.543193762684, -187500.02235174447, 14279.9707388843, -53766.89776979659, 0.15, 1.014, 0.122, 192.0, 0.0, 0.0, 0.0, 0.0, 0.0, 0.0, 0.0, 0.0, 0.0, 1.6959357065155802E9, 0.0, 2023-09-28 16:15:06.515
22.0, 10677.137753622264, 22248.769968601464, 27016.66528185192, -6830.983678219757, 30787.136350528763, 31817.305900729407, -187500.02235174447, 46980.4387665318, 13020.785214994576, -18092.507790626027, -7310.272134574907, 9444.908433545641, 12243.302135861175, -187500.02235174447, 14017.829479912458, -54059.83973262784, 0.15, 1.014, 0.122, 192.0, 0.0, 0.0, 0.0, 0.0, 0.0, 0.0, 0.0, 0.0, 0.0, 1.6959357065155962E9, 0.0, 2023-09-28 16:15:06.515
24.0, 10706.016207458522, 22301.005995393516, 26782.888386593866, -6990.150450485999, 30781.99544930404, 31638.31313113131, -187500.02235174447, 46793.55583114098, 13009.207011366727, -18135.44549172467, -7334.702591264558, 9414.934744231075, 12199.068033584123, -187500.02235174447, 14315.73353001279, -53733.54896706927, 0.15, 1.014, 0.122, 192.0, 0.0, 0.0, 0.0, 0.0, 0.0, 0.0, 0.0, 0.0, 0.0, 1.695935706515618E9, 0.0, 2023-09-28 16:15:06.515
26.0, 10680.088183890366, 22266.94193684363, 26964.04927540413, -6850.474399384785, 30778.083894024363, 31800.273871454465, -187500.02235174447, 46933.075420031004, 13041.170005937816, -18102.186095975172, -7298.179840824586, 9439.812235809832, 12228.080597887112, -187500.02235174447, 14017.896535145825, -54064.13126756326, 0.15, 1.014, 0.122, 192.0, 0.0, 0.0, 0.0, 0.0, 0.0, 0.0, 0.0, 0.0, 0.0, 1.6959357065156343E9, 0.0, 2023-09-28 16:15:06.515
28.0, 10709.12309993781, 22294.94867264613, 26814.560808487036, -7007.808328605692, 30760.448367649125, 31647.522049846895, -187500.02235174447, 46833.252529293604, 13003.976703164186, -18135.557250446946, -7340.7599140119455, 9410.553802317834, 12204.611266209038, -187500.02235174447, 14324.36130337254, -53730.7326472679, 0.15, 1.0, 0.124, 192.0, 2.0, 88.0, 15.5, 32.0, 1.5, 112.0, 0.0, 0.0, 0.0, 1.6959357065156524E9, 0.0, 2023-09-28 16:15:06.515
30.0, 10658.988137124556, 22261.64457340772, 26897.306966460583, -6851.994318007746, 30788.455103451623, 31799.223339465065, -187500.02235174447, 46876.883134470365, 13045.305078662048, -18096.57580811689, -7305.6006199837475, 9429.932764760586, 12245.157330650965, -187500.02235174447, 14003.703177416704, -54078.19051482565, 0.15, 1.0, 0.124, 192.0, 0.0, 0.0, 0.0, 0.0, 0.0, 0.0, 0.0, 0.0, 0.0, 1.6959357065156689E9, 0.0, 2023-09-28 16:15:06.515
32.0, 10686.659596760226, 22289.293681298936, 26865.053399211574, -6989.770470830259, 30764.80695781791, 31681.407294441142, -187500.02235174447, 46881.487593828155, 12970.247920781127, -18148.07422734192, -7354.103905451764, 9419.360389633226, 12203.583085964096, -187500.02235174447, 14335.31365815564, -53724.45180707596, 0.15, 1.0, 0.124, 192.0, 0.0, 0.0, 0.0, 0.0, 0.0, 0.0, 0.0, 0.0, 0.0, 1.695935706515685E9, 0.0, 2023-09-28 16:15:06.515
34.0, 10662.810285426413, 22281.492922484034, 26816.9300933993, -6863.93014954688, 30777.12276901278, 31784.448836380107, -187500.02235174447, 46813.605345917385, 13035.649125057356, -18082.24833992104, -7321.895041691666, 9428.614011837723, 12242.050438171678, -187500.02235174447, 14000.01513958158, -54077.13998283625, 0.15, 1.0, 0.124, 192.0, 0.0, 0.0, 0.0, 0.0, 0.0, 0.0, 0.0, 0.0, 0.0, 1.6959357065157013E9, 0.0, 2023-09-28 16:15:06.515
36.0, 10659.30106154693, 22270.69702991212, 26913.75785037969, -6976.895866024001, 30751.127690211262, 31710.41985874413, -187500.02235174447, 46925.65464087184, 12961.396629976825, -18127.197698020664, -7366.59853060228, 9423.182537935083, 12197.235190538788, -187500.02235174447, 14303.194201373364, -53757.21946444744, 0.15, 1.0, 0.124, 192.0, 0.0, 0.0, 0.0, 0.0, 0.0, 0.0, 0.0, 0.0, 0.0, 1.6959357065157173E9, 0.0, 2023-09-28 16:15:06.515
38.0, 10623.515918673984, 22252.480358181045, 26749.09254897744, -6889.008806825735, 30780.497882425534, 31756.687969766615, -187500.02235174447, 46759.15649642426, 13011.710406745722, -18090.026746991487, -7335.820178487323, 9412.38664536317, 12211.98734187929, -187500.02235174447, 14004.82076463947, -54068.98159611006, 0.15, 0.996, 0.124, 192.0, 2.0, 88.0, 15.5, 16.0, 1.5, 112.0, 0.0, 0.0, 0.0, 1.6959357065157335E9, 0.0, 2023-09-28 16:15:06.515
40.0, 10640.637354926748, 22244.836061577327, 26966.217394616295, -6972.470220621851, 30740.398852872713, 31719.00292861497, -187500.02235174447, 46975.186106584806, 12936.452083164702, -18132.271544012016, -7384.5469813998925, 9407.871592983198, 12165.31689945661, -187500.02235174447, 14278.383765027973, -53789.94241833001, 0.15, 0.996, 0.124, 192.0, 0.0, 0.0, 0.0, 0.0, 0.0, 0.0, 0.0, 0.0, 0.0, 1.6959357065157497E9, 0.0, 2023-09-28 16:15:06.515
42.0, 10646.58291895186, 22254.335552970835, 26713.508571804592, -6907.426644256908, 30779.514405669503, 31726.602521729772, -187500.02235174447, 46737.58706302489, 13023.333313862482, -18128.471747454616, -7340.536396567392, 9394.19232537655, 12220.682170472404, -187500.02235174447, 14047.222023871187, -54024.63573511073, 0.15, 0.996, 0.124, 192.0, 0.0, 0.0, 0.0, 0.0, 0.0, 0.0, 0.0, 0.0, 0.0, 1.695935706515768E9, 0.0, 2023-09-28 16:15:06.515
44.0, 10644.124227061777, 22237.459985907077, 27008.48454338128, -6945.514016808751, 30749.85364077731, 31751.636475519717, -187500.02235174447, 47013.094665181, 12925.7008940817, -18127.041235809476, -7373.728737083524, 9422.087302456774, 12196.922266116413, -187500.02235174447, 14265.531511966172, -53811.13187207364, 0.15, 0.996, 0.124, 192.0, 0.0, 0.0, 0.0, 0.0, 0.0, 0.0, 0.0, 0.0, 0.0, 1.6959357065157995E9, 0.0, 2023-09-28 16:15:06.515
46.0, 10630.28849724394, 22253.910869826184, 26678.505739987584, -6922.022333386223, 30768.226774719573, 31700.540387694884, -187500.02235174447, 46704.707646931136, 13019.287648116071, -18127.376511976305, -7333.182672641597, 9398.685026012066, 12201.593780707572, -187500.02235174447, 14082.426021388295, -53988.31415037086, 0.15, 0.996, 0.124, 192.0, 0.0, 0.0, 0.0, 0.0, 0.0, 0.0, 0.0, 0.0, 0.0, 1.695935706515816E9, 0.0, 2023-09-28 16:15:06.515
48.0, 10615.20106973661, 22247.02653253395, 27049.321180501127, -6922.089388619589, 30748.780757043452, 31775.128158942243, -187500.02235174447, 47048.0527935091, 12946.37625770286, -18124.58254391939, -7359.177751443119, 9422.891965257164, 12193.435393981385, -187500.02235174447, 14239.849357587023, -53836.72461947497, 0.152, 0.994, 0.124, 192.0, 2.0, 96.0, 15.5, 8.0, 1.5, 112.0, 0.0, 0.0, 0.0, 1.695935706515832E9, 0.0, 2023-09-28 16:15:06.515
50.0, 10639.564471192894, 22255.11786402677, 26650.61076290736, -6942.004792929268, 30792.031382564473, 31685.140035765176, -187500.02235174447, 46692.10126305834, 12988.95633089022, -18123.777881119, -7353.254539162463, 9393.499421298435, 12199.85034464006, -187500.02235174447, 14126.347199242975, -53937.26276603494, 0.152, 0.994, 0.124, 192.0, 0.0, 0.0, 0.0, 0.0, 0.0, 0.0, 0.0, 0.0, 0.0, 1.695935706515848E9, 0.0, 2023-09-28 16:15:06.515
52.0, 10623.784139607447, 22226.73114856853, 27067.69431444339, -6907.583106468094, 30755.888611780243, 31790.595566105316, -187500.02235174447, 47072.192677520834, 12968.169208546784, -18124.806061363943, -7348.4489141045715, 9430.513910116424, 12208.746338933272, -187500.02235174447, 14210.076833972555, -53873.9179222486, 0.152, 0.994, 0.124, 192.0, 0.0, 0.0, 0.0, 0.0, 0.0, 0.0, 0.0, 0.0, 0.0, 1.695935706515864E9, 0.0, 2023-09-28 16:15:06.515
54.0, 10674.880227432279, 22272.284003768447, 26620.882942781802, -6971.464392121362, 30788.03042030697, 31656.663913329117, -187500.02235174447, 46668.3637104468, 13002.613246752411, -18137.479500470105, -7351.578158328314, 9389.632569507667, 12206.801737165659, -187500.02235174447, 14168.256720096675, -53891.48639339047, 0.152, 0.994, 0.124, 192.0, 0.0, 0.0, 0.0, 0.0, 0.0, 0.0, 0.0, 0.0, 0.0, 1.6959357065158815E9, 0.0, 2023-09-28 16:15:06.515
56.0, 10611.848308068313, 22231.089738737315, 27068.25310805477, -6879.777536365693, 30756.3579984138, 31816.165961762188, -187500.02235174447, 47066.22476175127, 12977.825162151476, -18098.54276162896, -7343.777399513412, 9440.035753254384, 12191.803716636148, -187500.02235174447, 14154.666859467849, -53931.60777468774, 0.152, 0.994, 0.124, 192.0, 0.0, 0.0, 0.0, 0.0, 0.0, 0.0, 0.0, 0.0, 0.0, 1.6959357065158975E9, 0.0, 2023-09-28 16:15:06.515
58.0, 10656.462390001107, 22303.844666939338, 26625.062718994945, -6980.270979436753, 30774.217042233595, 31655.054587728333, -187500.02235174447, 46676.767966362, 12977.109906328906, -18135.289029513482, -7353.902739751666, 9387.732671228967, 12176.716289128815, -187500.02235174447, 14218.704607332304, -53836.52345377487, 0.146, 0.994, 0.114, 192.0, 2.0, 72.0, 15.5, 8.0, 1.5, 72.0, 0.0, 0.0, 0.0, 1.6959357065159135E9, 0.0, 2023-09-28 16:15:06.515
60.0, 10637.329296747363, 22248.971134301562, 27052.40572123596, -6871.015652539212, 30764.158757228706, 31824.972549077578, -187500.02235174447, 47035.714630569775, 12982.653138953823, -18090.742002814055, -7331.550995296359, 9439.34284917627, 12216.658856470449, -187500.02235174447, 14112.355007213951, -53975.35013858678, 0.146, 0.994, 0.114, 192.0, 0.0, 0.0, 0.0, 0.0, 0.0, 0.0, 0.0, 0.0, 0.0, 1.6959357065159292E9, 0.0, 2023-09-28 16:15:06.515
62.0, 10658.116419090798, 22279.481265483057, 26644.396977948785, -6997.168898244965, 30765.633972362757, 31637.329654375277, -187500.02235174447, 46686.24510601105, 12997.38293854987, -18128.49409919907, -7354.8862165077, 9392.560648031313, 12194.910609115435, -187500.02235174447, 14243.67150588888, -53810.08134008424, 0.146, 0.994, 0.114, 192.0, 0.0, 0.0, 0.0, 0.0, 0.0, 0.0, 0.0, 0.0, 0.0, 1.695935706515945E9, 0.0, 2023-09-28 16:15:06.515
64.0, 10605.925095787656, 22235.604791117286, 27036.02189255022, -6870.076879272089, 30743.84102151883, 31825.531342688962, -187500.02235174447, 47031.75837180119, 12981.535551731056, -18100.73323258558, -7328.913489450632, 9435.29718342986, 12227.946487420379, -187500.02235174447, 14077.26276841912, -54004.765034289965, 0.146, 0.994, 0.114, 192.0, 0.0, 0.0, 0.0, 0.0, 0.0, 0.0, 0.0, 0.0, 0.0, 1.6959357065159757E9, 0.0, 2023-09-28 16:15:06.515
66.0, 10669.11347736281, 22302.36945180529, 26676.09175158641, -7008.165956516977, 30764.829309562363, 31640.123622432187, -187500.02235174447, 46729.652193743255, 12985.737679688655, -18128.91878234372, -7358.328385153817, 9385.966883416997, 12193.010710836734, -187500.02235174447, 14287.16800059891, -53757.95707201446, 0.146, 0.994, 0.114, 192.0, 0.0, 0.0, 0.0, 0.0, 0.0, 0.0, 0.0, 0.0, 0.0, 1.695935706515993E9, 0.0, 2023-09-28 16:15:06.515
68.0, 10642.514901460994, 22252.010971547483, 26999.968528743808, -6866.813524581615, 30769.634934620255, 31830.068746813387, -187500.02235174447, 47003.05873192057, 13009.631694511378, -18090.0714504804, -7338.5917947997805, 9425.328305402792, 12216.681208214904, -187500.02235174447, 14057.056791431522, -54021.43943565362, 0.14400000000000002, 0.998, 0.11, 192.0, 2.0, 64.0, 15.5, 24.0, 1.5, 56.0, 0.0, 0.0, 0.0, 1.6959357065160089E9, 0.0, 2023-09-28 16:15:06.516
70.0, 10665.045459871944, 22293.74167844554, 26693.704926217193, -7020.414712478485, 30778.57563240238, 31639.184849165067, -187500.02235174447, 46751.601606798366, 12970.829066136965, -18114.747776359054, -7365.615053846247, 9390.459584052514, 12185.522876444207, -187500.02235174447, 14313.677169522904, -53731.02321994582, 0.14400000000000002, 0.998, 0.11, 192.0, 0.0, 0.0, 0.0, 0.0, 0.0, 0.0, 0.0, 0.0, 0.0, 1.6959357065160244E9, 0.0, 2023-09-28 16:15:06.516
72.0, 10616.34100870383, 22237.59409637381, 26933.829716900556, -6870.143934505455, 30759.487242637548, 31812.835551838347, -187500.02235174447, 46940.00446081215, 12989.649234968334, -18089.28913942446, -7335.4178470871275, 9428.05521822634, 12217.284705315198, -187500.02235174447, 13997.601151180406, -54087.06415737441, 0.14400000000000002, 0.998, 0.11, 192.0, 0.0, 0.0, 0.0, 0.0, 0.0, 0.0, 0.0, 0.0, 0.0, 1.69593570651604E9, 0.0, 2023-09-28 16:15:06.516
74.0, 10654.271919044486, 22282.521102728977, 26737.491993605137, -7020.43706422294, 30769.254954964515, 31642.291741644352, -187500.02235174447, 46785.66566534826, 12964.36941198938, -18135.06551206893, -7382.468269165549, 9385.877476439176, 12185.679338655395, -187500.02235174447, 14290.118430867009, -53764.26026395086, 0.14400000000000002, 0.998, 0.11, 192.0, 0.0, 0.0, 0.0, 0.0, 0.0, 0.0, 0.0, 0.0, 0.0, 1.695935706516056E9, 0.0, 2023-09-28 16:15:06.516
76.0, 10612.854136568802, 22245.707779611086, 26887.203977966783, -6868.825181582592, 30787.695144140143, 31809.661604125693, -187500.02235174447, 46900.19600393725, 13015.376092836392, -18102.81194481992, -7328.35469583925, 9416.745235531955, 12243.749170750281, -187500.02235174447, 13982.469020184162, -54108.1195006513, 0.14400000000000002, 0.998, 0.11, 192.0, 0.0, 0.0, 0.0, 0.0, 0.0, 0.0, 0.0, 0.0, 0.0, 1.6959357065160725E9, 0.0, 2023-09-28 16:15:06.516
78.0, 10622.241869240032, 22255.229622749048, 26824.26146558064, -7022.694590412926, 30779.17912950267, 31667.146881478657, -187500.02235174447, 46881.4652420837, 12934.999219775107, -18141.748683661066, -7392.347740214795, 9382.927046171075, 12182.103059542545, -187500.02235174447, 14325.545945828671, -53741.550891584266, 0.152, 0.996, 0.11, 192.0, 2.0, 96.0, 15.5, 16.0, 1.5, 56.0, 0.0, 0.0, 0.0, 1.6959357065160904E9, 0.0, 2023-09-28 16:15:06.516
80.0, 10605.992151021022, 22227.87108753575, 26830.005863905655, -6894.529687706196, 30784.38708596076, 31782.61599333477, -187500.02235174447, 46873.731538502165, 12989.984511135162, -18126.81771836492, -7357.277853164417, 9388.336168329259, 12206.22059180982, -187500.02235174447, 14025.071445115978, -54059.504456461014, 0.152, 0.996, 0.11, 192.0, 0.0, 0.0, 0.0, 0.0, 0.0, 0.0, 0.0, 0.0, 0.0, 1.6959357065161068E9, 0.0, 2023-09-28 16:15:06.516
82.0, 10632.009581567, 22251.854509336295, 26840.466480310737, -7016.659619409993, 30758.146137970227, 31683.709524120037, -187500.02235174447, 46909.583736608474, 12947.024458292062, -18142.7321604171, -7393.219458248551, 9378.054365879818, 12186.662815411428, -187500.02235174447, 14326.440015606882, -53733.54896706927, 0.152, 0.996, 0.11, 192.0, 0.0, 0.0, 0.0, 0.0, 0.0, 0.0, 0.0, 0.0, 0.0, 1.6959357065161226E9, 0.0, 2023-09-28 16:15:06.516
84.0, 10635.652915913215, 22255.363733215778, 26752.266496690096, -6895.781385395692, 30780.296716725436, 31767.774435016447, -187500.02235174447, 46802.854156834386, 13008.782328222076, -18125.141337530775, -7357.948405498077, 9387.933836929064, 12206.22059180982, -187500.02235174447, 14006.161869306789, -54063.72893616306, 0.152, 0.996, 0.11, 192.0, 0.0, 0.0, 0.0, 0.0, 0.0, 0.0, 0.0, 0.0, 0.0, 1.6959357065161405E9, 0.0, 2023-09-28 16:15:06.516
86.0, 10635.228232768564, 22252.189785503124, 26890.22146346825, -6981.075642237144, 30758.950800770617, 31713.75026866797, -187500.02235174447, 46942.597263168966, 12944.297545468515, -18139.692323171177, -7381.395385431694, 9401.210773135517, 12182.617149665017, -187500.02235174447, 14291.548942512149, -53766.47308665194, 0.152, 0.996, 0.11, 192.0, 0.0, 0.0, 0.0, 0.0, 0.0, 0.0, 0.0, 0.0, 0.0, 1.695935706516157E9, 0.0, 2023-09-28 16:15:06.516
88.0, 10633.77536937897, 22251.630991891743, 26706.624234512357, -6892.65214117195, 30781.4143039482, 31746.33911208381, -187500.02235174447, 46745.07489741742, 13005.831897953976, -18114.7254246146, -7335.5966610427695, 9404.027092936885, 12221.106853617055, -187500.02235174447, 14009.112299574888, -54058.856255871804, 0.156, 1.0, 0.106, 192.0, 2.0, 112.0, 15.5, 32.0, 1.5, 40.0, 0.0, 0.0, 0.0, 1.6959357065161724E9, 0.0, 2023-09-28 16:15:06.516
90.0, 10624.231174496554, 22231.804994559883, 26947.486632762746, -6957.785124514714, 30744.355111641304, 31733.263341577454, -187500.02235174447, 46972.28037980561, 12934.619240119368, -18141.480462727603, -7371.292396937895, 9415.493537842458, 12179.398498463452, -187500.02235174447, 14264.168055554397, -53799.26309576787, 0.156, 1.0, 0.106, 192.0, 0.0, 0.0, 0.0, 0.0, 0.0, 0.0, 0.0, 0.0, 0.0, 1.6959357065161884E9, 0.0, 2023-09-28 16:15:06.516
92.0, 10593.609284592781, 22230.754462570487, 26672.18019630673, -6923.408141542452, 30770.55135614292, 31713.683213434604, -187500.02235174447, 46710.80967316743, 12965.531702701057, -18138.97706734861, -7360.764725299446, 9389.744328229945, 12197.682225427894, -187500.02235174447, 14041.410570312808, -54018.75722631899, 0.156, 1.0, 0.106, 192.0, 0.0, 0.0, 0.0, 0.0, 0.0, 0.0, 0.0, 0.0, 0.0, 1.6959357065162058E9, 0.0, 2023-09-28 16:15:06.516
94.0, 10573.917397727657, 22196.042203431392, 26983.539996569158, -6938.093237649588, 30762.817652561385, 31765.136929170723, -187500.02235174447, 47002.991676687205, 12917.6989695667, -18145.63788719629, -7376.03096676242, 9416.275848898393, 12192.518972458718, -187500.02235174447, 14238.77647385317, -53829.505006015905, 0.156, 1.0, 0.106, 192.0, 0.0, 0.0, 0.0, 0.0, 0.0, 0.0, 0.0, 0.0, 0.0, 1.6959357065162213E9, 0.0, 2023-09-28 16:15:06.516
96.0, 10554.650194007183, 22194.63404353071, 26608.8800560093, -6948.017412187745, 30779.894385325242, 31688.73866662248, -187500.02235174447, 46657.4113556637, 12945.884519324842, -18147.02369535252, -7371.918245782644, 9382.837639193254, 12206.93584763239, -187500.02235174447, 14063.158817667821, -54003.89331625621, 0.156, 1.0, 0.106, 192.0, 0.0, 0.0, 0.0, 0.0, 0.0, 0.0, 0.0, 0.0, 0.0, 1.69593570651624E9, 0.0, 2023-09-28 16:15:06.516
98.0, 10482.878742561192, 22124.695435130052, 27006.294072424662, -6925.822129943625, 30747.640818076234, 31777.94447874361, -187500.02235174447, 47023.44352286381, 12877.488181291603, -18155.539709989993, -7393.442975693104, 9401.344883602249, 12181.387803719976, -187500.02235174447, 14180.080792913532, -53910.306562221835, 0.152, 1.0, 0.11, 192.0, 2.0, 96.0, 15.5, 32.0, 1.5, 56.0, 0.0, 0.0, 0.0, 1.695935706516256E9, 0.0, 2023-09-28 16:15:06.516
100.0, 10471.83698080027, 22129.43400495458, 26588.607023788336, -6973.386642144518, 30774.10528351132, 31662.900050032145, -187500.02235174447, 46656.249064952026, 12901.024568203042, -18186.608634782868, -7396.7957373614, 9353.959185356998, 12176.068088539612, -187500.02235174447, 14114.433719448296, -53964.844818692785, 0.152, 1.0, 0.11, 192.0, 0.0, 0.0, 0.0, 0.0, 0.0, 0.0, 0.0, 0.0, 0.0, 1.695935706516272E9, 0.0, 2023-09-28 16:15:06.516
102.0, 10431.000343680424, 22072.258242637905, 27005.668223579913, -6917.0155426282345, 30749.875992521764, 31786.035810236433, -187500.02235174447, 47021.0518862071, 12831.667105158223, -18196.577512809934, -7422.433188251637, 9379.395470547137, 12175.26342573922, -187500.02235174447, 14144.161539573854, -53968.421097805636, 0.152, 1.0, 0.11, 192.0, 0.0, 0.0, 0.0, 0.0, 0.0, 0.0, 0.0, 0.0, 0.0, 1.695935706516288E9, 0.0, 2023-09-28 16:15:06.516
104.0, 10446.73597177696, 22114.167763491605, 26569.65274449024, -6994.2631714657755, 30774.597021889334, 31643.565791078305, -187500.02235174447, 46638.770000787976, 12871.341451566394, -18209.6979868052, -7417.359342260283, 9341.173987528562, 12158.097285997545, -187500.02235174447, 14146.352010530474, -53950.45029526357, 0.152, 1.0, 0.11, 192.0, 0.0, 0.0, 0.0, 0.0, 0.0, 0.0, 0.0, 0.0, 0.0, 1.6959357065163057E9, 0.0, 2023-09-28 16:15:06.516
106.0, 10411.174346348565, 22057.32727734176, 27009.892703281967, -6906.465519245329, 30742.32110289587, 31799.49156039853, -187500.02235174447, 47028.27149966616, 12845.25696578705, -18180.037221913008, -7414.118339314264, 9385.653958994622, 12170.502504170241, -187500.02235174447, 14095.233570961187, -54037.21976723907, 0.152, 1.0, 0.11, 192.0, 0.0, 0.0, 0.0, 0.0, 0.0, 0.0, 0.0, 0.0, 0.0, 1.695935706516321E9, 0.0, 2023-09-28 16:15:06.516
108.0, 10455.274338158886, 22117.587580393265, 26587.243567376565, -7004.790843104225, 30772.071274765884, 31637.64257879765, -187500.02235174447, 46662.03816676595, 12874.962434168154, -18214.302446162994, -7419.728627172545, 9341.106932295195, 12167.060335524124, -187500.02235174447, 14178.829095224035, -53922.063579805326, 0.15, 1.004, 0.10400000000000001, 192.0, 2.0, 88.0, 15.5, 48.0, 1.5, 32.0, 0.0, 0.0, 0.0, 1.695935706516337E9, 0.0, 2023-09-28 16:15:06.516
110.0, 10399.350273531709, 22044.60913474669, 27019.5263051422, -6892.272161516209, 30731.972245213063, 31820.233979253055, -187500.02235174447, 47048.365717931476, 12857.013983370542, -18177.623233511833, -7409.960914845577, 9389.654921252122, 12168.110867513522, -187500.02235174447, 14067.74092528116, -54066.99229085354, 0.15, 1.004, 0.10400000000000001, 192.0, 0.0, 0.0, 0.0, 0.0, 0.0, 0.0, 0.0, 0.0, 0.0, 1.6959357065163524E9, 0.0, 2023-09-28 16:15:06.516
112.0, 10469.959434266024, 22136.117176546715, 26604.521465840517, -7032.797578906725, 30757.43088214766, 31627.338424603753, -187500.02235174447, 46690.357826990825, 12883.791373228, -18219.93508576573, -7424.891880141721, 9334.647278147611, 12164.646347122949, -187500.02235174447, 14252.791017626647, -53843.631308511656, 0.15, 1.004, 0.10400000000000001, 192.0, 0.0, 0.0, 0.0, 0.0, 0.0, 0.0, 0.0, 0.0, 0.0, 1.6959357065163682E9, 0.0, 2023-09-28 16:15:06.516
114.0, 10431.425026825074, 22099.437963895558, 26981.34952561254, -6879.9787020657905, 30744.22100117457, 31823.40792696571, -187500.02235174447, 46996.80024347309, 12903.997350215597, -18169.487198530103, -7373.326405683328, 9399.154412645628, 12200.967931862824, -187500.02235174447, 14026.613715483394, -54110.93582045267, 0.15, 1.004, 0.10400000000000001, 192.0, 0.0, 0.0, 0.0, 0.0, 0.0, 0.0, 0.0, 0.0, 0.0, 1.695935706516384E9, 0.0, 2023-09-28 16:15:06.516
116.0, 10487.796126341358, 22151.226955798502, 26667.195757293197, -7035.904471386012, 30744.623332574767, 31628.25484612642, -187500.02235174447, 46738.458781058645, 12872.079059133419, -18213.810707784978, -7412.441958480115, 9344.951432341508, 12165.160437245422, -187500.02235174447, 14263.25163403173, -53839.67504974307, 0.15, 1.004, 0.10400000000000001, 192.0, 0.0, 0.0, 0.0, 0.0, 0.0, 0.0, 0.0, 0.0, 0.0, 1.6959357065164013E9, 0.0, 2023-09-28 16:15:06.516
118.0, 10511.17605104161, 22147.51656621892, 26946.23493507325, -6875.418946196908, 30759.08491123735, 31816.56829316238, -187500.02235174447, 46952.6331964294, 12936.563841886978, -18153.840977411386, -7363.178713700619, 9396.963941689008, 12199.917399873424, -187500.02235174447, 14006.698311173715, -54129.86774800632, 0.15, 0.992, 0.10200000000000001, 192.0, 2.0, 88.0, 15.5, 0.0, 1.5, 24.0, 0.0, 0.0, 0.0, 1.6959357065164173E9, 0.0, 2023-09-28 16:15:06.516
120.0, 10539.026324632923, 22195.908092964663, 26712.30157760401, -7033.91516612949, 30750.077158221862, 31640.905933488124, -187500.02235174447, 46767.98543548411, 12913.675655564744, -18201.338434378915, -7411.458481724082, 9355.18853130204, 12163.059373266624, -187500.02235174447, 14287.078593621087, -53817.56917447677, 0.15, 0.992, 0.10200000000000001, 192.0, 0.0, 0.0, 0.0, 0.0, 0.0, 0.0, 0.0, 0.0, 0.0, 1.695935706994656E9, 0.0, 2023-09-28 16:15:06.994
122.0, 10533.572498985828, 22177.758476466952, 26904.191303752817, -6871.485039172774, 30746.90321050921, 31808.029926780455, -187500.02235174447, 46906.36508540691, 12962.648327666322, -18129.902259099756, -7355.8473415192775, 9405.256438881926, 12227.030065897712, -187500.02235174447, 13980.882046327835, -54163.55182690047, 0.15, 0.992, 0.10200000000000001, 192.0, 0.0, 0.0, 0.0, 0.0, 0.0, 0.0, 0.0, 0.0, 0.0, 1.695935706994722E9, 0.0, 2023-09-28 16:15:06.994
124.0, 10574.364432616763, 22217.924561253138, 26762.213022972708, -7022.649886924016, 30730.966416712574, 31651.433605126575, -187500.02235174447, 46807.59272665891, 12942.531757656547, -18173.4881607876, -7387.31859771235, 9380.71422347, 12182.661853153928, -187500.02235174447, 14292.264198334718, -53823.6041454797, 0.15, 0.992, 0.10200000000000001, 192.0, 0.0, 0.0, 0.0, 0.0, 0.0, 0.0, 0.0, 0.0, 0.0, 1.6959357069947405E9, 0.0, 2023-09-28 16:15:06.994
126.0, 10535.204176331064, 22208.40271811518, 26852.357608360962, -6879.285797987676, 30751.75353905601, 31790.573214360862, -187500.02235174447, 46859.538180773045, 12984.061298854507, -18126.750663131555, -7349.767667027434, 9403.62476153669, 12217.463519270841, -187500.02235174447, 13982.759592862081, -54161.27194896602, 0.15, 0.992, 0.10200000000000001, 192.0, 0.0, 0.0, 0.0, 0.0, 0.0, 0.0, 0.0, 0.0, 0.0, 1.6959357069947577E9, 0.0, 2023-09-28 16:15:06.994
128.0, 10557.444162064096, 22225.479450879033, 26822.49567776867, -7010.132910029043, 30741.22586741756, 31664.93405877758, -187500.02235174447, 46859.78404996205, 12928.785434816533, -18165.866215928345, -7386.6033418897805, 9390.593694519246, 12196.922266116413, -187500.02235174447, 14299.729680982791, -53824.56527049128, 0.136, 0.986, 0.098, 192.0, 2.0, 32.0, 15.0, 104.0, 1.5, 8.0, 0.0, 0.0, 0.0, 1.695935706994776E9, 0.0, 2023-09-28 16:15:06.994
130.0, 10572.486886082517, 22229.614523603264, 26798.86988387941, -6880.917475332913, 30754.726321068567, 31766.85801349378, -187500.02235174447, 46815.19231977371, 13013.319732346503, -18125.8789450978, -7325.963059182533, 9409.391511606158, 12218.871679171525, -187500.02235174447, 13992.504953444595, -54155.19227447418, 0.136, 0.986, 0.098, 192.0, 0.0, 0.0, 0.0, 0.0, 0.0, 0.0, 0.0, 0.0, 0.0, 1.6959357069947927E9, 0.0, 2023-09-28 16:15:06.994
132.0, 10596.04562473841, 22242.958515043083, 26873.41295163786, -6993.838488321125, 30728.775945755955, 31683.754227608948, -187500.02235174447, 46906.76741680711, 12944.766932102077, -18138.284163270495, -7367.671414336135, 9404.831755737276, 12189.680300912894, -187500.02235174447, 14302.456593806339, -53828.856805426694, 0.136, 0.986, 0.098, 192.0, 0.0, 0.0, 0.0, 0.0, 0.0, 0.0, 0.0, 0.0, 0.0, 1.695935706994809E9, 0.0, 2023-09-28 16:15:06.994
134.0, 10597.230267194542, 22267.567785688378, 26740.732996551156, -6892.428623727396, 30775.222870734084, 31748.775452229438, -187500.02235174447, 46765.25852266056, 13023.445072584758, -18118.122889771807, -7325.605431271248, 9406.686950527066, 12246.587842296105, -187500.02235174447, 14001.736223904638, -54140.95421325615, 0.136, 0.986, 0.098, 192.0, 0.0, 0.0, 0.0, 0.0, 0.0, 0.0, 0.0, 0.0, 0.0, 1.6959357069948368E9, 0.0, 2023-09-28 16:15:06.994
136.0, 10604.740453331526, 22250.78162560244, 26941.250496059718, -6971.777316543737, 30745.115070952783, 31715.493704735483, -187500.02235174447, 46971.69923444978, 12957.686240397245, -18129.946962588663, -7356.987280486498, 9421.550860589847, 12220.145728605477, -187500.02235174447, 14279.88133190648, -53855.298919117326, 0.136, 0.986, 0.098, 192.0, 0.0, 0.0, 0.0, 0.0, 0.0, 0.0, 0.0, 0.0, 0.0, 1.6959357069948535E9, 0.0, 2023-09-28 16:15:06.994
138.0, 10619.961991305589, 22265.913756598682, 26690.978013393644, -6918.714275206838, 30775.602850389823, 31717.773582669925, -187500.02235174447, 46736.514179291036, 13019.377055093892, -18118.63697989428, -7330.142835395674, 9402.283656869371, 12225.890126930492, -187500.02235174447, 14034.30271557602, -54101.436329059165, 0.132, 0.99, 0.096, 192.0, 2.0, 16.0, 15.0, 120.0, 1.5, 0.0, 0.0, 0.0, 0.0, 1.6959357069948702E9, 0.0, 2023-09-28 16:15:06.994
140.0, 10641.218500282586, 22262.22571876356, 26963.825757959577, -6951.146656411488, 30740.264742405983, 31744.595676016295, -187500.02235174447, 46987.83719394651, 12976.394650506336, -18126.661256153733, -7358.507199109459, 9422.95902049053, 12218.156423348955, -187500.02235174447, 14238.329438964063, -53906.596172642254, 0.132, 0.99, 0.096, 192.0, 0.0, 0.0, 0.0, 0.0, 0.0, 0.0, 0.0, 0.0, 0.0, 1.6959357069948862E9, 0.0, 2023-09-28 16:15:06.994
142.0, 10634.468273457083, 22280.375335261266, 26656.489271699105, -6933.667592247438, 30765.835138062852, 31701.479160962008, -187500.02235174447, 46702.6736381857, 13031.737569777677, -18113.07139552491, -7336.647193032169, 9408.676255783588, 12236.70837124686, -187500.02235174447, 14047.624355271382, -54100.94459068115, 0.132, 0.99, 0.096, 192.0, 0.0, 0.0, 0.0, 0.0, 0.0, 0.0, 0.0, 0.0, 0.0, 1.695935706994904E9, 0.0, 2023-09-28 16:15:06.994
144.0, 10604.896915542713, 22257.777721616952, 27023.661377866436, -6931.387714312997, 30738.186030171637, 31756.106824410777, -187500.02235174447, 47037.27925268165, 12969.018574836085, -18117.094709526864, -7354.059201962853, 9431.832663039288, 12215.742434947782, -187500.02235174447, 14219.62102885497, -53934.647611933666, 0.132, 0.99, 0.096, 192.0, 0.0, 0.0, 0.0, 0.0, 0.0, 0.0, 0.0, 0.0, 0.0, 1.6959357069949203E9, 0.0, 2023-09-28 16:15:06.994
146.0, 10628.656819898704, 22302.03417563846, 26623.07341373842, -6943.211787129854, 30771.445425921134, 31676.378151938698, -187500.02235174447, 46675.04688203894, 13046.780293796099, -18108.19871523365, -7313.334323565284, 9417.013456465418, 12245.269089373243, -187500.02235174447, 14081.129620209887, -54060.46558147259, 0.132, 0.99, 0.096, 192.0, 0.0, 0.0, 0.0, 0.0, 0.0, 0.0, 0.0, 0.0, 0.0, 1.6959357069949365E9, 0.0, 2023-09-28 16:15:06.994
148.0, 10624.164119263187, 22254.313201226378, 27038.704101884858, -6907.069016345623, 30743.349283140815, 31787.421618392662, -187500.02235174447, 47041.45902889479, 12983.457801754214, -18107.885790811277, -7336.557786054348, 9446.607166124246, 12226.314810075142, -187500.02235174447, 14157.170254846842, -54002.48515635552, 0.14, 1.0, 0.096, 192.0, 2.0, 48.0, 15.5, 32.0, 1.5, 0.0, 0.0, 0.0, 0.0, 1.695935706994953E9, 0.0, 2023-09-28 16:15:06.994
150.0, 10654.808360911413, 22293.361698789802, 26609.483553109596, -6976.292368923709, 30761.498899638525, 31653.467613872006, -187500.02235174447, 46672.252913982025, 13015.823127725498, -18137.6806661702, -7343.419771602127, 9388.872610196187, 12201.996112107769, -187500.02235174447, 14138.551251715571, -53999.33356038733, 0.14, 1.0, 0.096, 192.0, 0.0, 0.0, 0.0, 0.0, 0.0, 0.0, 0.0, 0.0, 0.0, 1.695935706994969E9, 0.0, 2023-09-28 16:15:06.994
152.0, 10633.641258912237, 22255.58725066033, 27050.908154357454, -6885.723100390805, 30741.583495328847, 31808.544016902928, -187500.02235174447, 47053.819543578575, 12995.840668182454, -18105.516505899013, -7328.980544683999, 9445.847206812765, 12229.064074643145, -187500.02235174447, 14112.64557989187, -54050.09437204533, 0.14, 1.0, 0.096, 192.0, 0.0, 0.0, 0.0, 0.0, 0.0, 0.0, 0.0, 0.0, 0.0, 1.695935706994985E9, 0.0, 2023-09-28 16:15:06.994
154.0, 10689.9229514507, 22297.519123258488, 26604.812038518434, -6982.4614503933735, 30774.23939397805, 31651.232439426476, -187500.02235174447, 46670.39771919224, 13017.47715681519, -18136.11604405833, -7337.742428510479, 9392.672406753589, 12210.378016278508, -187500.02235174447, 14172.861179454469, -53965.314205326344, 0.14, 1.0, 0.096, 192.0, 0.0, 0.0, 0.0, 0.0, 0.0, 0.0, 0.0, 0.0, 0.0, 1.6959357069950027E9, 0.0, 2023-09-28 16:15:06.995
156.0, 10611.490680157029, 22214.124764695738, 27043.666189153933, -6891.646312671461, 30728.485373078034, 31814.221359994575, -187500.02235174447, 47057.14995350241, 13000.311017073514, -18117.20646824914, -7332.400361585661, 9436.615936352722, 12217.865850671036, -187500.02235174447, 14072.50184685014, -54102.10688139283, 0.14, 1.0, 0.096, 192.0, 0.0, 0.0, 0.0, 0.0, 0.0, 0.0, 0.0, 0.0, 0.0, 1.6959357069950185E9, 0.0, 2023-09-28 16:15:06.995
158.0, 10669.471105274095, 22289.919530143685, 26632.192925476185, -7000.3651977020745, 30753.675789079167, 31641.151802677134, -187500.02235174447, 46711.34611503436, 13012.448014312748, -18144.229727295606, -7348.001879215465, 9387.28563633986, 12198.17396380591, -187500.02235174447, 14231.936840049844, -53901.432919673076, 0.146, 1.014, 0.096, 192.0, 2.0, 72.0, 15.5, 88.0, 1.5, 0.0, 0.0, 0.0, 0.0, 1.6959357069950347E9, 0.0, 2023-09-28 16:15:06.995
160.0, 10639.832692126358, 22245.484262166534, 27002.986014245274, -6870.255693227732, 30746.14325119773, 31825.15136303322, -187500.02235174447, 47015.30748788208, 13027.155462164339, -18113.093747269362, -7318.832852701289, 9439.566366620824, 12235.724894490826, -187500.02235174447, 14046.082084903966, -54117.775454256, 0.146, 1.014, 0.096, 192.0, 0.0, 0.0, 0.0, 0.0, 0.0, 0.0, 0.0, 0.0, 0.0, 1.6959357069950507E9, 0.0, 2023-09-28 16:15:06.995
162.0, 10672.220369842098, 22286.812637664396, 26633.489326654595, -7012.859822852591, 30769.545527642433, 31646.538573090864, -187500.02235174447, 46702.807748652434, 13017.141880648362, -18142.776863906012, -7344.269137891429, 9396.025168421886, 12208.388711021986, -187500.02235174447, 14227.690008603337, -53906.48441391998, 0.146, 1.014, 0.096, 192.0, 0.0, 0.0, 0.0, 0.0, 0.0, 0.0, 0.0, 0.0, 0.0, 1.695935706995067E9, 0.0, 2023-09-28 16:15:06.995
164.0, 10628.522709431973, 22236.767081828963, 26961.277659091673, -6868.489905415762, 30752.669960578678, 31831.00752008051, -187500.02235174447, 46972.97328388373, 13002.456784541224, -18106.365872188315, -7325.136044637686, 9436.235956696983, 12239.100007903578, -187500.02235174447, 13986.224113252654, -54186.19414403369, 0.146, 1.014, 0.096, 192.0, 0.0, 0.0, 0.0, 0.0, 0.0, 0.0, 0.0, 0.0, 0.0, 1.6959357069950829E9, 0.0, 2023-09-28 16:15:06.995
166.0, 10673.941454165157, 22290.18775107715, 26659.70792290067, -7019.587697933638, 30762.392969416735, 31651.478308615486, -187500.02235174447, 46720.689144216674, 13023.869755729409, -18146.867233141333, -7347.577196070814, 9397.165107389106, 12197.637521938983, -187500.02235174447, 14237.43536918585, -53901.81289932882, 0.146, 1.014, 0.096, 192.0, 0.0, 0.0, 0.0, 0.0, 0.0, 0.0, 0.0, 0.0, 0.0, 1.695935706995101E9, 0.0, 2023-09-28 16:15:06.995
168.0, 10633.998886823521, 22243.763177843473, 26914.69662364681, -6861.02442276769, 30747.5067076095, 31825.307825244407, -187500.02235174447, 46918.34562043496, 13032.922212233809, -18103.929532042686, -7318.810500956834, 9432.503215372946, 12241.938679449402, -187500.02235174447, 13940.80536851947, -54238.2513568701, 0.164, 1.022, 0.094, 192.0, 2.5, 16.0, 15.5, 120.0, 1.0, 120.0, 0.0, 0.0, 0.0, 1.6959357069951167E9, 0.0, 2023-09-28 16:15:06.995
170.0, 10682.479820547083, 22288.08668709835, 26732.86518250289, -7019.520642700272, 30739.03539646094, 31655.07693947279, -187500.02235174447, 46777.037891988504, 12984.776554677077, -18154.802102422967, -7355.780286285912, 9394.505249798924, 12196.050548082656, -187500.02235174447, 14250.354677481018, -53902.550506895845, 0.164, 1.022, 0.094, 192.0, 0.0, 0.0, 0.0, 0.0, 0.0, 0.0, 0.0, 0.0, 0.0, 1.6959357069951332E9, 0.0, 2023-09-28 16:15:06.995
172.0, 10650.20390155362, 22235.649494606198, 26873.725876060234, -6871.775611850693, 30752.491146623033, 31810.39921169272, -187500.02235174447, 46885.62266655239, 13027.356627864436, -18107.30464545544, -7320.285716090884, 9422.333171645781, 12226.94065891989, -187500.02235174447, 13955.937499515714, -54230.60706026639, 0.164, 1.022, 0.094, 192.0, 0.0, 0.0, 0.0, 0.0, 0.0, 0.0, 0.0, 0.0, 0.0, 1.6959357069951491E9, 0.0, 2023-09-28 16:15:06.995
174.0, 10655.322451033886, 22271.88167236825, 26786.799941873545, -7025.421503236474, 30743.84102151883, 31676.42285542761, -187500.02235174447, 46834.45952349419, 12990.990339635651, -18144.11796857333, -7360.295338665884, 9399.467337068003, 12195.916437615924, -187500.02235174447, 14280.909512151422, -53880.243465929445, 0.164, 1.022, 0.094, 192.0, 0.0, 0.0, 0.0, 0.0, 0.0, 0.0, 0.0, 0.0, 0.0, 1.6959357069951787E9, 0.0, 2023-09-28 16:15:06.995
176.0, 10646.62762244077, 22269.26651826698, 26801.10505832494, -6876.625940397495, 30762.348265927827, 31803.87250231177, -187500.02235174447, 46820.243814020614, 13032.899860489353, -18106.47763091059, -7319.034018401387, 9411.984313962974, 12228.527632776217, -187500.02235174447, 13955.848092537892, -54234.16098763478, 0.164, 1.022, 0.094, 192.0, 0.0, 0.0, 0.0, 0.0, 0.0, 0.0, 0.0, 0.0, 0.0, 1.6959357069951956E9, 0.0, 2023-09-28 16:15:06.995
178.0, 10666.721840706092, 22272.284003768447, 26834.051529652064, -7006.914258827479, 30731.435803346136, 31703.200245285065, -187500.02235174447, 46875.87730596987, 12981.088516841952, -18141.793387149977, -7366.151495713174, 9401.568401046801, 12190.104984057545, -187500.02235174447, 14265.889139877456, -53905.88091681968, 0.166, 1.022, 0.08, 192.0, 2.5, 24.0, 15.5, 120.0, 1.0, 64.0, 0.0, 0.0, 0.0, 1.6959357069952145E9, 0.0, 2023-09-28 16:15:06.995
180.0, 10639.028029325966, 22252.79328260342, 26759.307296193518, -6896.809565640637, 30751.597076844824, 31774.323496141853, -187500.02235174447, 46787.520860138044, 13035.269145401615, -18111.573828646404, -7331.238070873985, 9401.367235346703, 12220.07867337211, -187500.02235174447, 13974.422392180251, -54217.93362116023, 0.166, 1.022, 0.08, 192.0, 0.0, 0.0, 0.0, 0.0, 0.0, 0.0, 0.0, 0.0, 0.0, 1.695935706995231E9, 0.0, 2023-09-28 16:15:06.995
182.0, 10636.502282202517, 22262.248070508012, 26894.065963514564, -6988.80934581868, 30728.08304167784, 31721.260454804953, -187500.02235174447, 46921.29605070306, 12969.040926580541, -18132.02567482301, -7347.577196070814, 9415.113558186718, 12196.27406552721, -187500.02235174447, 14265.017421843699, -53914.508690179435, 0.166, 1.022, 0.08, 192.0, 0.0, 0.0, 0.0, 0.0, 0.0, 0.0, 0.0, 0.0, 0.0, 1.6959357069952476E9, 0.0, 2023-09-28 16:15:06.995
184.0, 10641.978459594067, 22266.964288588082, 26697.191798352218, -6920.837690930091, 30763.17528047267, 31747.456699306575, -187500.02235174447, 46733.18376936719, 13043.963973994729, -18125.789538119978, -7312.194384598063, 9399.132060901173, 12224.213746096344, -187500.02235174447, 13987.833438853437, -54205.953086132184, 0.166, 1.022, 0.08, 192.0, 0.0, 0.0, 0.0, 0.0, 0.0, 0.0, 0.0, 0.0, 0.0, 1.695935706995264E9, 0.0, 2023-09-28 16:15:06.995
186.0, 10646.940546863145, 22251.586288402832, 26952.895754920934, -6969.072755464645, 30756.42505364717, 31756.24093487751, -187500.02235174447, 46975.90136240737, 12952.187711261238, -18123.889639841276, -7356.74141129749, 9413.548936074845, 12190.306149757642, -187500.02235174447, 14252.768665882191, -53935.34051601178, 0.166, 1.022, 0.08, 192.0, 0.0, 0.0, 0.0, 0.0, 0.0, 0.0, 0.0, 0.0, 0.0, 1.6959357069952805E9, 0.0, 2023-09-28 16:15:06.995
188.0, 10637.530462447461, 22276.21791079258, 26658.590335677905, -6931.253603846265, 30776.429864934667, 31736.750213712483, -187500.02235174447, 46699.23146953958, 13029.569450565512, -18119.531049672492, -7322.073855647309, 9393.454717809525, 12208.254600555254, -187500.02235174447, 14028.133634106354, -54166.457553679655, 0.16, 1.016, 0.08, 192.0, 2.5, 0.0, 15.5, 96.0, 1.0, 64.0, 0.0, 0.0, 0.0, 1.6959357069952967E9, 0.0, 2023-09-28 16:15:06.995
190.0, 10635.384694979752, 22258.805901861895, 26982.33300236857, -6944.418781330441, 30744.66803606368, 31788.092170726322, -187500.02235174447, 46983.45625203327, 12961.396629976825, -18110.746814101556, -7344.425600102616, 9426.53529960338, 12223.073807129122, -187500.02235174447, 14201.918447246368, -54003.69215055611, 0.16, 1.016, 0.08, 192.0, 0.0, 0.0, 0.0, 0.0, 0.0, 0.0, 0.0, 0.0, 0.0, 1.6959357069953132E9, 0.0, 2023-09-28 16:15:06.995
192.0, 10657.758791179514, 22290.277158054967, 26620.41355614824, -6948.866778477047, 30788.67862089618, 31727.988329886, -187500.02235174447, 46655.84673355183, 13027.937773220274, -18102.923703542197, -7325.761893482434, 9392.426537564581, 12231.142786877488, -187500.02235174447, 14038.996581911635, -54167.39632694678, 0.16, 1.016, 0.08, 192.0, 0.0, 0.0, 0.0, 0.0, 0.0, 0.0, 0.0, 0.0, 0.0, 1.6959357069953308E9, 0.0, 2023-09-28 16:15:06.995
194.0, 10624.566450663382, 22232.140270726715, 27017.805220819144, -6930.404237556963, 30749.294847165926, 31805.68299361265, -187500.02235174447, 47014.21225240377, 12963.810618377998, -18108.377529189293, -7345.274966391918, 9426.95998274803, 12205.192411564876, -187500.02235174447, 14156.365592046452, -54071.32852927787, 0.16, 1.016, 0.08, 192.0, 0.0, 0.0, 0.0, 0.0, 0.0, 0.0, 0.0, 0.0, 0.0, 1.6959357069953475E9, 0.0, 2023-09-28 16:15:06.995
196.0, 10657.557625479416, 22278.855416638307, 26598.933529726688, -6977.499363124295, 30773.390027688747, 31687.978707311002, -187500.02235174447, 46650.97405326057, 13008.268238099605, -18133.63500042379, -7348.270100148929, 9380.557761258813, 12189.277969512697, -187500.02235174447, 14083.700070822248, -54134.89689050876, 0.16, 1.016, 0.08, 192.0, 0.0, 0.0, 0.0, 0.0, 0.0, 0.0, 0.0, 0.0, 0.0, 1.6959357069953632E9, 0.0, 2023-09-28 16:15:06.995
198.0, 10620.34197096133, 22229.011026502973, 27028.936389557886, -6924.771597954225, 30735.995559215018, 31811.44974368212, -187500.02235174447, 47038.016860248674, 12956.345135729925, -18115.73125311509, -7351.26523390594, 9421.930840245586, 12204.834783653592, -187500.02235174447, 14129.878774866913, -54111.76283499752, 0.154, 1.01, 0.076, 192.0, 2.0, 104.0, 15.5, 72.0, 1.0, 48.0, 0.0, 0.0, 0.0, 1.6959357069953797E9, 0.0, 2023-09-28 16:15:06.995
200.0, 10663.614948226805, 22292.624091222777, 26582.92968069669, -6994.844316821614, 30771.512481154503, 31671.3266576918, -187500.02235174447, 46641.631024078255, 13008.156479377329, -18123.241439252073, -7336.066047676331, 9384.826944449776, 12209.238077311287, -187500.02235174447, 14122.79327187458, -54098.55295402443, 0.154, 1.01, 0.076, 192.0, 0.0, 0.0, 0.0, 0.0, 0.0, 0.0, 0.0, 0.0, 0.0, 1.6959357069953957E9, 0.0, 2023-09-28 16:15:06.995
202.0, 10596.559714860883, 22231.6485323487, 27028.534058157693, -6902.464556987829, 30731.12287892376, 31829.599360179825, -187500.02235174447, 47032.09364796802, 12955.294603740527, -18102.543723886458, -7335.283736620395, 9429.396322893659, 12209.528649989206, -187500.02235174447, 14074.580559084483, -54186.171792289235, 0.154, 1.01, 0.076, 192.0, 0.0, 0.0, 0.0, 0.0, 0.0, 0.0, 0.0, 0.0, 0.0, 1.6959357069954114E9, 0.0, 2023-09-28 16:15:06.995
204.0, 10645.9123666182, 22286.231492308558, 26601.906311739247, -7001.974523302856, 30762.012989760995, 31663.727064576993, -187500.02235174447, 46666.19559123464, 12982.519028487091, -18123.01792180752, -7337.541262810381, 9394.52760154338, 12194.262408526232, -187500.02235174447, 14167.18383636282, -54066.85818038681, 0.154, 1.01, 0.076, 192.0, 0.0, 0.0, 0.0, 0.0, 0.0, 0.0, 0.0, 0.0, 0.0, 1.6959357069954293E9, 0.0, 2023-09-28 16:15:06.995
206.0, 10626.645162897727, 22242.01974177596, 27025.047186022664, -6877.363547964519, 30742.18699242914, 31844.68678768716, -187500.02235174447, 47029.45614212229, 12976.171133061784, -18092.194866203652, -7316.597678255758, 9441.600375366257, 12206.600571465562, -187500.02235174447, 14045.053904659022, -54227.32135383146, 0.154, 1.01, 0.076, 192.0, 0.0, 0.0, 0.0, 0.0, 0.0, 0.0, 0.0, 0.0, 0.0, 1.6959357069954455E9, 0.0, 2023-09-28 16:15:06.995
208.0, 10668.465276773606, 22299.41902153719, 26621.821716048922, -7015.229107764853, 30759.956629271106, 31653.0205789829, -187500.02235174447, 46687.228582767086, 12984.731851188166, -18126.594200920368, -7336.960117454543, 9393.7676422319, 12169.384916947474, -187500.02235174447, 14225.29837194662, -54016.65616234019, 0.14400000000000002, 1.01, 0.07200000000000001, 192.0, 2.0, 64.0, 15.5, 72.0, 1.0, 32.0, 0.0, 0.0, 0.0, 1.695935706995461E9, 0.0, 2023-09-28 16:15:06.995
210.0, 10624.477043685562, 22235.962419028572, 26978.57790930008, -6862.45493441283, 30743.28222790745, 31841.44578474114, -187500.02235174447, 46974.06851936204, 12996.578275749478, -18095.659386594223, -7311.233259586485, 9440.862767799232, 12224.996057152279, -187500.02235174447, 14001.713872160182, -54280.94318877974, 0.14400000000000002, 1.01, 0.07200000000000001, 192.0, 0.0, 0.0, 0.0, 0.0, 0.0, 0.0, 0.0, 0.0, 0.0, 1.6959357069954765E9, 0.0, 2023-09-28 16:15:06.995
212.0, 10659.748096436037, 22295.4627627686, 26652.957696075166, -7023.186328790943, 30750.680655322154, 31643.521087589397, -187500.02235174447, 46708.596850466354, 12973.37716500487, -18131.310419000438, -7339.552919811359, 9391.19719161954, 12202.376091763508, -187500.02235174447, 14239.49172967574, -54011.91759251566, 0.14400000000000002, 1.01, 0.07200000000000001, 192.0, 0.0, 0.0, 0.0, 0.0, 0.0, 0.0, 0.0, 0.0, 0.0, 1.6959357069954944E9, 0.0, 2023-09-28 16:15:06.995
214.0, 10618.754997105003, 22249.105244768292, 26946.771376940178, -6872.334405462076, 30736.487297593034, 31824.905493844213, -187500.02235174447, 46952.34262375148, 13002.255618841127, -18086.942206256655, -7308.349884551751, 9433.017305495418, 12225.063112385646, -187500.02235174447, 13972.701307857193, -54320.59518344345, 0.14400000000000002, 1.01, 0.07200000000000001, 192.0, 0.0, 0.0, 0.0, 0.0, 0.0, 0.0, 0.0, 0.0, 0.0, 1.69593570699551E9, 0.0, 2023-09-28 16:15:06.995
216.0, 10657.356459779317, 22294.434582523656, 26698.95758616419, -7034.63042195206, 30747.57376284287, 31643.990474222956, -187500.02235174447, 46754.35087136637, 12957.574481674968, -18138.082997570396, -7353.276890906917, 9387.084470639762, 12188.115678801023, -187500.02235174447, 14275.746259182246, -53982.41328983466, 0.14400000000000002, 1.01, 0.07200000000000001, 192.0, 0.0, 0.0, 0.0, 0.0, 0.0, 0.0, 0.0, 0.0, 0.0, 1.695935706995528E9, 0.0, 2023-09-28 16:15:06.995
218.0, 10619.939639561135, 22246.892422067216, 26899.206864739284, -6873.317882218109, 30757.095605980827, 31822.938540332147, -187500.02235174447, 46904.26402142811, 12991.370319291393, -18088.663290579712, -7301.39849202615, 9432.68202932859, 12224.929001918914, -187500.02235174447, 13960.966642018157, -54337.47075050721, 0.14400000000000002, 1.002, 0.078, 192.0, 2.0, 64.0, 15.5, 40.0, 1.0, 56.0, 0.0, 0.0, 0.0, 1.6959357069955437E9, 0.0, 2023-09-28 16:15:06.995
220.0, 10665.11251510531, 22285.02449810797, 26746.85737453191, -7024.706247413904, 30750.323027410872, 31671.661933858628, -187500.02235174447, 46797.42268293175, 12965.755220145611, -18126.750663131555, -7337.697725021569, 9405.457604582025, 12191.982530591791, -187500.02235174447, 14262.49167472025, -54008.92245875865, 0.14400000000000002, 1.002, 0.078, 192.0, 0.0, 0.0, 0.0, 0.0, 0.0, 0.0, 0.0, 0.0, 0.0, 1.6959357069955597E9, 0.0, 2023-09-28 16:15:06.995
222.0, 10627.874508842768, 22275.994393348028, 26827.368358059928, -6878.905818331936, 30769.076141008874, 31816.456534440105, -187500.02235174447, 46848.921102156775, 12996.086537371462, -18096.799325561446, -7308.059311873832, 9419.494500099958, 12204.74537667577, -187500.02235174447, 13952.137702958311, -54349.85361693545, 0.14400000000000002, 1.002, 0.078, 192.0, 0.0, 0.0, 0.0, 0.0, 0.0, 0.0, 0.0, 0.0, 0.0, 1.6959357069955754E9, 0.0, 2023-09-28 16:15:06.995
224.0, 10657.44586675714, 22275.904986370206, 26805.530703727094, -7007.987142561334, 30752.491146623033, 31700.741553394982, -187500.02235174447, 46852.631491736356, 12943.045847779018, -18125.40955846424, -7339.776437255912, 9417.81811926581, 12191.714309658326, -187500.02235174447, 14261.575253197581, -54025.70861884459, 0.14400000000000002, 1.002, 0.078, 192.0, 0.0, 0.0, 0.0, 0.0, 0.0, 0.0, 0.0, 0.0, 0.0, 1.6959357069955907E9, 0.0, 2023-09-28 16:15:06.995
226.0, 10651.34384052084, 22261.84573910782, 26786.576424428993, -6879.017577054212, 30768.070312508386, 31801.369106932776, -187500.02235174447, 46807.3468574699, 13030.307058132537, -18082.985947488065, -7296.6152187127145, 9430.715075816523, 12235.61313576855, -187500.02235174447, 13949.05316222348, -54366.08098341, 0.14400000000000002, 1.002, 0.078, 192.0, 0.0, 0.0, 0.0, 0.0, 0.0, 0.0, 0.0, 0.0, 0.0, 1.6959357069956064E9, 0.0, 2023-09-28 16:15:06.995
228.0, 10661.469180759095, 22278.251919538012, 26885.281727943628, -6982.3496916710965, 30742.768137784977, 31719.85229490427, -187500.02235174447, 46908.66731508581, 12962.581272432957, -18116.468860682115, -7337.697725021569, 9419.71801754451, 12201.102042329556, -187500.02235174447, 14270.359488768518, -54028.457883412586, 0.146, 1.002, 0.078, 192.0, 2.0, 72.0, 15.5, 40.0, 1.0, 56.0, 0.0, 0.0, 0.0, 1.6959357069956236E9, 0.0, 2023-09-28 16:15:06.995
230.0, 10654.026049855478, 22269.288870011434, 26736.821441271477, -6889.0758620591005, 30771.870109065785, 31768.400283861196, -187500.02235174447, 46756.65310104527, 13012.000979423641, -18100.889694796766, -7303.8348321717785, 9415.180613420083, 12228.125301376022, -187500.02235174447, 13979.607996893883, -54332.285145793576, 0.146, 1.002, 0.078, 192.0, 0.0, 0.0, 0.0, 0.0, 0.0, 0.0, 0.0, 0.0, 0.0, 1.695935706995639E9, 0.0, 2023-09-28 16:15:06.995
232.0, 10647.901671874723, 22276.128503814758, 26920.03869057163, -6975.957092756879, 30744.04218721893, 31732.32456831033, -187500.02235174447, 46933.52245492011, 12943.89521406832, -18114.032520536486, -7339.687030278091, 9422.556689090336, 12200.252676040254, -187500.02235174447, 14248.410075713406, -54057.537502948944, 0.146, 1.002, 0.078, 192.0, 0.0, 0.0, 0.0, 0.0, 0.0, 0.0, 0.0, 0.0, 0.0, 1.6959357069956543E9, 0.0, 2023-09-28 16:15:06.995
234.0, 10644.72772416207, 22286.678527197662, 26672.671934684746, -6906.085539589589, 30783.627126649277, 31748.082548151324, -187500.02235174447, 46695.96811484911, 13023.847403984953, -18094.20652320463, -7296.145832079153, 9413.504232585936, 12233.176795622921, -187500.02235174447, 13976.322290458953, -54345.53973025557, 0.146, 1.002, 0.078, 192.0, 0.0, 0.0, 0.0, 0.0, 0.0, 0.0, 0.0, 0.0, 0.0, 1.6959357069956696E9, 0.0, 2023-09-28 16:15:06.995
236.0, 10633.0601135564, 22255.989582060527, 26973.638173775456, -6951.750153511782, 30740.37650112826, 31771.95421122959, -187500.02235174447, 46983.94799041128, 12948.6561356373, -18108.39988093375, -7334.635536031192, 9430.983296749986, 12200.789117907181, -187500.02235174447, 14204.265380414176, -54123.02811420299, 0.146, 1.002, 0.078, 192.0, 0.0, 0.0, 0.0, 0.0, 0.0, 0.0, 0.0, 0.0, 0.0, 1.6959357069956856E9, 0.0, 2023-09-28 16:15:06.995
238.0, 10636.703447902615, 22283.88455914075, 26654.544669931493, -6936.439208559896, 30759.599001359824, 31721.70748969406, -187500.02235174447, 46695.52107996, 12986.14001108885, -18120.715692128622, -7320.553937024348, 9394.102918398728, 12196.721100416316, -187500.02235174447, 14036.448483043729, -54285.100613248425, 0.156, 0.996, 0.08600000000000001, 192.0, 2.0, 112.0, 15.5, 16.0, 1.0, 88.0, 0.0, 0.0, 0.0, 1.6959357069957027E9, 0.0, 2023-09-28 16:15:06.995
240.0, 10636.591689180337, 22256.101340782803, 26999.58854908807, -6935.746304481781, 30739.236562161037, 31787.913356770678, -187500.02235174447, 47014.5475285706, 12933.635763363334, -18105.740023343566, -7340.916376223133, 9429.19515719356, 12191.781364891693, -187500.02235174447, 14207.52873510465, -54120.01062870153, 0.156, 0.996, 0.08600000000000001, 192.0, 0.0, 0.0, 0.0, 0.0, 0.0, 0.0, 0.0, 0.0, 0.0, 1.6959357074755E9, 0.0, 2023-09-28 16:15:07.475
242.0, 10670.275768074485, 22293.74167844554, 26595.379602358295, -6945.357554597564, 30773.971173044585, 31707.000041842468, -187500.02235174447, 46645.63198633576, 13013.297380602049, -18087.970386501598, -7307.433463029082, 9417.415787865613, 12223.006751895757, -187500.02235174447, 14048.607832027415, -54270.81784854148, 0.156, 0.996, 0.08600000000000001, 192.0, 0.0, 0.0, 0.0, 0.0, 0.0, 0.0, 0.0, 0.0, 0.0, 1.6959357074755719E9, 0.0, 2023-09-28 16:15:07.475
244.0, 10635.518805446483, 22258.26945999497, 27000.39321188846, -6905.839670400581, 30733.782736513942, 31813.39434544973, -187500.02235174447, 47008.28904012311, 12946.353905958404, -18093.62537784879, -7326.343038838272, 9451.122218504217, 12207.896972643968, -187500.02235174447, 14128.358856243953, -54216.43605428172, 0.156, 0.996, 0.08600000000000001, 192.0, 0.0, 0.0, 0.0, 0.0, 0.0, 0.0, 0.0, 0.0, 0.0, 1.6959357074756095E9, 0.0, 2023-09-28 16:15:07.475
246.0, 10677.271864088996, 22311.712480987608, 26573.899575936746, -6968.022223475245, 30758.302600181414, 31685.65412588765, -187500.02235174447, 46631.505683840005, 12994.85719142642, -18115.328921714892, -7323.012628914432, 9400.540220801857, 12207.002902865757, -187500.02235174447, 14070.892521249358, -54259.93254899175, 0.156, 0.996, 0.08600000000000001, 192.0, 0.0, 0.0, 0.0, 0.0, 0.0, 0.0, 0.0, 0.0, 0.0, 1.6959357074756348E9, 0.0, 2023-09-28 16:15:07.475
248.0, 10638.491587459039, 22242.35501794279, 27022.029700521198, -6884.985492823779, 30730.474678334558, 31835.34375850484, -187500.02235174447, 47026.79628453211, 12954.355830473403, -18079.052040463932, -7316.262402088929, 9450.474017915014, 12212.412025023941, -187500.02235174447, 14068.232663659175, -54287.961636538705, 0.166, 0.998, 0.08600000000000001, 192.0, 2.5, 24.0, 15.5, 24.0, 1.0, 88.0, 0.0, 0.0, 0.0, 1.6959357074756577E9, 0.0, 2023-09-28 16:15:07.475
250.0, 10647.320526518884, 22281.06823933938, 26591.110419167333, -6988.831697563136, 30753.675789079167, 31667.951544279047, -187500.02235174447, 46661.054690009914, 12973.511275471601, -18122.079148540397, -7328.801730728356, 9392.672406753589, 12194.396518992964, -187500.02235174447, 14133.41035049085, -54194.4419377377, 0.166, 0.998, 0.08600000000000001, 192.0, 0.0, 0.0, 0.0, 0.0, 0.0, 0.0, 0.0, 0.0, 0.0, 1.6959357074756796E9, 0.0, 2023-09-28 16:15:07.475
252.0, 10607.065034754878, 22233.97311377205, 27029.562238402636, -6881.2080480108325, 30719.499971807003, 31836.953084105622, -187500.02235174447, 47041.95076727281, 12940.22952797765, -18102.096688997353, -7328.242937116974, 9435.610107852233, 12184.293530499164, -187500.02235174447, 14041.812901713003, -54318.9188026093, 0.166, 0.998, 0.08600000000000001, 192.0, 0.0, 0.0, 0.0, 0.0, 0.0, 0.0, 0.0, 0.0, 0.0, 1.695935707475696E9, 0.0, 2023-09-28 16:15:07.475
254.0, 10655.456561500618, 22288.26550105399, 26603.73915478458, -7002.935648314435, 30758.146137970227, 31656.64156158466, -187500.02235174447, 46674.10810877182, 12949.259632737594, -18144.319134273428, -7354.662699063147, 9382.480011281968, 12168.26732972471, -187500.02235174447, 14188.172124406354, -54135.88036726479, 0.166, 0.998, 0.08600000000000001, 192.0, 0.0, 0.0, 0.0, 0.0, 0.0, 0.0, 0.0, 0.0, 0.0, 1.6959357074757144E9, 0.0, 2023-09-28 16:15:07.475
0.0, 10623.359456462797, 22233.660189349677, 26991.87719725099, -6861.963196034813, 30748.534887854446, 31849.850040656336, -187500.02235174447, 46999.66126676337, 12953.327650228459, -18087.21042719012, -7312.172032853608, 9445.601337623757, 12225.912478674947, -187500.02235174447, 14007.43591874074, -54353.09461988147, 0.166, 0.998, 0.08600000000000001, 192.0, 0.0, 0.0, 0.0, 0.0, 0.0, 0.0, 0.0, 0.0, 0.0, 1.69593570747573E9, 0.0, 2023-09-28 16:15:07.475
2.0, 10676.623663499793, 22300.670719226688, 26628.638998107792, -7000.655770379994, 30765.701027596122, 31673.98651528198, -187500.02235174447, 46695.63283868228, 12958.80382762001, -18125.700131142155, -7338.524739566415, 9399.28852311236, 12182.415983964918, -187500.02235174447, 14209.853316528, -54120.70353277964, 0.154, 0.994, 0.094, 192.0, 2.0, 104.0, 15.5, 8.0, 1.0, 120.0, 0.0, 0.0, 0.0, 1.6959357074757462E9, 0.0, 2023-09-28 16:15:07.475
4.0, 10623.29240122943, 22254.35790471529, 26961.05414164712, -6851.368469162998, 30764.04699850643, 31863.976343152088, -187500.02235174447, 46971.900400149876, 12978.540417974045, -18081.91306375421, -7312.037922386876, 9442.494445144468, 12218.603458238062, -187500.02235174447, 13984.90536032979, -54386.55518133107, 0.154, 0.994, 0.094, 192.0, 0.0, 0.0, 0.0, 0.0, 0.0, 0.0, 0.0, 0.0, 0.0, 1.695935707475762E9, 0.0, 2023-09-28 16:15:07.475
6.0, 10659.59163422485, 22295.12748660177, 26669.118007316352, -7004.455566937396, 30758.816690303887, 31682.59193689727, -187500.02235174447, 46739.17403688122, 12953.327650228459, -18121.006264806543, -7338.658850033146, 9401.255476624427, 12191.267274769221, -187500.02235174447, 14238.083569775054, -54099.268209847, 0.154, 0.994, 0.094, 192.0, 0.0, 0.0, 0.0, 0.0, 0.0, 0.0, 0.0, 0.0, 0.0, 1.6959357074757776E9, 0.0, 2023-09-28 16:15:07.475
8.0, 10628.969744321079, 22241.662113864677, 26917.24472251472, -6854.16243721991, 30752.379387900757, 31858.92484890519, -187500.02235174447, 46933.008364797635, 12976.349947017427, -18088.909159768722, -7307.277000817896, 9430.648020583156, 12219.586934994095, -187500.02235174447, 13955.512816371061, -54416.931202045824, 0.154, 0.994, 0.094, 192.0, 0.0, 0.0, 0.0, 0.0, 0.0, 0.0, 0.0, 0.0, 0.0, 1.6959357074757931E9, 0.0, 2023-09-28 16:15:07.475
10.0, 10677.093050133355, 22287.594948720332, 26716.81662998398, -7009.685875139938, 30754.61456234629, 31692.136131779687, -187500.02235174447, 46781.4411856462, 12941.570632644967, -18126.81771836492, -7344.9843937139985, 9400.473165568492, 12190.239094524277, -187500.02235174447, 14251.896947848434, -54088.49466901954, 0.154, 0.994, 0.094, 192.0, 0.0, 0.0, 0.0, 0.0, 0.0, 0.0, 0.0, 0.0, 0.0, 1.6959357074758103E9, 0.0, 2023-09-28 16:15:07.475
12.0, 10633.685962401149, 22263.142140286225, 26863.488777099705, -6858.364565177509, 30763.532908383957, 31842.45161324163, -187500.02235174447, 46890.13771893236, 12989.224551823683, -18088.685642324166, -7306.382931039683, 9432.458511884035, 12231.478063044318, -187500.02235174447, 13939.263098152054, -54433.516196431665, 0.164, 0.992, 0.096, 192.0, 2.5, 16.0, 15.5, 0.0, 1.5, 0.0, 0.0, 0.0, 0.0, 1.695935707475826E9, 0.0, 2023-09-28 16:15:07.475
14.0, 10646.62762244077, 22294.70280345712, 26773.500653922638, -7007.450700694407, 30741.00234997301, 31700.182759783598, -187500.02235174447, 46836.672346195264, 12933.300487196504, -18121.453299695648, -7354.260367662951, 9404.183555148073, 12179.040870552168, -187500.02235174447, 14260.904700863923, -54084.62781722878, 0.164, 0.992, 0.096, 192.0, 0.0, 0.0, 0.0, 0.0, 0.0, 0.0, 0.0, 0.0, 0.0, 1.695935707475849E9, 0.0, 2023-09-28 16:15:07.475
16.0, 10621.593668650827, 22249.12759651275, 26810.44808750726, -6871.105059517034, 30746.56793434238, 31826.939502589645, -187500.02235174447, 46852.43032603626, 12997.38293854987, -18086.562226600912, -7307.142890351163, 9426.267078669916, 12218.648161726971, -187500.02235174447, 13934.748045772081, -54440.378181979446, 0.164, 0.992, 0.096, 192.0, 0.0, 0.0, 0.0, 0.0, 0.0, 0.0, 0.0, 0.0, 0.0, 1.6959357074758737E9, 0.0, 2023-09-28 16:15:07.475
18.0, 10661.357422036817, 22272.038134579438, 26831.615189506436, -6995.872497066557, 30738.610713316288, 31724.23323681751, -187500.02235174447, 46894.60806782342, 12933.255783707595, -18123.777881119, -7351.309937394851, 9407.916296472109, 12182.393632220464, -187500.02235174447, 14269.264253290208, -54084.06902361739, 0.164, 0.992, 0.096, 192.0, 0.0, 0.0, 0.0, 0.0, 0.0, 0.0, 0.0, 0.0, 0.0, 1.695935707475906E9, 0.0, 2023-09-28 16:15:07.475
20.0, 10636.636392669248, 22265.913756598682, 26747.14794720983, -6884.359643979031, 30755.5086321245, 31806.510008157496, -187500.02235174447, 46789.01842701655, 13010.749281734143, -18082.740078299055, -7291.407262254627, 9424.188366435572, 12217.530574504206, -187500.02235174447, 13938.301973140477, -54438.2994697451, 0.164, 0.992, 0.096, 192.0, 0.0, 0.0, 0.0, 0.0, 0.0, 0.0, 0.0, 0.0, 0.0, 1.6959357074759223E9, 0.0, 2023-09-28 16:15:07.475
22.0, 10649.421590497685, 22280.93412887265, 26874.6422975829, -6990.396319675007, 30729.625312045257, 31739.745347469492, -187500.02235174447, 46912.75768432113, 12937.860243065386, -18103.884828553775, -7342.324536123817, 9414.688875042066, 12187.646292167461, -187500.02235174447, 14245.236128000752, -54118.490710078564, 0.158, 0.996, 0.092, 192.0, 2.0, 120.0, 15.5, 16.0, 1.0, 112.0, 0.0, 0.0, 0.0, 1.6959357074759395E9, 0.0, 2023-09-28 16:15:07.475
24.0, 10642.62666018327, 22279.056582338406, 26704.366708322374, -6891.825126627104, 30762.638838605744, 31778.90560375519, -187500.02235174447, 46732.24499610007, 13016.918363203808, -18076.66040380721, -7290.937875621066, 9426.736465303477, 12243.525653305729, -187500.02235174447, 13948.539072101006, -54433.382085964935, 0.158, 0.996, 0.092, 192.0, 0.0, 0.0, 0.0, 0.0, 0.0, 0.0, 0.0, 0.0, 0.0, 1.6959357074759552E9, 0.0, 2023-09-28 16:15:07.475
26.0, 10642.403142738718, 22264.7067623981, 26938.277714047163, -6967.061098463667, 30724.32794860935, 31761.314780868863, -187500.02235174447, 46962.11033607845, 12943.492882668124, -18106.63409312178, -7333.383838341694, 9433.799616551354, 12197.235190538788, -187500.02235174447, 14215.86593578648, -54167.441030435686, 0.158, 0.996, 0.092, 192.0, 0.0, 0.0, 0.0, 0.0, 0.0, 0.0, 0.0, 0.0, 0.0, 1.6959357074759707E9, 0.0, 2023-09-28 16:15:07.475
28.0, 10637.128131047266, 22286.678527197662, 26661.876042112835, -6932.304135835664, 30743.125765696263, 31744.014530660457, -187500.02235174447, 46706.00404810954, 12994.365453048404, -18103.996587276055, -7320.9786201689985, 9405.167031904106, 12218.737568704793, -187500.02235174447, 13999.165773292278, -54384.163544674346, 0.158, 0.996, 0.092, 192.0, 0.0, 0.0, 0.0, 0.0, 0.0, 0.0, 0.0, 0.0, 0.0, 1.6959357074759865E9, 0.0, 2023-09-28 16:15:07.475
30.0, 10645.375924751273, 22267.388971732733, 26976.700362765834, -6946.60925228706, 30725.22201838756, 31795.132970229744, -187500.02235174447, 46996.80024347309, 12936.60854537589, -18097.06754649491, -7333.182672641597, 9435.900680530152, 12213.79783318017, -187500.02235174447, 14191.56958956356, -54194.77721390453, 0.158, 0.996, 0.092, 192.0, 0.0, 0.0, 0.0, 0.0, 0.0, 0.0, 0.0, 0.0, 0.0, 1.695935707476002E9, 0.0, 2023-09-28 16:15:07.476
32.0, 10659.725744691581, 22292.624091222777, 26623.87807653881, -6942.273013862731, 30757.721454825576, 31735.252646833975, -187500.02235174447, 46676.9691320621, 13005.496621787146, -18091.92664527019, -7317.558803267337, 9412.297238385348, 12226.918307175436, -187500.02235174447, 14035.085026631956, -54354.56983501552, 0.15, 0.994, 0.096, 192.0, 2.0, 88.0, 15.5, 8.0, 1.5, 0.0, 0.0, 0.0, 0.0, 1.6959357074760187E9, 0.0, 2023-09-28 16:15:07.476
34.0, 10610.306037700897, 22239.11401499677, 27036.714796628334, -6931.678286990916, 30712.503875792492, 31814.266063483487, -187500.02235174447, 47060.72623261526, 12931.132367984339, -18098.833334306877, -7347.778361770912, 9438.068799742317, 12207.896972643968, -187500.02235174447, 14177.443287067807, -54238.38546733683, 0.15, 0.994, 0.096, 192.0, 0.0, 0.0, 0.0, 0.0, 0.0, 0.0, 0.0, 0.0, 0.0, 1.6959357074760368E9, 0.0, 2023-09-28 16:15:07.476
36.0, 10671.147486108242, 22294.680451712662, 26610.69054731018, -6970.816191532158, 30758.4590623926, 31704.22842553001, -187500.02235174447, 46682.08768154236, 12973.935958616252, -18114.77012810351, -7344.671469291624, 9388.202057862527, 12208.969856377824, -187500.02235174447, 14146.75434193067, -54267.59919733992, 0.15, 0.994, 0.096, 192.0, 0.0, 0.0, 0.0, 0.0, 0.0, 0.0, 0.0, 0.0, 0.0, 1.6959357074760523E9, 0.0, 2023-09-28 16:15:07.476
38.0, 10612.80943307989, 22240.097491752804, 27043.509726942746, -6912.835766415092, 30722.629216030746, 31826.06778455589, -187500.02235174447, 47063.69901462782, 12935.401551175304, -18106.209409977128, -7342.749219268468, 9434.604279351744, 12210.109795345044, -187500.02235174447, 14202.09726120201, -54256.557435579, 0.15, 0.994, 0.096, 192.0, 0.0, 0.0, 0.0, 0.0, 0.0, 0.0, 0.0, 0.0, 0.0, 1.6959357074760766E9, 0.0, 2023-09-28 16:15:07.476
40.0, 10634.311811245896, 22287.84081790934, 26592.65268953475, -6990.865706308568, 30761.118919982782, 31680.803797340846, -187500.02235174447, 46660.719413843086, 12974.204179549717, -18111.372662946305, -7336.647193032169, 9391.755985230922, 12199.805641151148, -187500.02235174447, 14222.81732831208, -54230.51765328857, 0.15, 0.994, 0.096, 192.0, 0.0, 0.0, 0.0, 0.0, 0.0, 0.0, 0.0, 0.0, 0.0, 1.6959357074761024E9, 0.0, 2023-09-28 16:15:07.476
42.0, 10601.0524154964, 22230.083910236826, 27037.765328617734, -6904.409158755441, 30736.152021426205, 31843.54684871994, -187500.02235174447, 47051.18203773285, 12945.28102222455, -18101.62730236379, -7332.199195885563, 9428.189328693072, 12226.985362408801, -187500.02235174447, 14198.498630344706, -54303.09376753495, 0.156, 0.994, 0.096, 192.0, 2.0, 112.0, 15.5, 8.0, 1.5, 0.0, 0.0, 0.0, 0.0, 1.695935707476123E9, 0.0, 2023-09-28 16:15:07.476
44.0, 10639.586822937348, 22274.56388170289, 26614.04330897848, -7005.86372683808, 30755.732149569056, 31681.07201827431, -187500.02235174447, 46679.83015535238, 12970.7620109036, -18118.033482793988, -7331.394533085172, 9391.465412553003, 12202.778423163703, -187500.02235174447, 14301.137840883475, -54190.88801036931, 0.156, 0.994, 0.096, 192.0, 0.0, 0.0, 0.0, 0.0, 0.0, 0.0, 0.0, 0.0, 0.0, 1.6959357074761393E9, 0.0, 2023-09-28 16:15:07.476
46.0, 10586.076746711344, 22215.97995948553, 27038.704101884858, -6898.798870897159, 30725.17731489865, 31850.386482523263, -187500.02235174447, 47056.70291861331, 12923.421016147258, -18105.181229732185, -7334.412018586639, 9425.5741745918, 12206.578219721107, -187500.02235174447, 14214.211906696786, -54323.63502068938, 0.156, 0.994, 0.096, 192.0, 0.0, 0.0, 0.0, 0.0, 0.0, 0.0, 0.0, 0.0, 0.0, 1.6959357074761548E9, 0.0, 2023-09-28 16:15:07.476
48.0, 10631.875471100268, 22264.416189720177, 26637.870268567833, -7028.4836922268505, 30746.389120386735, 31664.97876226649, -187500.02235174447, 46724.690106474176, 12949.03611529304, -18140.608744693847, -7351.108771694752, 9377.853200179721, 12194.664739926428, -187500.02235174447, 14396.80330715219, -54116.21083214413, 0.156, 0.994, 0.096, 192.0, 0.0, 0.0, 0.0, 0.0, 0.0, 0.0, 0.0, 0.0, 0.0, 1.6959357074761724E9, 0.0, 2023-09-28 16:15:07.476
50.0, 10607.66853185517, 22215.97995948553, 26993.598281574046, -6894.172059794911, 30729.826477745355, 31850.811165667914, -187500.02235174447, 47016.492130338214, 12943.314068712481, -18106.49998265505, -7336.781303498901, 9418.891002999664, 12212.344969790574, -187500.02235174447, 14225.81246206909, -54331.18991031527, 0.156, 0.994, 0.096, 192.0, 0.0, 0.0, 0.0, 0.0, 0.0, 0.0, 0.0, 0.0, 0.0, 1.695935707476188E9, 0.0, 2023-09-28 16:15:07.476
52.0, 10656.283576045464, 22284.01866960748, 26642.698245370182, -7027.164939303987, 30751.977056500564, 31675.1264542492, -187500.02235174447, 46714.408304024735, 12955.428714207259, -18136.25015452506, -7348.135989682197, 9386.324511328283, 12198.822164395115, -187500.02235174447, 14440.679781517958, -54089.65695973122, 0.148, 1.004, 0.094, 192.0, 2.0, 80.0, 15.5, 48.0, 1.0, 120.0, 0.0, 0.0, 0.0, 1.6959357074762037E9, 0.0, 2023-09-28 16:15:07.476
54.0, 10610.082520256343, 22234.01781726096, 26943.99976062772, -6859.3703936779975, 30751.731187311554, 31870.346590321853, -187500.02235174447, 46956.18712379779, 12969.063278324997, -18091.569017358903, -7306.137061850675, 9434.783093307387, 12238.451807314374, -187500.02235174447, 14179.007909179678, -54402.9390100168, 0.148, 1.004, 0.094, 192.0, 0.0, 0.0, 0.0, 0.0, 0.0, 0.0, 0.0, 0.0, 0.0, 1.695935707476219E9, 0.0, 2023-09-28 16:15:07.476
56.0, 10644.660668928704, 22273.870977624774, 26706.646586256815, -7018.403055477507, 30749.22779193256, 31688.068114288824, -187500.02235174447, 46771.85228727487, 12934.529833141547, -18133.545593445968, -7347.756010026456, 9399.981427190474, 12191.915475358424, -187500.02235174447, 14472.978052255876, -54086.23714282956, 0.148, 1.004, 0.094, 192.0, 0.0, 0.0, 0.0, 0.0, 0.0, 0.0, 0.0, 0.0, 0.0, 1.6959357074762344E9, 0.0, 2023-09-28 16:15:07.476
58.0, 10611.647142368216, 22234.129575983236, 26917.84821961501, -6860.0185942672015, 30754.256934435005, 31860.15419485023, -187500.02235174447, 46939.75859162314, 12973.04188883804, -18095.033537749474, -7312.194384598063, 9434.514872373924, 12225.04076064119, -187500.02235174447, 14178.203246379286, -54424.508443416176, 0.148, 1.004, 0.094, 192.0, 0.0, 0.0, 0.0, 0.0, 0.0, 0.0, 0.0, 0.0, 0.0, 1.69593570747625E9, 0.0, 2023-09-28 16:15:07.476
60.0, 10647.924023619178, 22283.4598759961, 26756.155700225318, -7009.127081528554, 30754.50280362401, 31707.067097075833, -187500.02235174447, 46819.37209598686, 12930.998257517607, -18148.364800019837, -7346.50431233696, 9403.758872003422, 12184.69586189936, -187500.02235174447, 14506.952703827943, -54075.88828514675, 0.148, 1.004, 0.094, 192.0, 0.0, 0.0, 0.0, 0.0, 0.0, 0.0, 0.0, 0.0, 0.0, 1.695935707476267E9, 0.0, 2023-09-28 16:15:07.476
62.0, 10631.048456555422, 22249.97696280205, 26860.806567765067, -6859.459800655819, 30754.771024557478, 31849.380654022774, -187500.02235174447, 46883.63336129586, 12985.357700032915, -18076.325127640383, -7299.252724558441, 9434.425465396103, 12223.140862362488, -187500.02235174447, 14185.892246471913, -54445.00499308169, 0.15, 1.002, 0.096, 192.0, 2.0, 88.0, 15.5, 40.0, 1.5, 0.0, 0.0, 0.0, 0.0, 1.6959357074762828E9, 0.0, 2023-09-28 16:15:07.476
64.0, 10616.877450570757, 22252.54741341441, 26835.63850350839, -7007.070721038666, 30727.099564921806, 31718.220617559033, -187500.02235174447, 46890.160070676815, 12919.665923078766, -18132.897392856765, -7355.154437441163, 9409.503270328436, 12164.646347122949, -187500.02235174447, 14528.365675016126, -54082.772622438984, 0.15, 1.002, 0.096, 192.0, 0.0, 0.0, 0.0, 0.0, 0.0, 0.0, 0.0, 0.0, 0.0, 1.6959357074762983E9, 0.0, 2023-09-28 16:15:07.476
66.0, 10602.170002719165, 22234.956590528083, 26821.087517867985, -6873.161420006922, 30752.357036156303, 31825.799563622426, -187500.02235174447, 46849.345785301426, 12961.039002065541, -18093.647729593245, -7310.920335164111, 9425.529471102891, 12221.643295483982, -187500.02235174447, 14223.063197501087, -54415.07600725604, 0.15, 1.002, 0.096, 192.0, 0.0, 0.0, 0.0, 0.0, 0.0, 0.0, 0.0, 0.0, 0.0, 1.695935707476314E9, 0.0, 2023-09-28 16:15:07.476
68.0, 10635.205881024109, 22258.56003267289, 26886.578129122037, -6990.865706308568, 30735.325006881358, 31735.967902656546, -187500.02235174447, 46932.51662641962, 12927.600792360401, -18124.739006130578, -7338.301222121861, 9418.779244277388, 12188.763879390226, -187500.02235174447, 14550.158625860051, -54069.11570657679, 0.15, 1.002, 0.096, 192.0, 0.0, 0.0, 0.0, 0.0, 0.0, 0.0, 0.0, 0.0, 0.0, 1.6959357074763296E9, 0.0, 2023-09-28 16:15:07.476
70.0, 10637.9104421032, 22267.21015777709, 26739.526002350573, -6890.618132426516, 30768.80792007541, 31794.48476964054, -187500.02235174447, 46772.94752275319, 12991.325615802481, -18089.736174313566, -7300.370311781206, 9423.271944912905, 12216.412987281441, -187500.02235174447, 14248.655944902415, -54387.00221622017, 0.15, 1.002, 0.096, 192.0, 0.0, 0.0, 0.0, 0.0, 0.0, 0.0, 0.0, 0.0, 0.0, 1.695935707476345E9, 0.0, 2023-09-28 16:15:07.476
72.0, 10651.209730054108, 22273.446294480123, 26922.251513272706, -6967.977519986334, 30744.399815130215, 31762.56647855836, -187500.02235174447, 46950.62153942842, 12926.527908626547, -18106.29881695495, -7328.287640605884, 9435.900680530152, 12194.441222481873, -187500.02235174447, 14515.424014976505, -54119.72005602361, 0.154, 0.998, 0.098, 192.0, 2.0, 104.0, 15.5, 24.0, 1.5, 8.0, 0.0, 0.0, 0.0, 1.6959357074763637E9, 0.0, 2023-09-28 16:15:07.476
74.0, 10643.163102050197, 22281.403515506212, 26697.057687885488, -6907.471347745818, 30774.4629114226, 31773.205908919088, -187500.02235174447, 46731.06035364394, 13009.363473577914, -18084.572921344392, -7292.234276799474, 9419.874479755697, 12227.968839164834, -187500.02235174447, 14255.361468239007, -54396.65816982486, 0.154, 0.998, 0.098, 192.0, 0.0, 0.0, 0.0, 0.0, 0.0, 0.0, 0.0, 0.0, 0.0, 1.6959357074763794E9, 0.0, 2023-09-28 16:15:07.476
76.0, 10630.91434608869, 22253.441483192622, 26977.952060455333, -6961.942548983401, 30741.94112324013, 31782.05719972339, -187500.02235174447, 47008.244336634205, 12930.193594717217, -18109.96450304562, -7327.751198738957, 9425.417712380615, 12199.179792306399, -187500.02235174447, 14495.665072878013, -54164.66941412323, 0.154, 0.998, 0.098, 192.0, 0.0, 0.0, 0.0, 0.0, 0.0, 0.0, 0.0, 0.0, 0.0, 1.695935707476395E9, 0.0, 2023-09-28 16:15:07.476
78.0, 10652.707296932615, 22266.472550210066, 26656.869251354845, -6930.918327679436, 30768.80792007541, 31739.544181769394, -187500.02235174447, 46709.781492922484, 12986.832915166964, -18112.713767613623, -7312.484957275982, 9402.99891269194, 12196.229362038299, -187500.02235174447, 14319.600381803559, -54338.431875518785, 0.154, 0.998, 0.098, 192.0, 0.0, 0.0, 0.0, 0.0, 0.0, 0.0, 0.0, 0.0, 0.0, 1.695935707476411E9, 0.0, 2023-09-28 16:15:07.476
80.0, 10614.083482513845, 22238.5999248743, 27019.861581309033, -6937.579147527117, 30721.712794508076, 31798.06104875339, -187500.02235174447, 47043.336575429035, 12922.973981258152, -18102.879000053286, -7325.091341148775, 9444.036715511886, 12198.196315550365, -187500.02235174447, 14478.409526158515, -54187.73641440111, 0.154, 0.998, 0.098, 192.0, 0.0, 0.0, 0.0, 0.0, 0.0, 0.0, 0.0, 0.0, 0.0, 1.6959357074764273E9, 0.0, 2023-09-28 16:15:07.476
82.0, 10638.804511881413, 22271.434637479146, 26631.768242331535, -6958.030993703723, 30760.33660892685, 31712.342108767287, -187500.02235174447, 46689.664922912714, 12977.646348195834, -18117.519392671515, -7315.301277077351, 9398.305046356327, 12209.886277900492, -187500.02235174447, 14371.344670217595, -54276.18226721076, 0.154, 0.998, 0.10200000000000001, 192.0, 2.0, 104.0, 15.5, 24.0, 1.5, 24.0, 0.0, 0.0, 0.0, 1.6959357074764605E9, 0.0, 2023-09-28 16:15:07.476
84.0, 10629.036799554444, 22228.608695102776, 27032.44561343737, -6915.093292605078, 30731.234637646037, 31817.842342596334, -187500.02235174447, 47041.70489808379, 12935.379199430849, -18100.599122118845, -7317.0447131448645, 9447.545939391368, 12223.27497282922, -187500.02235174447, 14446.737104265345, -54218.894746171805, 0.154, 0.998, 0.10200000000000001, 192.0, 0.0, 0.0, 0.0, 0.0, 0.0, 0.0, 0.0, 0.0, 0.0, 1.6959357074764795E9, 0.0, 2023-09-28 16:15:07.476
86.0, 10648.77338990848, 22287.483189998056, 26605.616701318828, -6972.514924110762, 30768.025609019474, 31690.884434090192, -187500.02235174447, 46655.48910564055, 12979.747412174633, -18121.92268632921, -7324.711361493035, 9399.57909579028, 12204.879487142503, -187500.02235174447, 14405.878115401045, -54237.37963883635, 0.154, 0.998, 0.10200000000000001, 192.0, 0.0, 0.0, 0.0, 0.0, 0.0, 0.0, 0.0, 0.0, 0.0, 1.6959357074764948E9, 0.0, 2023-09-28 16:15:07.476
88.0, 10623.828843096357, 22242.802052831896, 27046.169584532927, -6898.776519152703, 30741.024701717462, 31835.746089905035, -187500.02235174447, 47038.68741258233, 12957.507426441602, -18100.19679071865, -7308.483995018482, 9443.544977133868, 12222.269144328731, -187500.02235174447, 14402.748871177302, -54268.20269444021, 0.154, 0.998, 0.10200000000000001, 192.0, 0.0, 0.0, 0.0, 0.0, 0.0, 0.0, 0.0, 0.0, 0.0, 1.69593570747651E9, 0.0, 2023-09-28 16:15:07.476
90.0, 10667.884131417768, 22285.873864397272, 26614.356233400853, -6987.848220807103, 30777.301582968426, 31680.624983385205, -187500.02235174447, 46661.52407664348, 12976.19348480624, -18121.72152062911, -7313.937820665577, 9401.009607435419, 12201.034987096189, -187500.02235174447, 14445.552461809215, -54196.788870905504, 0.154, 0.998, 0.10200000000000001, 192.0, 0.0, 0.0, 0.0, 0.0, 0.0, 0.0, 0.0, 0.0, 0.0, 1.6959357074765253E9, 0.0, 2023-09-28 16:15:07.476
92.0, 10605.701578343103, 22212.649549561687, 27040.089910041086, -6892.920362105413, 30743.326931396357, 31850.1182615898, -187500.02235174447, 47037.34630791501, 12939.357809943893, -18105.225933221096, -7317.581155011792, 9445.467227157025, 12187.109850300534, -187500.02235174447, 14364.169760247441, -54310.08986354946, 0.156, 0.998, 0.10200000000000001, 192.0, 2.0, 112.0, 15.5, 24.0, 1.5, 24.0, 0.0, 0.0, 0.0, 1.6959357074765403E9, 0.0, 2023-09-28 16:15:07.476
94.0, 10665.49249476105, 22277.804884648907, 26615.250303179062, -7007.115424527577, 30778.24035623555, 31677.428683928098, -187500.02235174447, 46671.1129750148, 12973.131295815861, -18148.655372697758, -7333.160320897141, 9387.263284595405, 12205.348873776064, -187500.02235174447, 14489.786564086267, -54150.14078022728, 0.156, 0.998, 0.10200000000000001, 192.0, 0.0, 0.0, 0.0, 0.0, 0.0, 0.0, 0.0, 0.0, 0.0, 1.6959357074765556E9, 0.0, 2023-09-28 16:15:07.476
96.0, 10617.235078482043, 22227.804032302385, 27007.523418369703, -6868.132277504477, 30758.23554494805, 31859.34953204984, -187500.02235174447, 46996.01793241715, 12959.742600887133, -18086.33870915636, -7302.426672271094, 9446.6295178687, 12237.04364741369, -187500.02235174447, 14322.751977771757, -54361.230654863204, 0.156, 0.998, 0.10200000000000001, 192.0, 0.0, 0.0, 0.0, 0.0, 0.0, 0.0, 0.0, 0.0, 0.0, 1.6959357074765708E9, 0.0, 2023-09-28 16:15:07.476
98.0, 10652.796703910435, 22283.392820762732, 26640.217201735642, -7010.781110618247, 30771.55718464341, 31673.383018181685, -187500.02235174447, 46683.89817284324, 12963.251824766616, -18127.152994531752, -7321.157434124641, 9407.20104064954, 12207.56169647714, -187500.02235174447, 14510.081948051686, -54144.26227143554, 0.156, 0.998, 0.10200000000000001, 192.0, 0.0, 0.0, 0.0, 0.0, 0.0, 0.0, 0.0, 0.0, 0.0, 1.6959357074765878E9, 0.0, 2023-09-28 16:15:07.476
100.0, 10609.724892345059, 22223.4454421336, 26995.788752530665, -6862.477286157285, 30752.960533256595, 31862.322314062396, -187500.02235174447, 46975.47667926272, 12959.787304376043, -18095.279406938484, -7298.604523969237, 9445.087247501284, 12229.220536854333, -187500.02235174447, 14284.709308708825, -54408.61635310845, 0.156, 0.998, 0.10200000000000001, 192.0, 0.0, 0.0, 0.0, 0.0, 0.0, 0.0, 0.0, 0.0, 0.0, 1.6959357074766047E9, 0.0, 2023-09-28 16:15:07.476
102.0, 10656.954128379122, 22267.098399054816, 26701.706850732193, -7022.605183435105, 30754.14517571273, 31672.46659665902, -187500.02235174447, 46746.79598174048, 12936.005048275596, -18139.15588130425, -7344.202082658063, 9390.750156730433, 12186.46164971133, -187500.02235174447, 14554.807788706756, -54099.40232031373, 0.154, 0.998, 0.10200000000000001, 192.0, 2.0, 104.0, 15.5, 24.0, 1.5, 24.0, 0.0, 0.0, 0.0, 1.695935707476626E9, 0.0, 2023-09-28 16:15:07.476
104.0, 10616.38571219274, 22234.3977969167, 26964.29514459314, -6868.534608904673, 30759.978981015563, 31854.901534903234, -187500.02235174447, 46956.05301333106, 12982.921359887287, -18103.795421575956, -7305.019474627909, 9427.071741470307, 12221.12920536151, -187500.02235174447, 14295.952236169844, -54386.55518133107, 0.154, 0.998, 0.10200000000000001, 192.0, 0.0, 0.0, 0.0, 0.0, 0.0, 0.0, 0.0, 0.0, 0.0, 1.6959357079551232E9, 0.0, 2023-09-28 16:15:07.955
106.0, 10660.329241791875, 22273.60275669131, 26735.078005203966, -7024.81800613618, 30762.549431627922, 31677.182814739088, -187500.02235174447, 46773.95335125367, 12953.66292639529, -18138.77590164851, -7327.63944001668, 9402.037787680363, 12197.771632405715, -187500.02235174447, 14587.329576889228, -54063.348956507325, 0.154, 0.998, 0.10200000000000001, 192.0, 0.0, 0.0, 0.0, 0.0, 0.0, 0.0, 0.0, 0.0, 0.0, 1.6959357079552429E9, 0.0, 2023-09-28 16:15:07.955
108.0, 10639.162139792697, 22235.94006728412, 26889.059172756573, -6867.908760059925, 30766.393931674236, 31837.19895329463, -187500.02235174447, 46881.44289033925, 12992.443203025246, -18092.016052248007, -7292.100166332742, 9435.431293896592, 12210.1321470895, -187500.02235174447, 14261.575253197581, -54423.7484841047, 0.154, 0.998, 0.10200000000000001, 192.0, 0.0, 0.0, 0.0, 0.0, 0.0, 0.0, 0.0, 0.0, 0.0, 1.695935707955272E9, 0.0, 2023-09-28 16:15:07.955
110.0, 10664.196093582643, 22289.964233632592, 26771.73486611067, -7022.605183435105, 30747.79728028742, 31691.46557944603, -187500.02235174447, 46795.9474677977, 12941.503577411602, -18128.359988732336, -7342.59275705728, 9400.540220801857, 12177.006861806734, -187500.02235174447, 14573.873826727133, -54079.8668956598, 0.154, 0.998, 0.10200000000000001, 192.0, 0.0, 0.0, 0.0, 0.0, 0.0, 0.0, 0.0, 0.0, 0.0, 1.695935707955295E9, 0.0, 2023-09-28 16:15:07.955
112.0, 10624.745264619025, 22239.270477207956, 26835.39263431938, -6868.199332737843, 30763.488204895046, 31831.1639822917, -187500.02235174447, 46821.51786345457, 12995.728909460177, -18094.318281926906, -7291.787241910368, 9430.670372327611, 12239.882318959513, -187500.02235174447, 14233.680276117359, -54450.14589430641, 0.148, 0.998, 0.10200000000000001, 192.0, 2.0, 80.0, 15.5, 24.0, 1.5, 24.0, 0.0, 0.0, 0.0, 1.6959357079553146E9, 0.0, 2023-09-28 16:15:07.955
114.0, 10634.781197879458, 22245.864241822273, 26846.724968758223, -7004.343808215119, 30748.199611687614, 31718.75705942596, -187500.02235174447, 46861.4604307962, 12934.261612208084, -18139.625267937812, -7333.473245319516, 9409.615029050712, 12186.394594477964, -187500.02235174447, 14566.721268501435, -54094.77550921148, 0.148, 0.998, 0.10200000000000001, 192.0, 0.0, 0.0, 0.0, 0.0, 0.0, 0.0, 0.0, 0.0, 0.0, 1.6959357079553368E9, 0.0, 2023-09-28 16:15:07.955
116.0, 10629.81911061038, 22240.231602219537, 26792.767857643114, -6882.862077100525, 30771.154853243217, 31814.266063483487, -187500.02235174447, 46800.618982388856, 12994.231342581672, -18095.301758682937, -7295.721148934502, 9416.454662854036, 12230.47223454383, -187500.02235174447, 14260.815293886102, -54423.81553933806, 0.148, 0.998, 0.10200000000000001, 192.0, 0.0, 0.0, 0.0, 0.0, 0.0, 0.0, 0.0, 0.0, 0.0, 1.695935707955356E9, 0.0, 2023-09-28 16:15:07.955
118.0, 10658.809323168913, 22266.94193684363, 26905.152428764395, -6972.090240966111, 30758.168489714684, 31751.48001330853, -187500.02235174447, 46924.96173679373, 12924.493899881114, -18116.58061940439, -7324.264326603929, 9426.043561225362, 12200.565600462629, -187500.02235174447, 14570.208140636461, -54099.51407903601, 0.148, 0.998, 0.10200000000000001, 192.0, 0.0, 0.0, 0.0, 0.0, 0.0, 0.0, 0.0, 0.0, 0.0, 1.695935707955375E9, 0.0, 2023-09-28 16:15:07.955
120.0, 10643.386619494751, 22274.452122980612, 26742.699950063223, -6887.0195015692125, 30783.157740015715, 31788.472150382062, -187500.02235174447, 46757.614226056845, 12999.059319384018, -18087.14337195675, -7290.49084073196, 9429.999819993953, 12218.402292537963, -187500.02235174447, 14289.961968655822, -54392.701911056276, 0.148, 0.998, 0.10200000000000001, 192.0, 0.0, 0.0, 0.0, 0.0, 0.0, 0.0, 0.0, 0.0, 0.0, 1.695935707955402E9, 0.0, 2023-09-28 16:15:07.955
122.0, 10655.993003367545, 22274.340364258333, 26965.27862134917, -6949.8279034886245, 30751.23944893354, 31769.875498995247, -187500.02235174447, 46971.22984781621, 12949.237280993138, -18098.87803779579, -7315.010704399432, 9446.271889957416, 12195.827030638104, -187500.02235174447, 14556.819445707733, -54122.53637582497, 0.15, 1.002, 0.098, 192.0, 2.0, 88.0, 15.5, 40.0, 1.5, 8.0, 0.0, 0.0, 0.0, 1.6959357079554234E9, 0.0, 2023-09-28 16:15:07.955
124.0, 10658.317584790897, 22271.233471779047, 26695.291900073516, -6905.3926355114745, 30778.32976321337, 31758.61021978977, -187500.02235174447, 46714.52006274701, 13010.726929989689, -18084.86349402231, -7278.15267779263, 9432.592622350767, 12222.313847817642, -187500.02235174447, 14319.086291681087, -54363.64464326437, 0.15, 1.002, 0.098, 192.0, 0.0, 0.0, 0.0, 0.0, 0.0, 0.0, 0.0, 0.0, 0.0, 1.6959357079554408E9, 0.0, 2023-09-28 16:15:07.955
126.0, 10659.010488869011, 22260.683448396143, 26997.95687174283, -6932.37119106903, 30750.47948962206, 31797.30108944191, -187500.02235174447, 46998.20840337377, 12936.787359331533, -18097.514581384014, -7309.668637474613, 9451.502198159957, 12213.104929102055, -187500.02235174447, 14516.698064410457, -54177.43226020721, 0.15, 1.002, 0.098, 192.0, 0.0, 0.0, 0.0, 0.0, 0.0, 0.0, 0.0, 0.0, 0.0, 1.6959357079554584E9, 0.0, 2023-09-28 16:15:07.955
128.0, 10664.084334860365, 22283.079896340358, 26656.332809487918, -6924.391618298486, 30778.910908569207, 31734.51503926695, -187500.02235174447, 46686.33451298887, 13007.754147977132, -18103.05781400893, -7295.63174195668, 9420.410921622626, 12212.747301190771, -187500.02235174447, 14346.17660596092, -54344.19862558826, 0.15, 1.002, 0.098, 192.0, 0.0, 0.0, 0.0, 0.0, 0.0, 0.0, 0.0, 0.0, 0.0, 1.6959357079554772E9, 0.0, 2023-09-28 16:15:07.955
130.0, 10618.799700593914, 22250.759273857984, 27042.123918786518, -6917.574336239617, 30733.492163836025, 31805.884159312747, -187500.02235174447, 47042.59896786201, 12925.544431870512, -18098.587465117867, -7321.02332365791, 9448.171788236117, 12177.520951929208, -187500.02235174447, 14492.357014698628, -54210.579897234435, 0.15, 1.002, 0.098, 192.0, 0.0, 0.0, 0.0, 0.0, 0.0, 0.0, 0.0, 0.0, 0.0, 1.695935707955496E9, 0.0, 2023-09-28 16:15:07.955
132.0, 10647.879320130269, 22291.41709702219, 26637.758509845557, -6954.18649365741, 30765.879841551763, 31703.423762729617, -187500.02235174447, 46681.126556530784, 12976.796981906533, -18111.05973852393, -7310.897983419655, 9407.268095882904, 12208.612228466538, -187500.02235174447, 14408.828545669145, -54271.37664215286, 0.158, 1.002, 0.1, 192.0, 2.0, 120.0, 15.5, 40.0, 1.5, 16.0, 0.0, 0.0, 0.0, 1.6959357079555168E9, 0.0, 2023-09-28 16:15:07.955
134.0, 10636.703447902615, 22242.64559062071, 27053.232735780806, -6900.69876917586, 30740.912942995186, 31824.279644999464, -187500.02235174447, 47052.12081099997, 12939.357809943893, -18099.570941873902, -7320.218660857518, 9449.758762092444, 12212.054397112655, -187500.02235174447, 14466.71956380839, -54226.04730439751, 0.158, 1.002, 0.1, 192.0, 0.0, 0.0, 0.0, 0.0, 0.0, 0.0, 0.0, 0.0, 0.0, 1.6959357079555526E9, 0.0, 2023-09-28 16:15:07.955
136.0, 10665.604253483327, 22291.327690044367, 26604.767335029526, -6971.531447354728, 30767.690332852642, 31684.245965986964, -187500.02235174447, 46649.252968937515, 12985.201237821728, -18114.814831592423, -7311.345018308762, 9409.346808117249, 12211.56265873464, -187500.02235174447, 14438.064627416687, -54230.67411549975, 0.158, 1.002, 0.1, 192.0, 0.0, 0.0, 0.0, 0.0, 0.0, 0.0, 0.0, 0.0, 0.0, 1.6959357079555826E9, 0.0, 2023-09-28 16:15:07.955
138.0, 10598.057281739388, 22213.901247251182, 27072.54464299019, -6888.31590274762, 30723.478582320047, 31837.936560861657, -187500.02235174447, 47069.9127995864, 12936.049751764507, -18101.11321224132, -7320.844509702267, 9453.022116782919, 12213.864888413536, -187500.02235174447, 14410.102595103097, -54283.80421207002, 0.158, 1.002, 0.1, 192.0, 0.0, 0.0, 0.0, 0.0, 0.0, 0.0, 0.0, 0.0, 0.0, 1.69593570795562E9, 0.0, 2023-09-28 16:15:07.955
140.0, 10659.658689458214, 22278.564843960386, 26619.98887300359, -6996.6101046335825, 30755.642742591233, 31663.950582021545, -187500.02235174447, 46672.34232095985, 12965.934034101252, -18127.980009076597, -7330.4334080735935, 9404.496479570447, 12191.647254424961, -187500.02235174447, 14509.076119551197, -54144.88812028028, 0.158, 1.002, 0.1, 192.0, 0.0, 0.0, 0.0, 0.0, 0.0, 0.0, 0.0, 0.0, 0.0, 1.69593570795564E9, 0.0, 2023-09-28 16:15:07.955
142.0, 10645.465331729094, 22238.711683596575, 27033.429090193404, -6867.55113214864, 30740.957646484097, 31859.237773327564, -187500.02235174447, 47018.660249550376, 12968.973871347174, -18083.589444588357, -7302.717244949013, 9459.30295697486, 12220.525708261217, -187500.02235174447, 14361.353440446073, -54326.71956142421, 0.162, 1.002, 0.106, 192.0, 2.5, 8.0, 15.5, 40.0, 1.5, 40.0, 0.0, 0.0, 0.0, 1.695935707955665E9, 0.0, 2023-09-28 16:15:07.955
144.0, 10679.082355389877, 22293.40640227871, 26636.70797785616, -6991.804479575691, 30753.116995467783, 31677.0263525279, -187500.02235174447, 46676.34328321735, 12971.14199055934, -18117.63115139379, -7322.096207391764, 9412.900735485642, 12198.50923997274, -187500.02235174447, 14517.860355122133, -54140.28366092249, 0.162, 1.002, 0.106, 192.0, 0.0, 0.0, 0.0, 0.0, 0.0, 0.0, 0.0, 0.0, 0.0, 1.6959357079557028E9, 0.0, 2023-09-28 16:15:07.955
146.0, 10625.281706485952, 22251.40747444719, 27011.926712027398, -6853.156608719422, 30731.167582412672, 31863.953991407634, -187500.02235174447, 46987.23369684621, 12981.580255219968, -18094.653558093734, -7280.745480149446, 9461.918111076131, 12240.284650359708, -187500.02235174447, 14305.384672329983, -54391.204344177764, 0.162, 1.002, 0.106, 192.0, 0.0, 0.0, 0.0, 0.0, 0.0, 0.0, 0.0, 0.0, 0.0, 1.6959357079557388E9, 0.0, 2023-09-28 16:15:07.955
148.0, 10659.479875502573, 22294.233416823557, 26693.101429116898, -7011.853994352102, 30740.823536017364, 31673.852404815247, -187500.02235174447, 46730.836836199385, 12963.94472884473, -18134.193794035175, -7328.6676202616245, 9397.05334866683, 12179.465553696818, -187500.02235174447, 14549.197500848473, -54111.49461406405, 0.162, 1.002, 0.106, 192.0, 0.0, 0.0, 0.0, 0.0, 0.0, 0.0, 0.0, 0.0, 0.0, 1.6959357079557812E9, 0.0, 2023-09-28 16:15:07.955
150.0, 10619.023218038466, 22244.12080575476, 26997.733354298278, -6843.0536202256235, 30752.111166967294, 31875.35338107984, -187500.02235174447, 46984.05974913356, 12953.79703686202, -18076.570996829392, -7290.53554422087, 9459.146494763672, 12220.79392919468, -187500.02235174447, 14313.207782889342, -54381.079003939514, 0.162, 1.002, 0.106, 192.0, 0.0, 0.0, 0.0, 0.0, 0.0, 0.0, 0.0, 0.0, 0.0, 1.695935707955798E9, 0.0, 2023-09-28 16:15:07.955
152.0, 10659.926910391678, 22293.361698789802, 26748.399644899328, -7001.639247136027, 30750.6583035777, 31696.1817975261, -187500.02235174447, 46786.64914210429, 12929.880670294842, -18108.936322800677, -7323.727884737002, 9423.450758868546, 12168.535550658173, -187500.02235174447, 14599.623036339646, -54057.24693027102, 0.162, 1.002, 0.10400000000000001, 192.0, 2.5, 8.0, 15.5, 40.0, 1.5, 32.0, 0.0, 0.0, 0.0, 1.695935707955814E9, 0.0, 2023-09-28 16:15:07.955
154.0, 10655.702430689626, 22273.759218902498, 26945.966714139788, -6826.423922350875, 30766.304524696414, 31876.761540980526, -187500.02235174447, 46941.412620712836, 12978.003976107118, -18041.38935105674, -7275.023433568887, 9477.54198045039, 12230.204013610366, -187500.02235174447, 14294.432317546883, -54389.97499823273, 0.162, 1.002, 0.10400000000000001, 192.0, 0.0, 0.0, 0.0, 0.0, 0.0, 0.0, 0.0, 0.0, 0.0, 1.695935707955834E9, 0.0, 2023-09-28 16:15:07.955
156.0, 10665.425439527684, 22308.337367574855, 26817.421831777316, -6978.371081158052, 30753.385216401246, 31721.61808271624, -187500.02235174447, 46861.79570696303, 12908.422995617748, -18075.945147984643, -7323.6831812480905, 9448.194139980573, 12183.1759432764, -187500.02235174447, 14614.129318491141, -54034.11287475978, 0.162, 1.002, 0.10400000000000001, 192.0, 0.0, 0.0, 0.0, 0.0, 0.0, 0.0, 0.0, 0.0, 0.0, 1.6959357079558516E9, 0.0, 2023-09-28 16:15:07.955
158.0, 10646.649974185226, 22296.625053480275, 26909.600425911, -6836.906890500413, 30764.494033395535, 31866.144462364253, -187500.02235174447, 46917.920937290306, 12959.832007864954, -18027.37480728326, -7274.732860890968, 9479.6877479181, 12224.303153074165, -187500.02235174447, 14315.510012568238, -54352.915805925826, 0.162, 1.002, 0.10400000000000001, 192.0, 0.0, 0.0, 0.0, 0.0, 0.0, 0.0, 0.0, 0.0, 0.0, 1.6959357079558804E9, 0.0, 2023-09-28 16:15:07.955
160.0, 10695.823811986902, 22346.491795360067, 26858.6384485529, -6953.962976212857, 30767.600925874824, 31754.743367999003, -187500.02235174447, 46890.450643354736, 12908.89238225131, -18046.150272625717, -7312.596715998258, 9470.970567580529, 12191.870771869513, -187500.02235174447, 14620.387806938626, -54017.86315654077, 0.162, 1.002, 0.10400000000000001, 192.0, 0.0, 0.0, 0.0, 0.0, 0.0, 0.0, 0.0, 0.0, 0.0, 1.6959357079559128E9, 0.0, 2023-09-28 16:15:07.955
162.0, 10678.232989100576, 22335.874716743794, 26845.160346646353, -6818.958439702802, 30784.118865027296, 31870.145424621755, -187500.02235174447, 46853.525561514565, 12968.035098080052, -18001.51383894847, -7263.244064240941, 9494.842230658798, 12212.724949446316, -187500.02235174447, 14297.226285603796, -54367.95852994425, 0.164, 1.004, 0.096, 192.0, 2.5, 16.0, 15.5, 48.0, 1.5, 0.0, 0.0, 0.0, 0.0, 1.6959357079559314E9, 0.0, 2023-09-28 16:15:07.955
164.0, 10673.606177998327, 22339.540402834464, 26915.300120747106, -6934.829882959114, 30760.7612920715, 31784.650002080205, -187500.02235174447, 46943.75955388064, 12897.6941582792, -18042.417531301682, -7306.137061850675, 9482.459364230557, 12176.671585639906, -187500.02235174447, 14618.42085342656, -54029.866043313275, 0.164, 1.004, 0.096, 192.0, 0.0, 0.0, 0.0, 0.0, 0.0, 0.0, 0.0, 0.0, 0.0, 1.6959357079559484E9, 0.0, 2023-09-28 16:15:07.955
166.0, 10673.561474509415, 22334.243039398556, 26777.68043013578, -6845.1099807155115, 30790.153836030226, 31838.92003761769, -187500.02235174447, 46803.189433001215, 12959.85435960941, -18015.28251353294, -7276.386889980661, 9474.368032737737, 12221.75505420626, -187500.02235174447, 14326.194146417874, -54340.398829030855, 0.164, 1.004, 0.096, 192.0, 0.0, 0.0, 0.0, 0.0, 0.0, 0.0, 0.0, 0.0, 0.0, 1.6959357079559753E9, 0.0, 2023-09-28 16:15:07.955
168.0, 10671.505114019528, 22333.013693453515, 26963.177557370374, -6928.102007878067, 30767.623277619277, 31801.14558948822, -187500.02235174447, 46985.2890950786, 12890.519248309047, -18025.586667726835, -7312.395550298161, 9482.124088063729, 12178.012690307223, -187500.02235174447, 14603.668702086057, -54057.58220643785, 0.164, 1.004, 0.096, 192.0, 0.0, 0.0, 0.0, 0.0, 0.0, 0.0, 0.0, 0.0, 0.0, 1.6959357079559915E9, 0.0, 2023-09-28 16:15:07.955
170.0, 10689.766489239513, 22347.207051182635, 26737.24612441613, -6849.289756928654, 30804.458952481626, 31820.72571763107, -187500.02235174447, 46763.87271450433, 12981.244979053137, -18001.71500464857, -7263.6910991300465, 9477.340814750292, 12198.553943461651, -187500.02235174447, 14338.375847146017, -54334.07328535, 0.164, 1.004, 0.096, 192.0, 0.0, 0.0, 0.0, 0.0, 0.0, 0.0, 0.0, 0.0, 0.0, 1.6959357079560077E9, 0.0, 2023-09-28 16:15:07.956
172.0, 10667.63826222876, 22328.319827117903, 27011.122049227008, -6909.103025091055, 30768.919678797687, 31822.849133354324, -187500.02235174447, 47027.08685721003, 12888.909922708264, -18029.319409050873, -7308.618105485214, 9490.081309089817, 12192.340158503075, -187500.02235174447, 14583.55213207628, -54086.43830852966, 0.162, 1.0, 0.1, 192.0, 2.5, 8.0, 15.5, 32.0, 1.5, 16.0, 0.0, 0.0, 0.0, 1.69593570795604E9, 0.0, 2023-09-28 16:15:07.956
174.0, 10668.264111073508, 22337.864022000318, 26702.533865277037, -6879.419908454408, 30791.33847848636, 31785.991106747522, -187500.02235174447, 46741.90094970477, 12965.643461423333, -18014.56725771037, -7271.804782367323, 9467.550750678867, 12224.459615285352, -187500.02235174447, 14374.31745223015, -54298.62341864389, 0.162, 1.0, 0.1, 192.0, 0.0, 0.0, 0.0, 0.0, 0.0, 0.0, 0.0, 0.0, 0.0, 1.6959357079560647E9, 0.0, 2023-09-28 16:15:07.956
176.0, 10664.576073238382, 22319.22266712459, 27045.45432871036, -6886.483059702285, 30765.008123518008, 31840.77523240748, -187500.02235174447, 47056.0100145352, 12897.425937345737, -18026.480737505048, -7303.991294382965, 9498.753785938476, 12197.70457717235, -187500.02235174447, 14556.327707329716, -54125.33034388189, 0.162, 1.0, 0.1, 192.0, 0.0, 0.0, 0.0, 0.0, 0.0, 0.0, 0.0, 0.0, 0.0, 1.6959357079560812E9, 0.0, 2023-09-28 16:15:07.956
178.0, 10680.401108312739, 22357.220632698612, 26648.263829739553, -6893.814431883626, 30791.651402908734, 31763.61701054776, -187500.02235174447, 46685.90982984422, 12958.42384796427, -18008.129955307242, -7273.615273668203, 9475.955006594064, 12217.597629737573, -187500.02235174447, 14394.143449562009, -54279.289159690044, 0.162, 1.0, 0.1, 192.0, 0.0, 0.0, 0.0, 0.0, 0.0, 0.0, 0.0, 0.0, 0.0, 1.6959357079561036E9, 0.0, 2023-09-28 16:15:07.956
180.0, 10666.118343605798, 22331.4714230861, 27068.49897724378, -6868.132277504477, 30747.5067076095, 31862.143500106755, -187500.02235174447, 47061.75441286021, 12899.974036213642, -18009.806336141388, -7300.459718759027, 9504.252315074482, 12190.976702091302, -187500.02235174447, 14487.618444874102, -54204.768443676054, 0.162, 1.0, 0.1, 192.0, 0.0, 0.0, 0.0, 0.0, 0.0, 0.0, 0.0, 0.0, 0.0, 1.695935707956124E9, 0.0, 2023-09-28 16:15:07.956
182.0, 10709.793652271468, 22365.222557213612, 26647.79444310599, -6922.871699675525, 30772.920641055185, 31738.918332924648, -187500.02235174447, 46682.84764085384, 12960.033173565052, -18026.52544099396, -7289.887343631666, 9464.510913432947, 12192.250751525255, -187500.02235174447, 14447.854691488112, -54227.81309220947, 0.158, 1.004, 0.1, 192.0, 2.0, 120.0, 15.5, 48.0, 1.5, 16.0, 0.0, 0.0, 0.0, 1.695935707956153E9, 0.0, 2023-09-28 16:15:07.956
184.0, 10682.569227524904, 22320.027329924982, 27079.049000626685, -6841.310184158109, 30749.36190239929, 31882.081256160887, -187500.02235174447, 47055.004186034705, 12923.532774869534, -17988.28160623093, -7289.037977342365, 9517.50689953648, 12220.32454256112, -187500.02235174447, 14447.161787409996, -54252.42236285477, 0.158, 1.004, 0.1, 192.0, 0.0, 0.0, 0.0, 0.0, 0.0, 0.0, 0.0, 0.0, 0.0, 1.695935707956178E9, 0.0, 2023-09-28 16:15:07.956
186.0, 10688.224218872097, 22366.317792691923, 26651.66129489676, -6938.160292882954, 30761.76712057199, 31723.361518783753, -187500.02235174447, 46683.98757982106, 12953.931147328753, -18017.182411811642, -7286.4675267300045, 9475.575026938322, 12214.960123891846, -187500.02235174447, 14485.807953573223, -54187.53524870101, 0.158, 1.004, 0.1, 192.0, 0.0, 0.0, 0.0, 0.0, 0.0, 0.0, 0.0, 0.0, 0.0, 1.695935707956198E9, 0.0, 2023-09-28 16:15:07.956
188.0, 10652.372020765784, 22312.36068157681, 27084.30166057368, -6829.195538663333, 30748.04314947643, 31895.715820278627, -187500.02235174447, 47063.63195939445, 12928.94189702772, -17995.344757478804, -7278.5997126817365, 9511.918963422653, 12213.663722713438, -187500.02235174447, 14415.265848072273, -54288.386319683355, 0.158, 1.004, 0.1, 192.0, 0.0, 0.0, 0.0, 0.0, 0.0, 0.0, 0.0, 0.0, 0.0, 1.6959357079562168E9, 0.0, 2023-09-28 16:15:07.956
190.0, 10678.367099567307, 22370.251699716056, 26681.03148711103, -6960.556740827173, 30760.068387993386, 31704.586053441293, -187500.02235174447, 46721.4267517837, 12937.927298298753, -18029.766443939978, -7295.117651834208, 9461.918111076131, 12192.876600370002, -187500.02235174447, 14559.300489342271, -54106.10784365032, 0.158, 1.004, 0.1, 192.0, 0.0, 0.0, 0.0, 0.0, 0.0, 0.0, 0.0, 0.0, 0.0, 1.6959357079562335E9, 0.0, 2023-09-28 16:15:07.956
192.0, 10661.491532503549, 22313.947655433138, 27077.193805836894, -6820.2771926256655, 30744.109242452294, 31895.715820278627, -187500.02235174447, 47062.80494484961, 12930.931202284242, -17991.99199581051, -7271.491857944949, 9511.427225044636, 12225.823071697125, -187500.02235174447, 14403.173554321953, -54288.27456096108, 0.16, 1.0, 0.096, 192.0, 2.5, 0.0, 15.5, 32.0, 1.5, 0.0, 0.0, 0.0, 0.0, 1.695935707956252E9, 0.0, 2023-09-28 16:15:07.956
194.0, 10720.701303565658, 22396.962034340148, 26683.311365045472, -6957.606310559072, 30775.42403643418, 31711.649204689173, -187500.02235174447, 46729.29456583197, 12954.601699662411, -18022.792699669924, -7294.268285544907, 9476.022061827429, 12202.823126652615, -187500.02235174447, 14589.69886180149, -54057.38104073775, 0.16, 1.0, 0.096, 192.0, 0.0, 0.0, 0.0, 0.0, 0.0, 0.0, 0.0, 0.0, 0.0, 1.6959357079562705E9, 0.0, 2023-09-28 16:15:07.956
196.0, 10654.920119633689, 22321.83782122586, 27028.802279091156, -6815.091587912034, 30748.46783262108, 31899.739134280582, -187500.02235174447, 47009.38427560142, 12935.580365130945, -17993.08723128882, -7272.922369590088, 9512.50010877849, 12244.218557383843, -187500.02235174447, 14352.144521730486, -54332.03927660457, 0.16, 1.0, 0.096, 192.0, 0.0, 0.0, 0.0, 0.0, 0.0, 0.0, 0.0, 0.0, 0.0, 1.6959357079562876E9, 0.0, 2023-09-28 16:15:07.956
198.0, 10676.690718733158, 22354.80664429744, 26713.28505436004, -6970.525618854239, 30760.984809516052, 31714.912559379645, -187500.02235174447, 46746.77362999602, 12927.824309804953, -18028.62650497276, -7296.68227394608, 9468.288358245893, 12199.336254517586, -187500.02235174447, 14595.197390937496, -54048.82032261138, 0.16, 1.0, 0.096, 192.0, 0.0, 0.0, 0.0, 0.0, 0.0, 0.0, 0.0, 0.0, 0.0, 1.6959357079563103E9, 0.0, 2023-09-28 16:15:07.956
200.0, 10666.855951172824, 22313.522972288487, 26978.91318546691, -6810.531832043152, 30765.589268873846, 31904.902387249756, -187500.02235174447, 46962.42326050082, 12957.015688063586, -18001.804411626388, -7268.787296865857, 9502.017140628952, 12234.316734590142, -187500.02235174447, 14316.046454435165, -54363.15290488636, 0.16, 1.0, 0.096, 192.0, 0.0, 0.0, 0.0, 0.0, 0.0, 0.0, 0.0, 0.0, 0.0, 1.6959357079563267E9, 0.0, 2023-09-28 16:15:07.956
202.0, 10673.337957064863, 22349.442225628165, 26759.597868871435, -6964.334185640119, 30768.964382286595, 31731.251684576477, -187500.02235174447, 46802.630639389834, 12916.380216643836, -18020.713987435578, -7312.797881698357, 9474.792715882388, 12195.402347493453, -187500.02235174447, 14612.676455101546, -54033.352915448304, 0.16, 1.0, 0.098, 192.0, 2.5, 0.0, 15.5, 32.0, 1.5, 8.0, 0.0, 0.0, 0.0, 1.6959357079563437E9, 0.0, 2023-09-28 16:15:07.956
204.0, 10653.288442288453, 22325.883486972274, 26925.24664702972, -6813.549317544618, 30773.70295211112, 31892.094837676865, -187500.02235174447, 46925.90051006085, 12957.239205508138, -17988.9968620535, -7266.775639864879, 9499.804317927876, 12233.556775278661, -187500.02235174447, 14300.199067616353, -54378.39679460488, 0.16, 1.0, 0.098, 192.0, 0.0, 0.0, 0.0, 0.0, 0.0, 0.0, 0.0, 0.0, 0.0, 1.6959357079563632E9, 0.0, 2023-09-28 16:15:07.956
206.0, 10689.811192728424, 22345.150690692746, 26820.528724256605, -6973.006662488779, 30766.125710740773, 31749.647170263193, -187500.02235174447, 46868.32241634398, 12904.377329871337, -18040.249412089517, -7314.071931132309, 9460.5323029199, 12199.93975161788, -187500.02235174447, 14628.881469831644, -54020.88064204224, 0.16, 1.0, 0.098, 192.0, 0.0, 0.0, 0.0, 0.0, 0.0, 0.0, 0.0, 0.0, 0.0, 1.6959357079563792E9, 0.0, 2023-09-28 16:15:07.956
208.0, 10678.657672245226, 22323.71536776011, 26865.27691665613, -6824.25580313871, 30783.694181882645, 31874.861642701824, -187500.02235174447, 46884.080396184974, 12959.85435960941, -18005.492449461515, -7282.220695283497, 9480.06772757384, 12219.452824527363, -187500.02235174447, 14315.68882652388, -54357.162637372334, 0.16, 1.0, 0.098, 192.0, 0.0, 0.0, 0.0, 0.0, 0.0, 0.0, 0.0, 0.0, 0.0, 1.6959357079563951E9, 0.0, 2023-09-28 16:15:07.956
210.0, 10679.35057632334, 22344.390731381267, 26879.85025404099, -6950.163179655455, 30770.12667299827, 31769.987257717523, -187500.02235174447, 46920.67020185831, 12902.32096938145, -18035.9578771541, -7308.5957537407585, 9477.139649050194, 12201.839649896581, -187500.02235174447, 14630.669609388067, -54020.478310642044, 0.16, 1.0, 0.098, 192.0, 0.0, 0.0, 0.0, 0.0, 0.0, 0.0, 0.0, 0.0, 0.0, 1.6959357079564164E9, 0.0, 2023-09-28 16:15:07.956
212.0, 10674.746116965547, 22349.062245972425, 26802.021479847608, -6823.719361271783, 30802.961385603117, 31866.055055386434, -187500.02235174447, 46819.416799475766, 12974.22653129417, -17986.94050156361, -7256.493837415438, 9491.891800390697, 12238.89884220348, -187500.02235174447, 14307.30692235314, -54365.92452119882, 0.164, 0.996, 0.10400000000000001, 192.0, 2.5, 16.0, 15.5, 16.0, 1.5, 32.0, 0.0, 0.0, 0.0, 1.695935707956436E9, 0.0, 2023-09-28 16:15:07.956
214.0, 10685.676120004193, 22337.640504555762, 26926.118365063474, -6932.214728857843, 30772.317143954893, 31799.648022609716, -187500.02235174447, 46950.39802198387, 12881.891474949298, -18020.535173479937, -7305.622971728203, 9491.042434101395, 12191.826068380604, -187500.02235174447, 14607.26733294336, -54059.61621518329, 0.164, 0.996, 0.10400000000000001, 192.0, 0.0, 0.0, 0.0, 0.0, 0.0, 0.0, 0.0, 0.0, 0.0, 1.695935707956452E9, 0.0, 2023-09-28 16:15:07.956
216.0, 10682.613931013815, 22343.451958114143, 26753.048807746032, -6846.562844105107, 30792.52312094249, 31841.40108125223, -187500.02235174447, 46779.18365945622, 12973.354813260416, -18009.783984396934, -7272.363575978706, 9485.320387520836, 12229.645219998984, -187500.02235174447, 14332.989076732289, -54345.67384072231, 0.164, 0.996, 0.10400000000000001, 192.0, 0.0, 0.0, 0.0, 0.0, 0.0, 0.0, 0.0, 0.0, 0.0, 1.6959357079564712E9, 0.0, 2023-09-28 16:15:07.956
218.0, 10684.513829292517, 22336.254696399534, 26982.40005760194, -6916.74732169477, 30761.208326960605, 31820.233979253055, -187500.02235174447, 46996.48731905071, 12905.740786283111, -18011.08038557534, -7294.804727411834, 9497.904419649174, 12206.779385421203, -187500.02235174447, 14586.323748388739, -54088.40526204172, 0.164, 0.996, 0.10400000000000001, 192.0, 0.0, 0.0, 0.0, 0.0, 0.0, 0.0, 0.0, 0.0, 0.0, 1.6959357079565E9, 0.0, 2023-09-28 16:15:07.956
220.0, 10679.64114900126, 22362.96503102363, 26702.556217021494, -6868.936940304869, 30791.96432733111, 31805.86180756829, -187500.02235174447, 46731.30622283295, 12971.94665335973, -18003.927827349642, -7271.357747478217, 9474.099811804273, 12224.61607749654, -187500.02235174447, 14344.857853038056, -54331.94986962675, 0.164, 0.996, 0.10400000000000001, 192.0, 0.0, 0.0, 0.0, 0.0, 0.0, 0.0, 0.0, 0.0, 0.0, 1.6959357079565191E9, 0.0, 2023-09-28 16:15:07.956
222.0, 10641.218500282586, 22324.98941719406, 27032.847944837566, -6904.520917477717, 30761.633010105255, 31839.098851573333, -187500.02235174447, 47041.12375272796, 12897.515344323558, -18017.71885367857, -7296.212887312518, 9492.204724813071, 12194.59768469306, -187500.02235174447, 14549.510425270848, -54127.90079449425, 0.158, 0.996, 0.098, 192.0, 2.0, 120.0, 15.5, 16.0, 1.5, 8.0, 0.0, 0.0, 0.0, 1.6959357079565415E9, 0.0, 2023-09-28 16:15:07.956
224.0, 10677.137753622264, 22334.98064696558, 26679.13158883233, -6898.709463919337, 30790.734981386064, 31782.1019032123, -187500.02235174447, 46720.39857153876, 12953.394705461826, -18017.808260656388, -7278.845581870745, 9461.716945376033, 12213.283743057698, -187500.02235174447, 14393.584655950626, -54271.91308401979, 0.158, 0.996, 0.098, 192.0, 0.0, 0.0, 0.0, 0.0, 0.0, 0.0, 0.0, 0.0, 0.0, 1.6959357084354308E9, 0.0, 2023-09-28 16:15:08.435
