%OpenBCI Raw EXG Data
%Number of channels = 16
%Sample Rate = 125 Hz
%Board = OpenBCI_GUI$BoardCytonSerialDaisy
Sample Index, EXG Channel 0, EXG Channel 1, EXG Channel 2, EXG Channel 3, EXG Channel 4, EXG Channel 5, EXG Channel 6, EXG Channel 7, EXG Channel 8, EXG Channel 9, EXG Channel 10, EXG Channel 11, EXG Channel 12, EXG Channel 13, EXG Channel 14, EXG Channel 15, Accel Channel 0, Accel Channel 1, Accel Channel 2, Other, Other, Other, Other, Other, Other, Other, Analog Channel 0, Analog Channel 1, Analog Channel 2, Timestamp, Other, Timestamp (Formatted)
224.0, 10003.657341439408, 22174.517473520933, 26663.865347369356, -6488.66671188673, 30770.216079976093, 31198.631965950965, -187500.02235174447, 48965.92187475227, 13210.260952742214, -18435.137681381428, -7598.989617704108, 9163.835247020155, 12046.80795035457, -187500.02235174447, 13923.572173544428, -56934.89991842508, 0.09, 0.498, 0.051000000000000004, 192.0, 2.5, 80.0, 15.5, 16.0, 1.5, 24.0, 0.0, 0.0, 0.0, 1.6959356731551027E9, 0.0, 2023-09-28 16:14:33.155
226.0, 9963.871236308962, 22132.876173600696, 27104.574692794646, -6359.048945790404, 30744.779794785954, 31370.136901156537, -187500.02235174447, 49344.51572233626, 13186.210475708303, -18411.333073536527, -7583.812783218955, 9219.15581454704, 12064.622290685451, -187500.02235174447, 13846.45865517362, -57041.830663899265, 0.09, 0.498, 0.051000000000000004, 192.0, 0.0, 0.0, 0.0, 0.0, 0.0, 0.0, 0.0, 0.0, 0.0, 1.6959356731551192E9, 0.0, 2023-09-28 16:14:33.155
228.0, 10004.93139087336, 22197.62917728772, 26672.56017596247, -6481.245932727567, 30773.457082922112, 31202.65527995292, -187500.02235174447, 48960.31158689399, 13214.820708611096, -18418.88796316242, -7592.529963556524, 9181.046090250742, 12053.021735313147, -187500.02235174447, 13967.135723487821, -56893.10215629365, 0.09, 0.498, 0.051000000000000004, 192.0, 0.0, 0.0, 0.0, 0.0, 0.0, 0.0, 0.0, 0.0, 0.0, 1.695935673155131E9, 0.0, 2023-09-28 16:14:33.155
230.0, 9964.810009576084, 22121.90146707314, 27076.7914744367, -6360.92649232465, 30744.71273955259, 31381.469235595378, -187500.02235174447, 49310.85399518657, 13193.340682189546, -18395.93272160682, -7580.281207595016, 9223.246183782361, 12078.212151314277, -187500.02235174447, 13805.845535498327, -57092.12208892371, 0.09, 0.498, 0.051000000000000004, 192.0, 0.0, 0.0, 0.0, 0.0, 0.0, 0.0, 0.0, 0.0, 0.0, 1.695935673155143E9, 0.0, 2023-09-28 16:14:33.155
232.0, 9990.73803314424, 22166.403790283657, 26708.166504879777, -6506.14577605078, 30750.323027410872, 31187.03141057866, -187500.02235174447, 49010.37949447388, 13185.271702441181, -18436.769358726666, -7615.932240001231, 9174.921712269988, 12029.038313512601, -187500.02235174447, 14001.423299482263, -56859.06044948822, 0.09, 0.498, 0.051000000000000004, 192.0, 0.0, 0.0, 0.0, 0.0, 0.0, 0.0, 0.0, 0.0, 0.0, 1.695935673155154E9, 0.0, 2023-09-28 16:14:33.155
234.0, 9955.82460830505, 22137.547688191855, 27039.665226896435, -6358.624262645753, 30751.64178033373, 31373.19909014691, -187500.02235174447, 49289.82100365413, 13180.041394238639, -18411.891867147908, -7597.290885125504, 9201.050901538241, 12051.993555068202, -187500.02235174447, 13792.121564402767, -57097.93354248209, 0.134, 0.748, 0.0785, 192.0, 2.5, 72.0, 15.5, 24.0, 1.5, 40.0, 0.0, 0.0, 0.0, 1.6959356731551676E9, 0.0, 2023-09-28 16:14:33.155
236.0, 10007.747710674728, 22163.788636182384, 26751.439482145248, -6508.962095852148, 30759.867222293287, 31193.021678092682, -187500.02235174447, 49052.42312579431, 13185.092888485538, -18441.262059362183, -7606.432748607725, 9170.987805245853, 12058.162636537867, -187500.02235174447, 14037.409608055308, -56816.659190256505, 0.134, 0.748, 0.0785, 192.0, 0.0, 0.0, 0.0, 0.0, 0.0, 0.0, 0.0, 0.0, 0.0, 1.6959356731551788E9, 0.0, 2023-09-28 16:14:33.155
238.0, 9951.935404769827, 22115.307702458824, 27003.075421223097, -6355.8526463332955, 30762.236507205547, 31366.001828432305, -187500.02235174447, 49254.43819218138, 13203.04133928315, -18405.856896144975, -7581.935236684709, 9203.576648661692, 12069.942005865814, -187500.02235174447, 13765.277119311944, -57116.01610374643, 0.134, 0.748, 0.0785, 192.0, 0.0, 0.0, 0.0, 0.0, 0.0, 0.0, 0.0, 0.0, 0.0, 1.69593567315519E9, 0.0, 2023-09-28 16:14:33.155
240.0, 9989.240466265735, 22155.51849073392, 26803.250825792653, -6520.339133779899, 30755.776853057967, 31187.299631512124, -187500.02235174447, 49104.189765952804, 13168.686708055344, -18452.66144903439, -7621.944859259708, 9165.086944709652, 12027.540746634097, -187500.02235174447, 14074.625262573394, -56772.80506763519, 0.134, 0.748, 0.0785, 192.0, 0.0, 0.0, 0.0, 0.0, 0.0, 0.0, 0.0, 0.0, 0.0, 1.6959356731552012E9, 0.0, 2023-09-28 16:14:33.155
242.0, 9959.244425206713, 22127.891734587163, 26935.126118078962, -6360.524160924454, 30775.08876026735, 31351.763767214274, -187500.02235174447, 49192.36739782899, 13213.546659177144, -18411.534239236622, -7578.381309316315, 9194.546543901748, 12074.34529952351, -187500.02235174447, 13748.580366203829, -57127.72841784101, 0.134, 0.748, 0.0785, 192.0, 0.0, 0.0, 0.0, 0.0, 0.0, 0.0, 0.0, 0.0, 0.0, 1.6959356731552124E9, 0.0, 2023-09-28 16:14:33.155
244.0, 9987.564085431586, 22160.838205914286, 26842.008750678153, -6505.519927206031, 30753.876954779265, 31206.14215208795, -187500.02235174447, 49137.35975472448, 13173.5593883466, -18450.292164122126, -7614.524080100547, 9179.526171627782, 12010.888697014892, -187500.02235174447, 14067.293890392053, -56784.67384394096, 0.157, 0.87, 0.09025, 192.0, 2.5, 80.0, 15.5, 0.0, 1.5, 24.0, 0.0, 0.0, 0.0, 1.6959356731552231E9, 0.0, 2023-09-28 16:14:33.155
246.0, 9978.712794627285, 22143.314438261325, 26867.154463190374, -6364.726288882052, 30775.04405677844, 31330.954293126382, -187500.02235174447, 49129.424885442844, 13221.749749392242, -18408.583808968524, -7578.40366106077, 9197.742843358856, 12089.455078775298, -187500.02235174447, 13731.838909606804, -57143.911080826656, 0.157, 0.87, 0.09025, 192.0, 0.0, 0.0, 0.0, 0.0, 0.0, 0.0, 0.0, 0.0, 0.0, 1.6959356731552348E9, 0.0, 2023-09-28 16:14:33.155
248.0, 9992.950855845316, 22161.419351270124, 26911.679138145348, -6487.727938619607, 30752.066463478383, 31237.635760025474, -187500.02235174447, 49194.20024087432, 13163.344641130525, -18445.374780341957, -7610.79133877651, 9182.454250151426, 12058.743781893705, -187500.02235174447, 14048.160797138311, -56812.54646927673, 0.157, 0.87, 0.09025, 192.0, 0.0, 0.0, 0.0, 0.0, 0.0, 0.0, 0.0, 0.0, 0.0, 1.6959356731552477E9, 0.0, 2023-09-28 16:14:33.155
250.0, 10000.59515244903, 22149.01413309743, 26830.27408483912, -6383.658216435697, 30766.28217295196, 31314.928092351925, -187500.02235174447, 49095.874917015426, 13215.580667922577, -18412.18243982583, -7577.554294771468, 9187.751613587334, 12072.132476822433, -187500.02235174447, 13752.737790672516, -57123.72745558351, 0.157, 0.87, 0.09025, 192.0, 0.0, 0.0, 0.0, 0.0, 0.0, 0.0, 0.0, 0.0, 0.0, 1.695935673155259E9, 0.0, 2023-09-28 16:14:33.155
252.0, 9994.291960512634, 22137.972371336506, 26957.09788287853, -6478.362557692833, 30745.495050608522, 31267.721208062318, -187500.02235174447, 49233.114627971016, 13161.221225407271, -18437.864594204973, -7619.664981325267, 9190.947913044443, 12046.38326720992, -187500.02235174447, 14047.356134337919, -56815.38514082255, 0.157, 0.87, 0.09025, 192.0, 0.0, 0.0, 0.0, 0.0, 0.0, 0.0, 0.0, 0.0, 0.0, 1.69593567315527E9, 0.0, 2023-09-28 16:14:33.155
254.0, 9943.486445365721, 22141.280429515893, 26781.9719650712, -6397.561001486898, 30765.745731085033, 31303.729868379818, -187500.02235174447, 49053.160733361336, 13222.487356959267, -18414.685835204822, -7580.482373295114, 9184.331796685672, 12066.857465130981, -187500.02235174447, 13765.187712334122, -57103.72264429601, 0.16949999999999998, 0.931, 0.10012499999999999, 192.0, 2.5, 88.0, 15.5, 0.0, 1.5, 56.0, 0.0, 0.0, 0.0, 1.695935673155281E9, 0.0, 2023-09-28 16:14:33.155
0.0, 9963.223035719757, 22141.61570568272, 27013.804258561642, -6460.950548762149, 30737.6048848158, 31289.067124017136, -187500.02235174447, 49292.41380601094, 13149.955946201795, -18433.997742414205, -7610.567821331957, 9197.25110498084, 12030.46882515774, -187500.02235174447, 14030.838195185446, -56832.55128056423, 0.16949999999999998, 0.931, 0.10012499999999999, 192.0, 0.0, 0.0, 0.0, 0.0, 0.0, 0.0, 0.0, 0.0, 0.0, 1.6959356731552973E9, 0.0, 2023-09-28 16:14:33.155
2.0, 9987.429974964854, 22156.256098300946, 26748.712569321702, -6418.07990289687, 30769.389065431245, 31273.845586043073, -187500.02235174447, 49036.46398025322, 13225.638952927466, -18414.082338104527, -7576.123783126329, 9180.509648383815, 12058.184988282323, -187500.02235174447, 13805.957294220603, -57057.87921641818, 0.16949999999999998, 0.931, 0.10012499999999999, 192.0, 0.0, 0.0, 0.0, 0.0, 0.0, 0.0, 0.0, 0.0, 0.0, 1.6959356731553085E9, 0.0, 2023-09-28 16:14:33.155
4.0, 9973.348375958012, 22134.15022303465, 27064.632125453012, -6435.268394383001, 30740.823536017364, 31309.67543240493, -187500.02235174447, 49332.95987045287, 13162.830551008052, -18441.5526320401, -7613.071216710951, 9194.300674712738, 12037.621383383439, -187500.02235174447, 14018.812956668491, -56841.87195800209, 0.16949999999999998, 0.931, 0.10012499999999999, 192.0, 0.0, 0.0, 0.0, 0.0, 0.0, 0.0, 0.0, 0.0, 0.0, 1.6959356731553211E9, 0.0, 2023-09-28 16:14:33.155
6.0, 9992.146193044924, 22162.469883259524, 26703.338528077427, -6431.200376892135, 30773.390027688747, 31256.45592885684, -187500.02235174447, 48992.94513379874, 13216.38533072297, -18415.490498005212, -7574.536809270002, 9179.10148848313, 12047.791427110604, -187500.02235174447, 13843.619983627796, -57000.36817793467, 0.16949999999999998, 0.931, 0.10012499999999999, 192.0, 0.0, 0.0, 0.0, 0.0, 0.0, 0.0, 0.0, 0.0, 0.0, 1.695935673155332E9, 0.0, 2023-09-28 16:14:33.155
8.0, 9974.644777136418, 22133.837298612274, 27100.73019274833, -6415.621211006786, 30736.08496619284, 31337.793926929706, -187500.02235174447, 49357.546789353706, 13153.643984036922, -18414.26115206017, -7597.246181636594, 9213.366712733115, 12064.510531963175, -187500.02235174447, 13969.52736014454, -56888.385938213585, 0.17675, 0.9605, 0.1060625, 192.0, 2.5, 96.0, 15.0, 120.0, 1.5, 64.0, 0.0, 0.0, 0.0, 1.695935673155343E9, 0.0, 2023-09-28 16:14:33.155
10.0, 9992.88380061195, 22177.19968285557, 26682.551405733993, -6455.630833581786, 30772.38419918826, 31230.147925632948, -187500.02235174447, 48972.53799111104, 13214.999522566739, -18423.715939964764, -7588.327835598927, 9168.260892422306, 12055.1451510364, -187500.02235174447, 13889.910446394737, -56946.27695635283, 0.17675, 0.9605, 0.1060625, 192.0, 0.0, 0.0, 0.0, 0.0, 0.0, 0.0, 0.0, 0.0, 0.0, 1.695935673155354E9, 0.0, 2023-09-28 16:14:33.155
12.0, 9980.411527205888, 22136.63126666919, 27104.26176837227, -6393.940018885139, 30744.89155350823, 31357.57522077265, -187500.02235174447, 49347.332042137634, 13172.039469723639, -18407.935608379317, -7595.413338591259, 9216.16068079003, 12058.699078404794, -187500.02235174447, 13921.694627010183, -56938.20797660446, 0.17675, 0.9605, 0.1060625, 192.0, 0.0, 0.0, 0.0, 0.0, 0.0, 0.0, 0.0, 0.0, 0.0, 1.695935673155365E9, 0.0, 2023-09-28 16:14:33.155
14.0, 9991.945027344827, 22163.96745013803, 26668.156882304775, -6471.7911448229725, 30768.159719486204, 31213.07119286909, -187500.02235174447, 48958.9034269933, 13210.395063208945, -18427.35927431098, -7600.420129349248, 9172.172447701985, 12040.281240973622, -187500.02235174447, 13923.929801455713, -56914.7833484153, 0.17675, 0.9605, 0.1060625, 192.0, 0.0, 0.0, 0.0, 0.0, 0.0, 0.0, 0.0, 0.0, 0.0, 1.695935673155376E9, 0.0, 2023-09-28 16:14:33.155
16.0, 9965.59232063202, 22128.204659009538, 27107.12279166255, -6363.7204603815635, 30747.238486676037, 31379.4575785944, -187500.02235174447, 49339.151303666986, 13177.202722692815, -18398.324358263537, -7587.322007098438, 9222.419169237515, 12053.312307991066, -187500.02235174447, 13876.409992743731, -56991.40512840809, 0.17675, 0.9605, 0.1060625, 192.0, 0.0, 0.0, 0.0, 0.0, 0.0, 0.0, 0.0, 0.0, 0.0, 1.6959356731553886E9, 0.0, 2023-09-28 16:14:33.155
18.0, 10010.541678731643, 22177.512607277946, 26690.28510931553, -6479.748365849062, 30774.10528351132, 31202.02943110817, -187500.02235174447, 48979.86936329238, 13196.42522292438, -18433.193079613815, -7600.21896364915, 9174.787601803257, 12044.259851486666, -187500.02235174447, 13974.511799158074, -56860.44625764445, 0.176375, 0.9782500000000001, 0.10803125, 192.0, 2.5, 64.0, 15.5, 16.0, 1.5, 56.0, 0.0, 0.0, 0.0, 1.6959356731554005E9, 0.0, 2023-09-28 16:14:33.155
20.0, 9987.87700985396, 22117.118193759703, 27096.773933979744, -6359.272463234957, 30751.820594289376, 31375.54602331472, -187500.02235174447, 49329.20477738438, 13197.207533980314, -18406.594503712, -7582.248161107083, 9226.531890217291, 12092.87489567696, -187500.02235174447, 13837.070922502391, -57029.06781781529, 0.176375, 0.9782500000000001, 0.10803125, 192.0, 0.0, 0.0, 0.0, 0.0, 0.0, 0.0, 0.0, 0.0, 0.0, 1.6959356731554112E9, 0.0, 2023-09-28 16:14:33.155
22.0, 9964.340622942522, 22179.948947423574, 26703.71850773317, -6501.407206226255, 30768.629106119766, 31189.55715770211, -187500.02235174447, 48998.6671803793, 13189.85381005452, -18430.332056323536, -7598.117899670351, 9163.678784808968, 12037.800197339082, -187500.02235174447, 14004.843116383925, -56820.369579836086, 0.176375, 0.9782500000000001, 0.10803125, 192.0, 0.0, 0.0, 0.0, 0.0, 0.0, 0.0, 0.0, 0.0, 0.0, 1.6959356731554236E9, 0.0, 2023-09-28 16:14:33.155
24.0, 9947.085076223026, 22121.56619090631, 27080.010125638262, -6345.25791946148, 30756.46975713608, 31377.5576803157, -187500.02235174447, 49311.77041670924, 13179.75082156072, -18403.442907743804, -7574.693271481189, 9220.407512236538, 12083.733032194737, -187500.02235174447, 13801.174020907167, -57057.36512629571, 0.176375, 0.9782500000000001, 0.10803125, 192.0, 0.0, 0.0, 0.0, 0.0, 0.0, 0.0, 0.0, 0.0, 0.0, 1.695935673155435E9, 0.0, 2023-09-28 16:14:33.155
26.0, 9996.057748324603, 22173.95867990955, 26741.47060411818, -6500.088453303391, 30761.90123103872, 31190.160654802403, -187500.02235174447, 49029.71375342772, 13182.701251828821, -18426.621666743955, -7604.778719518033, 9181.381366417572, 12041.465883429753, -187500.02235174447, 14044.629221514371, -56777.990672348824, 0.176375, 0.9782500000000001, 0.10803125, 192.0, 0.0, 0.0, 0.0, 0.0, 0.0, 0.0, 0.0, 0.0, 0.0, 1.695935673155446E9, 0.0, 2023-09-28 16:14:33.155
28.0, 9952.82947454804, 22139.849917870753, 27027.796450590668, -6347.560149140376, 30746.99261748703, 31372.416779090978, -187500.02235174447, 49258.50620967224, 13192.245446711237, -18395.172762295337, -7580.907056439764, 9216.607715679136, 12058.654374915885, -187500.02235174447, 13777.771744462461, -57083.60607428623, 0.1761875, 0.987125, 0.109015625, 192.0, 2.5, 64.0, 15.5, 16.0, 1.5, 56.0, 0.0, 0.0, 0.0, 1.6959356731554568E9, 0.0, 2023-09-28 16:14:33.155
30.0, 9990.134536043946, 22168.638964729187, 26777.00987780212, -6492.242990999579, 30761.74476882753, 31204.286957298158, -187500.02235174447, 49055.70883222924, 13181.248388439226, -18427.582791755533, -7604.734016029122, 9184.957645530421, 12056.15097953689, -187500.02235174447, 14052.944070451746, -56776.49310547032, 0.1761875, 0.987125, 0.109015625, 192.0, 0.0, 0.0, 0.0, 0.0, 0.0, 0.0, 0.0, 0.0, 0.0, 1.6959356731554697E9, 0.0, 2023-09-28 16:14:33.155
32.0, 9947.308593667578, 22126.461222942024, 27001.48844736677, -6341.435771159622, 30754.882783279754, 31375.478968081352, -187500.02235174447, 49233.941642515856, 13210.082138786573, -18392.6917186608, -7566.959567899653, 9214.998390078354, 12115.763081999194, -187500.02235174447, 13768.29460481341, -57101.956856484045, 0.1761875, 0.987125, 0.109015625, 192.0, 0.0, 0.0, 0.0, 0.0, 0.0, 0.0, 0.0, 0.0, 0.0, 1.695935673155482E9, 0.0, 2023-09-28 16:14:33.155
34.0, 9984.568951674575, 22149.81879589782, 26832.9339424293, -6512.1136918203465, 30740.152983683707, 31202.968204375295, -187500.02235174447, 49116.52792889213, 13160.03658295114, -18440.5021000507, -7614.658190567278, 9178.229770449374, 12028.837147812505, -187500.02235174447, 14100.799155330558, -56737.80223581818, 0.1761875, 0.987125, 0.109015625, 192.0, 0.0, 0.0, 0.0, 0.0, 0.0, 0.0, 0.0, 0.0, 0.0, 1.6959356731554933E9, 0.0, 2023-09-28 16:14:33.155
36.0, 9960.317308940568, 22141.883926616185, 26911.433268956338, -6362.982852814538, 30763.84583280633, 31345.10294736659, -187500.02235174447, 49151.97779559825, 13218.262877257213, -18410.72957643623, -7579.409489561259, 9192.646645623046, 12091.48908752073, -187500.02235174447, 13761.522026243452, -57109.24352517647, 0.1761875, 0.987125, 0.109015625, 192.0, 0.0, 0.0, 0.0, 0.0, 0.0, 0.0, 0.0, 0.0, 0.0, 1.695935673155504E9, 0.0, 2023-09-28 16:14:33.155
38.0, 9994.873105868472, 22168.504854262454, 26877.615079595456, -6509.09620631888, 30739.236562161037, 31219.955530161325, -187500.02235174447, 49147.26157751818, 13173.112353457494, -18438.758663983186, -7611.283077154527, 9180.621407106091, 12092.763136954682, -187500.02235174447, 14069.752582282137, -56782.48337298434, 0.17809375, 0.9875625, 0.1075078125, 192.0, 2.5, 80.0, 15.0, 112.0, 1.5, 40.0, 0.0, 0.0, 0.0, 1.695935673155515E9, 0.0, 2023-09-28 16:14:33.155
40.0, 9962.753649086197, 22143.29208651687, 26862.058265454565, -6391.481326995055, 30766.393931674236, 31321.29833952169, -187500.02235174447, 49107.52017587664, 13225.348380249547, -18416.585733483524, -7589.087794910407, 9171.457191879415, 12104.944837682824, -187500.02235174447, 13753.877729639737, -57117.69248458058, 0.17809375, 0.9875625, 0.1075078125, 192.0, 0.0, 0.0, 0.0, 0.0, 0.0, 0.0, 0.0, 0.0, 0.0, 1.6959356731555262E9, 0.0, 2023-09-28 16:14:33.155
42.0, 9979.78567836114, 22144.00734233944, 26944.446795516826, -6485.917447318727, 30751.23944893354, 31253.058463699635, -187500.02235174447, 49212.95335447232, 13144.323306599059, -18440.233879117237, -7617.005123735085, 9185.047052508242, 12063.527055207142, -187500.02235174447, 14076.636919574372, -56776.940140359424, 0.17809375, 0.9875625, 0.1075078125, 192.0, 0.0, 0.0, 0.0, 0.0, 0.0, 0.0, 0.0, 0.0, 0.0, 1.6959356731555388E9, 0.0, 2023-09-28 16:14:33.155
44.0, 9959.669108351363, 22159.452397758057, 26787.29168025156, -6382.942960613127, 30784.856472594318, 31319.510199965265, -187500.02235174447, 49044.33179430149, 13216.653551656433, -18400.581884453524, -7583.790431474499, 9187.639854865058, 12046.830302099026, -187500.02235174447, 13770.306261814389, -57097.86648724872, 0.17809375, 0.9875625, 0.1075078125, 192.0, 0.0, 0.0, 0.0, 0.0, 0.0, 0.0, 0.0, 0.0, 0.0, 1.6959356731555665E9, 0.0, 2023-09-28 16:14:33.155
46.0, 9944.089942466015, 22139.00055158145, 27007.568121858614, -6466.717298831618, 30739.683597050145, 31287.010763527247, -187500.02235174447, 49279.06981457112, 13127.827719191042, -18417.479803261736, -7620.447292381203, 9195.306503213227, 12052.261776001666, -187500.02235174447, 14063.158817667821, -56801.08002437116, 0.17809375, 0.9875625, 0.1075078125, 192.0, 0.0, 0.0, 0.0, 0.0, 0.0, 0.0, 0.0, 0.0, 0.0, 1.695935673155578E9, 0.0, 2023-09-28 16:14:33.155
48.0, 9976.231750992745, 22167.6331362287, 26744.48808961965, -6405.540574257443, 30774.70878061161, 31295.81735084264, -187500.02235174447, 49016.95090734374, 13201.007330537717, -18398.324358263537, -7581.7787744735215, 9184.734128085867, 12089.566837497574, -187500.02235174447, 13830.54421312144, -57034.52164346238, 0.183046875, 0.98878125, 0.10575390625, 192.0, 2.5, 112.0, 15.0, 120.0, 1.5, 32.0, 0.0, 0.0, 0.0, 1.6959356731555886E9, 0.0, 2023-09-28 16:14:33.155
50.0, 9973.616596891476, 22158.647734957663, 27032.44561343737, -6437.995307206548, 30746.56793434238, 31319.644310431995, -187500.02235174447, 49283.294294273175, 13146.64788802241, -18401.543009465102, -7601.135385171818, 9213.545526688758, 12075.90992163538, -187500.02235174447, 14036.716703977192, -56837.28985038875, 0.183046875, 0.98878125, 0.10575390625, 192.0, 0.0, 0.0, 0.0, 0.0, 0.0, 0.0, 0.0, 0.0, 0.0, 1.695935673155599E9, 0.0, 2023-09-28 16:14:33.155
52.0, 10002.74091991674, 22199.618482544243, 26700.678670487247, -6417.342295329845, 30782.24131849305, 31280.32759193511, -187500.02235174447, 48970.97336899917, 13217.793490623653, -18385.986195324207, -7577.151963371273, 9190.38911943306, 12060.554273194584, -187500.02235174447, 13836.512128891007, -57038.969640608986, 0.183046875, 0.98878125, 0.10575390625, 192.0, 0.0, 0.0, 0.0, 0.0, 0.0, 0.0, 0.0, 0.0, 0.0, 1.6959356731556096E9, 0.0, 2023-09-28 16:14:33.155
54.0, 9972.253140479701, 22142.733292905486, 27083.854625684577, -6417.923440685683, 30737.582533071345, 31342.979531643337, -187500.02235174447, 49332.66929777495, 13150.045353179617, -18393.742250650197, -7603.862297995365, 9216.026570323298, 12045.980935809725, -187500.02235174447, 13997.91407560278, -56890.21878125892, 0.183046875, 0.98878125, 0.10575390625, 192.0, 0.0, 0.0, 0.0, 0.0, 0.0, 0.0, 0.0, 0.0, 0.0, 1.69593567315562E9, 0.0, 2023-09-28 16:14:33.155
56.0, 9995.4095477354, 22191.169523140135, 26675.33179227493, -6436.296574627945, 30797.507559956022, 31258.735806791286, -187500.02235174447, 48966.88299976385, 13203.689539872354, -18416.764547439165, -7592.7534810010775, 9175.726375070379, 12066.633947686429, -187500.02235174447, 13896.41480403123, -56970.88622699812, 0.183046875, 0.98878125, 0.10575390625, 192.0, 0.0, 0.0, 0.0, 0.0, 0.0, 0.0, 0.0, 0.0, 0.0, 1.6959356731556325E9, 0.0, 2023-09-28 16:14:33.155
58.0, 9955.73520132723, 22151.830452898797, 27104.909968961474, -6389.402614760711, 30752.155870456205, 31368.169947644466, -187500.02235174447, 49357.5020858648, 13161.288280640636, -18375.79379985259, -7589.154850143773, 9227.515366973324, 12101.994407414724, -187500.02235174447, 13959.267909439553, -56932.50828176836, 0.1825234375, 0.992390625, 0.104876953125, 192.0, 2.5, 88.0, 15.5, 16.0, 1.5, 32.0, 0.0, 0.0, 0.0, 1.6959356731556432E9, 0.0, 2023-09-28 16:14:33.155
60.0, 9992.794393634129, 22184.620462014733, 26666.391094492807, -6472.059365756437, 30767.46681540809, 31225.543466275154, -187500.02235174447, 48969.341691653935, 13194.301807201125, -18399.35253850848, -7592.015873434052, 9174.42997389197, 12059.704906905283, -187500.02235174447, 13937.229089406621, -56932.620040490634, 0.1825234375, 0.992390625, 0.104876953125, 192.0, 0.0, 0.0, 0.0, 0.0, 0.0, 0.0, 0.0, 0.0, 0.0, 1.6959356731556537E9, 0.0, 2023-09-28 16:14:33.155
62.0, 9961.770172330162, 22142.24155452747, 27109.760297508277, -6380.193696045125, 30752.178222200662, 31375.791892503727, -187500.02235174447, 49361.27953067774, 13159.298975384114, -18389.78599188161, -7595.681559524723, 9216.093625556663, 12074.077078590046, -187500.02235174447, 13930.456510836662, -56961.163218160065, 0.1825234375, 0.992390625, 0.104876953125, 192.0, 0.0, 0.0, 0.0, 0.0, 0.0, 0.0, 0.0, 0.0, 0.0, 1.6959356731556644E9, 0.0, 2023-09-28 16:14:33.155
64.0, 10007.144213574436, 22207.15102042568, 26663.03833282451, -6478.608426881841, 30787.538681928956, 31218.45796328282, -187500.02235174447, 48961.94326423923, 13182.455382639811, -18409.187306068816, -7594.608675790868, 9178.63210184957, 12053.222901013245, -187500.02235174447, 13980.680880627739, -56879.288778220274, 0.1825234375, 0.992390625, 0.104876953125, 192.0, 0.0, 0.0, 0.0, 0.0, 0.0, 0.0, 0.0, 0.0, 0.0, 1.6959356731556768E9, 0.0, 2023-09-28 16:14:33.155
66.0, 9953.455323392787, 22140.229897526493, 27097.109210146573, -6362.200541758602, 30755.888611780243, 31393.226253178866, -187500.02235174447, 49341.02885020123, 13165.959795231796, -18378.341898720493, -7589.892457710798, 9230.085817585685, 12042.628174141428, -187500.02235174447, 13877.885207877782, -57013.89098333013, 0.1825234375, 0.992390625, 0.104876953125, 192.0, 0.0, 0.0, 0.0, 0.0, 0.0, 0.0, 0.0, 0.0, 0.0, 1.6959356731556876E9, 0.0, 2023-09-28 16:14:33.155
68.0, 9992.88380061195, 22194.790505741898, 26675.823530652946, -6485.3810054518, 30773.211213733106, 31209.249044567234, -187500.02235174447, 48976.71776732418, 13185.450516396824, -18406.035710100616, -7602.36473111686, 9181.560180373213, 12041.845863085493, -187500.02235174447, 14021.875145658869, -56837.267498644294, 0.18026171875, 0.9911953124999999, 0.1054384765625, 192.0, 2.5, 72.0, 15.0, 120.0, 1.5, 40.0, 0.0, 0.0, 0.0, 1.6959356731556997E9, 0.0, 2023-09-28 16:14:33.155
70.0, 9961.390192674422, 22151.897508132162, 27077.149102347983, -6341.547529881898, 30752.491146623033, 31400.132942215558, -187500.02235174447, 49313.26798358774, 13188.490353642745, -18369.20003523827, -7572.391041802292, 9230.465797241426, 12090.952645653802, -187500.02235174447, 13837.182681224667, -57059.868521674696, 0.18026171875, 0.9911953124999999, 0.1054384765625, 192.0, 0.0, 0.0, 0.0, 0.0, 0.0, 0.0, 0.0, 0.0, 0.0, 1.6959356731557105E9, 0.0, 2023-09-28 16:14:33.155
72.0, 9994.046091323626, 22190.186046384104, 26722.873952731366, -6498.635589913797, 30766.684504352153, 31215.641643481453, -187500.02235174447, 49020.504834712134, 13178.141495959939, -18415.155221838384, -7599.637818293312, 9177.089831482153, 12063.728220907238, -187500.02235174447, 14060.275442633087, -56800.45417552641, 0.18026171875, 0.9911953124999999, 0.1054384765625, 192.0, 0.0, 0.0, 0.0, 0.0, 0.0, 0.0, 0.0, 0.0, 0.0, 1.6959356731557212E9, 0.0, 2023-09-28 16:14:33.155
74.0, 9970.375593945455, 22153.14920582166, 27039.48641294079, -6348.297756707401, 30761.342437427338, 31397.562491603196, -187500.02235174447, 49285.66357918544, 13190.27849319917, -18383.326337734026, -7575.341472070393, 9217.881765113088, 12064.1976075408, -187500.02235174447, 13830.097178232334, -57064.137704865665, 0.18026171875, 0.9911953124999999, 0.1054384765625, 192.0, 0.0, 0.0, 0.0, 0.0, 0.0, 0.0, 0.0, 0.0, 0.0, 1.695935673155732E9, 0.0, 2023-09-28 16:14:33.155
76.0, 9996.638893680441, 22189.49314230599, 26770.01378178761, -6507.598639440374, 30766.818614818887, 31208.60084397803, -187500.02235174447, 49070.12570740291, 13154.336888115036, -18412.584771226022, -7608.198536419694, 9177.58156986017, 12003.154993433356, -187500.02235174447, 14102.45318442025, -56750.56508190216, 0.18026171875, 0.9911953124999999, 0.1054384765625, 192.0, 0.0, 0.0, 0.0, 0.0, 0.0, 0.0, 0.0, 0.0, 0.0, 1.6959356731557431E9, 0.0, 2023-09-28 16:14:33.155
78.0, 9984.54659993012, 22160.65939195864, 27002.829552034087, -6336.8983670351945, 30781.838987092855, 31394.254433423812, -187500.02235174447, 49239.61898560751, 13213.390196965956, -18356.928927532306, -7545.144265311274, 9233.68444844299, 12105.883610949948, -187500.02235174447, 13804.415023853187, -57080.11920215121, 0.179130859375, 0.99459765625, 0.10571923828124999, 192.0, 2.5, 72.0, 15.5, 24.0, 1.5, 40.0, 0.0, 0.0, 0.0, 1.695935673155754E9, 0.0, 2023-09-28 16:14:33.155
80.0, 9996.415376235887, 22188.174389383126, 26820.193448089773, -6496.892153846283, 30772.13832999925, 31224.80585870813, -187500.02235174447, 49104.63680084191, 13172.687670312844, -18401.677119931832, -7590.272437366538, 9195.10533751313, 12050.674802145339, -187500.02235174447, 14111.907972324845, -56743.81485507666, 0.179130859375, 0.99459765625, 0.10571923828124999, 192.0, 0.0, 0.0, 0.0, 0.0, 0.0, 0.0, 0.0, 0.0, 0.0, 1.6959356731557665E9, 0.0, 2023-09-28 16:14:33.155
82.0, 9979.78567836114, 22145.370798751213, 26953.09692062103, -6345.235567717024, 30772.250088721525, 31375.702485525908, -187500.02235174447, 49202.98447644526, 13208.115185274504, -18375.503227174668, -7557.527131739514, 9227.53771871778, 12087.063442118579, -187500.02235174447, 13790.176962635156, -57096.145402925664, 0.179130859375, 0.99459765625, 0.10571923828124999, 192.0, 0.0, 0.0, 0.0, 0.0, 0.0, 0.0, 0.0, 0.0, 0.0, 1.6959356731557772E9, 0.0, 2023-09-28 16:14:33.155
84.0, 10013.469757255287, 22178.697249734076, 26866.6403730679, -6496.378063723811, 30766.058655507408, 31237.61340828102, -187500.02235174447, 49156.73871716723, 13159.03075445065, -18417.815079428565, -7605.3151613849595, 9197.362863703116, 12044.773941609137, -187500.02235174447, 14123.9332108418, -56730.582622359114, 0.179130859375, 0.99459765625, 0.10571923828124999, 192.0, 0.0, 0.0, 0.0, 0.0, 0.0, 0.0, 0.0, 0.0, 0.0, 1.695935673155788E9, 0.0, 2023-09-28 16:14:33.155
86.0, 9982.82551560706, 22164.168615838127, 26880.297288930095, -6359.943015568616, 30771.534832898957, 31365.3536278431, -187500.02235174447, 49138.499693691694, 13214.530135933177, -18381.649956899877, -7573.553332513969, 9210.125709787097, 12064.510531963175, -187500.02235174447, 13783.046756153914, -57090.17748715609, 0.179130859375, 0.99459765625, 0.10571923828124999, 192.0, 0.0, 0.0, 0.0, 0.0, 0.0, 0.0, 0.0, 0.0, 0.0, 1.695935673155799E9, 0.0, 2023-09-28 16:14:33.155
88.0, 10007.390082763444, 22174.04808688737, 26907.879341587945, -6481.670615872218, 30753.787547801443, 31265.217812683324, -187500.02235174447, 49186.84651694853, 13155.968565460273, -18406.84037290101, -7613.182975433228, 9201.96732306091, 12036.637906627406, -187500.02235174447, 14096.753489584147, -56761.53978842971, 0.1785654296875, 0.996298828125, 0.103859619140625, 192.0, 2.5, 72.0, 15.5, 24.0, 1.5, 24.0, 0.0, 0.0, 0.0, 1.6959356731558137E9, 0.0, 2023-09-28 16:14:33.155
0.0, 5040.519540371841, 11091.852020246031, 13294.012939216249, -3269.2108475221216, 15386.560903377642, 15664.571900912752, -93750.01117587223, 24266.70780977104, 6611.467195924187, -9182.275436195783, -3782.3174932381507, 4614.048256164581, 6059.356756133647, -93750.01117587223, 6852.128428474478, -28596.598338675303, 0.18328271484375, 0.9951494140625, 0.1049298095703125, 192.0, 2.5, 112.0, 15.5, 8.0, 1.5, 40.0, 0.0, 0.0, 0.0, 1.6959356737494242E9, 0.0, 2023-09-28 16:14:33.749
2.0, 10015.45906251181, 22135.558382935335, 27051.556354946657, -6495.126366034314, 30728.127745166752, 31445.55168694874, -187500.02235174447, 48948.30870012149, 13133.21448960477, -18365.266128214138, -7553.995556115575, 9250.87293992912, 12080.357918781987, -187500.02235174447, 13901.063966877935, -56523.65017219188, 0.18328271484375, 0.9951494140625, 0.1049298095703125, 192.0, 0.0, 0.0, 0.0, 0.0, 0.0, 0.0, 0.0, 0.0, 0.0, 1.695935673749522E9, 0.0, 2023-09-28 16:14:33.749
4.0, 10058.46381884382, 22163.542766993378, 26649.694341384693, -6623.447730952231, 30729.245332389517, 31268.414112140432, -187500.02235174447, 48605.79056808836, 13142.579870531545, -18410.617817713955, -7575.363823814849, 9192.19961073394, 12064.778752896638, -187500.02235174447, 14024.803224182515, -56370.071336039466, 0.18328271484375, 0.9951494140625, 0.1049298095703125, 192.0, 0.0, 0.0, 0.0, 0.0, 0.0, 0.0, 0.0, 0.0, 0.0, 1.6959356737495508E9, 0.0, 2023-09-28 16:14:33.749
6.0, 10045.253937870733, 22129.456356699033, 27050.461119468346, -6485.403357196255, 30717.912997950676, 31452.458375985432, -187500.02235174447, 48951.25913038959, 13132.40982680438, -18371.05523002806, -7555.44841950517, 9243.58627123669, 12086.459945018285, -187500.02235174447, 13884.210751558632, -56536.323611298045, 0.18328271484375, 0.9951494140625, 0.1049298095703125, 192.0, 0.0, 0.0, 0.0, 0.0, 0.0, 0.0, 0.0, 0.0, 0.0, 1.695935673749577E9, 0.0, 2023-09-28 16:14:33.749
8.0, 10093.734871594295, 22185.15690388166, 26667.821606137946, -6624.095931541435, 30741.047053461916, 31266.022475483715, -187500.02235174447, 48627.24824276546, 13146.334963600037, -18410.707224691778, -7567.652471977767, 9199.843907337656, 12057.335621993021, -187500.02235174447, 14070.221968915697, -56315.756597013074, 0.188, 0.996, 0.11, 192.0, 2.5, 112.0, 15.5, 16.0, 1.5, 56.0, 0.0, 0.0, 0.0, 1.6959356737496035E9, 0.0, 2023-09-28 16:14:33.749
10.0, 10025.137367860958, 22120.113327516716, 27032.423261692915, -6480.150697249258, 30715.476657805048, 31452.659541685527, -187500.02235174447, 48937.378697082844, 13144.055085665595, -18369.758828849655, -7552.788561914988, 9246.40259103806, 12090.326796809053, -187500.02235174447, 13862.440152459163, -56557.75893423068, 0.188, 0.996, 0.11, 192.0, 0.0, 0.0, 0.0, 0.0, 0.0, 0.0, 0.0, 0.0, 0.0, 1.6959356737496295E9, 0.0, 2023-09-28 16:14:33.749
12.0, 10049.925452461894, 22164.079208860305, 26708.099449646408, -6637.775199148083, 30732.352224868802, 31267.14006270648, -187500.02235174447, 48672.085842142806, 13126.844242435009, -18410.12607933594, -7581.398794817781, 9201.34147421616, 12075.015851857168, -187500.02235174447, 14120.625152662416, -56254.53516894999, 0.188, 0.996, 0.11, 192.0, 0.0, 0.0, 0.0, 0.0, 0.0, 0.0, 0.0, 0.0, 0.0, 1.6959356737496555E9, 0.0, 2023-09-28 16:14:33.749
14.0, 10034.212176109813, 22136.295990502356, 26966.083284149565, -6478.13904024828, 30747.640818076234, 31452.74894866335, -187500.02235174447, 48875.39730970828, 13162.383516118947, -18361.15340723436, -7542.082076320896, 9245.396762537572, 12087.711642707784, -187500.02235174447, 13840.133111492767, -56565.4479343233, 0.188, 0.996, 0.11, 192.0, 0.0, 0.0, 0.0, 0.0, 0.0, 0.0, 0.0, 0.0, 0.0, 1.6959356737496767E9, 0.0, 2023-09-28 16:14:33.749
16.0, 10066.957481736838, 22174.539825265387, 26735.234467415154, -6633.774236890583, 30746.478527364558, 31279.880557046006, -187500.02235174447, 48698.7961767669, 13126.97835290174, -18394.815134384055, -7569.530018512013, 9210.416282465016, 12050.898319589893, -187500.02235174447, 14117.384149716396, -56256.09979106186, 0.188, 0.996, 0.11, 192.0, 0.0, 0.0, 0.0, 0.0, 0.0, 0.0, 0.0, 0.0, 0.0, 1.6959356737496998E9, 0.0, 2023-09-28 16:14:33.749
18.0, 10024.288001571656, 22122.437908940068, 26929.985216854242, -6475.590941380375, 30742.8575447628, 31446.378701493588, -187500.02235174447, 48852.017385008025, 13160.148341673415, -18365.042610769586, -7539.332811752894, 9234.176186821007, 12104.386044071442, -187500.02235174447, 13813.311018146398, -56588.06789971208, 0.188, 0.992, 0.10200000000000001, 192.0, 2.5, 112.0, 15.5, 0.0, 1.5, 24.0, 0.0, 0.0, 0.0, 1.695935673749725E9, 0.0, 2023-09-28 16:14:33.749
20.0, 10082.268426688723, 22177.512607277946, 26789.39274423036, -6619.625582650374, 30744.84685001932, 31301.204121256367, -187500.02235174447, 48753.40148847121, 13112.136794583415, -18412.54006773711, -7574.313291825449, 9218.462910468927, 12073.071250089557, -187500.02235174447, 14129.834071378002, -56238.79954085345, 0.188, 0.992, 0.10200000000000001, 192.0, 0.0, 0.0, 0.0, 0.0, 0.0, 0.0, 0.0, 0.0, 0.0, 1.695935673749751E9, 0.0, 2023-09-28 16:14:33.749
22.0, 10058.41911535491, 22147.58362145229, 26867.959125990765, -6482.519982161521, 30750.010102988497, 31434.55462867673, -187500.02235174447, 48793.14289011275, 13167.703231299309, -18358.53825313309, -7540.517454209024, 9239.384143279094, 12097.188782356834, -187500.02235174447, 13799.54234356193, -56601.0095597517, 0.188, 0.992, 0.10200000000000001, 192.0, 0.0, 0.0, 0.0, 0.0, 0.0, 0.0, 0.0, 0.0, 0.0, 1.6959356737497764E9, 0.0, 2023-09-28 16:14:33.749
24.0, 10042.392914580454, 22146.555441207343, 26868.607326579968, -6625.817015864493, 30715.45430606059, 31311.061240561157, -187500.02235174447, 48827.45281785164, 13106.057120091573, -18404.31462577756, -7584.483335552613, 9217.099454057152, 12049.892491089404, -187500.02235174447, 14132.650391179372, -56244.029849055994, 0.188, 0.992, 0.10200000000000001, 192.0, 0.0, 0.0, 0.0, 0.0, 0.0, 0.0, 0.0, 0.0, 0.0, 1.6959356737497993E9, 0.0, 2023-09-28 16:14:33.749
26.0, 10034.703914487829, 22140.14049054867, 26813.666738708824, -6508.604467940863, 30758.973152515075, 31399.082410226158, -187500.02235174447, 48751.41218321469, 13154.627460792955, -18383.996890067683, -7558.421201517725, 9213.634933666579, 12057.983822582224, -187500.02235174447, 13854.192358755156, -56534.55782348607, 0.188, 0.992, 0.10200000000000001, 192.0, 0.0, 0.0, 0.0, 0.0, 0.0, 0.0, 0.0, 0.0, 0.0, 1.6959356737498257E9, 0.0, 2023-09-28 16:14:33.749
28.0, 10044.158702392424, 22157.95483087955, 26904.191303752817, -6606.840384821938, 30732.57574231336, 31328.093269836103, -187500.02235174447, 48854.29726294247, 13105.051291591084, -18390.30008200408, -7575.587341259402, 9229.795244907767, 12074.926444879347, -187500.02235174447, 14132.583335946005, -56242.30876473293, 0.19, 0.99, 0.10200000000000001, 192.0, 2.5, 120.0, 15.0, 120.0, 1.5, 24.0, 0.0, 0.0, 0.0, 1.6959356737498507E9, 0.0, 2023-09-28 16:14:33.749
30.0, 10044.784551237173, 22161.598165225765, 26761.83304331697, -6520.607354713364, 30747.193783187126, 31376.082465181647, -187500.02235174447, 48701.05370295688, 13172.7100220573, -18386.00854706866, -7543.400829243759, 9213.34436098866, 12092.293750321121, -187500.02235174447, 13854.192358755156, -56531.7415036847, 0.19, 0.99, 0.10200000000000001, 192.0, 0.0, 0.0, 0.0, 0.0, 0.0, 0.0, 0.0, 0.0, 0.0, 1.695935673749879E9, 0.0, 2023-09-28 16:14:33.749
32.0, 10081.37435691051, 22151.71869417652, 26951.5099467647, -6594.9939602606255, 30730.541733567923, 31353.037816648226, -187500.02235174447, 48891.8928971163, 13101.273846778136, -18394.971596595242, -7586.316178597949, 9227.269497784317, 12043.075209030534, -187500.02235174447, 14131.912783612346, -56243.29224148897, 0.19, 0.99, 0.10200000000000001, 192.0, 0.0, 0.0, 0.0, 0.0, 0.0, 0.0, 0.0, 0.0, 0.0, 1.6959356737499025E9, 0.0, 2023-09-28 16:14:33.749
34.0, 10059.983737466782, 22167.566080995333, 26687.66995521426, -6539.405171800277, 30755.93331526915, 31359.653933006997, -187500.02235174447, 48625.01306831993, 13182.388327406446, -18380.644128399388, -7550.9557188696535, 9210.81861386521, 12084.135363594934, -187500.02235174447, 13866.485818205574, -56511.490823208194, 0.19, 0.99, 0.10200000000000001, 192.0, 0.0, 0.0, 0.0, 0.0, 0.0, 0.0, 0.0, 0.0, 0.0, 1.6959356737499232E9, 0.0, 2023-09-28 16:14:33.749
36.0, 10062.353022379044, 22156.077284345305, 26974.688705764856, -6566.026099446547, 30727.61365504428, 31385.805474019704, -187500.02235174447, 48887.82487962543, 13114.617838217955, -18389.338956992502, -7576.615521504345, 9234.131483332096, 12069.942005865814, -187500.02235174447, 14066.086896191466, -56314.639009790306, 0.19, 0.99, 0.10200000000000001, 192.0, 0.0, 0.0, 0.0, 0.0, 0.0, 0.0, 0.0, 0.0, 0.0, 1.695935673749948E9, 0.0, 2023-09-28 16:14:33.749
38.0, 10056.832141498584, 22181.312403835345, 26640.708940113658, -6543.0485061464915, 30765.43280666266, 31338.24096181881, -187500.02235174447, 48560.79650649983, 13179.303786671613, -18367.6354131264, -7531.39794247126, 9221.234526781383, 12105.660093505394, -187500.02235174447, 13856.65105064524, -56527.18174781582, 0.186, 0.992, 0.1, 192.0, 2.5, 104.0, 15.5, 0.0, 1.5, 16.0, 0.0, 0.0, 0.0, 1.6959356737499735E9, 0.0, 2023-09-28 16:14:33.749
40.0, 10035.665039499407, 22129.724577632496, 27032.512668670737, -6546.893006192805, 30718.851771217796, 31400.378811404564, -187500.02235174447, 48927.61098475588, 13107.286466036614, -18385.181532523817, -7562.489219008591, 9237.104265344651, 12053.245252757699, -187500.02235174447, 14014.186145566244, -56383.16945829028, 0.186, 0.992, 0.1, 192.0, 0.0, 0.0, 0.0, 0.0, 0.0, 0.0, 0.0, 0.0, 0.0, 1.695935673749994E9, 0.0, 2023-09-28 16:14:33.749
42.0, 10039.17426337889, 22171.4329327861, 26633.042291765487, -6577.358433885388, 30753.407568145703, 31299.68420263341, -187500.02235174447, 48561.958797211504, 13155.946213715819, -18396.200942540283, -7554.956681127153, 9195.261799724318, 12078.078040847546, -187500.02235174447, 13916.643132763284, -56457.71252604873, 0.186, 0.992, 0.1, 192.0, 0.0, 0.0, 0.0, 0.0, 0.0, 0.0, 0.0, 0.0, 0.0, 1.6959356737500188E9, 0.0, 2023-09-28 16:14:33.750
44.0, 10013.603867722019, 22128.070548542804, 27051.556354946657, -6529.637459473308, 30727.345434110815, 31418.997814535836, -187500.02235174447, 48946.85583673189, 13106.817079403054, -18383.77337262313, -7563.182123086706, 9238.7806461788, 12070.746668666205, -187500.02235174447, 13986.090002785922, -56408.650446969325, 0.186, 0.992, 0.1, 192.0, 0.0, 0.0, 0.0, 0.0, 0.0, 0.0, 0.0, 0.0, 0.0, 1.6959356737500448E9, 0.0, 2023-09-28 16:14:33.750
46.0, 10071.740755050274, 22171.00824964145, 26613.193942689177, -6604.158175487301, 30747.909039009697, 31271.699818575362, -187500.02235174447, 48557.55550355381, 13138.64596350741, -18408.717919435254, -7574.514457525547, 9186.05288100873, 12054.407543469375, -187500.02235174447, 13974.467095669163, -56392.19956305022, 0.186, 0.992, 0.1, 192.0, 0.0, 0.0, 0.0, 0.0, 0.0, 0.0, 0.0, 0.0, 0.0, 1.69593567375007E9, 0.0, 2023-09-28 16:14:33.750
48.0, 10050.886577473471, 22127.064720042315, 27057.479567227314, -6514.952363366171, 30724.864390476276, 31423.289349471255, -187500.02235174447, 48951.79557225652, 13114.081396351028, -18385.919140090842, -7565.7525736990665, 9235.763160677334, 12065.449305230297, -187500.02235174447, 13959.62553735084, -56429.52697629059, 0.182, 0.994, 0.1, 192.0, 2.5, 88.0, 15.5, 8.0, 1.5, 16.0, 0.0, 0.0, 0.0, 1.695935673750096E9, 0.0, 2023-09-28 16:14:33.750
50.0, 10073.841819029072, 22179.166636367638, 26613.17159094472, -6610.461367423698, 30762.12474848327, 31262.401492881956, -187500.02235174447, 48553.64394827413, 13146.446722322313, -18410.72957643623, -7567.250140577572, 9191.39494793355, 12052.060610301569, -187500.02235174447, 14016.44367175623, -56336.25314667859, 0.182, 0.994, 0.1, 192.0, 0.0, 0.0, 0.0, 0.0, 0.0, 0.0, 0.0, 0.0, 0.0, 1.6959356737501214E9, 0.0, 2023-09-28 16:14:33.750
52.0, 10031.887594686461, 22129.702225888042, 27030.232790736296, -6483.190534495179, 30727.099564921806, 31439.85199211264, -187500.02235174447, 48904.90161238928, 13140.858786208486, -18350.44692164027, -7550.911015380742, 9253.26457658584, 12068.310328520576, -187500.02235174447, 13894.604312730351, -56496.71632012324, 0.182, 0.994, 0.1, 192.0, 0.0, 0.0, 0.0, 0.0, 0.0, 0.0, 0.0, 0.0, 0.0, 1.6959356737501416E9, 0.0, 2023-09-28 16:14:33.750
54.0, 10049.590176295063, 22196.15396215367, 26639.07726276842, -6619.245602994633, 30746.36676864228, 31256.813556768127, -187500.02235174447, 48571.86062000521, 13134.846166950008, -18400.090146075505, -7570.692309223689, 9192.937218300965, 12058.184988282323, -187500.02235174447, 14041.72349473518, -56318.63997204781, 0.182, 0.994, 0.1, 192.0, 0.0, 0.0, 0.0, 0.0, 0.0, 0.0, 0.0, 0.0, 0.0, 1.6959356737501647E9, 0.0, 2023-09-28 16:14:33.750
56.0, 10042.169397135902, 22143.448548728054, 27027.77409884621, -6470.092412244369, 30741.78466102894, 31455.721730675905, -187500.02235174447, 48901.30298153198, 13140.545861786111, -18357.44301765478, -7546.530073467502, 9248.146027105573, 12110.35395984101, -187500.02235174447, 13863.93771933767, -56534.6919339528, 0.182, 0.994, 0.1, 192.0, 0.0, 0.0, 0.0, 0.0, 0.0, 0.0, 0.0, 0.0, 0.0, 1.6959356737501893E9, 0.0, 2023-09-28 16:14:33.750
58.0, 10077.060470230635, 22177.624366000222, 26679.779789421536, -6624.45355945272, 30737.761347026986, 31260.36748413652, -187500.02235174447, 48611.66907688011, 13136.455492550791, -18399.039614086105, -7581.063518650952, 9199.352168959638, 12065.53871220812, -187500.02235174447, 14080.704937065237, -56280.84317217388, 0.182, 0.998, 0.1, 192.0, 2.5, 88.0, 15.5, 24.0, 1.5, 16.0, 0.0, 0.0, 0.0, 1.695935673750214E9, 0.0, 2023-09-28 16:14:33.750
60.0, 10031.418208052899, 22139.29112425937, 27002.315461911618, -6478.317854203922, 30725.333777109838, 31447.31747476071, -187500.02235174447, 48882.61692316734, 13141.261117608681, -18369.691773616287, -7555.806047416455, 9230.309335030239, 12068.645604687406, -187500.02235174447, 13852.806550598927, -56540.592794489006, 0.182, 0.998, 0.1, 192.0, 0.0, 0.0, 0.0, 0.0, 0.0, 0.0, 0.0, 0.0, 0.0, 1.695935673750236E9, 0.0, 2023-09-28 16:14:33.750
62.0, 10060.207254911335, 22175.76917121043, 26715.676691016757, -6633.573071190485, 30735.74969002601, 31263.51908010472, -187500.02235174447, 48651.589292477285, 13119.31170455357, -18398.480820474724, -7581.6893674957, 9198.480450925881, 12023.025694254124, -187500.02235174447, 14123.486175952696, -56225.924936047195, 0.182, 0.998, 0.1, 192.0, 0.0, 0.0, 0.0, 0.0, 0.0, 0.0, 0.0, 0.0, 0.0, 1.6959356737502613E9, 0.0, 2023-09-28 16:14:33.750
64.0, 10035.12859763248, 22143.113272561226, 26943.53037399416, -6477.110860003336, 30743.729262796554, 31441.975407835893, -187500.02235174447, 48819.294431125454, 13147.810178734086, -18364.036782269097, -7537.857596618843, 9238.691239200978, 12081.184933326833, -187500.02235174447, 13829.694846832139, -56554.18265511783, 0.182, 0.998, 0.1, 192.0, 0.0, 0.0, 0.0, 0.0, 0.0, 0.0, 0.0, 0.0, 0.0, 1.6959356737502868E9, 0.0, 2023-09-28 16:14:33.750
66.0, 10069.259711415734, 22175.657412488155, 26759.57551712698, -6635.920004358292, 30731.07817543485, 31273.19738545387, -187500.02235174447, 48671.34823457578, 13131.98514365973, -18392.803477383077, -7567.11603011084, 9208.695198141957, 12068.243273287211, -187500.02235174447, 14112.93615256979, -56240.34181122087, 0.182, 0.998, 0.1, 192.0, 0.0, 0.0, 0.0, 0.0, 0.0, 0.0, 0.0, 0.0, 0.0, 1.6959356737503123E9, 0.0, 2023-09-28 16:14:33.750
68.0, 10025.204423094323, 22134.75372013494, 26878.956184262777, -6486.766813608028, 30735.03443420344, 31424.675157627484, -187500.02235174447, 48745.84659884532, 13172.285338912647, -18375.79379985259, -7536.717657651622, 9227.87299488461, 12106.800032472614, -187500.02235174447, 13786.82420096686, -56603.356492919505, 0.184, 0.99, 0.096, 192.0, 2.5, 96.0, 15.0, 120.0, 1.5, 0.0, 0.0, 0.0, 0.0, 1.6959356737503405E9, 0.0, 2023-09-28 16:14:33.750
70.0, 10048.852568728038, 22135.826603868798, 26811.073936352008, -6637.708143914717, 30710.13459088023, 31281.62399311352, -187500.02235174447, 48719.046857243404, 13104.134870068416, -18433.528355780647, -7593.245219379094, 9185.315273441705, 12036.369685693942, -187500.02235174447, 14104.442489676774, -56259.4302009857, 0.184, 0.99, 0.096, 192.0, 0.0, 0.0, 0.0, 0.0, 0.0, 0.0, 0.0, 0.0, 0.0, 1.6959356737503605E9, 0.0, 2023-09-28 16:14:33.750
72.0, 10049.053734428137, 22124.829545596785, 26823.233285335697, -6493.137060777791, 30753.407568145703, 31404.133904473056, -187500.02235174447, 48698.68441804462, 13175.548693603123, -18384.309814490058, -7544.160788555239, 9210.617448165112, 12106.06242490559, -187500.02235174447, 13790.512238801986, -56597.43328063885, 0.184, 0.99, 0.096, 192.0, 0.0, 0.0, 0.0, 0.0, 0.0, 0.0, 0.0, 0.0, 0.0, 1.6959356737503817E9, 0.0, 2023-09-28 16:14:33.750
74.0, 10038.481359300777, 22124.29310372986, 26880.096123229996, -6614.685847125751, 30717.8012392284, 31311.307109750167, -187500.02235174447, 48784.09043360835, 13118.64115221991, -18411.69070144781, -7583.611617518857, 9208.024645808298, 12070.590206455017, -187500.02235174447, 14099.256884963143, -56275.94814013817, 0.184, 0.99, 0.096, 192.0, 0.0, 0.0, 0.0, 0.0, 0.0, 0.0, 0.0, 0.0, 0.0, 1.6959356737504065E9, 0.0, 2023-09-28 16:14:33.750
76.0, 10047.422057082898, 22133.09969104525, 26777.836892346968, -6518.774511668028, 30742.61167557379, 31374.45078783641, -187500.02235174447, 48672.19760086508, 13172.061821468094, -18405.298102533594, -7563.539750997991, 9191.439651422459, 12074.412354756876, -187500.02235174447, 13827.16909970869, -56558.16126563088, 0.184, 0.99, 0.096, 192.0, 0.0, 0.0, 0.0, 0.0, 0.0, 0.0, 0.0, 0.0, 0.0, 1.6959356737504313E9, 0.0, 2023-09-28 16:14:33.750
78.0, 10050.327783862089, 22133.636132912176, 26905.46535318677, -6611.243678479634, 30716.08015490534, 31322.30416802218, -187500.02235174447, 48809.884346709776, 13110.952152127285, -18432.32136158006, -7589.959512944164, 9198.636913137068, 12038.76132235066, -187500.02235174447, 14101.26854196412, -56270.293148790974, 0.184, 1.004, 0.094, 192.0, 2.5, 96.0, 15.5, 48.0, 1.0, 120.0, 0.0, 0.0, 0.0, 1.695935673750452E9, 0.0, 2023-09-28 16:14:33.750
80.0, 10060.497827589254, 22147.561269707832, 26698.51055127508, -6534.621898486841, 30751.28415242245, 31351.607305003086, -187500.02235174447, 48590.61373360321, 13182.36597566199, -18391.283558760115, -7546.418314745226, 9196.647607880546, 12069.182046554333, -187500.02235174447, 13810.025311711468, -56574.410983849884, 0.184, 1.004, 0.094, 192.0, 0.0, 0.0, 0.0, 0.0, 0.0, 0.0, 0.0, 0.0, 0.0, 1.6959356737504764E9, 0.0, 2023-09-28 16:14:33.750
82.0, 10040.694182001851, 22142.487423716477, 26958.684856734857, -6594.837498049438, 30711.922730436654, 31343.91830491046, -187500.02235174447, 48845.96006226064, 13102.391434000903, -18409.88021014693, -7591.077100166929, 9201.67675038299, 12038.560156650563, -187500.02235174447, 14060.16368391081, -56329.97230648665, 0.184, 1.004, 0.094, 192.0, 0.0, 0.0, 0.0, 0.0, 0.0, 0.0, 0.0, 0.0, 0.0, 1.6959356737505023E9, 0.0, 2023-09-28 16:14:33.750
84.0, 10056.116885676014, 22137.05594981384, 26661.451358968185, -6553.576177784941, 30746.56793434238, 31322.05829883317, -187500.02235174447, 48563.65752979011, 13175.772211047675, -18411.824811914543, -7564.411469031748, 9187.48339265387, 12088.940988652825, -187500.02235174447, 13854.818207599905, -56537.374143287445, 0.184, 1.004, 0.094, 192.0, 0.0, 0.0, 0.0, 0.0, 0.0, 0.0, 0.0, 0.0, 0.0, 1.695935673750528E9, 0.0, 2023-09-28 16:14:33.750
86.0, 10039.576594779086, 22103.215408708504, 27008.708060825833, -6575.369128628866, 30706.290090833914, 31366.851194721607, -187500.02235174447, 48889.68007441522, 13111.578000972033, -18417.16687883936, -7599.280190382027, 9210.237468509373, 12043.321078219544, -187500.02235174447, 14049.993640183646, -56346.780818317035, 0.184, 1.004, 0.094, 192.0, 0.0, 0.0, 0.0, 0.0, 0.0, 0.0, 0.0, 0.0, 0.0, 1.695935673750554E9, 0.0, 2023-09-28 16:14:33.750
88.0, 10048.852568728038, 22153.015095354927, 26637.311474956452, -6579.504201353097, 30738.767175527475, 31299.460685188853, -187500.02235174447, 48550.06766916128, 13167.077382454561, -18414.998759627197, -7570.647605734779, 9180.263779194805, 12066.544540708606, -187500.02235174447, 13911.681045494206, -56469.134267465386, 0.186, 1.006, 0.094, 192.0, 2.5, 104.0, 15.5, 56.0, 1.0, 120.0, 0.0, 0.0, 0.0, 1.6959356737505803E9, 0.0, 2023-09-28 16:14:33.750
90.0, 10023.706856215818, 22114.793612336354, 27042.16862227543, -6545.015459658559, 30701.149189609194, 31396.511959613796, -187500.02235174447, 48918.15619685128, 13116.808309174576, -18412.674178203844, -7579.565951772446, 9219.759311647334, 12064.465828474264, -187500.02235174447, 14028.245392828632, -56359.96834754567, 0.186, 1.006, 0.094, 192.0, 0.0, 0.0, 0.0, 0.0, 0.0, 0.0, 0.0, 0.0, 0.0, 1.6959356737506013E9, 0.0, 2023-09-28 16:14:33.750
92.0, 10080.033252243193, 22163.833339671295, 26614.669157823224, -6593.451689893209, 30723.344471853314, 31278.114769234035, -187500.02235174447, 48532.52154976387, 13159.790713762131, -18415.46814626076, -7570.871123179331, 9181.940160028955, 12052.462941701764, -187500.02235174447, 13970.71200260067, -56391.35019676092, 0.186, 1.006, 0.094, 192.0, 0.0, 0.0, 0.0, 0.0, 0.0, 0.0, 0.0, 0.0, 0.0, 1.695935673750625E9, 0.0, 2023-09-28 16:14:33.750
94.0, 10060.497827589254, 22130.082205543782, 27040.626351908013, -6516.651095944774, 30694.018983127953, 31417.70141335743, -187500.02235174447, 48900.87829838733, 13129.168823858361, -18376.844331841985, -7572.882780180309, 9238.713590945434, 12073.71945067876, -187500.02235174447, 13971.807238078982, -56408.35987429141, 0.186, 1.006, 0.094, 192.0, 0.0, 0.0, 0.0, 0.0, 0.0, 0.0, 0.0, 0.0, 0.0, 1.6959356737506554E9, 0.0, 2023-09-28 16:14:33.750
96.0, 10071.293720161168, 22169.3318688073, 26596.720707025615, -6621.59253616244, 30718.74001249552, 31257.126481190502, -187500.02235174447, 48506.01238083987, 13154.180425903849, -18405.253399044683, -7572.279283080016, 9182.409546662515, 12043.589299153007, -187500.02235174447, 13991.990863322124, -56357.66611786677, 0.186, 1.006, 0.094, 192.0, 0.0, 0.0, 0.0, 0.0, 0.0, 0.0, 0.0, 0.0, 0.0, 1.6959356737506788E9, 0.0, 2023-09-28 16:14:33.750
98.0, 10039.397780823443, 22108.736289588964, 27038.190011762385, -6503.485918460598, 30706.6477187452, 31423.199942493433, -187500.02235174447, 48889.05422557047, 13147.564309545078, -18387.48376220271, -7555.850750905365, 9230.44344549697, 12067.840941887014, -187500.02235174447, 13912.820984461427, -56466.07207847501, 0.19, 1.01, 0.094, 192.0, 2.5, 120.0, 15.5, 72.0, 1.0, 120.0, 0.0, 0.0, 0.0, 1.6959356737507012E9, 0.0, 2023-09-28 16:14:33.750
100.0, 10104.419005443931, 22157.507795990445, 26600.967538472123, -6624.45355945272, 30734.900323736707, 31249.549239820153, -187500.02235174447, 48510.97446810895, 13167.345603388025, -18419.916143407365, -7571.787544702, 9189.360939188116, 12047.076171288034, -187500.02235174447, 14017.67301770127, -56331.29105940951, 0.19, 1.01, 0.094, 192.0, 0.0, 0.0, 0.0, 0.0, 0.0, 0.0, 0.0, 0.0, 0.0, 1.6959356737507267E9, 0.0, 2023-09-28 16:14:33.750
102.0, 10023.03630388216, 22093.447696381536, 27017.87227605251, -6504.000008583071, 30710.089887391317, 31432.69943388694, -187500.02235174447, 48874.123260274326, 13138.221280362759, -18405.275750789137, -7571.362861557349, 9219.356980247137, 12062.990613340213, -187500.02235174447, 13865.614100171817, -56517.77166340013, 0.19, 1.01, 0.094, 192.0, 0.0, 0.0, 0.0, 0.0, 0.0, 0.0, 0.0, 0.0, 0.0, 1.6959356737507524E9, 0.0, 2023-09-28 16:14:33.750
104.0, 10047.198539638346, 22151.741045920975, 26630.51654464204, -6640.211539293711, 30728.306559122393, 31250.108033431537, -187500.02235174447, 48539.49529403392, 13145.038562421629, -18430.533222023634, -7582.292864595994, 9177.536866371258, 12058.140284793411, -187500.02235174447, 14051.31239310651, -56292.30961707945, 0.19, 1.01, 0.094, 192.0, 0.0, 0.0, 0.0, 0.0, 0.0, 0.0, 0.0, 0.0, 0.0, 1.695935673750778E9, 0.0, 2023-09-28 16:14:33.750
106.0, 10034.681562743373, 22106.65757735462, 26983.495293080246, -6491.393624710277, 30721.444573574612, 31438.399128723042, -187500.02235174447, 48827.05048645145, 13156.08032418255, -18399.665462930854, -7552.7215066816225, 9222.285058770784, 12101.145041125423, -187500.02235174447, 13821.469404872585, -56559.56942553156, 0.19, 1.01, 0.094, 192.0, 0.0, 0.0, 0.0, 0.0, 0.0, 0.0, 0.0, 0.0, 0.0, 1.695935673750805E9, 0.0, 2023-09-28 16:14:33.750
108.0, 10088.459859902843, 22159.2288803135, 26668.8944898718, -6642.513768972608, 30720.17052414066, 31251.270324143214, -187500.02235174447, 48567.72554728098, 13141.194062375316, -18426.30874232158, -7587.858448965365, 9181.493125139848, 12045.019810798147, -187500.02235174447, 14074.893483506858, -56276.70809944965, 0.184, 1.002, 0.096, 192.0, 2.5, 96.0, 15.5, 40.0, 1.5, 0.0, 0.0, 0.0, 0.0, 1.6959356737508264E9, 0.0, 2023-09-28 16:14:33.750
110.0, 10044.404571581432, 22121.454432184033, 26946.43610077335, -6487.660883386241, 30713.3979455707, 31436.298064744245, -187500.02235174447, 48803.37998907328, 13164.03754520864, -18377.984270809207, -7559.717602696133, 9222.218003537417, 12064.108200562978, -187500.02235174447, 13803.92328547517, -56586.9056090004, 0.184, 1.002, 0.096, 192.0, 0.0, 0.0, 0.0, 0.0, 0.0, 0.0, 0.0, 0.0, 0.0, 1.6959356737508495E9, 0.0, 2023-09-28 16:14:33.750
112.0, 10079.183885953891, 22151.450473243058, 26710.692252003224, -6658.495266258153, 30711.31923333636, 31252.790242766172, -187500.02235174447, 48627.00237357645, 13126.26309707917, -18422.799518442098, -7610.1878416762165, 9178.028604749275, 12030.178252479822, -187500.02235174447, 14112.198545002764, -56238.24074724207, 0.184, 1.002, 0.096, 192.0, 0.0, 0.0, 0.0, 0.0, 0.0, 0.0, 0.0, 0.0, 0.0, 1.6959356737508745E9, 0.0, 2023-09-28 16:14:33.750
114.0, 10028.825405696083, 22101.919007530094, 26883.001850009186, -6493.695854389174, 30723.143306153215, 31426.68681462846, -187500.02235174447, 48746.964186068086, 13164.015193464184, -18386.142657535394, -7558.041221861986, 9217.77000639081, 12083.464811261274, -187500.02235174447, 13785.661910255183, -56593.72289105927, 0.184, 1.002, 0.096, 192.0, 0.0, 0.0, 0.0, 0.0, 0.0, 0.0, 0.0, 0.0, 0.0, 1.695935673750898E9, 0.0, 2023-09-28 16:14:33.750
116.0, 10044.762199492718, 22142.107444060737, 26774.10415102293, -6649.55456847603, 30709.441686802114, 31268.302353418156, -187500.02235174447, 48674.00809216596, 13110.572172471544, -18435.942344181818, -7606.499803841091, 9179.05678499422, 12024.94794427728, -187500.02235174447, 14112.869097336425, -56235.20090999614, 0.184, 1.002, 0.096, 192.0, 0.0, 0.0, 0.0, 0.0, 0.0, 0.0, 0.0, 0.0, 0.0, 1.695935673750918E9, 0.0, 2023-09-28 16:14:33.750
118.0, 10049.478417572787, 22137.257115513938, 26824.97672140321, -6495.349883478866, 30734.140364425228, 31401.518750371786, -187500.02235174447, 48682.7923277369, 13174.900493013918, -18384.39922146788, -7543.11025656584, 9218.507613957836, 12085.118840350968, -187500.02235174447, 13779.984567163536, -56591.97945499176, 0.18, 1.0, 0.094, 192.0, 2.5, 80.0, 15.5, 32.0, 1.0, 120.0, 0.0, 0.0, 0.0, 1.6959356737509434E9, 0.0, 2023-09-28 16:14:33.750
120.0, 10074.668833573918, 22147.628324941197, 26827.077785382007, -6626.532271687063, 30708.88289319073, 31288.2848129612, -187500.02235174447, 48711.00022923949, 13110.013378860162, -18429.058006889583, -7592.6417222788, 9205.141270773564, 12041.711752618761, -187500.02235174447, 14102.07320476451, -56246.75676187954, 0.18, 1.0, 0.094, 192.0, 0.0, 0.0, 0.0, 0.0, 0.0, 0.0, 0.0, 0.0, 0.0, 1.6959356737509692E9, 0.0, 2023-09-28 16:14:33.750
122.0, 10045.768027993206, 22128.919914832106, 26790.130351797387, -6502.569496937931, 30735.392062114726, 31391.50516885581, -187500.02235174447, 48650.67287095462, 13174.006423235705, -18390.881227359918, -7539.288108263983, 9218.7758348913, 12100.027453902658, -187500.02235174447, 13786.645387011218, -56579.171905418865, 0.18, 1.0, 0.094, 192.0, 0.0, 0.0, 0.0, 0.0, 0.0, 0.0, 0.0, 0.0, 0.0, 1.695935674229698E9, 0.0, 2023-09-28 16:14:34.229
124.0, 10073.417135884421, 22140.76633939342, 26882.018373253155, -6609.991980790136, 30710.13459088023, 31312.223531272833, -187500.02235174447, 48765.829058388365, 13106.5935619585, -18417.278637561638, -7584.952722186175, 9210.7739103763, 12033.776883337126, -187500.02235174447, 14100.083899507988, -56247.82964561339, 0.18, 1.0, 0.094, 192.0, 0.0, 0.0, 0.0, 0.0, 0.0, 0.0, 0.0, 0.0, 0.0, 1.6959356742297225E9, 0.0, 2023-09-28 16:14:34.229
126.0, 10081.150839465958, 22150.109368575737, 26722.069289930976, -6518.52864247902, 30738.118974938272, 31364.81718597617, -187500.02235174447, 48600.42614941909, 13180.622539594477, -18398.994910597197, -7543.758457155044, 9212.494994699358, 12065.829284886036, -187500.02235174447, 13807.611323310295, -56550.47226553825, 0.18, 1.0, 0.094, 192.0, 0.0, 0.0, 0.0, 0.0, 0.0, 0.0, 0.0, 0.0, 0.0, 1.695935674229736E9, 0.0, 2023-09-28 16:14:34.229
128.0, 10066.577502081098, 22132.987932322972, 26937.58480996905, -6587.349663656911, 30723.053899175397, 31344.588857244118, -187500.02235174447, 48808.02915191998, 13120.764567943164, -18399.888980375406, -7580.482373295114, 9224.58728844968, 12060.375459238943, -187500.02235174447, 14077.352175396942, -56274.40586977075, 0.17400000000000002, 0.998, 0.096, 192.0, 2.5, 56.0, 15.5, 24.0, 1.5, 0.0, 0.0, 0.0, 0.0, 1.6959356742297487E9, 0.0, 2023-09-28 16:14:34.229
130.0, 10047.913795460916, 22147.628324941197, 26681.18794932222, -6535.963003154159, 30747.79728028742, 31337.23513331832, -187500.02235174447, 48561.46705883349, 13174.721679058275, -18397.810268141064, -7540.450398975659, 9207.801128363744, 12071.976014611248, -187500.02235174447, 13839.283745203466, -56520.81150064606, 0.17400000000000002, 0.998, 0.096, 192.0, 0.0, 0.0, 0.0, 0.0, 0.0, 0.0, 0.0, 0.0, 0.0, 1.6959356742297611E9, 0.0, 2023-09-28 16:14:34.229
132.0, 10029.138330118458, 22114.525391402887, 26998.53801709867, -6570.831724504438, 30714.157904882184, 31368.63933427803, -187500.02235174447, 48868.177696249215, 13099.172782799338, -18419.69262596281, -7573.843905191888, 9222.083893070685, 12038.180176994823, -187500.02235174447, 14061.393029855852, -56299.462175305154, 0.17400000000000002, 0.998, 0.096, 192.0, 0.0, 0.0, 0.0, 0.0, 0.0, 0.0, 0.0, 0.0, 0.0, 1.6959356742297797E9, 0.0, 2023-09-28 16:14:34.229
134.0, 10055.17811240889, 22146.376627251702, 26643.45820468166, -6561.198122644201, 30742.589323829336, 31317.789115642205, -187500.02235174447, 48539.6070527562, 13155.588585804533, -18407.957960123775, -7555.314309038438, 9198.927485814987, 12042.739932863706, -187500.02235174447, 13892.41384177373, -56458.80776152704, 0.17400000000000002, 0.998, 0.096, 192.0, 0.0, 0.0, 0.0, 0.0, 0.0, 0.0, 0.0, 0.0, 0.0, 1.6959356742297926E9, 0.0, 2023-09-28 16:14:34.229
136.0, 10052.205330396335, 22116.961731548516, 27013.334871928084, -6541.908567179271, 30730.429974845647, 31400.17764570447, -187500.02235174447, 48869.56350440544, 13118.037655119617, -18410.08137584703, -7565.529056254513, 9233.438579253982, 12063.214130784767, -187500.02235174447, 14023.931506148758, -56341.72932407014, 0.17400000000000002, 0.998, 0.096, 192.0, 0.0, 0.0, 0.0, 0.0, 0.0, 0.0, 0.0, 0.0, 0.0, 1.6959356742298048E9, 0.0, 2023-09-28 16:14:34.229
138.0, 10077.66396733093, 22144.90141211765, 26614.40093688976, -6575.994977473614, 30750.166565199685, 31299.639499144498, -187500.02235174447, 48501.60908718218, 13171.324213901069, -18403.778183910632, -7558.935291640198, 9199.598038148646, 12058.833188871526, -187500.02235174447, 13908.797670459471, -56448.34714512195, 0.176, 1.002, 0.098, 192.0, 2.5, 64.0, 15.5, 40.0, 1.5, 8.0, 0.0, 0.0, 0.0, 1.695935674229817E9, 0.0, 2023-09-28 16:14:34.229
140.0, 10031.373504563988, 22108.28925469986, 27042.146270530975, -6527.089360605402, 30722.182181141638, 31417.187323234957, -187500.02235174447, 48880.18058302171, 13122.999742388696, -18400.380718753426, -7569.194742345184, 9231.87395714211, 12087.957511896791, -187500.02235174447, 13979.362127704875, -56400.58146722096, 0.176, 1.002, 0.098, 192.0, 0.0, 0.0, 0.0, 0.0, 0.0, 0.0, 0.0, 0.0, 0.0, 1.6959356742298293E9, 0.0, 2023-09-28 16:14:34.229
142.0, 10061.57071132311, 22154.71382793353, 26617.910160769246, -6595.128070727357, 30745.450347119615, 31277.824196556117, -187500.02235174447, 48501.564383693265, 13164.752801031209, -18418.26211431767, -7562.310405052949, 9186.231694964374, 12078.502723992196, -187500.02235174447, 13967.448647910196, -56392.33367351695, 0.176, 1.002, 0.098, 192.0, 0.0, 0.0, 0.0, 0.0, 0.0, 0.0, 0.0, 0.0, 0.0, 1.6959356742298415E9, 0.0, 2023-09-28 16:14:34.229
144.0, 10038.526062789686, 22104.400051164634, 27045.387273476994, -6509.789110396995, 30718.874122962254, 31429.480782685376, -187500.02235174447, 48880.11352778835, 13117.367102785958, -18389.607177925966, -7561.081059107907, 9234.757332176845, 12079.799125170604, -187500.02235174447, 13944.202833676676, -56439.071171173004, 0.176, 1.002, 0.098, 192.0, 0.0, 0.0, 0.0, 0.0, 0.0, 0.0, 0.0, 0.0, 0.0, 1.695935674229855E9, 0.0, 2023-09-28 16:14:34.229
146.0, 10062.017746212214, 22149.01413309743, 26623.542800371983, -6617.479815182664, 30735.727338281555, 31263.72024580482, -187500.02235174447, 48522.21739556997, 13139.987068174729, -18425.437024287825, -7570.669957479234, 9178.699157082934, 12042.471711930242, -187500.02235174447, 14012.688578687737, -56336.87899552334, 0.176, 1.002, 0.098, 192.0, 0.0, 0.0, 0.0, 0.0, 0.0, 0.0, 0.0, 0.0, 0.0, 1.6959356742298672E9, 0.0, 2023-09-28 16:14:34.229
148.0, 10018.834175924561, 22098.00745225042, 27044.15792753195, -6498.7920521249835, 30714.247311860006, 31439.60612292363, -187500.02235174447, 48887.2884377585, 13124.474957522745, -18397.49734371869, -7555.44841950517, 9229.705837929945, 12080.447325759807, -187500.02235174447, 13917.89483045278, -56459.54536909406, 0.176, 0.996, 0.1, 192.0, 2.5, 64.0, 15.5, 16.0, 1.5, 16.0, 0.0, 0.0, 0.0, 1.6959356742298791E9, 0.0, 2023-09-28 16:14:34.229
150.0, 10058.776743266195, 22152.746874421464, 26625.196829461674, -6628.45452171022, 30736.867277248777, 31255.13717593398, -187500.02235174447, 48530.375782296156, 13155.275661382158, -18429.952076667796, -7570.424088290226, 9186.075232753186, 12066.119857563956, -187500.02235174447, 14051.82648322898, -56289.9850356561, 0.176, 0.996, 0.1, 192.0, 0.0, 0.0, 0.0, 0.0, 0.0, 0.0, 0.0, 0.0, 0.0, 1.6959356742298908E9, 0.0, 2023-09-28 16:14:34.229
152.0, 10026.679638228374, 22109.33978668926, 27018.319310941617, -6492.600618910864, 30707.02769840094, 31435.627512410585, -187500.02235174447, 48864.80258283646, 13142.89279495392, -18387.68492790281, -7555.336660782893, 9229.459968740937, 12082.05665136059, -187500.02235174447, 13872.297271763955, -56501.54429692558, 0.176, 0.996, 0.1, 192.0, 0.0, 0.0, 0.0, 0.0, 0.0, 0.0, 0.0, 0.0, 0.0, 1.6959356742299027E9, 0.0, 2023-09-28 16:14:34.229
154.0, 10063.023574712703, 22160.882909403197, 26666.36874274835, -6633.2154432792, 30721.22105613006, 31251.247972398756, -187500.02235174447, 48571.72650953848, 13135.248498350204, -18418.060948617574, -7580.035338406007, 9188.869200810099, 12066.522188964153, -187500.02235174447, 14091.366719170419, -56240.542976920966, 0.176, 0.996, 0.1, 192.0, 0.0, 0.0, 0.0, 0.0, 0.0, 0.0, 0.0, 0.0, 0.0, 1.6959356742299147E9, 0.0, 2023-09-28 16:14:34.229
156.0, 10042.370562836, 22114.23481872497, 26983.38353435797, -6487.57147640842, 30716.393079327714, 31437.281541500277, -187500.02235174447, 48839.83568427988, 13136.991934417718, -18385.561512179556, -7562.913902153243, 9229.616430952125, 12103.000235915213, -187500.02235174447, 13852.225405243089, -56509.21094527376, 0.176, 0.996, 0.1, 192.0, 0.0, 0.0, 0.0, 0.0, 0.0, 0.0, 0.0, 0.0, 0.0, 1.6959356742299263E9, 0.0, 2023-09-28 16:14:34.229
158.0, 10065.191693924868, 22150.265830786924, 26705.99838566761, -6638.9598416042145, 30738.6554168052, 31264.368446394023, -187500.02235174447, 48617.14525427166, 13122.284486566126, -18427.336922566526, -7586.115012897852, 9190.545581644248, 12057.492084204208, -187500.02235174447, 14123.083844552499, -56203.37202589179, 0.178, 0.984, 0.098, 192.0, 2.5, 72.0, 15.0, 96.0, 1.5, 8.0, 0.0, 0.0, 0.0, 1.6959356742299404E9, 0.0, 2023-09-28 16:14:34.229
160.0, 10012.955667132816, 22114.927722803084, 26925.403109240906, -6474.0710227574145, 30741.18116392865, 31448.03273058328, -187500.02235174447, 48788.38196854377, 13159.276623639658, -18381.31468073305, -7551.961547370142, 9227.87299488461, 12110.219849374278, -187500.02235174447, 13822.02819848397, -56536.725942698235, 0.178, 0.984, 0.098, 192.0, 0.0, 0.0, 0.0, 0.0, 0.0, 0.0, 0.0, 0.0, 0.0, 1.6959356742299523E9, 0.0, 2023-09-28 16:14:34.229
162.0, 10044.650440770441, 22143.269734772413, 26752.82529030148, -6631.293193256044, 30731.100527179307, 31283.76976058123, -187500.02235174447, 48661.044080381886, 13118.775262686642, -18418.195059084304, -7586.092661153396, 9203.308427728227, 12078.234503058733, -187500.02235174447, 14124.313190497542, -56206.344807904345, 0.178, 0.984, 0.098, 192.0, 0.0, 0.0, 0.0, 0.0, 0.0, 0.0, 0.0, 0.0, 0.0, 1.6959356742299645E9, 0.0, 2023-09-28 16:14:34.229
164.0, 10025.293830072145, 22099.79559180684, 26892.7472105917, -6486.09626127437, 30726.898399221707, 31429.74900361884, -187500.02235174447, 48760.308177507904, 13164.328117886558, -18384.868608101442, -7546.172445556217, 9221.949782603953, 12120.814576246094, -187500.02235174447, 13825.515070618996, -56535.4965967532, 0.178, 0.984, 0.098, 192.0, 0.0, 0.0, 0.0, 0.0, 0.0, 0.0, 0.0, 0.0, 0.0, 1.6959356742299764E9, 0.0, 2023-09-28 16:14:34.229
166.0, 10073.506542862242, 22157.753665179454, 26785.25767150613, -6635.450617724731, 30727.300730621904, 31286.09434200458, -187500.02235174447, 48688.357912106265, 13121.301009810091, -18438.132815138437, -7598.721396770644, 9186.05288100873, 12051.792389368104, -187500.02235174447, 14159.919519414845, -56166.73751672954, 0.178, 0.984, 0.098, 192.0, 0.0, 0.0, 0.0, 0.0, 0.0, 0.0, 0.0, 0.0, 0.0, 1.6959356742299883E9, 0.0, 2023-09-28 16:14:34.229
168.0, 10021.60579223702, 22126.058891541827, 26801.842665891967, -6481.312987960933, 30746.12089945327, 31420.98711979236, -187500.02235174447, 48666.85553394027, 13161.08711494054, -18377.179608008817, -7538.282279763494, 9226.241317539372, 12091.399680542909, -187500.02235174447, 13794.937884204137, -56560.32938484304, 0.182, 0.988, 0.098, 192.0, 2.5, 88.0, 15.0, 112.0, 1.5, 8.0, 0.0, 0.0, 0.0, 1.6959356742300003E9, 0.0, 2023-09-28 16:14:34.230
170.0, 10041.968231435803, 22154.33384827779, 26859.107835186463, -6607.198012733223, 30731.435803346136, 31327.2439035468, -187500.02235174447, 48744.68430813364, 13091.796707129086, -18424.855878931987, -7591.211210633661, 9205.230677751384, 12069.942005865814, -187500.02235174447, 14128.56002194405, -56208.98231375007, 0.182, 0.988, 0.098, 192.0, 0.0, 0.0, 0.0, 0.0, 0.0, 0.0, 0.0, 0.0, 0.0, 1.6959356742300148E9, 0.0, 2023-09-28 16:14:34.230
172.0, 10043.13052214748, 22147.985952852483, 26747.48322337666, -6501.876592859816, 30749.00427448801, 31399.998831748824, -187500.02235174447, 48625.34834448676, 13158.762533517187, -18378.386602209404, -7549.63696594679, 9217.524137201803, 12081.788430427127, -187500.02235174447, 13816.708483303606, -56540.05635262208, 0.182, 0.988, 0.098, 192.0, 0.0, 0.0, 0.0, 0.0, 0.0, 0.0, 0.0, 0.0, 0.0, 1.6959356742300267E9, 0.0, 2023-09-28 16:14:34.230
174.0, 10041.163568635413, 22139.425234726103, 26918.965806837776, -6590.3000939250105, 30729.02181494496, 31358.379883573045, -187500.02235174447, 48801.63655300577, 13084.085355292005, -18395.709204162267, -7597.246181636594, 9218.954648846942, 12072.311290778076, -187500.02235174447, 14109.002245545656, -56238.10663677534, 0.182, 0.988, 0.098, 192.0, 0.0, 0.0, 0.0, 0.0, 0.0, 0.0, 0.0, 0.0, 0.0, 1.695935674230039E9, 0.0, 2023-09-28 16:14:34.230
176.0, 10046.729153004784, 22143.33679000578, 26697.9517576637, -6513.745369165585, 30763.488204895046, 31383.391485618533, -187500.02235174447, 48577.15798344112, 13168.060859210595, -18374.72091611873, -7547.893529879276, 9221.189823292474, 12106.39770107242, -187500.02235174447, 13839.462559159108, -56519.38098900092, 0.182, 0.988, 0.098, 192.0, 0.0, 0.0, 0.0, 0.0, 0.0, 0.0, 0.0, 0.0, 0.0, 1.6959356742300513E9, 0.0, 2023-09-28 16:14:34.230
178.0, 10060.475475844798, 22131.95975207803, 26963.356371326016, -6574.787983273028, 30725.89257072122, 31389.82878802166, -187500.02235174447, 48834.135989443785, 13100.983274100217, -18384.82390461253, -7580.705890739667, 9238.423018267515, 12071.57368321105, -187500.02235174447, 14090.763222070125, -56269.91316913524, 0.18, 0.998, 0.1, 192.0, 2.5, 80.0, 15.5, 24.0, 1.5, 16.0, 0.0, 0.0, 0.0, 1.6959356742300632E9, 0.0, 2023-09-28 16:14:34.230
180.0, 10062.241263656768, 22167.4319705286, 26654.924649587232, -6531.112674607358, 30755.41922514668, 31362.224383619356, -187500.02235174447, 48540.07643938976, 13164.417524864379, -18377.44782894228, -7554.375535771315, 9217.59119243517, 12098.149907368412, -187500.02235174447, 13881.930873624191, -56479.080793748, 0.18, 0.998, 0.1, 192.0, 0.0, 0.0, 0.0, 0.0, 0.0, 0.0, 0.0, 0.0, 0.0, 1.6959356742300751E9, 0.0, 2023-09-28 16:14:34.230
182.0, 10031.12763537498, 22153.260964543937, 26997.800409531643, -6545.730715481129, 30731.525210323958, 31412.35934643261, -187500.02235174447, 48856.28656819899, 13100.916218866852, -18379.21361675425, -7566.892512666287, 9238.758294434345, 12058.72143014925, -187500.02235174447, 14059.627242043882, -56313.38731210081, 0.18, 0.998, 0.1, 192.0, 0.0, 0.0, 0.0, 0.0, 0.0, 0.0, 0.0, 0.0, 0.0, 1.6959356742300887E9, 0.0, 2023-09-28 16:14:34.230
184.0, 10060.743696778261, 22168.23663332899, 26621.66525383774, -6572.329291382944, 30751.530021611456, 31328.406194258478, -187500.02235174447, 48515.53422397783, 13156.281489882647, -18383.125172033928, -7555.627233460812, 9206.39296846306, 12052.261776001666, -187500.02235174447, 13917.537202541496, -56446.31313637652, 0.18, 0.998, 0.1, 192.0, 0.0, 0.0, 0.0, 0.0, 0.0, 0.0, 0.0, 0.0, 0.0, 1.6959356742301009E9, 0.0, 2023-09-28 16:14:34.230
186.0, 10057.390935109966, 22115.28535071437, 27038.324122229114, -6540.656869489774, 30717.644777017213, 31420.607140136617, -187500.02235174447, 48896.36324600736, 13089.338015239004, -18384.35451797897, -7584.952722186175, 9236.701933944456, 12092.181991598844, -187500.02235174447, 14030.882898674357, -56347.361963672876, 0.18, 0.998, 0.1, 192.0, 0.0, 0.0, 0.0, 0.0, 0.0, 0.0, 0.0, 0.0, 0.0, 1.6959356742301128E9, 0.0, 2023-09-28 16:14:34.230
188.0, 10064.387031124477, 22185.179255626113, 26608.12009669782, -6584.041605477525, 30758.302600181414, 31303.439295701897, -187500.02235174447, 48503.84426162771, 13151.520568313666, -18396.625625684934, -7561.081059107907, 9202.436709694472, 12098.798107957615, -187500.02235174447, 13988.928674331746, -56357.86728356687, 0.186, 0.994, 0.096, 192.0, 2.5, 104.0, 15.5, 8.0, 1.5, 0.0, 0.0, 0.0, 0.0, 1.6959356742301247E9, 0.0, 2023-09-28 16:14:34.230
190.0, 10026.03143763917, 22137.950019592052, 27030.366901203026, -6512.851299387372, 30722.808029986387, 31444.009416581324, -187500.02235174447, 48872.804507351466, 13130.666390736866, -18343.808453537044, -7537.097637307363, 9265.513332547347, 12092.986654399236, -187500.02235174447, 13970.980223534134, -56399.55328697602, 0.186, 0.994, 0.096, 192.0, 0.0, 0.0, 0.0, 0.0, 0.0, 0.0, 0.0, 0.0, 0.0, 1.6959356742301369E9, 0.0, 2023-09-28 16:14:34.230
192.0, 10069.393821882466, 22182.85467420276, 26598.911177982234, -6605.588687132441, 30735.07913769235, 31284.529719892707, -187500.02235174447, 48493.42834871154, 13133.616821004965, -18386.366174979947, -7565.864332421343, 9202.101433527641, 12059.257872016176, -187500.02235174447, 13991.901456344302, -56347.630184606336, 0.186, 0.994, 0.096, 192.0, 0.0, 0.0, 0.0, 0.0, 0.0, 0.0, 0.0, 0.0, 0.0, 1.6959356742301483E9, 0.0, 2023-09-28 16:14:34.230
194.0, 10032.044056897648, 22119.845106583252, 27048.15888978945, -6506.548107450975, 30710.916901936165, 31452.03369284078, -187500.02235174447, 48890.97647559363, 13116.115405096461, -18368.507131160157, -7560.701079452167, 9244.100361359164, 12065.046973830102, -187500.02235174447, 13940.313630141454, -56423.38024656537, 0.186, 0.994, 0.096, 192.0, 0.0, 0.0, 0.0, 0.0, 0.0, 0.0, 0.0, 0.0, 0.0, 1.69593567423016E9, 0.0, 2023-09-28 16:14:34.230
196.0, 10080.010900498737, 22188.777886483418, 26607.427192619707, -6626.621678664885, 30744.958608741596, 31273.51030987624, -187500.02235174447, 48504.80538663929, 13132.812158204575, -18396.044480329096, -7571.049937134974, 9200.156831760029, 12035.363857193453, -187500.02235174447, 14052.16175939581, -56273.265930803536, 0.186, 0.994, 0.096, 192.0, 0.0, 0.0, 0.0, 0.0, 0.0, 0.0, 0.0, 0.0, 0.0, 1.695935674230174E9, 0.0, 2023-09-28 16:14:34.230
198.0, 10042.795245980651, 22138.598220181255, 27024.041357522176, -6484.486935673587, 30730.497030079012, 31466.159995336533, -187500.02235174447, 48858.186466477695, 13137.21545186227, -18348.591726850478, -7549.949890369165, 9252.21404459644, 12088.650415974906, -187500.02235174447, 13889.709280694638, -56471.34709016646, 0.178, 0.998, 0.096, 192.0, 2.5, 72.0, 15.5, 24.0, 1.5, 0.0, 0.0, 0.0, 0.0, 1.695935674230186E9, 0.0, 2023-09-28 16:14:34.230
200.0, 10083.408365655943, 22170.09182811878, 26646.341579716394, -6631.941393845248, 30748.736053554545, 31273.66677208743, -187500.02235174447, 48540.07643938976, 13128.632381991432, -18400.179553053327, -7572.011062146553, 9200.96149456042, 12071.126648321944, -187500.02235174447, 14087.946902268757, -56239.492444931566, 0.178, 0.998, 0.096, 192.0, 0.0, 0.0, 0.0, 0.0, 0.0, 0.0, 0.0, 0.0, 0.0, 1.695935674230198E9, 0.0, 2023-09-28 16:14:34.230
202.0, 10051.020687940203, 22135.6254381687, 26992.86067400702, -6478.742537348573, 30745.763271541986, 31466.115291847622, -187500.02235174447, 48818.48976832507, 13136.008457661685, -18359.67819210031, -7544.8536926333545, 9242.759256691845, 12090.505610764696, -187500.02235174447, 13853.477102932586, -56506.01464581664, 0.178, 0.998, 0.096, 192.0, 0.0, 0.0, 0.0, 0.0, 0.0, 0.0, 0.0, 0.0, 0.0, 1.69593567423021E9, 0.0, 2023-09-28 16:14:34.230
204.0, 10061.771877023206, 22185.425124815123, 26696.118914618364, -6637.17170204779, 30742.969303485075, 31281.08755124659, -187500.02235174447, 48571.838268260755, 13120.496347009701, -18402.325320521035, -7565.774925443522, 9201.609695149624, 12058.408505726875, -187500.02235174447, 14097.111117495433, -56232.74221810606, 0.178, 0.998, 0.096, 192.0, 0.0, 0.0, 0.0, 0.0, 0.0, 0.0, 0.0, 0.0, 0.0, 1.6959356742302217E9, 0.0, 2023-09-28 16:14:34.230
206.0, 10047.958498949827, 22132.831470111785, 26963.736350981755, -6474.830982068895, 30733.98390221404, 31454.26886728631, -187500.02235174447, 48791.17593660068, 13145.284431610637, -18351.96684026323, -7541.076247820408, 9237.596003722669, 12082.749555438704, -187500.02235174447, 13838.747303336539, -56525.974753615235, 0.178, 0.998, 0.096, 192.0, 0.0, 0.0, 0.0, 0.0, 0.0, 0.0, 0.0, 0.0, 0.0, 1.6959356742302337E9, 0.0, 2023-09-28 16:14:34.230
208.0, 10076.479324874797, 22178.920767178628, 26733.356920880906, -6632.231966523167, 30738.27543714946, 31277.399513411467, -187500.02235174447, 48617.547585671855, 13107.845259647996, -18392.57995993852, -7580.303559339472, 9208.851660353144, 12053.312307991066, -187500.02235174447, 14131.756321401159, -56198.18642117816, 0.182, 1.0, 0.1, 192.0, 2.5, 88.0, 15.5, 32.0, 1.5, 16.0, 0.0, 0.0, 0.0, 1.6959356742302475E9, 0.0, 2023-09-28 16:14:34.230
210.0, 10043.264632614211, 22150.221127298013, 26900.860893828976, -6475.345072191367, 30747.976094243062, 31438.4214804675, -187500.02235174447, 48733.106104505794, 13155.230957893249, -18344.791930293075, -7540.673916420212, 9243.854492170154, 12096.808802701093, -187500.02235174447, 13810.606457067306, -56556.70840224128, 0.182, 1.0, 0.1, 192.0, 0.0, 0.0, 0.0, 0.0, 0.0, 0.0, 0.0, 0.0, 0.0, 1.69593567423026E9, 0.0, 2023-09-28 16:14:34.230
212.0, 10080.837915043583, 22183.458171303057, 26786.531720940082, -6620.743169873139, 30739.862411005786, 31289.894138561984, -187500.02235174447, 48654.7855919344, 13121.770396443653, -18381.337032477502, -7569.8652946788425, 9223.648515182556, 12083.084831605534, -187500.02235174447, 14131.309286512052, -56212.20096495163, 0.182, 1.0, 0.1, 192.0, 0.0, 0.0, 0.0, 0.0, 0.0, 0.0, 0.0, 0.0, 0.0, 1.695935674230272E9, 0.0, 2023-09-28 16:14:34.230
214.0, 10049.813693739618, 22153.752702921953, 26842.96987568973, -6474.003967524049, 30749.294847165926, 31421.903541315027, -187500.02235174447, 48680.73596724701, 13158.427257350357, -18354.850215297964, -7532.91786109422, 9248.682468972502, 12086.862276418482, -187500.02235174447, 13797.575390049862, -56575.90855072839, 0.182, 1.0, 0.1, 192.0, 0.0, 0.0, 0.0, 0.0, 0.0, 0.0, 0.0, 0.0, 0.0, 1.6959356742302837E9, 0.0, 2023-09-28 16:14:34.230
216.0, 10075.361737652032, 22167.141397850683, 26843.483965812204, -6614.551736659019, 30727.61365504428, 31302.634632901507, -187500.02235174447, 48712.40838914018, 13102.21262004526, -18397.296178018594, -7573.933312169709, 9223.78262564929, 12057.91676734886, -187500.02235174447, 14128.9847050887, -56226.3719709363, 0.182, 1.0, 0.1, 192.0, 0.0, 0.0, 0.0, 0.0, 0.0, 0.0, 0.0, 0.0, 0.0, 1.695935674230296E9, 0.0, 2023-09-28 16:14:34.230
218.0, 10055.558092064632, 22151.405769754147, 26797.39466874536, -6506.369293495333, 30744.64568431922, 31388.800607776717, -187500.02235174447, 48656.52902800191, 13159.902472484408, -18368.52948290461, -7547.915881623731, 9222.754445404345, 12090.997349142714, -187500.02235174447, 13831.88531778876, -56540.77160844465, 0.182, 0.998, 0.098, 192.0, 2.5, 88.0, 15.5, 24.0, 1.5, 8.0, 0.0, 0.0, 0.0, 1.6959356742303083E9, 0.0, 2023-09-28 16:14:34.230
220.0, 10072.32190040611, 22170.494159518978, 26887.092219244507, -6599.754881829605, 30743.751614541008, 31325.656929690474, -187500.02235174447, 48752.485066948546, 13093.182515285316, -18389.7412883927, -7580.728242484122, 9226.576593706202, 12057.827360371037, -187500.02235174447, 14130.079940567011, -56225.500252902544, 0.182, 0.998, 0.098, 192.0, 0.0, 0.0, 0.0, 0.0, 0.0, 0.0, 0.0, 0.0, 0.0, 1.6959356742303205E9, 0.0, 2023-09-28 16:14:34.230
222.0, 10077.574560353109, 22164.638002471685, 26720.974054452665, -6511.778415653517, 30769.90315555372, 31371.41095059049, -187500.02235174447, 48571.123012438184, 13175.883969769951, -18355.699581587265, -7525.318267979416, 9234.176186821007, 12092.33845381003, -187500.02235174447, 13820.061244971901, -56552.41686730586, 0.182, 0.998, 0.098, 192.0, 0.0, 0.0, 0.0, 0.0, 0.0, 0.0, 0.0, 0.0, 0.0, 1.6959356742303345E9, 0.0, 2023-09-28 16:14:34.230
224.0, 10050.305432117633, 22139.984028337483, 26970.151301640428, -6593.295227682022, 30715.4990095495, 31341.459613020375, -187500.02235174447, 48821.66371603772, 13097.854029876475, -18391.998814582686, -7571.005233646064, 9233.863262398632, 12061.29188076161, -187500.02235174447, 14096.59702737296, -56277.84803841687, 0.182, 0.998, 0.098, 192.0, 0.0, 0.0, 0.0, 0.0, 0.0, 0.0, 0.0, 0.0, 0.0, 1.6959356742303464E9, 0.0, 2023-09-28 16:14:34.230
226.0, 10069.147952693458, 22169.5330345074, 26711.631025270348, -6541.595642756897, 30745.025663974964, 31338.93386589693, -187500.02235174447, 48581.337759654256, 13152.235824136236, -18384.309814490058, -7546.842997889877, 9208.24816325285, 12082.794258927615, -187500.02235174447, 13889.731632439094, -56480.041918759576, 0.182, 0.998, 0.098, 192.0, 0.0, 0.0, 0.0, 0.0, 0.0, 0.0, 0.0, 0.0, 0.0, 1.6959356742303584E9, 0.0, 2023-09-28 16:14:34.230
228.0, 10041.811769224616, 22126.863554342217, 27006.15996195793, -6582.365224643377, 30717.711832250578, 31362.090273152626, -187500.02235174447, 48869.921132316726, 13089.047442561085, -18395.50803846217, -7580.817649461944, 9221.748616903857, 12058.0955813045, -187500.02235174447, 14114.74664387067, -56249.79659912546, 0.182, 0.996, 0.1, 192.0, 2.5, 88.0, 15.5, 16.0, 1.5, 16.0, 0.0, 0.0, 0.0, 1.6959356742303703E9, 0.0, 2023-09-28 16:14:34.230
230.0, 10071.494885861264, 22164.01215362694, 26645.04517853799, -6555.498427808097, 30751.686483822643, 31316.269197019246, -187500.02235174447, 48531.53807300783, 13165.043373709128, -18389.249550014683, -7545.546596711469, 9210.81861386521, 12086.370538040464, -187500.02235174447, 13915.927876940714, -56438.73589500617, 0.182, 0.996, 0.1, 192.0, 0.0, 0.0, 0.0, 0.0, 0.0, 0.0, 0.0, 0.0, 0.0, 1.6959356742303824E9, 0.0, 2023-09-28 16:14:34.230
232.0, 10056.675679287397, 22134.3737404792, 27019.682767353388, -6545.730715481129, 30717.868294461765, 31396.713125313894, -187500.02235174447, 48879.510030688056, 13083.995948314185, -18386.477933702223, -7579.677710494722, 9234.06442809873, 12073.652395445395, -187500.02235174447, 14049.859529716914, -56313.56612605645, 0.182, 0.996, 0.1, 192.0, 0.0, 0.0, 0.0, 0.0, 0.0, 0.0, 0.0, 0.0, 0.0, 1.6959356742303944E9, 0.0, 2023-09-28 16:14:34.230
234.0, 10059.357888622033, 22164.839168171784, 26610.534085098992, -6573.715099539173, 30755.106300724306, 31304.556882924666, -187500.02235174447, 48503.71015116098, 13168.239673166237, -18381.024108055128, -7551.6039194588575, 9210.081006298185, 12090.863238675982, -187500.02235174447, 13936.446778350686, -56409.365702791896, 0.182, 0.996, 0.1, 192.0, 0.0, 0.0, 0.0, 0.0, 0.0, 0.0, 0.0, 0.0, 0.0, 1.695935674230408E9, 0.0, 2023-09-28 16:14:34.230
236.0, 10029.250088840734, 22124.80719385233, 27041.565125175137, -6538.891081677804, 30704.434896044124, 31407.17374171898, -187500.02235174447, 48895.782100651515, 13107.889963136908, -18381.5381981776, -7568.323024311427, 9236.836044411188, 12077.608654213984, -187500.02235174447, 13993.57783717845, -56373.37939421886, 0.182, 0.996, 0.1, 192.0, 0.0, 0.0, 0.0, 0.0, 0.0, 0.0, 0.0, 0.0, 0.0, 1.69593567423042E9, 0.0, 2023-09-28 16:14:34.230
238.0, 10073.528894606698, 22182.072363146828, 26594.619643046815, -6589.406024146799, 30757.94497227013, 31288.91066180595, -187500.02235174447, 48496.73640689092, 13144.993858932718, -18394.479858217222, -7561.30457655246, 9198.413395692516, 12055.368668480955, -187500.02235174447, 13986.782906864037, -56354.98390853214, 0.184, 0.996, 0.106, 192.0, 2.5, 96.0, 15.5, 16.0, 1.5, 40.0, 0.0, 0.0, 0.0, 1.6959356742304325E9, 0.0, 2023-09-28 16:14:34.230
240.0, 10054.328746119589, 22145.460205729032, 27037.67592163991, -6500.155508536757, 30731.92754172415, 31448.949152105946, -187500.02235174447, 48887.35549299187, 13101.832640389519, -18349.06111348404, -7554.554349726957, 9263.524027290825, 12071.193703555311, -187500.02235174447, 13942.258231909065, -56435.38313333788, 0.184, 0.996, 0.106, 192.0, 0.0, 0.0, 0.0, 0.0, 0.0, 0.0, 0.0, 0.0, 0.0, 1.6959356742304456E9, 0.0, 2023-09-28 16:14:34.230
242.0, 10099.389862941487, 22220.45030837659, 26607.158971686244, -6596.73739632814, 30756.156832713707, 31288.441275172387, -187500.02235174447, 48515.131892577636, 13142.334001342537, -18366.54017764809, -7556.610710216846, 9219.848718625155, 12063.43764822932, -187500.02235174447, 14011.056901342501, -56342.75750431508, 0.184, 0.996, 0.106, 192.0, 0.0, 0.0, 0.0, 0.0, 0.0, 0.0, 0.0, 0.0, 0.0, 1.695935674710514E9, 0.0, 2023-09-28 16:14:34.710
244.0, 10046.12565590449, 22148.38828425268, 27046.326046744114, -6481.3800431943, 30733.98390221404, 31465.93647789198, -187500.02235174447, 48902.01823735455, 13108.627570703933, -18334.085444698983, -7541.120951309318, 9268.486114559902, 12097.68052073485, -187500.02235174447, 13914.69853099567, -56474.386927412386, 0.184, 0.996, 0.106, 192.0, 0.0, 0.0, 0.0, 0.0, 0.0, 0.0, 0.0, 0.0, 0.0, 1.6959356747105455E9, 0.0, 2023-09-28 16:14:34.710
246.0, 10077.485153375286, 22195.304595864367, 26640.08309126891, -6605.186355732246, 30751.84294603383, 31281.3334204356, -187500.02235174447, 48558.09194542074, 13118.93172489783, -18365.199072980773, -7550.329870024904, 9223.849680882655, 12067.81859014256, -187500.02235174447, 14062.264747889609, -56293.449556046675, 0.184, 0.996, 0.106, 192.0, 0.0, 0.0, 0.0, 0.0, 0.0, 0.0, 0.0, 0.0, 0.0, 1.6959356747105703E9, 0.0, 2023-09-28 16:14:34.710
248.0, 10022.812786437606, 22135.491327701966, 27033.74201461578, -6476.529714647498, 30727.27837887745, 31461.533184234286, -187500.02235174447, 48897.99492335259, 13102.279675278625, -18337.929944745298, -7548.720544424123, 9255.231530097906, 12067.550369209095, -187500.02235174447, 13898.26999882102, -56484.445212417275, 0.184, 0.996, 0.10400000000000001, 192.0, 2.5, 96.0, 15.5, 16.0, 1.5, 32.0, 0.0, 0.0, 0.0, 1.6959356747105937E9, 0.0, 2023-09-28 16:14:34.710
250.0, 10075.920531263415, 22208.246255903992, 26662.434835724216, -6614.663495381295, 30749.85364077731, 31281.109902991047, -187500.02235174447, 48578.85671601972, 13120.809271432076, -18364.01443052464, -7560.477562007614, 9221.68156167049, 12077.116915835968, -187500.02235174447, 14101.626169875404, -56239.067761786915, 0.184, 0.996, 0.10400000000000001, 192.0, 0.0, 0.0, 0.0, 0.0, 0.0, 0.0, 0.0, 0.0, 0.0, 1.695935674710618E9, 0.0, 2023-09-28 16:14:34.710
252.0, 10057.927376976893, 22166.49319726148, 26996.861636264523, -6450.691098057163, 30728.775945755955, 31474.31838206272, -187500.02235174447, 48855.928940287704, 13138.489501296222, -18311.644293265857, -7526.9499453246535, 9274.811658240755, 12113.974942442768, -187500.02235174447, 13840.31192544841, -56536.94946014279, 0.184, 0.996, 0.10400000000000001, 192.0, 0.0, 0.0, 0.0, 0.0, 0.0, 0.0, 0.0, 0.0, 0.0, 1.6959356747106392E9, 0.0, 2023-09-28 16:14:34.710
254.0, 10106.922400822927, 22217.432822875122, 26720.28115037455, -6607.108605755402, 30737.962512727085, 31288.128350750012, -187500.02235174447, 48629.10343755525, 13116.651846963388, -18352.570337363522, -7561.393983530282, 9231.941012375477, 12040.638868884906, -187500.02235174447, 14134.706751669259, -56202.1650316912, 0.184, 0.996, 0.10400000000000001, 192.0, 0.0, 0.0, 0.0, 0.0, 0.0, 0.0, 0.0, 0.0, 0.0, 1.6959356747106586E9, 0.0, 2023-09-28 16:14:34.710
0.0, 10062.621243312507, 22169.018944384927, 26931.125155821464, -6451.56281609092, 30749.741882055034, 31461.957867378936, -187500.02235174447, 48790.2148115891, 13150.112408412982, -18310.99609267665, -7520.15501501024, 9267.726155248423, 12099.960398669291, -187500.02235174447, 13817.557849592908, -56550.82989344954, 0.184, 0.996, 0.10400000000000001, 192.0, 0.0, 0.0, 0.0, 0.0, 0.0, 0.0, 0.0, 0.0, 0.0, 1.6959356747106793E9, 0.0, 2023-09-28 16:14:34.710
2.0, 10088.862191303038, 22194.522284808434, 26763.24120321765, -6612.718893613684, 30743.438690118637, 31294.565653153142, -187500.02235174447, 48663.72628971652, 13099.01632058815, -18364.148540991373, -7566.9819196441085, 9228.431788495993, 12032.011095525158, -187500.02235174447, 14125.520184698127, -56215.285505686465, 0.184, 0.998, 0.106, 192.0, 2.5, 96.0, 15.5, 24.0, 1.5, 40.0, 0.0, 0.0, 0.0, 1.6959356747107067E9, 0.0, 2023-09-28 16:14:34.710
4.0, 10070.019670727215, 22162.022848370416, 26880.476102885736, -6465.644415097763, 30754.14517571273, 31435.046367054747, -187500.02235174447, 48736.056534773896, 13154.113370670482, -18326.776424262098, -7533.342544238872, 9252.102285874163, 12082.838962416527, -187500.02235174447, 13803.699768030618, -56566.83374247954, 0.184, 0.998, 0.106, 192.0, 0.0, 0.0, 0.0, 0.0, 0.0, 0.0, 0.0, 0.0, 0.0, 1.6959356747107415E9, 0.0, 2023-09-28 16:14:34.710
6.0, 10063.872941002004, 22183.39111606969, 26822.24980857966, -6607.466233666687, 30727.881875977742, 31300.578272411618, -187500.02235174447, 48711.69313331761, 13098.479878721224, -18366.473122414725, -7578.3142540829485, 9235.561994977235, 12074.993500112712, -187500.02235174447, 14130.057588822556, -56215.46431964211, 0.184, 0.998, 0.106, 192.0, 0.0, 0.0, 0.0, 0.0, 0.0, 0.0, 0.0, 0.0, 0.0, 1.6959356747107546E9, 0.0, 2023-09-28 16:14:34.710
8.0, 10035.642687754953, 22164.95092689406, 26823.725023713712, -6474.808630324439, 30752.7593675565, 31416.561474390208, -187500.02235174447, 48693.27529588644, 13144.300954854603, -18333.660761554333, -7542.238538532083, 9239.16062583454, 12099.91569518038, -187500.02235174447, 13823.391654895742, -56541.39745728939, 0.184, 0.998, 0.106, 192.0, 0.0, 0.0, 0.0, 0.0, 0.0, 0.0, 0.0, 0.0, 0.0, 1.6959356747107668E9, 0.0, 2023-09-28 16:14:34.710
10.0, 10063.492961346265, 22175.657412488155, 26872.071846970543, -6599.061977751491, 30723.03154743094, 31323.62292094504, -187500.02235174447, 48759.324700751866, 13089.203904772272, -18359.231157211205, -7567.719527211133, 9238.177149078507, 12045.019810798147, -187500.02235174447, 14133.991495846689, -56208.73644456106, 0.184, 0.998, 0.106, 192.0, 0.0, 0.0, 0.0, 0.0, 0.0, 0.0, 0.0, 0.0, 0.0, 1.6959356747107804E9, 0.0, 2023-09-28 16:14:34.710
12.0, 10073.841819029072, 22196.86921797624, 26753.406435657318, -6494.634627656296, 30760.604829860313, 31397.31662241419, -187500.02235174447, 48619.87216709521, 13154.292184626125, -18336.633543566888, -7540.003364086553, 9236.6795822, 12096.294712578621, -187500.02235174447, 13829.650143343228, -56527.04763734909, 0.184, 0.996, 0.106, 192.0, 2.5, 96.0, 15.5, 16.0, 1.5, 40.0, 0.0, 0.0, 0.0, 1.6959356747107973E9, 0.0, 2023-09-28 16:14:34.710
14.0, 10069.907912004937, 22170.71767696353, 26914.026071313154, -6580.06299496448, 30732.061652190885, 31352.322560825654, -187500.02235174447, 48779.30716029491, 13085.717032637243, -18353.844386797475, -7563.807971931455, 9244.92737590401, 12070.43374424383, -187500.02235174447, 14093.110155237933, -56266.85098014486, 0.184, 0.996, 0.106, 192.0, 0.0, 0.0, 0.0, 0.0, 0.0, 0.0, 0.0, 0.0, 0.0, 1.6959356747108228E9, 0.0, 2023-09-28 16:14:34.710
16.0, 10050.283080373178, 22156.09963608976, 26725.42205159927, -6520.964982624649, 30736.375538870758, 31371.142729657025, -187500.02235174447, 48594.65939934962, 13155.432123593346, -18355.67722984281, -7543.289070521483, 9223.469701226915, 12066.410430241875, -187500.02235174447, 13842.412989427208, -56528.344038527495, 0.184, 0.996, 0.106, 192.0, 0.0, 0.0, 0.0, 0.0, 0.0, 0.0, 0.0, 0.0, 0.0, 1.6959356747108457E9, 0.0, 2023-09-28 16:14:34.710
18.0, 10053.725249019295, 22163.632173971197, 26978.04146743315, -6578.185448430235, 30719.567027040368, 31370.78510174574, -187500.02235174447, 48844.08251572639, 13072.35068945297, -18378.520712676134, -7586.629103020323, 9229.102340829651, 12041.152959007379, -187500.02235174447, 14116.46772819373, -56242.93461357768, 0.184, 0.996, 0.106, 192.0, 0.0, 0.0, 0.0, 0.0, 0.0, 0.0, 0.0, 0.0, 0.0, 1.6959356747108603E9, 0.0, 2023-09-28 16:14:34.710
20.0, 10082.04490924417, 22186.408601571155, 26673.40954225177, -6534.018401386547, 30754.14517571273, 31350.132089869036, -187500.02235174447, 48548.95008193852, 13152.325231114059, -18348.63643033939, -7545.5018932225585, 9224.721398916412, 12076.91575013587, -187500.02235174447, 13891.430365017697, -56464.105124962945, 0.184, 0.996, 0.106, 192.0, 0.0, 0.0, 0.0, 0.0, 0.0, 0.0, 0.0, 0.0, 0.0, 1.6959356747108817E9, 0.0, 2023-09-28 16:14:34.710
22.0, 10065.795191025161, 22159.832377413797, 27015.43593590688, -6550.759857983573, 30715.32019559386, 31396.44490438043, -187500.02235174447, 48873.63152189631, 13070.987233041196, -18364.23794796919, -7576.526114526524, 9249.040096883786, 12045.690363131805, -187500.02235174447, 14081.956634754735, -56278.42918377271, 0.186, 0.998, 0.11, 192.0, 2.5, 104.0, 15.5, 24.0, 1.5, 56.0, 0.0, 0.0, 0.0, 1.6959356747108994E9, 0.0, 2023-09-28 16:14:34.710
24.0, 10072.23249342829, 22206.815744258853, 26640.708940113658, -6555.297262108, 30747.730225054056, 31331.66954894895, -187500.02235174447, 48528.18531133954, 13151.31940261357, -18362.516863646135, -7534.035448316986, 9219.960477347431, 12060.062534816569, -187500.02235174447, 13940.0901126969, -56404.09069110044, 0.186, 0.998, 0.11, 192.0, 0.0, 0.0, 0.0, 0.0, 0.0, 0.0, 0.0, 0.0, 0.0, 1.6959356747109208E9, 0.0, 2023-09-28 16:14:34.710
26.0, 10052.406496096433, 22154.5797174668, 27033.004407048753, -6538.108770621869, 30707.295919334403, 31418.08139301317, -187500.02235174447, 48886.46142321365, 13091.103803050972, -18354.090255986484, -7555.470771249626, 9247.609585238646, 12069.271453532154, -187500.02235174447, 14037.946049922235, -56315.80130050198, 0.186, 0.998, 0.11, 192.0, 0.0, 0.0, 0.0, 0.0, 0.0, 0.0, 0.0, 0.0, 0.0, 1.6959356747109337E9, 0.0, 2023-09-28 16:14:34.710
28.0, 10083.073089489113, 22193.739973752497, 26619.094803225376, -6579.1465734418125, 30751.507669867002, 31314.771630140738, -187500.02235174447, 48518.03761935683, 13140.612917019478, -18362.00277352366, -7558.152980584262, 9202.01202654982, 12068.600901198495, -187500.02235174447, 13988.168715020265, -56336.72253331215, 0.186, 0.998, 0.11, 192.0, 0.0, 0.0, 0.0, 0.0, 0.0, 0.0, 0.0, 0.0, 0.0, 1.6959356747109473E9, 0.0, 2023-09-28 16:14:34.710
30.0, 10043.17522563639, 22148.58944995278, 27056.36198000455, -6503.910601605249, 30725.199666643104, 31462.136681334578, -187500.02235174447, 48913.3952752823, 13089.986215828207, -18334.644238310368, -7552.408582259248, 9264.507504046858, 12071.439572744319, -187500.02235174447, 14008.911133874792, -56344.00920200458, 0.186, 0.998, 0.11, 192.0, 0.0, 0.0, 0.0, 0.0, 0.0, 0.0, 0.0, 0.0, 0.0, 1.6959356747109792E9, 0.0, 2023-09-28 16:14:34.710
32.0, 10090.493868648276, 22225.568857856855, 26612.389279888783, -6586.388538645332, 30760.51542288249, 31309.183694026913, -187500.02235174447, 48522.41856127007, 13119.490518509212, -18348.167043705827, -7569.0382801339965, 9215.713645900923, 12028.971258279236, -187500.02235174447, 14042.483454046662, -56281.536076252, 0.186, 1.0, 0.106, 192.0, 2.5, 104.0, 15.5, 32.0, 1.5, 40.0, 0.0, 0.0, 0.0, 1.6959356747109923E9, 0.0, 2023-09-28 16:14:34.710
34.0, 10069.75144979375, 22189.91782545064, 27046.30369499966, -6474.495705902065, 30746.32206515337, 31486.254213601856, -187500.02235174447, 48892.38463549431, 13093.428384474324, -18288.510237754614, -7543.154960054751, 9287.59685606919, 12074.881741390436, -187500.02235174447, 13952.271813425043, -56404.98476087866, 0.186, 1.0, 0.106, 192.0, 0.0, 0.0, 0.0, 0.0, 0.0, 0.0, 0.0, 0.0, 0.0, 1.6959356747110047E9, 0.0, 2023-09-28 16:14:34.711
36.0, 10104.95544731086, 22249.30641046839, 26634.897486555277, -6581.091175209424, 30769.14319624224, 31311.977662083827, -187500.02235174447, 48529.72758170695, 13096.378814742426, -18307.062185652518, -7559.583492229402, 9234.891442643577, 12067.930348864837, -187500.02235174447, 14060.051925188534, -56268.88498889029, 0.186, 1.0, 0.106, 192.0, 0.0, 0.0, 0.0, 0.0, 0.0, 0.0, 0.0, 0.0, 0.0, 1.695935674711017E9, 0.0, 2023-09-28 16:14:34.711
38.0, 10060.631938055985, 22203.284168634913, 27042.235677508794, -6436.497740328043, 30757.27441993647, 31505.029678944313, -187500.02235174447, 48875.240847497094, 13081.11257327945, -18259.90000485182, -7532.403770971749, 9301.477289375936, 12061.873026117448, -187500.02235174447, 13924.019208433534, -56443.183892152774, 0.186, 1.0, 0.106, 192.0, 0.0, 0.0, 0.0, 0.0, 0.0, 0.0, 0.0, 0.0, 0.0, 1.6959356747110367E9, 0.0, 2023-09-28 16:14:34.711
40.0, 10089.063357003137, 22252.659172136686, 26671.107312572876, -6569.982358215137, 30768.025609019474, 31328.652063447484, -187500.02235174447, 48564.55159956832, 13081.067869790539, -18288.711403454712, -7545.345431011371, 9263.032288912807, 12031.89933680288, -187500.02235174447, 14090.74087032567, -56244.38747696728, 0.186, 1.0, 0.106, 192.0, 0.0, 0.0, 0.0, 0.0, 0.0, 0.0, 0.0, 0.0, 0.0, 1.695935674711062E9, 0.0, 2023-09-28 16:14:34.711
42.0, 10048.673754772397, 22216.739918797008, 27018.34166268607, -6421.924402943183, 30756.93914376964, 31519.111277951157, -187500.02235174447, 48857.65002461076, 13084.711204136755, -18236.877708062853, -7519.551517909947, 9318.576373884247, 12093.791317199626, -187500.02235174447, 13885.440097503675, -56492.961227054744, 0.188, 1.002, 0.106, 192.0, 2.5, 112.0, 15.5, 40.0, 1.5, 40.0, 0.0, 0.0, 0.0, 1.6959356747110887E9, 0.0, 2023-09-28 16:14:34.711
44.0, 10088.57161862512, 22255.006105304492, 26708.635891513335, -6579.392442630821, 30756.022722246973, 31332.11658383806, -187500.02235174447, 48606.55052739984, 13071.076640019017, -18286.163304586807, -7550.888663636287, 9271.436544828004, 12050.831264356526, -187500.02235174447, 14126.883641109902, -56218.727674332586, 0.188, 1.002, 0.106, 192.0, 0.0, 0.0, 0.0, 0.0, 0.0, 0.0, 0.0, 0.0, 0.0, 1.6959356747111084E9, 0.0, 2023-09-28 16:14:34.711
46.0, 10066.331632892088, 22212.67190130614, 26980.38840060096, -6420.560946531409, 30753.608733845802, 31509.991766213392, -187500.02235174447, 48831.87846325379, 13096.155297297872, -18248.6570773908, -7517.159881253229, 9301.879620776132, 12091.332625309542, -187500.02235174447, 13865.211768771622, -56517.3916837444, 0.188, 1.002, 0.106, 192.0, 0.0, 0.0, 0.0, 0.0, 0.0, 0.0, 0.0, 0.0, 0.0, 1.6959356747111273E9, 0.0, 2023-09-28 16:14:34.711
48.0, 10092.61728437153, 22261.82338736336, 26757.63091535937, -6579.973587986659, 30753.787547801443, 31329.81435415916, -187500.02235174447, 48668.643673496685, 13056.302136934059, -18282.25174930713, -7551.6039194588575, 9268.575521537725, 12054.787523125116, -187500.02235174447, 14161.46178978226, -56184.84242973834, 0.188, 1.002, 0.106, 192.0, 0.0, 0.0, 0.0, 0.0, 0.0, 0.0, 0.0, 0.0, 0.0, 1.6959356747111475E9, 0.0, 2023-09-28 16:14:34.711
50.0, 10085.867057546027, 22223.19957294459, 26920.932760349842, -6423.489025055054, 30765.209289218106, 31493.60793752765, -187500.02235174447, 48780.93883764015, 13110.594524216, -18239.448158675215, -7511.929573050687, 9309.099234235196, 12078.234503058733, -187500.02235174447, 13846.369248195799, -56531.24976530669, 0.188, 1.002, 0.106, 192.0, 0.0, 0.0, 0.0, 0.0, 0.0, 0.0, 0.0, 0.0, 0.0, 1.6959356747111669E9, 0.0, 2023-09-28 16:14:34.711
52.0, 10106.229496744812, 22245.17133774416, 26802.960253114732, -6584.600399088908, 30744.019835474475, 31344.38769154402, -187500.02235174447, 48703.02065646895, 13057.218558456727, -18281.29062429555, -7564.456172520659, 9276.488039074902, 12036.682610116317, -187500.02235174447, 14163.808722950069, -56181.71318551459, 0.184, 1.006, 0.106, 192.0, 2.5, 96.0, 15.5, 56.0, 1.5, 40.0, 0.0, 0.0, 0.0, 1.6959356747111883E9, 0.0, 2023-09-28 16:14:34.711
54.0, 10075.4287928854, 22228.631046847233, 26871.267184170152, -6432.250908881535, 30755.12865246876, 31487.550614780263, -187500.02235174447, 48733.59784288381, 13112.963809128263, -18255.496711194126, -7517.718674864612, 9305.120623722152, 12083.285997305633, -187500.02235174447, 13829.538384620952, -56545.10784686898, 0.184, 1.006, 0.106, 192.0, 0.0, 0.0, 0.0, 0.0, 0.0, 0.0, 0.0, 0.0, 0.0, 1.695935674711208E9, 0.0, 2023-09-28 16:14:34.711
56.0, 10081.128487721502, 22242.48912840952, 26866.21568992325, -6577.291378652022, 30728.84300098932, 31366.761787743784, -187500.02235174447, 48767.32662526687, 13041.304116404548, -18283.436391763258, -7570.267626079039, 9282.232437399916, 12048.037296299613, -187500.02235174447, 14168.256720096675, -56182.62960703726, 0.184, 1.006, 0.106, 192.0, 0.0, 0.0, 0.0, 0.0, 0.0, 0.0, 0.0, 0.0, 0.0, 1.6959356747112255E9, 0.0, 2023-09-28 16:14:34.711
58.0, 10072.56776959512, 22244.97017204406, 26797.864055378923, -6461.129362717791, 30750.546544855424, 31462.47195750141, -187500.02235174447, 48679.48426955751, 13119.848146420498, -18254.557937927002, -7529.028657558997, 9288.848553758688, 12099.334549824544, -187500.02235174447, 13845.698695862138, -56523.2925442806, 0.184, 1.006, 0.106, 192.0, 0.0, 0.0, 0.0, 0.0, 0.0, 0.0, 0.0, 0.0, 0.0, 1.6959356747112443E9, 0.0, 2023-09-28 16:14:34.711
60.0, 10096.014749528737, 22237.482337651534, 26894.35653619248, -6557.845360975905, 30733.469812091567, 31398.858892781605, -187500.02235174447, 48795.73569246956, 13057.86675904593, -18274.09336258094, -7555.806047416455, 9292.044853215797, 12065.806933141583, -187500.02235174447, 14135.13143481391, -56216.2689824425, 0.184, 1.006, 0.106, 192.0, 0.0, 0.0, 0.0, 0.0, 0.0, 0.0, 0.0, 0.0, 0.0, 1.6959356747112653E9, 0.0, 2023-09-28 16:14:34.711
62.0, 10088.37045292502, 22238.97990453004, 26739.973037239677, -6469.712432588629, 30754.61456234629, 31449.239724783867, -187500.02235174447, 48633.43967597958, 13120.496347009701, -18249.7076093802, -7527.44168370267, 9285.451088601481, 12097.501706779207, -187500.02235174447, 13844.178777239178, -56518.95630585627, 0.184, 1.0, 0.108, 192.0, 2.5, 96.0, 15.5, 32.0, 1.5, 48.0, 0.0, 0.0, 0.0, 1.695935674711286E9, 0.0, 2023-09-28 16:14:34.711
64.0, 10069.840856771572, 22241.21507897557, 26956.404978800416, -6538.8240264444385, 30726.496067821514, 31422.37292794859, -187500.02235174447, 48854.56548387593, 13040.767674537621, -18277.982566116163, -7567.987748144597, 9290.88256250412, 12048.998421311191, -187500.02235174447, 14118.32292298352, -56234.53035766249, 0.184, 1.0, 0.108, 192.0, 0.0, 0.0, 0.0, 0.0, 0.0, 0.0, 0.0, 0.0, 0.0, 1.6959356747113085E9, 0.0, 2023-09-28 16:14:34.711
66.0, 10100.753319353262, 22246.758311600486, 26692.453228527695, -6488.376139208811, 30763.42114966168, 31411.040593509748, -187500.02235174447, 48604.38240818768, 13110.818041660554, -18257.32955423946, -7529.676858148201, 9281.40542285507, 12042.471711930242, -187500.02235174447, 13891.855048162348, -56462.071116217514, 0.184, 1.0, 0.108, 192.0, 0.0, 0.0, 0.0, 0.0, 0.0, 0.0, 0.0, 0.0, 0.0, 1.6959356747113311E9, 0.0, 2023-09-28 16:14:34.711
68.0, 10105.3354269666, 22232.38613991572, 26996.705174053335, -6521.322610535934, 30737.001387715507, 31439.092032801156, -187500.02235174447, 48895.31271401796, 13054.379886910903, -18274.361583514405, -7555.426067760714, 9307.109928978674, 12077.29572979161, -187500.02235174447, 14096.529972139595, -56262.55944520944, 0.184, 1.0, 0.108, 192.0, 0.0, 0.0, 0.0, 0.0, 0.0, 0.0, 0.0, 0.0, 0.0, 1.6959356747113523E9, 0.0, 2023-09-28 16:14:34.711
70.0, 10089.018653514226, 22257.777721616952, 26669.34152476091, -6513.633610443308, 30760.13544322675, 31383.570299574174, -187500.02235174447, 48594.61469586071, 13110.795689916098, -18276.52970272657, -7527.978125569597, 9273.917588462542, 12096.294712578621, -187500.02235174447, 13933.09401668239, -56420.78744420856, 0.184, 1.0, 0.108, 192.0, 0.0, 0.0, 0.0, 0.0, 0.0, 0.0, 0.0, 0.0, 0.0, 1.6959356747113693E9, 0.0, 2023-09-28 16:14:34.711
72.0, 10080.167362709924, 22234.777776572442, 27043.107395542553, -6496.176898023713, 30741.56114358439, 31462.449605756952, -187500.02235174447, 48944.06186867498, 13048.859006030441, -18265.7114584102, -7544.92074786672, 9301.991379498408, 12077.921578636358, -187500.02235174447, 14084.035346989078, -56279.50206750656, 0.18, 0.992, 0.106, 192.0, 2.5, 80.0, 15.5, 0.0, 1.5, 40.0, 0.0, 0.0, 0.0, 1.6959356747113857E9, 0.0, 2023-09-28 16:14:34.711
74.0, 10089.398633169965, 22257.598907661308, 26629.957751030655, -6533.549014752986, 30757.162661214195, 31354.244810848813, -187500.02235174447, 48565.13274492416, 13118.082358608528, -18264.52681595407, -7531.39794247126, 9272.151800650574, 12073.987671612225, -187500.02235174447, 13985.330043474441, -56364.416344692276, 0.18, 0.992, 0.106, 192.0, 0.0, 0.0, 0.0, 0.0, 0.0, 0.0, 0.0, 0.0, 0.0, 1.6959356747114038E9, 0.0, 2023-09-28 16:14:34.711
76.0, 10064.521141591209, 22210.30261639388, 27045.20845952135, -6488.554953164453, 30720.058765418384, 31476.84412918617, -187500.02235174447, 48935.59055752642, 13047.71906706322, -18267.03021133306, -7564.277358565017, 9300.292646919805, 12060.531921450129, -187500.02235174447, 14044.740980236647, -56322.66328604976, 0.18, 0.992, 0.106, 192.0, 0.0, 0.0, 0.0, 0.0, 0.0, 0.0, 0.0, 0.0, 0.0, 1.6959356747114208E9, 0.0, 2023-09-28 16:14:34.711
78.0, 10102.362644954044, 22265.913756598682, 26611.383451388294, -6554.246730118601, 30749.026626232462, 31354.44597654891, -187500.02235174447, 48547.206645871, 13115.02016961815, -18278.250787049627, -7546.597128700868, 9273.112925662152, 12064.868159874459, -187500.02235174447, 14014.29790428852, -56324.80905351747, 0.18, 0.992, 0.106, 192.0, 0.0, 0.0, 0.0, 0.0, 0.0, 0.0, 0.0, 0.0, 0.0, 1.695935674711452E9, 0.0, 2023-09-28 16:14:34.711
80.0, 10058.262653143724, 22221.478488621535, 27047.845965367076, -6476.1273832473025, 30723.567989297866, 31503.75562951036, -187500.02235174447, 48935.05411565949, 13070.607253385455, -18266.829045632967, -7549.838131646888, 9304.919458022054, 12071.014889599668, -187500.02235174447, 13995.835363368436, -56369.75841161709, 0.18, 0.992, 0.106, 192.0, 0.0, 0.0, 0.0, 0.0, 0.0, 0.0, 0.0, 0.0, 0.0, 1.6959356747114768E9, 0.0, 2023-09-28 16:14:34.711
82.0, 10113.024427059225, 22268.59596593332, 26597.301852381454, -6570.58585531543, 30757.833213547852, 31343.180697343436, -187500.02235174447, 48531.8062939413, 13105.341864269003, -18287.77263018759, -7547.535901967991, 9264.395745324582, 12051.635927156918, -187500.02235174447, 14062.622375800895, -56270.91899763572, 0.202, 0.984, 0.10400000000000001, 192.0, 3.0, 40.0, 15.0, 96.0, 1.5, 32.0, 0.0, 0.0, 0.0, 1.6959356747114944E9, 0.0, 2023-09-28 16:14:34.711
84.0, 10093.310188449645, 22206.77104076994, 27027.43882267938, -6445.214920665613, 30740.220038917072, 31523.134591953112, -187500.02235174447, 48900.56537396496, 13097.518753709646, -18246.600716900914, -7522.39018945577, 9324.007847786886, 12110.555125541106, -187500.02235174447, 13918.61008627535, -56447.542482321565, 0.202, 0.984, 0.10400000000000001, 192.0, 0.0, 0.0, 0.0, 0.0, 0.0, 0.0, 0.0, 0.0, 0.0, 1.6959356747115116E9, 0.0, 2023-09-28 16:14:34.711
86.0, 10113.940848581893, 22254.69318088212, 26625.50975388405, -6590.724777069661, 30753.921658268173, 31331.937769882414, -187500.02235174447, 48555.90147446412, 13096.512925209157, -18300.71429022721, -7545.25602403355, 9260.484190044903, 12079.262683303677, -187500.02235174447, 14071.808942772024, -56264.25817778805, 0.202, 0.984, 0.10400000000000001, 192.0, 0.0, 0.0, 0.0, 0.0, 0.0, 0.0, 0.0, 0.0, 0.0, 1.6959356747115293E9, 0.0, 2023-09-28 16:14:34.711
88.0, 10059.223778155301, 22215.59997982979, 27009.199799203852, -6446.176045677191, 30736.867277248777, 31518.37367038413, -187500.02235174447, 48889.3895017373, 13091.282617006615, -18246.7571791121, -7536.851768118355, 9304.405367899582, 12101.256799847699, -187500.02235174447, 13891.340958039877, -56480.44425015977, 0.202, 0.984, 0.10400000000000001, 192.0, 0.0, 0.0, 0.0, 0.0, 0.0, 0.0, 0.0, 0.0, 0.0, 1.695935674711546E9, 0.0, 2023-09-28 16:14:34.711
90.0, 10120.2887440072, 22270.965250845584, 26669.296821271997, -6601.721835341673, 30742.879896507253, 31325.321653523646, -187500.02235174447, 48605.5223471549, 13085.895846592886, -18294.94754015774, -7558.8235329179215, 9260.417134811538, 12060.1966452833, -187500.02235174447, 14126.74953064317, -56208.04354048295, 0.202, 0.984, 0.10400000000000001, 192.0, 0.0, 0.0, 0.0, 0.0, 0.0, 0.0, 0.0, 0.0, 0.0, 1.6959356747115664E9, 0.0, 2023-09-28 16:14:34.711
92.0, 10053.926414719394, 22213.409508873166, 26972.878214463977, -6451.093429457358, 30735.257951647993, 31510.75172552487, -187500.02235174447, 48854.029042009, 13100.156259555371, -18250.825196602964, -7536.248271018061, 9302.706635320978, 12069.226750043244, -187500.02235174447, 13865.971728083103, -56499.0856050355, 0.202, 0.98, 0.10200000000000001, 192.0, 3.0, 40.0, 15.0, 80.0, 1.5, 24.0, 0.0, 0.0, 0.0, 1.6959356747115843E9, 0.0, 2023-09-28 16:14:34.711
94.0, 10119.215860273345, 22255.58725066033, 26706.28895834553, -6602.995884775625, 30748.333722154348, 31331.53543848222, -187500.02235174447, 48632.165626545626, 13071.478971419212, -18299.015557648607, -7564.903207409765, 9262.83112321271, 12043.05285728608, -187500.02235174447, 14150.308269299063, -56177.60046453482, 0.202, 0.98, 0.10200000000000001, 192.0, 0.0, 0.0, 0.0, 0.0, 0.0, 0.0, 0.0, 0.0, 0.0, 1.695935674711604E9, 0.0, 2023-09-28 16:14:34.711
96.0, 10076.94871150836, 22220.53971535441, 26924.821963885068, -6440.386943863266, 30749.85364077731, 31508.29303363479, -187500.02235174447, 48793.14289011275, 13120.094015609506, -18243.024437788063, -7505.022884013997, 9310.976780769442, 12099.491012035729, -187500.02235174447, 13834.276954445477, -56531.24976530669, 0.202, 0.98, 0.10200000000000001, 192.0, 0.0, 0.0, 0.0, 0.0, 0.0, 0.0, 0.0, 0.0, 0.0, 1.6959356747116215E9, 0.0, 2023-09-28 16:14:34.711
98.0, 10108.598781657074, 22243.517308654467, 26766.459854419216, -6600.447785907721, 30739.03539646094, 31337.48100250733, -187500.02235174447, 48689.29668537339, 13068.863817317942, -18295.640444235854, -7563.472695764625, 9265.31216684725, 12048.48433118872, -187500.02235174447, 14149.503606498673, -56183.88130472676, 0.202, 0.98, 0.10200000000000001, 192.0, 0.0, 0.0, 0.0, 0.0, 0.0, 0.0, 0.0, 0.0, 0.0, 1.6959356747116392E9, 0.0, 2023-09-28 16:14:34.711
100.0, 10083.788345311683, 22216.53875309691, 26876.385733650415, -6455.831999281883, 30757.699103081122, 31481.56034726624, -187500.02235174447, 48759.74938389652, 13107.532335225624, -18272.75225791362, -7519.372703954305, 9283.081803689218, 12098.48518353524, -187500.02235174447, 13840.356628937321, -56519.604506445474, 0.202, 0.98, 0.10200000000000001, 192.0, 0.0, 0.0, 0.0, 0.0, 0.0, 0.0, 0.0, 0.0, 0.0, 1.695935674711656E9, 0.0, 2023-09-28 16:14:34.711
102.0, 10100.574505397619, 22252.16743375867, 26827.815392949033, -6591.037701492036, 30738.834230760844, 31352.613133503575, -187500.02235174447, 48744.68430813364, 13063.454695159757, -18285.13512434186, -7553.503817737558, 9274.208161140461, 12054.42989521383, -187500.02235174447, 14154.219824578742, -56177.57811279036, 0.192, 0.99, 0.1, 192.0, 3.0, 0.0, 15.0, 120.0, 1.5, 16.0, 0.0, 0.0, 0.0, 1.6959356747116752E9, 0.0, 2023-09-28 16:14:34.711
104.0, 10073.193618439867, 22217.365767641757, 26841.092329155486, -6457.709545816129, 30756.42505364717, 31463.053102857248, -187500.02235174447, 48745.60072965631, 13111.175669571838, -18268.572481700478, -7518.657448131735, 9285.495792090393, 12057.20151152629, -187500.02235174447, 13850.325506964387, -56500.314950980544, 0.192, 0.99, 0.1, 192.0, 0.0, 0.0, 0.0, 0.0, 0.0, 0.0, 0.0, 0.0, 0.0, 1.695935674711696E9, 0.0, 2023-09-28 16:14:34.711
106.0, 10077.172228952913, 22230.77681431494, 26894.37888793694, -6583.393404888321, 30741.18116392865, 31367.11941565507, -187500.02235174447, 48823.76478001652, 13035.179738423794, -18320.584991047977, -7564.456172520659, 9263.635786013101, 12031.206432724766, -187500.02235174447, 14193.514191331173, -56129.96889710056, 0.192, 0.99, 0.1, 192.0, 0.0, 0.0, 0.0, 0.0, 0.0, 0.0, 0.0, 0.0, 0.0, 1.6959356751898568E9, 0.0, 2023-09-28 16:14:35.189
108.0, 10090.04683375917, 22232.96728527156, 26764.805825329524, -6471.768793078518, 30772.831234077363, 31443.36121599212, -187500.02235174447, 48676.60089452278, 13118.171765586349, -18265.465589221192, -7517.293991719961, 9280.64546354359, 12091.556142754096, -187500.02235174447, 13876.946434610658, -56457.824284771006, 0.192, 0.99, 0.1, 192.0, 0.0, 0.0, 0.0, 0.0, 0.0, 0.0, 0.0, 0.0, 0.0, 1.6959356751898794E9, 0.0, 2023-09-28 16:14:35.189
110.0, 10088.593970369575, 22215.35411064078, 26942.8598216605, -6568.842419247916, 30740.532963339447, 31391.773389789272, -187500.02235174447, 48855.303091442955, 13043.762808294632, -18296.6686244808, -7556.074268349918, 9281.852457744177, 12051.881796345926, -187500.02235174447, 14157.416124035852, -56164.39058356173, 0.192, 0.99, 0.1, 192.0, 0.0, 0.0, 0.0, 0.0, 0.0, 0.0, 0.0, 0.0, 0.0, 1.695935675189892E9, 0.0, 2023-09-28 16:14:35.189
112.0, 10095.14303149498, 22236.25299170649, 26720.459964330195, -6493.025302055515, 30782.129559770772, 31410.88413129856, -187500.02235174447, 48624.051943308354, 13109.40988175987, -18276.306185282014, -7522.099616777852, 9272.531780306314, 12084.381232783942, -187500.02235174447, 13901.75687095605, -56426.755359978124, 0.18, 1.0, 0.106, 192.0, 2.5, 80.0, 15.5, 32.0, 1.5, 40.0, 0.0, 0.0, 0.0, 1.6959356751899033E9, 0.0, 2023-09-28 16:14:35.189
114.0, 10112.33152298111, 22235.78360507293, 26977.01328718821, -6546.825950959439, 30739.258913905494, 31409.855951053614, -187500.02235174447, 48869.8317253389, 13033.883337245386, -18289.493714510645, -7561.192817830184, 9280.466649587948, 12025.99847626668, -187500.02235174447, 14139.378266260419, -56183.94835996012, 0.18, 1.0, 0.106, 192.0, 0.0, 0.0, 0.0, 0.0, 0.0, 0.0, 0.0, 0.0, 0.0, 1.6959356751899145E9, 0.0, 2023-09-28 16:14:35.189
116.0, 10114.387883471, 22268.12657929976, 26655.32698098743, -6502.994180082582, 30786.510501684013, 31386.900709498015, -187500.02235174447, 48546.17846562606, 13122.865631921964, -18274.786266659055, -7517.62926788679, 9275.728079763423, 12087.957511896791, -187500.02235174447, 13903.902638423759, -56417.054702884525, 0.18, 1.0, 0.106, 192.0, 0.0, 0.0, 0.0, 0.0, 0.0, 0.0, 0.0, 0.0, 0.0, 1.6959356751899266E9, 0.0, 2023-09-28 16:14:35.189
118.0, 10067.806848026139, 22216.15877344117, 27029.562238402636, -6518.662752945752, 30739.75065228351, 31445.171707293, -187500.02235174447, 48891.445862227185, 13060.839541058487, -18270.9641183572, -7543.378477499304, 9309.635676102123, 12072.490104733719, -187500.02235174447, 14072.278329405586, -56266.78392491149, 0.18, 1.0, 0.106, 192.0, 0.0, 0.0, 0.0, 0.0, 0.0, 0.0, 0.0, 0.0, 0.0, 1.6959356751899424E9, 0.0, 2023-09-28 16:14:35.189
120.0, 10106.76593861174, 22253.463834937076, 26641.80417559197, -6527.089360605402, 30771.445425921134, 31368.3040581112, -187500.02235174447, 48539.20472135601, 13117.031826619128, -18283.05641210752, -7528.022829058508, 9276.912722219555, 12077.742764680715, -187500.02235174447, 13954.954022759679, -56377.268597754075, 0.18, 1.0, 0.106, 192.0, 0.0, 0.0, 0.0, 0.0, 0.0, 0.0, 0.0, 0.0, 0.0, 1.6959356751899545E9, 0.0, 2023-09-28 16:14:35.189
122.0, 10088.929246536403, 22217.611636830767, 27045.58843917709, -6493.293522988978, 30741.739957540034, 31471.993800639368, -187500.02235174447, 48898.4419582417, 13066.494532405679, -18265.42088573228, -7536.740009396078, 9312.697865092501, 12079.352090281498, -187500.02235174447, 14041.321163334986, -56315.2425068906, 0.17, 1.0, 0.11, 192.0, 2.5, 40.0, 15.5, 32.0, 1.5, 56.0, 0.0, 0.0, 0.0, 1.6959356751899655E9, 0.0, 2023-09-28 16:14:35.189
124.0, 10112.063302047647, 22256.906003583194, 26629.376605674817, -6548.502331793587, 30770.864280565296, 31359.20689811789, -187500.02235174447, 48528.09590436172, 13104.984236357717, -18281.111810339906, -7545.948928111664, 9262.987585423898, 12072.266587289167, -187500.02235174447, 13990.515648188073, -56355.40859167679, 0.17, 1.0, 0.11, 192.0, 0.0, 0.0, 0.0, 0.0, 0.0, 0.0, 0.0, 0.0, 0.0, 1.6959356751899767E9, 0.0, 2023-09-28 16:14:35.189
126.0, 10080.636749343485, 22200.221979644535, 27062.575764963123, -6479.480144915598, 30737.202553415606, 31492.42329507152, -187500.02235174447, 48910.86952815885, 13064.237006215693, -18261.03994381904, -7538.7516663970555, 9313.234306959428, 12076.96045362478, -187500.02235174447, 13994.494258701117, -56377.1568390318, 0.17, 1.0, 0.11, 192.0, 0.0, 0.0, 0.0, 0.0, 0.0, 0.0, 0.0, 0.0, 0.0, 1.6959356751899877E9, 0.0, 2023-09-28 16:14:35.189
128.0, 10103.435528687898, 22257.241279750026, 26620.346500914875, -6570.518800082064, 30770.283135209458, 31334.172944327947, -187500.02235174447, 48524.497273504414, 13094.724785652732, -18287.794981932042, -7544.630175188801, 9262.138219134597, 12062.185950539822, -187500.02235174447, 14029.11711086239, -56321.903326738284, 0.17, 1.0, 0.11, 192.0, 0.0, 0.0, 0.0, 0.0, 0.0, 0.0, 0.0, 0.0, 0.0, 1.6959356751899981E9, 0.0, 2023-09-28 16:14:35.189
130.0, 10064.498789846753, 22189.314328350345, 27064.989753364298, -6476.3061972029445, 30737.09079469333, 31495.239614872888, -187500.02235174447, 48930.20378711269, 13056.100971233962, -18282.631728962868, -7541.389172242782, 9295.08469046172, 12067.907997120381, -187500.02235174447, 13961.391325162807, -56423.84963319894, 0.17, 1.0, 0.11, 192.0, 0.0, 0.0, 0.0, 0.0, 0.0, 0.0, 0.0, 0.0, 0.0, 1.6959356751900105E9, 0.0, 2023-09-28 16:14:35.190
132.0, 10127.486005721808, 22268.93124210015, 26623.989835261087, -6590.411852647288, 30772.22773697707, 31321.47715347733, -187500.02235174447, 48554.44861107453, 13083.705375636266, -18289.985452888664, -7556.700117194667, 9247.810750938745, 12040.549461907085, -187500.02235174447, 14094.764184327625, -56252.43410497119, 0.17400000000000002, 1.002, 0.106, 192.0, 2.5, 56.0, 15.5, 40.0, 1.5, 40.0, 0.0, 0.0, 0.0, 1.695935675190026E9, 0.0, 2023-09-28 16:14:35.190
134.0, 10068.544455593164, 22197.651529032177, 27036.357168717048, -6462.582226107386, 30735.36971037027, 31508.76242026835, -187500.02235174447, 48909.32725779143, 13072.708317364255, -18242.80092034351, -7530.548576181958, 9307.914591779065, 12083.353052538998, -187500.02235174447, 13924.75681600056, -56458.718354549215, 0.17400000000000002, 1.002, 0.106, 192.0, 0.0, 0.0, 0.0, 0.0, 0.0, 0.0, 0.0, 0.0, 0.0, 1.6959356751900375E9, 0.0, 2023-09-28 16:14:35.190
136.0, 10118.366493984044, 22247.853547078794, 26666.771074148546, -6599.888992296338, 30755.396873402224, 31317.409135986465, -187500.02235174447, 48601.119053497205, 13080.509076179156, -18295.327519813483, -7564.702041709667, 9249.64359398408, 12020.61170585295, -187500.02235174447, 14135.019676091633, -56202.45560436912, 0.17400000000000002, 1.002, 0.106, 192.0, 0.0, 0.0, 0.0, 0.0, 0.0, 0.0, 0.0, 0.0, 0.0, 1.6959356751900496E9, 0.0, 2023-09-28 16:14:35.190
138.0, 10059.112019433025, 22200.512552322456, 27012.261988194226, -6447.673612555696, 30750.03245473295, 31504.314423121745, -187500.02235174447, 48885.947333091186, 13090.947340839784, -18253.84268210443, -7518.5009859205475, 9305.053568488785, 12089.075099119556, -187500.02235174447, 13909.401167559763, -56454.04683995806, 0.17400000000000002, 1.002, 0.106, 192.0, 0.0, 0.0, 0.0, 0.0, 0.0, 0.0, 0.0, 0.0, 0.0, 1.6959356751900609E9, 0.0, 2023-09-28 16:14:35.190
140.0, 10119.707598651363, 22271.2558235235, 26700.85748444289, -6600.693655096728, 30754.055768734906, 31317.498542964287, -187500.02235174447, 48625.37069623121, 13072.06011677505, -18294.120525612896, -7548.720544424123, 9259.232492355406, 12034.916822304347, -187500.02235174447, 14157.684344969315, -56167.51982778547, 0.17400000000000002, 1.002, 0.106, 192.0, 0.0, 0.0, 0.0, 0.0, 0.0, 0.0, 0.0, 0.0, 0.0, 1.6959356751900728E9, 0.0, 2023-09-28 16:14:35.190
142.0, 10084.593008112075, 22217.45517461958, 26961.8141009586, -6440.453999096632, 30756.715626325087, 31504.113257421646, -187500.02235174447, 48831.81140802043, 13099.418651988346, -18254.177958271262, -7513.24832597355, 9301.499641120392, 12079.48620074823, -187500.02235174447, 13876.812324143926, -56476.73386058019, 0.176, 1.012, 0.1, 192.0, 2.5, 64.0, 15.5, 80.0, 1.5, 16.0, 0.0, 0.0, 0.0, 1.695935675190085E9, 0.0, 2023-09-28 16:14:35.190
144.0, 10107.972932812327, 22246.490090667023, 26743.72813030817, -6596.893858539326, 30764.42697816217, 31331.334272782122, -187500.02235174447, 48654.71853670103, 13078.005680800163, -18291.080688366972, -7541.903262365254, 9272.59883553968, 12056.933290592826, -187500.02235174447, 14164.9933654062, -56155.15931310169, 0.176, 1.012, 0.1, 192.0, 0.0, 0.0, 0.0, 0.0, 0.0, 0.0, 0.0, 0.0, 0.0, 1.6959356751900992E9, 0.0, 2023-09-28 16:14:35.190
