%OpenBCI Raw EXG Data
%Number of channels = 16
%Sample Rate = 125 Hz
%Board = OpenBCI_GUI$BoardCytonSerialDaisy
Sample Index, EXG Channel 0, EXG Channel 1, EXG Channel 2, EXG Channel 3, EXG Channel 4, EXG Channel 5, EXG Channel 6, EXG Channel 7, EXG Channel 8, EXG Channel 9, EXG Channel 10, EXG Channel 11, EXG Channel 12, EXG Channel 13, EXG Channel 14, EXG Channel 15, Accel Channel 0, Accel Channel 1, Accel Channel 2, Other, Other, Other, Other, Other, Other, Other, Analog Channel 0, Analog Channel 1, Analog Channel 2, Timestamp, Other, Timestamp (Formatted)
12.0, 43877.860173924, 25720.08528948847, -8693.286322747032, -15821.123519077722, -21958.26434591584, -16368.33892683255, -187500.02235174447, -31879.98019218209, 32661.62069578418, 20388.054297930517, -18884.966538544482, -168.93448459321078, -11236.624269083057, -26632.818774320935, -14684.246740847439, -27135.151879209505, 0.0, 0.0, 0.0, 192.0, 0.0, 0.0, 0.0, 0.0, 0.0, 0.0, 0.0, 0.0, 0.0, 1.695325186961933E9, 0.0, 2023-09-21 14:39:46.961
14.0, 43898.110854400504, 25737.653760630343, -8678.690633617716, -15800.246989756464, -21935.19734563796, -16358.839435439044, -187500.02235174447, -31859.52834600548, 32664.32525686327, 20388.478981075168, -18884.273634466368, -150.606054139859, -11234.120873704062, -26645.358102960363, -14683.173857113583, -27135.37539665406, 0.0, 0.0, 0.0, 192.0, 0.0, 0.0, 0.0, 0.0, 0.0, 0.0, 0.0, 0.0, 0.0, 1.69532518696194E9, 0.0, 2023-09-21 14:39:46.961
16.0, 43896.076845655065, 25728.064862259016, -8680.881104574335, -15804.538524691883, -21944.87565098711, -16360.47111278428, -187500.02235174447, -31866.1221106198, 32675.769350024388, 20407.969702240196, -18872.53896862733, -178.52338296453752, -11225.761321277776, -26620.055928236954, -14666.410048772104, -27123.84189651512, 0.0, 0.0, 0.0, 192.0, 0.0, 0.0, 0.0, 0.0, 0.0, 0.0, 0.0, 0.0, 0.0, 1.695325186961943E9, 0.0, 2023-09-21 14:39:46.961
18.0, 43906.783331249164, 25734.993903040162, -8676.85779057238, -15793.40735595314, -21930.078796157693, -16344.646077709924, -187500.02235174447, -31858.902497160736, 32670.248469143924, 20403.23113241567, -18880.071506508768, -139.96662377913282, -11226.901260244997, -26623.74396607208, -14672.221502330483, -27129.6533500735, 0.194, 0.998, 0.112, 192.0, 3.0, 8.0, 15.5, 24.0, 1.5, 64.0, 0.0, 0.0, 0.0, 1.695325186961947E9, 0.0, 2023-09-21 14:39:46.961
20.0, 43895.71921774378, 25718.744184821153, -8682.15515400829, -15807.220734026521, -21942.707531774944, -16356.313688315595, -187500.02235174447, -31860.0200843835, 32675.74699827993, 20407.343853395447, -18875.39999191761, -182.36788301085033, -11217.424120595948, -26616.233779935097, -14663.660784204101, -27119.997396468807, 0.194, 0.998, 0.112, 192.0, 0.0, 0.0, 0.0, 0.0, 0.0, 0.0, 0.0, 0.0, 0.0, 1.69532518696195E9, 0.0, 2023-09-21 14:39:46.961
22.0, 43894.44516830983, 25719.794716810553, -8692.146383779811, -15811.579324195305, -21937.276057872303, -16356.71601971579, -187500.02235174447, -31861.472947773094, 32667.230983642457, 20393.016385199593, -18889.01220429089, -127.62846083980332, -11228.242364912316, -26623.185172460697, -14674.255511075917, -27132.089690219127, 0.194, 0.998, 0.112, 192.0, 0.0, 0.0, 0.0, 0.0, 0.0, 0.0, 0.0, 0.0, 0.0, 1.695325186961953E9, 0.0, 2023-09-21 14:39:46.961
24.0, 43881.65997048139, 25703.187370680258, -8701.511764706584, -15828.499594747973, -21953.414017369036, -16371.490522800748, -187500.02235174447, -31881.902442205246, 32660.458405072503, 20384.299204862025, -18897.796439861828, -183.99956035608773, -11237.495987116812, -26644.0393500375, -14680.782220456866, -27143.33261768015, 0.194, 0.998, 0.112, 192.0, 0.0, 0.0, 0.0, 0.0, 0.0, 0.0, 0.0, 0.0, 0.0, 1.695325186961956E9, 0.0, 2023-09-21 14:39:46.961
26.0, 43875.62499947846, 25699.5663880785, -8714.565183468483, -15832.791129683392, -21959.046656971772, -16380.162999649407, -187500.02235174447, -31886.573956796405, 32637.79373619482, 20358.684105716242, -18921.109309328713, -115.75968453403527, -11256.383211181548, -26662.054856068477, -14705.86087773572, -27167.070170291685, 0.194, 0.998, 0.112, 192.0, 0.0, 0.0, 0.0, 0.0, 0.0, 0.0, 0.0, 0.0, 0.0, 1.69532518696196E9, 0.0, 2023-09-21 14:39:46.961
28.0, 43890.846537452526, 25711.569274850997, -8693.643950658316, -15820.028283599411, -21945.747369020864, -16376.474961814281, -187500.02235174447, -31881.74597999406, 32649.12607063366, 20370.731695977654, -18910.089899312246, -188.0452261024983, -11252.51635939078, -26646.810966349956, -14695.176743886084, -27154.128510252063, 0.196, 0.996, 0.112, 192.0, 3.0, 16.0, 15.5, 16.0, 1.5, 64.0, 0.0, 0.0, 0.0, 1.695325186961963E9, 0.0, 2023-09-21 14:39:46.961
0.0, 21826.7019780519, 12846.531015221002, -3863.8343052666555, -7733.524767580601, -10917.106082094442, -8087.308178819201, -93750.01117587223, -15895.778345558447, 16332.464376981781, 10189.512096585286, -9448.082381258295, -59.701509440125164, -5616.211070562729, -13318.309285439169, -7338.50238782196, -13572.113343729181, 0.159, 0.999, 0.111, 192.0, 1.5, 104.0, 15.5, 40.0, 1.5, 56.0, 0.0, 0.0, 0.0, 1.695325187132848E9, 0.0, 2023-09-21 14:39:47.132
2.0, 43643.81505773247, 25683.674297770776, -7731.535462324079, -15480.594692301118, -21848.94196378493, -16193.369471236405, -187500.02235174447, -31807.269967468976, 31847.480755744073, 20363.84735868542, -18881.03263152035, -1690.6188953660603, -11329.942802183963, -26666.70401891518, -14132.22570803472, -27043.01798856473, 0.159, 0.999, 0.111, 192.0, 0.0, 0.0, 0.0, 0.0, 0.0, 0.0, 0.0, 0.0, 0.0, 1.695325187132862E9, 0.0, 2023-09-21 14:39:47.132
4.0, 43646.050232178, 25684.54601580453, -7737.503378093646, -15476.325509110155, -21850.216013218884, -16197.795116638556, -187500.02235174447, -31810.309804714896, 31830.53813344695, 20347.396474766312, -18897.148239272625, -1651.6151012915495, -11343.711476768432, -26697.191798352218, -14145.435589007806, -27061.16760506244, 0.159, 0.999, 0.111, 192.0, 0.0, 0.0, 0.0, 0.0, 0.0, 0.0, 0.0, 0.0, 0.0, 1.695325187132865E9, 0.0, 2023-09-21 14:39:47.132
6.0, 43660.22123816267, 25699.052297956026, -7725.746360510155, -15462.109799636579, -21839.107196224595, -16190.955482835232, -187500.02235174447, -31802.352583688807, 31843.837421397857, 20363.288565074035, -18881.524369898365, -1675.2855986697195, -11338.637630777077, -26678.103408587387, -14139.110045326954, -27045.25316301026, 0.159, 0.999, 0.111, 192.0, 0.0, 0.0, 0.0, 0.0, 0.0, 0.0, 0.0, 0.0, 0.0, 1.695325187132868E9, 0.0, 2023-09-21 14:39:47.132
8.0, 43657.80724976149, 25696.437143854757, -7724.025276187096, -15463.942642681915, -21843.354027671103, -16194.844686370456, -187500.02235174447, -31805.30301395691, 31849.31359878941, 20367.289527331537, -18876.785800073838, -1656.37602286053, -11329.138139383573, -26670.772036406048, -14129.61055393345, -27043.465023453835, 0.082, 1.0, 0.114, 192.0, 1.0, 72.0, 15.5, 32.0, 1.5, 72.0, 0.0, 0.0, 0.0, 1.695325187132871E9, 0.0, 2023-09-21 14:39:47.132
10.0, 43653.582770059445, 25695.27485314308, -7725.344029109959, -15465.417857815964, -21843.354027671103, -16192.765974136111, -187500.02235174447, -31805.01244127899, 31845.625560954282, 20365.79196045303, -18879.73623034194, -1658.342976372597, -11330.05456090624, -26672.8954521293, -14130.12464405592, -27043.085043798095, 0.082, 1.0, 0.114, 192.0, 0.0, 0.0, 0.0, 0.0, 0.0, 0.0, 0.0, 0.0, 0.0, 1.695325187132874E9, 0.0, 2023-09-21 14:39:47.132
12.0, 43655.63913054933, 25695.163094420805, -7729.747322767655, -15474.649128276007, -21846.03623700574, -16196.006977082132, -187500.02235174447, -31814.53428441695, 31843.658607442216, 20360.382838294845, -18883.625433877165, -1653.5149995702507, -11330.076912650695, -26680.18212082173, -14132.806853390557, -27050.304657257162, 0.082, 1.0, 0.114, 192.0, 0.0, 0.0, 0.0, 0.0, 0.0, 0.0, 0.0, 0.0, 0.0, 1.695325187132878E9, 0.0, 2023-09-21 14:39:47.132
14.0, 43666.6585405658, 25711.748088806642, -7721.924212208297, -15461.3498403251, -21832.625190332557, -16190.508447946126, -187500.02235174447, -31802.889025555734, 31853.091043602355, 20371.201082611213, -18876.718744840473, -1662.3215868856416, -11323.863127692119, -26672.98485910712, -14135.779635403114, -27050.77404389072, 0.082, 1.0, 0.114, 192.0, 0.0, 0.0, 0.0, 0.0, 0.0, 0.0, 0.0, 0.0, 0.0, 1.695325187132881E9, 0.0, 2023-09-21 14:39:47.132
16.0, 43660.914142240785, 25701.153361934827, -7730.350819867947, -15473.240968375323, -21849.545460885223, -16197.929227105287, -187500.02235174447, -31808.81223783639, 31851.660531957215, 20370.061143643994, -18880.429134420054, -1669.3623863890632, -11327.461758549423, -26674.32596377444, -14137.925402870824, -27051.042264824184, 0.082, 1.0, 0.114, 192.0, 0.0, 0.0, 0.0, 0.0, 0.0, 0.0, 0.0, 0.0, 0.0, 1.695325187192974E9, 0.0, 2023-09-21 14:39:47.192
18.0, 43654.4544880932, 25693.777286264576, -7742.0854857069835, -15482.963977213381, -21853.121739998074, -16209.440375499771, -187500.02235174447, -31823.676147899172, 31849.73828193406, 20365.724905219664, -18885.704146111508, -1650.2739966242311, -11326.277116093293, -26681.65733595578, -14143.938022129301, -27058.373637005527, 0.064, 1.0, 0.122, 192.0, 1.0, 0.0, 15.5, 32.0, 1.5, 104.0, 0.0, 0.0, 0.0, 1.695325187192984E9, 0.0, 2023-09-21 14:39:47.192
20.0, 43646.40786008929, 25684.99305069364, -7752.747267812165, -15498.230218676355, -21869.61732740609, -16227.947619908766, -187500.02235174447, -31839.925866118178, 31837.131898061267, 20352.336210290934, -18897.997605561926, -1661.9863107188119, -11340.67163952251, -26696.968280907666, -14158.064324625055, -27073.371657535037, 0.064, 1.0, 0.122, 192.0, 0.0, 0.0, 0.0, 0.0, 0.0, 0.0, 0.0, 0.0, 0.0, 1.695325187192988E9, 0.0, 2023-09-21 14:39:47.192
22.0, 43646.40786008929, 25690.5139315741, -7751.160293955839, -15493.692814551929, -21863.403542447515, -16214.625980213403, -187500.02235174447, -31832.19216253664, 31828.77234563498, 20344.669561942766, -18910.26871326789, -1630.5821097591056, -11355.692011796476, -26707.071269401466, -14170.290728842108, -27085.039268140707, 0.064, 1.0, 0.122, 192.0, 0.0, 0.0, 0.0, 0.0, 0.0, 0.0, 0.0, 0.0, 0.0, 1.695325187192991E9, 0.0, 2023-09-21 14:39:47.192
24.0, 43661.29412189652, 25709.311748661014, -7729.903784978841, -15474.358555598088, -21851.42300741947, -16200.879657373389, -187500.02235174447, -31813.640214638737, 31836.260180027508, 20357.052428371004, -18897.572922417276, -1657.9406449724013, -11339.24112787737, -26686.75353369159, -14155.13624610141, -27069.482453999815, 0.064, 1.0, 0.122, 192.0, 0.0, 0.0, 0.0, 0.0, 0.0, 0.0, 0.0, 0.0, 0.0, 1.695325187192995E9, 0.0, 2023-09-21 14:39:47.192
26.0, 43676.135680214844, 25727.170792480803, -7721.320715108003, -15461.618061258563, -21840.85063229211, -16191.894256102356, -187500.02235174447, -31808.253444225007, 31861.718816962104, 20384.232149628657, -18872.49426513842, -1633.5548917716615, -11313.827194431686, -26660.557289189972, -14129.834071378002, -27042.30273274216, 0.064, 1.0, 0.122, 192.0, 0.0, 0.0, 0.0, 0.0, 0.0, 0.0, 0.0, 0.0, 0.0, 1.695325187192999E9, 0.0, 2023-09-21 14:39:47.192
28.0, 43681.36598841739, 25729.51772564861, -7715.397502827347, -15460.2993083357, -21836.89437352352, -16194.509410203626, -187500.02235174447, -31807.068801768877, 31860.44476752815, 20380.499408304622, -18875.176474473057, -1667.1272119435325, -11317.783453200276, -26671.487292228616, -14133.879737124413, -27048.516517700737, 0.06, 1.008, 0.124, 192.0, 0.5, 112.0, 15.5, 64.0, 1.5, 112.0, 0.0, 0.0, 0.0, 1.695325187193002E9, 0.0, 2023-09-21 14:39:47.193
30.0, 43697.28043046957, 25742.3252752215, -7709.966028924708, -15445.301287806189, -21829.94298099792, -16182.975910064688, -187500.02235174447, -31793.545996373417, 31869.273706587996, 20394.357489866914, -18866.25812843539, -1632.9066911824575, -11314.989485143362, -26655.50579494307, -14128.314152755042, -27043.19680252037, 0.06, 1.008, 0.124, 192.0, 0.0, 0.0, 0.0, 0.0, 0.0, 0.0, 0.0, 0.0, 0.0, 1.695325187253431E9, 0.0, 2023-09-21 14:39:47.253
32.0, 43689.25615421011, 25730.300036704546, -7708.8037382130315, -15456.2983460782, -21843.33167592665, -16194.084727058975, -187500.02235174447, -31806.845284324325, 31877.78972122547, 20404.169905682793, -18857.518596353366, -1676.246723681298, -11303.813612915708, -26645.447509938185, -14112.511469425139, -27036.759500117245, 0.06, 1.008, 0.124, 192.0, 0.0, 0.0, 0.0, 0.0, 0.0, 0.0, 0.0, 0.0, 0.0, 1.695325187253442E9, 0.0, 2023-09-21 14:39:47.253
34.0, 43685.34459893043, 25726.209667469226, -7718.102063906439, -15457.326526323144, -21847.22087946187, -16179.399630951839, -187500.02235174447, -31800.29622319892, 31865.0715786304, 20393.21755089969, -18872.6060238607, -1618.1321880974995, -11315.436520032468, -26667.218109037654, -14131.13047255641, -27050.01408457924, 0.06, 1.008, 0.124, 192.0, 0.0, 0.0, 0.0, 0.0, 0.0, 0.0, 0.0, 0.0, 0.0, 1.695325187253445E9, 0.0, 2023-09-21 14:39:47.253
36.0, 43681.947133773225, 25720.912304033318, -7716.895069705853, -15465.931947938438, -21848.69609459592, -16194.799982881545, -187500.02235174447, -31807.11350525779, 31866.099758875345, 20388.88131247536, -18873.321279683267, -1658.1865141614098, -11314.453043276435, -26664.35708574737, -14133.32094351303, -27055.98200034881, 0.06, 1.008, 0.124, 192.0, 0.0, 0.0, 0.0, 0.0, 0.0, 0.0, 0.0, 0.0, 0.0, 1.695325187253448E9, 0.0, 2023-09-21 14:39:47.253
38.0, 43692.27363971158, 25732.155231494336, -7714.883412704875, -15459.047610646203, -21836.670856078967, -16186.641596155358, -187500.02235174447, -31793.233071951043, 31872.26884034501, 20393.21755089969, -18874.148294228115, -1610.0632083491337, -11308.105147851127, -26659.46205371166, -14133.857385379957, -27060.564107962145, 0.046, 1.012, 0.122, 192.0, 0.5, 56.0, 15.5, 80.0, 1.5, 104.0, 0.0, 0.0, 0.0, 1.695325187253452E9, 0.0, 2023-09-21 14:39:47.253
40.0, 43682.6623895958, 25717.42543189829, -7715.911592949819, -15472.168084641467, -21853.457016164903, -16201.773727151602, -187500.02235174447, -31808.72283085857, 31878.996715426056, 20396.927940479272, -18871.510788382388, -1654.5878833041054, -11306.719339694899, -26655.841071109902, -14127.442434721284, -27061.68169518491, 0.046, 1.012, 0.122, 192.0, 0.0, 0.0, 0.0, 0.0, 0.0, 0.0, 0.0, 0.0, 0.0, 1.695325187253455E9, 0.0, 2023-09-21 14:39:47.253
42.0, 43692.00541877811, 25728.847173314953, -7715.866889460909, -15462.266261847766, -21845.81271956119, -16187.803886867034, -187500.02235174447, -31796.33996443033, 31862.143500106755, 20381.50523680511, -18887.17936124556, -1596.920382609413, -11331.10509289564, -26675.28708878602, -14145.03325760761, -27076.7914744367, 0.046, 1.012, 0.122, 192.0, 0.0, 0.0, 0.0, 0.0, 0.0, 0.0, 0.0, 0.0, 0.0, 1.695325187253458E9, 0.0, 2023-09-21 14:39:47.253
44.0, 43684.31641868549, 25718.632426098877, -7713.654066759833, -15467.027183416747, -21850.104254496608, -16193.011843325121, -187500.02235174447, -31804.230130223055, 31877.946183436656, 20394.89393173384, -18874.26005295039, -1643.4120110764518, -11309.312142051715, -26648.733216373115, -14128.090635310487, -27060.228831795317, 0.046, 1.012, 0.122, 192.0, 0.0, 0.0, 0.0, 0.0, 0.0, 0.0, 0.0, 0.0, 0.0, 1.695325187253461E9, 0.0, 2023-09-21 14:39:47.253
46.0, 43684.91991578578, 25715.74905106414, -7719.487872062668, -15465.730782238339, -21850.841862063633, -16190.77666887959, -187500.02235174447, -31801.59262437733, 31861.0706163729, 20372.162207622794, -18894.13075377116, -1596.6521616759494, -11327.975848671897, -26676.47173124215, -14141.434626750306, -27073.237547068304, 0.046, 1.012, 0.122, 192.0, 0.0, 0.0, 0.0, 0.0, 0.0, 0.0, 0.0, 0.0, 0.0, 1.695325187313603E9, 0.0, 2023-09-21 14:39:47.313
48.0, 43687.758587331606, 25714.36324290791, -7717.342104594959, -15471.408125329986, -21855.938059799442, -16200.343215506462, -187500.02235174447, -31808.678127369658, 31877.230927614088, 20380.097076904425, -18881.54672164282, -1637.2429296067871, -11315.302409565737, -26666.681667170724, -14136.89722262588, -27062.285192285206, 0.052000000000000005, 1.014, 0.122, 192.0, 0.5, 80.0, 15.5, 88.0, 1.5, 104.0, 0.0, 0.0, 0.0, 1.695325187313612E9, 0.0, 2023-09-21 14:39:47.313
50.0, 43691.93836354475, 25722.879257545384, -7715.553965038534, -15465.976651427347, -21847.287934695236, -16190.039061312566, -187500.02235174447, -31801.413810421684, 31867.284401331475, 20366.46251278669, -18893.16962875958, -1604.7881966576813, -11329.428712061492, -26674.90710913028, -14143.111007584455, -27076.50090175878, 0.052000000000000005, 1.014, 0.122, 192.0, 0.0, 0.0, 0.0, 0.0, 0.0, 0.0, 0.0, 0.0, 0.0, 1.695325187313616E9, 0.0, 2023-09-21 14:39:47.313
52.0, 43702.55544216102, 25734.971551295705, -7697.359645051914, -15452.766770454262, -21836.38028340105, -16177.812657095512, -187500.02235174447, -31789.790903304925, 31889.12205566431, 20390.37887935387, -18867.621584847162, -1641.2215401198316, -11295.990502356351, -26640.261905224554, -14122.435643963296, -27047.868317111534, 0.052000000000000005, 1.014, 0.122, 192.0, 0.0, 0.0, 0.0, 0.0, 0.0, 0.0, 0.0, 0.0, 0.0, 1.695325187313619E9, 0.0, 2023-09-21 14:39:47.313
54.0, 43698.48742467015, 25734.546868151054, -7700.198316597738, -15454.599613499597, -21834.972123500364, -16182.327709475483, -187500.02235174447, -31786.81812129237, 31868.290229831964, 20370.37406806637, -18887.98402404595, -1612.1419205834773, -11318.006970644828, -26660.981972334623, -14134.952620858268, -27065.369733020038, 0.052000000000000005, 1.014, 0.122, 192.0, 0.0, 0.0, 0.0, 0.0, 0.0, 0.0, 0.0, 0.0, 0.0, 1.695325187313623E9, 0.0, 2023-09-21 14:39:47.313
56.0, 43690.4631484107, 25724.957969779727, -7711.217726614204, -15466.49074154982, -21841.208260203395, -16194.263541014618, -187500.02235174447, -31797.47990339755, 31882.327125349897, 20383.092210661438, -18873.991832016927, -1638.0252406627228, -11305.445290260946, -26646.252172738576, -14119.060530550543, -27046.773081633222, 0.052000000000000005, 1.014, 0.122, 192.0, 0.0, 0.0, 0.0, 0.0, 0.0, 0.0, 0.0, 0.0, 0.0, 1.695325187313626E9, 0.0, 2023-09-21 14:39:47.313
58.0, 43697.90627931432, 25730.00946402663, -7707.484985290169, -15460.768694969262, -21835.08388222264, -16182.01478505311, -187500.02235174447, -31791.71315332808, 31863.752825707536, 20361.098094117417, -18893.50490492641, -1623.5189585112284, -11322.969057913908, -26668.290992771508, -14135.578469703016, -27063.78275916371, 0.046, 1.014, 0.116, 192.0, 0.5, 56.0, 15.5, 88.0, 1.5, 80.0, 0.0, 0.0, 0.0, 1.69532518731363E9, 0.0, 2023-09-21 14:39:47.313
60.0, 43694.08413101246, 25727.461365158724, -7710.904802191831, -15460.165197868968, -21842.52701312626, -16182.528875175582, -187500.02235174447, -31795.758819074494, 31880.583689282383, 20375.380858824356, -18877.21048321849, -1639.120476141033, -11304.99825537184, -26646.74391111659, -14123.9332108418, -27046.191936277384, 0.046, 1.014, 0.116, 192.0, 0.0, 0.0, 0.0, 0.0, 0.0, 0.0, 0.0, 0.0, 0.0, 1.695325187373919E9, 0.0, 2023-09-21 14:39:47.373
62.0, 43682.50592738461, 25712.843324284953, -7717.43151157278, -15473.285671864232, -21849.791330074233, -16203.718328919213, -187500.02235174447, -31807.426429680163, 31852.688712202158, 20345.518928232068, -18904.703128898516, -1627.9669556578347, -11337.497691809856, -26673.27543178504, -14146.866100652946, -27068.856605155066, 0.046, 1.014, 0.116, 192.0, 0.0, 0.0, 0.0, 0.0, 0.0, 0.0, 0.0, 0.0, 0.0, 1.695325187373928E9, 0.0, 2023-09-21 14:39:47.373
64.0, 43680.51662212809, 25713.491524874156, -7720.180776140783, -15477.599558544107, -21851.71358009739, -16207.674587687801, -187500.02235174447, -31815.026022794966, 31861.852927428834, 20350.905698645794, -18896.678852639063, -1624.6588974784493, -11325.226584103893, -26670.74968466159, -14137.724237170725, -27061.011142851254, 0.046, 1.014, 0.116, 192.0, 0.0, 0.0, 0.0, 0.0, 0.0, 0.0, 0.0, 0.0, 0.0, 1.695325187373931E9, 0.0, 2023-09-21 14:39:47.373
66.0, 43685.29989544152, 25715.078498730483, -7715.285744105071, -15478.806552744694, -21852.98762953134, -16202.913666118822, -187500.02235174447, -31811.62855763776, 31856.846136670847, 20344.826024153954, -18899.629282907164, -1631.5208830262284, -11326.56768877121, -26680.65150745529, -14145.636754707904, -27069.72832318882, 0.046, 1.014, 0.116, 192.0, 0.0, 0.0, 0.0, 0.0, 0.0, 0.0, 0.0, 0.0, 0.0, 1.695325187373935E9, 0.0, 2023-09-21 14:39:47.373
68.0, 43690.2619827106, 25722.61103661192, -7711.776520225588, -15471.721049752361, -21841.40942590349, -16198.644482927857, -187500.02235174447, -31803.559577889395, 31856.44380527065, 20339.528660718046, -18900.88098059666, -1616.9028421524577, -11329.00402891684, -26676.583489964425, -14145.726161685725, -27070.711799944856, 0.05, 1.01, 0.116, 192.0, 0.5, 72.0, 15.5, 72.0, 1.5, 80.0, 0.0, 0.0, 0.0, 1.695325187373938E9, 0.0, 2023-09-21 14:39:47.373
70.0, 43695.67110486879, 25726.120260491403, -7707.306171334526, -15469.105895651091, -21844.292800938227, -16200.25380852864, -187500.02235174447, -31805.459476168096, 31866.524442019996, 20348.290544544525, -18891.180323503057, -1643.9484529433792, -11316.643514233056, -26672.202548051187, -14136.94192611479, -27060.161776561952, 0.05, 1.01, 0.116, 192.0, 0.0, 0.0, 0.0, 0.0, 0.0, 0.0, 0.0, 0.0, 0.0, 1.695325187373942E9, 0.0, 2023-09-21 14:39:47.373
72.0, 43691.26781121109, 25723.482754645676, -7712.894107448353, -15475.006756187291, -21847.310286439693, -16204.813564397522, -187500.02235174447, -31811.785019848947, 31866.703255975637, 20345.988314865626, -18890.174495002568, -1621.216728832332, -11322.902002680541, -26672.60487945138, -14143.379228517919, -27065.816767909142, 0.05, 1.01, 0.116, 192.0, 0.0, 0.0, 0.0, 0.0, 0.0, 0.0, 0.0, 0.0, 0.0, 1.695325187373945E9, 0.0, 2023-09-21 14:39:47.373
74.0, 43714.58068067797, 25744.359283966936, -7686.228476313171, -15454.689020477417, -21822.18692567193, -16181.232473997174, -187500.02235174447, -31789.165054460176, 31876.985058425078, 20355.64426847032, -18882.01610827638, -1659.2146944063538, -11305.668807705499, -26652.018922808045, -14136.561946459049, -27060.184128306406, 0.05, 1.01, 0.116, 192.0, 0.0, 0.0, 0.0, 0.0, 0.0, 0.0, 0.0, 0.0, 0.0, 1.695325187373948E9, 0.0, 2023-09-21 14:39:47.373
76.0, 43700.23086073767, 25731.551734394045, -7702.657008487822, -15464.277918848744, -21832.84870777711, -16193.905913103334, -187500.02235174447, -31803.403115678208, 31885.612831784827, 20362.573309251467, -18874.729439583953, -1632.079676637611, -11298.471545990891, -26664.37943749183, -14121.049835807067, -27050.371712490527, 0.05, 1.01, 0.116, 192.0, 0.0, 0.0, 0.0, 0.0, 0.0, 0.0, 0.0, 0.0, 0.0, 1.695325187433408E9, 0.0, 2023-09-21 14:39:47.433
78.0, 43694.48646241266, 25725.60617036893, -7710.882450447375, -15473.620948031063, -21843.041103248728, -16207.652235943347, -187500.02235174447, -31812.47792392706, 31873.11820663431, 20349.69870444521, -18889.950977558015, -1665.85316250958, -11313.357807798126, -26666.301687514984, -14138.305382526563, -27066.912003387453, 0.044, 1.014, 0.116, 192.0, 0.5, 48.0, 15.5, 88.0, 1.5, 80.0, 0.0, 0.0, 0.0, 1.695325187433418E9, 0.0, 2023-09-21 14:39:47.433
80.0, 43697.28043046957, 25730.210629726724, -7708.759034724121, -15471.005793929791, -21844.292800938227, -16202.44427948526, -187500.02235174447, -31808.409906436194, 31860.78004369498, 20338.16520430627, -18897.796439861828, -1620.3226590541196, -11319.079854378684, -26679.511568488073, -14146.575527975026, -27077.640840726002, 0.044, 1.014, 0.116, 192.0, 0.0, 0.0, 0.0, 0.0, 0.0, 0.0, 0.0, 0.0, 0.0, 1.695325187433422E9, 0.0, 2023-09-21 14:39:47.433
82.0, 43695.447587424234, 25728.623655870397, -7709.228421357682, -15475.006756187291, -21843.89046953803, -16191.20135202424, -187500.02235174447, -31810.48861867054, 31871.821805455904, 20347.21766081067, -18885.190055989035, -1661.7851450187143, -11321.873822435597, -26664.62530668084, -14136.651353436871, -27065.146215575485, 0.044, 1.014, 0.116, 192.0, 0.0, 0.0, 0.0, 0.0, 0.0, 0.0, 0.0, 0.0, 0.0, 1.695325187433426E9, 0.0, 2023-09-21 14:39:47.433
84.0, 43714.871253355894, 25746.393292712368, -7696.979665396174, -15456.63362224503, -21827.663103063478, -16177.745601862145, -187500.02235174447, -31795.177673718656, 31869.83250019938, 20345.250707298605, -18888.989852546438, -1618.6686299644268, -11308.820403673697, -26666.927536359733, -14139.735894171703, -27064.252145797273, 0.044, 1.014, 0.116, 192.0, 0.0, 0.0, 0.0, 0.0, 0.0, 0.0, 0.0, 0.0, 0.0, 1.695325187433429E9, 0.0, 2023-09-21 14:39:47.433
86.0, 43719.36395399141, 25747.24265900167, -7690.408252526314, -15456.477160033843, -21829.31713215317, -16185.479305443681, -187500.02235174447, -31792.71898182857, 31888.56326205293, 20363.288565074035, -18869.16385521458, -1675.4420608809069, -11290.559028453712, -26644.66519888225, -14125.743702142681, -27046.527212444213, 0.044, 1.014, 0.116, 192.0, 0.0, 0.0, 0.0, 0.0, 0.0, 0.0, 0.0, 0.0, 0.0, 1.695325187433432E9, 0.0, 2023-09-21 14:39:47.433
88.0, 43693.637096123355, 25724.6226936129, -7719.174947640294, -15479.655919033996, -21851.735931841842, -16207.853401643444, -187500.02235174447, -31815.808333850902, 31864.177508852186, 20338.96986710666, -18891.44854443652, -1623.8989381669687, -11317.582287500178, -26662.680704913226, -14138.75241741567, -27064.430959752914, 0.044, 1.01, 0.108, 192.0, 0.5, 48.0, 15.5, 72.0, 1.5, 48.0, 0.0, 0.0, 0.0, 1.695325187433435E9, 0.0, 2023-09-21 14:39:47.433
90.0, 43697.52629965857, 25728.847173314953, -7712.782348726077, -15471.229311374345, -21851.08773125264, -16199.49384921716, -187500.02235174447, -31816.43418269565, 31856.130880848275, 20333.672503670754, -18897.237646250447, -1661.4498688518845, -11332.043866162761, -26682.730219689634, -14146.061437852555, -27067.291983043193, 0.044, 1.01, 0.108, 192.0, 0.0, 0.0, 0.0, 0.0, 0.0, 0.0, 0.0, 0.0, 0.0, 1.695325187493021E9, 0.0, 2023-09-21 14:39:47.493
92.0, 43709.73035213118, 25741.811185099028, -7706.680322489778, -15458.131189123535, -21845.477443394357, -16184.898160087843, -187500.02235174447, -31805.30301395691, 31854.946238392145, 20334.052483326494, -18894.80130610482, -1619.8532724205581, -11326.38887481557, -26670.906146872778, -14142.306344784063, -27063.82746265262, 0.044, 1.01, 0.108, 192.0, 0.0, 0.0, 0.0, 0.0, 0.0, 0.0, 0.0, 0.0, 0.0, 1.695325187493111E9, 0.0, 2023-09-21 14:39:47.493
94.0, 43695.55934614651, 25728.020158770105, -7714.86106096042, -15473.643299775518, -21853.81464407619, -16193.794154381056, -187500.02235174447, -31815.048374539423, 31860.310657061418, 20337.204079294694, -18890.01803279138, -1660.600502562583, -11321.449139290946, -26665.56407994796, -14138.886527882401, -27055.579668948612, 0.044, 1.01, 0.108, 192.0, 0.0, 0.0, 0.0, 0.0, 0.0, 0.0, 0.0, 0.0, 0.0, 1.695325187493114E9, 0.0, 2023-09-21 14:39:47.493
96.0, 43696.60987813591, 25728.735414592677, -7715.688075505266, -15468.770619484261, -21853.524071398268, -16192.96713983621, -187500.02235174447, -31812.947310560623, 31848.173659822187, 20328.50925070158, -18899.003434062415, -1615.695847951871, -11335.19546213096, -26673.43189399623, -14140.808777905559, -27064.60977370856, 0.044, 1.01, 0.108, 192.0, 0.0, 0.0, 0.0, 0.0, 0.0, 0.0, 0.0, 0.0, 0.0, 1.695325187493118E9, 0.0, 2023-09-21 14:39:47.493
98.0, 43710.35620097592, 25742.794661855063, -7700.779461953576, -15456.253642589289, -21839.576582858157, -16184.719346132202, -187500.02235174447, -31801.59262437733, 31859.193069838653, 20335.93002986074, -18890.44271593603, -1650.341051857597, -11324.801900959243, -26668.246289282597, -14136.629001692416, -27054.462081725847, 0.046, 1.01, 0.112, 192.0, 0.5, 56.0, 15.5, 72.0, 1.5, 64.0, 0.0, 0.0, 0.0, 1.695325187493127E9, 0.0, 2023-09-21 14:39:47.493
100.0, 43708.07632304148, 25738.704292619743, -7707.641447501355, -15468.100067150603, -21849.61251611859, -16194.554113692537, -187500.02235174447, -31808.275795969465, 31869.229003099088, 20339.059274084484, -18882.709012354495, -1628.346935313575, -11323.170223614004, -26664.714713658657, -14131.331638256508, -27054.327971259114, 0.046, 1.01, 0.112, 192.0, 0.0, 0.0, 0.0, 0.0, 0.0, 0.0, 0.0, 0.0, 0.0, 1.695325187493131E9, 0.0, 2023-09-21 14:39:47.493
102.0, 43705.66233464031, 25739.86658333142, -7705.182755611272, -15467.697735750406, -21847.064417250684, -16192.073070057997, -187500.02235174447, -31809.61690063678, 31864.177508852186, 20334.745387404608, -18886.508808911898, -1649.2234646348315, -11320.309200323725, -26670.101484072387, -14139.825301149524, -27063.40277950797, 0.046, 1.01, 0.112, 192.0, 0.0, 0.0, 0.0, 0.0, 0.0, 0.0, 0.0, 0.0, 0.0, 1.695325187493134E9, 0.0, 2023-09-21 14:39:47.493
104.0, 43709.32802073098, 25742.19116475477, -7709.027255657585, -15465.507264793787, -21849.03137076275, -16199.49384921716, -187500.02235174447, -31811.62855763776, 31864.132805363275, 20340.914468874274, -18884.765372844384, -1626.6705544794268, -11322.745540469354, -26654.723483887137, -14133.65621967986, -27062.6875236854, 0.046, 1.01, 0.112, 192.0, 0.0, 0.0, 0.0, 0.0, 0.0, 0.0, 0.0, 0.0, 0.0, 1.695325187493137E9, 0.0, 2023-09-21 14:39:47.493
106.0, 43707.472825941186, 25737.85492633044, -7707.328523078982, -15469.128247395545, -21848.316114940182, -16194.241189270162, -187500.02235174447, -31813.930787316658, 31859.707159961126, 20336.667637427767, -18887.64874787912, -1643.3226040986306, -11323.28198233628, -26673.253080040584, -14142.596917461982, -27069.147177832983, 0.046, 1.01, 0.112, 192.0, 0.0, 0.0, 0.0, 0.0, 0.0, 0.0, 0.0, 0.0, 0.0, 1.695325187553273E9, 0.0, 2023-09-21 14:39:47.553
108.0, 43715.318288245, 25747.086196790482, -7699.974799153185, -15462.601538014596, -21837.587277601633, -16186.239264755162, -187500.02235174447, -31799.804484820903, 31872.11237813382, 20345.965963121173, -18878.93156754155, -1641.0427261641892, -11313.71543570941, -26664.93823110321, -14129.789367889092, -27062.10637832956, 0.044, 1.016, 0.11, 192.0, 0.5, 48.0, 15.5, 96.0, 1.5, 56.0, 0.0, 0.0, 0.0, 1.695325187553282E9, 0.0, 2023-09-21 14:39:47.553
110.0, 43698.733293859164, 25731.171754738305, -7714.570488282501, -15473.755058497794, -21851.624173119566, -16200.723195162202, -187500.02235174447, -31812.388516949242, 31866.72560772009, 20341.115634574373, -18886.1064775117, -1640.0145459192452, -11318.588116000667, -26667.240460782108, -14133.23153653521, -27066.21909930934, 0.044, 1.016, 0.11, 192.0, 0.0, 0.0, 0.0, 0.0, 0.0, 0.0, 0.0, 0.0, 0.0, 1.695325187553285E9, 0.0, 2023-09-21 14:39:47.553
112.0, 43701.05787528252, 25732.71402510572, -7711.128319636384, -15470.983442185336, -21852.250021964315, -16198.689186416768, -187500.02235174447, -31814.064897783388, 31849.201840067133, 20327.101090800894, -18898.176419517567, -1642.2497203647758, -11338.458816821434, -26681.143245833307, -14151.872891410934, -27083.02761113973, 0.044, 1.016, 0.11, 192.0, 0.0, 0.0, 0.0, 0.0, 0.0, 0.0, 0.0, 0.0, 0.0, 1.695325187553294E9, 0.0, 2023-09-21 14:39:47.553
114.0, 43692.38539843386, 25726.65670235833, -7715.486909805169, -15477.510151566286, -21855.64748712152, -16205.104137075441, -187500.02235174447, -31814.33311871685, 31858.79073843846, 20338.16520430627, -18888.11813451268, -1634.1360371274993, -11327.059427149228, -26673.61070795187, -14134.706751669259, -27072.566994734647, 0.044, 1.016, 0.11, 192.0, 0.0, 0.0, 0.0, 0.0, 0.0, 0.0, 0.0, 0.0, 0.0, 1.695325187553299E9, 0.0, 2023-09-21 14:39:47.553
116.0, 43707.00343930763, 25741.028874043095, -7701.628828242878, -15462.378020570044, -21847.779673073255, -16189.882599101378, -187500.02235174447, -31799.67037435417, 31859.193069838653, 20337.896983372808, -18885.279462966857, -1646.8765314670243, -11326.120653882106, -26677.410504509273, -14136.047856336578, -27068.007238865765, 0.044, 1.016, 0.11, 192.0, 0.0, 0.0, 0.0, 0.0, 0.0, 0.0, 0.0, 0.0, 0.0, 1.695325187553303E9, 0.0, 2023-09-21 14:39:47.553
118.0, 43732.66324194232, 25769.4826447347, -7676.684281430756, -15434.1924708119, -21813.290931378717, -16160.735924331657, -187500.02235174447, -31769.204946661586, 31872.760578723024, 20353.140873091328, -18869.49913138141, -1632.1690836154323, -11312.575496742189, -26655.32698098743, -14122.189774774288, -27049.432939223403, 0.036000000000000004, 1.01, 0.112, 192.0, 0.5, 16.0, 15.5, 72.0, 1.5, 64.0, 0.0, 0.0, 0.0, 1.695325187553306E9, 0.0, 2023-09-21 14:39:47.553
120.0, 43708.63511665286, 25739.978342053695, -7698.231363085672, -15457.974726912347, -21852.160614986493, -16190.754317135135, -187500.02235174447, -31805.43712442364, 31877.342686336364, 20359.01938188307, -18862.88301502264, -1660.3993368624851, -11313.022531631295, -26641.200678491674, -14113.673760136815, -27044.82847986561, 0.036000000000000004, 1.01, 0.112, 192.0, 0.0, 0.0, 0.0, 0.0, 0.0, 0.0, 0.0, 0.0, 0.0, 1.695325187613611E9, 0.0, 2023-09-21 14:39:47.613
122.0, 43714.55832893352, 25747.823804357507, -7696.554982251523, -15453.482026276832, -21845.477443394357, -16190.575503179492, -187500.02235174447, -31800.072705754366, 31857.0696541154, 20336.913506616773, -18882.3066809543, -1610.1302635824995, -11326.47828179339, -26674.61653645236, -14134.170309802332, -27059.424168994927, 0.036000000000000004, 1.01, 0.112, 192.0, 0.0, 0.0, 0.0, 0.0, 0.0, 0.0, 0.0, 0.0, 0.0, 1.695325187613632E9, 0.0, 2023-09-21 14:39:47.613
124.0, 43710.691477142755, 25744.672208389307, -7691.391729282347, -15458.466465290365, -21850.350123685614, -16199.583256194981, -187500.02235174447, -31807.180560491153, 31873.0735031454, 20357.521815004566, -18863.151235956102, -1645.110743655055, -11311.86024091962, -26653.672951897737, -14117.31709448303, -27049.678808412413, 0.036000000000000004, 1.01, 0.112, 192.0, 0.0, 0.0, 0.0, 0.0, 0.0, 0.0, 0.0, 0.0, 0.0, 1.695325187613635E9, 0.0, 2023-09-21 14:39:47.613
126.0, 43708.70217188623, 25744.18047001129, -7694.968008395196, -15457.125360623046, -21841.364722414583, -16191.938959591265, -187500.02235174447, -31800.430333665652, 31854.45450001413, 20333.82896588194, -18882.418439676578, -1600.2284407887985, -11328.266421349816, -26675.220033552654, -14130.638734178394, -27065.749712675777, 0.036000000000000004, 1.01, 0.112, 192.0, 0.0, 0.0, 0.0, 0.0, 0.0, 0.0, 0.0, 0.0, 0.0, 1.695325187613639E9, 0.0, 2023-09-21 14:39:47.613
128.0, 43711.40673296532, 25742.99582755516, -7693.157517094317, -15458.95820366838, -21845.589202116633, -16191.96131133572, -187500.02235174447, -31808.275795969465, 31865.0715786304, 20343.64138169782, -18873.187169216537, -1644.1719703879323, -11320.219793345905, -26664.267678769553, -14123.88850735289, -27055.40085499297, 0.036000000000000004, 1.012, 0.112, 192.0, 0.5, 16.0, 15.5, 80.0, 1.5, 64.0, 0.0, 0.0, 0.0, 1.695325187613642E9, 0.0, 2023-09-21 14:39:47.613
130.0, 43724.5719104495, 25754.641086416377, -7689.357720536915, -15446.240061073311, -21831.66406532098, -16178.796133851545, -187500.02235174447, -31791.28847018343, 31863.842232685358, 20338.813404895474, -18876.31641344028, -1602.1953943008655, -11325.539508526268, -26667.91101311577, -14125.676646909315, -27057.233698038304, 0.036000000000000004, 1.012, 0.112, 192.0, 0.0, 0.0, 0.0, 0.0, 0.0, 0.0, 0.0, 0.0, 0.0, 1.695325187613645E9, 0.0, 2023-09-21 14:39:47.613
132.0, 43725.778904650084, 25754.551679438555, -7684.865019901397, -15451.269203575755, -21835.285047922738, -16190.955482835232, -187500.02235174447, -31795.401191163208, 31876.15804388023, 20351.799768424007, -18862.234814433436, -1655.884284482513, -11307.769871684299, -26654.65642865377, -14115.350140970962, -27046.25899151075, 0.036000000000000004, 1.012, 0.112, 192.0, 0.0, 0.0, 0.0, 0.0, 0.0, 0.0, 0.0, 0.0, 0.0, 1.695325187613649E9, 0.0, 2023-09-21 14:39:47.613
134.0, 43706.154073018326, 25732.71402510572, -7707.775557968088, -15469.01648867327, -21846.41621666148, -16200.946712606754, -187500.02235174447, -31806.28649071294, 31862.41172104022, 20335.01360833807, -18876.02584076236, -1614.4217985179184, -11317.314066566714, -26664.84882412539, -14126.615420176438, -27061.50288122927, 0.036000000000000004, 1.012, 0.112, 192.0, 0.0, 0.0, 0.0, 0.0, 0.0, 0.0, 0.0, 0.0, 0.0, 1.695325187613652E9, 0.0, 2023-09-21 14:39:47.613
136.0, 43712.52432018809, 25740.961818809727, -7696.398520040336, -15460.00873565778, -21841.185908458938, -16188.720308389702, -187500.02235174447, -31803.82779882286, 31860.44476752815, 20329.962114091173, -18878.842160563727, -1659.9970054622897, -11322.030284646784, -26673.454245740682, -14131.398693489873, -27059.982962606307, 0.036000000000000004, 1.012, 0.112, 192.0, 0.0, 0.0, 0.0, 0.0, 0.0, 0.0, 0.0, 0.0, 0.0, 1.695325187673902E9, 0.0, 2023-09-21 14:39:47.673
138.0, 43707.58458466346, 25735.552696651543, -7703.327560821482, -15462.288613592222, -21843.868117793576, -16188.765011878611, -187500.02235174447, -31806.755877346503, 31855.415625025707, 20327.056387311983, -18887.380526945653, -1612.4548450058514, -11330.747464984353, -26667.151053804286, -14135.265545280641, -27063.49218648579, 0.04, 1.006, 0.11, 192.0, 0.5, 32.0, 15.5, 56.0, 1.5, 56.0, 0.0, 0.0, 0.0, 1.69532518767391E9, 0.0, 2023-09-21 14:39:47.673
140.0, 43722.157922048325, 25751.33302823699, -7681.691072188744, -15445.591860484108, -21824.690321050923, -16179.176113507285, -187500.02235174447, -31786.99693524801, 31871.73239847808, 20339.238088040125, -18872.047230249314, -1664.6238165645382, -11312.374331042092, -26660.154957789775, -14122.346236985475, -27045.8343083661, 0.04, 1.006, 0.11, 192.0, 0.0, 0.0, 0.0, 0.0, 0.0, 0.0, 0.0, 0.0, 0.0, 1.695325187673914E9, 0.0, 2023-09-21 14:39:47.673
142.0, 43690.10552049941, 25716.330196419978, -7715.665723760811, -15479.454753333897, -21859.268469723283, -16216.280009303095, -187500.02235174447, -31822.9608920766, 31859.193069838653, 20323.010721565573, -18884.36304144419, -1626.3129265681418, -11325.517156781812, -26669.31917301645, -14128.89529811088, -27060.362942262047, 0.04, 1.006, 0.11, 192.0, 0.0, 0.0, 0.0, 0.0, 0.0, 0.0, 0.0, 0.0, 0.0, 1.695325187673917E9, 0.0, 2023-09-21 14:39:47.673
144.0, 43695.96167754671, 25721.493449389156, -7705.898011433842, -15471.229311374345, -21849.411350418493, -16201.438450984771, -187500.02235174447, -31816.411830951194, 31846.117299332298, 20306.73865160211, -18898.846971851228, -1655.9960432047897, -11331.999162673852, -26686.597071480403, -14145.100312840977, -27073.863395913053, 0.04, 1.006, 0.11, 192.0, 0.0, 0.0, 0.0, 0.0, 0.0, 0.0, 0.0, 0.0, 0.0, 1.695325187673921E9, 0.0, 2023-09-21 14:39:47.673
146.0, 43694.262944968104, 25720.37586216639, -7707.0379504010625, -15473.665651519974, -21849.388998674036, -16210.714424933723, -187500.02235174447, -31819.943406575134, 31840.05997658491, 20304.525828901034, -18897.84114335074, -1620.3897142874855, -11337.989430187874, -26690.374516293352, -14139.400618004873, -27075.11509360255, 0.04, 1.006, 0.11, 192.0, 0.0, 0.0, 0.0, 0.0, 0.0, 0.0, 0.0, 0.0, 0.0, 1.695325187673924E9, 0.0, 2023-09-21 14:39:47.673
148.0, 43708.5680614195, 25736.71498736322, -7694.1856973392605, -15457.885319934527, -21842.07997823715, -16197.169267793808, -187500.02235174447, -31800.832665065846, 31864.8704129303, 20328.26338151257, -18876.003489017905, -1659.1252874285326, -11315.727092710387, -26669.14035906081, -14128.470614966229, -27055.333799759603, 0.038, 1.006, 0.112, 192.0, 0.5, 24.0, 15.5, 56.0, 1.5, 64.0, 0.0, 0.0, 0.0, 1.695325187673927E9, 0.0, 2023-09-21 14:39:47.673
150.0, 43699.292087470545, 25729.33891169297, -7704.400444555336, -15468.792971228717, -21850.7077515969, -16201.863134129422, -187500.02235174447, -31815.070726283877, 31847.39134876625, 20310.20317199268, -18894.60014040472, -1627.7434382132815, -11338.637630777077, -26684.31719354596, -14146.709638441758, -27071.628221467523, 0.038, 1.006, 0.112, 192.0, 0.0, 0.0, 0.0, 0.0, 0.0, 0.0, 0.0, 0.0, 0.0, 1.695325187733337E9, 0.0, 2023-09-21 14:39:47.733
152.0, 43711.98787832116, 25742.749958366152, -7691.458784515713, -15453.414971043465, -21833.47455662186, -16193.861209614422, -187500.02235174447, -31801.77143833297, 31862.299962317942, 20322.11665178736, -18880.987928031438, -1652.5315228142172, -11318.588116000667, -26671.286126528517, -14132.024542334622, -27060.653514939968, 0.038, 1.006, 0.112, 192.0, 0.0, 0.0, 0.0, 0.0, 0.0, 0.0, 0.0, 0.0, 0.0, 1.69532518773335E9, 0.0, 2023-09-21 14:39:47.733
154.0, 43712.725485888186, 25741.207687998736, -7690.005921126119, -15452.789122198717, -21832.066396721173, -16186.77570662209, -187500.02235174447, -31793.14366497322, 31867.77613970949, 20329.31391350197, -18872.98600351644, -1645.602482033072, -11314.81067118772, -26659.529108945026, -14116.691245638282, -27051.131671802006, 0.038, 1.006, 0.112, 192.0, 0.0, 0.0, 0.0, 0.0, 0.0, 0.0, 0.0, 0.0, 0.0, 1.695325187733367E9, 0.0, 2023-09-21 14:39:47.733
156.0, 43718.49223595765, 25750.260144503136, -7684.082708845462, -15442.239098815811, -21823.773899528256, -16175.778648350079, -187500.02235174447, -31785.544071858418, 31868.178471109688, 20331.660846669776, -18870.326145926258, -1652.9115024699572, -11315.682389221476, -26667.41927473775, -14111.75151011366, -27040.604000163556, 0.038, 1.006, 0.112, 192.0, 0.0, 0.0, 0.0, 0.0, 0.0, 0.0, 0.0, 0.0, 0.0, 1.69532518773337E9, 0.0, 2023-09-21 14:39:47.733
158.0, 43716.055895812024, 25745.700388634254, -7686.1390693353505, -15451.425665786943, -21833.251039177303, -16184.786401365567, -187500.02235174447, -31794.685935340636, 31874.682828746183, 20337.91933511726, -18863.866491778674, -1657.4489065943847, -11310.452081018935, -26658.098597299886, -14105.493021666172, -27037.07242453962, 0.04, 1.004, 0.112, 192.0, 0.5, 32.0, 15.5, 48.0, 1.5, 64.0, 0.0, 0.0, 0.0, 1.695325187733374E9, 0.0, 2023-09-21 14:39:47.733
160.0, 43696.498119413634, 25728.847173314953, -7704.646313744344, -15469.240006117823, -21850.595992874623, -16204.9253231198, -187500.02235174447, -31810.421563437172, 31850.788813923456, 20314.785279606018, -18887.3581752012, -1647.1224006560328, -11326.522985282301, -26681.165597577765, -14129.297629511075, -27061.636991696, 0.04, 1.004, 0.112, 192.0, 0.0, 0.0, 0.0, 0.0, 0.0, 0.0, 0.0, 0.0, 0.0, 1.695325187733378E9, 0.0, 2023-09-21 14:39:47.733
162.0, 43695.78286359106, 25726.343777935956, -7706.702674234233, -15471.54223579672, -21849.120777740573, -16200.387918995371, -187500.02235174447, -31810.354508203807, 31846.273761543485, 20308.906770814272, -18893.862532837695, -1652.1962466473874, -11334.994296430863, -26678.9974783656, -14130.549327200571, -27062.93339287441, 0.04, 1.004, 0.112, 192.0, 0.0, 0.0, 0.0, 0.0, 0.0, 0.0, 0.0, 0.0, 0.0, 1.695325187733381E9, 0.0, 2023-09-21 14:39:47.733
164.0, 43711.384381220865, 25742.10175777695, -7697.091424118451, -15458.265299590266, -21830.18885018693, -16185.903988588332, -187500.02235174447, -31795.758819074494, 31855.192107581155, 20314.964093561663, -18886.73232635645, -1643.6802320099155, -11321.42678754649, -26672.04608584, -14121.005132318156, -27055.15498580396, 0.04, 1.004, 0.112, 192.0, 0.0, 0.0, 0.0, 0.0, 0.0, 0.0, 0.0, 0.0, 0.0, 1.695325187733385E9, 0.0, 2023-09-21 14:39:47.733
166.0, 43700.72259911568, 25728.623655870397, -7704.467499788702, -15471.855160219093, -21847.354989928604, -16205.215895797719, -187500.02235174447, -31811.159171004198, 31855.750901192536, 20316.282846484526, -18884.050117021816, -1667.9318747439236, -11323.505499780835, -26674.303612029984, -14119.418158461829, -27055.69142767089, 0.04, 1.004, 0.112, 192.0, 0.0, 0.0, 0.0, 0.0, 0.0, 0.0, 0.0, 0.0, 0.0, 1.695325187793021E9, 0.0, 2023-09-21 14:39:47.793
168.0, 43693.23476472316, 25727.170792480803, -7715.151633638339, -15476.929006210448, -21847.578507373157, -16208.903933632844, -187500.02235174447, -31814.981319306055, 31838.02596783948, 20295.54042763, -18903.40672772011, -1633.3313743271083, -11340.314011611224, -26690.218054082165, -14138.0371615931, -27076.07621861413, 0.038, 1.006, 0.11800000000000001, 192.0, 0.5, 24.0, 15.5, 56.0, 1.5, 88.0, 0.0, 0.0, 0.0, 1.695325187793028E9, 0.0, 2023-09-21 14:39:47.793
170.0, 43717.79933187954, 25749.72370263621, -7685.312054790504, -15450.241023330811, -21826.143184440516, -16180.003128052133, -187500.02235174447, -31783.24184217952, 31857.53904074896, 20319.345035474904, -18881.524369898365, -1674.5703428471497, -11325.114825381617, -26664.871175869845, -14115.50660318215, -27054.327971259114, 0.038, 1.006, 0.11800000000000001, 192.0, 0.0, 0.0, 0.0, 0.0, 0.0, 0.0, 0.0, 0.0, 0.0, 1.695325187793032E9, 0.0, 2023-09-21 14:39:47.793
172.0, 43706.914032329805, 25741.364150209924, -7697.247886329638, -15457.415933300965, -21838.950734013408, -16184.518180432104, -187500.02235174447, -31802.48669415554, 31858.410758782717, 20320.954361075685, -18878.775105330362, -1644.9766331883234, -11328.221717860904, -26669.587393949914, -14108.823431590014, -27046.035474066197, 0.038, 1.006, 0.11800000000000001, 192.0, 0.0, 0.0, 0.0, 0.0, 0.0, 0.0, 0.0, 0.0, 0.0, 1.695325187793036E9, 0.0, 2023-09-21 14:39:47.793
174.0, 43687.959753031704, 25720.37586216639, -7708.379055068381, -15476.079639921147, -21857.74855110032, -16207.674587687801, -187500.02235174447, -31820.25633099751, 31839.21061029561, 20302.134192244317, -18894.55543691581, -1674.95032250289, -11334.90488945304, -26683.37842027884, -14126.347199242975, -27065.280326042215, 0.038, 1.006, 0.11800000000000001, 192.0, 0.0, 0.0, 0.0, 0.0, 0.0, 0.0, 0.0, 0.0, 0.0, 1.695325187793039E9, 0.0, 2023-09-21 14:39:47.793
176.0, 43687.53506988705, 25718.922998776794, -7720.270183118604, -15479.901788223004, -21864.923461070473, -16207.518125476614, -187500.02235174447, -31818.088211785343, 31831.052223569422, 20291.67357583923, -18905.17251553208, -1626.3352783125972, -11346.728962269899, -26686.95469939169, -14139.13239707141, -27073.8410441686, 0.038, 1.006, 0.11800000000000001, 192.0, 0.0, 0.0, 0.0, 0.0, 0.0, 0.0, 0.0, 0.0, 0.0, 1.695325187793043E9, 0.0, 2023-09-21 14:39:47.793
178.0, 43699.98499154866, 25731.819955327508, -7702.008807898618, -15468.547102039707, -21848.69609459592, -16199.15857305033, -187500.02235174447, -31808.365202947287, 31842.45161324163, 20307.45390742468, -18887.134657756647, -1675.2185434363537, -11339.218776132915, -26684.8983389018, -14130.817548134035, -27061.88286088501, 0.036000000000000004, 1.008, 0.112, 192.0, 0.5, 16.0, 15.5, 64.0, 1.5, 64.0, 0.0, 0.0, 0.0, 1.695325187793047E9, 0.0, 2023-09-21 14:39:47.793
180.0, 43698.82270083699, 25734.971551295705, -7707.775557968088, -15462.668593247963, -21850.730103341353, -16193.660043914324, -187500.02235174447, -31808.2087407361, 31840.574066707384, 20303.96703528965, -18891.001509547415, -1636.3488598285749, -11337.832967976687, -26684.8983389018, -14131.689266167792, -27065.21327080885, 0.036000000000000004, 1.008, 0.112, 192.0, 0.0, 0.0, 0.0, 0.0, 0.0, 0.0, 0.0, 0.0, 0.0, 1.695325187853778E9, 0.0, 2023-09-21 14:39:47.853
182.0, 43694.48646241266, 25731.752900094143, -7704.6686654888, -15464.188511870923, -21856.250984221817, -16203.047776585554, -187500.02235174447, -31810.309804714896, 31846.676092943682, 20315.388776706313, -18880.719707097975, -1680.8064795501805, -11337.363581343125, -26670.079132327934, -14125.587239931494, -27048.53886944519, 0.036000000000000004, 1.008, 0.112, 192.0, 0.0, 0.0, 0.0, 0.0, 0.0, 0.0, 0.0, 0.0, 0.0, 1.6953251878538E9, 0.0, 2023-09-21 14:39:47.853
184.0, 43684.27171519658, 25723.28158894558, -7720.583107540979, -15474.82794223165, -21861.771865102277, -16207.8757533879, -187500.02235174447, -31818.222322252077, 31821.016290308988, 20289.505456627066, -18905.88777135465, -1629.956260914357, -11357.39074437508, -26695.694231473713, -14146.955507630768, -27075.003334880275, 0.036000000000000004, 1.008, 0.112, 192.0, 0.0, 0.0, 0.0, 0.0, 0.0, 0.0, 0.0, 0.0, 0.0, 1.695325187853804E9, 0.0, 2023-09-21 14:39:47.853
186.0, 43693.57004088999, 25729.584780881978, -7701.584124753967, -15465.686078749428, -21845.79036781673, -16195.8728666154, -187500.02235174447, -31804.788923834436, 31847.033720854968, 20314.002968550085, -18880.295023953324, -1674.9726742473454, -11337.095360409661, -26674.66123994127, -14124.916687597835, -27049.477642712314, 0.036000000000000004, 1.008, 0.112, 192.0, 0.0, 0.0, 0.0, 0.0, 0.0, 0.0, 0.0, 0.0, 0.0, 1.695325187853808E9, 0.0, 2023-09-21 14:39:47.853
188.0, 43687.44566290923, 25725.04737675755, -7710.010732413618, -15469.195302628912, -21847.958487028896, -16199.650311428346, -187500.02235174447, -31809.371031447776, 31833.533267203962, 20297.82030556444, -18893.88488458215, -1625.8211881901252, -11340.202252888948, -26679.80214116599, -14130.996362089678, -27065.906174886964, 0.038, 1.006, 0.112, 192.0, 0.5, 24.0, 15.5, 56.0, 1.5, 64.0, 0.0, 0.0, 0.0, 1.695325187853811E9, 0.0, 2023-09-21 14:39:47.853
190.0, 43688.45149140972, 25726.410833169324, -7704.087520132962, -15465.283747349233, -21848.450225406912, -16206.512296976127, -187500.02235174447, -31813.52845591646, 31840.283494029463, 20305.799878334987, -18885.92766355606, -1671.016415478756, -11336.469511564912, -26682.70786794518, -14126.704827154259, -27055.7361311598, 0.038, 1.006, 0.112, 192.0, 0.0, 0.0, 0.0, 0.0, 0.0, 0.0, 0.0, 0.0, 0.0, 1.695325187853815E9, 0.0, 2023-09-21 14:39:47.853
192.0, 43692.40775017831, 25730.165926237816, -7709.675456246789, -15465.395506071509, -21851.601821375112, -16207.339311520973, -187500.02235174447, -31815.495409428528, 31838.651816684225, 20304.704642856675, -18886.59821588972, -1632.727877226815, -11338.838796477175, -26684.80893192398, -14127.04010332109, -27062.843985896587, 0.038, 1.006, 0.112, 192.0, 0.0, 0.0, 0.0, 0.0, 0.0, 0.0, 0.0, 0.0, 0.0, 1.695325187853818E9, 0.0, 2023-09-21 14:39:47.853
194.0, 43699.60501189292, 25737.4749466747, -7699.8183369419985, -15459.628756002041, -21849.009019018296, -16201.952541107243, -187500.02235174447, -31811.472095426572, 31844.239752798054, 20310.96313130416, -18880.250320464413, -1664.9143892424572, -11340.045790677761, -26678.12576033184, -14130.571678945027, -27058.77596840572, 0.038, 1.006, 0.112, 192.0, 0.0, 0.0, 0.0, 0.0, 0.0, 0.0, 0.0, 0.0, 0.0, 1.695325187853822E9, 0.0, 2023-09-21 14:39:47.853
196.0, 43695.89462231334, 25732.24463847216, -7705.942714922752, -15468.256529361788, -21850.573641130166, -16205.998206853654, -187500.02235174447, -31814.690746628137, 31840.574066707384, 20306.224561479637, -18885.2571112224, -1633.309022582653, -11334.167281886015, -26681.009135366578, -14127.46478646574, -27063.291020785695, 0.038, 1.006, 0.112, 192.0, 0.0, 0.0, 0.0, 0.0, 0.0, 0.0, 0.0, 0.0, 0.0, 1.695325187913515E9, 0.0, 2023-09-21 14:39:47.913
198.0, 43706.08701778496, 25745.05218804505, -7696.689092718255, -15458.354706568089, -21840.381245658547, -16201.483154473683, -187500.02235174447, -31807.33702270234, 31850.341779034352, 20315.20996275067, -18879.468009408476, -1668.2000956773873, -11321.42678754649, -26673.40954225177, -14124.134376541899, -27057.814843394142, 0.044, 1.014, 0.114, 192.0, 0.5, 48.0, 15.5, 88.0, 1.5, 72.0, 0.0, 0.0, 0.0, 1.695325187913524E9, 0.0, 2023-09-21 14:39:47.913
200.0, 43691.75954958911, 25730.79177508256, -7713.475252804191, -15474.291500364721, -21862.107141269105, -16216.369416280917, -187500.02235174447, -31824.525514188474, 31837.9142091172, 20305.26343646806, -18889.570997902276, -1645.110743655055, -11342.10215116765, -26691.357993049383, -14133.633867935405, -27068.566032477145, 0.044, 1.014, 0.114, 192.0, 0.0, 0.0, 0.0, 0.0, 0.0, 0.0, 0.0, 0.0, 0.0, 1.695325187913527E9, 0.0, 2023-09-21 14:39:47.913
202.0, 43697.45924442521, 25739.62071414241, -7703.975761410686, -15469.530578795742, -21845.835071305642, -16208.188677810274, -187500.02235174447, -31817.082383284855, 31836.48369747206, 20302.35770968887, -18892.052041536816, -1655.9736914603343, -11341.498654067356, -26690.933309904733, -14137.388961003895, -27070.242413311295, 0.044, 1.014, 0.114, 192.0, 0.0, 0.0, 0.0, 0.0, 0.0, 0.0, 0.0, 0.0, 0.0, 1.695325187913531E9, 0.0, 2023-09-21 14:39:47.913
204.0, 43697.66041012531, 25740.29126647607, -7705.227459100182, -15470.4022968295, -21851.065379508185, -16207.138145820874, -187500.02235174447, -31812.63438613825, 31846.273761543485, 20311.141945259806, -18881.703183854006, -1650.989252446801, -11332.200328373949, -26679.60097546589, -14121.966257329734, -27065.25797429776, 0.044, 1.014, 0.114, 192.0, 0.0, 0.0, 0.0, 0.0, 0.0, 0.0, 0.0, 0.0, 0.0, 1.695325187913535E9, 0.0, 2023-09-21 14:39:47.913
206.0, 43686.79746232003, 25730.903533804838, -7715.464558060713, -15478.53833181123, -21855.446321421423, -16215.810622669534, -187500.02235174447, -31814.48958092804, 31834.986130593556, 20299.966073032152, -18893.639015393142, -1652.4197640919406, -11338.056485421239, -26689.1004668594, -14132.873908623924, -27071.02472436723, 0.044, 1.014, 0.114, 192.0, 0.0, 0.0, 0.0, 0.0, 0.0, 0.0, 0.0, 0.0, 0.0, 1.695325187913538E9, 0.0, 2023-09-21 14:39:47.913
208.0, 43709.216262008704, 25751.310676492536, -7697.38199679637, -15461.193378113912, -21835.061530478186, -16201.706671918235, -187500.02235174447, -31799.1562842317, 31844.329159775876, 20313.511230172066, -18882.82077107677, -1658.1194589280437, -11329.920450439507, -26679.019830110054, -14118.099405538966, -27058.485395727803, 0.04, 1.008, 0.112, 192.0, 0.5, 32.0, 15.5, 64.0, 1.5, 64.0, 0.0, 0.0, 0.0, 1.695325187913543E9, 0.0, 2023-09-21 14:39:47.913
210.0, 43702.93542181676, 25741.94529556576, -7699.214839841705, -15462.48977929232, -21833.295742666214, -16201.617264940414, -187500.02235174447, -31800.72090634357, 31851.68288370167, 20315.07585228394, -18879.289195452835, -1656.1301536715216, -11326.925316682496, -26685.412429024273, -14110.812736846536, -27052.62923868051, 0.04, 1.008, 0.112, 192.0, 0.0, 0.0, 0.0, 0.0, 0.0, 0.0, 0.0, 0.0, 0.0, 1.695325187973765E9, 0.0, 2023-09-21 14:39:47.973
212.0, 43683.779976818565, 25720.778193566584, -7714.011694671118, -15484.372137114065, -21851.668876608477, -16219.431605271293, -187500.02235174447, -31820.90453158671, 31836.30488351642, 20292.92527352873, -18894.73425087145, -1670.0552904671779, -11338.280002865793, -26693.123780861355, -14126.146033542876, -27068.856605155066, 0.04, 1.008, 0.112, 192.0, 0.0, 0.0, 0.0, 0.0, 0.0, 0.0, 0.0, 0.0, 0.0, 1.695325187973776E9, 0.0, 2023-09-21 14:39:47.973
214.0, 43701.90724157182, 25744.00165605565, -7697.8290316854755, -15463.942642681915, -21824.757376284288, -16196.074032315497, -187500.02235174447, -31799.29039469843, 31849.53711623396, 20304.726994601133, -18883.513675154885, -1663.3944706194964, -11325.070121892706, -26681.47852200014, -14118.255867750153, -27057.904250371965, 0.04, 1.008, 0.112, 192.0, 0.0, 0.0, 0.0, 0.0, 0.0, 0.0, 0.0, 0.0, 0.0, 1.69532518797378E9, 0.0, 2023-09-21 14:39:47.973
216.0, 43682.75179657362, 25723.505106390134, -7709.720159735699, -15478.448924833408, -21845.879774794554, -16204.25477078614, -187500.02235174447, -31812.29910997142, 31842.25044754153, 20295.898055541285, -18891.24737873642, -1691.7811860777363, -11336.15658714254, -26689.815722681968, -14121.005132318156, -27061.100549829072, 0.04, 1.008, 0.112, 192.0, 0.0, 0.0, 0.0, 0.0, 0.0, 0.0, 0.0, 0.0, 0.0, 1.695325187973783E9, 0.0, 2023-09-21 14:39:47.973
218.0, 43696.52047115809, 25740.4253769428, -7701.762938709609, -15465.551968282696, -21836.93907701243, -16189.189695023262, -187500.02235174447, -31801.324403443865, 31845.647912698736, 20302.06713701095, -18886.911140312095, -1659.818191506647, -11325.159528870527, -26685.32302204645, -14117.65237064986, -27054.93146835941, 0.038, 1.012, 0.11, 192.0, 0.5, 24.0, 15.5, 80.0, 1.5, 56.0, 0.0, 0.0, 0.0, 1.695325187973787E9, 0.0, 2023-09-21 14:39:47.973
220.0, 43677.70030232672, 25715.86080978642, -7717.990305184163, -15489.982424972348, -21864.588184903645, -16212.167288323319, -187500.02235174447, -31827.945331090134, 31840.149383562733, 20298.44615440919, -18891.336785714244, -1691.2670959552643, -11336.357752842636, -26691.33564130493, -14125.78840563159, -27062.464006240847, 0.038, 1.012, 0.11, 192.0, 0.0, 0.0, 0.0, 0.0, 0.0, 0.0, 0.0, 0.0, 0.0, 1.69532518797379E9, 0.0, 2023-09-21 14:39:47.973
222.0, 43670.346578400924, 25706.204856181725, -7731.535462324079, -15494.564532585686, -21866.15280701552, -16229.02050364262, -187500.02235174447, -31838.607113195314, 31817.663528640693, 20273.859235508353, -18913.59912319173, -1643.9931564322899, -11358.77655253131, -26714.827324727456, -14149.123626842933, -27086.268614085748, 0.038, 1.012, 0.11, 192.0, 0.0, 0.0, 0.0, 0.0, 0.0, 0.0, 0.0, 0.0, 0.0, 1.695325187973794E9, 0.0, 2023-09-21 14:39:47.973
224.0, 43683.93643902975, 25717.492487131654, -7711.083616147473, -15481.645224290518, -21853.658181865, -16210.736776678179, -187500.02235174447, -31816.2106652511, 31832.482735214562, 20286.86795078134, -18898.779916617863, -1687.5790581201386, -11346.505444825345, -26698.555254763993, -14134.483234224706, -27069.527157488723, 0.038, 1.012, 0.11, 192.0, 0.0, 0.0, 0.0, 0.0, 0.0, 0.0, 0.0, 0.0, 0.0, 1.695325187973797E9, 0.0, 2023-09-21 14:39:47.973
226.0, 43696.87809906937, 25732.04347277206, -7703.640485243855, -15465.551968282696, -21838.056664235195, -16195.381128237383, -187500.02235174447, -31800.58679587684, 31836.55075270543, 20291.047726994482, -18893.34844271522, -1645.1554471439658, -11342.996220945863, -26684.428952268237, -14125.60959167595, -27065.079160342117, 0.038, 1.012, 0.11, 192.0, 0.0, 0.0, 0.0, 0.0, 0.0, 0.0, 0.0, 0.0, 0.0, 1.695325188033204E9, 0.0, 2023-09-21 14:39:48.033
228.0, 43698.44272118124, 25734.27864721759, -7700.9359241647635, -15465.01552641577, -21842.057626492697, -16200.96906435121, -187500.02235174447, -31803.38076393375, 31855.05799711442, 20312.304235971482, -18875.06471575078, -1696.1397762465213, -11331.082741151184, -26671.17436780624, -14109.561039157039, -27044.984942076797, 0.038, 1.008, 0.11, 192.0, 0.5, 24.0, 15.5, 64.0, 1.5, 56.0, 0.0, 0.0, 0.0, 1.695325188033211E9, 0.0, 2023-09-21 14:39:48.033
230.0, 43693.88296531236, 25736.312655963025, -7712.0894446479615, -15470.804628229695, -21849.009019018296, -16203.405404496838, -187500.02235174447, -31819.563426919394, 31842.71983417509, 20301.374232932834, -18885.905311811606, -1647.1000489115775, -11338.10118891015, -26694.911920417777, -14122.927382341311, -27060.69821842888, 0.038, 1.008, 0.11, 192.0, 0.0, 0.0, 0.0, 0.0, 0.0, 0.0, 0.0, 0.0, 0.0, 1.695325188033214E9, 0.0, 2023-09-21 14:39:48.033
232.0, 43708.18808176376, 25750.95304858125, -7692.151688593828, -15455.650145488997, -21834.94977175591, -16193.30241600304, -187500.02235174447, -31804.207778478598, 31852.39813952424, 20308.839715580907, -18875.22117796197, -1693.949305289901, -11329.518119039312, -26686.66412671377, -14124.514356197638, -27055.803186393165, 0.038, 1.008, 0.11, 192.0, 0.0, 0.0, 0.0, 0.0, 0.0, 0.0, 0.0, 0.0, 0.0, 1.695325188033217E9, 0.0, 2023-09-21 14:39:48.033
234.0, 43715.027715567085, 25752.540022437577, -7688.687168203255, -15449.883395419527, -21824.287989650726, -16195.783459637578, -187500.02235174447, -31793.456589395595, 31857.851965171336, 20311.38781444881, -18868.560358114286, -1651.9280257139237, -11325.204232359438, -26680.740914433114, -14111.550344413561, -27047.577744433613, 0.038, 1.008, 0.11, 192.0, 0.0, 0.0, 0.0, 0.0, 0.0, 0.0, 0.0, 0.0, 0.0, 1.695325188033221E9, 0.0, 2023-09-21 14:39:48.033
236.0, 43704.567099162, 25738.279609475092, -7693.313979305503, -15461.193378113912, -21835.70973106739, -16209.39567201086, -187500.02235174447, -31810.935653559645, 31865.205689097133, 20316.036977295516, -18862.145407455613, -1697.3020669581972, -11314.028360131784, -26673.633059696327, -14108.175231000809, -27041.319255986127, 0.038, 1.008, 0.11, 192.0, 0.0, 0.0, 0.0, 0.0, 0.0, 0.0, 0.0, 0.0, 0.0, 1.695325188033224E9, 0.0, 2023-09-21 14:39:48.033
238.0, 43681.187174461746, 25717.85011504294, -7717.655029017334, -15481.131134168047, -21855.22280397687, -16223.365512295428, -187500.02235174447, -31831.25338926952, 31838.316540517397, 20291.941796772695, -18887.02289903437, -1648.5082088122617, -11339.5764040442, -26695.068382628964, -14125.207260275754, -27065.772064420235, 0.034, 1.01, 0.116, 192.0, 0.5, 8.0, 15.5, 72.0, 1.5, 80.0, 0.0, 0.0, 0.0, 1.695325188033227E9, 0.0, 2023-09-21 14:39:48.033
240.0, 43680.42721515027, 25720.174696466293, -7716.224517372194, -15482.047555690713, -21855.17810048796, -16222.806718684045, -187500.02235174447, -31829.97933983557, 31827.230075267566, 20279.15659894426, -18897.550570672818, -1680.3147411721638, -11355.20027341846, -26708.255911857595, -14137.970106359733, -27075.45036976938, 0.034, 1.01, 0.116, 192.0, 0.0, 0.0, 0.0, 0.0, 0.0, 0.0, 0.0, 0.0, 0.0, 1.695325188093137E9, 0.0, 2023-09-21 14:39:48.093
242.0, 43695.91697405779, 25738.123147263905, -7703.595781754945, -15465.708430493883, -21836.08971072313, -16201.483154473683, -187500.02235174447, -31805.750048846014, 31835.09788931583, 20289.371346160337, -18888.96750080198, -1649.826961735125, -11344.717305268921, -26696.52124601856, -14128.068283566034, -27065.705009186866, 0.034, 1.01, 0.116, 192.0, 0.0, 0.0, 0.0, 0.0, 0.0, 0.0, 0.0, 0.0, 0.0, 1.695325188093149E9, 0.0, 2023-09-21 14:39:48.093
244.0, 43694.93349730176, 25735.3738826959, -7701.2264968426825, -15465.663727004974, -21842.616420104077, -16199.136221305875, -187500.02235174447, -31807.1582087467, 31856.533212248472, 20311.477221426634, -18867.82275054726, -1686.5061743862839, -11322.231450346882, -26676.8964143868, -14106.252980977653, -27040.022854807718, 0.034, 1.01, 0.116, 192.0, 0.0, 0.0, 0.0, 0.0, 0.0, 0.0, 0.0, 0.0, 0.0, 1.695325188093153E9, 0.0, 2023-09-21 14:39:48.093
246.0, 43678.952000016216, 25721.493449389156, -7725.276973876593, -15482.136962668535, -21862.867100580588, -16219.20808782674, -187500.02235174447, -31834.04735732643, 31823.497333943527, 20278.843674521886, -18900.88098059666, -1646.2283308778206, -11357.703668797454, -26699.874007686856, -14135.712580169748, -27072.41053252346, 0.034, 1.01, 0.116, 192.0, 0.0, 0.0, 0.0, 0.0, 0.0, 0.0, 0.0, 0.0, 0.0, 1.695325188093156E9, 0.0, 2023-09-21 14:39:48.093
248.0, 43687.69153209824, 25728.75776633713, -7719.711389507222, -15472.615119530574, -21855.334562699147, -16211.452032500749, -187500.02235174447, -31824.77138337748, 31833.533267203962, 20294.601654362876, -18893.75077411542, -1667.4848398548174, -11344.314973868726, -26693.593167494913, -14137.478367981717, -27064.721532430834, 0.038, 1.006, 0.11800000000000001, 192.0, 0.5, 24.0, 15.5, 56.0, 1.5, 88.0, 0.0, 0.0, 0.0, 1.69532518809316E9, 0.0, 2023-09-21 14:39:48.093
250.0, 43690.44079666624, 25728.243676214657, -7711.575354525489, -15470.558759040685, -21842.03527474824, -16212.748433679157, -187500.02235174447, -31817.61882515178, 31839.63529344026, 20296.30038694148, -18889.123963013168, -1664.6461683089935, -11338.90585171054, -26688.98870813712, -14129.387036488895, -27058.373637005527, 0.038, 1.006, 0.11800000000000001, 192.0, 0.0, 0.0, 0.0, 0.0, 0.0, 0.0, 0.0, 0.0, 0.0, 1.695325188093163E9, 0.0, 2023-09-21 14:39:48.093
252.0, 43672.02295923507, 25710.384632394867, -7727.825072744498, -15486.2049801594, -21861.503644168813, -16226.762977452634, -187500.02235174447, -31827.163020034197, 31825.508990944505, 20281.950567001175, -18900.12102128518, -1675.4197091364515, -11353.546244328767, -26698.04116464152, -14126.615420176438, -27068.387218521504, 0.038, 1.006, 0.11800000000000001, 192.0, 0.0, 0.0, 0.0, 0.0, 0.0, 0.0, 0.0, 0.0, 0.0, 1.695325188093167E9, 0.0, 2023-09-21 14:39:48.093
254.0, 43686.059854753, 25723.505106390134, -7716.157462138827, -15470.514055551776, -21853.077036509163, -16207.16049756533, -187500.02235174447, -31807.560540146893, 31820.390441464242, 20277.368459387835, -18903.384375975656, -1664.534409586717, -11354.44031410698, -26711.966301437176, -14135.13143481391, -27066.129692331517, 0.038, 1.006, 0.11800000000000001, 192.0, 0.0, 0.0, 0.0, 0.0, 0.0, 0.0, 0.0, 0.0, 0.0, 1.69532518809317E9, 0.0, 2023-09-21 14:39:48.093
0.0, 43696.632229880364, 25737.743167608165, -7703.90870617732, -15457.594747256608, -21836.916725267976, -16196.006977082132, -187500.02235174447, -31800.899720299214, 31843.390386508752, 20299.809610820965, -18881.054983264803, -1672.8045550351806, -11333.742598741364, -26684.250138312596, -14115.9312863268, -27042.950933331365, 0.038, 1.006, 0.11800000000000001, 192.0, 0.0, 0.0, 0.0, 0.0, 0.0, 0.0, 0.0, 0.0, 0.0, 1.695325188153796E9, 0.0, 2023-09-21 14:39:48.153
2.0, 43671.754738301606, 25713.916208018807, -7728.585032055978, -15483.187494657934, -21870.176121017474, -16225.69009371878, -187500.02235174447, -31835.835496882857, 31827.520647945483, 20284.185741446705, -18897.08118403926, -1672.983368990823, -11349.05354369325, -26705.171371122764, -14131.622210934427, -27066.509671987256, 0.042, 1.006, 0.122, 192.0, 0.5, 40.0, 15.5, 56.0, 1.5, 104.0, 0.0, 0.0, 0.0, 1.695325188153805E9, 0.0, 2023-09-21 14:39:48.153
4.0, 43690.552555388516, 25734.077481517492, -7714.324619093492, -15462.78035197024, -21848.04789400672, -16204.50063997515, -187500.02235174447, -31812.67908962716, 31825.799563622426, 20282.39760189028, -18900.232780007456, -1652.1962466473874, -11356.6307850636, -26698.018812897066, -14143.669801195838, -27070.756503433768, 0.042, 1.006, 0.122, 192.0, 0.0, 0.0, 0.0, 0.0, 0.0, 0.0, 0.0, 0.0, 0.0, 1.695325188153809E9, 0.0, 2023-09-21 14:39:48.153
6.0, 43687.892697798336, 25730.36709193791, -7713.072921403996, -15472.01162243028, -21856.89918481102, -16216.280009303095, -187500.02235174447, -31826.805392122915, 31839.43412774016, 20296.30038694148, -18887.067602523282, -1676.3137789146638, -11344.024401190807, -26689.167522092765, -14125.341370742486, -27060.787625406698, 0.042, 1.006, 0.122, 192.0, 0.0, 0.0, 0.0, 0.0, 0.0, 0.0, 0.0, 0.0, 0.0, 1.695325188153812E9, 0.0, 2023-09-21 14:39:48.153
8.0, 43699.49325317064, 25743.75578686664, -7702.545249765546, -15459.628756002041, -21836.69320782342, -16204.902971375344, -187500.02235174447, -31805.86180756829, 31846.854906899323, 20298.043823008993, -18881.122038498168, -1655.3925461044964, -11329.38400857258, -26676.51643473106, -14123.575582930516, -27056.473738726825, 0.042, 1.006, 0.122, 192.0, 0.0, 0.0, 0.0, 0.0, 0.0, 0.0, 0.0, 0.0, 0.0, 1.695325188153815E9, 0.0, 2023-09-21 14:39:48.153
10.0, 43682.0588924955, 25720.778193566584, -7721.544232552556, -15481.712279523885, -21860.453112179413, -16229.73575946519, -187500.02235174447, -31832.169810792187, 31839.59058995135, 20284.029279235518, -18888.319300212777, -1678.526601615739, -11338.48116856589, -26704.880798444847, -14124.693170153281, -27063.5368899747, 0.042, 1.006, 0.122, 192.0, 0.0, 0.0, 0.0, 0.0, 0.0, 0.0, 0.0, 0.0, 0.0, 1.695325188153819E9, 0.0, 2023-09-21 14:39:48.153
12.0, 43684.09290124094, 25727.818993070006, -7724.517014565113, -15478.53833181123, -21856.18392898845, -16220.437433771782, -187500.02235174447, -31827.00655782301, 31828.213552023597, 20270.998212218074, -18899.45046895152, -1638.0922958960887, -11352.853340250653, -26718.090679417932, -14143.446283751284, -27080.613622738558, 0.032, 1.004, 0.122, 192.0, 0.5, 0.0, 15.5, 48.0, 1.5, 104.0, 0.0, 0.0, 0.0, 1.695325188153822E9, 0.0, 2023-09-21 14:39:48.153
14.0, 43694.91114555731, 25739.84423158696, -7707.797909712543, -15465.708430493883, -21847.37734167306, -16209.775651666601, -187500.02235174447, -31819.183447263655, 31831.54396194744, 20289.997195005082, -18883.200750732514, -1674.8385637806134, -11346.01370644733, -26694.107257617386, -14128.694132410781, -27060.27353528423, 0.032, 1.004, 0.122, 192.0, 0.0, 0.0, 0.0, 0.0, 0.0, 0.0, 0.0, 0.0, 0.0, 1.695325188213516E9, 0.0, 2023-09-21 14:39:48.213
16.0, 43707.115198029904, 25756.406874228345, -7697.583162496468, -15452.140921609513, -21830.524126353757, -16190.553151435037, -187500.02235174447, -31793.56834811787, 31844.17269756469, 20301.39658467729, -18871.197863960013, -1641.8697407090356, -11335.53073829779, -26674.728295174635, -14113.852574092458, -27048.695331656378, 0.032, 1.004, 0.122, 192.0, 0.0, 0.0, 0.0, 0.0, 0.0, 0.0, 0.0, 0.0, 0.0, 1.695325188213528E9, 0.0, 2023-09-21 14:39:48.213
18.0, 43709.48448294216, 25758.798510885063, -7693.828069427976, -15447.178834340435, -21826.74668154081, -16187.692128144758, -187500.02235174447, -31796.25055745251, 31846.497278988038, 20308.459735925167, -18869.32031742577, -1687.176726719943, -11336.827139476198, -26683.13255108983, -14108.957542056745, -27037.742976873276, 0.032, 1.004, 0.122, 192.0, 0.0, 0.0, 0.0, 0.0, 0.0, 0.0, 0.0, 0.0, 0.0, 1.695325188213532E9, 0.0, 2023-09-21 14:39:48.213
20.0, 43712.166692276805, 25767.314525522535, -7689.424775770281, -15439.512185992264, -21825.137355940027, -16176.96329080621, -187500.02235174447, -31779.285583410932, 31856.332046548374, 20323.234239010126, -18858.904404509594, -1647.1894558893987, -11321.33738056867, -26662.904222357778, -14093.959521527235, -27026.053014523153, 0.032, 1.004, 0.122, 192.0, 0.0, 0.0, 0.0, 0.0, 0.0, 0.0, 0.0, 0.0, 0.0, 1.695325188213535E9, 0.0, 2023-09-21 14:39:48.213
22.0, 43702.13075901637, 25757.837385873485, -7693.269275816593, -15449.749284952795, -21837.721388068367, -16188.094459544953, -187500.02235174447, -31793.903624284703, 31842.3175027749, 20320.5967331644, -18869.901462781603, -1683.3098749291748, -11329.272249850304, -26668.46980672715, -14106.141222255377, -27032.95970355984, 0.032, 1.008, 0.124, 192.0, 0.5, 0.0, 15.5, 64.0, 1.5, 112.0, 0.0, 0.0, 0.0, 1.695325188213538E9, 0.0, 2023-09-21 14:39:48.213
24.0, 43696.54282290254, 25757.300944006558, -7700.2877235755595, -15455.560738511174, -21840.56005961419, -16187.8709421004, -187500.02235174447, -31794.350659173808, 31832.415679981197, 20309.35380570338, -18878.573939630263, -1632.1914353598877, -11342.124502912106, -26675.063571341467, -14109.046949034566, -27041.900401341965, 0.032, 1.008, 0.124, 192.0, 0.0, 0.0, 0.0, 0.0, 0.0, 0.0, 0.0, 0.0, 0.0, 1.695325188213541E9, 0.0, 2023-09-21 14:39:48.213
26.0, 43701.259040982615, 25757.81503412903, -7692.866944416398, -15457.572395512152, -21842.437606148436, -16198.868000372411, -187500.02235174447, -31806.644118624226, 31842.04928184143, 20315.612294150866, -18869.409724403587, -1676.0232062367447, -11334.077874908195, -26662.27837351303, -14104.107213509944, -27041.319255986127, 0.032, 1.008, 0.124, 192.0, 0.0, 0.0, 0.0, 0.0, 0.0, 0.0, 0.0, 0.0, 0.0, 1.695325188213545E9, 0.0, 2023-09-21 14:39:48.213
28.0, 43687.3115524425, 25747.80145261305, -7709.608401013423, -15463.361497326077, -21854.194623731928, -16211.049701100554, -187500.02235174447, -31813.48375242755, 31824.34670023283, 20300.50251489908, -18885.16770424458, -1622.7813509442033, -11355.91552924103, -26693.101429116898, -14113.897277581369, -27056.272573026727, 0.032, 1.008, 0.124, 192.0, 0.0, 0.0, 0.0, 0.0, 0.0, 0.0, 0.0, 0.0, 0.0, 1.695325188213548E9, 0.0, 2023-09-21 14:39:48.213
30.0, 43696.18519499126, 25756.943316095272, -7697.404348540825, -15457.237119345322, -21851.847690564122, -16204.63475044188, -187500.02235174447, -31808.074630269366, 31824.83843861085, 20305.26343646806, -18884.407744933098, -1663.3497671305856, -11353.926223984507, -26686.57471973595, -14121.385111973896, -27057.434863738403, 0.032, 1.008, 0.124, 192.0, 0.0, 0.0, 0.0, 0.0, 0.0, 0.0, 0.0, 0.0, 0.0, 1.695325188273777E9, 0.0, 2023-09-21 14:39:48.273
32.0, 43699.18032874827, 25757.211537028736, -7697.136127607361, -15455.538386766719, -21847.66791435098, -16196.744584649157, -187500.02235174447, -31806.420601179674, 31834.583799193362, 20318.428613952234, -18872.851893049705, -1623.6754207224155, -11337.028305176294, -26670.660277683768, -14105.537725155084, -27049.432939223403, 0.036000000000000004, 1.006, 0.128, 192.0, 0.5, 16.0, 15.5, 56.0, 2.0, 0.0, 0.0, 0.0, 0.0, 1.695325188273789E9, 0.0, 2023-09-21 14:39:48.273
34.0, 43692.49715715613, 25748.404949713346, -7706.2779910895815, -15465.529616538242, -21861.8612720801, -16205.037081842076, -187500.02235174447, -31811.58385414885, 31830.739299147048, 20314.964093561663, -18879.468009408476, -1655.370194360041, -11345.074933180205, -26679.17629232124, -14116.26656249363, -27061.50288122927, 0.036000000000000004, 1.006, 0.128, 192.0, 0.0, 0.0, 0.0, 0.0, 0.0, 0.0, 0.0, 0.0, 0.0, 1.695325188273793E9, 0.0, 2023-09-21 14:39:48.273
36.0, 43686.50688964211, 25736.692635618765, -7714.615191771411, -15471.765753241272, -21873.014792563295, -16218.917515148822, -187500.02235174447, -31818.66935714118, 31828.43706946815, 20309.867895825853, -18886.844085078726, -1619.9426793983794, -11346.371334358613, -26683.26666155656, -14120.960428829245, -27068.990715621796, 0.036000000000000004, 1.006, 0.128, 192.0, 0.0, 0.0, 0.0, 0.0, 0.0, 0.0, 0.0, 0.0, 0.0, 1.695325188273796E9, 0.0, 2023-09-21 14:39:48.273
38.0, 43700.52143341559, 25752.115339292926, -7701.181793353772, -15457.281822834233, -21858.419103433982, -16201.550209707048, -187500.02235174447, -31802.039659266433, 31833.153287548223, 20314.45000343919, -18886.68762286754, -1644.8648744660468, -11340.448122077958, -26679.645678954803, -14127.643600421383, -27070.13065458902, 0.036000000000000004, 1.006, 0.128, 192.0, 0.0, 0.0, 0.0, 0.0, 0.0, 0.0, 0.0, 0.0, 0.0, 1.695325188273799E9, 0.0, 2023-09-21 14:39:48.273
40.0, 43709.39507596434, 25758.552641696053, -7694.453918272725, -15450.799816942194, -21854.060513265194, -16186.44043045526, -187500.02235174447, -31792.204891706097, 31846.318465032396, 20326.07291055595, -18877.143427985124, -1629.2857085806977, -11324.868956192608, -26670.660277683768, -14117.60766716095, -27066.733189431812, 0.036000000000000004, 1.006, 0.128, 192.0, 0.0, 0.0, 0.0, 0.0, 0.0, 0.0, 0.0, 0.0, 0.0, 1.695325188273802E9, 0.0, 2023-09-21 14:39:48.273
42.0, 43716.480578956674, 25766.420455744323, -7688.173078080783, -15441.143863337502, -21837.74373981282, -16180.785439108067, -187500.02235174447, -31784.828816035846, 31851.615828468304, 20335.997085094106, -18872.874244794162, -1650.18458964641, -11325.159528870527, -26657.338637988407, -14116.624190404915, -27060.474700984327, 0.034, 1.01, 0.122, 192.0, 0.5, 8.0, 15.5, 72.0, 1.5, 104.0, 0.0, 0.0, 0.0, 1.695325188273807E9, 0.0, 2023-09-21 14:39:48.273
44.0, 43718.156959790824, 25767.71685692273, -7686.586104224456, -15442.641430216006, -21838.41429214648, -16177.611491395413, -187500.02235174447, -31782.839510779326, 31855.281514558974, 20342.568497963966, -18869.83440754824, -1641.5791680311165, -11325.293639337258, -26639.12196625733, -14110.41040544634, -27062.06167484065, 0.034, 1.01, 0.122, 192.0, 0.0, 0.0, 0.0, 0.0, 0.0, 0.0, 0.0, 0.0, 0.0, 1.695325188333354E9, 0.0, 2023-09-21 14:39:48.333
46.0, 43724.34839300494, 25773.550662225567, -7679.634711698856, -15436.204127812878, -21830.300608909205, -16169.587215135958, -187500.02235174447, -31774.994048475513, 31861.919982662203, 20347.195309066214, -18863.285346422836, -1650.2516448797758, -11312.19551708645, -26646.006303549566, -14102.296722209065, -27054.6855991704, 0.034, 1.01, 0.122, 192.0, 0.0, 0.0, 0.0, 0.0, 0.0, 0.0, 0.0, 0.0, 0.0, 1.695325188333364E9, 0.0, 2023-09-21 14:39:48.333
48.0, 43710.64677365384, 25754.61873467192, -7690.520011248591, -15453.906709421482, -21844.6057253606, -16200.142049806364, -187500.02235174447, -31798.418676664674, 31847.905438888723, 20324.910619844275, -18879.222140219466, -1641.6462232644826, -11328.869918450107, -26654.790539120502, -14106.208277488742, -27069.415398766447, 0.034, 1.01, 0.122, 192.0, 0.0, 0.0, 0.0, 0.0, 0.0, 0.0, 0.0, 0.0, 0.0, 1.695325188333367E9, 0.0, 2023-09-21 14:39:48.333
50.0, 43724.393096493855, 25769.750865668164, -7679.478249487669, -15438.14872958049, -21831.306437409694, -16181.433639697272, -187500.02235174447, -31777.989182232523, 31855.616790725806, 20327.615180923367, -18870.572015115264, -1638.4499238073736, -11322.723188724898, -26660.020847323045, -14099.435698918785, -27061.793453907187, 0.034, 1.01, 0.122, 192.0, 0.0, 0.0, 0.0, 0.0, 0.0, 0.0, 0.0, 0.0, 0.0, 1.695325188333371E9, 0.0, 2023-09-21 14:39:48.333
52.0, 43730.58452970797, 25775.562319226545, -7667.810638881999, -15433.991305111804, -21828.51246935278, -16173.878750071377, -187500.02235174447, -31776.558670587383, 31866.189165853164, 20332.443157725713, -18863.68767782303, -1658.4547350948735, -11313.76013919832, -26647.258001239064, -14093.467783149217, -27053.232735780806, 0.034, 1.01, 0.124, 192.0, 0.5, 8.0, 15.5, 72.0, 1.5, 112.0, 0.0, 0.0, 0.0, 1.695325188333374E9, 0.0, 2023-09-21 14:39:48.333
54.0, 43723.23080578218, 25768.879147634405, -7669.799944138521, -15437.589935969108, -21823.706844294888, -16174.884578571866, -187500.02235174447, -31775.03875196442, 31863.976343152088, 20325.804689622484, -18866.25812843539, -1648.1952843898875, -11317.358770055625, -26646.02865529402, -14093.847762804959, -27055.15498580396, 0.034, 1.01, 0.124, 192.0, 0.0, 0.0, 0.0, 0.0, 0.0, 0.0, 0.0, 0.0, 0.0, 1.695325188333377E9, 0.0, 2023-09-21 14:39:48.333
56.0, 43721.867349370405, 25764.38644699889, -7668.257673771104, -15442.015581371259, -21826.679626307443, -16177.522084417593, -187500.02235174447, -31778.52562409945, 31862.054093128932, 20317.73570987412, -18871.242567448924, -1669.6306073225269, -11313.894249665052, -26646.07335878293, -14088.818620302514, -27057.45721548286, 0.034, 1.01, 0.124, 192.0, 0.0, 0.0, 0.0, 0.0, 0.0, 0.0, 0.0, 0.0, 0.0, 1.69532518833338E9, 0.0, 2023-09-21 14:39:48.333
58.0, 43729.39988725184, 25775.584670971, -7665.731926647655, -15432.180813810923, -21815.391995357513, -16169.698973858236, -187500.02235174447, -31767.752083271993, 31866.74795946455, 20320.663788397764, -18870.05792499279, -1646.8765314670243, -11310.519136252302, -26648.397940206283, -14095.032405261089, -27053.568011947635, 0.034, 1.01, 0.124, 192.0, 0.0, 0.0, 0.0, 0.0, 0.0, 0.0, 0.0, 0.0, 0.0, 1.695325188333384E9, 0.0, 2023-09-21 14:39:48.333
60.0, 43719.65452666933, 25758.463234718234, -7674.247941285127, -15451.090389620113, -21831.46289962088, -16190.8213723685, -187500.02235174447, -31786.14756895871, 31866.435035042174, 20319.948532575196, -18870.013221503883, -1682.7063778288816, -11308.038092617762, -26626.068547495433, -14093.378376171397, -27056.518442215736, 0.034, 1.01, 0.124, 192.0, 0.0, 0.0, 0.0, 0.0, 0.0, 0.0, 0.0, 0.0, 0.0, 1.695325188393029E9, 0.0, 2023-09-21 14:39:48.393
62.0, 43705.371761962386, 25744.649856644854, -7694.520973506091, -15461.171026369457, -21845.432739905445, -16203.15953530783, -187500.02235174447, -31800.855016810303, 31848.620694711295, 20299.429631165225, -18887.268768223377, -1640.0368976637005, -11326.165357371015, -26677.589318464914, -14111.371530457918, -27071.5388144897, 0.042, 1.01, 0.12, 192.0, 0.5, 40.0, 15.5, 72.0, 1.5, 96.0, 0.0, 0.0, 0.0, 1.695325188393039E9, 0.0, 2023-09-21 14:39:48.393
64.0, 43702.82366309448, 25740.023045542606, -7693.872772916887, -15464.255567104288, -21852.004152775306, -16208.278084788095, -187500.02235174447, -31805.86180756829, 31836.77427014998, 20285.97388100313, -18898.578750917764, -1670.435270122918, -11343.62206979061, -26683.08784760092, -14127.330675999008, -27085.26278558526, 0.042, 1.01, 0.12, 192.0, 0.0, 0.0, 0.0, 0.0, 0.0, 0.0, 0.0, 0.0, 0.0, 1.695325188393042E9, 0.0, 2023-09-21 14:39:48.393
66.0, 43698.35331420342, 25741.185336254282, -7696.309113062515, -15463.003869414792, -21850.95362078591, -16207.719291176712, -187500.02235174447, -31806.420601179674, 31837.645988183736, 20286.823247292432, -18895.717727627485, -1632.437304548896, -11340.917508711518, -26677.209338809174, -14121.541574185083, -27078.892538415497, 0.042, 1.01, 0.12, 192.0, 0.0, 0.0, 0.0, 0.0, 0.0, 0.0, 0.0, 0.0, 0.0, 1.695325188393046E9, 0.0, 2023-09-21 14:39:48.393
68.0, 43702.60014564993, 25743.308751977536, -7685.602627468423, -15461.416895558465, -21850.5065858968, -16197.817468383011, -187500.02235174447, -31805.794752334925, 31833.64502592624, 20282.911692012753, -18895.203637505012, -1671.955188745879, -11345.074933180205, -26677.76813242056, -14126.07897830951, -27080.948898905386, 0.042, 1.01, 0.12, 192.0, 0.0, 0.0, 0.0, 0.0, 0.0, 0.0, 0.0, 0.0, 0.0, 1.695325188393049E9, 0.0, 2023-09-21 14:39:48.393
70.0, 43718.42518072429, 25759.916098107828, -7675.276121530071, -15441.322677293145, -21831.5523065987, -16191.782497380078, -187500.02235174447, -31785.633478836236, 31840.507011474016, 20290.44422989419, -18886.441753678533, -1629.3304120696084, -11333.832005719187, -26669.430931738727, -14111.41623394683, -27069.97419237783, 0.042, 1.01, 0.12, 192.0, 0.0, 0.0, 0.0, 0.0, 0.0, 0.0, 0.0, 0.0, 0.0, 1.695325188393053E9, 0.0, 2023-09-21 14:39:48.393
72.0, 43706.10936952941, 25747.46617644622, -7679.277083787571, -15453.3479158101, -21848.450225406912, -16207.741642921168, -187500.02235174447, -31801.19029297713, 31847.97249412209, 20299.87666605433, -18877.657518107597, -1677.8784010265354, -11325.33834282617, -26657.964486833156, -14106.0294635331, -27060.899384128978, 0.038, 1.012, 0.11, 192.0, 0.5, 24.0, 15.5, 80.0, 1.5, 56.0, 0.0, 0.0, 0.0, 1.695325188393056E9, 0.0, 2023-09-21 14:39:48.393
74.0, 43711.093808542944, 25754.43992071628, -7680.238208799149, -15446.932965151425, -21846.61738236158, -16194.509410203626, -187500.02235174447, -31795.222377207563, 31829.129973546267, 20281.369421645337, -18893.281387481857, -1619.562699742639, -11349.142950671072, -26677.075228342444, -14119.75343462866, -27075.9421081474, 0.038, 1.012, 0.11, 192.0, 0.0, 0.0, 0.0, 0.0, 0.0, 0.0, 0.0, 0.0, 0.0, 1.695325188453232E9, 0.0, 2023-09-21 14:39:48.453
76.0, 43718.13460804637, 25762.352438253456, -7667.721231904177, -15441.345029037599, -21842.638771848535, -16190.754317135135, -187500.02235174447, -31790.997897505513, 31848.799508666936, 20304.68229111222, -18872.382506416143, -1671.1505259454877, -11333.630840019088, -26647.168594261242, -14103.257847220642, -27053.836232881098, 0.038, 1.012, 0.11, 192.0, 0.0, 0.0, 0.0, 0.0, 0.0, 0.0, 0.0, 0.0, 0.0, 1.695325188453241E9, 0.0, 2023-09-21 14:39:48.453
78.0, 43703.38245670587, 25743.040531044073, -7686.47434550218, -15456.410104800476, -21859.715504612388, -16209.529782477592, -187500.02235174447, -31809.460438425594, 31835.813145138403, 20291.338299672403, -18885.68179436705, -1623.5860137445943, -11337.788264487775, -26663.32890550243, -14113.897277581369, -27066.84494815409, 0.038, 1.012, 0.11, 192.0, 0.0, 0.0, 0.0, 0.0, 0.0, 0.0, 0.0, 0.0, 0.0, 1.695325188453245E9, 0.0, 2023-09-21 14:39:48.453
80.0, 43705.63998289585, 25746.303885734545, -7677.824220397976, -15450.665706475462, -21852.38413243105, -16201.63961668487, -187500.02235174447, -31801.39145867723, 31834.606150937816, 20276.854369265362, -18890.800343847317, -1660.5557990736722, -11340.24695637786, -26676.583489964425, -14121.675684651815, -27070.64474471149, 0.038, 1.012, 0.11, 192.0, 0.0, 0.0, 0.0, 0.0, 0.0, 0.0, 0.0, 0.0, 0.0, 1.695325188453248E9, 0.0, 2023-09-21 14:39:48.453
82.0, 43717.50875920162, 25756.786853884085, -7670.962234850197, -15439.53453773672, -21843.93517302694, -16190.44139271276, -187500.02235174447, -31791.71315332808, 31841.82576439688, 20284.476314124622, -18884.49715191092, -1633.7784092162144, -11334.524909797301, -26670.481463728127, -14114.545478170572, -27063.49218648579, 0.044, 1.01, 0.114, 192.0, 0.5, 48.0, 15.5, 72.0, 1.5, 72.0, 0.0, 0.0, 0.0, 1.695325188453251E9, 0.0, 2023-09-21 14:39:48.453
84.0, 43713.84307311095, 25750.14838578086, -7668.7717638935765, -15443.088465105113, -21840.872984036563, -16192.900084602845, -187500.02235174447, -31789.72384807156, 31861.741168706558, 20297.887360797806, -18867.3533639137, -1678.9289330159347, -11313.782490942776, -26657.025713566032, -14100.910914052834, -27045.141404287984, 0.044, 1.01, 0.114, 192.0, 0.0, 0.0, 0.0, 0.0, 0.0, 0.0, 0.0, 0.0, 0.0, 1.695325188453255E9, 0.0, 2023-09-21 14:39:48.453
86.0, 43716.212358023215, 25750.99775207016, -7672.728022662166, -15445.234232572822, -21833.4522048774, -16189.748488634646, -187500.02235174447, -31782.23601367903, 31833.44386022614, 20267.891319738785, -18896.65650089461, -1640.729801741815, -11344.091456424172, -26680.2491760551, -14111.9303240693, -27073.952802890875, 0.044, 1.01, 0.114, 192.0, 0.0, 0.0, 0.0, 0.0, 0.0, 0.0, 0.0, 0.0, 0.0, 1.695325188453258E9, 0.0, 2023-09-21 14:39:48.453
88.0, 43696.632229880364, 25729.294208204057, -7690.587066481957, -15465.529616538242, -21858.687324367445, -16209.865058644422, -187500.02235174447, -31813.506104172007, 31846.072595843387, 20280.274186167026, -18884.02776527736, -1671.5528573456834, -11325.539508526268, -26667.732199160124, -14100.150954741355, -27060.25118353977, 0.044, 1.01, 0.114, 192.0, 0.0, 0.0, 0.0, 0.0, 0.0, 0.0, 0.0, 0.0, 0.0, 1.695325188453261E9, 0.0, 2023-09-21 14:39:48.453
90.0, 43705.55057591803, 25738.838403086473, -7687.301360047026, -15458.801741457195, -21849.679571351957, -16202.466631229716, -187500.02235174447, -31803.96190928959, 31832.81801138139, 20269.07596219492, -18896.567093916787, -1644.1719703879323, -11343.86793897962, -26676.158806819774, -14115.596010159972, -27073.01402962375, 0.044, 1.01, 0.114, 192.0, 0.0, 0.0, 0.0, 0.0, 0.0, 0.0, 0.0, 0.0, 0.0, 1.695325188513515E9, 0.0, 2023-09-21 14:39:48.513
92.0, 43709.59624166444, 25748.76257762463, -7680.886409388353, -15450.218671586355, -21843.51048988229, -16191.335462490972, -187500.02235174447, -31796.518778385973, 31832.81801138139, 20270.886453495797, -18895.091878782736, -1655.7054705268706, -11337.00595343184, -26676.225862053143, -14114.992513059678, -27068.096645843583, 0.04, 1.012, 0.114, 192.0, 0.5, 32.0, 15.5, 80.0, 1.5, 72.0, 0.0, 0.0, 0.0, 1.695325188513529E9, 0.0, 2023-09-21 14:39:48.513
94.0, 43708.43395095276, 25745.38746421188, -7680.349967521426, -15449.43636053042, -21849.254888207306, -16195.269369515107, -187500.02235174447, -31801.659679610693, 31830.40402298022, 20270.953508729162, -18893.92958807106, -1648.3517466010746, -11345.38785760258, -26668.000420093587, -14110.812736846536, -27063.380427763514, 0.04, 1.012, 0.114, 192.0, 0.0, 0.0, 0.0, 0.0, 0.0, 0.0, 0.0, 0.0, 0.0, 1.695325188513536E9, 0.0, 2023-09-21 14:39:48.513
96.0, 43727.36587850641, 25762.464196975732, -7668.548246449023, -15436.137072579513, -21837.162594456982, -16181.791267608556, -187500.02235174447, -31784.96292650258, 31839.45647948462, 20280.564758844943, -18882.194922232025, -1649.022298934734, -11333.34026734117, -26666.055818325978, -14104.397786187863, -27049.76821539023, 0.04, 1.012, 0.114, 192.0, 0.0, 0.0, 0.0, 0.0, 0.0, 0.0, 0.0, 0.0, 0.0, 1.695325188513544E9, 0.0, 2023-09-21 14:39:48.513
98.0, 43741.17925657979, 25771.427246502313, -7655.114848031384, -15424.849441629583, -21821.06933844916, -16170.928319803277, -187500.02235174447, -31770.121368184256, 31857.471985515596, 20292.321776428435, -18864.380581901143, -1659.3264531286304, -11323.460796291924, -26655.95282983218, -14090.003262758644, -27038.346473973572, 0.04, 1.012, 0.114, 192.0, 0.0, 0.0, 0.0, 0.0, 0.0, 0.0, 0.0, 0.0, 0.0, 1.69532518851355E9, 0.0, 2023-09-21 14:39:48.513
100.0, 43740.93338739078, 25777.506920994154, -7649.057525283996, -15418.456842715364, -21815.213181401872, -16166.569729634492, -187500.02235174447, -31769.0484844504, 31859.21542158311, 20300.748384088085, -18863.12888421165, -1655.2807873822198, -11314.609505487622, -26646.207469249664, -14085.21998944521, -27034.613732649534, 0.04, 1.012, 0.114, 192.0, 0.0, 0.0, 0.0, 0.0, 0.0, 0.0, 0.0, 0.0, 0.0, 1.695325188513556E9, 0.0, 2023-09-21 14:39:48.513
102.0, 43737.08888734447, 25773.461255247745, -7654.243129997627, -15427.755168408772, -21821.158745426983, -16181.076011785986, -187500.02235174447, -31779.263231666475, 31854.767424436504, 20296.792125319498, -18866.45929413549, -1668.0212817217448, -11314.922429909997, -26644.41932969324, -14085.175285956298, -27039.10643328505, 0.036000000000000004, 1.008, 0.11, 192.0, 0.5, 16.0, 15.5, 64.0, 1.5, 56.0, 0.0, 0.0, 0.0, 1.695325188513562E9, 0.0, 2023-09-21 14:39:48.513
104.0, 43732.149151819845, 25768.6332784454, -7658.668775399778, -15430.616191699051, -21821.829297760643, -16182.238302497663, -187500.02235174447, -31781.61016483428, 31859.953029150132, 20303.028262022526, -18860.69254406602, -1647.5023803117729, -11311.457909519424, -26640.239553480096, -14076.9721957412, -27038.6817501404, 0.036000000000000004, 1.008, 0.11, 192.0, 0.0, 0.0, 0.0, 0.0, 0.0, 0.0, 0.0, 0.0, 0.0, 1.695325188573839E9, 0.0, 2023-09-21 14:39:48.573
106.0, 43723.56608194901, 25755.49045270568, -7655.338365475937, -15441.277973804234, -21838.302533424205, -16187.580369422481, -187500.02235174447, -31791.57904286135, 31851.30290404593, 20289.706622327165, -18869.946166270514, -1670.435270122918, -11317.984618900373, -26662.390132235305, -14086.091707478967, -27041.40866296395, 0.036000000000000004, 1.008, 0.11, 192.0, 0.0, 0.0, 0.0, 0.0, 0.0, 0.0, 0.0, 0.0, 0.0, 1.695325188573854E9, 0.0, 2023-09-21 14:39:48.573
108.0, 43714.20070102224, 25748.650818902355, -7667.095383059429, -15449.81634018616, -21845.18687071644, -16199.650311428346, -187500.02235174447, -31810.24274948153, 31828.12414504578, 20265.231462148604, -18893.236683992945, -1628.861025436047, -11342.079799423194, -26677.9469463762, -14111.103309524455, -27068.87895689952, 0.036000000000000004, 1.008, 0.11, 192.0, 0.0, 0.0, 0.0, 0.0, 0.0, 0.0, 0.0, 0.0, 0.0, 1.695325188573858E9, 0.0, 2023-09-21 14:39:48.573
110.0, 43698.01803803659, 25729.204801226235, -7679.835877398954, -15465.484913049331, -21866.13045527106, -16223.320808806517, -187500.02235174447, -31818.132915274255, 31830.58283693586, 20269.187720917194, -18890.44271593603, -1666.6131218210605, -11341.900985467551, -26680.740914433114, -14114.992513059678, -27071.382352278513, 0.036000000000000004, 1.008, 0.11, 192.0, 0.0, 0.0, 0.0, 0.0, 0.0, 0.0, 0.0, 0.0, 0.0, 1.695325188573861E9, 0.0, 2023-09-21 14:39:48.573
112.0, 43707.91986083029, 25740.693597876263, -7673.555037207012, -15454.86783443306, -21844.98570501634, -16212.413157512327, -187500.02235174447, -31812.276758226963, 31817.86469434079, 20256.402523088756, -18902.467954452986, -1621.149673598966, -11354.306203640248, -26686.082981357933, -14117.36179797194, -27080.323050060637, 0.03, 1.008, 0.112, 192.0, 0.0, 120.0, 15.5, 64.0, 1.5, 64.0, 0.0, 0.0, 0.0, 1.695325188573865E9, 0.0, 2023-09-21 14:39:48.573
114.0, 43725.778904650084, 25755.24458351667, -7650.532740418046, -15439.042799358702, -21829.473594364357, -16188.25092175614, -187500.02235174447, -31790.886138783237, 31839.501182973527, 20273.00986921905, -18884.139523999635, -1668.9600549888678, -11332.535604540779, -26662.457187468674, -14098.988664029679, -27066.107340587063, 0.03, 1.008, 0.112, 192.0, 0.0, 0.0, 0.0, 0.0, 0.0, 0.0, 0.0, 0.0, 0.0, 1.695325188573868E9, 0.0, 2023-09-21 14:39:48.573
116.0, 43734.76430592112, 25765.436978988288, -7643.067257769973, -15428.224555042334, -21818.45418434789, -16173.67758437128, -187500.02235174447, -31776.357504887284, 31860.60122973934, 20291.00302350557, -18862.88301502264, -1636.6170807620385, -11308.060444362218, -26649.98491406261, -14073.328861394986, -27042.25802925325, 0.03, 1.008, 0.112, 192.0, 0.0, 0.0, 0.0, 0.0, 0.0, 0.0, 0.0, 0.0, 0.0, 1.695325188573871E9, 0.0, 2023-09-21 14:39:48.573
118.0, 43717.59816617944, 25747.510879935133, -7653.729039875155, -15444.831901172627, -21836.31322816768, -16189.72613689019, -187500.02235174447, -31799.268042953976, 31852.509898246517, 20278.843674521886, -18872.650727349606, -1677.4760696263397, -11317.559935755722, -26665.765245648057, -14090.0256145031, -27056.317276515638, 0.03, 1.008, 0.112, 192.0, 0.0, 0.0, 0.0, 0.0, 0.0, 0.0, 0.0, 0.0, 0.0, 1.695325188573875E9, 0.0, 2023-09-21 14:39:48.573
120.0, 43715.67591615629, 25750.640124158876, -7658.266443999582, -15442.86494766056, -21825.785556529234, -16186.552189177537, -187500.02235174447, -31785.09703696931, 31834.516743959994, 20264.49385458158, -18888.02872753486, -1620.4791212653067, -11339.308183110737, -26670.973202106143, -14089.779745314092, -27064.073331841628, 0.03, 1.008, 0.112, 192.0, 0.0, 0.0, 0.0, 0.0, 0.0, 0.0, 0.0, 0.0, 0.0, 1.695325188634077E9, 0.0, 2023-09-21 14:39:48.634
122.0, 43727.879968628884, 25762.352438253456, -7640.630917624345, -15432.896069633493, -21820.041158204218, -16186.73100313318, -187500.02235174447, -31782.370124145764, 31852.77811917998, 20281.995270490082, -18870.05792499279, -1672.8939620130018, -11319.437482289968, -26647.79444310599, -14074.558207340027, -27045.141404287984, 0.032, 1.002, 0.116, 192.0, 0.5, 0.0, 15.5, 40.0, 1.5, 80.0, 0.0, 0.0, 0.0, 1.695325188634086E9, 0.0, 2023-09-21 14:39:48.634
124.0, 43739.32406179, 25772.745999425173, -7639.826254823954, -15423.53068870672, -21811.50279182229, -16175.48807567216, -187500.02235174447, -31774.770531030957, 31855.527383747984, 20281.190607689692, -18868.292137180822, -1627.9893074022898, -11316.934086910975, -26647.906201828268, -14076.234588174177, -27043.956761831854, 0.032, 1.002, 0.116, 192.0, 0.0, 0.0, 0.0, 0.0, 0.0, 0.0, 0.0, 0.0, 0.0, 1.695325188634089E9, 0.0, 2023-09-21 14:39:48.634
126.0, 43729.51164597412, 25763.447673731767, -7640.60856587989, -15432.270220788745, -21816.062547691174, -16182.841799597956, -187500.02235174447, -31781.207833434088, 31858.67897971618, 20282.01762223454, -18864.53704411233, -1677.4760696263397, -11309.289790307259, -26649.56023091796, -14077.508637608129, -27042.21332576434, 0.032, 1.002, 0.116, 192.0, 0.0, 0.0, 0.0, 0.0, 0.0, 0.0, 0.0, 0.0, 0.0, 1.695325188634092E9, 0.0, 2023-09-21 14:39:48.634
128.0, 43723.85665462693, 25761.167795797326, -7640.295641457516, -15429.47625273183, -21817.090727936116, -16177.633843139869, -187500.02235174447, -31775.48578685353, 31857.29317155995, 20276.29557565398, -18868.11332322518, -1634.8065894611586, -11310.809708930221, -26651.571887918937, -14075.318166651508, -27041.632180408502, 0.032, 1.002, 0.116, 192.0, 0.0, 0.0, 0.0, 0.0, 0.0, 0.0, 0.0, 0.0, 0.0, 1.695325188634096E9, 0.0, 2023-09-21 14:39:48.634
130.0, 43722.157922048325, 25759.893746363374, -7636.607603622389, -15423.731854406817, -21817.6495215475, -16175.935110561266, -187500.02235174447, -31773.0494467079, 31861.092968117355, 20280.7882762895, -18865.721686568464, -1676.5149446147616, -11312.396682786546, -26644.687550626702, -14076.055774218534, -27036.312465228137, 0.032, 1.002, 0.116, 192.0, 0.0, 0.0, 0.0, 0.0, 0.0, 0.0, 0.0, 0.0, 0.0, 1.695325188634099E9, 0.0, 2023-09-21 14:39:48.634
132.0, 43703.9636020617, 25742.369978710412, -7650.108057273395, -15432.33727602211, -21830.904106009497, -16185.009918810121, -187500.02235174447, -31784.09120846882, 31841.378729507775, 20266.95254647166, -18881.79259083183, -1642.406182575963, -11325.740674226365, -26640.75364360257, -14085.59996910095, -27048.427110722914, 0.034, 1.006, 0.11, 192.0, 0.5, 8.0, 15.5, 56.0, 1.5, 56.0, 0.0, 0.0, 0.0, 1.695325188634102E9, 0.0, 2023-09-21 14:39:48.634
134.0, 43703.9636020617, 25741.498260676653, -7637.166397233773, -15419.19445028239, -21826.053777462697, -16172.53764540406, -187500.02235174447, -31778.838548521824, 31844.30680803142, 20268.785389516997, -18876.49522739592, -1675.9114475144684, -11312.977828142384, -26648.912030328756, -14081.911931265824, -27036.983017561797, 0.034, 1.006, 0.11, 192.0, 0.0, 0.0, 0.0, 0.0, 0.0, 0.0, 0.0, 0.0, 0.0, 1.695325188692905E9, 0.0, 2023-09-21 14:39:48.692
136.0, 43696.60987813591, 25733.585743139476, -7638.485150156635, -15420.580258438618, -21823.215105916872, -16172.738811104156, -187500.02235174447, -31775.396379875707, 31840.104680073822, 20262.05751443595, -18878.998622774914, -1653.9620344593568, -11317.269363077803, -26644.955771560166, -14083.610663844427, -27040.35813097455, 0.034, 1.006, 0.11, 192.0, 0.0, 0.0, 0.0, 0.0, 0.0, 0.0, 0.0, 0.0, 0.0, 1.695325188692916E9, 0.0, 2023-09-21 14:39:48.692
138.0, 43648.039537434524, 25687.518797817087, -7667.877694115365, -15448.877566919038, -21851.31124869719, -16202.153706807341, -187500.02235174447, -31806.554711646404, 31816.791810606937, 20240.398674058757, -18898.623454406676, -1674.2350666803202, -11336.469511564912, -26655.237574009607, -14098.184001229287, -27050.21525027934, 0.034, 1.006, 0.11, 192.0, 0.0, 0.0, 0.0, 0.0, 0.0, 0.0, 0.0, 0.0, 0.0, 1.695325188692922E9, 0.0, 2023-09-21 14:39:48.692
140.0, 43638.6518047633, 25676.342925589433, -7667.6094731819, -15447.067075618157, -21845.99153351683, -16195.53759044857, -187500.02235174447, -31797.92693828666, 31788.539205615427, 20215.074147590894, -18922.383358762665, -1648.1729326454322, -11360.050601965262, -26687.75936219208, -14115.03721654859, -27064.654477197466, 0.034, 1.006, 0.11, 192.0, 0.0, 0.0, 0.0, 0.0, 0.0, 0.0, 0.0, 0.0, 0.0, 1.695325188692926E9, 0.0, 2023-09-21 14:39:48.692
142.0, 43624.07846737844, 25663.13304461635, -7670.783420894554, -15447.827034929638, -21847.354989928604, -16189.547322934548, -187500.02235174447, -31793.233071951043, 31785.856996280792, 20209.888542877263, -18923.41153900761, -1660.7346130293147, -11353.926223984507, -26677.52226323155, -14115.327789226509, -27058.17247130543, 0.042, 1.012, 0.116, 192.0, 0.5, 40.0, 15.5, 80.0, 1.5, 80.0, 0.0, 0.0, 0.0, 1.69532518869293E9, 0.0, 2023-09-21 14:39:48.692
144.0, 43618.35642079788, 25662.84247193843, -7657.886464343842, -15433.231345800323, -21823.729196039345, -16172.20236923723, -187500.02235174447, -31777.72096129906, 31787.95806025959, 20219.835069159875, -18916.460146482008, -1667.7754125327365, -11344.76200875783, -26660.93726884571, -14100.55328614155, -27043.666189153933, 0.042, 1.012, 0.116, 192.0, 0.0, 0.0, 0.0, 0.0, 0.0, 0.0, 0.0, 0.0, 0.0, 1.695325188692933E9, 0.0, 2023-09-21 14:39:48.692
146.0, 43604.25247004658, 25651.84541366642, -7657.282967243549, -15429.833880643117, -21817.202486658392, -16170.324822702984, -187500.02235174447, -31770.90367924019, 31786.751066059005, 20220.684435449177, -18915.5660767038, -1674.2574184247756, -11339.308183110737, -26652.577716419426, -14090.852629047946, -27034.21140124934, 0.042, 1.012, 0.116, 192.0, 0.0, 0.0, 0.0, 0.0, 0.0, 0.0, 0.0, 0.0, 0.0, 1.695325188692936E9, 0.0, 2023-09-21 14:39:48.692
148.0, 43561.359472436845, 25609.69002362371, -7678.204200053716, -15459.137017624023, -21846.61738236158, -16200.142049806364, -187500.02235174447, -31799.20098772061, 31766.209812904577, 20207.698071920644, -18932.240478067455, -1681.8570115395798, -11353.970927473418, -26654.924649587232, -14094.36185292743, -27047.06365431114, 0.042, 1.012, 0.116, 192.0, 0.0, 0.0, 0.0, 0.0, 0.0, 0.0, 0.0, 0.0, 0.0, 1.69532518869294E9, 0.0, 2023-09-21 14:39:48.692
150.0, 43550.98826300958, 25597.418915917748, -7679.478249487669, -15457.3488780676, -21839.688341580433, -16193.168305536308, -187500.02235174447, -31789.85795853829, 31743.031053904422, 20179.266652973492, -18955.195719623058, -1664.824982264636, -11367.96311950244, -26685.166559835263, -14113.494946181172, -27065.146215575485, 0.042, 1.012, 0.116, 192.0, 0.0, 0.0, 0.0, 0.0, 0.0, 0.0, 0.0, 0.0, 0.0, 1.695325188753166E9, 0.0, 2023-09-21 14:39:48.753
152.0, 43545.24386468457, 25589.77461931403, -7668.28002551556, -15453.973764654847, -21831.21703043187, -16185.322843232494, -187500.02235174447, -31780.738446800526, 31750.13890864121, 20192.253016502025, -18942.745797961452, -1691.825889566647, -11355.602604818656, -26666.726370659635, -14093.624245360405, -27047.98007583381, 0.034, 1.01, 0.11800000000000001, 192.0, 0.5, 8.0, 15.5, 72.0, 1.5, 88.0, 0.0, 0.0, 0.0, 1.695325188753174E9, 0.0, 2023-09-21 14:39:48.753
154.0, 43531.81046626693, 25577.72702905262, -7677.6901099312445, -15459.718162979862, -21831.61936183207, -16186.887465344367, -187500.02235174447, -31785.454664880595, 31739.790050958403, 20181.255958230016, -18951.999420165947, -1675.6655783254598, -11354.194444917972, -26682.193777822707, -14093.73600408268, -27054.64089568149, 0.034, 1.01, 0.11800000000000001, 192.0, 0.0, 0.0, 0.0, 0.0, 0.0, 0.0, 0.0, 0.0, 0.0, 1.695325188753178E9, 0.0, 2023-09-21 14:39:48.753
156.0, 43512.81148347992, 25556.805796242454, -7688.709519947711, -15476.593730043618, -21846.550327128214, -16205.864096386922, -187500.02235174447, -31799.469208654074, 31724.344995539785, 20167.196710967626, -18967.75740000694, -1712.2777357432528, -11371.226474192916, -26688.85459767039, -14103.347254198463, -27067.02376210973, 0.034, 1.01, 0.11800000000000001, 192.0, 0.0, 0.0, 0.0, 0.0, 0.0, 0.0, 0.0, 0.0, 0.0, 1.695325188753181E9, 0.0, 2023-09-21 14:39:48.753
158.0, 43513.124407902294, 25557.945735209672, -7688.642464714345, -15472.72687825285, -21839.88950728053, -16195.604645681937, -187500.02235174447, -31790.1038277273, 31726.289597307397, 20166.503806889512, -18967.89151047367, -1689.5460116322056, -11364.856227023152, -26691.46975177166, -14101.201486730753, -27062.73222717431, 0.034, 1.01, 0.11800000000000001, 192.0, 0.0, 0.0, 0.0, 0.0, 0.0, 0.0, 0.0, 0.0, 0.0, 1.695325188753185E9, 0.0, 2023-09-21 14:39:48.753
160.0, 43503.11082638631, 25550.569659539422, -7686.362586779904, -15476.459619576886, -21844.27044919377, -16202.01959634061, -187500.02235174447, -31794.216548707074, 31723.070946105832, 20160.647649842223, -18972.13834192018, -1733.6012999536158, -11369.639500336589, -26691.33564130493, -14106.387091444385, -27062.955744618863, 0.034, 1.01, 0.11800000000000001, 192.0, 0.0, 0.0, 0.0, 0.0, 0.0, 0.0, 0.0, 0.0, 0.0, 1.695325188753188E9, 0.0, 2023-09-21 14:39:48.753
162.0, 43485.31883779989, 25533.805851197943, -7708.468462046202, -15494.251608163311, -21856.27333596627, -16214.469518002215, -187500.02235174447, -31807.895816313725, 31708.676422676617, 20153.22687068306, -18985.750554293463, -1694.4186919234626, -11381.552980131268, -26699.672841986758, -14118.524088683616, -27071.82938716762, 0.036000000000000004, 1.008, 0.116, 192.0, 0.5, 16.0, 15.5, 64.0, 1.5, 80.0, 0.0, 0.0, 0.0, 1.695325188753191E9, 0.0, 2023-09-21 14:39:48.753
164.0, 43484.33536104386, 25532.800022697455, -7706.412101556314, -15496.039747719735, -21860.028429034763, -16221.622076227914, -187500.02235174447, -31811.96383380459, 31693.47723644701, 20140.262858898983, -19001.106202734256, -1732.4613609863952, -11398.227381494926, -26712.122763648364, -14133.991495846689, -27088.83906469811, 0.036000000000000004, 1.008, 0.116, 192.0, 0.0, 0.0, 0.0, 0.0, 0.0, 0.0, 0.0, 0.0, 0.0, 1.695325188813559E9, 0.0, 2023-09-21 14:39:48.813
166.0, 43505.48011129858, 25558.415121843234, -7686.563752480001, -15471.028145674247, -21834.212164188884, -16195.336424748473, -187500.02235174447, -31784.873519524757, 31708.117629065233, 20161.206443453604, -18982.174275180612, -1698.889040814524, -11379.29545394128, -26695.582472751437, -14119.574620673016, -27075.986811636307, 0.036000000000000004, 1.008, 0.116, 192.0, 0.0, 0.0, 0.0, 0.0, 0.0, 0.0, 0.0, 0.0, 0.0, 1.695325188813569E9, 0.0, 2023-09-21 14:39:48.813
168.0, 43498.014628650504, 25551.10610140635, -7690.877639159876, -15481.756983012794, -21847.89143179553, -16204.29947427505, -187500.02235174447, -31799.893891798725, 31713.86202739025, 20168.38135342376, -18974.909958232638, -1744.3971925255291, -11367.560788102244, -26678.66220219877, -14112.757338614147, -27067.671962698932, 0.036000000000000004, 1.008, 0.116, 192.0, 0.0, 0.0, 0.0, 0.0, 0.0, 0.0, 0.0, 0.0, 0.0, 1.695325188813573E9, 0.0, 2023-09-21 14:39:48.813
170.0, 43488.96217214611, 25545.071130403416, -7707.99907541264, -15488.395451116021, -21861.458940679902, -16215.8776779029, -187500.02235174447, -31808.476961669563, 31697.12057079322, 20150.79053053743, -18991.539656107387, -1692.3846831780295, -11391.611265136155, -26710.62519676986, -14129.744664400181, -27084.279308829227, 0.036000000000000004, 1.008, 0.116, 192.0, 0.0, 0.0, 0.0, 0.0, 0.0, 0.0, 0.0, 0.0, 0.0, 1.695325188813576E9, 0.0, 2023-09-21 14:39:48.813
172.0, 43506.64240201026, 25567.087598691895, -7687.0778426024735, -15473.68800326443, -21852.652353364512, -16204.902971375344, -187500.02235174447, -31798.016345264477, 31705.301309263865, 20164.715667333086, -18979.827342012806, -1736.0599918436997, -11383.63169236561, -26702.44445829922, -14122.167423029832, -27074.668058713443, 0.036000000000000004, 1.008, 0.114, 192.0, 0.5, 16.0, 15.5, 64.0, 1.5, 72.0, 0.0, 0.0, 0.0, 1.69532518881358E9, 0.0, 2023-09-21 14:39:48.813
174.0, 43506.15066363224, 25567.534633581, -7696.644389229345, -15476.794895743717, -21860.050780779216, -16205.68528243128, -187500.02235174447, -31801.19029297713, 31710.88924537769, 20175.109228504807, -18974.798199510362, -1689.9706947768564, -11377.194389962482, -26691.80502793849, -14117.98764681669, -27072.052904612174, 0.036000000000000004, 1.008, 0.114, 192.0, 0.0, 0.0, 0.0, 0.0, 0.0, 0.0, 0.0, 0.0, 0.0, 1.695325188813583E9, 0.0, 2023-09-21 14:39:48.813
176.0, 43523.98735570757, 25584.812532044954, -7679.612359954401, -15460.254604846788, -21844.583373616144, -16191.558979935526, -187500.02235174447, -31788.67331608216, 31708.385849998696, 20174.863359315797, -18975.1781791661, -1723.4089044819957, -11385.084555755206, -26691.000365138098, -14116.333617726998, -27069.325991788628, 0.036000000000000004, 1.008, 0.114, 192.0, 0.0, 0.0, 0.0, 0.0, 0.0, 0.0, 0.0, 0.0, 0.0, 1.695325188813586E9, 0.0, 2023-09-21 14:39:48.813
178.0, 43532.10103894485, 25591.942738526195, -7681.646368699833, -15462.24391010331, -21849.165481229484, -16201.617264940414, -187500.02235174447, -31795.37883941875, 31727.496591507985, 20195.941054337152, -18956.08978940127, -1690.7083023438815, -11367.449029379968, -26678.483388243127, -14098.988664029679, -27058.6865614279, 0.036000000000000004, 1.008, 0.114, 192.0, 0.0, 0.0, 0.0, 0.0, 0.0, 0.0, 0.0, 0.0, 0.0, 1.695325188813589E9, 0.0, 2023-09-21 14:39:48.813
180.0, 43529.59764356585, 25589.72991582512, -7678.561827965002, -15464.322622337655, -21851.37830393056, -16208.9262853773, -187500.02235174447, -31798.3069179424, 31724.613216473248, 20194.398783969737, -18956.17919637909, -1719.8326253691466, -11370.220645692427, -26681.545577233504, -14102.855515820447, -27060.429997495416, 0.036000000000000004, 1.008, 0.114, 192.0, 0.0, 0.0, 0.0, 0.0, 0.0, 0.0, 0.0, 0.0, 0.0, 1.695325188873762E9, 0.0, 2023-09-21 14:39:48.873
182.0, 43540.37118439331, 25600.48110490812, -7680.841705899443, -15462.690944992417, -21849.500757396312, -16205.886448131378, -187500.02235174447, -31795.8035225634, 31719.60642571526, 20188.877903089277, -18959.777827236394, -1681.2311626948313, -11371.941730015486, -26694.487237273126, -14106.565905400028, -27068.186052821406, 0.034, 1.004, 0.11, 192.0, 0.5, 8.0, 15.5, 48.0, 1.5, 56.0, 0.0, 0.0, 0.0, 1.69532518887377E9, 0.0, 2023-09-21 14:39:48.873
184.0, 43529.821161010404, 25586.77948555702, -7692.017578127096, -15481.309948123688, -21864.968164559385, -16228.01467514213, -187500.02235174447, -31815.853037339813, 31712.118591322735, 20182.418248941693, -18966.3268883618, -1701.4818431713395, -11380.815372564242, -26699.09169663092, -14118.479385194707, -27079.384276793513, 0.034, 1.004, 0.11, 192.0, 0.0, 0.0, 0.0, 0.0, 0.0, 0.0, 0.0, 0.0, 0.0, 1.695325188873774E9, 0.0, 2023-09-21 14:39:48.873
186.0, 43554.87746654481, 25613.109840525372, -7671.386917994848, -15459.740514724317, -21842.52701312626, -16204.992378353165, -187500.02235174447, -31795.267080696474, 31727.764812441448, 20196.27633050398, -18953.161710877623, -1681.789956306214, -11366.912587513041, -26695.76128670708, -14103.101385009455, -27073.148140090485, 0.034, 1.004, 0.11, 192.0, 0.0, 0.0, 0.0, 0.0, 0.0, 0.0, 0.0, 0.0, 0.0, 1.695325188873777E9, 0.0, 2023-09-21 14:39:48.873
188.0, 43564.10873700485, 25625.380948231334, -7667.788287137543, -15454.197282099401, -21839.5542311137, -16198.577427694492, -187500.02235174447, -31792.62957485075, 31732.481030521518, 20203.205371285127, -18946.18796660757, -1695.8939070575127, -11363.559825844744, -26688.98870813712, -14097.424041917808, -27062.50870972976, 0.034, 1.004, 0.11, 192.0, 0.0, 0.0, 0.0, 0.0, 0.0, 0.0, 0.0, 0.0, 0.0, 1.695325188873781E9, 0.0, 2023-09-21 14:39:48.873
190.0, 43563.460536415645, 25620.955302829185, -7676.594874452934, -15467.58597702813, -21850.03719926324, -16204.388881252871, -187500.02235174447, -31801.369106932776, 31735.520867767438, 20206.71459516461, -18943.75162646194, -1682.6840260844263, -11370.667680581533, -26676.8964143868, -14100.195658230265, -27061.21230855135, 0.034, 1.004, 0.11, 192.0, 0.0, 0.0, 0.0, 0.0, 0.0, 0.0, 0.0, 0.0, 0.0, 1.695325188873784E9, 0.0, 2023-09-21 14:39:48.873
192.0, 43566.65683587275, 25624.97861683114, -7682.51808673359, -15465.596671771607, -21845.41038816099, -16207.942808621267, -187500.02235174447, -31803.82779882286, 31731.05051887638, 20199.293816005447, -18950.65831549863, -1684.1368894740212, -11374.82510505022, -26703.539693777526, -14113.740815370182, -27068.431922010415, 0.03, 1.01, 0.11800000000000001, 192.0, 0.0, 120.0, 15.5, 72.0, 1.5, 88.0, 0.0, 0.0, 0.0, 1.695325188873787E9, 0.0, 2023-09-21 14:39:48.873
194.0, 43602.77725491253, 25659.579117247955, -7653.013784052585, -15436.271183046245, -21817.69422503641, -16176.53860766156, -187500.02235174447, -31767.416807105164, 31753.625780776238, 20221.869077905307, -18933.380417034678, -1696.5868111356274, -11353.479189095402, -26677.544614976003, -14096.351158183952, -27049.8352706236, 0.03, 1.01, 0.11800000000000001, 192.0, 0.0, 0.0, 0.0, 0.0, 0.0, 0.0, 0.0, 0.0, 0.0, 1.695325188934108E9, 0.0, 2023-09-21 14:39:48.934
196.0, 43605.325353780434, 25662.864823682885, -7656.9700428211745, -15438.1934330694, -21822.052815205196, -16178.863189084912, -187500.02235174447, -31777.58685083233, 31771.77539727395, 20239.392845558268, -18916.88482962666, -1690.7753575772474, -11340.068142422217, -26665.765245648057, -14073.082992205978, -27033.227924493305, 0.03, 1.01, 0.11800000000000001, 192.0, 0.0, 0.0, 0.0, 0.0, 0.0, 0.0, 0.0, 0.0, 0.0, 1.695325188934124E9, 0.0, 2023-09-21 14:39:48.934
198.0, 43592.80837688546, 25648.582058975942, -7677.734813420155, -15463.741476981817, -21847.80202481771, -16209.01569235512, -187500.02235174447, -31806.889987813236, 31759.347827356796, 20227.546420996958, -18929.580620477274, -1697.592639636116, -11355.110866440638, -26681.85850165588, -14095.07710875, -27053.70212241437, 0.03, 1.01, 0.11800000000000001, 192.0, 0.0, 0.0, 0.0, 0.0, 0.0, 0.0, 0.0, 0.0, 0.0, 1.695325188934128E9, 0.0, 2023-09-21 14:39:48.934
200.0, 43628.03472614702, 25684.07662917097, -7649.303394473004, -15430.90676437697, -21813.782669756733, -16178.39380245135, -187500.02235174447, -31760.66658027966, 31767.752083271993, 20233.29081932197, -18923.880925641173, -1675.4420608809069, -11357.211930419438, -26676.404676008784, -14091.567884870516, -27046.05782581065, 0.03, 1.01, 0.11800000000000001, 192.0, 0.0, 0.0, 0.0, 0.0, 0.0, 0.0, 0.0, 0.0, 0.0, 1.695325188934131E9, 0.0, 2023-09-21 14:39:48.934
202.0, 43615.83067367443, 25667.89396618533, -7665.888388858842, -15455.069000133159, -21839.956562513897, -16201.058471329032, -187500.02235174447, -31788.62861259325, 31773.876461252745, 20236.665932734722, -18917.711844171507, -1698.6431716255156, -11348.382991359591, -26678.32692603194, -14084.102402222445, -27040.49224144128, 0.034, 1.004, 0.126, 192.0, 0.5, 8.0, 15.5, 48.0, 1.5, 120.0, 0.0, 0.0, 0.0, 1.695325188934135E9, 0.0, 2023-09-21 14:39:48.934
204.0, 43619.13873185381, 25671.3584865759, -7674.247941285127, -15458.220596101357, -21845.209222460893, -16211.273218545106, -187500.02235174447, -31801.257348210496, 31764.891059981714, 20227.836993674875, -18928.306571043322, -1664.3779473755299, -11361.123485699116, -26692.699097716704, -14104.576600143506, -27057.54662246068, 0.034, 1.004, 0.126, 192.0, 0.0, 0.0, 0.0, 0.0, 0.0, 0.0, 0.0, 0.0, 0.0, 1.695325188934138E9, 0.0, 2023-09-21 14:39:48.934
206.0, 43649.78297350204, 25701.75685903512, -7644.162493248284, -15432.806662655672, -21820.488193093326, -16189.68143340128, -187500.02235174447, -31778.615031077272, 31782.034847978935, 20245.6289822613, -18910.939265601548, -1694.597505879105, -11350.394648360569, -26675.689420186212, -14096.50762039514, -27046.817785122134, 0.034, 1.004, 0.126, 192.0, 0.0, 0.0, 0.0, 0.0, 0.0, 0.0, 0.0, 0.0, 0.0, 1.695325188934142E9, 0.0, 2023-09-21 14:39:48.934
208.0, 43628.28059533604, 25678.98043143516, -7675.544342463535, -15460.835750202627, -21855.64748712152, -16212.904895890344, -187500.02235174447, -31811.87442682677, 31786.505196869995, 20249.786406729985, -18907.474745210977, -1659.5723223176387, -11348.539453570778, -26676.605841708883, -14096.105288994944, -27049.20942177885, 0.034, 1.004, 0.126, 192.0, 0.0, 0.0, 0.0, 0.0, 0.0, 0.0, 0.0, 0.0, 0.0, 1.695325188934145E9, 0.0, 2023-09-21 14:39:48.934
210.0, 43654.87917123785, 25703.85792301392, -7651.404458451803, -15435.444168501399, -21828.624228075056, -16191.804849124534, -187500.02235174447, -31786.1028654698, 31779.19617643311, 20245.04783690546, -18914.87317262568, -1686.8414505531134, -11363.291604911281, -26679.824492910444, -14111.975027558212, -27056.227869537815, 0.034, 1.004, 0.126, 192.0, 0.0, 0.0, 0.0, 0.0, 0.0, 0.0, 0.0, 0.0, 0.0, 1.695325188992967E9, 0.0, 2023-09-21 14:39:48.992
212.0, 43659.930665484746, 25710.317577161502, -7655.360717220393, -15433.164290566958, -21826.500812351802, -16182.998261809144, -187500.02235174447, -31781.118426456265, 31788.986240504535, 20256.894261466776, -18903.764355631396, -1647.1671041449433, -11349.858206493642, -26667.776902649035, -14089.533876125084, -27039.7322821298, 0.038, 1.002, 0.13, 192.0, 0.5, 24.0, 15.5, 40.0, 2.0, 8.0, 0.0, 0.0, 0.0, 1.695325188992975E9, 0.0, 2023-09-21 14:39:48.992
214.0, 43657.293159639026, 25704.640234069855, -7658.892292844331, -15441.143863337502, -21835.597972345113, -16184.96521532121, -187500.02235174447, -31790.997897505513, 31796.451723152608, 20264.49385458158, -18898.01995730638, -1686.3273604306414, -11338.235299376882, -26660.356123489873, -14089.98091101419, -27030.389252947483, 0.038, 1.002, 0.13, 192.0, 0.0, 0.0, 0.0, 0.0, 0.0, 0.0, 0.0, 0.0, 0.0, 1.695325188992979E9, 0.0, 2023-09-21 14:39:48.992
216.0, 43651.16878165827, 25702.695632302242, -7671.588083694945, -15447.491758762808, -21843.08580673764, -16190.597854923948, -187500.02235174447, -31795.132970229744, 31776.424560120653, 20246.6795142507, -18916.951884860027, -1627.408162046452, -11361.704631054954, -26676.94111787571, -14108.93519031229, -27052.003389835765, 0.038, 1.002, 0.13, 192.0, 0.0, 0.0, 0.0, 0.0, 0.0, 0.0, 0.0, 0.0, 0.0, 1.695325188992982E9, 0.0, 2023-09-21 14:39:48.992
218.0, 43650.140601413324, 25703.209722424715, -7665.106077802906, -15449.235194830322, -21848.204356217906, -16210.267390044617, -187500.02235174447, -31801.34675518832, 31785.94640325861, 20255.30728761045, -18905.88777135465, -1669.5859038336164, -11357.01076471934, -26675.242385297108, -14107.728196111704, -27048.091834556086, 0.038, 1.002, 0.13, 192.0, 0.0, 0.0, 0.0, 0.0, 0.0, 0.0, 0.0, 0.0, 0.0, 1.695325188992985E9, 0.0, 2023-09-21 14:39:48.992
220.0, 43661.27177015207, 25714.117373718906, -7664.882560358354, -15440.272145303745, -21842.817585804176, -16198.331558505484, -187500.02235174447, -31797.457551653097, 31778.413865377173, 20245.87485145031, -18912.325073757776, -1619.0933131090776, -11367.24786367987, -26686.530016247038, -14114.768995615124, -27057.323105016127, 0.038, 1.002, 0.13, 192.0, 0.0, 0.0, 0.0, 0.0, 0.0, 0.0, 0.0, 0.0, 0.0, 1.695325188992988E9, 0.0, 2023-09-21 14:39:48.992
222.0, 43674.43694763624, 25724.645045357353, -7651.426810196258, -15434.48304348982, -21838.79427180222, -16200.052642828543, -187500.02235174447, -31797.412848164186, 31799.603319120804, 20265.16440691524, -18891.157971758603, -1666.0543282096778, -11346.259575636337, -26668.6933241717, -14101.179134986298, -27040.96162807484, 0.04, 1.002, 0.134, 192.0, 0.5, 32.0, 15.5, 40.0, 2.0, 24.0, 0.0, 0.0, 0.0, 1.695325188992992E9, 0.0, 2023-09-21 14:39:48.992
224.0, 43705.32705847348, 25753.210574771238, -7629.767969819066, -15410.499621689276, -21813.64855929, -16175.376316949883, -187500.02235174447, -31773.876461252745, 31810.689784370636, 20275.78148553151, -18880.227968719955, -1625.8658916790357, -11339.039962177272, -26665.720542159146, -14091.769050570614, -27038.72645362931, 0.04, 1.002, 0.134, 192.0, 0.0, 0.0, 0.0, 0.0, 0.0, 0.0, 0.0, 0.0, 0.0, 1.695325189053119E9, 0.0, 2023-09-21 14:39:49.053
226.0, 43686.37277917538, 25736.71498736322, -7636.048810011007, -15424.871793374037, -21830.345312398116, -16180.986604808166, -187500.02235174447, -31779.44204562212, 31823.40792696571, 20291.762982817054, -18868.560358114286, -1669.4294416224293, -11323.863127692119, -26636.17153598923, -14075.407573629329, -27021.672072609912, 0.04, 1.002, 0.134, 192.0, 0.0, 0.0, 0.0, 0.0, 0.0, 0.0, 0.0, 0.0, 0.0, 1.695325189053127E9, 0.0, 2023-09-21 14:39:49.053
228.0, 43675.42042439228, 25729.13774599287, -7650.756257862599, -15435.600630712586, -21843.666952093477, -16192.520104947103, -187500.02235174447, -31795.49059814103, 31799.33509818734, 20265.20911040415, -18892.007338047904, -1626.402333545963, -11341.230433133893, -26668.000420093587, -14094.630073860893, -27042.77211937572, 0.04, 1.002, 0.134, 192.0, 0.0, 0.0, 0.0, 0.0, 0.0, 0.0, 0.0, 0.0, 0.0, 1.695325189053131E9, 0.0, 2023-09-21 14:39:49.053
230.0, 43675.77805230356, 25733.42928092829, -7648.27521422806, -15435.444168501399, -21841.543536370224, -16198.420965483305, -187500.02235174447, -31794.06008649589, 31793.0542579954, 20260.179967901706, -18898.288178239844, -1656.4654298383512, -11350.282889638293, -26672.202548051187, -14110.41040544634, -27050.21525027934, 0.04, 1.002, 0.134, 192.0, 0.0, 0.0, 0.0, 0.0, 0.0, 0.0, 0.0, 0.0, 0.0, 1.695325189053134E9, 0.0, 2023-09-21 14:39:49.053
232.0, 43679.1084622274, 25737.206725741235, -7647.448199683214, -15431.800834155183, -21839.755396813798, -16192.385994480372, -187500.02235174447, -31794.82004580737, 31794.551824873906, 20263.420970847725, -18896.142410772136, -1632.4596562933514, -11348.315936126226, -26668.022771838045, -14101.35794894194, -27047.39893047797, 0.04, 1.0, 0.134, 192.0, 0.5, 32.0, 15.5, 32.0, 2.0, 24.0, 0.0, 0.0, 0.0, 1.695325189053138E9, 0.0, 2023-09-21 14:39:49.053
234.0, 43698.93445955926, 25755.71397015023, -7635.467664655169, -15413.360644979555, -21828.69128330842, -16178.527912918082, -187500.02235174447, -31779.129121199745, 31814.042546038934, 20284.476314124622, -18876.092895995724, -1657.046575194189, -11338.5258720548, -26652.8906408418, -14093.244265704665, -27028.377595946506, 0.04, 1.0, 0.134, 192.0, 0.0, 0.0, 0.0, 0.0, 0.0, 0.0, 0.0, 0.0, 0.0, 1.695325189053142E9, 0.0, 2023-09-21 14:39:49.053
236.0, 43689.68083735476, 25743.71108337773, -7647.202330494205, -15426.704636419374, -21841.32001892567, -16192.922436347299, -187500.02235174447, -31793.836569051335, 31808.14168550273, 20279.223654177626, -18879.646823364117, -1640.3498220860747, -11338.659982521533, -26661.406655479273, -14094.808887816536, -27035.26193323874, 0.04, 1.0, 0.134, 192.0, 0.0, 0.0, 0.0, 0.0, 0.0, 0.0, 0.0, 0.0, 0.0, 1.695325189053145E9, 0.0, 2023-09-21 14:39:49.053
238.0, 43669.67602606726, 25725.449708157746, -7663.18382777975, -15444.496625005797, -21857.56973714468, -16210.960294122731, -187500.02235174447, -31809.728659359058, 31787.175749203656, 20256.29076436648, -18899.182248018056, -1638.5393307851948, -11359.782381031799, -26680.115065588365, -14117.004170060656, -27055.803186393165, 0.04, 1.0, 0.134, 192.0, 0.0, 0.0, 0.0, 0.0, 0.0, 0.0, 0.0, 0.0, 0.0, 1.695325189053149E9, 0.0, 2023-09-21 14:39:49.053
240.0, 43679.62255234987, 25732.24463847216, -7652.499693930113, -15439.512185992264, -21853.032333020252, -16212.100233089952, -187500.02235174447, -31809.169865747677, 31790.126179471754, 20257.855386478353, -18893.72842237096, -1629.017487647234, -11356.541378085778, -26677.61167020937, -14111.952675813756, -27052.383369491505, 0.04, 1.0, 0.134, 192.0, 0.0, 0.0, 0.0, 0.0, 0.0, 0.0, 0.0, 0.0, 0.0, 1.695325189114567E9, 0.0, 2023-09-21 14:39:49.114
242.0, 43698.7109421147, 25751.936525337285, -7635.288850699527, -15421.139052050003, -21836.022655489764, -16178.550264662537, -187500.02235174447, -31782.68304856814, 31794.37301091826, 20259.352953356858, -18888.96750080198, -1630.4256475479183, -11351.087552438683, -26674.929460874733, -14113.69611188127, -27049.58940143459, 0.036000000000000004, 1.006, 0.136, 192.0, 0.5, 16.0, 15.5, 56.0, 2.0, 32.0, 0.0, 0.0, 0.0, 1.69532518911458E9, 0.0, 2023-09-21 14:39:49.114
244.0, 43700.85670958242, 25755.199880027758, -7625.31997267246, -15418.389787482, -21826.65727456299, -16191.558979935526, -187500.02235174447, -31777.430388621142, 31804.565406389884, 20267.01960170503, -18878.015146018883, -1642.18266513141, -11336.760084242831, -26666.48050147063, -14090.78557381458, -27039.7322821298, 0.036000000000000004, 1.006, 0.136, 192.0, 0.0, 0.0, 0.0, 0.0, 0.0, 0.0, 0.0, 0.0, 0.0, 1.695325189114583E9, 0.0, 2023-09-21 14:39:49.114
