%OpenBCI Raw EXG Data
%Number of channels = 16
%Sample Rate = 125 Hz
%Board = OpenBCI_GUI$BoardCytonSerialDaisy
Sample Index, EXG Channel 0, EXG Channel 1, EXG Channel 2, EXG Channel 3, EXG Channel 4, EXG Channel 5, EXG Channel 6, EXG Channel 7, EXG Channel 8, EXG Channel 9, EXG Channel 10, EXG Channel 11, EXG Channel 12, EXG Channel 13, EXG Channel 14, EXG Channel 15, Accel Channel 0, Accel Channel 1, Accel Channel 2, Other, Other, Other, Other, Other, Other, Other, Analog Channel 0, Analog Channel 1, Analog Channel 2, Timestamp, Other, Timestamp (Formatted)
0.0, -187500.02235174447, 31158.868212564972, -27089.151989120484, -28038.721148815293, 9671.711584533643, -1353.1522575798342, -187500.02235174447, -18302.413022805813, 0.0, 0.0, 0.0, 0.0, 0.0, 0.0, 0.0, 0.0, 0.0, 0.0, 0.0, 192.0, 0.0, 0.0, 0.0, 0.0, 0.0, 0.0, 0.0, 0.0, 0.0, 1.695682268124858E9, 0.0, 2023-09-25 17:51:08.124
198.0, -187500.02235174447, 31161.952753299804, -27055.043227081685, -28004.522979798676, 9647.594052266366, -1358.382565782376, -187500.02235174447, -18355.744285076176, -94.68198951268072, -10368.19194176101, -20654.688257537873, -33878.98610579802, 16900.556314057867, -13866.530521694485, -20756.321639576156, -17237.68767567726, 0.0, 0.0, 0.0, 192.0, 0.0, 0.0, 0.0, 0.0, 0.0, 0.0, 0.0, 0.0, 0.0, 1.695682268124865E9, 0.0, 2023-09-25 17:51:08.124
200.0, -187500.02235174447, 31175.609669161997, -27061.189956806895, -28015.721203770783, 9692.945741766185, -1341.4399434852533, -187500.02235174447, -18323.848345738454, -78.4993265270384, -10368.638976650116, -20654.777664515696, -33856.43319564262, 16926.3949306482, -13837.763826580505, -20787.81524751368, -17241.93450712377, 0.0, 0.0, 0.0, 192.0, 0.0, 0.0, 0.0, 0.0, 0.0, 0.0, 0.0, 0.0, 0.0, 1.69568226812487E9, 0.0, 2023-09-25 17:51:08.124
202.0, -187500.02235174447, 31176.101407540016, -27041.96745657533, -27995.87285469447, 9663.709660018643, -1349.5536267225298, -187500.02235174447, -18355.699581587265, -77.04646313744344, -10348.723572340437, -20638.863222463515, -33861.238820700506, 16914.92848574263, -13845.497530162042, -20742.932944647426, -17233.88787911986, 0.0, 0.0, 0.0, 192.0, 0.0, 0.0, 0.0, 0.0, 0.0, 0.0, 0.0, 0.0, 0.0, 1.695682268124874E9, 0.0, 2023-09-25 17:51:08.124
204.0, -187500.02235174447, 31176.570794173575, -27074.198672079885, -28031.188610933856, 9676.33839563589, -1353.0181471131025, -187500.02235174447, -18322.797813749054, -82.34382657335122, -10355.00441253238, -20657.973963972803, -33851.96284675156, 16922.751596301987, -13844.514053406008, -20782.093200933123, -17247.053056604036, 0.14400000000000002, 1.0, 0.088, 192.0, 2.0, 64.0, 15.5, 32.0, 1.0, 96.0, 0.0, 0.0, 0.0, 1.69568226812489E9, 0.0, 2023-09-25 17:51:08.124
206.0, -187500.02235174447, 31195.2121490493, -27051.06461656864, -27995.135247127444, 9654.4783895586, -1352.1687808238007, -187500.02235174447, -18309.453822309235, -77.04646313744344, -10359.653575379083, -20636.76215848472, -33866.17855622513, 16910.145212429194, -13859.065039046412, -20733.925191631937, -17231.831518629973, 0.14400000000000002, 1.0, 0.088, 192.0, 0.0, 0.0, 0.0, 0.0, 0.0, 0.0, 0.0, 0.0, 0.0, 1.695682268124893E9, 0.0, 2023-09-25 17:51:08.124
208.0, -187500.02235174447, 31195.346259516034, -27057.501918971768, -28009.082735667558, 9684.653244573265, -1342.64693768584, -187500.02235174447, -18323.043682938063, -84.69075974115846, -10349.774104329837, -20656.2752313942, -33838.372986122726, 16908.513535083956, -13840.714256848605, -20780.662689287983, -17246.471911248198, 0.14400000000000002, 1.0, 0.088, 192.0, 0.0, 0.0, 0.0, 0.0, 0.0, 0.0, 0.0, 0.0, 0.0, 1.695682268124896E9, 0.0, 2023-09-25 17:51:08.124
210.0, -187500.02235174447, 31194.83216939356, -27064.810939408653, -28014.380099103466, 9656.758267493042, -1362.294121062055, -187500.02235174447, -18300.982511160673, -60.05913735141008, -10348.500054895885, -20629.430786303375, -33847.87247751623, 16921.29873291239, -13844.089370261356, -20740.183680079423, -17229.03755057306, 0.14400000000000002, 1.0, 0.088, 192.0, 0.0, 0.0, 0.0, 0.0, 0.0, 0.0, 0.0, 0.0, 0.0, 1.6956822681249E9, 0.0, 2023-09-25 17:51:08.124
212.0, -187500.02235174447, 31172.480424938254, -27089.375506565037, -28043.63853259546, 9656.91472970423, -1367.7926501980603, -187500.02235174447, -18302.7706507171, -102.77332100550187, -10381.737098900927, -20678.783438060695, -33865.99974226949, 16900.936293713607, -13872.252568275044, -20785.870645746072, -17263.258071334134, 0.14400000000000002, 1.0, 0.088, 192.0, 0.0, 0.0, 0.0, 0.0, 0.0, 0.0, 0.0, 0.0, 0.0, 1.695682268124903E9, 0.0, 2023-09-25 17:51:08.124
0.0, -93750.01117587223, 15518.458547408409, -13557.987041233426, -14024.177375337766, 4774.377319142499, -709.6231829670886, -93750.01117587223, -8451.90983437417, -36.36628822878459, -5179.9497222840455, -10323.04141796129, -16927.579573104333, 8457.095439087801, -6930.3371823235975, -10366.739078371416, -8621.447816067674, 0.136, 1.002, 0.076, 192.0, 2.0, 32.0, 15.5, 40.0, 1.0, 48.0, 0.0, 0.0, 0.0, 1.695682268297416E9, 0.0, 2023-09-25 17:51:08.297
2.0, -187500.02235174447, 31040.448670440757, -27127.93226575044, -28070.818253853115, 9573.27450195247, -1419.0452002340794, -187500.02235174447, -16850.644868689164, -978.8499449312621, -10368.795438861303, -20698.162400503446, -33885.53516692342, 16693.40034644608, -13802.738643019038, -20683.499656140764, -17224.097815048437, 0.136, 1.002, 0.076, 192.0, 0.0, 0.0, 0.0, 0.0, 0.0, 0.0, 0.0, 0.0, 0.0, 1.695682268297432E9, 0.0, 2023-09-25 17:51:08.297
4.0, -187500.02235174447, 31048.942333333773, -27129.60864658459, -28062.92808806039, 9554.834312776842, -1428.7458573276826, -187500.02235174447, -16847.403865743145, -991.2998665928683, -10368.750735372394, -20663.830121020095, -33893.62649841625, 16678.91641603904, -13811.768747778982, -20642.372446343, -17209.993864297136, 0.136, 1.002, 0.076, 192.0, 0.0, 0.0, 0.0, 0.0, 0.0, 0.0, 0.0, 0.0, 0.0, 1.695682268297438E9, 0.0, 2023-09-25 17:51:08.297
6.0, -187500.02235174447, 31045.589571665478, -27129.809812284686, -28076.763817878225, 9581.544647400933, -1414.3289821540097, -187500.02235174447, -16862.29012755038, -961.2367703004802, -10359.899444568091, -20700.017595293237, -33873.21935572855, 16685.39842193108, -13809.01948321098, -20698.162400503446, -17227.204707527722, 0.136, 1.002, 0.076, 192.0, 0.0, 0.0, 0.0, 0.0, 0.0, 0.0, 0.0, 0.0, 0.0, 1.695682268297443E9, 0.0, 2023-09-25 17:51:08.297
8.0, -187500.02235174447, 31067.5836882095, -27130.972102996362, -28068.493672429762, 9562.970347758574, -1434.154979485867, -187500.02235174447, -16827.488461433466, -966.6011889697539, -10363.38631670312, -20666.51233035473, -33896.688687406626, 16684.705517852966, -13820.59768683883, -20651.022571447204, -17216.87820158937, 0.126, 0.998, 0.074, 192.0, 1.5, 120.0, 15.5, 24.0, 1.0, 40.0, 0.0, 0.0, 0.0, 1.695682268297448E9, 0.0, 2023-09-25 17:51:08.297
10.0, -187500.02235174447, 31057.078368315506, -27136.716501321378, -28074.46158819933, 9563.663251836688, -1420.2968979235766, -187500.02235174447, -16847.247403531957, -959.9180173776172, -10356.85960732217, -20694.42965917941, -33881.95888781058, 16669.55103511227, -13830.655971843717, -20693.624996379018, -17235.40779774282, 0.126, 0.998, 0.074, 192.0, 0.0, 0.0, 0.0, 0.0, 0.0, 0.0, 0.0, 0.0, 0.0, 1.695682268297453E9, 0.0, 2023-09-25 17:51:08.297
12.0, -187500.02235174447, 31078.87131915943, -27144.673722347467, -28070.773550364203, 9549.961632485585, -1435.0266975196241, -187500.02235174447, -16798.297083174835, -928.6255751401873, -10345.884900794614, -20665.886481509984, -33887.18919601312, 16692.59568364569, -13835.349838179332, -20649.74852201325, -17219.73922487965, 0.126, 0.998, 0.074, 192.0, 0.0, 0.0, 0.0, 0.0, 0.0, 0.0, 0.0, 0.0, 0.0, 1.695682268297458E9, 0.0, 2023-09-25 17:51:08.297
14.0, -187500.02235174447, 31078.156063336857, -27122.970178481362, -28067.063160784623, 9564.244397192526, -1423.1355694694007, -187500.02235174447, -16847.76149365443, -887.3419031312351, -10353.61860437615, -20692.70857485635, -33872.3923411837, 16679.76578232834, -13836.69094284665, -20690.495752155275, -17235.676018676284, 0.126, 0.998, 0.074, 192.0, 0.0, 0.0, 0.0, 0.0, 0.0, 0.0, 0.0, 0.0, 0.0, 1.695682268297463E9, 0.0, 2023-09-25 17:51:08.297
16.0, -187500.02235174447, 31109.336746852012, -27128.781632039743, -28061.922259559902, 9580.315301455892, -1429.2375957056995, -187500.02235174447, -16786.294196402338, -875.3613681031904, -10345.303755438776, -20646.775740000696, -33881.98123955503, 16684.638462619598, -13846.659820873718, -20640.4725480643, -17207.736338107152, 0.126, 0.998, 0.074, 192.0, 0.0, 0.0, 0.0, 0.0, 0.0, 0.0, 0.0, 0.0, 0.0, 1.695682268357697E9, 0.0, 2023-09-25 17:51:08.357
18.0, -187500.02235174447, 31104.19584562729, -27116.35406212259, -28062.36929444901, 9568.312414683392, -1429.5952236169844, -187500.02235174447, -16854.91405188013, -840.8726264086517, -10330.417493631541, -20665.215929176324, -33848.49832636098, 16689.86877082214, -13838.993172525546, -20683.209083462847, -17222.712006892205, 0.126, 1.0, 0.074, 192.0, 1.5, 120.0, 15.5, 32.0, 1.0, 40.0, 0.0, 0.0, 0.0, 1.695682268357713E9, 0.0, 2023-09-25 17:51:08.357
20.0, -187500.02235174447, 31130.839125018018, -27123.99835872631, -28067.711361373826, 9580.5611706449, -1429.0364300056017, -187500.02235174447, -16789.55755109281, -821.4489604769899, -10323.309638894754, -20631.062463648614, -33863.406939912675, 16686.96304404295, -13851.26428023151, -20645.926373711394, -17218.241658001145, 0.126, 1.0, 0.074, 192.0, 0.0, 0.0, 0.0, 0.0, 0.0, 0.0, 0.0, 0.0, 0.0, 1.695682268357718E9, 0.0, 2023-09-25 17:51:08.357
22.0, -187500.02235174447, 31125.318244137557, -27100.685489259424, -28056.55784089063, 9570.949920529118, -1416.4076943883533, -187500.02235174447, -16868.05687761985, -799.4101404440571, -10333.256165177365, -20655.559975571632, -33851.20288744007, 16698.138916270604, -13841.74243709355, -20676.637670592987, -17239.14053906686, 0.126, 1.0, 0.074, 192.0, 0.0, 0.0, 0.0, 0.0, 0.0, 0.0, 0.0, 0.0, 0.0, 1.695682268357723E9, 0.0, 2023-09-25 17:51:08.357
24.0, -187500.02235174447, 31150.933343283337, -27129.18396343994, -28072.427579453895, 9579.980025289062, -1427.9411945272916, -187500.02235174447, -16771.497341572922, -771.3139976637361, -10325.500109851375, -20624.491050778754, -33853.92980026362, 16707.817221619753, -13835.126320734778, -20639.399664330445, -17210.642064886342, 0.126, 1.0, 0.074, 192.0, 0.0, 0.0, 0.0, 0.0, 0.0, 0.0, 0.0, 0.0, 0.0, 1.69568226835773E9, 0.0, 2023-09-25 17:51:08.357
26.0, -187500.02235174447, 31132.224933174246, -27124.46774535987, -28070.84060559757, 9560.198731446115, -1441.9780900452245, -187500.02235174447, -16849.3261157663, -770.3081691632473, -10324.114301695145, -20656.543452327664, -33851.53816360691, 16691.232227233915, -13849.386733697265, -20668.926318755905, -17234.491376220154, 0.126, 1.0, 0.074, 192.0, 0.0, 0.0, 0.0, 0.0, 0.0, 0.0, 0.0, 0.0, 0.0, 1.695682268357735E9, 0.0, 2023-09-25 17:51:08.357
28.0, -187500.02235174447, 31168.904145825407, -27118.142201679017, -28059.061236269623, 9572.089859496338, -1424.476674136719, -187500.02235174447, -16770.580920050255, -732.1313896335828, -10318.101682436667, -20632.69414099385, -33855.82969854232, 16701.625788405632, -13855.198187255644, -20658.5774610731, -17225.528326693577, 0.128, 1.004, 0.07, 192.0, 2.0, 0.0, 15.5, 48.0, 1.0, 24.0, 0.0, 0.0, 0.0, 1.69568226835774E9, 0.0, 2023-09-25 17:51:08.357
30.0, -187500.02235174447, 31158.84586082052, -27089.4425617984, -28039.570515104595, 9560.46695237958, -1411.4903106081856, -187500.02235174447, -16856.18810131408, -704.2587642978149, -10303.640103774083, -20640.56195504212, -33834.684948287606, 16698.004805803874, -13837.205032969123, -20669.351001900555, -17221.616771413897, 0.128, 1.004, 0.07, 192.0, 0.0, 0.0, 0.0, 0.0, 0.0, 0.0, 0.0, 0.0, 0.0, 1.695682268417036E9, 0.0, 2023-09-25 17:51:08.417
32.0, -187500.02235174447, 31174.715599383784, -27121.338501136128, -28072.248765498254, 9603.650522667233, -1421.0568572350571, -187500.02235174447, -16771.497341572922, -690.2442205243374, -10301.784908984293, -20620.33362631007, -33837.523619833424, 16701.670491894543, -13833.606402111818, -20656.588155816575, -17207.289303218044, 0.128, 1.004, 0.07, 192.0, 0.0, 0.0, 0.0, 0.0, 0.0, 0.0, 0.0, 0.0, 0.0, 1.695682268417051E9, 0.0, 2023-09-25 17:51:08.417
34.0, -187500.02235174447, 31172.055741793603, -27098.293852602703, -28041.850393039036, 9568.267711194481, -1421.928575268814, -187500.02235174447, -16853.05885709034, -688.3890257345469, -10309.451557332464, -20633.27528634969, -33838.14946867817, 16690.092288266693, -13850.303155219932, -20653.41420810392, -17222.98022782567, 0.128, 1.004, 0.07, 192.0, 0.0, 0.0, 0.0, 0.0, 0.0, 0.0, 0.0, 0.0, 0.0, 1.695682268417057E9, 0.0, 2023-09-25 17:51:08.417
36.0, -187500.02235174447, 31189.06541932409, -27110.900236475496, -28066.66082938443, 9564.445562892624, -1431.3610114289536, -187500.02235174447, -16779.253396898916, -651.2851299387372, -10299.236810116388, -20616.332664052567, -33827.51003831745, 16709.06891930925, -13826.789120052948, -20659.739751784775, -17212.273742231577, 0.128, 1.004, 0.07, 192.0, 0.0, 0.0, 0.0, 0.0, 0.0, 0.0, 0.0, 0.0, 0.0, 1.695682268417062E9, 0.0, 2023-09-25 17:51:08.417
38.0, -187500.02235174447, 31191.70292516982, -27087.855587942075, -28030.69687255584, 9538.98692595803, -1426.510682882152, -187500.02235174447, -16858.557386226345, -643.5737781016562, -10297.046339159768, -20611.147059338935, -33826.0348231834, 16705.157364029572, -13848.291498218954, -20652.341324370067, -17225.59538192694, 0.132, 1.006, 0.068, 192.0, 2.0, 16.0, 15.5, 56.0, 1.0, 16.0, 0.0, 0.0, 0.0, 1.695682268417068E9, 0.0, 2023-09-25 17:51:08.417
40.0, -187500.02235174447, 31208.489085255755, -27102.384221838027, -28056.73665484627, 9567.910083283197, -1428.8352643055039, -187500.02235174447, -16789.714013303997, -616.8634434775643, -10284.618769242617, -20608.710719193306, -33813.562549777336, 16717.02614033534, -13834.20989921211, -20674.938938014384, -17219.381596968364, 0.132, 1.006, 0.068, 192.0, 0.0, 0.0, 0.0, 0.0, 0.0, 0.0, 0.0, 0.0, 0.0, 1.695682268417073E9, 0.0, 2023-09-25 17:51:08.417
42.0, -187500.02235174447, 31207.706774199818, -27083.854625684577, -28031.50153535623, 9539.255146891493, -1439.6535086218726, -187500.02235174447, -16838.977258083494, -608.1909666289051, -10287.837420444182, -20599.702966177818, -33819.03872716889, 16717.65198918009, -13833.49464338954, -20645.635801033473, -17216.94525682274, 0.132, 1.006, 0.068, 192.0, 0.0, 0.0, 0.0, 0.0, 0.0, 0.0, 0.0, 0.0, 0.0, 1.695682268417078E9, 0.0, 2023-09-25 17:51:08.417
44.0, -187500.02235174447, 31215.619291737, -27102.205407882382, -28059.128291502988, 9576.403746176213, -1432.8138748185486, -187500.02235174447, -16799.928760520073, -575.2891987906931, -10275.476905760397, -20600.529980722666, -33798.676287970105, 16713.963951344962, -13826.655009586217, -20687.52297014272, -17225.908306349316, 0.132, 1.006, 0.068, 192.0, 0.0, 0.0, 0.0, 0.0, 0.0, 0.0, 0.0, 0.0, 0.0, 1.695682268417084E9, 0.0, 2023-09-25 17:51:08.417
46.0, -187500.02235174447, 31205.426896265377, -27102.764201493766, -28045.046692496147, 9544.328992882847, -1454.5621221735623, -187500.02235174447, -16821.341731708257, -579.133698837006, -10292.039548401779, -20590.762268395694, -33822.480895815, 16693.78032610182, -13851.577204653884, -20651.961344714327, -17226.332989493967, 0.132, 1.006, 0.068, 192.0, 0.0, 0.0, 0.0, 0.0, 0.0, 0.0, 0.0, 0.0, 0.0, 1.695682268476738E9, 0.0, 2023-09-25 17:51:08.476
48.0, -187500.02235174447, 31202.20824506381, -27130.346254151616, -28073.74633237676, 9558.947033756618, -1447.990709303702, -187500.02235174447, -16785.690699302042, -567.197867297872, -10297.828650215704, -20617.092623364046, -33824.09022141579, 16697.26719823685, -13853.097123276846, -20699.391746448488, -17241.196899556744, 0.13, 1.006, 0.07200000000000001, 192.0, 2.0, 8.0, 15.5, 56.0, 1.0, 32.0, 0.0, 0.0, 0.0, 1.695682268476751E9, 0.0, 2023-09-25 17:51:08.476
50.0, -187500.02235174447, 31214.457001025323, -27104.08295441663, -28042.297427928144, 9563.953824514607, -1442.0004417896798, -187500.02235174447, -16803.393280910645, -541.2474919852605, -10288.105641377646, -20600.328815022567, -33825.61014003875, 16696.551942414277, -13851.756018609527, -20675.721249070317, -17231.049207574037, 0.13, 1.006, 0.07200000000000001, 192.0, 0.0, 0.0, 0.0, 0.0, 0.0, 0.0, 0.0, 0.0, 0.0, 1.695682268476756E9, 0.0, 2023-09-25 17:51:08.476
52.0, -187500.02235174447, 31212.84767542454, -27117.538704578725, -28063.665695627416, 9570.122905984272, -1431.9868602737022, -187500.02235174447, -16794.631397084166, -527.6799831008891, -10289.200876855955, -20608.93423663786, -33817.78702947939, 16701.335215727715, -13848.559719152418, -20705.314958729145, -17239.07348383349, 0.13, 1.006, 0.07200000000000001, 192.0, 0.0, 0.0, 0.0, 0.0, 0.0, 0.0, 0.0, 0.0, 0.0, 1.695682268476761E9, 0.0, 2023-09-25 17:51:08.476
54.0, -187500.02235174447, 31229.030338410183, -27091.253053099284, -28038.810555793116, 9551.056867963895, -1442.5592354010626, -187500.02235174447, -16783.902559745617, -507.4740061132915, -10282.070670374713, -20578.40175371191, -33818.41287832414, 16706.096137296696, -13846.816283084903, -20653.101283681546, -17228.03172207257, 0.13, 1.006, 0.07200000000000001, 192.0, 0.0, 0.0, 0.0, 0.0, 0.0, 0.0, 0.0, 0.0, 0.0, 1.695682268476765E9, 0.0, 2023-09-25 17:51:08.476
56.0, -187500.02235174447, 31220.98371040627, -27106.899274217998, -28056.17786123489, 9568.982967017051, -1443.028622034624, -187500.02235174447, -16798.587655852756, -503.2271746667832, -10290.519629778819, -20604.195666813335, -33813.54019803288, 16695.344948213693, -13845.631640628773, -20695.32372895762, -17252.171606084303, 0.13, 1.006, 0.07200000000000001, 192.0, 0.0, 0.0, 0.0, 0.0, 0.0, 0.0, 0.0, 0.0, 0.0, 1.69568226847677E9, 0.0, 2023-09-25 17:51:08.476
58.0, -187500.02235174447, 31241.435556582877, -27091.49892228829, -28036.4189191364, 9569.944092028629, -1424.476674136719, -187500.02235174447, -16779.87924574366, -471.8229737070768, -10268.927844634993, -20566.555329150597, -33809.33807007528, 16718.568410702756, -13830.87948928827, -20658.04101920617, -17228.746977895138, 0.132, 1.008, 0.066, 192.0, 2.0, 16.0, 15.5, 64.0, 1.0, 8.0, 0.0, 0.0, 0.0, 1.695682268476775E9, 0.0, 2023-09-25 17:51:08.476
60.0, -187500.02235174447, 31230.70671924433, -27094.40464906748, -28035.45779412482, 9581.298778211925, -1425.3260404260209, -187500.02235174447, -16830.125967279193, -478.8414214660432, -10273.1746760815, -20602.809858657107, -33803.30309907235, 16710.678244910032, -13834.075788745378, -20706.387842463, -17238.201765799735, 0.132, 1.008, 0.066, 192.0, 0.0, 0.0, 0.0, 0.0, 0.0, 0.0, 0.0, 0.0, 0.0, 1.695682268537031E9, 0.0, 2023-09-25 17:51:08.537
62.0, -187500.02235174447, 31252.36555962152, -27087.855587942075, -28033.55789584612, 9574.123868241772, -1431.4951218956855, -187500.02235174447, -16777.80053350932, -446.1855228168396, -10256.120295062101, -20557.301706946102, -33799.83857868178, 16724.938657872517, -13834.634582356763, -20659.046847706657, -17214.866544588393, 0.132, 1.008, 0.066, 192.0, 0.0, 0.0, 0.0, 0.0, 0.0, 0.0, 0.0, 0.0, 0.0, 1.695682268537045E9, 0.0, 2023-09-25 17:51:08.537
64.0, -187500.02235174447, 31233.388928578966, -27093.197654866894, -28047.527736130683, 9580.89644681173, -1424.5884328589957, -187500.02235174447, -16835.535089437377, -456.5343804996468, -10268.570216723707, -20589.5105707062, -33797.134017602686, 16711.035872821318, -13828.957239265113, -20698.81060109265, -17236.815957643506, 0.132, 1.008, 0.066, 192.0, 0.0, 0.0, 0.0, 0.0, 0.0, 0.0, 0.0, 0.0, 0.0, 1.695682268537051E9, 0.0, 2023-09-25 17:51:08.537
66.0, -187500.02235174447, 31249.90686773144, -27090.426038554437, -28042.230372694776, 9572.93922578564, -1428.7235055832275, -187500.02235174447, -16767.295213615325, -441.91633962587593, -10265.396269011053, -20564.275451216155, -33819.418706824625, 16714.075710067238, -13829.3148671764, -20654.911774982425, -17215.961780066704, 0.132, 1.008, 0.066, 192.0, 0.0, 0.0, 0.0, 0.0, 0.0, 0.0, 0.0, 0.0, 0.0, 1.695682268537056E9, 0.0, 2023-09-25 17:51:08.537
68.0, -187500.02235174447, 31224.42587905239, -27104.150009649995, -28055.283791456677, 9577.119001998783, -1426.3542206709649, -187500.02235174447, -16837.256173760437, -461.60822649100146, -10271.721812691905, -20603.011024357205, -33810.36625032023, 16707.414890219556, -13836.40037016873, -20694.3849556905, -17239.27464953359, 0.126, 1.006, 0.066, 192.0, 1.5, 120.0, 15.5, 56.0, 1.0, 8.0, 0.0, 0.0, 0.0, 1.695682268537062E9, 0.0, 2023-09-25 17:51:08.537
70.0, -187500.02235174447, 31231.891361700462, -27131.441489629924, -28089.101980817555, 9586.640845136744, -1452.6175204059507, -187500.02235174447, -16744.92111741556, -458.6577962229009, -10287.837420444182, -20586.73895439374, -33844.47501235903, 16695.791983102798, -13851.867777331803, -20659.113902940026, -17235.98894309866, 0.126, 1.006, 0.066, 192.0, 0.0, 0.0, 0.0, 0.0, 0.0, 0.0, 0.0, 0.0, 0.0, 1.695682268537067E9, 0.0, 2023-09-25 17:51:08.537
72.0, -187500.02235174447, 31227.398661064944, -27095.254015356782, -28047.32657043059, 9573.945054286129, -1429.3940579168866, -187500.02235174447, -16845.928650609094, -470.9959591622304, -10296.778118226304, -20623.149946111436, -33836.09310818829, 16693.489753423903, -13856.338126222865, -20699.369394704034, -17275.149199384356, 0.126, 1.006, 0.066, 192.0, 0.0, 0.0, 0.0, 0.0, 0.0, 0.0, 0.0, 0.0, 0.0, 1.695682268537073E9, 0.0, 2023-09-25 17:51:08.537
74.0, -187500.02235174447, 31245.99531245176, -27111.526085320245, -28059.26240196972, 9590.574752160877, -1428.4999881386743, -187500.02235174447, -16765.93175720355, -422.98441207223084, -10264.949234121947, -20577.84296010053, -33814.680137000105, 16718.25548628038, -13833.338181178355, -20677.129408971003, -17240.12401582289, 0.126, 1.006, 0.066, 192.0, 0.0, 0.0, 0.0, 0.0, 0.0, 0.0, 0.0, 0.0, 0.0, 1.695682268537078E9, 0.0, 2023-09-25 17:51:08.537
76.0, -187500.02235174447, 31225.007024408227, -27100.97606193734, -28049.271172198198, 9561.785705302442, -1422.0179822466353, -187500.02235174447, -16850.264889033424, -439.83762739153235, -10268.436106256975, -20605.849695903027, -33817.25058761246, 16706.654930908076, -13845.877509817781, -20691.032194022202, -17249.4223415163, 0.126, 1.006, 0.066, 192.0, 0.0, 0.0, 0.0, 0.0, 0.0, 0.0, 0.0, 0.0, 0.0, 1.695682268597331E9, 0.0, 2023-09-25 17:51:08.597
78.0, -187500.02235174447, 31232.874838456493, -27137.856440288597, -28088.18555929489, 9580.47176366708, -1447.5660261590513, -187500.02235174447, -16746.955126160996, -429.91345285337604, -10281.690690718971, -20597.423088243377, -33843.13390769171, 16699.234151748915, -13844.491701661553, -20668.836911778082, -17244.527309480585, 0.124, 1.012, 0.062, 192.0, 1.5, 112.0, 15.5, 80.0, 0.5, 120.0, 0.0, 0.0, 0.0, 1.695682268597345E9, 0.0, 2023-09-25 17:51:08.597
80.0, -187500.02235174447, 31227.219847109303, -27103.680623016433, -28054.948515289845, 9574.61560661979, -1435.2725667086324, -187500.02235174447, -16833.456377203034, -433.8250081330548, -10280.416641285019, -20618.590190242554, -33837.36715762224, 16700.239980249404, -13850.07963777538, -20682.56088287364, -17259.547681754553, 0.124, 1.012, 0.062, 192.0, 0.0, 0.0, 0.0, 0.0, 0.0, 0.0, 0.0, 0.0, 0.0, 1.695682268597351E9, 0.0, 2023-09-25 17:51:08.597
82.0, -187500.02235174447, 31232.941893689862, -27133.654312331, -28092.253576785755, 9576.090821753838, -1450.0247180491351, -187500.02235174447, -16742.238908080926, -405.59475488600197, -10279.634330229084, -20604.150963324424, -33842.17278268013, 16694.45087843548, -13857.299251234443, -20677.107057226545, -17251.21048107272, 0.124, 1.012, 0.062, 192.0, 0.0, 0.0, 0.0, 0.0, 0.0, 0.0, 0.0, 0.0, 0.0, 1.695682268597357E9, 0.0, 2023-09-25 17:51:08.597
84.0, -187500.02235174447, 31235.37823383549, -27092.527102533237, -28045.493727385252, 9550.632184819244, -1427.449456149275, -187500.02235174447, -16830.86357484622, -403.13606299591817, -10295.258199603344, -20617.539658253154, -33839.02118671193, 16692.39451794559, -13857.925100079192, -20680.95155727286, -17263.99567890116, 0.124, 1.012, 0.062, 192.0, 0.0, 0.0, 0.0, 0.0, 0.0, 0.0, 0.0, 0.0, 0.0, 1.695682268597363E9, 0.0, 2023-09-25 17:51:08.597
86.0, -187500.02235174447, 31239.267437370712, -27127.03819597223, -28078.060219056635, 9573.855647308308, -1437.7759620876268, -187500.02235174447, -16752.587765763732, -378.07975746151897, -10269.151362079545, -20600.328815022567, -33830.84044824129, 16699.837648849207, -13836.176852724178, -20691.27806321121, -17254.250318318645, 0.124, 1.012, 0.062, 192.0, 0.0, 0.0, 0.0, 0.0, 0.0, 0.0, 0.0, 0.0, 0.0, 1.69568226859737E9, 0.0, 2023-09-25 17:51:08.597
88.0, -187500.02235174447, 31238.79805073715, -27101.42309682645, -28046.097224485544, 9563.685603581143, -1433.3279649410208, -187500.02235174447, -16817.5195834064, -382.55010635258037, -10280.729565707394, -20604.93327438036, -33841.234009413005, 16688.88529406611, -13844.871681317292, -20671.988507746282, -17252.439827017766, 0.13, 1.014, 0.058, 192.0, 2.0, 8.0, 15.5, 88.0, 0.5, 104.0, 0.0, 0.0, 0.0, 1.695682268597376E9, 0.0, 2023-09-25 17:51:08.597
90.0, -187500.02235174447, 31255.67361780091, -27102.764201493766, -28057.02722752419, 9587.199638748127, -1420.319249668032, -187500.02235174447, -16780.683908544055, -355.34803335047167, -10257.46139972942, -20600.77584991167, -33818.05525041286, 16703.97272157344, -13827.705541575617, -20694.76493534624, -17250.31641129451, 0.13, 1.014, 0.058, 192.0, 0.0, 0.0, 0.0, 0.0, 0.0, 0.0, 0.0, 0.0, 0.0, 1.695682268657781E9, 0.0, 2023-09-25 17:51:08.657
92.0, -187500.02235174447, 31234.484164057278, -27111.928416720442, -28054.45677691183, 9551.123923197261, -1440.994613289191, -187500.02235174447, -16808.444775157546, -350.0730216590192, -10271.632405714085, -20589.197646283825, -33828.62762554021, 16701.044643049794, -13844.335239450365, -20654.509443582232, -17244.013219358116, 0.13, 1.014, 0.058, 192.0, 0.0, 0.0, 0.0, 0.0, 0.0, 0.0, 0.0, 0.0, 0.0, 1.695682268657806E9, 0.0, 2023-09-25 17:51:08.657
94.0, -187500.02235174447, 31224.939969174862, -27147.89237354903, -28099.115562333533, 9583.46689742409, -1458.8089536200707, -187500.02235174447, -16744.831710437742, -364.69106253279006, -10292.486583290885, -20620.579495499074, -33850.73350080651, 16685.376070186623, -13864.340050737865, -20690.160475988447, -17261.2240625887, 0.13, 1.014, 0.058, 192.0, 0.0, 0.0, 0.0, 0.0, 0.0, 0.0, 0.0, 0.0, 0.0, 1.695682268657809E9, 0.0, 2023-09-25 17:51:08.657
96.0, -187500.02235174447, 31246.129422918493, -27097.198617124395, -28043.683236084373, 9549.626356318755, -1440.0334882776128, -187500.02235174447, -16777.979347464963, -354.0963356609745, -10292.08425189069, -20616.779698941675, -33858.869535788246, 16675.5860061152, -13860.31673673591, -20657.95161222835, -17263.74980971215, 0.13, 1.014, 0.058, 192.0, 0.0, 0.0, 0.0, 0.0, 0.0, 0.0, 0.0, 0.0, 0.0, 1.695682268657813E9, 0.0, 2023-09-25 17:51:08.657
98.0, -187500.02235174447, 31259.4287108694, -27093.8458554561, -28045.87370704099, 9598.509621442512, -1424.476674136719, -187500.02235174447, -16781.712088788998, -308.18585254977376, -10260.590643953163, -20608.241332559744, -33819.19518938007, 16708.17484953104, -13822.654047328717, -20700.86696158254, -17259.525330010096, 0.132, 1.014, 0.058, 192.0, 2.0, 16.0, 15.5, 88.0, 0.5, 104.0, 0.0, 0.0, 0.0, 1.695682268657816E9, 0.0, 2023-09-25 17:51:08.657
100.0, -187500.02235174447, 31271.72217031982, -27073.617526724047, -28021.73382302926, 9571.240493207037, -1424.677839836817, -187500.02235174447, -16793.93849300605, -277.31809345699475, -10253.996879338847, -20569.192834996324, -33824.112573160244, 16726.391521262114, -13819.904782760714, -20649.927335968892, -17235.474852976186, 0.132, 1.014, 0.058, 192.0, 0.0, 0.0, 0.0, 0.0, 0.0, 0.0, 0.0, 0.0, 0.0, 1.695682268657819E9, 0.0, 2023-09-25 17:51:08.657
102.0, -187500.02235174447, 31265.731902805797, -27086.246262341294, -28039.68227382687, 9582.32695845687, -1413.7254850537165, -187500.02235174447, -16814.323283949292, -272.534820143559, -10245.346754234643, -20592.282187018656, -33801.112628115734, 16713.203992033483, -13804.772651764471, -20696.307205713656, -17242.135672823868, 0.132, 1.014, 0.058, 192.0, 0.0, 0.0, 0.0, 0.0, 0.0, 0.0, 0.0, 0.0, 0.0, 1.695682268657822E9, 0.0, 2023-09-25 17:51:08.657
104.0, -187500.02235174447, 31261.350960892556, -27108.106268418585, -28049.226468709287, 9566.390164660235, -1444.4591336797637, -187500.02235174447, -16773.643109040633, -267.25980845210654, -10257.081420073679, -20571.15978850839, -33834.86376224324, 16708.688939653508, -13830.231288699066, -20648.69799002385, -17226.80237612753, 0.132, 1.014, 0.058, 192.0, 0.0, 0.0, 0.0, 0.0, 0.0, 0.0, 0.0, 0.0, 0.0, 1.695682268657826E9, 0.0, 2023-09-25 17:51:08.657
106.0, -187500.02235174447, 31239.155678648436, -27125.339463393626, -28078.30608824564, 9583.221028235082, -1455.0762122960346, -187500.02235174447, -16781.913254489096, -292.40552096432697, -10276.572141238707, -20618.679597220373, -33834.237913398494, 16684.97373878643, -13840.624849870785, -20699.81642959314, -17252.439827017766, 0.132, 1.014, 0.058, 192.0, 0.0, 0.0, 0.0, 0.0, 0.0, 0.0, 0.0, 0.0, 0.0, 1.695682268717046E9, 0.0, 2023-09-25 17:51:08.717
108.0, -187500.02235174447, 31250.353902620544, -27120.489134846823, -28070.08064628609, 9541.110341681284, -1463.8827996114255, -187500.02235174447, -16726.056245095282, -280.4920411696483, -10292.754804224349, -20601.46875398979, -33867.22908821453, 16678.715250338944, -13868.65393741774, -20660.589118074076, -17252.596289228954, 0.132, 1.016, 0.052000000000000005, 192.0, 2.0, 16.0, 15.5, 96.0, 0.5, 80.0, 0.0, 0.0, 0.0, 1.695682268717058E9, 0.0, 2023-09-25 17:51:08.717
110.0, -187500.02235174447, 31231.04199541116, -27135.28598967624, -28077.9261085899, 9539.165739913671, -1458.2278082642329, -187500.02235174447, -16759.762675733888, -288.49396568464823, -10291.525458279308, -20629.095510136547, -33848.855954272265, 16688.348852199182, -13859.914405335714, -20708.57831341962, -17271.9752516717, 0.132, 1.016, 0.052000000000000005, 192.0, 0.0, 0.0, 0.0, 0.0, 0.0, 0.0, 0.0, 0.0, 0.0, 1.695682268717062E9, 0.0, 2023-09-25 17:51:08.717
112.0, -187500.02235174447, 31265.888365016985, -27103.479457316334, -28048.153584975433, 9565.943129771129, -1440.771095844638, -187500.02235174447, -16710.432375721022, -261.9847967606541, -10280.774269196305, -20593.64564343043, -33856.81317529835, 16689.421735933036, -13857.723934379093, -20667.674621066406, -17253.959745640725, 0.132, 1.016, 0.052000000000000005, 192.0, 0.0, 0.0, 0.0, 0.0, 0.0, 0.0, 0.0, 0.0, 0.0, 1.695682268717065E9, 0.0, 2023-09-25 17:51:08.717
114.0, -187500.02235174447, 31239.915637959915, -27108.687413774423, -28049.271172198198, 9581.589350889844, -1437.7536103431714, -187500.02235174447, -16777.66642304259, -260.01784324858704, -10277.779135439294, -20614.99155938525, -33833.27678838692, 16691.388689445103, -13842.748265594038, -20708.91358958645, -17255.50201600814, 0.132, 1.016, 0.052000000000000005, 192.0, 0.0, 0.0, 0.0, 0.0, 0.0, 0.0, 0.0, 0.0, 0.0, 1.695682268717068E9, 0.0, 2023-09-25 17:51:08.717
116.0, -187500.02235174447, 31263.85435627155, -27100.529027048236, -28039.726977315782, 9576.068470009384, -1446.671956380839, -187500.02235174447, -16715.439166479013, -241.89057849533305, -10275.901588905048, -20590.69521316233, -33850.71114906206, 16694.473230179934, -13854.907614577725, -20662.354905886044, -17238.067655333, 0.132, 1.016, 0.052000000000000005, 192.0, 0.0, 0.0, 0.0, 0.0, 0.0, 0.0, 0.0, 0.0, 0.0, 1.695682268717071E9, 0.0, 2023-09-25 17:51:08.717
118.0, -187500.02235174447, 31248.297542130655, -27090.51544553226, -28030.339244644554, 9578.169533988183, -1439.4299911773196, -187500.02235174447, -16808.89181004665, -242.20350291770734, -10263.496370732353, -20611.012948872205, -33823.777296993416, 16704.173887273537, -13832.198242211134, -20707.72894713032, -17254.36207704092, 0.14200000000000002, 1.018, 0.044, 192.0, 2.0, 56.0, 15.5, 104.0, 0.5, 48.0, 0.0, 0.0, 0.0, 1.695682268717074E9, 0.0, 2023-09-25 17:51:08.717
120.0, -187500.02235174447, 31257.975847479804, -27113.761259765775, -28048.913544286916, 9588.18311550416, -1441.4863516672078, -187500.02235174447, -16718.50135546939, -224.74679049811252, -10260.41182999752, -20583.36384098099, -33841.05519545737, 16701.625788405632, -13838.032047513969, -20678.314051427133, -17237.531213466074, 0.14200000000000002, 1.018, 0.044, 192.0, 0.0, 0.0, 0.0, 0.0, 0.0, 0.0, 0.0, 0.0, 0.0, 1.695682268776952E9, 0.0, 2023-09-25 17:51:08.776
122.0, -187500.02235174447, 31241.144983904956, -27100.618434026055, -28036.865954025503, 9566.814847804886, -1437.7536103431714, -187500.02235174447, -16800.018167497896, -245.10922969689724, -10277.600321483651, -20614.499821007234, -33836.920122733136, 16699.34591047119, -13849.990230797557, -20699.61526389304, -17250.003486872138, 0.14200000000000002, 1.018, 0.044, 192.0, 0.0, 0.0, 0.0, 0.0, 0.0, 0.0, 0.0, 0.0, 0.0, 1.695682268776963E9, 0.0, 2023-09-25 17:51:08.776
124.0, -187500.02235174447, 31262.602658582055, -27122.590198825623, -28059.41886418091, 9565.56315011539, -1456.3279099855317, -187500.02235174447, -16697.02132904784, -232.9275289687549, -10276.862713916626, -20597.020756843183, -33851.80638454037, 16682.760916085354, -13851.420742442697, -20675.05069673666, -17248.41651301581, 0.14200000000000002, 1.018, 0.044, 192.0, 0.0, 0.0, 0.0, 0.0, 0.0, 0.0, 0.0, 0.0, 0.0, 1.695682268776967E9, 0.0, 2023-09-25 17:51:08.776
126.0, -187500.02235174447, 31270.962211008336, -27069.54950923318, -27997.77275297317, 9573.319205441381, -1425.638964848395, -187500.02235174447, -16809.13767923566, -224.47856956464884, -10256.50027471784, -20609.493030249243, -33822.436192326095, 16700.30703548277, -13839.954297537124, -20704.19737150638, -17268.08604813648, 0.14200000000000002, 1.018, 0.044, 192.0, 0.0, 0.0, 0.0, 0.0, 0.0, 0.0, 0.0, 0.0, 0.0, 1.69568226877697E9, 0.0, 2023-09-25 17:51:08.776
128.0, -187500.02235174447, 31275.700780832864, -27118.745698779312, -28055.46260541232, 9584.159801502205, -1451.410526205364, -187500.02235174447, -16699.010634304363, -195.42130177274964, -10264.211626554923, -20568.187006495835, -33817.11647714573, 16713.53926820031, -13836.132149235267, -20678.448161893866, -17232.1667947968, 0.14, 1.014, 0.044, 192.0, 2.0, 48.0, 15.5, 88.0, 0.5, 48.0, 0.0, 0.0, 0.0, 1.695682268776973E9, 0.0, 2023-09-25 17:51:08.776
130.0, -187500.02235174447, 31262.401492881956, -27099.634957270024, -28034.519020857697, 9573.632129863756, -1444.8167615910486, -187500.02235174447, -16768.010469437893, -216.90132819429974, -10285.043452387268, -20599.36769001099, -33839.64703555668, 16680.30222419527, -13863.378925726287, -20681.063315995136, -17253.199786329245, 0.14, 1.014, 0.044, 192.0, 0.0, 0.0, 0.0, 0.0, 0.0, 0.0, 0.0, 0.0, 0.0, 1.695682268776976E9, 0.0, 2023-09-25 17:51:08.776
132.0, -187500.02235174447, 31270.626934841508, -27100.93135844843, -28044.577305862585, 9598.531973186968, -1435.4290289198195, -187500.02235174447, -16708.934808842518, -186.01121735706536, -10268.637271957074, -20582.805047369606, -33822.10091615927, 16713.271047266848, -13836.31096319091, -20693.401478934466, -17243.923812380293, 0.14, 1.014, 0.044, 192.0, 0.0, 0.0, 0.0, 0.0, 0.0, 0.0, 0.0, 0.0, 0.0, 1.695682268776979E9, 0.0, 2023-09-25 17:51:08.776
134.0, -187500.02235174447, 31244.22952463979, -27092.437695555414, -28035.03311098017, 9556.957728500096, -1443.6321191349173, -187500.02235174447, -16786.98710048045, -192.0908918489089, -10285.691652976473, -20587.320099749577, -33834.17085816513, 16708.621884420143, -13854.862911088814, -20684.438429407888, -17254.786760185572, 0.14, 1.014, 0.044, 192.0, 0.0, 0.0, 0.0, 0.0, 0.0, 0.0, 0.0, 0.0, 0.0, 1.695682268776982E9, 0.0, 2023-09-25 17:51:08.776
136.0, -187500.02235174447, 31246.017664196213, -27106.720460262357, -28052.378064677487, 9583.399842190724, -1428.3435259274872, -187500.02235174447, -16734.88518415513, -179.61861844284755, -10281.198952340956, -20589.55527419511, -33825.096049916276, 16712.779308888832, -13840.066056259402, -20700.33051971561, -17249.13176883838, 0.14, 1.014, 0.044, 192.0, 0.0, 0.0, 0.0, 0.0, 0.0, 0.0, 0.0, 0.0, 0.0, 1.695682268837158E9, 0.0, 2023-09-25 17:51:08.837
138.0, -187500.02235174447, 31209.830189923072, -27097.31037584667, -28044.577305862585, 9545.84891150581, -1440.3911161888977, -187500.02235174447, -16790.317510404293, -191.8226709154452, -10300.17558338351, -20594.495009719732, -33841.099898946275, 16700.843477349696, -13853.342992465854, -20665.99824023226, -17244.59436471395, 0.132, 1.006, 0.05, 192.0, 2.0, 16.0, 15.5, 56.0, 0.5, 72.0, 0.0, 0.0, 0.0, 1.695682268837169E9, 0.0, 2023-09-25 17:51:08.837
140.0, -187500.02235174447, 31189.713619913295, -27125.78649828273, -28089.928995362403, 9565.406687904202, -1457.1102210414674, -187500.02235174447, -16744.764655204377, -193.0073133715765, -10319.956877226457, -20612.4658122618, -33845.05615771486, 16693.333291212715, -13861.523730936497, -20693.37912719001, -17260.84408293296, 0.132, 1.006, 0.05, 192.0, 0.0, 0.0, 0.0, 0.0, 0.0, 0.0, 0.0, 0.0, 0.0, 1.695682268837172E9, 0.0, 2023-09-25 17:51:08.837
142.0, -187500.02235174447, 31158.06354976458, -27116.711690033877, -28076.406189966943, 9556.644804077721, -1466.8555816239814, -187500.02235174447, -16771.65380378411, -206.08308387793113, -10354.445618920996, -20612.93519889536, -33871.87825106124, 16683.5879306302, -13887.60821671584, -20661.818464019118, -17259.21240558772, 0.132, 1.006, 0.05, 192.0, 0.0, 0.0, 0.0, 0.0, 0.0, 0.0, 0.0, 0.0, 0.0, 1.695682268837176E9, 0.0, 2023-09-25 17:51:08.837
144.0, -187500.02235174447, 31139.846878033506, -27132.022634985762, -28110.55965549465, 9574.503847897513, -1466.252084523688, -187500.02235174447, -16748.87737618415, -202.32799080943954, -10359.564168401263, -20632.872954949493, -33858.46720438805, 16688.929997555017, -13872.900768864247, -20709.15945877546, -17264.330955067988, 0.132, 1.006, 0.05, 192.0, 0.0, 0.0, 0.0, 0.0, 0.0, 0.0, 0.0, 0.0, 0.0, 1.695682268837179E9, 0.0, 2023-09-25 17:51:08.837
146.0, -187500.02235174447, 31121.339633624513, -27123.84189651512, -28102.84830365757, 9548.709934796088, -1468.0402240801125, -187500.02235174447, -16767.272861870868, -194.2590110610737, -10372.416421463064, -20627.03914964666, -33882.45062618859, 16681.82214281823, -13904.014397146035, -20681.62210960652, -17263.03455388958, 0.132, 1.006, 0.05, 192.0, 0.0, 0.0, 0.0, 0.0, 0.0, 0.0, 0.0, 0.0, 0.0, 1.695682268837182E9, 0.0, 2023-09-25 17:51:08.837
148.0, -187500.02235174447, 31106.185150883815, -27126.010015727286, -28122.204914355865, 9567.373641416269, -1456.3502617299869, -187500.02235174447, -16777.331146875757, -191.91207789326643, -10379.01018607738, -20657.1245976835, -33873.688742362116, 16688.281796965814, -13888.055251604945, -20739.021389367746, -17281.385336087387, 0.128, 1.01, 0.052000000000000005, 192.0, 2.0, 0.0, 15.5, 72.0, 0.5, 80.0, 0.0, 0.0, 0.0, 1.695682268837185E9, 0.0, 2023-09-25 17:51:08.837
150.0, -187500.02235174447, 31094.942223422793, -27136.18005945445, -28138.700501763884, 9535.477702078546, -1491.0178173801683, -187500.02235174447, -16755.784065220843, -185.02774060103187, -10407.419253280075, -20638.639705018963, -33907.50693172299, 16682.91737829654, -13919.526507798018, -20689.19935097687, -17266.677888235794, 0.128, 1.01, 0.052000000000000005, 192.0, 0.0, 0.0, 0.0, 0.0, 0.0, 0.0, 0.0, 0.0, 0.0, 1.695682268898861E9, 0.0, 2023-09-25 17:51:08.898
152.0, -187500.02235174447, 31087.230871585714, -27145.545440381225, -28142.790870999204, 9557.672984322666, -1488.7379394457269, -187500.02235174447, -16774.067792185284, -191.5320982375262, -10416.1587853621, -20669.730981556295, -33894.56527168337, 16689.24292197739, -13924.488595067096, -20740.988342879813, -17290.862475736438, 0.128, 1.01, 0.052000000000000005, 192.0, 0.0, 0.0, 0.0, 0.0, 0.0, 0.0, 0.0, 0.0, 0.0, 1.695682268898872E9, 0.0, 2023-09-25 17:51:08.898
154.0, -187500.02235174447, 31099.63608975841, -27141.41036765699, -28145.249562889287, 9531.633202032233, -1508.675695499861, -187500.02235174447, -16734.92988764404, -172.8236881284342, -10427.312305845298, -20642.908888209928, -33913.318385281375, 16671.83091304671, -13934.591583560896, -20696.106040013558, -17275.41742031782, 0.128, 1.01, 0.052000000000000005, 192.0, 0.0, 0.0, 0.0, 0.0, 0.0, 0.0, 0.0, 0.0, 0.0, 1.695682268898876E9, 0.0, 2023-09-25 17:51:08.898
156.0, -187500.02235174447, 31089.19782509778, -27142.595010113124, -28156.492490350305, 9541.6020800593, -1491.3530935469978, -187500.02235174447, -16776.951167220017, -179.66332193175816, -10423.579564521262, -20674.402496147453, -33892.37480072675, 16703.056300050772, -13934.278659138521, -20751.91834591846, -17296.875094994914, 0.128, 1.01, 0.052000000000000005, 192.0, 0.0, 0.0, 0.0, 0.0, 0.0, 0.0, 0.0, 0.0, 0.0, 1.695682268898879E9, 0.0, 2023-09-25 17:51:08.898
158.0, -187500.02235174447, 31105.78281948362, -27138.839917044632, -28152.782100770724, 9543.837254504831, -1504.317105331076, -187500.02235174447, -16725.02806485034, -153.69059487469136, -10422.417273809586, -20641.88070796498, -33911.82081840287, 16674.267253192338, -13939.218394663143, -20698.385917948, -17281.966481443225, 0.126, 1.008, 0.06, 192.0, 1.5, 120.0, 15.5, 64.0, 0.5, 112.0, 0.0, 0.0, 0.0, 1.695682268898883E9, 0.0, 2023-09-25 17:51:08.898
160.0, -187500.02235174447, 31100.06077290306, -27132.782594297245, -28153.43030135993, 9566.390164660235, -1488.380311534442, -187500.02235174447, -16785.333071390756, -161.91603683424435, -10424.764206977392, -20664.120693698012, -33895.68285890613, 16688.661776621553, -13934.56923181644, -20739.982514379324, -17297.09861243947, 0.126, 1.008, 0.06, 192.0, 0.0, 0.0, 0.0, 0.0, 0.0, 0.0, 0.0, 0.0, 0.0, 1.695682268898886E9, 0.0, 2023-09-25 17:51:08.898
162.0, -187500.02235174447, 31122.88190399193, -27132.357911152594, -28147.57414431264, 9566.121943726772, -1503.6465529974166, -187500.02235174447, -16718.07667232474, -135.85390279935632, -10408.58154399175, -20627.061501391116, -33904.13181831024, 16688.348852199182, -13936.491481839596, -20698.63178713701, -17275.551530784553, 0.126, 1.008, 0.06, 192.0, 0.0, 0.0, 0.0, 0.0, 0.0, 0.0, 0.0, 0.0, 0.0, 1.695682268898889E9, 0.0, 2023-09-25 17:51:08.898
164.0, -187500.02235174447, 31104.39701132739, -27121.114983691572, -28152.51387983726, 9552.576786586857, -1495.3317040600425, -187500.02235174447, -16794.854914528718, -143.43114416970542, -10405.452299768007, -20654.867071493518, -33878.09203601981, 16696.06020403626, -13924.242725878088, -20741.3459707911, -17292.404746103854, 0.126, 1.008, 0.06, 192.0, 0.0, 0.0, 0.0, 0.0, 0.0, 0.0, 0.0, 0.0, 0.0, 1.695682268898892E9, 0.0, 2023-09-25 17:51:08.898
166.0, -187500.02235174447, 31121.741965024707, -27128.044024472718, -28153.34089438211, 9539.232795147038, -1507.2898873436318, -187500.02235174447, -16707.459593708467, -134.13281847629767, -10415.39882605062, -20628.13438512497, -33907.05989683389, 16693.64621563509, -13934.122196927334, -20697.67066212543, -17276.602062773953, 0.126, 1.008, 0.06, 192.0, 0.0, 0.0, 0.0, 0.0, 0.0, 0.0, 0.0, 0.0, 0.0, 1.695682268957721E9, 0.0, 2023-09-25 17:51:08.957
168.0, -187500.02235174447, 31110.856665474974, -27114.342405121613, -28134.61013252856, 9531.655553776689, -1481.965360875769, -187500.02235174447, -16793.670272072588, -142.00063252456576, -10401.026654365856, -20650.821405747105, -33880.237803487515, 16706.7443378859, -13932.155243415267, -20728.739586918306, -17285.833333233993, 0.11800000000000001, 1.006, 0.068, 192.0, 1.5, 88.0, 15.5, 56.0, 1.0, 16.0, 0.0, 0.0, 0.0, 1.695682268957731E9, 0.0, 2023-09-25 17:51:08.957
170.0, -187500.02235174447, 31133.2978169081, -27129.496887862315, -28148.915248979956, 9548.978155729552, -1490.5484307466068, -187500.02235174447, -16709.471250709445, -114.53033858899339, -10401.563096232783, -20622.12176586649, -33889.37966696974, 16703.950369828985, -13926.276734623521, -20702.94567381688, -17270.36592607092, 0.11800000000000001, 1.006, 0.068, 192.0, 0.0, 0.0, 0.0, 0.0, 0.0, 0.0, 0.0, 0.0, 0.0, 1.695682268957734E9, 0.0, 2023-09-25 17:51:08.957
172.0, -187500.02235174447, 31108.129752651424, -27130.54741985171, -28147.104757679077, 9531.342629354314, -1496.0022563937016, -187500.02235174447, -16793.178533694572, -132.72465857561335, -10400.1549363321, -20644.652324277442, -33882.31651572186, 16701.335215727715, -13923.0357316775, -20736.808566666674, -17289.61077804694, 0.11800000000000001, 1.006, 0.068, 192.0, 0.0, 0.0, 0.0, 0.0, 0.0, 0.0, 0.0, 0.0, 0.0, 1.695682268957738E9, 0.0, 2023-09-25 17:51:08.957
174.0, -187500.02235174447, 31127.039328460614, -27147.89237354903, -28169.255336434286, 9572.738060085543, -1507.1557768768998, -187500.02235174447, -16704.240942506905, -124.07453347140951, -10407.195735835521, -20630.19074561486, -33896.398114728705, 16696.954273814474, -13934.055141693967, -20726.079729328125, -17285.654519278352, 0.11800000000000001, 1.006, 0.068, 192.0, 0.0, 0.0, 0.0, 0.0, 0.0, 0.0, 0.0, 0.0, 0.0, 1.695682268957741E9, 0.0, 2023-09-25 17:51:08.957
176.0, -187500.02235174447, 31124.468877848256, -27110.721422519855, -28132.106737149566, 9548.665231307177, -1491.5319075026403, -187500.02235174447, -16800.152277964626, -124.81214103843463, -10399.104404342701, -20636.963324184817, -33882.42827444414, 16689.980529544417, -13929.785958503004, -20738.552002734184, -17305.055833465558, 0.11800000000000001, 1.006, 0.068, 192.0, 0.0, 0.0, 0.0, 0.0, 0.0, 0.0, 0.0, 0.0, 0.0, 1.695682268957744E9, 0.0, 2023-09-25 17:51:08.957
178.0, -187500.02235174447, 31143.892543779915, -27128.602818084102, -28150.70338853638, 9558.32118491187, -1490.1460993464113, -187500.02235174447, -16729.096082341206, -101.67808552719183, -10376.305624998287, -20616.734995452764, -33867.63141961473, 16716.757919401876, -13894.045519118969, -20727.331427017623, -17284.603987288952, 0.11800000000000001, 1.004, 0.076, 192.0, 1.5, 88.0, 15.5, 48.0, 1.0, 48.0, 0.0, 0.0, 0.0, 1.695682268957747E9, 0.0, 2023-09-25 17:51:08.957
180.0, -187500.02235174447, 31123.418345858856, -27118.812754012677, -28134.81129822866, 9526.112321151772, -1494.2588203261878, -187500.02235174447, -16801.76160356541, -119.9171090027224, -10397.584485719739, -20630.816594459608, -33877.55559415288, 16689.77936384432, -13927.036693935, -20710.031176809214, -17287.397955345867, 0.11800000000000001, 1.004, 0.076, 192.0, 0.0, 0.0, 0.0, 0.0, 0.0, 0.0, 0.0, 0.0, 0.0, 1.695682269016988E9, 0.0, 2023-09-25 17:51:09.016
182.0, -187500.02235174447, 31122.25605514718, -27160.94579231093, -28188.72370585486, 9568.93826352814, -1508.4521780553077, -187500.02235174447, -16716.713215912965, -105.45553034013872, -10391.013072849879, -20626.681521735372, -33879.14256800921, 16690.561674900255, -13906.763661714038, -20726.14678456149, -17284.872208222416, 0.11800000000000001, 1.004, 0.076, 192.0, 0.0, 0.0, 0.0, 0.0, 0.0, 0.0, 0.0, 0.0, 0.0, 1.695682269016999E9, 0.0, 2023-09-25 17:51:09.016
184.0, -187500.02235174447, 31119.57384581254, -27131.530896607746, -28144.556658811172, 9523.988905428518, -1509.189785622333, -187500.02235174447, -16772.413763095592, -128.477827129105, -10419.19862260802, -20641.836004476074, -33904.48944622152, 16683.900855052576, -13930.52356607003, -20705.270255240233, -17298.50677234015, 0.11800000000000001, 1.004, 0.076, 192.0, 0.0, 0.0, 0.0, 0.0, 0.0, 0.0, 0.0, 0.0, 0.0, 1.695682269017002E9, 0.0, 2023-09-25 17:51:09.017
186.0, -187500.02235174447, 31140.808003045084, -27144.27139094727, -28173.14453996951, 9531.610850287778, -1499.1538523619, -187500.02235174447, -16714.522744956346, -115.49146360057159, -10388.442622237519, -20638.70676025233, -33879.92487906515, 16689.846419077687, -13918.297161852975, -20718.882467613515, -17291.153048414355, 0.11800000000000001, 1.004, 0.076, 192.0, 0.0, 0.0, 0.0, 0.0, 0.0, 0.0, 0.0, 0.0, 0.0, 1.695682269017005E9, 0.0, 2023-09-25 17:51:09.017
188.0, -187500.02235174447, 31121.809020258075, -27126.32294014966, -28149.47404259134, 9528.45925431958, -1499.1315006174448, -187500.02235174447, -16757.79572222182, -101.65573378273652, -10391.325997272254, -20625.630989745976, -33886.65275414619, 16688.572369643734, -13920.442929320685, -20693.602644634564, -17285.967443700727, 0.11800000000000001, 1.008, 0.068, 192.0, 1.5, 88.0, 15.5, 64.0, 1.0, 16.0, 0.0, 0.0, 0.0, 1.695682269017009E9, 0.0, 2023-09-25 17:51:09.017
190.0, -187500.02235174447, 31118.903293478885, -27143.04204500223, -28177.01139176028, 9544.284289393938, -1513.34721009102, -187500.02235174447, -16711.125279799136, -123.82866428240112, -10427.647582012127, -20646.46281557832, -33897.158074040184, 16683.74439284139, -13935.686819039205, -20722.794022893195, -17294.61756880493, 0.11800000000000001, 1.008, 0.068, 192.0, 0.0, 0.0, 0.0, 0.0, 0.0, 0.0, 0.0, 0.0, 0.0, 1.695682269017012E9, 0.0, 2023-09-25 17:51:09.017
192.0, -187500.02235174447, 31132.180229685335, -27104.664099772468, -28141.516821565252, 9546.050077205906, -1505.9711344207687, -187500.02235174447, -16750.620812251665, -91.4409865666612, -10400.780785176848, -20624.960437412316, -33889.49142569202, 16693.221532490435, -13908.797670459471, -20702.073955783126, -17295.17636241631, 0.11800000000000001, 1.008, 0.068, 192.0, 0.0, 0.0, 0.0, 0.0, 0.0, 0.0, 0.0, 0.0, 0.0, 1.695682269017015E9, 0.0, 2023-09-25 17:51:09.017
194.0, -187500.02235174447, 31129.07333720605, -27123.17134418146, -28161.164004941467, 9565.965481515585, -1487.5532969895955, -187500.02235174447, -16741.478948769447, -81.94149517315569, -10393.270599039864, -20632.716492738306, -33862.423463156636, 16709.605361176178, -13901.399243044763, -20746.598630738095, -17294.41640310483, 0.11800000000000001, 1.008, 0.068, 192.0, 0.0, 0.0, 0.0, 0.0, 0.0, 0.0, 0.0, 0.0, 0.0, 1.695682269017018E9, 0.0, 2023-09-25 17:51:09.017
196.0, -187500.02235174447, 31128.603950572488, -27121.159687180483, -28143.886106477512, 9526.492300807513, -1508.7427507332268, -187500.02235174447, -16739.556698746288, -82.03090215097691, -10396.221029307966, -20616.690291963852, -33885.13283552323, 16695.3896517026, -13924.935629956202, -20694.76493534624, -17286.637996034384, 0.11800000000000001, 1.008, 0.068, 192.0, 0.0, 0.0, 0.0, 0.0, 0.0, 0.0, 0.0, 0.0, 0.0, 1.695682269076901E9, 0.0, 2023-09-25 17:51:09.076
198.0, -187500.02235174447, 31119.01505220116, -27129.586294840134, -28168.227156189343, 9567.016013504985, -1501.34432331852, -187500.02235174447, -16753.303021586304, -98.12415815879801, -10402.904200900102, -20653.481263337286, -33876.30389646338, 16686.314843453747, -13924.399188089275, -20746.755092949283, -17311.873115524428, 0.124, 1.004, 0.068, 192.0, 1.5, 112.0, 15.5, 48.0, 1.0, 16.0, 0.0, 0.0, 0.0, 1.695682269076911E9, 0.0, 2023-09-25 17:51:09.076
200.0, -187500.02235174447, 31126.279369149135, -27129.072204717664, -28159.375865385042, 9525.285306606926, -1518.309297360098, -187500.02235174447, -16726.816204406765, -87.14945163124224, -10414.504756272407, -20630.257800848223, -33903.93065261014, 16693.06507027925, -13928.2883916245, -20692.70857485635, -17296.09278393898, 0.124, 1.004, 0.068, 192.0, 0.0, 0.0, 0.0, 0.0, 0.0, 0.0, 0.0, 0.0, 0.0, 1.695682269076914E9, 0.0, 2023-09-25 17:51:09.076
202.0, -187500.02235174447, 31119.126810923437, -27129.74275705132, -28165.76846429926, 9537.019972445962, -1494.571744748562, -187500.02235174447, -16751.51488202988, -98.03475118097678, -10409.766186447881, -20658.264536650724, -33883.32234422235, 16691.09811676718, -13915.503193796063, -20742.77648243624, -17315.024711492624, 0.124, 1.004, 0.068, 192.0, 0.0, 0.0, 0.0, 0.0, 0.0, 0.0, 0.0, 0.0, 0.0, 1.695682269076918E9, 0.0, 2023-09-25 17:51:09.076
204.0, -187500.02235174447, 31138.01403498817, -27123.394861626013, -28149.921077480445, 9519.965591426562, -1498.9750384062575, -187500.02235174447, -16709.806526876277, -80.17570736118644, -10397.360968275187, -20621.026530388182, -33901.89664386471, 16685.4878289089, -13934.65863879426, -20689.37816493251, -17292.874132737415, 0.124, 1.004, 0.068, 192.0, 0.0, 0.0, 0.0, 0.0, 0.0, 0.0, 0.0, 0.0, 0.0, 1.695682269076921E9, 0.0, 2023-09-25 17:51:09.076
206.0, -187500.02235174447, 31132.71667155226, -27110.095573675106, -28142.813222743658, 9543.278460893449, -1484.669921954861, -187500.02235174447, -16774.98421370795, -90.72573074409136, -10383.614645435173, -20647.155719656435, -33871.5429748944, 16703.145707028594, -13910.921086182725, -20738.037912611715, -17304.05000496507, 0.124, 1.004, 0.068, 192.0, 0.0, 0.0, 0.0, 0.0, 0.0, 0.0, 0.0, 0.0, 0.0, 1.695682269076924E9, 0.0, 2023-09-25 17:51:09.076
208.0, -187500.02235174447, 31138.237552432725, -27128.55811459519, -28151.10571993658, 9536.50588232349, -1505.2335268537436, -187500.02235174447, -16709.65006466509, -65.75883218751338, -10414.39299755013, -20616.64558847494, -33893.35827748278, 16705.649102407588, -13922.61104853285, -20689.95931028835, -17287.085030923492, 0.124, 1.006, 0.066, 192.0, 1.5, 112.0, 15.5, 56.0, 1.0, 8.0, 0.0, 0.0, 0.0, 1.695682269076927E9, 0.0, 2023-09-25 17:51:09.076
210.0, -187500.02235174447, 31109.850836974485, -27147.13241423755, -28185.974441286857, 9519.31739083736, -1520.6785822723607, -187500.02235174447, -16749.07854188425, -109.76941702001298, -10426.328829089265, -20661.103208196546, -33907.21635904507, 16678.379974172112, -13940.0901126969, -20735.48981374381, -17320.09855748398, 0.124, 1.006, 0.066, 192.0, 0.0, 0.0, 0.0, 0.0, 0.0, 0.0, 0.0, 0.0, 0.0, 1.695682269137263E9, 0.0, 2023-09-25 17:51:09.137
212.0, -187500.02235174447, 31151.581543872544, -27115.5493993222, -28136.71119650736, 9546.385353372736, -1496.9857331497353, -187500.02235174447, -16699.68118663802, -75.52654451448257, -10399.730253187448, -20631.621257259998, -33901.58371944234, 16701.40227096108, -13941.43121736422, -20708.57831341962, -17309.213257934243, 0.124, 1.006, 0.066, 192.0, 0.0, 0.0, 0.0, 0.0, 0.0, 0.0, 0.0, 0.0, 0.0, 1.695682269137277E9, 0.0, 2023-09-25 17:51:09.137
214.0, -187500.02235174447, 31122.993662714205, -27124.13246919304, -28156.112510694566, 9557.494170367023, -1490.3249133020538, -187500.02235174447, -16768.390449093637, -85.51777428600482, -10387.883828626136, -20649.547356313153, -33883.881137833734, 16693.78032610182, -13912.798632716971, -20746.77744469374, -17306.978083488713, 0.124, 1.006, 0.066, 192.0, 0.0, 0.0, 0.0, 0.0, 0.0, 0.0, 0.0, 0.0, 0.0, 1.69568226913728E9, 0.0, 2023-09-25 17:51:09.137
216.0, -187500.02235174447, 31149.949866527306, -27125.27240816026, -28141.338007609607, 9546.385353372736, -1493.476509270252, -187500.02235174447, -16685.17490448653, -66.11646009879829, -10396.82452640826, -20617.45025127533, -33890.43019895914, 16705.31382624076, -13933.272830638032, -20715.373243734033, -17286.61564428993, 0.124, 1.006, 0.066, 192.0, 0.0, 0.0, 0.0, 0.0, 0.0, 0.0, 0.0, 0.0, 0.0, 1.695682269137284E9, 0.0, 2023-09-25 17:51:09.137
218.0, -187500.02235174447, 31137.723462310252, -27103.300643360693, -28127.837553958605, 9530.493263065013, -1482.4347475093302, -187500.02235174447, -16782.472048100477, -80.46628003910543, -10401.987779377436, -20641.008989931226, -33884.797559356404, 16704.30799774027, -13926.164975901243, -20748.67734297244, -17308.341539900488, 0.122, 1.014, 0.068, 192.0, 1.5, 104.0, 15.5, 88.0, 1.0, 16.0, 0.0, 0.0, 0.0, 1.695682269137287E9, 0.0, 2023-09-25 17:51:09.137
220.0, -187500.02235174447, 31143.937247268826, -27139.354007167105, -28161.834557275124, 9540.015106202973, -1504.026532653157, -187500.02235174447, -16683.230302718915, -56.41580300519502, -10391.43775599453, -20613.493992506745, -33887.12214077975, 16723.73166367193, -13920.174708387221, -20720.514144958754, -17290.929530969803, 0.122, 1.014, 0.068, 192.0, 0.0, 0.0, 0.0, 0.0, 0.0, 0.0, 0.0, 0.0, 0.0, 1.69568226913729E9, 0.0, 2023-09-25 17:51:09.137
222.0, -187500.02235174447, 31131.10734595148, -27117.35989062308, -28135.347740095585, 9527.922812452653, -1489.2073260792884, -187500.02235174447, -16764.88122521415, -91.84331796685672, -10408.939171903035, -20650.46377783582, -33902.50014096501, 16690.516971411344, -13947.019153478046, -20729.90187762998, -17306.642807321885, 0.122, 1.014, 0.068, 192.0, 0.0, 0.0, 0.0, 0.0, 0.0, 0.0, 0.0, 0.0, 0.0, 1.695682269137294E9, 0.0, 2023-09-25 17:51:09.137
224.0, -187500.02235174447, 31150.3521979275, -27145.634847359044, -28163.712103809372, 9559.371716901269, -1495.0858348710342, -187500.02235174447, -16675.07191599273, -60.90850364071174, -10396.19867756351, -20623.23935308926, -33892.37480072675, 16702.989244817407, -13927.930763713213, -20718.122508302036, -17291.95771121475, 0.122, 1.014, 0.068, 192.0, 0.0, 0.0, 0.0, 0.0, 0.0, 0.0, 0.0, 0.0, 0.0, 1.695682269137297E9, 0.0, 2023-09-25 17:51:09.137
226.0, -187500.02235174447, 31129.654482561888, -27133.810774542188, -28145.741301267302, 9536.639992790222, -1492.4706807697632, -187500.02235174447, -16747.22334709446, -88.04352140945451, -10411.308456815297, -20648.4744725793, -33901.51666420897, 16694.38382320211, -13926.343789856886, -20724.403348493975, -17311.85076377997, 0.122, 1.014, 0.068, 192.0, 0.0, 0.0, 0.0, 0.0, 0.0, 0.0, 0.0, 0.0, 0.0, 1.695682269197396E9, 0.0, 2023-09-25 17:51:09.197
228.0, -187500.02235174447, 31156.990666030728, -27138.817565300174, -28154.480833349327, 9536.371771856759, -1485.832212666537, -187500.02235174447, -16665.840645532688, -76.30885557041832, -10389.515505971374, -20634.70579799483, -33894.81114087238, 16697.02132904784, -13928.914240469247, -20727.39848225099, -17302.954769486758, 0.122, 1.012, 0.07, 192.0, 1.5, 104.0, 15.5, 80.0, 1.0, 24.0, 0.0, 0.0, 0.0, 1.695682269197407E9, 0.0, 2023-09-25 17:51:09.197
230.0, -187500.02235174447, 31148.653465348896, -27120.08680344663, -28135.079519162122, 9513.88591693472, -1487.0839103560343, -187500.02235174447, -16744.16115810408, -69.58098048937089, -10395.77399441886, -20629.587248514563, -33884.596393656306, 16703.413927962058, -13917.984237430603, -20721.81054613716, -17306.57575208852, 0.122, 1.012, 0.07, 192.0, 0.0, 0.0, 0.0, 0.0, 0.0, 0.0, 0.0, 0.0, 0.0, 1.695682269197411E9, 0.0, 2023-09-25 17:51:09.197
232.0, -187500.02235174447, 31153.772014829163, -27151.222783472873, -28161.231060174832, 9538.383428857736, -1493.9011924149029, -187500.02235174447, -16666.131218210605, -77.42644279318367, -10388.91200887108, -20636.56099278462, -33897.53805369593, 16692.439221434503, -13931.819967248437, -20731.53355497522, -17306.016958477136, 0.122, 1.012, 0.07, 192.0, 0.0, 0.0, 0.0, 0.0, 0.0, 0.0, 0.0, 0.0, 0.0, 1.695682269197414E9, 0.0, 2023-09-25 17:51:09.197
234.0, -187500.02235174447, 31150.84393630552, -27129.921571006966, -28137.359397096563, 9517.417492558658, -1491.5542592470956, -187500.02235174447, -16720.31184677027, -82.25441959553, -10401.473689254963, -20637.18684162937, -33904.55650145489, 16686.985395787407, -13935.575060316929, -20715.753223389773, -17305.10053695447, 0.122, 1.012, 0.07, 192.0, 0.0, 0.0, 0.0, 0.0, 0.0, 0.0, 0.0, 0.0, 0.0, 1.695682269197417E9, 0.0, 2023-09-25 17:51:09.197
236.0, -187500.02235174447, 31150.128680482947, -27162.510414422803, -28168.94241201191, 9545.893614994719, -1494.9517244043022, -187500.02235174447, -16658.62103207362, -85.47307079709421, -10388.19675304851, -20647.446292334356, -33894.31940249436, 16693.377994701623, -13928.668371280239, -20747.29153481621, -17307.916856755837, 0.122, 1.012, 0.07, 192.0, 0.0, 0.0, 0.0, 0.0, 0.0, 0.0, 0.0, 0.0, 0.0, 1.695682269197421E9, 0.0, 2023-09-25 17:51:09.197
238.0, -187500.02235174447, 31149.860459549483, -27134.83895478713, -28142.768519254747, 9518.31156233687, -1494.705855215294, -187500.02235174447, -16692.77449760133, -93.56440228991536, -10430.866233213692, -20640.338437597566, -33915.17358007116, 16676.390668915592, -13954.708153570671, -20711.551095432176, -17302.552438086565, 0.124, 1.014, 0.07, 192.0, 1.5, 112.0, 15.5, 88.0, 1.0, 24.0, 0.0, 0.0, 0.0, 1.695682269197424E9, 0.0, 2023-09-25 17:51:09.197
240.0, -187500.02235174447, 31164.4561486788, -27135.93419026544, -28144.91428672246, 9543.36786787127, -1484.1111283434784, -187500.02235174447, -16671.182712457503, -91.7986144779461, -10389.716671671471, -20653.973001715305, -33894.83349261683, 16696.73075636992, -13920.577039787417, -20745.190470837413, -17309.74969980117, 0.124, 1.014, 0.07, 192.0, 0.0, 0.0, 0.0, 0.0, 0.0, 0.0, 0.0, 0.0, 0.0, 1.695682269257761E9, 0.0, 2023-09-25 17:51:09.257
242.0, -187500.02235174447, 31172.03339004915, -27110.22968414184, -28122.003748655767, 9528.950992697597, -1477.897343384903, -187500.02235174447, -16694.96496855795, -69.35746304481782, -10393.047081595312, -20620.400681543433, -33890.18432977013, 16707.16902103055, -13912.888039694792, -20704.487944184297, -17288.1802664018, 0.124, 1.014, 0.07, 192.0, 0.0, 0.0, 0.0, 0.0, 0.0, 0.0, 0.0, 0.0, 0.0, 1.695682269257773E9, 0.0, 2023-09-25 17:51:09.257
244.0, -187500.02235174447, 31159.31524745408, -27140.695111834422, -28144.802528000182, 9552.308565653393, -1484.4911079992185, -187500.02235174447, -16685.57723588672, -84.75781497452438, -10387.280331525842, -20638.058559663124, -33884.439931445115, 16701.670491894543, -13924.130967155812, -20744.54227024821, -17292.292987381577, 0.124, 1.014, 0.07, 192.0, 0.0, 0.0, 0.0, 0.0, 0.0, 0.0, 0.0, 0.0, 0.0, 1.695682269257777E9, 0.0, 2023-09-25 17:51:09.257
246.0, -187500.02235174447, 31157.527107897655, -27136.202411198905, -28138.298170363687, 9529.733303753532, -1497.5668785055732, -187500.02235174447, -16659.336287896193, -84.95898067462214, -10403.127718344656, -20626.860335691017, -33913.27368179246, 16685.465477164445, -13938.972525474135, -20695.659005124453, -17288.42613559081, 0.124, 1.014, 0.07, 192.0, 0.0, 0.0, 0.0, 0.0, 0.0, 0.0, 0.0, 0.0, 0.0, 1.69568226925778E9, 0.0, 2023-09-25 17:51:09.257
248.0, -187500.02235174447, 31157.370645686467, -27130.94975125191, -28137.89583896349, 9561.383373902247, -1466.699119412794, -187500.02235174447, -16688.371203943636, -83.37200681829535, -10403.887677656136, -20653.593022059566, -33888.910280336175, 16694.58498890221, -13913.46918505063, -20749.727874961838, -17302.507734597653, 0.126, 1.014, 0.07200000000000001, 192.0, 1.5, 120.0, 15.5, 88.0, 1.0, 32.0, 0.0, 0.0, 0.0, 1.695682269257784E9, 0.0, 2023-09-25 17:51:09.257
250.0, -187500.02235174447, 31160.365779443477, -27128.93809425093, -28136.75589999627, 9525.665286262667, -1482.5018027426963, -187500.02235174447, -16648.361581368637, -72.95609390212225, -10406.480480012951, -20619.75248095423, -33909.56329221288, 16698.340081970702, -13929.115406169345, -20688.841723065583, -17278.14433314137, 0.126, 1.014, 0.07200000000000001, 192.0, 0.0, 0.0, 0.0, 0.0, 0.0, 0.0, 0.0, 0.0, 0.0, 1.695682269257787E9, 0.0, 2023-09-25 17:51:09.257
252.0, -187500.02235174447, 31153.146165984414, -27130.100384962607, -28145.651894289484, 9545.334821383336, -1462.7875641331154, -187500.02235174447, -16694.674395880033, -93.58675403437067, -10391.527162972352, -20652.85541449254, -33895.41463797267, 16707.079614052727, -13912.888039694792, -20735.95920037737, -17299.691414796285, 0.126, 1.014, 0.07200000000000001, 192.0, 0.0, 0.0, 0.0, 0.0, 0.0, 0.0, 0.0, 0.0, 0.0, 1.69568226925779E9, 0.0, 2023-09-25 17:51:09.257
254.0, -187500.02235174447, 31161.908049810896, -27135.71067282089, -28128.32929233662, 9529.755655497987, -1477.450308495797, -187500.02235174447, -16642.036037687783, -76.44296603715016, -10405.832279423748, -20625.09454787905, -33917.43110626115, 16705.716157640953, -13931.484691081607, -20685.600720119564, -17282.815847732527, 0.126, 1.014, 0.07200000000000001, 192.0, 0.0, 0.0, 0.0, 0.0, 0.0, 0.0, 0.0, 0.0, 0.0, 1.695682269257794E9, 0.0, 2023-09-25 17:51:09.257
0.0, -187500.02235174447, 31139.3998431444, -27146.931248537454, -28153.452653104385, 9549.715763296577, -1473.6058084494841, -187500.02235174447, -16688.68412836601, -104.1144256728203, -10399.238514809433, -20661.729057041295, -33899.1026758078, 16701.916361083553, -13924.600353789372, -20736.585049222118, -17301.65836830835, 0.126, 1.014, 0.07200000000000001, 192.0, 0.0, 0.0, 0.0, 0.0, 0.0, 0.0, 0.0, 0.0, 0.0, 1.695682269317224E9, 0.0, 2023-09-25 17:51:09.317
2.0, -187500.02235174447, 31161.68453236634, -27143.645542102524, -28144.28843787771, 9546.541815583923, -1478.4337852518304, -187500.02235174447, -16622.09828163365, -78.4993265270384, -10404.222953822966, -20625.675693234887, -33912.91605388118, 16690.092288266693, -13923.371007844331, -20688.52879864321, -17286.66034777884, 0.124, 1.012, 0.07200000000000001, 192.0, 1.5, 112.0, 15.5, 80.0, 1.0, 32.0, 0.0, 0.0, 0.0, 1.695682269317234E9, 0.0, 2023-09-25 17:51:09.317
4.0, -187500.02235174447, 31131.666139562865, -27157.14599575353, -28165.209670687876, 9512.075425633839, -1496.4492912828077, -187500.02235174447, -16665.952404254964, -114.44093161117216, -10431.715599502993, -20665.70766755434, -33917.38640277224, 16680.793962573287, -13930.188289903199, -20729.767767163252, -17314.778842303615, 0.124, 1.012, 0.07200000000000001, 192.0, 0.0, 0.0, 0.0, 0.0, 0.0, 0.0, 0.0, 0.0, 0.0, 1.695682269317238E9, 0.0, 2023-09-25 17:51:09.317
6.0, -187500.02235174447, 31162.39978818891, -27142.818527557676, -28146.300094878687, 9526.849928718797, -1479.4396137523192, -187500.02235174447, -16592.817496397198, -90.97159993309974, -10412.336637060242, -20641.187803886867, -33920.314481295885, 16679.45285790597, -13935.70917078366, -20695.52489465772, -17304.005301476158, 0.124, 1.012, 0.07200000000000001, 192.0, 0.0, 0.0, 0.0, 0.0, 0.0, 0.0, 0.0, 0.0, 0.0, 1.695682269317241E9, 0.0, 2023-09-25 17:51:09.317
8.0, -187500.02235174447, 31140.562133856078, -27146.394806670527, -28157.498318850794, 9534.203652644594, -1480.378387019442, -187500.02235174447, -16673.216721202938, -102.5498035609488, -10412.560154504796, -20659.98562097378, -33904.8023706439, 16690.69578536699, -13919.191231631188, -20730.550078219185, -17314.868249281437, 0.124, 1.012, 0.07200000000000001, 192.0, 0.0, 0.0, 0.0, 0.0, 0.0, 0.0, 0.0, 0.0, 0.0, 1.695682269317245E9, 0.0, 2023-09-25 17:51:09.317
10.0, -187500.02235174447, 31157.929439297848, -27160.52110916628, -28161.81220553067, 9543.36786787127, -1488.804994679093, -187500.02235174447, -16578.5123799458, -101.00753319353262, -10417.030503395856, -20642.148928898445, -33932.22796109056, 16676.25655844886, -13930.56826955894, -20703.593874406084, -17306.75456604416, 0.124, 1.012, 0.07200000000000001, 192.0, 0.0, 0.0, 0.0, 0.0, 0.0, 0.0, 0.0, 0.0, 0.0, 1.695682269317248E9, 0.0, 2023-09-25 17:51:09.317
12.0, -187500.02235174447, 31154.442567162823, -27126.501754105302, -28120.506181777262, 9521.731379238532, -1466.9002851128919, -187500.02235174447, -16677.664718349544, -116.85492001234532, -10412.560154504796, -20666.51233035473, -33908.624518945755, 16695.948445313985, -13936.625592306327, -20733.366398020557, -17316.321112671034, 0.13, 1.01, 0.066, 192.0, 2.0, 8.0, 15.5, 72.0, 1.0, 8.0, 0.0, 0.0, 0.0, 1.695682269317251E9, 0.0, 2023-09-25 17:51:09.317
14.0, -187500.02235174447, 31165.350218457013, -27154.866117819085, -28157.833595017626, 9554.99077498803, -1471.8847241264255, -187500.02235174447, -16600.551199978734, -75.70535847012502, -10390.253113538398, -20625.251010090233, -33896.37576298425, 16702.65396865058, -13904.32732156841, -20725.140956061, -17283.84402797747, 0.13, 1.01, 0.066, 192.0, 0.0, 0.0, 0.0, 0.0, 0.0, 0.0, 0.0, 0.0, 0.0, 1.69568226937765E9, 0.0, 2023-09-25 17:51:09.377
16.0, -187500.02235174447, 31147.6029333595, -27145.74660608132, -28138.38757734151, 9530.359152598281, -1482.2112300647773, -187500.02235174447, -16671.517988624335, -107.48953908557166, -10422.283163342854, -20659.51623434022, -33913.54190272593, 16682.403288174068, -13928.556612557963, -20730.259505541268, -17300.294911896577, 0.13, 1.01, 0.066, 192.0, 0.0, 0.0, 0.0, 0.0, 0.0, 0.0, 0.0, 0.0, 0.0, 1.695682269377669E9, 0.0, 2023-09-25 17:51:09.377
18.0, -187500.02235174447, 31165.797253346118, -27156.05076027522, -28163.309772409175, 9549.13461794074, -1474.5669334610623, -187500.02235174447, -16586.491952716347, -92.29035285596287, -10414.616514994683, -20639.556126541633, -33910.300899779904, 16685.73369809791, -13922.812214232948, -20724.33629326061, -17296.070432194523, 0.13, 1.01, 0.066, 192.0, 0.0, 0.0, 0.0, 0.0, 0.0, 0.0, 0.0, 0.0, 0.0, 1.695682269377673E9, 0.0, 2023-09-25 17:51:09.377
20.0, -187500.02235174447, 31160.097558510013, -27135.84478328762, -28131.1903156269, 9509.92965816613, -1470.0295293366348, -187500.02235174447, -16660.11859895213, -107.15426291874206, -10420.91970693108, -20648.60858304603, -33906.411696244686, 16679.095229994684, -13938.704304540672, -20720.24592402529, -17299.266731651634, 0.13, 1.01, 0.066, 192.0, 0.0, 0.0, 0.0, 0.0, 0.0, 0.0, 0.0, 0.0, 0.0, 1.695682269377676E9, 0.0, 2023-09-25 17:51:09.377
22.0, -187500.02235174447, 31177.26369825169, -27148.22764971586, -28154.503185093785, 9542.98788821553, -1456.417316963353, -187500.02235174447, -16587.81070563921, -86.63536150877017, -10391.750680416904, -20638.70676025233, -33895.03465831693, 16710.119451298648, -13898.024129632013, -20721.81054613716, -17285.38629834489, 0.128, 1.008, 0.07200000000000001, 192.0, 2.0, 0.0, 15.5, 64.0, 1.0, 32.0, 0.0, 0.0, 0.0, 1.695682269377679E9, 0.0, 2023-09-25 17:51:09.377
24.0, -187500.02235174447, 31161.639828877433, -27138.57169611117, -28132.442013316395, 9519.898536193197, -1472.3094072710762, -187500.02235174447, -16641.499595820856, -99.57702154839296, -10411.82254693777, -20642.93123995438, -33910.18914105763, 16684.794924830785, -13925.628534034317, -20707.72894713032, -17287.80028674606, 0.128, 1.008, 0.07200000000000001, 192.0, 0.0, 0.0, 0.0, 0.0, 0.0, 0.0, 0.0, 0.0, 0.0, 1.695682269377683E9, 0.0, 2023-09-25 17:51:09.377
26.0, -187500.02235174447, 31183.589241932543, -27136.649446088013, -28140.37688259803, 9587.445507937135, -1452.1481337723892, -187500.02235174447, -16607.23437157087, -90.1669371327087, -10398.098575842212, -20638.974981185795, -33885.8480913458, 16702.07282329474, -13910.205830360155, -20735.355703277077, -17288.67200477982, 0.128, 1.008, 0.07200000000000001, 192.0, 0.0, 0.0, 0.0, 0.0, 0.0, 0.0, 0.0, 0.0, 0.0, 1.695682269377686E9, 0.0, 2023-09-25 17:51:09.377
28.0, -187500.02235174447, 31168.36770395848, -27131.329730907648, -28138.275818619233, 9529.241565375516, -1467.2579130241768, -187500.02235174447, -16650.64145930308, -92.46916681160532, -10398.635017709139, -20626.94974266884, -33898.45447521859, 16705.53734368531, -13915.503193796063, -20702.56569416114, -17277.339670340978, 0.128, 1.008, 0.07200000000000001, 192.0, 0.0, 0.0, 0.0, 0.0, 0.0, 0.0, 0.0, 0.0, 0.0, 1.695682269377689E9, 0.0, 2023-09-25 17:51:09.377
30.0, -187500.02235174447, 31170.468767937276, -27160.074074277174, -28170.01529574577, 9545.781856272442, -1467.123802557445, -187500.02235174447, -16607.05555761523, -96.91716395821142, -10410.414387037086, -20641.053693420137, -33897.42629497365, 16698.228323248426, -13902.002740145057, -20728.940752618404, -17290.348385613965, 0.128, 1.008, 0.07200000000000001, 192.0, 0.0, 0.0, 0.0, 0.0, 0.0, 0.0, 0.0, 0.0, 0.0, 1.695682269437937E9, 0.0, 2023-09-25 17:51:09.437
32.0, -187500.02235174447, 31179.521224441676, -27122.970178481362, -28130.028024915224, 9519.965591426562, -1469.381328747431, -187500.02235174447, -16624.936953179473, -98.57119304790415, -10417.58929700724, -20630.79424271515, -33917.49816149451, 16691.88042782312, -13919.347693842376, -20692.99914753427, -17290.504847825152, 0.124, 1.008, 0.07, 192.0, 1.5, 112.0, 15.5, 64.0, 1.0, 24.0, 0.0, 0.0, 0.0, 1.695682269437946E9, 0.0, 2023-09-25 17:51:09.437
34.0, -187500.02235174447, 31179.923555841873, -27142.550306624213, -28145.51778382275, 9545.98302197254, -1461.312348999065, -187500.02235174447, -16605.915618648007, -96.1795563911863, -10394.589351962728, -20631.12951888198, -33877.309724963874, 16705.000901818385, -13901.779222700505, -20729.49954622979, -17291.1306966699, 0.124, 1.008, 0.07, 192.0, 0.0, 0.0, 0.0, 0.0, 0.0, 0.0, 0.0, 0.0, 0.0, 1.69568226943795E9, 0.0, 2023-09-25 17:51:09.437
36.0, -187500.02235174447, 31168.54651791412, -27143.869059547076, -28153.9443914824, 9525.307658351381, -1491.576610991551, -187500.02235174447, -16593.53275221977, -99.62172503730358, -10409.162689347588, -20617.807879186617, -33910.256196291, 16690.852247578176, -13932.065836437445, -20688.23822596529, -17276.065620907026, 0.124, 1.008, 0.07, 192.0, 0.0, 0.0, 0.0, 0.0, 0.0, 0.0, 0.0, 0.0, 0.0, 1.695682269437953E9, 0.0, 2023-09-25 17:51:09.437
38.0, -187500.02235174447, 31169.55234641461, -27139.823393800663, -28156.38073162803, 9541.445617848112, -1478.9478753743024, -187500.02235174447, -16592.392813252547, -129.93069051869995, -10422.864308698692, -20658.063370950626, -33905.80819914439, 16681.084535251204, -13935.463301594651, -20741.837709169115, -17304.47468810972, 0.124, 1.008, 0.07, 192.0, 0.0, 0.0, 0.0, 0.0, 0.0, 0.0, 0.0, 0.0, 0.0, 1.695682269437956E9, 0.0, 2023-09-25 17:51:09.437
40.0, -187500.02235174447, 31185.3103262556, -27123.640730815023, -28128.552809781173, 9530.157986898183, -1465.737994401216, -187500.02235174447, -16587.5648364502, -106.70722802963591, -10398.813831664782, -20617.47260301979, -33894.431161216635, 16707.817221619753, -13912.955094928158, -20693.37912719001, -17281.83237097649, 0.124, 1.008, 0.07, 192.0, 0.0, 0.0, 0.0, 0.0, 0.0, 0.0, 0.0, 0.0, 0.0, 1.69568226943796E9, 0.0, 2023-09-25 17:51:09.437
42.0, -187500.02235174447, 31166.93719231334, -27154.106158507606, -28163.04155147571, 9550.810998774887, -1470.4989159701963, -187500.02235174447, -16601.132345334572, -130.0871527298871, -10402.837145666737, -20648.60858304603, -33891.27956524844, 16730.5489457308, -13922.476938066118, -20730.795947408194, -17294.304644382555, 0.122, 1.006, 0.066, 192.0, 1.5, 104.0, 15.5, 56.0, 1.0, 8.0, 0.0, 0.0, 0.0, 1.695682269437963E9, 0.0, 2023-09-25 17:51:09.437
44.0, -187500.02235174447, 31185.712657655797, -27136.69414957692, -28141.04743493169, 9542.74201902652, -1472.5329247156292, -187500.02235174447, -16572.499760687322, -124.52156836051564, -10412.91778241608, -20625.720396723795, -33915.88883589373, 16696.149611014083, -13928.109577668856, -20684.326670685612, -17290.66131003634, 0.122, 1.006, 0.066, 192.0, 0.0, 0.0, 0.0, 0.0, 0.0, 0.0, 0.0, 0.0, 0.0, 1.695682269497392E9, 0.0, 2023-09-25 17:51:09.497
46.0, -187500.02235174447, 31169.038256292137, -27145.768957825778, -28153.58676357112, 9539.165739913671, -1462.3405292440093, -187500.02235174447, -16610.274208816794, -143.31938544742889, -10405.765224190382, -20656.856376750038, -33893.26887050496, 16698.92122732654, -13917.89483045278, -20737.47911900033, -17308.43094687831, 0.122, 1.006, 0.066, 192.0, 0.0, 0.0, 0.0, 0.0, 0.0, 0.0, 0.0, 0.0, 0.0, 1.695682269497415E9, 0.0, 2023-09-25 17:51:09.497
48.0, -187500.02235174447, 31192.194663547834, -27130.41330938498, -28136.644141273995, 9542.02676320395, -1471.8400206375147, -187500.02235174447, -16559.871025070075, -126.55557710594859, -10401.451337510507, -20624.04401588965, -33903.21539678757, 16697.289549981302, -13918.453624064163, -20695.279025468713, -17290.10251642496, 0.122, 1.006, 0.066, 192.0, 0.0, 0.0, 0.0, 0.0, 0.0, 0.0, 0.0, 0.0, 0.0, 1.695682269497419E9, 0.0, 2023-09-25 17:51:09.497
50.0, -187500.02235174447, 31165.305514968102, -27147.020655515273, -28157.67713280644, 9543.36786787127, -1480.2889800416208, -187500.02235174447, -16612.24116232886, -149.19789423917464, -10413.767148705381, -20647.379237100988, -33893.402980971696, 16697.82599184823, -13922.029903177012, -20742.284744058223, -17312.387205646897, 0.122, 1.006, 0.066, 192.0, 0.0, 0.0, 0.0, 0.0, 0.0, 0.0, 0.0, 0.0, 0.0, 1.695682269497422E9, 0.0, 2023-09-25 17:51:09.497
52.0, -187500.02235174447, 31183.097503554527, -27155.46961491938, -28155.79958627219, 9540.84212074782, -1487.508593500685, -187500.02235174447, -16539.84386203812, -139.34077493438423, -10411.956657404502, -20623.999312400738, -33915.50885623799, 16694.808506346762, -13937.206737662165, -20703.75033661727, -17301.457202608253, 0.124, 1.012, 0.064, 192.0, 1.5, 112.0, 15.5, 80.0, 1.0, 0.0, 0.0, 0.0, 0.0, 1.695682269497425E9, 0.0, 2023-09-25 17:51:09.497
54.0, -187500.02235174447, 31160.03050327665, -27150.88750730604, -28153.542060082207, 9533.6001555443, -1481.473622497752, -187500.02235174447, -16604.887438403064, -171.92961835022192, -10418.885698185648, -20662.690182052873, -33912.67018469217, 16695.479058680423, -13937.810234762459, -20745.3469330486, -17320.76910981764, 0.124, 1.012, 0.064, 192.0, 0.0, 0.0, 0.0, 0.0, 0.0, 0.0, 0.0, 0.0, 0.0, 1.695682269497428E9, 0.0, 2023-09-25 17:51:09.497
56.0, -187500.02235174447, 31184.59507043303, -27156.833071331155, -28151.75392052578, 9556.153065699706, -1476.0645003395678, -187500.02235174447, -16529.56205958868, -144.0346412699987, -10407.285142813344, -20630.391911314957, -33917.34169928333, 16704.86679135165, -13930.031827692012, -20715.820278623138, -17302.060699708545, 0.124, 1.012, 0.064, 192.0, 0.0, 0.0, 0.0, 0.0, 0.0, 0.0, 0.0, 0.0, 0.0, 1.695682269497432E9, 0.0, 2023-09-25 17:51:09.497
58.0, -187500.02235174447, 31159.136433498436, -27157.414216686993, -28146.43420534542, 9536.751751512498, -1472.2423520377104, -187500.02235174447, -16599.52301973379, -179.97624635413246, -10426.150015133622, -20671.161493201434, -33920.22507431806, 16690.561674900255, -13939.352505129875, -20742.82118592515, -17319.785633061605, 0.124, 1.012, 0.064, 192.0, 0.0, 0.0, 0.0, 0.0, 0.0, 0.0, 0.0, 0.0, 0.0, 1.695682269497435E9, 0.0, 2023-09-25 17:51:09.497
60.0, -187500.02235174447, 31183.298669254622, -27152.921516051476, -28147.75295826828, 9551.034516219439, -1467.190857790811, -187500.02235174447, -16522.253039151794, -151.72364136262433, -10413.476576027462, -20643.4229783324, -33921.633234218745, 16702.49750643939, -13921.113481654345, -20721.654083925972, -17294.41640310483, 0.124, 1.012, 0.064, 192.0, 0.0, 0.0, 0.0, 0.0, 0.0, 0.0, 0.0, 0.0, 0.0, 1.695682269557004E9, 0.0, 2023-09-25 17:51:09.557
62.0, -187500.02235174447, 31182.046971565127, -27122.433736614435, -28114.69472821888, 9552.487379609034, -1451.3881744609089, -187500.02235174447, -16631.24014511587, -163.72652813512423, -10403.015959622378, -20657.593984317064, -33902.343678753816, 16705.894971596597, -13917.09016765239, -20739.20020332339, -17307.42511837782, 0.124, 1.008, 0.052000000000000005, 192.0, 1.5, 112.0, 15.5, 64.0, 0.5, 80.0, 0.0, 0.0, 0.0, 1.695682269557021E9, 0.0, 2023-09-25 17:51:09.557
64.0, -187500.02235174447, 31197.46967523929, -27150.060492761197, -28149.563449569163, 9556.443638377625, -1471.1918200483108, -187500.02235174447, -16546.884661541542, -140.74893483506858, -10391.884790883636, -20626.994446157747, -33903.77419039896, 16713.44986122249, -13918.632438019806, -20720.760014147763, -17291.5330280701, 0.124, 1.008, 0.052000000000000005, 192.0, 0.0, 0.0, 0.0, 0.0, 0.0, 0.0, 0.0, 0.0, 0.0, 1.695682269557026E9, 0.0, 2023-09-25 17:51:09.557
66.0, -187500.02235174447, 31172.07809353806, -27154.016751529784, -28147.395330356998, 9535.432998589635, -1475.48335498373, -187500.02235174447, -16622.947647922952, -162.85481010136726, -10405.988741634936, -20647.401588845445, -33908.848036390315, 16703.88331459562, -13931.060007936956, -20729.834822396617, -17311.604894590964, 0.124, 1.008, 0.052000000000000005, 192.0, 0.0, 0.0, 0.0, 0.0, 0.0, 0.0, 0.0, 0.0, 0.0, 1.69568226955703E9, 0.0, 2023-09-25 17:51:09.557
68.0, -187500.02235174447, 31182.44930296532, -27177.19551052994, -28176.452598148895, 9536.930565468141, -1491.6660179693722, -187500.02235174447, -16530.858460767085, -173.02485382853197, -10423.49015754344, -20652.900117981448, -33933.70317622461, 16680.726907339922, -13939.084284196411, -20732.695845686896, -17310.822583535028, 0.124, 1.008, 0.052000000000000005, 192.0, 0.0, 0.0, 0.0, 0.0, 0.0, 0.0, 0.0, 0.0, 0.0, 1.695682269557035E9, 0.0, 2023-09-25 17:51:09.557
70.0, -187500.02235174447, 31176.637849406943, -27145.456033403403, -28147.350626868087, 9514.869393690753, -1470.8118403925707, -187500.02235174447, -16606.966150637407, -177.94223760869951, -10420.986762164446, -20661.572594830108, -33923.42137377517, 16695.121430769137, -13938.436083607208, -20732.427624753433, -17319.360949916954, 0.124, 1.008, 0.052000000000000005, 192.0, 0.0, 0.0, 0.0, 0.0, 0.0, 0.0, 0.0, 0.0, 0.0, 1.69568226955704E9, 0.0, 2023-09-25 17:51:09.557
72.0, -187500.02235174447, 31181.84580586503, -27181.71056290991, -28183.091066252124, 9549.894577252218, -1488.1120906009783, -187500.02235174447, -16531.260792167282, -163.346548479384, -10411.219049837477, -20650.866109236016, -33918.10165859481, 16686.001919031372, -13931.439987592697, -20747.090369116115, -17305.86049626595, 0.126, 1.006, 0.052000000000000005, 192.0, 1.5, 120.0, 15.5, 56.0, 0.5, 80.0, 0.0, 0.0, 0.0, 1.695682269557045E9, 0.0, 2023-09-25 17:51:09.557
74.0, -187500.02235174447, 31178.247175007724, -27155.201393985917, -28158.928830495934, 9527.609888030278, -1494.4376342818302, -187500.02235174447, -16583.340356748147, -180.57974345442577, -10427.848747712225, -20659.13625468448, -33924.96364414259, 16696.328424969724, -13960.609014106873, -20731.2429822973, -17319.539763872595, 0.126, 1.006, 0.052000000000000005, 192.0, 0.0, 0.0, 0.0, 0.0, 0.0, 0.0, 0.0, 0.0, 0.0, 1.69568226961732E9, 0.0, 2023-09-25 17:51:09.617
76.0, -187500.02235174447, 31176.347276729022, -27183.208129788418, -28199.743115871326, 9542.853777748798, -1496.3375325605314, -187500.02235174447, -16516.665103037965, -176.39996724128335, -10422.886660443148, -20662.913699497425, -33908.26689103447, 16688.237093476902, -13949.1425692013, -20753.661781985975, -17322.2890284406, 0.126, 1.006, 0.052000000000000005, 192.0, 0.0, 0.0, 0.0, 0.0, 0.0, 0.0, 0.0, 0.0, 0.0, 1.695682269617333E9, 0.0, 2023-09-25 17:51:09.617
78.0, -187500.02235174447, 31174.849709850518, -27162.130434767063, -28170.730551568337, 9507.940352909607, -1495.0858348710342, -187500.02235174447, -16545.27533594076, -198.7293599521351, -10439.605765295717, -20663.56190008663, -33930.84215293433, 16669.931014768008, -13969.929691544736, -20722.548153704185, -17320.970275517735, 0.126, 1.006, 0.052000000000000005, 192.0, 0.0, 0.0, 0.0, 0.0, 0.0, 0.0, 0.0, 0.0, 0.0, 1.695682269617336E9, 0.0, 2023-09-25 17:51:09.617
80.0, -187500.02235174447, 31195.480369982764, -27149.09936774962, -28165.880223021537, 9557.516522111478, -1469.6271979364394, -187500.02235174447, -16532.445434623412, -180.87031613234475, -10414.482404527951, -20664.65713556494, -33897.716867651565, 16693.15447725707, -13946.57211858894, -20768.212767626377, -17324.099519741478, 0.126, 1.006, 0.052000000000000005, 192.0, 0.0, 0.0, 0.0, 0.0, 0.0, 0.0, 0.0, 0.0, 0.0, 1.69568226961734E9, 0.0, 2023-09-25 17:51:09.617
82.0, -187500.02235174447, 31206.097448599037, -27122.389033125524, -28132.017330171744, 9543.7031440381, -1462.966378088758, -187500.02235174447, -16570.488103686344, -147.23094072710762, -10385.425136736052, -20623.351111811535, -33874.35929469577, 16708.39836697559, -13928.556612557963, -20726.750281661785, -17292.672967037317, 0.13, 1.006, 0.044, 192.0, 2.0, 8.0, 15.5, 56.0, 0.5, 48.0, 0.0, 0.0, 0.0, 1.695682269617343E9, 0.0, 2023-09-25 17:51:09.617
84.0, -187500.02235174447, 31190.831207136063, -27159.962315554898, -28173.658630091984, 9559.572882601367, -1476.153907317389, -187500.02235174447, -16549.812740065187, -159.77026936653488, -10385.983930347435, -20642.104225409537, -33864.94921028009, 16706.431413463524, -13925.673237523228, -20759.316773333165, -17297.120964183923, 0.13, 1.006, 0.044, 192.0, 0.0, 0.0, 0.0, 0.0, 0.0, 0.0, 0.0, 0.0, 0.0, 1.695682269617346E9, 0.0, 2023-09-25 17:51:09.617
86.0, -187500.02235174447, 31200.487160740755, -27137.968199010873, -28143.52847856623, 9542.853777748798, -1479.5513724745956, -187500.02235174447, -16542.973106261863, -164.95587408016613, -10405.698168957017, -20629.117861881, -33893.55944318288, 16680.481038150912, -13953.881139025825, -20716.379072234522, -17292.80707750405, 0.13, 1.006, 0.044, 192.0, 0.0, 0.0, 0.0, 0.0, 0.0, 0.0, 0.0, 0.0, 0.0, 1.695682269617349E9, 0.0, 2023-09-25 17:51:09.617
88.0, -187500.02235174447, 31191.837035636552, -27149.054664260708, -28167.936583511426, 9555.303699410404, -1466.833229879526, -187500.02235174447, -16556.875891313066, -157.89272283228908, -10389.761375160382, -20645.389931844467, -33861.372931167236, 16699.032986048816, -13924.622705533828, -20768.458636815387, -17300.31726364103, 0.13, 1.006, 0.044, 192.0, 0.0, 0.0, 0.0, 0.0, 0.0, 0.0, 0.0, 0.0, 0.0, 1.695682269617352E9, 0.0, 2023-09-25 17:51:09.617
90.0, -187500.02235174447, 31205.762172432205, -27138.862268789086, -28149.831670502626, 9532.348457854803, -1474.9692648612577, -187500.02235174447, -16521.69424554041, -157.17746700971927, -10406.525183501863, -20621.473565277287, -33889.67023964766, 16686.15838124256, -13948.0920372119, -20712.065185554646, -17282.52527505461, 0.13, 1.006, 0.044, 192.0, 0.0, 0.0, 0.0, 0.0, 0.0, 0.0, 0.0, 0.0, 0.0, 1.695682269677553E9, 0.0, 2023-09-25 17:51:09.677
92.0, -187500.02235174447, 31197.112047328003, -27141.812699057187, -28168.76359805627, 9550.006335974496, -1472.9352561158248, -187500.02235174447, -16551.265603454784, -167.61573167034766, -10399.685549698539, -20650.061446435626, -33863.9433817796, 16690.762840600353, -13936.692647539694, -20758.62386925505, -17294.17053391582, 0.128, 1.008, 0.044, 192.0, 2.0, 0.0, 15.5, 64.0, 0.5, 48.0, 0.0, 0.0, 0.0, 1.695682269677564E9, 0.0, 2023-09-25 17:51:09.677
94.0, -187500.02235174447, 31215.865160926005, -27134.32486466466, -28152.245658903797, 9543.971364971563, -1473.7399189162159, -187500.02235174447, -16513.245286136305, -149.80139133946793, -10398.925590387058, -20618.813707687106, -33879.0978645203, 16695.277892980324, -13953.098827969889, -20705.270255240233, -17278.12198139691, 0.128, 1.008, 0.044, 192.0, 0.0, 0.0, 0.0, 0.0, 0.0, 0.0, 0.0, 0.0, 0.0, 1.695682269677568E9, 0.0, 2023-09-25 17:51:09.677
96.0, -187500.02235174447, 31205.002213120726, -27123.573675581658, -28145.89776347849, 9557.360059900291, -1459.7924303761042, -187500.02235174447, -16571.7621531203, -152.39419369628357, -10388.107346070688, -20639.60083003054, -33851.873439773735, 16708.420718720045, -13929.830661991915, -20752.141863363013, -17293.678795537806, 0.128, 1.008, 0.044, 192.0, 0.0, 0.0, 0.0, 0.0, 0.0, 0.0, 0.0, 0.0, 0.0, 1.695682269677572E9, 0.0, 2023-09-25 17:51:09.677
98.0, -187500.02235174447, 31214.859332425516, -27148.495870649323, -28157.319504895153, 9566.859551293797, -1473.5611049605734, -187500.02235174447, -16506.6962250109, -135.831551054901, -10383.793459390816, -20603.27924529067, -33866.0444457584, 16694.920265069042, -13936.17855741722, -20702.632749394506, -17272.958728427737, 0.128, 1.008, 0.044, 192.0, 0.0, 0.0, 0.0, 0.0, 0.0, 0.0, 0.0, 0.0, 0.0, 1.695682269677575E9, 0.0, 2023-09-25 17:51:09.677
100.0, -187500.02235174447, 31189.3112885131, -27143.04204500223, -28165.634353832527, 9541.445617848112, -1469.5824944475287, -187500.02235174447, -16567.492969929335, -162.89951359027788, -10399.350273531709, -20648.89915572395, -33865.150375980185, 16687.41007893206, -13940.067760952445, -20742.77648243624, -17292.628263548406, 0.128, 1.008, 0.044, 192.0, 0.0, 0.0, 0.0, 0.0, 0.0, 0.0, 0.0, 0.0, 0.0, 1.695682269677579E9, 0.0, 2023-09-25 17:51:09.677
102.0, -187500.02235174447, 31214.434649280865, -27125.27240816026, -28144.13197566652, 9559.505827368, -1458.9207123423473, -187500.02235174447, -16510.920704712953, -142.22414996911883, -10397.96446537548, -20622.457042033322, -33881.08716977682, 16689.041756277296, -13948.76258954556, -20707.05839479666, -17279.03840291958, 0.134, 1.008, 0.046, 192.0, 2.0, 24.0, 15.5, 64.0, 0.5, 56.0, 0.0, 0.0, 0.0, 1.695682269677583E9, 0.0, 2023-09-25 17:51:09.677
104.0, -187500.02235174447, 31184.952698344317, -27137.163536210483, -28156.067807205654, 9549.98398423004, -1459.2783402536322, -187500.02235174447, -16585.754345149322, -151.09779251787575, -10392.980026361945, -20642.305391109632, -33855.0920909753, 16705.000901818385, -13930.009475947558, -20737.277953300232, -17282.882902965892, 0.134, 1.008, 0.046, 192.0, 0.0, 0.0, 0.0, 0.0, 0.0, 0.0, 0.0, 0.0, 0.0, 1.695682269738057E9, 0.0, 2023-09-25 17:51:09.738
106.0, -187500.02235174447, 31205.851579410028, -27145.724254336867, -28161.029894474734, 9557.762391300486, -1475.930389872836, -187500.02235174447, -16488.680718979922, -152.90828381875562, -10408.268619569377, -20626.189783357357, -33886.02690530144, 16687.074802765226, -13953.165883203255, -20701.939845316392, -17275.50682729564, 0.134, 1.008, 0.046, 192.0, 0.0, 0.0, 0.0, 0.0, 0.0, 0.0, 0.0, 0.0, 0.0, 1.69568226973807E9, 0.0, 2023-09-25 17:51:09.738
108.0, -187500.02235174447, 31195.569776960587, -27114.856495244087, -28126.384690569008, 9559.863455279286, -1454.830343107026, -187500.02235174447, -16591.208170796417, -163.16773452374156, -10400.691378199028, -20648.250955134747, -33864.099843990785, 16686.694823109487, -13945.543938343995, -20729.991284607804, -17289.94605421377, 0.134, 1.008, 0.046, 192.0, 0.0, 0.0, 0.0, 0.0, 0.0, 0.0, 0.0, 0.0, 0.0, 1.695682269738074E9, 0.0, 2023-09-25 17:51:09.738
110.0, -187500.02235174447, 31204.51047474271, -27142.684417090943, -28158.72766479584, 9576.828429320864, -1461.4911629547075, -187500.02235174447, -16501.510620297267, -132.8587690423452, -10383.793459390816, -20615.349187296535, -33859.38362591072, 16707.34783498619, -13934.85980449436, -20711.796964621182, -17266.096742879956, 0.134, 1.008, 0.046, 192.0, 0.0, 0.0, 0.0, 0.0, 0.0, 0.0, 0.0, 0.0, 0.0, 1.695682269738077E9, 0.0, 2023-09-25 17:51:09.738
112.0, -187500.02235174447, 31187.344335001035, -27137.901143777508, -28148.401158857487, 9558.567054100879, -1468.3531485024869, -187500.02235174447, -16584.301481759725, -160.7760978670237, -10401.093709599223, -20651.715475525318, -33877.376780197235, 16683.54322714129, -13947.197967433689, -20725.610342694563, -17290.66131003634, 0.13, 1.01, 0.042, 192.0, 2.0, 8.0, 15.5, 72.0, 0.5, 40.0, 0.0, 0.0, 0.0, 1.695682269738081E9, 0.0, 2023-09-25 17:51:09.738
114.0, -187500.02235174447, 31205.98568987676, -27148.65233286051, -28168.80830154518, 9566.054888493407, -1466.028567079135, -187500.02235174447, -16483.271596821738, -145.66631861523612, -10395.170497318566, -20642.148928898445, -33879.43314068713, 16677.77647707182, -13950.327211657432, -20722.794022893195, -17284.3804698444, 0.13, 1.01, 0.042, 192.0, 0.0, 0.0, 0.0, 0.0, 0.0, 0.0, 0.0, 0.0, 0.0, 1.695682269738084E9, 0.0, 2023-09-25 17:51:09.738
116.0, -187500.02235174447, 31211.50657075722, -27108.5980067966, -28122.406080055964, 9545.826559761354, -1454.9868053182133, -187500.02235174447, -16573.594996165633, -166.49814444758232, -10387.503848970397, -20648.250955134747, -33863.02696025693, 16685.711346353455, -13941.43121736422, -20717.16138329046, -17290.370737358422, 0.13, 1.01, 0.042, 192.0, 0.0, 0.0, 0.0, 0.0, 0.0, 0.0, 0.0, 0.0, 0.0, 1.695682269738087E9, 0.0, 2023-09-25 17:51:09.738
118.0, -187500.02235174447, 31222.905960429427, -27140.09161473413, -28158.995885729302, 9569.161780972694, -1464.0169100781573, -187500.02235174447, -16495.587408016614, -142.6935366026803, -10368.124886527645, -20623.820498445093, -33849.146526950186, 16700.441145949502, -13928.869536980337, -20723.643389182496, -17277.071449407515, 0.13, 1.01, 0.042, 192.0, 0.0, 0.0, 0.0, 0.0, 0.0, 0.0, 0.0, 0.0, 0.0, 1.69568226973809E9, 0.0, 2023-09-25 17:51:09.738
120.0, -187500.02235174447, 31214.434649280865, -27119.952692979896, -28133.783117983716, 9569.944092028629, -1464.218075778255, -187500.02235174447, -16564.94487106143, -151.36601345133943, -10375.903293598092, -20624.22282984529, -33850.91231476216, 16696.88721858111, -13941.274755153032, -20707.974816319325, -17286.36977510092, 0.13, 1.01, 0.042, 192.0, 0.0, 0.0, 0.0, 0.0, 0.0, 0.0, 0.0, 0.0, 0.0, 1.69568226979741E9, 0.0, 2023-09-25 17:51:09.797
122.0, -187500.02235174447, 31223.04007089616, -27138.057605988695, -28163.890917765013, 9599.247229009537, -1468.7107764137718, -187500.02235174447, -16498.403727817982, -149.15319075026403, -10381.446526223008, -20628.55906826962, -33864.36806492425, 16692.97566330143, -13947.645002322794, -20718.502487957776, -17286.772106501117, 0.13, 1.016, 0.04, 192.0, 2.0, 8.0, 15.5, 96.0, 0.5, 32.0, 0.0, 0.0, 0.0, 1.695682269797438E9, 0.0, 2023-09-25 17:51:09.797
124.0, -187500.02235174447, 31215.19460859235, -27118.61158831258, -28145.629542545026, 9540.395085858714, -1461.8264391215373, -187500.02235174447, -16549.499815642812, -143.0064610250546, -10374.897465097603, -20621.78648969966, -33860.23299220002, 16700.01646280485, -13945.029848221524, -20698.564731903643, -17284.916911711327, 0.13, 1.016, 0.04, 192.0, 0.0, 0.0, 0.0, 0.0, 0.0, 0.0, 0.0, 0.0, 0.0, 1.695682269797441E9, 0.0, 2023-09-25 17:51:09.797
126.0, -187500.02235174447, 31223.867085441005, -27140.47159438987, -28166.975458499845, 9576.89548455423, -1464.0392618226126, -187500.02235174447, -16495.922684183442, -157.44568794318295, -10385.000453591401, -20641.210155631325, -33865.88798354721, 16683.49852365238, -13949.299031412487, -20726.750281661785, -17297.05390895056, 0.13, 1.016, 0.04, 192.0, 0.0, 0.0, 0.0, 0.0, 0.0, 0.0, 0.0, 0.0, 0.0, 1.695682269797445E9, 0.0, 2023-09-25 17:51:09.797
128.0, -187500.02235174447, 31228.873876198995, -27119.863286002077, -28135.61596102905, 9557.89650176722, -1464.3298345005317, -187500.02235174447, -16530.724350300356, -146.13570524879756, -10371.902331340592, -20621.22769608828, -33858.578963110325, 16689.131163255115, -13943.800502276481, -20702.878618583516, -17282.547626799063, 0.13, 1.016, 0.04, 192.0, 0.0, 0.0, 0.0, 0.0, 0.0, 0.0, 0.0, 0.0, 0.0, 1.695682269797448E9, 0.0, 2023-09-25 17:51:09.797
130.0, -187500.02235174447, 31230.684367499874, -27127.552286094702, -28152.983266470823, 9572.5592461299, -1459.5242094426405, -187500.02235174447, -16507.344425600102, -154.1599815082528, -10376.48443895393, -20637.477414307286, -33852.87926827422, 16685.59958763118, -13942.302935397976, -20731.041816597204, -17292.404746103854, 0.13, 1.016, 0.04, 192.0, 0.0, 0.0, 0.0, 0.0, 0.0, 0.0, 0.0, 0.0, 0.0, 1.695682269797451E9, 0.0, 2023-09-25 17:51:09.797
132.0, -187500.02235174447, 31232.874838456493, -27113.448335343404, -28135.772423240236, 9558.455295378602, -1462.2064187772773, -187500.02235174447, -16526.566925831667, -132.38938240878375, -10369.622453406151, -20611.236466316757, -33858.869535788246, 16694.49558192439, -13945.409827877264, -20691.211007977847, -17279.37367908641, 0.138, 1.018, 0.036000000000000004, 192.0, 2.0, 40.0, 15.5, 104.0, 0.5, 16.0, 0.0, 0.0, 0.0, 1.695682269797455E9, 0.0, 2023-09-25 17:51:09.797
134.0, -187500.02235174447, 31231.55608553363, -27124.154820937496, -28146.590667556608, 9581.656406123211, -1459.4571542092747, -187500.02235174447, -16526.477518853848, -145.39809768177244, -10370.270653995354, -20636.35982708452, -33855.22620144203, 16695.03202379132, -13933.272830638032, -20739.78134867923, -17291.93535947029, 0.138, 1.018, 0.036000000000000004, 192.0, 0.0, 0.0, 0.0, 0.0, 0.0, 0.0, 0.0, 0.0, 0.0, 1.695682269857097E9, 0.0, 2023-09-25 17:51:09.857
136.0, -187500.02235174447, 31245.481222329287, -27106.4969428178, -28122.9872254118, 9569.541760628434, -1457.1325727859228, -187500.02235174447, -16524.532917086235, -121.50408285904919, -10356.770200344348, -20602.720451679284, -33855.31560841985, 16692.01453828985, -13937.698476040183, -20692.797981834174, -17276.55735928504, 0.138, 1.018, 0.036000000000000004, 192.0, 0.0, 0.0, 0.0, 0.0, 0.0, 0.0, 0.0, 0.0, 0.0, 1.695682269857112E9, 0.0, 2023-09-25 17:51:09.857
138.0, -187500.02235174447, 31231.936065189373, -27122.880771503544, -28143.304961121677, 9580.427060178168, -1449.935311071314, -187500.02235174447, -16545.32003942967, -132.8587690423452, -10352.121037497645, -20629.542545025655, -33842.284541402405, 16695.81433484725, -13928.020170691034, -20741.278915557734, -17285.721574511717, 0.138, 1.018, 0.036000000000000004, 192.0, 0.0, 0.0, 0.0, 0.0, 0.0, 0.0, 0.0, 0.0, 0.0, 1.695682269857116E9, 0.0, 2023-09-25 17:51:09.857
140.0, -187500.02235174447, 31245.302408373645, -27109.045041685706, -28121.981396911313, 9558.723516312066, -1466.7438229017048, -187500.02235174447, -16517.536821071724, -121.14645494776428, -10360.659403879572, -20601.491105734243, -33868.07845450383, 16704.73268088492, -13941.610031319862, -20686.695955597872, -17266.40966730233, 0.138, 1.018, 0.036000000000000004, 192.0, 0.0, 0.0, 0.0, 0.0, 0.0, 0.0, 0.0, 0.0, 0.0, 1.695682269857119E9, 0.0, 2023-09-25 17:51:09.857
142.0, -187500.02235174447, 31228.002158165236, -27126.099422705105, -28145.31661812265, 9566.054888493407, -1461.804087377082, -187500.02235174447, -16557.188815735437, -136.52445513301555, -10359.47476142344, -20632.60473401603, -33851.53816360691, 16692.97566330143, -13931.395284103786, -20734.171060820947, -17287.152086156857, 0.132, 1.018, 0.034, 192.0, 2.0, 16.0, 15.5, 104.0, 0.5, 8.0, 0.0, 0.0, 0.0, 1.695682269857123E9, 0.0, 2023-09-25 17:51:09.857
144.0, -187500.02235174447, 31246.218829896312, -27125.093594204616, -28139.035777930712, 9554.186112187637, -1469.3366252585204, -187500.02235174447, -16497.174381872937, -126.82379803941227, -10363.565130658762, -20612.13053609497, -33876.84033833031, 16682.24682596288, -13952.897662269792, -20690.205179477358, -17276.155027884844, 0.132, 1.018, 0.034, 192.0, 0.0, 0.0, 0.0, 0.0, 0.0, 0.0, 0.0, 0.0, 0.0, 1.695682269857126E9, 0.0, 2023-09-25 17:51:09.857
146.0, -187500.02235174447, 31218.569722005097, -27144.785481069743, -28160.180528185432, 9562.769182058475, -1478.3443782740092, -187500.02235174447, -16531.193736933918, -146.15805699325287, -10369.197770261499, -20645.680504522385, -33860.76943406695, 16682.15741898506, -13941.565327830951, -20740.898935901994, -17298.819696762526, 0.132, 1.018, 0.034, 192.0, 0.0, 0.0, 0.0, 0.0, 0.0, 0.0, 0.0, 0.0, 0.0, 1.695682269857129E9, 0.0, 2023-09-25 17:51:09.857
148.0, -187500.02235174447, 31240.94381820486, -27132.492021619324, -28143.215554143855, 9563.059754736394, -1480.1995730637996, -187500.02235174447, -16461.076314577618, -131.45060914166083, -10380.105421555689, -20621.875896677484, -33885.11048377877, 16659.649212318567, -13959.290261184009, -20706.67841514092, -17292.494153081676, 0.132, 1.018, 0.034, 192.0, 0.0, 0.0, 0.0, 0.0, 0.0, 0.0, 0.0, 0.0, 0.0, 1.695682269857132E9, 0.0, 2023-09-25 17:51:09.857
150.0, -187500.02235174447, 31225.096431386046, -27123.08193720364, -28140.84626923159, 9556.13071395525, -1467.8390583800149, -187500.02235174447, -16536.468748625368, -135.96566152163285, -10366.157933015578, -20642.305391109632, -33854.42153864164, 16689.354680699667, -13946.594470333395, -20753.30415407469, -17302.105403197456, 0.132, 1.018, 0.034, 192.0, 0.0, 0.0, 0.0, 0.0, 0.0, 0.0, 0.0, 0.0, 0.0, 1.695682269917279E9, 0.0, 2023-09-25 17:51:09.917
152.0, -187500.02235174447, 31247.716396774817, -27134.101347220105, -28146.43420534542, 9568.13360072775, -1479.2607997966768, -187500.02235174447, -16452.336782495593, -115.29029790047383, -10366.962595815969, -20613.896323906938, -33871.922954550144, 16682.895026552087, -13950.371915146341, -20721.25175252578, -17286.146257656368, 0.128, 1.014, 0.042, 192.0, 2.0, 0.0, 15.5, 88.0, 0.5, 40.0, 0.0, 0.0, 0.0, 1.695682269917288E9, 0.0, 2023-09-25 17:51:09.917
154.0, -187500.02235174447, 31230.12557388849, -27113.291873132217, -28129.96096968186, 9557.717687811577, -1462.318177499554, -187500.02235174447, -16539.17330970446, -125.81796953892345, -10364.727421370439, -20635.041074161658, -33855.40501539767, 16690.852247578176, -13941.922955742235, -20748.744398205807, -17305.681682310307, 0.128, 1.014, 0.042, 192.0, 0.0, 0.0, 0.0, 0.0, 0.0, 0.0, 0.0, 0.0, 0.0, 1.695682269917292E9, 0.0, 2023-09-25 17:51:09.917
156.0, -187500.02235174447, 31246.3752921075, -27133.251980930803, -28153.251487404286, 9560.601062846312, -1474.991616605713, -187500.02235174447, -16445.20657601435, -108.69653328615824, -10364.325089970242, -20611.147059338935, -33869.50896614897, 16691.634558634112, -13951.936537258212, -20712.80279312167, -17287.55441755705, 0.128, 1.014, 0.042, 192.0, 0.0, 0.0, 0.0, 0.0, 0.0, 0.0, 0.0, 0.0, 0.0, 1.695682269917295E9, 0.0, 2023-09-25 17:51:09.917
158.0, -187500.02235174447, 31221.542504017652, -27121.49496334731, -28142.209725643366, 9541.825597503854, -1476.0197968506573, -187500.02235174447, -16516.195716404407, -123.85101602685643, -10371.05296505129, -20631.733015982274, -33863.69751259059, 16684.616110875144, -13951.891833769303, -20727.845517140093, -17300.1831531743, 0.128, 1.014, 0.042, 192.0, 0.0, 0.0, 0.0, 0.0, 0.0, 0.0, 0.0, 0.0, 0.0, 1.695682269917299E9, 0.0, 2023-09-25 17:51:09.917
160.0, -187500.02235174447, 31246.352940363045, -27121.98670172533, -28140.265123875753, 9568.51358038349, -1474.5222299721515, -187500.02235174447, -16433.449558430857, -104.13677741727561, -10364.034517292324, -20617.092623364046, -33870.045408015896, 16685.934863798007, -13949.008458734568, -20715.015615822747, -17285.788629745082, 0.128, 1.014, 0.042, 192.0, 0.0, 0.0, 0.0, 0.0, 0.0, 0.0, 0.0, 0.0, 0.0, 1.695682269917309E9, 0.0, 2023-09-25 17:51:09.917
162.0, -187500.02235174447, 31232.159582633925, -27107.36866085156, -28118.740393965294, 9559.617586090277, -1453.4668866952525, -187500.02235174447, -16517.492117582813, -103.35446636133986, -10353.037459020312, -20619.618370487497, -33845.05615771486, 16692.506276667867, -13938.816063262948, -20723.755147904772, -17278.077277908003, 0.126, 1.012, 0.048, 192.0, 1.5, 120.0, 15.5, 80.0, 0.5, 64.0, 0.0, 0.0, 0.0, 1.695682269917313E9, 0.0, 2023-09-25 17:51:09.917
164.0, -187500.02235174447, 31240.340321104566, -27137.655274588502, -28149.04935944669, 9575.263807208992, -1468.7107764137718, -187500.02235174447, -16422.810128070134, -105.12025417330912, -10369.689508639516, -20615.885629163462, -33863.2951811904, 16680.6375003621, -13947.019153478046, -20710.992301820792, -17269.65067024835, 0.126, 1.012, 0.048, 192.0, 0.0, 0.0, 0.0, 0.0, 0.0, 0.0, 0.0, 0.0, 0.0, 1.695682269977438E9, 0.0, 2023-09-25 17:51:09.977
166.0, -187500.02235174447, 31236.60757978053, -27103.680623016433, -28107.296300804177, 9558.120019211772, -1450.7846773606154, -187500.02235174447, -16509.78076574573, -115.33500138938444, -10368.884845839126, -20629.520193281198, -33855.96380900905, 16678.089401494195, -13950.215452935154, -20712.936903588405, -17277.920815696816, 0.126, 1.012, 0.048, 192.0, 0.0, 0.0, 0.0, 0.0, 0.0, 0.0, 0.0, 0.0, 0.0, 1.695682269977455E9, 0.0, 2023-09-25 17:51:09.977
168.0, -187500.02235174447, 31243.067233928115, -27135.84478328762, -28146.545964067696, 9590.127717271771, -1464.0169100781573, -187500.02235174447, -16439.48452943379, -97.54301280296002, -10355.607909632672, -20621.115937366, -33846.352558893275, 16686.35954694266, -13930.747083514581, -20724.068072327147, -17274.948033684257, 0.126, 1.012, 0.048, 192.0, 0.0, 0.0, 0.0, 0.0, 0.0, 0.0, 0.0, 0.0, 0.0, 1.69568226997746E9, 0.0, 2023-09-25 17:51:09.977
170.0, -187500.02235174447, 31236.965207691817, -27109.290910874715, -28112.124277606523, 9559.125847712261, -1449.0188895486463, -187500.02235174447, -16495.475649294334, -103.77914950599069, -10371.142372029111, -20622.1664693554, -33858.713073577055, 16686.40425043157, -13944.940441243702, -20697.782420847707, -17277.74200174117, 0.126, 1.012, 0.048, 192.0, 0.0, 0.0, 0.0, 0.0, 0.0, 0.0, 0.0, 0.0, 0.0, 1.695682269977464E9, 0.0, 2023-09-25 17:51:09.977
172.0, -187500.02235174447, 31238.41807108141, -27126.010015727286, -28146.255391389775, 9573.073336252373, -1453.5786454175288, -187500.02235174447, -16432.711950863835, -94.45847206812765, -10366.0461742933, -20623.641684489452, -33849.66061707266, 16699.904704082575, -13939.687781296705, -20712.065185554646, -17268.398972558854, 0.128, 1.004, 0.056, 192.0, 2.0, 0.0, 15.5, 48.0, 0.5, 96.0, 0.0, 0.0, 0.0, 1.695682269977469E9, 0.0, 2023-09-25 17:51:09.977
174.0, -187500.02235174447, 31244.721263017807, -27085.061619885164, -28100.65783270095, 9574.392089175235, -1442.1345522564118, -187500.02235174447, -16498.001396417785, -89.11640514330927, -10365.777953359837, -20613.069309362094, -33848.095994960786, 16691.29928246728, -13941.94530748669, -20685.220740463825, -17271.1258853824, 0.128, 1.004, 0.056, 192.0, 0.0, 0.0, 0.0, 0.0, 0.0, 0.0, 0.0, 0.0, 0.0, 1.695682269977473E9, 0.0, 2023-09-25 17:51:09.977
176.0, -187500.02235174447, 31235.244123368757, -27122.389033125524, -28146.836536745614, 9584.159801502205, -1454.025680306635, -187500.02235174447, -16450.235718516793, -84.57900101888193, -10362.112267269167, -20614.231600073766, -33842.8880385027, 16691.835724334207, -13938.860766751859, -20710.634673909506, -17271.863492949426, 0.128, 1.004, 0.056, 192.0, 0.0, 0.0, 0.0, 0.0, 0.0, 0.0, 0.0, 0.0, 0.0, 1.695682269977477E9, 0.0, 2023-09-25 17:51:09.977
178.0, -187500.02235174447, 31239.312140859623, -27098.204445624884, -28118.695690476383, 9564.780839059453, -1448.7059651262718, -187500.02235174447, -16476.07433510713, -77.8734776822898, -10372.706994140983, -20600.664091189396, -33853.952152008074, 16679.3858026726, -13942.973487731635, -20673.664888580428, -17267.996641158657, 0.128, 1.004, 0.056, 192.0, 0.0, 0.0, 0.0, 0.0, 0.0, 0.0, 0.0, 0.0, 0.0, 1.695682269977482E9, 0.0, 2023-09-25 17:51:09.977
180.0, -187500.02235174447, 31229.94675993285, -27128.446355872915, -28153.117376937556, 9583.735118357554, -1461.1335350434226, -187500.02235174447, -16459.82461688812, -85.13779463026461, -10369.711860383972, -20623.015835644703, -33842.30689314686, 16685.77840158682, -13941.788845275503, -20721.184697292414, -17281.09476340947, 0.128, 1.004, 0.056, 192.0, 0.0, 0.0, 0.0, 0.0, 0.0, 0.0, 0.0, 0.0, 0.0, 1.695682270038054E9, 0.0, 2023-09-25 17:51:10.038
182.0, -187500.02235174447, 31225.90109418644, -27109.380317852538, -28131.771460982738, 9554.901368010207, -1464.5980554339953, -187500.02235174447, -16461.858625633555, -85.04838765244337, -10378.652558166094, -20608.107222093015, -33868.10080624829, 16690.896951067087, -13957.546825116495, -20677.978775260304, -17273.673984250305, 0.124, 1.008, 0.06, 192.0, 1.5, 112.0, 15.5, 64.0, 0.5, 112.0, 0.0, 0.0, 0.0, 1.695682270038066E9, 0.0, 2023-09-25 17:51:10.038
184.0, -187500.02235174447, 31218.994405149748, -27108.955634707887, -28136.308865107163, 9593.525182428979, -1449.5329796711183, -187500.02235174447, -16482.578692743624, -91.7986144779461, -10379.300758755298, -20628.69317873635, -33846.486669360005, 16692.282759223315, -13949.56725234595, -20723.33046476012, -17285.90038846736, 0.124, 1.008, 0.06, 192.0, 0.0, 0.0, 0.0, 0.0, 0.0, 0.0, 0.0, 0.0, 0.0, 1.69568227003807E9, 0.0, 2023-09-25 17:51:10.038
186.0, -187500.02235174447, 31227.912751187418, -27098.94205319191, -28117.66751023144, 9583.288083468447, -1450.7176221272496, -187500.02235174447, -16471.15695132696, -72.28554156846305, -10376.707956398483, -20597.17721905437, -33862.80344281238, 16699.77059361584, -13954.596394848395, -20670.178016445403, -17265.2250248462, 0.124, 1.008, 0.06, 192.0, 0.0, 0.0, 0.0, 0.0, 0.0, 0.0, 0.0, 0.0, 0.0, 1.695682270038073E9, 0.0, 2023-09-25 17:51:10.038
188.0, -187500.02235174447, 31208.04205036665, -27107.212198640373, -28133.47019356134, 9594.128679529273, -1438.37945918792, -187500.02235174447, -16499.029576662728, -88.53525978747128, -10373.310491241276, -20628.044978147147, -33846.46431761555, 16698.898875582086, -13936.04444695049, -20712.154592532468, -17272.869321449914, 0.124, 1.008, 0.06, 192.0, 0.0, 0.0, 0.0, 0.0, 0.0, 0.0, 0.0, 0.0, 0.0, 1.695682270038077E9, 0.0, 2023-09-25 17:51:10.038
190.0, -187500.02235174447, 31220.402565050434, -27106.11696316206, -28125.021234157233, 9577.566036887889, -1451.4552296942747, -187500.02235174447, -16455.82365463062, -75.25832358101889, -10386.229799536444, -20607.74959418173, -33872.70526560608, 16695.344948213693, -13958.798522805993, -20662.84664426406, -17260.106475365934, 0.124, 1.008, 0.06, 192.0, 0.0, 0.0, 0.0, 0.0, 0.0, 0.0, 0.0, 0.0, 0.0, 1.695682270038081E9, 0.0, 2023-09-25 17:51:10.038
192.0, -187500.02235174447, 31203.728163686774, -27120.08680344663, -28135.973588940335, 9583.288083468447, -1451.0752500385345, -187500.02235174447, -16497.21908536185, -97.38655059177287, -10386.72153791446, -20640.316085853112, -33862.33405617881, 16692.55098015678, -13946.95209824468, -20715.797926878684, -17285.028670433603, 0.126, 1.006, 0.066, 192.0, 1.5, 120.0, 15.5, 56.0, 1.0, 8.0, 0.0, 0.0, 0.0, 1.695682270038084E9, 0.0, 2023-09-25 17:51:10.038
194.0, -187500.02235174447, 31231.287864600166, -27101.467800315357, -28118.04748988718, 9584.025691035473, -1449.734145371216, -187500.02235174447, -16443.68665739139, -70.54210550094909, -10372.774049374348, -20604.93327438036, -33865.66446610266, 16696.88721858111, -13944.269888910043, -20667.451103621854, -17262.14048411137, 0.126, 1.006, 0.066, 192.0, 0.0, 0.0, 0.0, 0.0, 0.0, 0.0, 0.0, 0.0, 0.0, 1.695682270097276E9, 0.0, 2023-09-25 17:51:10.097
196.0, -187500.02235174447, 31210.36663179, -27109.737945763824, -28129.446879559386, 9574.995586275529, -1447.4989709256854, -187500.02235174447, -16508.730233756334, -83.5284690294825, -10374.20456101949, -20632.42592006039, -33853.974503752535, 16695.859038336162, -13939.643077807794, -20709.628845409017, -17275.685641251283, 0.126, 1.006, 0.066, 192.0, 0.0, 0.0, 0.0, 0.0, 0.0, 0.0, 0.0, 0.0, 0.0, 1.695682270097283E9, 0.0, 2023-09-25 17:51:10.097
198.0, -187500.02235174447, 31228.069213398605, -27117.762222023277, -28133.649007516982, 9570.860513551297, -1456.8196483635484, -187500.02235174447, -16432.197860741362, -70.2515328230301, -10377.1996947765, -20608.956588382316, -33875.499233662995, 16692.662738879055, -13952.42827563623, -20670.22271993431, -17263.906271923337, 0.126, 1.006, 0.066, 192.0, 0.0, 0.0, 0.0, 0.0, 0.0, 0.0, 0.0, 0.0, 0.0, 1.695682270097287E9, 0.0, 2023-09-25 17:51:10.097
200.0, -187500.02235174447, 31211.46186726831, -27109.760297508277, -28126.630559758018, 9567.84302804983, -1446.9401773143027, -187500.02235174447, -16515.346350115105, -91.06100691092098, -10384.352253002198, -20641.836004476074, -33863.69751259059, 16693.869733079642, -13952.450627380686, -20708.91358958645, -17286.61564428993, 0.126, 1.006, 0.066, 192.0, 0.0, 0.0, 0.0, 0.0, 0.0, 0.0, 0.0, 0.0, 0.0, 1.695682270097291E9, 0.0, 2023-09-25 17:51:10.097
202.0, -187500.02235174447, 31231.265512855713, -27118.879809246042, -28136.51003080726, 9597.99553132004, -1461.4688112102524, -187500.02235174447, -16441.8314626016, -64.97652113157763, -10374.942168586513, -20608.55425698212, -33866.625591114236, 16697.848343592686, -13954.551691359484, -20681.398592161964, -17268.577786514496, 0.124, 1.006, 0.07, 192.0, 1.5, 112.0, 15.5, 56.0, 1.0, 24.0, 0.0, 0.0, 0.0, 1.695682270097295E9, 0.0, 2023-09-25 17:51:10.097
204.0, -187500.02235174447, 31208.243216066745, -27113.403631854493, -28128.977492925824, 9589.904199827219, -1440.8381510780039, -187500.02235174447, -16520.50960308428, -90.8374894663679, -10384.776936146849, -20635.443405561855, -33864.1445474797, 16703.570390173245, -13959.849054795392, -20710.232342509313, -17286.81680999003, 0.124, 1.006, 0.07, 192.0, 0.0, 0.0, 0.0, 0.0, 0.0, 0.0, 0.0, 0.0, 0.0, 1.695682270097298E9, 0.0, 2023-09-25 17:51:10.097
206.0, -187500.02235174447, 31224.872913941494, -27123.260751159283, -28145.00369370028, 9575.219103720083, -1453.645700650895, -187500.02235174447, -16431.05792177414, -74.74423345854682, -10382.430002979041, -20610.83413491656, -33873.398169684195, 16694.07089877974, -13952.115351213855, -20691.032194022202, -17270.94707142676, 0.124, 1.006, 0.07, 192.0, 0.0, 0.0, 0.0, 0.0, 0.0, 0.0, 0.0, 0.0, 0.0, 1.695682270097305E9, 0.0, 2023-09-25 17:51:10.097
208.0, -187500.02235174447, 31208.243216066745, -27110.184980652928, -28128.798678970183, 9541.915004481674, -1459.837133865015, -187500.02235174447, -16510.116041912563, -90.1669371327087, -10391.393052505618, -20630.011931659214, -33868.32432369284, 16687.991224287896, -13962.91124378577, -20705.87375234053, -17283.50875181064, 0.124, 1.006, 0.07, 192.0, 0.0, 0.0, 0.0, 0.0, 0.0, 0.0, 0.0, 0.0, 0.0, 1.69568227009731E9, 0.0, 2023-09-25 17:51:10.097
210.0, -187500.02235174447, 31224.247065096744, -27137.968199010873, -28151.798624014693, 9571.262844951492, -1474.186953805322, -187500.02235174447, -16419.904401290943, -82.9473236736445, -10391.884790883636, -20619.84188793205, -33875.70039936309, 16687.298320209782, -13956.965679760657, -20701.71632787184, -17279.3289755975, 0.124, 1.006, 0.07, 192.0, 0.0, 0.0, 0.0, 0.0, 0.0, 0.0, 0.0, 0.0, 0.0, 1.695682270157121E9, 0.0, 2023-09-25 17:51:10.157
212.0, -187500.02235174447, 31208.51143700021, -27123.5513238372, -28135.168926139944, 9544.731324283042, -1475.1927823058109, -187500.02235174447, -16491.5417422702, -96.35837034682875, -10394.321131029265, -20634.70579799483, -33874.67221911815, 16674.557825870255, -13972.321328201453, -20707.505429685763, -17295.891618238882, 0.13, 1.008, 0.07200000000000001, 192.0, 2.0, 8.0, 15.5, 64.0, 1.0, 32.0, 0.0, 0.0, 0.0, 1.695682270157136E9, 0.0, 2023-09-25 17:51:10.157
214.0, -187500.02235174447, 31212.2665300687, -27154.553193396714, -28169.702371323394, 9556.734211055544, -1480.8701253974589, -187500.02235174447, -16390.82478175459, -101.74514076055775, -10402.188945077532, -20638.080911407582, -33892.86653910477, 16677.30709043826, -13975.964662547669, -20705.471420940332, -17294.37169961592, 0.13, 1.008, 0.07200000000000001, 192.0, 0.0, 0.0, 0.0, 0.0, 0.0, 0.0, 0.0, 0.0, 0.0, 1.69568227015714E9, 0.0, 2023-09-25 17:51:10.157
216.0, -187500.02235174447, 31216.64747198194, -27107.435716084925, -28110.716117705837, 9558.209426189593, -1459.7477268871937, -187500.02235174447, -16472.520407738735, -100.15816690423095, -10396.355139774698, -20636.091606151058, -33880.12604476524, 16669.90866302355, -13966.375764176342, -20697.693013869884, -17297.590350817485, 0.13, 1.008, 0.07200000000000001, 192.0, 0.0, 0.0, 0.0, 0.0, 0.0, 0.0, 0.0, 0.0, 0.0, 1.695682270157144E9, 0.0, 2023-09-25 17:51:10.157
218.0, -187500.02235174447, 31224.55998951912, -27136.113004221083, -28142.008559943268, 9585.27738872497, -1464.5980554339953, -187500.02235174447, -16392.277645144182, -80.64509399474788, -10378.250226765898, -20621.80884144412, -33865.32918993583, 16695.81433484725, -13945.253365666076, -20710.1876390204, -17279.3289755975, 0.13, 1.008, 0.07200000000000001, 192.0, 0.0, 0.0, 0.0, 0.0, 0.0, 0.0, 0.0, 0.0, 0.0, 1.695682270157151E9, 0.0, 2023-09-25 17:51:10.157
220.0, -187500.02235174447, 31224.40352730793, -27103.27829161624, -28106.983376381802, 9549.156969685195, -1457.3560902304757, -187500.02235174447, -16456.851834875564, -83.34965507384004, -10376.640901165116, -20619.618370487497, -33867.78788182591, 16677.865884049643, -13945.745104044094, -20689.266406210234, -17284.84985647796, 0.13, 1.008, 0.07200000000000001, 192.0, 0.0, 0.0, 0.0, 0.0, 0.0, 0.0, 0.0, 0.0, 0.0, 1.695682270157154E9, 0.0, 2023-09-25 17:51:10.157
222.0, -187500.02235174447, 31227.778640720684, -27133.676664075454, -28141.785042498715, 9581.164667745194, -1453.7351076287162, -187500.02235174447, -16397.083270202074, -78.61108524931494, -10364.258034736877, -20618.009044886716, -33856.56730610935, 16686.895988809585, -13937.877289995826, -20713.607455922065, -17282.145295398866, 0.126, 1.008, 0.074, 192.0, 1.5, 120.0, 15.5, 64.0, 1.0, 40.0, 0.0, 0.0, 0.0, 1.695682270157158E9, 0.0, 2023-09-25 17:51:10.157
224.0, -187500.02235174447, 31236.294655358157, -27094.516407789757, -28099.450838500365, 9552.956766242596, -1443.1850842458111, -187500.02235174447, -16447.575860926612, -79.21458234960824, -10377.780840132338, -20612.711681450808, -33866.93851553661, 16679.16228522805, -13951.80242679148, -20682.493827640275, -17275.931510440292, 0.126, 1.008, 0.074, 192.0, 0.0, 0.0, 0.0, 0.0, 0.0, 0.0, 0.0, 0.0, 0.0, 1.695682270217305E9, 0.0, 2023-09-25 17:51:10.217
226.0, -187500.02235174447, 31226.571646520097, -27127.306416905692, -28143.215554143855, 9581.857571823308, -1452.058726794568, -187500.02235174447, -16418.004503012242, -71.27971306797423, -10366.515560926862, -20619.238390831757, -33846.196096682084, 16702.989244817407, -13936.267964395043, -20718.681301913417, -17274.299833095054, 0.126, 1.008, 0.074, 192.0, 0.0, 0.0, 0.0, 0.0, 0.0, 0.0, 0.0, 0.0, 0.0, 1.695682270217316E9, 0.0, 2023-09-25 17:51:10.217
228.0, -187500.02235174447, 31237.56870479211, -27101.60191078209, -28109.37501303852, 9564.490266381534, -1455.2773779961321, -187500.02235174447, -16443.06080854664, -69.91625665620049, -10376.015052320368, -20602.496934234732, -33864.77039632444, 16680.30222419527, -13949.164920945756, -20678.917548527428, -17275.730344740194, 0.126, 1.008, 0.074, 192.0, 0.0, 0.0, 0.0, 0.0, 0.0, 0.0, 0.0, 0.0, 0.0, 1.695682270217319E9, 0.0, 2023-09-25 17:51:10.217
230.0, -187500.02235174447, 31235.355882091033, -27112.666024287468, -28133.112565650055, 9585.880885825263, -1445.509665669163, -187500.02235174447, -16449.40870397195, -66.60819847681505, -10364.705069625983, -20615.572704741087, -33840.42934661262, 16710.49943095439, -13931.149414914778, -20727.264371784255, -17289.364908857933, 0.126, 1.008, 0.074, 192.0, 0.0, 0.0, 0.0, 0.0, 0.0, 0.0, 0.0, 0.0, 0.0, 1.695682270217323E9, 0.0, 2023-09-25 17:51:10.217
232.0, -187500.02235174447, 31232.114879145014, -27123.886600004033, -28135.057167417668, 9530.202690387094, -1465.7156426567606, -187500.02235174447, -16418.76446232372, -59.45564025111678, -10372.215255762965, -20594.115030063993, -33865.50800389147, 16697.714233125953, -13951.198929691189, -20672.77081880222, -17277.294966852067, 0.128, 1.004, 0.07200000000000001, 192.0, 2.0, 0.0, 15.5, 48.0, 1.0, 32.0, 0.0, 0.0, 0.0, 1.695682270217326E9, 0.0, 2023-09-25 17:51:10.217
234.0, -187500.02235174447, 31223.37534706299, -27129.921571006966, -28142.14267041, 9544.59721381631, -1455.187971018311, -187500.02235174447, -16424.240639715274, -91.19511737765282, -10379.613683177673, -20634.70579799483, -33864.166899224154, 16700.485849438413, -13952.987069247612, -20724.33629326061, -17303.89354275388, 0.128, 1.004, 0.07200000000000001, 192.0, 0.0, 0.0, 0.0, 0.0, 0.0, 0.0, 0.0, 0.0, 0.0, 1.695682270217329E9, 0.0, 2023-09-25 17:51:10.217
236.0, -187500.02235174447, 31234.126536145992, -27122.99253022582, -28132.352606338576, 9543.054943448895, -1475.5951137060063, -187500.02235174447, -16377.257272870216, -73.22431483558594, -10383.234665779431, -20604.32977728007, -33878.80729184238, 16669.90866302355, -13967.068668254456, -20676.816484548628, -17285.94509195627, 0.128, 1.004, 0.07200000000000001, 192.0, 0.0, 0.0, 0.0, 0.0, 0.0, 0.0, 0.0, 0.0, 0.0, 1.695682270217332E9, 0.0, 2023-09-25 17:51:10.217
238.0, -187500.02235174447, 31231.489030300265, -27109.693242274912, -28126.451745802373, 9568.84885655032, -1444.347374957487, -187500.02235174447, -16430.54383165167, -78.00758814902164, -10370.874151095648, -20630.526021781687, -33847.44779437158, 16701.44697444999, -13942.794673775992, -20731.980589864324, -17304.877019509917, 0.128, 1.004, 0.07200000000000001, 192.0, 0.0, 0.0, 0.0, 0.0, 0.0, 0.0, 0.0, 0.0, 0.0, 1.695682270217336E9, 0.0, 2023-09-25 17:51:10.217
240.0, -187500.02235174447, 31244.18482115088, -27109.40266959699, -28120.506181777262, 9558.678812823155, -1457.8478286084926, -187500.02235174447, -16379.067764171097, -65.33414904286255, -10376.551494187295, -20596.93134986536, -33871.9453062946, 16699.234151748915, -13951.757723302571, -20671.072086223616, -17280.021879675613, 0.128, 1.004, 0.07200000000000001, 192.0, 0.0, 0.0, 0.0, 0.0, 0.0, 0.0, 0.0, 0.0, 0.0, 1.695682270278544E9, 0.0, 2023-09-25 17:51:10.278
242.0, -187500.02235174447, 31229.902056443938, -27105.289948617217, -28118.248655587275, 9562.880940780753, -1438.446514421286, -187500.02235174447, -16441.071503290117, -77.80642244892388, -10374.226912763943, -20631.107167137525, -33852.85691652977, 16698.854172093175, -13938.771359774037, -20703.683281383906, -17295.019900205123, 0.128, 1.004, 0.07200000000000001, 192.0, 2.0, 0.0, 15.5, 48.0, 1.0, 32.0, 0.0, 0.0, 0.0, 1.695682270278553E9, 0.0, 2023-09-25 17:51:10.278
