%OpenBCI Raw EXG Data
%Number of channels = 16
%Sample Rate = 125 Hz
%Board = OpenBCI_GUI$BoardCytonSerialDaisy
Sample Index, EXG Channel 0, EXG Channel 1, EXG Channel 2, EXG Channel 3, EXG Channel 4, EXG Channel 5, EXG Channel 6, EXG Channel 7, EXG Channel 8, EXG Channel 9, EXG Channel 10, EXG Channel 11, EXG Channel 12, EXG Channel 13, EXG Channel 14, EXG Channel 15, Accel Channel 0, Accel Channel 1, Accel Channel 2, Other, Other, Other, Other, Other, Other, Other, Analog Channel 0, Analog Channel 1, Analog Channel 2, Timestamp, Other, Timestamp (Formatted)
0.0, -21511.16240157633, -9076.596388411092, -65971.95607089472, -66737.52567023346, -33078.59248859793, -41159.64217896965, -187500.02235174447, -61706.50562125512, 0.0, 0.0, 0.0, 0.0, 0.0, 0.0, 0.0, 0.0, 0.0, 0.0, 0.0, 192.0, 0.0, 0.0, 0.0, 0.0, 0.0, 0.0, 0.0, 0.0, 0.0, 1.695416711931792E9, 0.0, 2023-09-22 16:05:11.931
224.0, -21547.998076438675, -9116.449548774905, -65992.9220071938, -66773.10964740631, -33093.67991610526, -41193.86269973072, -187500.02235174447, -61733.75239774614, -6637.3728677478875, -187500.02235174447, -67150.96588742327, -60634.247736245125, -40609.20812001325, -46851.20098009121, -68162.18115832581, -64641.7590548705, 0.0, 0.0, 0.0, 192.0, 0.0, 0.0, 0.0, 0.0, 0.0, 0.0, 0.0, 0.0, 0.0, 1.695416711931802E9, 0.0, 2023-09-22 16:05:11.931
226.0, -21542.387788580392, -9115.510775507782, -65971.59844298345, -66753.88714717474, -33075.35148565191, -41173.90259193213, -187500.02235174447, -61713.32290331399, -6654.114324344912, -187500.02235174447, -67148.23897459972, -60639.8133206145, -40606.771779867624, -46865.30493084251, -68153.53103322162, -64639.38976995824, -0.045, 0.481, 0.156, 192.0, 126.5, 24.0, 15.0, 8.0, 4.5, 96.0, 0.0, 0.0, 0.0, 1.695416711931806E9, 0.0, 2023-09-22 16:05:11.931
228.0, -21559.978611466722, -9138.980107185855, -65987.17760886879, -66773.33316485086, -33080.201814198714, -41190.44288282906, -187500.02235174447, -61722.531822029574, -6646.961766119214, -187500.02235174447, -67154.76568398067, -60647.412913729306, -40607.01764905664, -46857.75004121662, -68148.09955931897, -64632.41602568818, -0.045, 0.481, 0.156, 192.0, 0.0, 0.0, 0.0, 0.0, 0.0, 0.0, 0.0, 0.0, 0.0, 1.695416711931809E9, 0.0, 2023-09-22 16:05:11.931
230.0, -21558.346934121484, -9142.779903743256, -65975.33118430748, -66774.07077241788, -33083.39811365582, -41185.79371998236, -187500.02235174447, -61723.448243552244, -6651.141542332357, -187500.02235174447, -67154.18453862483, -60653.93962311025, -40599.082779775, -46866.534276787555, -68148.41248374134, -64636.81931934587, -0.045, 0.481, 0.156, 192.0, 0.0, 0.0, 0.0, 0.0, 0.0, 0.0, 0.0, 0.0, 0.0, 1.695416711931812E9, 0.0, 2023-09-22 16:05:11.931
232.0, -21583.872626289445, -9163.455267364416, -66005.05900443305, -66795.6625575617, -33086.862634046396, -41206.737304536975, -187500.02235174447, -61742.46957808371, -6655.41072552332, -187500.02235174447, -67172.17769291135, -60672.33510879697, -40597.31699196303, -46869.90939020031, -68161.9352891368, -64649.448054963126, -0.045, 0.481, 0.156, 192.0, 0.0, 0.0, 0.0, 0.0, 0.0, 0.0, 0.0, 0.0, 0.0, 1.695416711931815E9, 0.0, 2023-09-22 16:05:11.931
234.0, -21559.241003899697, -9141.416447331483, -65988.85398970294, -66774.85308347382, -33088.181386969256, -41184.07263565929, -187500.02235174447, -61731.897202956345, -6657.444734268754, -187500.02235174447, -67162.58879454003, -60663.66263194831, -40597.1828814963, -46876.83843098145, -68160.86240540295, -64651.258546264005, -0.045, 0.481, 0.156, 192.0, 0.0, 0.0, 0.0, 0.0, 0.0, 0.0, 0.0, 0.0, 0.0, 1.695416711931819E9, 0.0, 2023-09-22 16:05:11.931
236.0, -21578.59761459799, -9158.180255672964, -66031.74698731268, -66803.70918556562, -33109.572006412986, -41209.50892084944, -187500.02235174447, -61766.67651732881, -6645.7100684297175, -187500.02235174447, -67163.48286431824, -60661.740381925156, -40600.289773975586, -46862.3097970855, -68177.55915851107, -64656.82413063337, -0.0665, 0.7195, 0.22899999999999998, 192.0, 126.5, 32.0, 14.5, 120.0, 4.5, 56.0, 0.0, 0.0, 0.0, 1.695416711931822E9, 0.0, 2023-09-22 16:05:11.931
238.0, -21565.521844091636, -9149.306613124207, -66034.60801060295, -66802.83746753186, -33128.727451411185, -41208.078409204296, -187500.02235174447, -61770.65512784185, -6662.585635493474, -187500.02235174447, -67186.99689948522, -60684.650919991844, -40625.659003932364, -46883.74512001814, -68216.94293224132, -64687.82600019289, -0.0665, 0.7195, 0.22899999999999998, 192.0, 0.0, 0.0, 0.0, 0.0, 0.0, 0.0, 0.0, 0.0, 0.0, 1.695416711931825E9, 0.0, 2023-09-22 16:05:11.931
0.0, -10803.067481883465, -4584.454546505755, -33016.00760412307, -33401.66460295494, -16577.394792723037, -20618.232562331268, -93750.01117587223, -30891.116665734848, -3331.5275110635175, -93750.01117587223, -33593.487273870385, -30340.682606778457, -20315.142907517304, -23433.367721243827, -34110.97486149965, -32344.851773363567, -0.07525000000000001, 0.84175, 0.26349999999999996, 192.0, 126.5, 48.0, 15.0, 16.0, 4.5, 40.0, 0.0, 0.0, 0.0, 1.695416712103039E9, 0.0, 2023-09-22 16:05:12.103
2.0, -21612.639321403425, -9175.368747159095, -66037.24551644869, -66806.16787745571, -33140.819745161505, -41239.01322353044, -187500.02235174447, -61770.18574120829, -6632.991925834647, -187500.02235174447, -67180.67135580437, -60661.740381925156, -40674.92224871186, -46851.491552769134, -68216.85352526349, -64670.65986045121, -0.07525000000000001, 0.84175, 0.26349999999999996, 192.0, 0.0, 0.0, 0.0, 0.0, 0.0, 0.0, 0.0, 0.0, 0.0, 1.695416712103051E9, 0.0, 2023-09-22 16:05:12.103
4.0, -21608.23602774573, -9172.999462246831, -66042.96756302925, -66805.16204895522, -33144.84305916346, -41237.24743571847, -187500.02235174447, -61771.10216273095, -6641.530292216575, -187500.02235174447, -67207.29228345065, -60685.88026593689, -40683.32650462705, -46864.768488975584, -68235.11490048349, -64686.59665424784, -0.07525000000000001, 0.84175, 0.26349999999999996, 192.0, 0.0, 0.0, 0.0, 0.0, 0.0, 0.0, 0.0, 0.0, 0.0, 1.695416712103055E9, 0.0, 2023-09-22 16:05:12.103
6.0, -21613.779260370644, -9180.889628039555, -66046.72265609773, -66816.15910722723, -33140.12684108339, -41247.79745910138, -187500.02235174447, -61774.052592999054, -6625.951126331226, -187500.02235174447, -67182.59360582753, -60666.03191686058, -40659.61130375997, -46854.19611384823, -68212.42787986135, -64665.787180159954, -0.07525000000000001, 0.84175, 0.26349999999999996, 192.0, 0.0, 0.0, 0.0, 0.0, 0.0, 0.0, 0.0, 0.0, 0.0, 1.695416712103058E9, 0.0, 2023-09-22 16:05:12.103
8.0, -21619.590713929025, -9196.871125325099, -66066.72746738524, -66827.08911026586, -33162.56799251652, -41266.103537810275, -187500.02235174447, -61795.33145372051, -6648.414629508809, -187500.02235174447, -67219.96572255681, -60709.64017029288, -40690.85904250849, -46890.74121603266, -68244.2120604768, -64699.359500331826, -0.084, 0.966, 0.294, 192.0, 126.5, 48.0, 15.0, 24.0, 4.5, 24.0, 0.0, 0.0, 0.0, 1.695416712103061E9, 0.0, 2023-09-22 16:05:12.103
10.0, -21600.70348986429, -9177.961549515909, -66041.5370513841, -66798.63533957426, -33138.98690211617, -41242.56715089884, -187500.02235174447, -61772.19739820927, -6636.478797969676, -187500.02235174447, -67196.02700424517, -60689.568303772015, -40671.43537657683, -46881.10761417242, -68221.23446717674, -64678.4159157772, -0.084, 0.966, 0.294, 192.0, 0.0, 0.0, 0.0, 0.0, 0.0, 0.0, 0.0, 0.0, 0.0, 1.695416712103064E9, 0.0, 2023-09-22 16:05:12.103
12.0, -21593.528579894137, -9169.110258711607, -66044.57688863002, -66791.52748483747, -33141.110317839426, -41241.67308112062, -187500.02235174447, -61774.94666277727, -6631.449655467231, -187500.02235174447, -67202.41960315939, -60690.44002180577, -40674.96695220077, -46870.04350066704, -68217.5017258527, -64674.97374713108, -0.084, 0.966, 0.294, 192.0, 0.0, 0.0, 0.0, 0.0, 0.0, 0.0, 0.0, 0.0, 0.0, 1.695416712103067E9, 0.0, 2023-09-22 16:05:12.103
14.0, -21573.65787907337, -9151.027697447265, -66028.41657738884, -66764.9065571912, -33118.713869895204, -41220.528330865905, -187500.02235174447, -61750.38209562089, -6614.082350025457, -187500.02235174447, -67180.64900405992, -60660.80160865803, -40652.771669956644, -46847.06590736698, -68193.40654532988, -64649.425703218665, -0.084, 0.966, 0.294, 192.0, 0.0, 0.0, 0.0, 0.0, 0.0, 0.0, 0.0, 0.0, 0.0, 1.695416712103071E9, 0.0, 2023-09-22 16:05:12.103
16.0, -21577.9941174977, -9157.263834150295, -66035.05504549206, -66768.99692642652, -33125.03941357606, -41226.049211746365, -187500.02235174447, -61757.020563724116, -6614.819957592483, -187500.02235174447, -67197.52457112368, -60674.41382103132, -40649.82123968855, -46843.78020093205, -68194.68059476383, -64651.48206370856, -0.084, 0.966, 0.294, 192.0, 0.0, 0.0, 0.0, 0.0, 0.0, 0.0, 0.0, 0.0, 0.0, 1.695416712163231E9, 0.0, 2023-09-22 16:05:12.163
18.0, -21556.625849798424, -9138.935403696943, -66019.00649297316, -66749.17092909467, -33109.05791629051, -41209.73243829399, -187500.02235174447, -61740.59203154946, -6606.885088310849, -187500.02235174447, -67178.41382961438, -60651.391524242346, -40635.56082672606, -46831.732610670646, -68177.98384165572, -64633.488909422034, -0.076, 0.966, 0.292, 192.0, 126.5, 80.0, 15.0, 24.0, 4.5, 16.0, 0.0, 0.0, 0.0, 1.695416712163246E9, 0.0, 2023-09-22 16:05:12.163
20.0, -21588.052402502588, -9170.786639545757, -66064.31347898406, -66787.43711560215, -33143.43489926278, -41250.300854480374, -187500.02235174447, -61775.97484302221, -6609.92492555677, -187500.02235174447, -67201.59258861454, -60669.54114074006, -40650.91647516686, -46844.808381177, -68194.77000174165, -64652.10791255331, -0.076, 0.966, 0.292, 192.0, 0.0, 0.0, 0.0, 0.0, 0.0, 0.0, 0.0, 0.0, 0.0, 1.69541671216325E9, 0.0, 2023-09-22 16:05:12.163
22.0, -21565.097160946985, -9146.065610178186, -66035.94911527027, -66765.33124033586, -33135.298864281045, -41225.73628732399, -187500.02235174447, -61756.75234279065, -6630.756751389116, -187500.02235174447, -67208.09694625104, -60668.6694227063, -40666.16036488538, -46855.917198171286, -68208.53867632612, -64661.5627004579, -0.076, 0.966, 0.292, 192.0, 0.0, 0.0, 0.0, 0.0, 0.0, 0.0, 0.0, 0.0, 0.0, 1.695416712163253E9, 0.0, 2023-09-22 16:05:12.163
24.0, -21577.56943435305, -9157.554406828214, -66046.342676442, -66775.05424917392, -33131.99080610166, -41236.35336594026, -187500.02235174447, -61760.17215969231, -6619.424416950276, -187500.02235174447, -67207.58285612856, -60670.14463784035, -40658.20314385929, -46844.98719513264, -68199.1956471438, -64655.304212010415, -0.076, 0.966, 0.292, 192.0, 0.0, 0.0, 0.0, 0.0, 0.0, 0.0, 0.0, 0.0, 0.0, 1.695416712163256E9, 0.0, 2023-09-22 16:05:12.163
26.0, -21563.97957372422, -9148.345488112627, -66032.57400185753, -66768.75105723752, -33133.57777995799, -41224.55164486786, -187500.02235174447, -61759.233386425185, -6618.2621262386, -187500.02235174447, -67200.09502173604, -60665.83075116048, -40653.64338799041, -46850.15044810181, -68194.88176046393, -64653.001982331516, -0.076, 0.966, 0.292, 192.0, 0.0, 0.0, 0.0, 0.0, 0.0, 0.0, 0.0, 0.0, 0.0, 1.695416712163259E9, 0.0, 2023-09-22 16:05:12.163
28.0, -21589.929949036832, -9173.737069813857, -66055.23867073521, -66796.95895874011, -33146.58649523097, -41254.95001732707, -187500.02235174447, -61782.099221002965, -6626.465216453697, -187500.02235174447, -67215.16009749891, -60688.13779212687, -40667.90380095289, -46855.55957026, -68208.56102807057, -64665.22838654857, -0.074, 0.964, 0.294, 192.0, 126.5, 88.0, 15.0, 16.0, 4.5, 24.0, 0.0, 0.0, 0.0, 1.695416712163263E9, 0.0, 2023-09-22 16:05:12.163
30.0, -21584.18555071182, -9171.010156990309, -66051.81885383354, -66790.99104297055, -33151.34741679995, -41248.17743875712, -187500.02235174447, -61784.02147102612, -6631.248489767134, -187500.02235174447, -67216.63531263296, -60692.18345787328, -40671.83770797702, -46874.40209083582, -68219.08869970903, -64676.761886687505, -0.074, 0.964, 0.294, 192.0, 0.0, 0.0, 0.0, 0.0, 0.0, 0.0, 0.0, 0.0, 0.0, 1.695416712224274E9, 0.0, 2023-09-22 16:05:12.224
32.0, -21604.03389978813, -9190.34441594415, -66063.59822316149, -66810.23589494657, -33153.403777289845, -41262.88488660871, -187500.02235174447, -61790.8834565739, -6635.271803769088, -187500.02235174447, -67226.87241159349, -60698.799574232056, -40676.553926057095, -46871.02697742307, -68217.45702236379, -64677.23127332107, -0.074, 0.964, 0.294, 192.0, 0.0, 0.0, 0.0, 0.0, 0.0, 0.0, 0.0, 0.0, 0.0, 1.695416712224287E9, 0.0, 2023-09-22 16:05:12.224
34.0, -21590.600501370493, -9174.675843080979, -66044.19690897428, -66786.3642318683, -33150.98978888867, -41241.82954333181, -187500.02235174447, -61781.1827994803, -6643.921928873293, -187500.02235174447, -67232.12507154049, -60702.93464695629, -40678.722045269256, -46881.778166506076, -68222.1508886994, -64686.14961935874, -0.074, 0.964, 0.294, 192.0, 0.0, 0.0, 0.0, 0.0, 0.0, 0.0, 0.0, 0.0, 0.0, 1.695416712224291E9, 0.0, 2023-09-22 16:05:12.224
36.0, -21614.203943515295, -9200.670921882502, -66069.20851101977, -66815.75677582703, -33153.49318426767, -41262.77312788643, -187500.02235174447, -61797.52192467713, -6634.333030501965, -187500.02235174447, -67224.10079528103, -60696.407937575335, -40671.05539692109, -46865.349634331425, -68211.75732752768, -64672.3138895409, -0.074, 0.964, 0.294, 192.0, 0.0, 0.0, 0.0, 0.0, 0.0, 0.0, 0.0, 0.0, 0.0, 1.695416712224294E9, 0.0, 2023-09-22 16:05:12.224
38.0, -21600.36821369746, -9183.929465285477, -66051.79650208908, -66792.53331333796, -33161.04807389356, -41247.17161025663, -187500.02235174447, -61790.011738540146, -6648.906367886826, -187500.02235174447, -67244.84321413556, -60719.58669657549, -40691.037856464136, -46879.92297171628, -68235.67369409486, -64692.341052572854, -0.074, 0.964, 0.298, 192.0, 126.5, 88.0, 15.0, 16.0, 4.5, 40.0, 0.0, 0.0, 0.0, 1.695416712224297E9, 0.0, 2023-09-22 16:05:12.224
40.0, -21596.210789228775, -9179.43676464996, -66056.95975505827, -66797.76362154051, -33142.563181229016, -41246.813982345346, -187500.02235174447, -61779.26054945714, -6623.984172819159, -187500.02235174447, -67216.88118182197, -60692.94341718477, -40670.474251565254, -46859.94051217324, -68211.91378973887, -64668.42468600568, -0.074, 0.964, 0.298, 192.0, 0.0, 0.0, 0.0, 0.0, 0.0, 0.0, 0.0, 0.0, 0.0, 1.6954167122243E9, 0.0, 2023-09-22 16:05:12.224
42.0, -21594.735574094724, -9173.692366324945, -66057.92088006984, -66797.40599362922, -33156.28715232458, -41248.44565969058, -187500.02235174447, -61785.96607279374, -6633.55071944603, -187500.02235174447, -67235.18726053086, -60701.59354228897, -40679.39259760292, -46874.82677398047, -68230.3539789145, -64684.42853503568, -0.074, 0.964, 0.298, 192.0, 0.0, 0.0, 0.0, 0.0, 0.0, 0.0, 0.0, 0.0, 0.0, 1.695416712224303E9, 0.0, 2023-09-22 16:05:12.224
44.0, -21587.40420191338, -9161.935348741454, -66054.590470146, -66801.80928728692, -33136.23763754817, -41248.468011435034, -187500.02235174447, -61777.494761645175, -6624.028876308069, -187500.02235174447, -67223.20672550282, -60686.93079792629, -40666.272123607654, -46867.49540179913, -68219.84865902051, -64675.286671553455, -0.074, 0.964, 0.298, 192.0, 0.0, 0.0, 0.0, 0.0, 0.0, 0.0, 0.0, 0.0, 0.0, 1.695416712224307E9, 0.0, 2023-09-22 16:05:12.224
46.0, -21592.209826971273, -9165.511627854303, -66031.92580126831, -66776.17183639668, -33136.483506737175, -41234.6322816172, -187500.02235174447, -61776.779505822604, -6617.457463438209, -187500.02235174447, -67219.49633592324, -60683.265111835615, -40673.827013233546, -46864.924951186775, -68214.86422000697, -64676.58307273187, -0.074, 0.964, 0.298, 192.0, 0.0, 0.0, 0.0, 0.0, 0.0, 0.0, 0.0, 0.0, 0.0, 1.695416712283188E9, 0.0, 2023-09-22 16:05:12.283
48.0, -21593.930911294334, -9166.070421465685, -66023.32037965303, -66778.60817654232, -33121.06080306302, -41224.43988614558, -187500.02235174447, -61752.684325299786, -6611.869527324382, -187500.02235174447, -67189.94732975333, -60658.99111735715, -40650.08946062201, -46845.70245095521, -68183.21414985826, -64642.31784848188, -0.082, 0.968, 0.298, 192.0, 126.5, 56.0, 15.0, 32.0, 4.5, 40.0, 0.0, 0.0, 0.0, 1.695416712283201E9, 0.0, 2023-09-22 16:05:12.283
50.0, -21600.79289684211, -9168.082078466663, -66030.07060647853, -66769.60042352682, -33134.538904969566, -41218.22610118701, -187500.02235174447, -61752.9748979777, -6638.512806715108, -187500.02235174447, -67221.32917896858, -60687.109611881926, -40673.17881264434, -46856.878323182864, -68202.01196694517, -64661.093313824334, -0.082, 0.968, 0.298, 192.0, 0.0, 0.0, 0.0, 0.0, 0.0, 0.0, 0.0, 0.0, 0.0, 1.695416712283204E9, 0.0, 2023-09-22 16:05:12.283
52.0, -21609.823001602057, -9170.80899129021, -66035.56913561454, -66776.93179570817, -33121.95487284123, -41217.19792094206, -187500.02235174447, -61750.09152294297, -6641.686754427762, -187500.02235174447, -67204.99005377175, -60657.80647490102, -40661.019463660654, -46834.19130256073, -68178.56498701156, -64636.86402283479, -0.082, 0.968, 0.298, 192.0, 0.0, 0.0, 0.0, 0.0, 0.0, 0.0, 0.0, 0.0, 0.0, 1.695416712283207E9, 0.0, 2023-09-22 16:05:12.283
54.0, -21626.43034773235, -9187.975131031888, -66053.00349628968, -66800.15525819722, -33147.18999233127, -41239.10263050826, -187500.02235174447, -61775.34899417747, -6664.12790586089, -187500.02235174447, -67240.68578966687, -60691.021167161605, -40688.10977794049, -46856.76656446059, -68211.17618217185, -64670.45869475111, -0.082, 0.968, 0.298, 192.0, 0.0, 0.0, 0.0, 0.0, 0.0, 0.0, 0.0, 0.0, 0.0, 1.695416712283211E9, 0.0, 2023-09-22 16:05:12.283
56.0, -21603.877437576943, -9168.95379650042, -66041.26883045064, -66788.018260958, -33129.643872933855, -41227.0326885024, -187500.02235174447, -61761.87089227091, -6655.991870879158, -187500.02235174447, -67218.15523125592, -60672.6703849638, -40671.323617854556, -46852.475029525165, -68204.31419662407, -64659.84161613484, -0.082, 0.968, 0.298, 192.0, 0.0, 0.0, 0.0, 0.0, 0.0, 0.0, 0.0, 0.0, 0.0, 1.695416712283214E9, 0.0, 2023-09-22 16:05:12.283
58.0, -21607.52077192316, -9168.886741267055, -66040.17359497232, -66800.53523785296, -33148.017006876114, -41236.48747640699, -187500.02235174447, -61777.204188967255, -6646.537082974563, -187500.02235174447, -67225.06192029262, -60678.52654201109, -40674.34110335602, -46848.04938412302, -68209.58920831552, -64668.69290693914, -0.084, 0.9560000000000001, 0.298, 192.0, 126.5, 48.0, 14.5, 112.0, 4.5, 40.0, 0.0, 0.0, 0.0, 1.695416712283217E9, 0.0, 2023-09-22 16:05:12.283
60.0, -21601.955187553787, -9157.62146206158, -66033.82569954701, -66784.75490626752, -33133.91305612482, -41225.84804604627, -187500.02235174447, -61761.22269168171, -6649.576920220486, -187500.02235174447, -67208.9686642848, -60662.857969147924, -40673.849364978, -46848.58582598995, -68203.44247859031, -64660.13218881276, -0.084, 0.9560000000000001, 0.298, 192.0, 0.0, 0.0, 0.0, 0.0, 0.0, 0.0, 0.0, 0.0, 0.0, 1.695416712343497E9, 0.0, 2023-09-22 16:05:12.343
62.0, -21620.305969751593, -9181.426069906482, -66059.37374345944, -66805.58673209987, -33154.878992423895, -41237.82858107431, -187500.02235174447, -61775.818380811026, -6650.470989998697, -187500.02235174447, -67229.30875173913, -60679.286501322575, -40686.85808025099, -46854.12905861486, -68219.31221715358, -64672.023316862986, -0.084, 0.9560000000000001, 0.298, 192.0, 0.0, 0.0, 0.0, 0.0, 0.0, 0.0, 0.0, 0.0, 0.0, 1.695416712343512E9, 0.0, 2023-09-22 16:05:12.343
64.0, -21604.570341655057, -9163.05293596422, -66036.46320539275, -66785.20194115663, -33141.6244079619, -41216.460313375035, -187500.02235174447, -61760.99917423716, -6652.952033633236, -187500.02235174447, -67205.30297819411, -60662.67915519228, -40680.756054014695, -46846.261244566595, -68214.90892349588, -64659.260470779, -0.084, 0.9560000000000001, 0.298, 192.0, 0.0, 0.0, 0.0, 0.0, 0.0, 0.0, 0.0, 0.0, 0.0, 1.695416712343516E9, 0.0, 2023-09-22 16:05:12.343
66.0, -21626.631513432447, -9184.53296238577, -66066.16867377385, -66814.23685720407, -33164.35613207294, -41244.39999394417, -187500.02235174447, -61785.451982671264, -6655.522484245597, -187500.02235174447, -67228.68290289438, -60689.05421364954, -40696.78225478915, -46857.12419237187, -68235.98661851724, -64679.6676134667, -0.084, 0.9560000000000001, 0.298, 192.0, 0.0, 0.0, 0.0, 0.0, 0.0, 0.0, 0.0, 0.0, 0.0, 1.695416712343519E9, 0.0, 2023-09-22 16:05:12.343
68.0, -21604.88326607743, -9156.14624692753, -66045.18038573032, -66789.5605313254, -33135.924713125794, -41216.169740697114, -187500.02235174447, -61755.880624756894, -6653.577882477985, -187500.02235174447, -67214.40013818743, -60670.546969240546, -40680.532536570136, -46852.31856731398, -68219.33456889803, -64665.20603480411, -0.076, 0.96, 0.292, 192.0, 126.5, 80.0, 15.0, 0.0, 4.5, 16.0, 0.0, 0.0, 0.0, 1.695416712343523E9, 0.0, 2023-09-22 16:05:12.343
70.0, -21648.402112531916, -9198.234581736873, -66089.90622638538, -66841.03659880598, -33168.80412921955, -41264.98595058751, -187500.02235174447, -61802.305197990565, -6662.2056558377335, -187500.02235174447, -67242.40687398992, -60692.406975317834, -40693.83182452105, -46857.995910405625, -68225.81657479008, -64680.27111056699, -0.076, 0.96, 0.292, 192.0, 0.0, 0.0, 0.0, 0.0, 0.0, 0.0, 0.0, 0.0, 0.0, 1.695416712343526E9, 0.0, 2023-09-22 16:05:12.343
72.0, -21616.729690638746, -9169.981976745365, -66055.50689166867, -66796.78014478447, -33148.1734690873, -41229.08904899228, -187500.02235174447, -61770.74453481967, -6681.2269903692, -187500.02235174447, -67244.70910366882, -60695.02212941911, -40703.84540603703, -46871.362253589905, -68232.11976672646, -64683.22154083509, -0.076, 0.96, 0.292, 192.0, 0.0, 0.0, 0.0, 0.0, 0.0, 0.0, 0.0, 0.0, 0.0, 1.69541671234353E9, 0.0, 2023-09-22 16:05:12.343
74.0, -21633.627609446958, -9191.886686311565, -66080.13851405842, -66826.8208893324, -33167.865355952425, -41257.699281895075, -187500.02235174447, -61798.863029344444, -6668.419440796309, -187500.02235174447, -67242.38452224547, -60699.559533543536, -40698.39158038993, -46859.828753450965, -68240.34520868602, -64685.54612225844, -0.076, 0.96, 0.292, 192.0, 0.0, 0.0, 0.0, 0.0, 0.0, 0.0, 0.0, 0.0, 0.0, 1.695416712343533E9, 0.0, 2023-09-22 16:05:12.343
76.0, -21576.630661085925, -9135.8061594732, -66014.17851617081, -66757.5081297765, -33127.49810546614, -41196.611964298725, -187500.02235174447, -61745.59882230745, -6642.31260327251, -187500.02235174447, -67213.88604806496, -60669.9211203958, -40682.16421391538, -46851.446849280226, -68223.0002549887, -64669.922252884186, -0.076, 0.96, 0.292, 192.0, 0.0, 0.0, 0.0, 0.0, 0.0, 0.0, 0.0, 0.0, 0.0, 1.695416712402728E9, 0.0, 2023-09-22 16:05:12.402
78.0, -21606.13496376693, -9161.66712780799, -66045.91799329735, -66784.9113684787, -33131.61082644592, -41222.78585705589, -187500.02235174447, -61761.98265099319, -6623.067751296491, -187500.02235174447, -67199.73739382475, -60647.36821024039, -40652.90578042338, -46822.52369195506, -68195.7981819866, -64643.480139193554, -0.08, 0.962, 0.292, 192.0, 126.5, 64.0, 15.0, 8.0, 4.5, 16.0, 0.0, 0.0, 0.0, 1.695416712402739E9, 0.0, 2023-09-22 16:05:12.402
80.0, -21581.391582654906, -9133.146301883018, -66018.13477493939, -66761.754961223, -33121.597244929944, -41196.34374336526, -187500.02235174447, -61745.44236009626, -6637.104646814424, -187500.02235174447, -67214.15426899842, -60657.76177141211, -40664.50633579568, -46839.30985204099, -68207.71166178127, -64656.13122655526, -0.08, 0.962, 0.292, 192.0, 0.0, 0.0, 0.0, 0.0, 0.0, 0.0, 0.0, 0.0, 0.0, 1.695416712402743E9, 0.0, 2023-09-22 16:05:12.402
82.0, -21593.282710705127, -9148.725467768369, -66037.44668214879, -66787.99590921354, -33107.828570345475, -41209.195996427065, -187500.02235174447, -61745.71058102973, -6612.875355824871, -187500.02235174447, -67194.3059199221, -60642.54023343805, -40639.04769886109, -46813.605345917385, -68177.31328932206, -64632.48308092154, -0.08, 0.962, 0.292, 192.0, 0.0, 0.0, 0.0, 0.0, 0.0, 0.0, 0.0, 0.0, 0.0, 1.695416712402747E9, 0.0, 2023-09-22 16:05:12.402
84.0, -21582.68798383331, -9145.171540399973, -66026.7849000436, -66779.59165329834, -33124.43591647576, -41204.27861264689, -187500.02235174447, -61749.376267120395, -6626.666382153796, -187500.02235174447, -67202.7101758373, -60661.15923656932, -40662.94171368381, -46833.69956418271, -68194.50178080819, -64651.16913928618, -0.08, 0.962, 0.292, 192.0, 0.0, 0.0, 0.0, 0.0, 0.0, 0.0, 0.0, 0.0, 0.0, 1.69541671240275E9, 0.0, 2023-09-22 16:05:12.402
86.0, -21606.80551610059, -9170.429011634471, -66057.67501088083, -66806.34669141134, -33133.57777995799, -41232.55356938286, -187500.02235174447, -61766.47535162871, -6623.760655374605, -187500.02235174447, -67202.21843745929, -60662.32152728099, -40667.05443466359, -46833.78897116053, -68196.06640292006, -64647.79402587343, -0.08, 0.962, 0.292, 192.0, 0.0, 0.0, 0.0, 0.0, 0.0, 0.0, 0.0, 0.0, 0.0, 1.695416712402754E9, 0.0, 2023-09-22 16:05:12.402
88.0, -21608.99598705721, -9164.639909820546, -66055.97627830223, -66793.67325230519, -33152.286190067076, -41225.892749535175, -187500.02235174447, -61769.828113297, -6653.533178989074, -187500.02235174447, -67232.8179756186, -60689.411841560825, -40695.508205355196, -46861.639244751845, -68230.91277252589, -64676.001927376026, -0.084, 0.966, 0.294, 192.0, 126.5, 48.0, 15.0, 24.0, 4.5, 24.0, 0.0, 0.0, 0.0, 1.695416712402758E9, 0.0, 2023-09-22 16:05:12.402
90.0, -21601.46344917577, -9157.822627761678, -66048.24257472069, -66786.43128710166, -33132.05786133502, -41218.49432212047, -187500.02235174447, -61756.55117709055, -6644.190149806756, -187500.02235174447, -67210.89091430795, -60659.12522782388, -40679.43730109183, -46839.08633459644, -68206.3035018806, -64651.28089800846, -0.084, 0.966, 0.294, 192.0, 0.0, 0.0, 0.0, 0.0, 0.0, 0.0, 0.0, 0.0, 0.0, 1.695416712462518E9, 0.0, 2023-09-22 16:05:12.462
92.0, -21589.617024614457, -9148.323136368172, -66030.27177217863, -66784.95607196761, -33134.36009101392, -41212.95108949555, -187500.02235174447, -61756.17119743481, -6635.897652613838, -187500.02235174447, -67209.90743755191, -60663.99790811514, -40679.12437666945, -46844.69662245472, -68216.60765607448, -64661.450941735624, -0.084, 0.966, 0.294, 192.0, 0.0, 0.0, 0.0, 0.0, 0.0, 0.0, 0.0, 0.0, 0.0, 1.695416712462533E9, 0.0, 2023-09-22 16:05:12.462
94.0, -21608.258379490184, -9168.998499989331, -66049.89660381038, -66803.01628148751, -33133.39896600234, -41232.21829321603, -187500.02235174447, -61767.81645629602, -6624.07357979698, -187500.02235174447, -67190.10379196452, -60647.16704454029, -40654.82803044654, -46833.87837813835, -68194.92646395284, -64647.92813634016, -0.084, 0.966, 0.294, 192.0, 0.0, 0.0, 0.0, 0.0, 0.0, 0.0, 0.0, 0.0, 0.0, 1.695416712462537E9, 0.0, 2023-09-22 16:05:12.462
96.0, -21613.33222548154, -9173.759421558312, -66051.84120557799, -66809.27476993499, -33155.19191684627, -41236.107496751254, -187500.02235174447, -61782.389793680886, -6654.494304000653, -187500.02235174447, -67228.48173719428, -60688.89775143835, -40694.77059778817, -46868.72474774418, -68235.11490048349, -64687.62483449279, -0.084, 0.966, 0.294, 192.0, 0.0, 0.0, 0.0, 0.0, 0.0, 0.0, 0.0, 0.0, 0.0, 1.69541671246254E9, 0.0, 2023-09-22 16:05:12.462
98.0, -21593.32741419404, -9151.832360247656, -66030.09295822299, -66785.42545860118, -33122.156038541325, -41209.263051660426, -187500.02235174447, -61752.70667704424, -6644.860702140415, -187500.02235174447, -67198.9103792799, -60653.49258822115, -40674.09523416701, -46839.488665996636, -68206.7505367697, -64657.31586901139, -0.08600000000000001, 0.962, 0.296, 192.0, 126.5, 40.0, 15.0, 8.0, 4.5, 32.0, 0.0, 0.0, 0.0, 1.695416712462551E9, 0.0, 2023-09-22 16:05:12.462
100.0, -21627.212658788285, -9183.594189118647, -66057.78676960312, -66819.15424098424, -33155.70600696874, -41238.05209851886, -187500.02235174447, -61781.205151224756, -6649.1745888202895, -187500.02235174447, -67223.36318771401, -60677.43130653278, -40684.95818197229, -46853.30204407001, -68224.11784221148, -64671.84450290734, -0.08600000000000001, 0.962, 0.296, 192.0, 0.0, 0.0, 0.0, 0.0, 0.0, 0.0, 0.0, 0.0, 0.0, 1.695416712462554E9, 0.0, 2023-09-22 16:05:12.462
102.0, -21631.146565812418, -9189.986788032864, -66050.65656312187, -66820.65180786274, -33137.71285268222, -41233.15706648315, -187500.02235174447, -61770.74453481967, -6659.36698429191, -187500.02235174447, -67222.02208304669, -60684.15918161383, -40684.041760449625, -46867.160125632305, -68219.93806599833, -64673.11855234129, -0.08600000000000001, 0.962, 0.296, 192.0, 0.0, 0.0, 0.0, 0.0, 0.0, 0.0, 0.0, 0.0, 0.0, 1.695416712462557E9, 0.0, 2023-09-22 16:05:12.462
104.0, -21623.345806997517, -9188.221000220896, -66047.54967064258, -66815.60031361584, -33142.25025680665, -41229.29021469238, -187500.02235174447, -61774.678441843804, -6657.310623802022, -187500.02235174447, -67239.121167555, -60703.91812371232, -40691.68605705334, -46871.89869545683, -68227.22473469075, -64682.774505945985, -0.08600000000000001, 0.962, 0.296, 192.0, 0.0, 0.0, 0.0, 0.0, 0.0, 0.0, 0.0, 0.0, 0.0, 1.695416712462562E9, 0.0, 2023-09-22 16:05:12.462
106.0, -21622.049405819107, -9181.940160028955, -66044.84510956348, -66806.95018851163, -33135.9694166147, -41227.233854202495, -187500.02235174447, -61767.078848729, -6647.162931819312, -187500.02235174447, -67209.90743755191, -60672.849198919444, -40681.67247553736, -46846.1047823554, -68205.83411524702, -64661.115665568796, -0.08600000000000001, 0.962, 0.296, 192.0, 0.0, 0.0, 0.0, 0.0, 0.0, 0.0, 0.0, 0.0, 0.0, 1.695416712522807E9, 0.0, 2023-09-22 16:05:12.522
108.0, -21642.27773455116, -9200.782680604778, -66067.2415575077, -66827.75966259952, -33161.49510878266, -41257.431060961615, -187500.02235174447, -61801.61229391245, -6658.472914513697, -187500.02235174447, -67234.80728087513, -60694.731556741186, -40694.27885941015, -46868.54593378853, -68235.38312141695, -64688.027165892985, -0.084, 0.96, 0.304, 192.0, 126.5, 48.0, 15.0, 0.0, 4.5, 64.0, 0.0, 0.0, 0.0, 1.695416712522841E9, 0.0, 2023-09-22 16:05:12.522
110.0, -21628.33024601105, -9180.464944894904, -66052.86938582294, -66815.26503744902, -33159.01406514813, -41242.99183404349, -187500.02235174447, -61783.932064048306, -6667.860647184926, -187500.02235174447, -67225.6654173929, -60682.30398682404, -40708.02518225017, -46873.105689657415, -68233.1032434825, -64687.44602053714, -0.084, 0.96, 0.304, 192.0, 0.0, 0.0, 0.0, 0.0, 0.0, 0.0, 0.0, 0.0, 0.0, 1.695416712522844E9, 0.0, 2023-09-22 16:05:12.522
112.0, -21598.982405541232, -9148.054915434708, -66033.06574023554, -66793.98617672756, -33137.109355581924, -41219.187226198585, -187500.02235174447, -61768.71052607424, -6637.93166135927, -187500.02235174447, -67213.88604806496, -60670.16698958481, -40692.91540299838, -46854.95607315971, -68229.88459228094, -64679.84642742234, -0.084, 0.96, 0.304, 192.0, 0.0, 0.0, 0.0, 0.0, 0.0, 0.0, 0.0, 0.0, 0.0, 1.695416712522847E9, 0.0, 2023-09-22 16:05:12.522
114.0, -21585.236082701216, -9130.039409403731, -66007.00360620065, -66765.1077228913, -33115.47286694919, -41184.18439438158, -187500.02235174447, -61732.47834831219, -6622.732475129661, -187500.02235174447, -67177.51975983617, -60630.403236198814, -40658.62782700394, -46820.28851750953, -68195.28409186413, -64639.88150833625, -0.084, 0.96, 0.304, 192.0, 0.0, 0.0, 0.0, 0.0, 0.0, 0.0, 0.0, 0.0, 0.0, 1.695416712522851E9, 0.0, 2023-09-22 16:05:12.522
116.0, -21602.60338814299, -9156.615633561092, -66032.52929836861, -66793.36032788281, -33132.929579368785, -41206.93847023707, -187500.02235174447, -61758.0263922246, -6618.351533216422, -187500.02235174447, -67184.13587619494, -60633.57718391147, -40661.62296076095, -46809.26910749306, -68200.31323436656, -64639.993267058526, -0.084, 0.96, 0.304, 192.0, 0.0, 0.0, 0.0, 0.0, 0.0, 0.0, 0.0, 0.0, 0.0, 1.695416712522863E9, 0.0, 2023-09-22 16:05:12.522
118.0, -21618.94251333982, -9176.508686126315, -66039.4359874053, -66794.03088021647, -33150.45334702174, -41214.225138929505, -187500.02235174447, -61762.541444604576, -6654.941338889759, -187500.02235174447, -67211.40500443042, -60659.43815224626, -40687.953315729304, -46835.59946246141, -68226.86710677948, -64665.49660748203, -0.08600000000000001, 0.96, 0.296, 192.0, 126.5, 40.0, 15.0, 0.0, 4.5, 32.0, 0.0, 0.0, 0.0, 1.695416712522866E9, 0.0, 2023-09-22 16:05:12.522
120.0, -21627.637341932936, -9184.756479830323, -66041.2911821951, -66803.4186128877, -33141.17737307279, -41223.367002411724, -187500.02235174447, -61767.347069662464, -6650.783914421072, -187500.02235174447, -67211.1144317525, -60663.43911450376, -40687.103949439996, -46831.866721137376, -68223.69315906682, -64663.12732256977, -0.08600000000000001, 0.96, 0.296, 192.0, 0.0, 0.0, 0.0, 0.0, 0.0, 0.0, 0.0, 0.0, 0.0, 1.695416712583063E9, 0.0, 2023-09-22 16:05:12.583
122.0, -21612.348748725504, -9164.885779009555, -66016.30193189406, -66783.88318823375, -33125.732317654176, -41199.83061550029, -187500.02235174447, -61748.325735130995, -6647.989946364159, -187500.02235174447, -67195.93759726734, -60655.034858588566, -40677.02331269065, -46834.39246826083, -68206.57172281406, -64653.85134862082, -0.08600000000000001, 0.96, 0.296, 192.0, 0.0, 0.0, 0.0, 0.0, 0.0, 0.0, 0.0, 0.0, 0.0, 1.695416712583087E9, 0.0, 2023-09-22 16:05:12.583
124.0, -21637.248592048716, -9188.511572898815, -66041.51469963965, -66811.91227578072, -33137.19876255975, -41225.73628732399, -187500.02235174447, -61766.162427206335, -6645.531254474075, -187500.02235174447, -67205.12416423847, -60661.22629180268, -40675.83867023452, -46830.235043792134, -68209.85742924898, -64656.22063353308, -0.08600000000000001, 0.96, 0.296, 192.0, 0.0, 0.0, 0.0, 0.0, 0.0, 0.0, 0.0, 0.0, 0.0, 1.695416712583091E9, 0.0, 2023-09-22 16:05:12.583
126.0, -21612.1028795365, -9162.181217930463, -66012.18921091428, -66788.264130147, -33132.929579368785, -41204.25626090244, -187500.02235174447, -61749.15274967584, -6656.818885424004, -187500.02235174447, -67208.23105671776, -60664.75786742662, -40685.226402905755, -46846.61887247788, -68212.38317637243, -64665.653069693224, -0.08600000000000001, 0.96, 0.296, 192.0, 0.0, 0.0, 0.0, 0.0, 0.0, 0.0, 0.0, 0.0, 0.0, 1.695416712583094E9, 0.0, 2023-09-22 16:05:12.583
128.0, -21629.42548148936, -9183.638892607558, -66045.04627526358, -66819.84714506235, -33141.60205621744, -41227.94911002507, -187500.02235174447, -61765.871854528414, -6641.731457916672, -187500.02235174447, -67200.67616709186, -60661.449809247235, -40675.928077212346, -46831.50909322609, -68207.64460654791, -64657.44997947812, -0.076, 0.962, 0.296, 192.0, 126.5, 80.0, 15.0, 8.0, 4.5, 32.0, 0.0, 0.0, 0.0, 1.695416712583098E9, 0.0, 2023-09-22 16:05:12.583
130.0, -21615.835620860533, -9175.704023325923, -66030.584696601, -66799.97644424158, -33151.25800982214, -41214.359249396235, -187500.02235174447, -61767.03414524009, -6656.550664490541, -187500.02235174447, -67209.68392010736, -60672.80449543053, -40686.94748722881, -46843.5566834875, -68229.81753704758, -64672.24683430754, -0.076, 0.962, 0.296, 192.0, 0.0, 0.0, 0.0, 0.0, 0.0, 0.0, 0.0, 0.0, 0.0, 1.695416712583102E9, 0.0, 2023-09-22 16:05:12.583
132.0, -21650.90550791091, -9205.834174851678, -66062.90531908338, -66837.88500283778, -33162.38917856088, -41246.56811315633, -187500.02235174447, -61793.073927530524, -6660.216350581211, -187500.02235174447, -67216.21062948831, -60677.29719606605, -40694.12239719897, -46848.27290156757, -68233.93025802735, -64677.20892157662, -0.076, 0.962, 0.296, 192.0, 0.0, 0.0, 0.0, 0.0, 0.0, 0.0, 0.0, 0.0, 0.0, 1.695416712583105E9, 0.0, 2023-09-22 16:05:12.583
134.0, -21620.730652896244, -9168.640872078047, -66024.25915292015, -66789.49347609204, -33140.7750416726, -41203.56335682432, -187500.02235174447, -61752.7737322776, -6667.41361229582, -187500.02235174447, -67224.19020225885, -60678.68300422228, -40702.2584321807, -46857.2583028386, -68238.64647610742, -64681.65691872322, -0.076, 0.962, 0.296, 192.0, 0.0, 0.0, 0.0, 0.0, 0.0, 0.0, 0.0, 0.0, 0.0, 1.695416712583108E9, 0.0, 2023-09-22 16:05:12.583
136.0, -21646.301048553116, -9191.976093289388, -66044.84510956348, -66817.1202322388, -33138.78573641607, -41226.250377446464, -187500.02235174447, -61770.40925865284, -6653.153199333335, -187500.02235174447, -67201.43612640335, -60655.48189347767, -40690.255545408196, -46832.04553509301, -68209.9021327379, -64654.92423235467, -0.076, 0.962, 0.296, 192.0, 0.0, 0.0, 0.0, 0.0, 0.0, 0.0, 0.0, 0.0, 0.0, 1.695416712643272E9, 0.0, 2023-09-22 16:05:12.643
138.0, -21641.696589195322, -9192.691349111958, -66051.86355732246, -66822.35054044134, -33168.625315263904, -41230.29604319287, -187500.02235174447, -61784.669671615324, -6681.294045602566, -187500.02235174447, -67235.43312971988, -60688.96480667172, -40710.2603566957, -46862.04157615204, -68241.52985114216, -64687.33426181487, -0.08, 0.9580000000000001, 0.296, 192.0, 126.5, 64.0, 14.5, 120.0, 4.5, 32.0, 0.0, 0.0, 0.0, 1.695416712643284E9, 0.0, 2023-09-22 16:05:12.643
140.0, -21618.875458106453, -9174.586436103158, -66035.36796991444, -66804.20092394363, -33135.54473347005, -41214.649822074156, -187500.02235174447, -61763.39081089388, -6651.789742921561, -187500.02235174447, -67201.2126089588, -60657.98528885667, -40684.06411219408, -46835.26418629458, -68216.36178688548, -64659.39458124573, -0.08, 0.9580000000000001, 0.296, 192.0, 0.0, 0.0, 0.0, 0.0, 0.0, 0.0, 0.0, 0.0, 0.0, 1.695416712643288E9, 0.0, 2023-09-22 16:05:12.643
142.0, -21616.99791157221, -9172.217151190896, -66030.7858623011, -66798.85885701881, -33154.36490230142, -41216.57207209731, -187500.02235174447, -61762.69790681576, -6654.31549004501, -187500.02235174447, -67214.48954516526, -60677.00662338813, -40699.062132723586, -46842.684965453744, -68234.64551384992, -64672.55975872991, -0.08, 0.9580000000000001, 0.296, 192.0, 0.0, 0.0, 0.0, 0.0, 0.0, 0.0, 0.0, 0.0, 0.0, 1.695416712643292E9, 0.0, 2023-09-22 16:05:12.643
144.0, -21598.445963674305, -9154.38045911556, -66009.99873995766, -66777.53529280845, -33116.32223323849, -41196.54490906536, -187500.02235174447, -61742.06724668351, -6627.113417042901, -187500.02235174447, -67177.89973949191, -60640.483872948156, -40669.04373992011, -46813.15831102828, -68200.42499308885, -64641.669647892675, -0.08, 0.9580000000000001, 0.296, 192.0, 0.0, 0.0, 0.0, 0.0, 0.0, 0.0, 0.0, 0.0, 0.0, 1.695416712643295E9, 0.0, 2023-09-22 16:05:12.643
146.0, -21601.083469520032, -9153.32992712616, -66009.19407715727, -66778.3623073533, -33129.777983400585, -41198.10953117723, -187500.02235174447, -61744.95062171825, -6620.609059406407, -187500.02235174447, -67185.56638784008, -60640.39446597034, -40665.24394336271, -46815.81816861846, -68203.3530716125, -64647.23523226205, -0.08, 0.9580000000000001, 0.296, 192.0, 0.0, 0.0, 0.0, 0.0, 0.0, 0.0, 0.0, 0.0, 0.0, 1.695416712643301E9, 0.0, 2023-09-22 16:05:12.643
148.0, -21586.532483879626, -9136.029676917753, -65988.16108562483, -66767.74522873703, -33103.492331921145, -41182.37390308069, -187500.02235174447, -61727.60566802093, -6611.668361624284, -187500.02235174447, -67163.7063817628, -60617.01454127009, -40657.08555663652, -46803.21178474567, -68183.41531555836, -64628.54917389741, -0.08, 0.962, 0.3, 192.0, 126.5, 64.0, 15.0, 8.0, 4.5, 48.0, 0.0, 0.0, 0.0, 1.695416712643306E9, 0.0, 2023-09-22 16:05:12.643
150.0, -21615.880324349444, -9170.138438956552, -66026.20375468775, -66805.25145593303, -33144.84305916346, -41216.750886052956, -187500.02235174447, -61763.52492136061, -6621.771350118083, -187500.02235174447, -67184.87348376197, -60643.99309682764, -40671.658894021384, -46817.76277038608, -68203.75540301269, -64649.358647985304, -0.08, 0.962, 0.3, 192.0, 0.0, 0.0, 0.0, 0.0, 0.0, 0.0, 0.0, 0.0, 0.0, 1.695416712702624E9, 0.0, 2023-09-22 16:05:12.702
152.0, -21610.739423124724, -9162.225921419373, -66011.69747253627, -66784.35257486733, -33122.69248040825, -41200.56822306731, -187500.02235174447, -61743.4754065842, -6639.004545093125, -187500.02235174447, -67188.04743147462, -60649.513977708106, -40677.26918187967, -46827.50813096859, -68209.56685657107, -64651.727932897564, -0.08, 0.962, 0.3, 192.0, 0.0, 0.0, 0.0, 0.0, 0.0, 0.0, 0.0, 0.0, 0.0, 1.695416712702637E9, 0.0, 2023-09-22 16:05:12.702
154.0, -21625.8044988876, -9174.072345980687, -66032.7304640687, -66794.05323196092, -33141.825573662, -41212.124074950705, -187500.02235174447, -61757.154674190846, -6633.953050846226, -187500.02235174447, -67196.1611147119, -60659.75107666863, -40678.99026620272, -46824.91532861177, -68211.66792054987, -64652.93492709815, -0.08, 0.962, 0.3, 192.0, 0.0, 0.0, 0.0, 0.0, 0.0, 0.0, 0.0, 0.0, 0.0, 1.695416712702641E9, 0.0, 2023-09-22 16:05:12.702
156.0, -21628.218487288774, -9174.742898314345, -66029.06477797804, -66787.34770862434, -33133.957759613724, -41205.418551614115, -187500.02235174447, -61747.94575547526, -6653.063792355513, -187500.02235174447, -67199.98326301375, -60653.60434694342, -40683.14769067141, -46828.33514551343, -68214.90892349588, -64650.967973586085, -0.08, 0.962, 0.3, 192.0, 0.0, 0.0, 0.0, 0.0, 0.0, 0.0, 0.0, 0.0, 0.0, 1.695416712702644E9, 0.0, 2023-09-22 16:05:12.702
158.0, -21641.584830473046, -9189.942084543954, -66047.70613285377, -66806.14552571124, -33152.88968716737, -41230.25133970396, -187500.02235174447, -61772.666784842826, -6653.086144099969, -187500.02235174447, -67216.45649867732, -60667.03774536106, -40691.32842914205, -46831.77731415955, -68224.76604280068, -64664.02139234798, -0.082, 0.968, 0.296, 192.0, 126.5, 56.0, 15.0, 32.0, 4.5, 32.0, 0.0, 0.0, 0.0, 1.695416712702648E9, 0.0, 2023-09-22 16:05:12.702
160.0, -21614.60627491549, -9166.62921507707, -66027.92483901083, -66778.47406607558, -33134.114221824915, -41206.13380743669, -187500.02235174447, -61746.448188596754, -6651.633280710374, -187500.02235174447, -67200.09502173604, -60654.02903008807, -40684.77936801665, -46834.25835779409, -68215.24419966272, -64655.12539805477, -0.082, 0.968, 0.296, 192.0, 0.0, 0.0, 0.0, 0.0, 0.0, 0.0, 0.0, 0.0, 0.0, 1.695416712702652E9, 0.0, 2023-09-22 16:05:12.702
162.0, -21622.161164541383, -9181.828401306677, -66041.98408627321, -66797.56245584041, -33146.966474886714, -41228.619662358724, -187500.02235174447, -61766.40829639534, -6635.271803769088, -187500.02235174447, -67202.82193455959, -60660.8686638914, -40680.532536570136, -46828.6033664469, -68214.35012988451, -64652.644354420234, -0.082, 0.968, 0.296, 192.0, 0.0, 0.0, 0.0, 0.0, 0.0, 0.0, 0.0, 0.0, 0.0, 1.695416712702656E9, 0.0, 2023-09-22 16:05:12.702
164.0, -21608.079565534543, -9166.249235421328, -66030.07060647853, -66767.87933920376, -33140.86444865041, -41212.86168251773, -187500.02235174447, -61753.444284611265, -6646.805303908027, -187500.02235174447, -67197.6139781015, -60656.979460356175, -40679.973742958755, -46837.16408457328, -68213.16548742837, -64655.6618399217, -0.082, 0.968, 0.296, 192.0, 0.0, 0.0, 0.0, 0.0, 0.0, 0.0, 0.0, 0.0, 0.0, 1.695416712702661E9, 0.0, 2023-09-22 16:05:12.702
166.0, -21623.882248864444, -9179.079136738676, -66053.62934513442, -66783.4138016002, -33148.441690020765, -41228.5302553809, -187500.02235174447, -61772.08563948699, -6642.938452117259, -187500.02235174447, -67209.03571951816, -60659.52755922408, -40674.07288242255, -46826.055267578995, -68214.37248162896, -64652.75611314251, -0.082, 0.968, 0.296, 192.0, 0.0, 0.0, 0.0, 0.0, 0.0, 0.0, 0.0, 0.0, 0.0, 1.69541671276245E9, 0.0, 2023-09-22 16:05:12.762
168.0, -21606.47023993376, -9158.873159751078, -66031.81404254604, -66757.66459198769, -33139.925675383296, -41204.27861264689, -187500.02235174447, -61741.1731769053, -6644.078391084479, -187500.02235174447, -67209.23688521826, -60655.75011441113, -40673.201164388796, -46826.301136768, -68210.68444379383, -64648.88926135174, -0.082, 0.962, 0.3, 192.0, 126.5, 56.0, 15.0, 8.0, 4.5, 48.0, 0.0, 0.0, 0.0, 1.695416712762463E9, 0.0, 2023-09-22 16:05:12.762
170.0, -21613.55574292609, -9172.999462246831, -66048.8907753099, -66779.2116736426, -33137.042300348556, -41224.12696172321, -187500.02235174447, -61756.95350849075, -6633.237795023656, -187500.02235174447, -67208.99101602925, -60662.790913914556, -40666.16036488538, -46814.45471220669, -68201.31906286706, -64643.770711871475, -0.082, 0.962, 0.3, 192.0, 0.0, 0.0, 0.0, 0.0, 0.0, 0.0, 0.0, 0.0, 0.0, 1.695416712762468E9, 0.0, 2023-09-22 16:05:12.762
172.0, -21607.766641112168, -9171.568950601692, -66041.15707172836, -66771.34385959433, -33144.50778299663, -41216.01327848593, -187500.02235174447, -61752.63962181087, -6639.004545093125, -187500.02235174447, -67211.7179288528, -60668.46825700621, -40668.46259456428, -46828.17868330225, -68203.62129254595, -64648.93396484065, -0.082, 0.962, 0.3, 192.0, 0.0, 0.0, 0.0, 0.0, 0.0, 0.0, 0.0, 0.0, 0.0, 1.695416712762472E9, 0.0, 2023-09-22 16:05:12.762
174.0, -21621.55766744109, -9180.733165828367, -66067.62153716345, -66790.38754587025, -33149.51457375462, -41238.610892130244, -187500.02235174447, -61775.952491277756, -6644.0113358511135, -187500.02235174447, -67226.47008019329, -60677.69952746625, -40676.688036523825, -46828.67042168027, -68207.28697863662, -64657.69584866713, -0.082, 0.962, 0.3, 192.0, 0.0, 0.0, 0.0, 0.0, 0.0, 0.0, 0.0, 0.0, 0.0, 1.695416712762477E9, 0.0, 2023-09-22 16:05:12.762
176.0, -21601.5975596425, -9159.700174295924, -66039.21246996075, -66754.91532741969, -33145.20068707474, -41215.74505755246, -187500.02235174447, -61759.03222072509, -6654.829580167482, -187500.02235174447, -67232.12507154049, -60671.239873318664, -40696.04464722212, -46832.336107770934, -68214.46188860678, -64660.86979637978, -0.082, 0.962, 0.3, 192.0, 0.0, 0.0, 0.0, 0.0, 0.0, 0.0, 0.0, 0.0, 0.0, 1.695416712762481E9, 0.0, 2023-09-22 16:05:12.762
178.0, -21617.22142901676, -9178.989729760853, -66048.77901658762, -66768.95222293762, -33139.210419560724, -41228.10557223625, -187500.02235174447, -61757.53465384658, -6636.814074136505, -187500.02235174447, -67218.35639695602, -60656.75594291162, -40667.9485044418, -46816.958107585684, -68192.33366159603, -64638.16042401319, -0.08, 0.96, 0.298, 192.0, 126.5, 64.0, 15.0, 0.0, 4.5, 40.0, 0.0, 0.0, 0.0, 1.695416712762485E9, 0.0, 2023-09-22 16:05:12.762
180.0, -21581.525693121635, -9148.636060790546, -66019.72174879572, -66741.99601912452, -33124.59237868695, -41197.41662709911, -187500.02235174447, -61735.65229602484, -6637.663440425807, -187500.02235174447, -67223.13967026945, -60660.77925691358, -40667.00973117468, -46828.31279376898, -68201.34141461151, -64645.60355491681, -0.08, 0.96, 0.298, 192.0, 0.0, 0.0, 0.0, 0.0, 0.0, 0.0, 0.0, 0.0, 0.0, 1.695416712822832E9, 0.0, 2023-09-22 16:05:12.822
182.0, -21577.882358775423, -9152.167636414486, -66020.28054240711, -66753.12718786325, -33106.19689300023, -41201.59640331226, -187500.02235174447, -61729.30440059953, -6604.985190032147, -187500.02235174447, -67191.42254488738, -60638.67338164728, -40633.415059258354, -46799.546098655, -68169.84780667399, -64616.18865921363, -0.08, 0.96, 0.298, 192.0, 0.0, 0.0, 0.0, 0.0, 0.0, 0.0, 0.0, 0.0, 0.0, 1.695416712822844E9, 0.0, 2023-09-22 16:05:12.822
184.0, -21582.50916987767, -9156.43681960545, -66021.04050171858, -66751.6072692403, -33127.60986418842, -41199.741208522464, -187500.02235174447, -61739.29563037105, -6618.083312282957, -187500.02235174447, -67207.29228345065, -60661.53921622506, -40654.738623468715, -46818.90270935329, -68182.94592892479, -64632.103101265806, -0.08, 0.96, 0.298, 192.0, 0.0, 0.0, 0.0, 0.0, 0.0, 0.0, 0.0, 0.0, 0.0, 1.695416712822848E9, 0.0, 2023-09-22 16:05:12.822
186.0, -21620.7530046407, -9190.858506066621, -66060.64779289339, -66791.59454007084, -33148.24052432067, -41230.787781570885, -187500.02235174447, -61762.56379634903, -6627.35928623191, -187500.02235174447, -67216.56825739959, -60665.85310290493, -40662.986417172724, -46816.84634886341, -68193.47360056324, -64637.42281644617, -0.08, 0.96, 0.298, 192.0, 0.0, 0.0, 0.0, 0.0, 0.0, 0.0, 0.0, 0.0, 0.0, 1.695416712822851E9, 0.0, 2023-09-22 16:05:12.822
188.0, -21592.813324071565, -9162.941177241943, -66032.35048441296, -66759.69860073311, -33136.95289337074, -41206.08910394777, -187500.02235174447, -61748.16927291981, -6643.117266072902, -187500.02235174447, -67238.16004254342, -60685.58969325897, -40685.71814128377, -46839.622776463366, -68218.93223749784, -64665.004869104014, -0.074, 0.962, 0.298, 192.0, 126.5, 88.0, 15.0, 8.0, 4.5, 40.0, 0.0, 0.0, 0.0, 1.695416712822855E9, 0.0, 2023-09-22 16:05:12.822
190.0, -21603.98919629922, -9171.926578512977, -66037.44668214879, -66778.51876956449, -33128.50393396663, -41219.187226198585, -187500.02235174447, -61750.18092992079, -6612.383617446854, -187500.02235174447, -67204.18539097135, -60652.777332398575, -40651.67643447834, -46804.955220813186, -68185.13639988142, -64632.572487899364, -0.074, 0.962, 0.298, 192.0, 0.0, 0.0, 0.0, 0.0, 0.0, 0.0, 0.0, 0.0, 0.0, 1.695416712822858E9, 0.0, 2023-09-22 16:05:12.822
192.0, -21614.94155108232, -9188.19864847644, -66053.33877245651, -66796.13194419527, -33158.11999536991, -41231.23481646, -187500.02235174447, -61776.46658140023, -6638.512806715108, -187500.02235174447, -67239.18822278836, -60693.83748696298, -40685.71814128377, -46843.7578491876, -68221.52503985465, -64669.11759008379, -0.074, 0.962, 0.298, 192.0, 0.0, 0.0, 0.0, 0.0, 0.0, 0.0, 0.0, 0.0, 0.0, 1.695416712822862E9, 0.0, 2023-09-22 16:05:12.822
194.0, -21608.079565534543, -9184.309444941216, -66049.56132764356, -66793.7179557941, -33134.78477415857, -41225.199845457064, -187500.02235174447, -61763.39081089388, -6635.607079935919, -187500.02235174447, -67226.9171150824, -60686.21554210372, -40679.39259760292, -46840.315680541484, -68214.39483337342, -64662.792046402945, -0.074, 0.962, 0.298, 192.0, 0.0, 0.0, 0.0, 0.0, 0.0, 0.0, 0.0, 0.0, 0.0, 1.695416712822865E9, 0.0, 2023-09-22 16:05:12.822
196.0, -21612.773431870155, -9188.422165920992, -66051.19300498879, -66805.3185111664, -33150.36394004392, -41237.44860141857, -187500.02235174447, -61774.79020056608, -6628.7450943881395, -187500.02235174447, -67233.35441748553, -60695.15623988584, -40674.92224871186, -46840.76271543059, -68216.16062118538, -64667.35180227183, -0.074, 0.962, 0.298, 192.0, 0.0, 0.0, 0.0, 0.0, 0.0, 0.0, 0.0, 0.0, 0.0, 1.695416712883068E9, 0.0, 2023-09-22 16:05:12.883
198.0, -21597.84246657401, -9175.927540770477, -66037.4913856377, -66785.760734768, -33126.51462871011, -41227.94911002507, -187500.02235174447, -61760.93211900379, -6631.874338611882, -187500.02235174447, -67220.65862663492, -60683.57803625799, -40676.01748419017, -46842.46144800919, -68203.66599603486, -64663.41789524769, -0.08, 0.96, 0.296, 192.0, 126.5, 64.0, 15.0, 0.0, 4.5, 32.0, 0.0, 0.0, 0.0, 1.695416712883078E9, 0.0, 2023-09-22 16:05:12.883
200.0, -21599.720013108257, -9176.419279148493, -66041.46999615074, -66783.07852543338, -33142.89845739585, -41230.027822259406, -187500.02235174447, -61763.39081089388, -6623.715951885695, -187500.02235174447, -67229.53226918368, -60685.992024659165, -40680.68899878133, -46845.68009921075, -68214.17131592886, -64667.28474703846, -0.08, 0.96, 0.296, 192.0, 0.0, 0.0, 0.0, 0.0, 0.0, 0.0, 0.0, 0.0, 0.0, 1.695416712883082E9, 0.0, 2023-09-22 16:05:12.883
202.0, -21596.344899695505, -9167.947967999931, -66026.94136225479, -66771.94735669463, -33125.17352404279, -41215.94622325256, -187500.02235174447, -61750.18092992079, -6614.685847125751, -187500.02235174447, -67198.5080478797, -60655.794817900045, -40660.70653923828, -46830.63737519233, -68194.56883604155, -64645.5588514279, -0.08, 0.96, 0.296, 192.0, 0.0, 0.0, 0.0, 0.0, 0.0, 0.0, 0.0, 0.0, 0.0, 1.695416712883085E9, 0.0, 2023-09-22 16:05:12.883
204.0, -21617.109670294485, -9188.980959532377, -66051.95296430028, -66798.41182212971, -33150.09571911046, -41239.61672063074, -187500.02235174447, -61774.0302412546, -6622.441902451743, -187500.02235174447, -67216.07651902158, -60676.33607105447, -40679.079673180546, -46833.56545371598, -68213.92544673986, -64660.08748532385, -0.08, 0.96, 0.296, 192.0, 0.0, 0.0, 0.0, 0.0, 0.0, 0.0, 0.0, 0.0, 0.0, 1.695416712883089E9, 0.0, 2023-09-22 16:05:12.883
206.0, -21610.40414695789, -9181.895456540044, -66042.7440455847, -66791.10280169282, -33141.80322191754, -41227.993813513975, -187500.02235174447, -61766.587110350985, -6640.971498605192, -187500.02235174447, -67225.15132727043, -60689.143620627365, -40686.52280408416, -46850.865703924384, -68227.78352830214, -64673.967918630595, -0.08, 0.96, 0.296, 192.0, 0.0, 0.0, 0.0, 0.0, 0.0, 0.0, 0.0, 0.0, 0.0, 1.695416712883093E9, 0.0, 2023-09-22 16:05:12.883
208.0, -21611.65584464739, -9184.376500174583, -66046.72265609773, -66800.2670169195, -33141.46794575071, -41234.76639208393, -187500.02235174447, -61769.828113297, -6623.604193163418, -187500.02235174447, -67225.97834181528, -60689.47889679419, -40685.42756860585, -46840.00275611911, -68222.86614452198, -64673.61029071931, -0.078, 0.9580000000000001, 0.298, 192.0, 126.5, 72.0, 14.5, 120.0, 4.5, 40.0, 0.0, 0.0, 0.0, 1.695416712883096E9, 0.0, 2023-09-22 16:05:12.883
210.0, -21588.812361814067, -9158.403773117516, -66020.72757729622, -66783.77142951149, -33121.999576330134, -41213.82280752931, -187500.02235174447, -61749.800950265046, -6610.282553468055, -187500.02235174447, -67195.66937633388, -60657.270033034096, -40660.28185609363, -46824.580052444944, -68196.78165874264, -64651.258546264005, -0.078, 0.9580000000000001, 0.298, 192.0, 0.0, 0.0, 0.0, 0.0, 0.0, 0.0, 0.0, 0.0, 0.0, 1.695416712943419E9, 0.0, 2023-09-22 16:05:12.943
212.0, -21605.71028062228, -9179.347357672139, -66038.29604843809, -66806.95018851163, -33137.8693148934, -41242.16481949864, -187500.02235174447, -61777.204188967255, -6613.0765215249685, -187500.02235174447, -67211.67322536388, -60675.643166976355, -40678.0514929356, -46834.88420663884, -68212.89726649491, -64672.26918605199, -0.078, 0.9580000000000001, 0.298, 192.0, 0.0, 0.0, 0.0, 0.0, 0.0, 0.0, 0.0, 0.0, 0.0, 1.695416712943432E9, 0.0, 2023-09-22 16:05:12.943
214.0, -21579.93871926531, -9152.771133514778, -66007.94237946777, -66775.92596720767, -33118.937387339756, -41208.5254440934, -187500.02235174447, -61745.77763626309, -6610.461367423698, -187500.02235174447, -67193.2106844438, -60658.00764060112, -40665.71332999627, -46833.92308162726, -68205.16356291337, -64665.98834586005, -0.078, 0.9580000000000001, 0.298, 192.0, 0.0, 0.0, 0.0, 0.0, 0.0, 0.0, 0.0, 0.0, 0.0, 1.695416712943436E9, 0.0, 2023-09-22 16:05:12.943
216.0, -21604.480934677238, -9171.367784901595, -66026.1366994544, -66786.6101010573, -33123.85477111993, -41217.73436280899, -187500.02235174447, -61752.1255316884, -6598.436128906743, -187500.02235174447, -67193.54596061063, -60653.11260856541, -40660.86300144947, -46820.22146227616, -68197.27339712065, -64652.75611314251, -0.078, 0.9580000000000001, 0.298, 192.0, 0.0, 0.0, 0.0, 0.0, 0.0, 0.0, 0.0, 0.0, 0.0, 1.695416712943439E9, 0.0, 2023-09-22 16:05:12.943
218.0, -21603.117478265463, -9172.395965146537, -66024.16974594233, -66785.5595690679, -33125.53115195408, -41211.006487727944, -187500.02235174447, -61750.292688643065, -6615.624620392874, -187500.02235174447, -67192.27191117668, -60657.538253967556, -40668.52964979764, -46826.681116423744, -68197.36280409846, -64648.03989506244, -0.076, 0.964, 0.298, 192.0, 126.5, 80.0, 15.0, 16.0, 4.5, 40.0, 0.0, 0.0, 0.0, 1.695416712943443E9, 0.0, 2023-09-22 16:05:12.943
220.0, -21645.876365408465, -9216.942991845965, -66073.72356339975, -66834.75575861403, -33158.03058839209, -41257.94515108409, -187500.02235174447, -61790.32466296252, -6633.327202001477, -187500.02235174447, -67222.69263538034, -60692.38462357338, -40680.86781273697, -46840.42743926376, -68219.08869970903, -64671.01748836249, -0.076, 0.964, 0.298, 192.0, 0.0, 0.0, 0.0, 0.0, 0.0, 0.0, 0.0, 0.0, 0.0, 1.695416712943446E9, 0.0, 2023-09-22 16:05:12.943
222.0, -21614.695681893314, -9183.214209462907, -66032.8869262799, -66793.69560404964, -33142.40671901783, -41223.25524368945, -187500.02235174447, -61764.21782543872, -6647.967594619703, -187500.02235174447, -67230.60515291753, -60699.96186494373, -40697.83278677855, -46863.98617791965, -68235.62899060595, -64683.690927468655, -0.076, 0.964, 0.298, 192.0, 0.0, 0.0, 0.0, 0.0, 0.0, 0.0, 0.0, 0.0, 0.0, 1.695416712943449E9, 0.0, 2023-09-22 16:05:12.943
224.0, -21625.759795398688, -9195.462965424415, -66050.74597009968, -66802.5692465984, -33139.836268405474, -41239.43790667509, -187500.02235174447, -61769.872816785915, -6621.2349082511555, -187500.02235174447, -67207.00171077272, -60675.24083557616, -40679.43730109183, -46833.811322904985, -68207.08581293652, -64655.28186026596, -0.076, 0.964, 0.298, 192.0, 0.0, 0.0, 0.0, 0.0, 0.0, 0.0, 0.0, 0.0, 0.0, 1.695416712943452E9, 0.0, 2023-09-22 16:05:12.943
226.0, -21621.110632551987, -9187.997482776342, -66047.48261540922, -66791.97451972659, -33150.073367366, -41229.35726992575, -187500.02235174447, -61773.359688920944, -6646.537082974563, -187500.02235174447, -67230.18046977288, -60688.96480667172, -40695.59761233302, -46854.37492780387, -68233.2597056937, -64675.89016865375, -0.076, 0.964, 0.298, 192.0, 0.0, 0.0, 0.0, 0.0, 0.0, 0.0, 0.0, 0.0, 0.0, 1.695416713002855E9, 0.0, 2023-09-22 16:05:13.002
228.0, -21618.02609181715, -9184.264741452305, -66037.20081295977, -66791.79570577094, -33124.950006598236, -41223.76933381192, -187500.02235174447, -61756.104142201446, -6625.906422842315, -187500.02235174447, -67207.26993170619, -60665.07079184899, -40674.65402777839, -46825.764694901074, -68206.3035018806, -64649.17983402966, -0.076, 0.96, 0.298, 192.0, 126.5, 80.0, 15.0, 0.0, 4.5, 40.0, 0.0, 0.0, 0.0, 1.695416713002867E9, 0.0, 2023-09-22 16:05:13.002
230.0, -21621.13298429644, -9187.304578698227, -66042.63228686241, -66802.25632217602, -33145.62537021939, -41233.71586009453, -187500.02235174447, -61775.30429068855, -6631.717876400695, -187500.02235174447, -67218.02112078918, -60683.17570485779, -40684.64525754991, -46847.937625400744, -68222.41910963287, -64668.96112787261, -0.076, 0.96, 0.298, 192.0, 0.0, 0.0, 0.0, 0.0, 0.0, 0.0, 0.0, 0.0, 0.0, 1.69541671300287E9, 0.0, 2023-09-22 16:05:13.002
232.0, -21637.919144382377, -9204.828346351189, -66063.79938886159, -66826.23974397656, -33141.0209108616, -41243.930607310605, -187500.02235174447, -61772.51032263164, -6630.890861855849, -187500.02235174447, -67218.11052776701, -60684.6732717363, -40680.28666738113, -46847.40118353381, -68224.11784221148, -64672.224482563084, -0.076, 0.96, 0.298, 192.0, 0.0, 0.0, 0.0, 0.0, 0.0, 0.0, 0.0, 0.0, 0.0, 1.695416713002873E9, 0.0, 2023-09-22 16:05:13.002
234.0, -21619.143679039917, -9184.28709319676, -66041.71586533975, -66796.78014478447, -33142.31731204001, -41223.97049951202, -187500.02235174447, -61768.822284796515, -6636.054114825024, -187500.02235174447, -67229.71108313932, -60694.955074185746, -40692.602478576, -46856.65480573831, -68233.23735394924, -64682.99802339054, -0.076, 0.96, 0.298, 192.0, 0.0, 0.0, 0.0, 0.0, 0.0, 0.0, 0.0, 0.0, 0.0, 1.695416713002877E9, 0.0, 2023-09-22 16:05:13.002
236.0, -21638.544993227126, -9205.990637062865, -66064.62640340644, -66815.10857523783, -33145.55831498603, -41240.62254913122, -187500.02235174447, -61783.17210473682, -6627.895728098837, -187500.02235174447, -67216.97058879978, -60677.811286188524, -40678.31971386907, -46835.979442117154, -68219.22281017576, -64666.32362202688, -0.076, 0.96, 0.298, 192.0, 0.0, 0.0, 0.0, 0.0, 0.0, 0.0, 0.0, 0.0, 0.0, 1.69541671300288E9, 0.0, 2023-09-22 16:05:13.002
238.0, -21628.93374311134, -9196.468793924903, -66046.342676442, -66799.23883667456, -33151.99561738916, -41228.23968270298, -187500.02235174447, -61774.52197963262, -6645.039516096058, -187500.02235174447, -67235.45548146433, -60697.63728352038, -40699.71033331279, -46853.50320977011, -68236.09837723951, -64679.980537889074, -0.076, 0.962, 0.298, 192.0, 126.5, 80.0, 15.0, 8.0, 4.5, 40.0, 0.0, 0.0, 0.0, 1.695416713002883E9, 0.0, 2023-09-22 16:05:13.002
240.0, -21639.059083349595, -9203.91192482852, -66048.0414090206, -66804.6703105772, -33146.43003301979, -41234.16289498364, -187500.02235174447, -61772.733840076195, -6640.032725338069, -187500.02235174447, -67219.51868766769, -60684.516809525114, -40692.33425764254, -46840.65095670831, -68220.29569390962, -64665.720124926585, -0.076, 0.962, 0.298, 192.0, 0.0, 0.0, 0.0, 0.0, 0.0, 0.0, 0.0, 0.0, 0.0, 1.6954167130626E9, 0.0, 2023-09-22 16:05:13.062
242.0, -21640.690760694833, -9207.599962663648, -66052.35529570047, -66806.10082222233, -33159.17052735931, -41238.476781663514, -187500.02235174447, -61786.05547977156, -6641.9549753612255, -187500.02235174447, -67225.57601041508, -60688.54012352707, -40698.27982166765, -46845.61304397739, -68230.44338589233, -64678.147694843734, -0.076, 0.962, 0.298, 192.0, 0.0, 0.0, 0.0, 0.0, 0.0, 0.0, 0.0, 0.0, 0.0, 1.695416713062614E9, 0.0, 2023-09-22 16:05:13.062
244.0, -21654.705304468313, -9221.614506437125, -66056.06568528005, -66814.01333975952, -33141.78087017308, -41239.59436888628, -187500.02235174447, -61773.024412754115, -6651.253301054633, -187500.02235174447, -67219.83161209007, -60679.8229431895, -40690.881394252945, -46843.93666314324, -68222.10618521049, -64671.12924708477, -0.076, 0.962, 0.298, 192.0, 0.0, 0.0, 0.0, 0.0, 0.0, 0.0, 0.0, 0.0, 0.0, 1.695416713062618E9, 0.0, 2023-09-22 16:05:13.062
246.0, -21670.396229075937, -9233.505634487348, -66054.12108351244, -66818.2154677171, -33153.202611589746, -41239.70612760856, -187500.02235174447, -61779.03703201259, -6665.469010528209, -187500.02235174447, -67249.11239732652, -60713.261152894636, -40712.54023463014, -46862.198038363225, -68243.13917674293, -64691.6705002392, -0.076, 0.962, 0.298, 192.0, 0.0, 0.0, 0.0, 0.0, 0.0, 0.0, 0.0, 0.0, 0.0, 1.695416713062621E9, 0.0, 2023-09-22 16:05:13.062
248.0, -21668.13870288595, -9234.578518221202, -66040.2853536946, -66802.27867392047, -33131.54377121255, -41221.37769715521, -187500.02235174447, -61756.7746945351, -6651.074487098991, -187500.02235174447, -67219.76455685671, -60689.63535900538, -40682.29832438211, -46842.193227075724, -68213.99250197322, -64661.1603690577, -0.07200000000000001, 0.966, 0.296, 192.0, 126.5, 96.0, 15.0, 24.0, 4.5, 32.0, 0.0, 0.0, 0.0, 1.695416713062624E9, 0.0, 2023-09-22 16:05:13.062
250.0, -21689.283453140673, -9255.20917835345, -66045.06862700805, -66801.56341809791, -33138.04812884905, -41225.66923209062, -187500.02235174447, -61763.34610740496, -6653.488475500164, -187500.02235174447, -67236.34955124254, -60703.64990277886, -40684.734664527736, -46841.008584619594, -68224.4531183783, -64667.664726694195, -0.07200000000000001, 0.966, 0.296, 192.0, 0.0, 0.0, 0.0, 0.0, 0.0, 0.0, 0.0, 0.0, 0.0, 1.695416713062627E9, 0.0, 2023-09-22 16:05:13.062
252.0, -21697.240674166762, -9260.059506900252, -66032.81987104654, -66793.38267962726, -33122.37955598588, -41213.26401391793, -187500.02235174447, -61751.58908982147, -6664.12790586089, -187500.02235174447, -67220.16688825689, -60687.22137060421, -40684.33233312754, -46837.56641597348, -68205.38708035792, -64652.37613348677, -0.07200000000000001, 0.966, 0.296, 192.0, 0.0, 0.0, 0.0, 0.0, 0.0, 0.0, 0.0, 0.0, 0.0, 1.695416713062631E9, 0.0, 2023-09-22 16:05:13.062
254.0, -21720.15121223345, -9280.287835632305, -66051.81885383354, -66810.34765366884, -33134.44949799174, -41228.150275725166, -187500.02235174447, -61767.41412489583, -6665.98310065068, -187500.02235174447, -67240.26110652222, -60703.94047545677, -40688.66857155187, -46838.72870668516, -68219.98276948724, -64667.84354064984, -0.07200000000000001, 0.966, 0.296, 192.0, 0.0, 0.0, 0.0, 0.0, 0.0, 0.0, 0.0, 0.0, 0.0, 1.695416713062634E9, 0.0, 2023-09-22 16:05:13.062
0.0, -21724.599209380056, -9284.489963589904, -66041.5370513841, -66806.54785711144, -33125.03941357606, -41215.409781385635, -187500.02235174447, -61752.84078751097, -6673.113307131924, -187500.02235174447, -67229.08523429457, -60696.899675953355, -40687.84155700702, -46835.86768339488, -68207.82342050356, -64658.74638065653, -0.07200000000000001, 0.966, 0.296, 192.0, 0.0, 0.0, 0.0, 0.0, 0.0, 0.0, 0.0, 0.0, 0.0, 1.695416713124244E9, 0.0, 2023-09-22 16:05:13.124
2.0, -21754.528195205712, -9312.295533692304, -66052.51175791166, -66816.20381071614, -33139.88097189438, -41228.01616525843, -187500.02235174447, -61769.64929934136, -6684.9820834376915, -187500.02235174447, -67254.25329855124, -60720.90544949835, -40705.03004849316, -46843.78020093205, -68225.05661547859, -64673.27501455248, -0.074, 0.964, 0.294, 192.0, 126.5, 88.0, 15.0, 16.0, 4.5, 24.0, 0.0, 0.0, 0.0, 1.695416713124256E9, 0.0, 2023-09-22 16:05:13.124
4.0, -21738.814918853634, -9287.88742874711, -66036.4408536483, -66801.22814193107, -33128.01219558861, -41209.15129293815, -187500.02235174447, -61757.69111605777, -6692.4922695746745, -187500.02235174447, -67239.74701639975, -60707.06971968052, -40697.49751061172, -46840.33803228594, -68216.94293224132, -64662.97086035858, -0.074, 0.964, 0.294, 192.0, 0.0, 0.0, 0.0, 0.0, 0.0, 0.0, 0.0, 0.0, 0.0, 1.69541671312426E9, 0.0, 2023-09-22 16:05:13.124
6.0, -21762.507767976258, -9309.054530746285, -66063.8440923505, -66832.8782120798, -33150.90038191085, -41235.481647906505, -187500.02235174447, -61769.42578189681, -6691.061757929535, -187500.02235174447, -67251.10170258304, -60720.27960065361, -40703.08544672554, -46846.7082794557, -68226.62123759047, -64670.95043312913, -0.074, 0.964, 0.294, 192.0, 0.0, 0.0, 0.0, 0.0, 0.0, 0.0, 0.0, 0.0, 0.0, 1.695416713124263E9, 0.0, 2023-09-22 16:05:13.124
8.0, -21734.72454961831, -9288.60268456968, -66044.80040607457, -66810.3700054133, -33137.2211143042, -41216.169740697114, -187500.02235174447, -61764.59780509446, -6690.458260829242, -187500.02235174447, -67241.49045246726, -60715.74219652918, -40705.09710372652, -46857.146544116324, -68224.72133931177, -64672.917386641195, -0.074, 0.964, 0.294, 192.0, 0.0, 0.0, 0.0, 0.0, 0.0, 0.0, 0.0, 0.0, 0.0, 1.695416713124266E9, 0.0, 2023-09-22 16:05:13.124
10.0, -21752.136558548995, -9303.354835910182, -66065.69928714029, -66834.88986908077, -33152.39794878935, -41248.9373980686, -187500.02235174447, -61789.96703505123, -6682.903371203348, -187500.02235174447, -67249.58178396008, -60722.80534777705, -40702.03491473614, -46857.34770981642, -68229.37050215846, -64678.6170814773, -0.074, 0.964, 0.294, 192.0, 0.0, 0.0, 0.0, 0.0, 0.0, 0.0, 0.0, 0.0, 0.0, 1.695416713124269E9, 0.0, 2023-09-22 16:05:13.124
12.0, -21714.29505518616, -9264.015765668843, -66029.86944077844, -66805.20675244412, -33137.44463174875, -41218.896653520664, -187500.02235174447, -61760.84271202597, -6683.1045369034455, -187500.02235174447, -67236.68482740936, -60709.05902493704, -40709.25452819521, -46857.48182028316, -68224.4978218672, -64673.65499420822, -0.076, 0.962, 0.294, 192.0, 126.5, 80.0, 15.0, 8.0, 4.5, 24.0, 0.0, 0.0, 0.0, 1.695416713124272E9, 0.0, 2023-09-22 16:05:13.124
14.0, -21721.760537834234, -9275.191637896496, -66046.45443516427, -66819.78008982899, -33137.84696314895, -41237.359194440745, -187500.02235174447, -61772.71148833174, -6666.541894262064, -187500.02235174447, -67231.20865001783, -60702.64407427837, -40702.61606009198, -46844.74132594363, -68213.79133627312, -64664.7142964261, -0.076, 0.962, 0.294, 192.0, 0.0, 0.0, 0.0, 0.0, 0.0, 0.0, 0.0, 0.0, 0.0, 1.695416713183155E9, 0.0, 2023-09-22 16:05:13.183
16.0, -21712.7751365632, -9257.801980710266, -66038.586621116, -66807.95601701213, -33149.71573945472, -41223.031726244895, -187500.02235174447, -61764.30723241654, -6678.678891501295, -187500.02235174447, -67235.50018495324, -60704.70043476826, -40710.9085572849, -46856.20777084921, -68219.73690029823, -64668.20116856113, -0.076, 0.962, 0.294, 192.0, 0.0, 0.0, 0.0, 0.0, 0.0, 0.0, 0.0, 0.0, 0.0, 1.695416713183169E9, 0.0, 2023-09-22 16:05:13.183
18.0, -21720.553543633647, -9266.40740232556, -66055.57394690203, -66829.81602308941, -33152.10737611144, -41245.91991256713, -187500.02235174447, -61785.00494778216, -6667.726536718194, -187500.02235174447, -67236.7742343872, -60704.54397255707, -40702.77252230317, -46848.89875041232, -68223.24612417772, -64668.98347961706, -0.076, 0.962, 0.294, 192.0, 0.0, 0.0, 0.0, 0.0, 0.0, 0.0, 0.0, 0.0, 0.0, 1.695416713183172E9, 0.0, 2023-09-22 16:05:13.183
20.0, -21669.636269764458, -9218.529965702292, -66014.51379233763, -66785.33605162335, -33132.46019273522, -41203.16102542413, -187500.02235174447, -61754.27129915611, -6657.735306946673, -187500.02235174447, -67224.59253365904, -60690.752946228145, -40703.82305429257, -46851.26803532458, -68223.35788289999, -64670.92808138467, -0.076, 0.962, 0.294, 192.0, 0.0, 0.0, 0.0, 0.0, 0.0, 0.0, 0.0, 0.0, 0.0, 1.695416713183176E9, 0.0, 2023-09-22 16:05:13.183
22.0, -21691.00453746373, -9241.127579346607, -66038.92189728282, -66816.60614211633, -33131.23084679018, -41230.1842844706, -187500.02235174447, -61769.78340980809, -6635.0259345800805, -187500.02235174447, -67200.98909151425, -60669.58584422897, -40674.318751611565, -46819.46150296468, -68199.24035063271, -64648.7104473961, -0.07200000000000001, 0.9580000000000001, 0.296, 192.0, 126.5, 96.0, 14.5, 120.0, 4.5, 32.0, 0.0, 0.0, 0.0, 1.695416713183179E9, 0.0, 2023-09-22 16:05:13.183
24.0, -21689.708136285324, -9241.664021213535, -66041.67116185083, -66823.8257555754, -33146.81001267553, -41229.893711792676, -187500.02235174447, -61774.45492439925, -6656.930644146281, -187500.02235174447, -67234.24848726374, -60705.79567024657, -40704.33714441504, -46863.27092209708, -68231.69508358181, -64682.99802339054, -0.07200000000000001, 0.9580000000000001, 0.296, 192.0, 0.0, 0.0, 0.0, 0.0, 0.0, 0.0, 0.0, 0.0, 0.0, 1.695416713183182E9, 0.0, 2023-09-22 16:05:13.183
26.0, -21692.077421197584, -9242.558090991746, -66044.30866769656, -66817.00847351653, -33138.159887571324, -41230.34074668178, -187500.02235174447, -61767.9282150183, -6651.02978361008, -187500.02235174447, -67218.95989405632, -60688.54012352707, -40696.04464722212, -46846.61887247788, -68217.12174619696, -64666.52478772698, -0.07200000000000001, 0.9580000000000001, 0.296, 192.0, 0.0, 0.0, 0.0, 0.0, 0.0, 0.0, 0.0, 0.0, 0.0, 1.695416713183186E9, 0.0, 2023-09-22 16:05:13.183
28.0, -21654.61589749049, -9201.117956771608, -66015.13964118238, -66785.9619004681, -33126.15700079883, -41197.81895849931, -187500.02235174447, -61745.665877540814, -6643.273728284089, -187500.02235174447, -67217.79760334463, -60679.1747426003, -40695.01646697718, -46844.74132594363, -68215.28890315162, -64662.25560453601, -0.07200000000000001, 0.9580000000000001, 0.296, 192.0, 0.0, 0.0, 0.0, 0.0, 0.0, 0.0, 0.0, 0.0, 0.0, 1.695416713183189E9, 0.0, 2023-09-22 16:05:13.183
30.0, -21670.977374431775, -9213.411416222027, -66028.0365977331, -66801.38460414227, -33115.94225358275, -41214.73922905198, -187500.02235174447, -61752.72902878869, -6627.113417042901, -187500.02235174447, -67197.43516414585, -60662.29917553654, -40677.51505106867, -46822.41193323278, -68192.19955112929, -64641.3567234703, -0.07200000000000001, 0.9580000000000001, 0.296, 192.0, 0.0, 0.0, 0.0, 0.0, 0.0, 0.0, 0.0, 0.0, 0.0, 1.695416713243987E9, 0.0, 2023-09-22 16:05:13.243
32.0, -21644.42350201887, -9193.29484621225, -65995.8724374619, -66772.66261251719, -33108.96850931269, -41191.783987496376, -187500.02235174447, -61743.65422053984, -6625.213518764201, -187500.02235174447, -67200.69851883633, -60668.95999538422, -40680.57724005905, -46834.593633960925, -68200.15677215539, -64651.392656730735, -0.076, 0.96, 0.296, 192.0, 126.5, 80.0, 15.0, 0.0, 4.5, 32.0, 0.0, 0.0, 0.0, 1.695416713243998E9, 0.0, 2023-09-22 16:05:13.243
34.0, -21662.19313886084, -9214.417244722516, -66014.08910919298, -66793.9638249831, -33109.37084071289, -41202.66928704611, -187500.02235174447, -61737.06045592552, -6614.037646536547, -187500.02235174447, -67179.3078993926, -60647.23409977366, -40660.594780516, -46815.19231977371, -68175.34633581, -64626.11283375178, -0.076, 0.96, 0.296, 192.0, 0.0, 0.0, 0.0, 0.0, 0.0, 0.0, 0.0, 0.0, 0.0, 1.695416713244002E9, 0.0, 2023-09-22 16:05:13.244
36.0, -21655.532319013157, -9206.907058585532, -66019.14060343988, -66793.89676974974, -33128.995672344645, -41200.63527830068, -187500.02235174447, -61745.12943567389, -6633.438960723754, -187500.02235174447, -67211.67322536388, -60680.8734751789, -40687.64039130693, -46838.59459621842, -68204.18008615734, -64650.29742125243, -0.076, 0.96, 0.296, 192.0, 0.0, 0.0, 0.0, 0.0, 0.0, 0.0, 0.0, 0.0, 0.0, 1.695416713244005E9, 0.0, 2023-09-22 16:05:13.244
38.0, -21660.7626272157, -9214.372541233604, -66023.00745523065, -66802.23397043157, -33124.07828856448, -41210.96178423903, -187500.02235174447, -61752.79608402206, -6624.07357979698, -187500.02235174447, -67191.46724837628, -60664.22142555969, -40673.08940566652, -46822.52369195506, -68194.27826336364, -64637.71338912409, -0.076, 0.96, 0.296, 192.0, 0.0, 0.0, 0.0, 0.0, 0.0, 0.0, 0.0, 0.0, 0.0, 1.695416713244008E9, 0.0, 2023-09-22 16:05:13.244
40.0, -21646.79278693113, -9200.648570138046, -66007.31653062302, -66788.10766793581, -33121.68665190776, -41200.21059515603, -187500.02235174447, -61750.851482254446, -6627.269879254089, -187500.02235174447, -67210.24271371875, -60683.48862928017, -40684.600554061006, -46838.25932005159, -68211.84673450551, -64661.093313824334, -0.076, 0.96, 0.296, 192.0, 0.0, 0.0, 0.0, 0.0, 0.0, 0.0, 0.0, 0.0, 0.0, 1.695416713244011E9, 0.0, 2023-09-22 16:05:13.244
42.0, -21649.452644521316, -9201.274418982795, -66012.83741150348, -66795.23787441706, -33119.496180951144, -41206.58084232579, -187500.02235174447, -61754.6736305563, -6612.115396513391, -187500.02235174447, -67180.33607963753, -60651.27976552007, -40660.43831830482, -46814.588822673424, -68190.29965285059, -64638.49570018002, -0.076, 0.9520000000000001, 0.298, 192.0, 126.5, 80.0, 14.5, 96.0, 4.5, 40.0, 0.0, 0.0, 0.0, 1.695416713244014E9, 0.0, 2023-09-22 16:05:13.244
44.0, -21649.586754988046, -9200.357997460127, -66020.61581857393, -66797.89773200724, -33128.19100954426, -41212.30288890635, -187500.02235174447, -61763.860197527436, -6616.608097148907, -187500.02235174447, -67200.09502173604, -60670.43521051827, -40682.43243484884, -46830.12328506986, -68205.83411524702, -64659.282822523455, -0.076, 0.9520000000000001, 0.298, 192.0, 0.0, 0.0, 0.0, 0.0, 0.0, 0.0, 0.0, 0.0, 0.0, 1.695416713303808E9, 0.0, 2023-09-22 16:05:13.303
46.0, -21646.36810378648, -9195.351206702138, -66011.69747253627, -66793.13681043826, -33119.920864095795, -41201.59640331226, -187500.02235174447, -61750.918537487814, -6617.256297738111, -187500.02235174447, -67185.20875992879, -60654.65487893282, -40665.55686778508, -46826.27878502355, -68200.55910355558, -64651.41500847519, -0.076, 0.9520000000000001, 0.298, 192.0, 0.0, 0.0, 0.0, 0.0, 0.0, 0.0, 0.0, 0.0, 0.0, 1.695416713303852E9, 0.0, 2023-09-22 16:05:13.303
48.0, -21662.707228983312, -9211.131538287585, -66032.50694662415, -66804.62560708828, -33138.74103292716, -41220.41657214363, -187500.02235174447, -61767.43647664029, -6623.000696063125, -187500.02235174447, -67203.29132119314, -60669.630547717876, -40684.019408705164, -46830.257395536595, -68208.22575190375, -64654.92423235467, -0.076, 0.9520000000000001, 0.298, 192.0, 0.0, 0.0, 0.0, 0.0, 0.0, 0.0, 0.0, 0.0, 0.0, 1.695416713303858E9, 0.0, 2023-09-22 16:05:13.303
50.0, -21659.175653359373, -9207.778776619289, -66034.67506583632, -66805.98906350006, -33130.89557062335, -41216.30385116385, -187500.02235174447, -61760.50743585914, -6628.856853110416, -187500.02235174447, -67196.74226006774, -60663.6179284594, -40678.27501038015, -46834.437171749734, -68201.98961520071, -64649.53746194094, -0.076, 0.9520000000000001, 0.298, 192.0, 0.0, 0.0, 0.0, 0.0, 0.0, 0.0, 0.0, 0.0, 0.0, 1.695416713303863E9, 0.0, 2023-09-22 16:05:13.303
52.0, -21663.95892667281, -9213.34436098866, -66036.41850190384, -66811.73346182508, -33131.81199214602, -41218.762543053934, -187500.02235174447, -61764.93308126129, -6629.2144810217005, -187500.02235174447, -67221.73151036877, -60690.06004215003, -40689.87556575246, -46842.28263405355, -68219.15575494239, -64665.921290626684, -0.07200000000000001, 0.96, 0.3, 192.0, 126.5, 96.0, 15.0, 0.0, 4.5, 48.0, 0.0, 0.0, 0.0, 1.695416713303868E9, 0.0, 2023-09-22 16:05:13.303
54.0, -21641.607182217504, -9189.763270588312, -66007.71886202322, -66786.2077696571, -33112.50008493663, -41190.86756597371, -187500.02235174447, -61742.0225431946, -6618.776216361072, -187500.02235174447, -67193.2553879327, -60663.6179284594, -40679.14672841391, -46827.46342747968, -68194.1441528969, -64643.770711871475, -0.07200000000000001, 0.96, 0.3, 192.0, 0.0, 0.0, 0.0, 0.0, 0.0, 0.0, 0.0, 0.0, 0.0, 1.695416713303872E9, 0.0, 2023-09-22 16:05:13.303
56.0, -21665.188272617852, -9210.349227231649, -66034.3844931584, -66811.82286880289, -33130.24737003414, -41216.9297000086, -187500.02235174447, -61763.21199693823, -6612.1377482578455, -187500.02235174447, -67196.09405947854, -60668.15533258383, -40679.66081853638, -46819.12622679785, -68200.76026925567, -64646.497624695025, -0.07200000000000001, 0.96, 0.3, 192.0, 0.0, 0.0, 0.0, 0.0, 0.0, 0.0, 0.0, 0.0, 0.0, 1.695416713303877E9, 0.0, 2023-09-22 16:05:13.303
58.0, -21643.417673518383, -9186.522267642293, -66014.37968187091, -66792.19803717114, -33116.85867510542, -41198.78008351089, -187500.02235174447, -61751.25381365464, -6625.347629230932, -187500.02235174447, -67199.69269033584, -60669.697602951244, -40681.583068559536, -46834.66068919429, -68206.19174315831, -64656.13122655526, -0.07200000000000001, 0.96, 0.3, 192.0, 0.0, 0.0, 0.0, 0.0, 0.0, 0.0, 0.0, 0.0, 0.0, 1.695416713303882E9, 0.0, 2023-09-22 16:05:13.303
60.0, -21668.921013941886, -9215.557183689736, -66047.32615319802, -66818.23781946157, -33137.35522477093, -41232.97825252751, -187500.02235174447, -61769.85046504146, -6617.703332627218, -187500.02235174447, -67200.83262930306, -60669.65289946234, -40679.347894114006, -46828.96099435818, -68203.8448099905, -64655.48302596606, -0.07200000000000001, 0.96, 0.3, 192.0, 0.0, 0.0, 0.0, 0.0, 0.0, 0.0, 0.0, 0.0, 0.0, 1.695416713362973E9, 0.0, 2023-09-22 16:05:13.362
62.0, -21645.071702608075, -9195.462965424415, -66022.04633021908, -66789.89580749224, -33133.66718693581, -41209.71008654953, -187500.02235174447, -61753.824264267, -6636.724667158684, -187500.02235174447, -67212.54494339763, -60681.43226879028, -40687.43922560683, -46848.8093434345, -68221.25681892119, -64669.67638369517, -0.074, 0.962, 0.296, 192.0, 126.5, 88.0, 15.0, 8.0, 4.5, 32.0, 0.0, 0.0, 0.0, 1.695416713362984E9, 0.0, 2023-09-22 16:05:13.362
64.0, -21663.66835399489, -9214.953686589442, -66038.40780716036, -66809.61004610182, -33139.70215793874, -41234.431115917105, -187500.02235174447, -61768.48700862969, -6611.981286046659, -187500.02235174447, -67196.51874262319, -60669.54114074006, -40671.14480389891, -46825.83175013444, -68198.48039132124, -64651.41500847519, -0.074, 0.962, 0.296, 192.0, 0.0, 0.0, 0.0, 0.0, 0.0, 0.0, 0.0, 0.0, 0.0, 1.695416713362988E9, 0.0, 2023-09-22 16:05:13.362
66.0, -21631.481841979246, -9189.092718254653, -66016.57015282752, -66781.22333064358, -33132.52724796859, -41213.55458659585, -187500.02235174447, -61755.03125846759, -6619.536175672552, -187500.02235174447, -67204.09598399354, -60677.99010014416, -40676.486870823726, -46846.1047823554, -68210.19270541581, -64664.9154621262, -0.074, 0.962, 0.296, 192.0, 0.0, 0.0, 0.0, 0.0, 0.0, 0.0, 0.0, 0.0, 0.0, 1.695416713362991E9, 0.0, 2023-09-22 16:05:13.362
68.0, -21631.43713849034, -9189.070366510197, -66028.01424598864, -66788.04061270245, -33122.4689629637, -41219.23192968749, -187500.02235174447, -61749.733895031684, -6594.099890482413, -187500.02235174447, -67185.23111167326, -60659.10287607943, -40655.453879291286, -46821.54021519902, -68191.41724007335, -64642.4072554597, -0.074, 0.962, 0.296, 192.0, 0.0, 0.0, 0.0, 0.0, 0.0, 0.0, 0.0, 0.0, 0.0, 1.695416713362994E9, 0.0, 2023-09-22 16:05:13.362
70.0, -21608.81717310157, -9169.646700578536, -66011.6304173029, -66757.1057983763, -33122.55836994152, -41196.03081894288, -187500.02235174447, -61737.775711748094, -6603.3311609424545, -187500.02235174447, -67195.53526586715, -60666.30013779404, -40659.43248980433, -46833.27488103806, -68200.6932140223, -64650.14095904124, -0.074, 0.962, 0.296, 192.0, 0.0, 0.0, 0.0, 0.0, 0.0, 0.0, 0.0, 0.0, 0.0, 1.695416713362998E9, 0.0, 2023-09-22 16:05:13.362
72.0, -21606.246722489206, -9170.876046523577, -66013.21739115923, -66750.93671690664, -33100.09486676394, -41192.29807761885, -187500.02235174447, -61723.56000227452, -6573.49158209462, -187500.02235174447, -67162.56644279558, -60630.15736700981, -40617.14298929489, -46791.32065669545, -68158.96250712425, -64603.917551507664, -0.08, 0.964, 0.298, 192.0, 126.5, 64.0, 15.0, 16.0, 4.5, 40.0, 0.0, 0.0, 0.0, 1.695416713363001E9, 0.0, 2023-09-22 16:05:13.363
74.0, -21617.199077272307, -9181.00138676183, -66019.14060343988, -66759.92211817767, -33128.66039617782, -41202.22225215701, -187500.02235174447, -61744.59299380696, -6598.570239373475, -187500.02235174447, -67200.09502173604, -60671.70925995222, -40656.39265255841, -46825.563529200976, -68183.25885334717, -64635.14293851173, -0.08, 0.964, 0.298, 192.0, 0.0, 0.0, 0.0, 0.0, 0.0, 0.0, 0.0, 0.0, 0.0, 1.695416713422747E9, 0.0, 2023-09-22 16:05:13.422
76.0, -21623.904600608897, -9190.67969211098, -66025.71201630974, -66766.85115895882, -33113.81883785949, -41208.3242783933, -187500.02235174447, -61735.89816521385, -6588.646064835319, -187500.02235174447, -67183.75589653921, -60654.252547532626, -40636.52195173764, -46805.75988361357, -68160.66123970285, -64613.88642953473, -0.08, 0.964, 0.298, 192.0, 0.0, 0.0, 0.0, 0.0, 0.0, 0.0, 0.0, 0.0, 0.0, 1.695416713422759E9, 0.0, 2023-09-22 16:05:13.422
78.0, -21626.51975471017, -9192.132555500575, -66034.49625188069, -66770.87447296077, -33137.46698349321, -41211.92290925061, -187500.02235174447, -61749.733895031684, -6614.819957592483, -187500.02235174447, -67224.36901621449, -60687.042556648565, -40670.49660330971, -46835.53240722804, -68193.60771102998, -64643.94952582712, -0.08, 0.964, 0.298, 192.0, 0.0, 0.0, 0.0, 0.0, 0.0, 0.0, 0.0, 0.0, 0.0, 1.695416713422763E9, 0.0, 2023-09-22 16:05:13.422
80.0, -21637.38270251545, -9194.747709601845, -66061.51951092714, -66786.45363884613, -33144.396024274356, -41226.473894891016, -187500.02235174447, -61763.502569616154, -6617.636277393852, -187500.02235174447, -67220.12218476798, -60675.95609139873, -40667.76969048616, -46824.62475593385, -68192.98186218523, -64638.2051275021, -0.08, 0.964, 0.298, 192.0, 0.0, 0.0, 0.0, 0.0, 0.0, 0.0, 0.0, 0.0, 0.0, 1.695416713422766E9, 0.0, 2023-09-22 16:05:13.422
82.0, -21622.74230989722, -9188.221000220896, -66037.42433040432, -66767.14173163673, -33149.46987026571, -41210.69356330557, -187500.02235174447, -61752.259642155135, -6625.235870508656, -187500.02235174447, -67243.9267926129, -60696.72086199771, -40689.987324474736, -46839.55572123, -68224.0507869781, -64662.635584191754, -0.08, 0.96, 0.304, 192.0, 126.5, 64.0, 15.0, 0.0, 4.5, 64.0, 0.0, 0.0, 0.0, 1.695416713422769E9, 0.0, 2023-09-22 16:05:13.422
84.0, -21617.333187739037, -9188.444517665448, -66025.39909188738, -66758.87158618827, -33121.6195966744, -41200.05413294484, -187500.02235174447, -61731.98660993417, -6594.323407926966, -187500.02235174447, -67203.62659735997, -60661.53921622506, -40644.30035880808, -46811.236061005126, -68176.70979222177, -64620.010807515486, -0.08, 0.96, 0.304, 192.0, 0.0, 0.0, 0.0, 0.0, 0.0, 0.0, 0.0, 0.0, 0.0, 1.695416713422772E9, 0.0, 2023-09-22 16:05:13.422
86.0, -21627.346769255015, -9202.213192249917, -66036.77612981512, -66780.61983354329, -33154.00727439013, -41222.6293948447, -187500.02235174447, -61757.51230210213, -6601.632428363851, -187500.02235174447, -67231.40981571793, -60688.987158416174, -40672.95529519979, -46834.01248860508, -68208.2034001593, -64652.42083697568, -0.08, 0.96, 0.304, 192.0, 0.0, 0.0, 0.0, 0.0, 0.0, 0.0, 0.0, 0.0, 0.0, 1.695416713422776E9, 0.0, 2023-09-22 16:05:13.422
88.0, -21629.33607451154, -9208.672846397501, -66041.87232755093, -66792.08627844886, -33143.90428589634, -41233.60410137226, -187500.02235174447, -61762.452037626754, -6599.061977751491, -187500.02235174447, -67212.366129442, -60676.60429198793, -40661.55590552758, -46837.83463690694, -68197.85454247649, -64648.28576425145, -0.08, 0.96, 0.304, 192.0, 0.0, 0.0, 0.0, 0.0, 0.0, 0.0, 0.0, 0.0, 0.0, 1.695416713422779E9, 0.0, 2023-09-22 16:05:13.422
90.0, -21618.495478450714, -9200.581514904681, -66035.12210072544, -66784.9113684787, -33142.96551262921, -41223.098781478264, -187500.02235174447, -61762.675555071306, -6603.733492342651, -187500.02235174447, -67235.63429541996, -60700.475955066206, -40674.00582718919, -46856.45364003821, -68217.70289155279, -64671.106895340316, -0.08, 0.96, 0.304, 192.0, 0.0, 0.0, 0.0, 0.0, 0.0, 0.0, 0.0, 0.0, 0.0, 1.695416713483137E9, 0.0, 2023-09-22 16:05:13.483
92.0, -21638.053254849106, -9220.832195381188, -66056.08803702451, -66804.17857219918, -33155.303675568546, -41241.67308112062, -187500.02235174447, -61776.84656105597, -6595.597457360918, -187500.02235174447, -67220.25629523472, -60679.10768736693, -40663.36639682846, -46834.81715140548, -68198.61450178796, -64649.582165429856, -0.08, 0.9560000000000001, 0.298, 192.0, 126.5, 64.0, 14.5, 112.0, 4.5, 40.0, 0.0, 0.0, 0.0, 1.695416713483148E9, 0.0, 2023-09-22 16:05:13.483
94.0, -21645.00464737471, -9226.576593706202, -66063.12883652793, -66813.16397347022, -33167.887707696886, -41252.58073241481, -187500.02235174447, -61792.62689264142, -6628.901556599326, -187500.02235174447, -67263.90925215594, -60729.66733332483, -40709.76861831768, -46878.26894262659, -68243.96619128778, -64694.71033748512, -0.08, 0.9560000000000001, 0.298, 192.0, 0.0, 0.0, 0.0, 0.0, 0.0, 0.0, 0.0, 0.0, 0.0, 1.695416713483152E9, 0.0, 2023-09-22 16:05:13.483
96.0, -21628.263190777685, -9205.208326006928, -66043.74987408517, -66798.72474655208, -33146.87706790889, -41236.75569734046, -187500.02235174447, -61772.1303429759, -6610.1931464902345, -187500.02235174447, -67221.19506850184, -60693.14458288486, -40676.978609201746, -46857.4594685387, -68209.99153971572, -64661.83092139136, -0.08, 0.9560000000000001, 0.298, 192.0, 0.0, 0.0, 0.0, 0.0, 0.0, 0.0, 0.0, 0.0, 0.0, 1.695416713483156E9, 0.0, 2023-09-22 16:05:13.483
98.0, -21639.349656027516, -9219.558145947236, -66064.80521736208, -66819.28835145096, -33168.826480964, -41256.939322583596, -187500.02235174447, -61797.25370374366, -6606.013370277092, -187500.02235174447, -67235.9695715868, -60703.51579231212, -40684.354684872, -46856.56539876049, -68223.31317941108, -64677.61125297681, -0.08, 0.9560000000000001, 0.298, 192.0, 0.0, 0.0, 0.0, 0.0, 0.0, 0.0, 0.0, 0.0, 0.0, 1.695416713483159E9, 0.0, 2023-09-22 16:05:13.483
100.0, -21617.266132505672, -9188.645683365547, -66040.26300195015, -66789.5158278365, -33155.79541394656, -41224.55164486786, -187500.02235174447, -61764.01665973863, -6621.905460584815, -187500.02235174447, -67238.16004254342, -60700.40889983284, -40698.4586356233, -46867.003663421114, -68231.89624928191, -64677.85712216582, -0.08, 0.9560000000000001, 0.298, 192.0, 0.0, 0.0, 0.0, 0.0, 0.0, 0.0, 0.0, 0.0, 0.0, 1.695416713483162E9, 0.0, 2023-09-22 16:05:13.483
102.0, -21634.27581003616, -9200.805032349233, -66054.90339456838, -66813.58865661487, -33156.91300116933, -41239.28144446391, -187500.02235174447, -61778.61234886794, -6596.715044583684, -187500.02235174447, -67228.28057149418, -60691.49055379517, -40677.76092025768, -46839.53336948554, -68216.18297292983, -64662.07679058037, -0.084, 0.9580000000000001, 0.304, 192.0, 126.5, 48.0, 14.5, 120.0, 4.5, 64.0, 0.0, 0.0, 0.0, 1.695416713483165E9, 0.0, 2023-09-22 16:05:13.483
104.0, -21606.917274822867, -9176.91101752651, -66026.89665876588, -66784.0620021894, -33130.78381190107, -41206.111455692226, -187500.02235174447, -61752.393752621865, -6597.922038784271, -187500.02235174447, -67221.97737955778, -60692.563437529025, -40673.894068466914, -46849.32343355697, -68215.78064152964, -64665.83188364886, -0.084, 0.9580000000000001, 0.304, 192.0, 0.0, 0.0, 0.0, 0.0, 0.0, 0.0, 0.0, 0.0, 0.0, 1.695416713544724E9, 0.0, 2023-09-22 16:05:13.544
106.0, -21626.452699476802, -9200.067424782208, -66051.37181894443, -66813.16397347022, -33143.92663764079, -41234.25230196146, -187500.02235174447, -61774.58903486598, -6581.515858354075, -187500.02235174447, -67211.60617013052, -60689.121268882904, -40664.48398405123, -46830.5032647256, -68204.42595534635, -64656.779427144465, -0.084, 0.9580000000000001, 0.304, 192.0, 0.0, 0.0, 0.0, 0.0, 0.0, 0.0, 0.0, 0.0, 0.0, 1.695416713544738E9, 0.0, 2023-09-22 16:05:13.544
108.0, -21627.9055628664, -9191.86433456711, -66042.00643801766, -66803.6197785878, -33145.49125975266, -41225.06573499033, -187500.02235174447, -61765.91655801732, -6609.4331871787535, -187500.02235174447, -67229.6663796504, -60703.44873707876, -40687.886260495936, -46860.07462263997, -68222.93319975534, -64677.99123263255, -0.084, 0.9580000000000001, 0.304, 192.0, 0.0, 0.0, 0.0, 0.0, 0.0, 0.0, 0.0, 0.0, 0.0, 1.695416713544741E9, 0.0, 2023-09-22 16:05:13.544
110.0, -21634.924010625364, -9196.759366602822, -66050.81302533306, -66805.40791814422, -33140.99855911715, -41228.46320014753, -187500.02235174447, -61766.98944175118, -6606.348646443921, -187500.02235174447, -67228.07940579408, -60695.1785916303, -40680.44312959232, -46846.59652073342, -68218.03816771963, -64670.23517730656, -0.084, 0.9580000000000001, 0.304, 192.0, 0.0, 0.0, 0.0, 0.0, 0.0, 0.0, 0.0, 0.0, 0.0, 1.695416713544745E9, 0.0, 2023-09-22 16:05:13.544
112.0, -21615.522696438158, -9183.460078651915, -66028.46128087775, -66794.79083952795, -33140.55152422804, -41212.30288890635, -187500.02235174447, -61757.55700559104, -6601.49831789712, -187500.02235174447, -67212.58964688655, -60680.35938505643, -40677.53740281313, -46843.44492476522, -68206.03528094712, -64656.08652306635, -0.08, 0.9560000000000001, 0.304, 192.0, 126.5, 64.0, 14.5, 112.0, 4.5, 64.0, 0.0, 0.0, 0.0, 1.695416713544748E9, 0.0, 2023-09-22 16:05:13.544
114.0, -21631.638304190434, -9208.605791164135, -66047.41556017585, -66815.17563047119, -33144.21721031871, -41236.84510431828, -187500.02235174447, -61770.38690690839, -6597.139727728335, -187500.02235174447, -67219.18341150087, -60694.06100440753, -40680.756054014695, -46845.635395721845, -68211.22088566076, -64659.014601589995, -0.08, 0.9560000000000001, 0.304, 192.0, 0.0, 0.0, 0.0, 0.0, 0.0, 0.0, 0.0, 0.0, 0.0, 1.695416713544751E9, 0.0, 2023-09-22 16:05:13.544
116.0, -21616.595580172012, -9197.67578812549, -66030.49528962318, -66806.32433966688, -33141.6244079619, -41227.6808890916, -187500.02235174447, -61769.40343015235, -6600.1572132298015, -187500.02235174447, -67218.51285916721, -60699.09014690998, -40679.45965283628, -46858.644110994836, -68215.64653106291, -64663.686116181154, -0.08, 0.9560000000000001, 0.304, 192.0, 0.0, 0.0, 0.0, 0.0, 0.0, 0.0, 0.0, 0.0, 0.0, 1.695416713544754E9, 0.0, 2023-09-22 16:05:13.544
118.0, -21637.8073856601, -9217.926468601998, -66054.54576665709, -66828.4749184221, -33155.19191684627, -41256.49228769449, -187500.02235174447, -61789.34118620649, -6597.49735563962, -187500.02235174447, -67216.23298123277, -60692.29521659556, -40688.646219807415, -46856.43128829376, -68215.75828978518, -64664.75899991501, -0.08, 0.9560000000000001, 0.304, 192.0, 0.0, 0.0, 0.0, 0.0, 0.0, 0.0, 0.0, 0.0, 0.0, 1.695416713544757E9, 0.0, 2023-09-22 16:05:13.544
120.0, -21623.166993041872, -9196.155869502529, -66045.15803398586, -66805.81024954442, -33169.74290248667, -41244.26588347744, -187500.02235174447, -61791.106974018454, -6623.939469330248, -187500.02235174447, -67235.79075763116, -60706.91325746933, -40708.13694097244, -46878.201887393225, -68248.01185703419, -64692.89984618424, -0.08, 0.9560000000000001, 0.304, 192.0, 0.0, 0.0, 0.0, 0.0, 0.0, 0.0, 0.0, 0.0, 0.0, 1.695416713603614E9, 0.0, 2023-09-22 16:05:13.603
122.0, -21629.917219867377, -9198.972189303899, -66043.03461826261, -66809.63239784628, -33147.525268498095, -41241.11428750924, -187500.02235174447, -61782.94858729227, -6601.49831789712, -187500.02235174447, -67203.5595421266, -60671.373983785394, -40683.885298238434, -46847.7588114451, -68218.70872005328, -64663.03791559195, -0.078, 0.9580000000000001, 0.3, 192.0, 126.5, 72.0, 14.5, 120.0, 4.5, 48.0, 0.0, 0.0, 0.0, 1.695416713603636E9, 0.0, 2023-09-22 16:05:13.603
124.0, -21614.203943515295, -9183.169505973996, -66024.50502210915, -66793.13681043826, -33141.110317839426, -41218.94135700958, -187500.02235174447, -61768.1293807184, -6601.54302138603, -187500.02235174447, -67211.04737651913, -60685.992024659165, -40692.20014717581, -46857.68298598325, -68224.11784221148, -64671.08454359586, -0.078, 0.9580000000000001, 0.3, 192.0, 0.0, 0.0, 0.0, 0.0, 0.0, 0.0, 0.0, 0.0, 0.0, 1.69541671360364E9, 0.0, 2023-09-22 16:05:13.603
126.0, -21640.534298483646, -9215.780701134288, -66052.06472302256, -66825.18921198716, -33145.781832430584, -41244.80232534437, -187500.02235174447, -61779.84169481298, -6600.201916718712, -187500.02235174447, -67205.0124055162, -60684.78503045858, -40673.33527485553, -46848.27290156757, -68205.14121116891, -64657.7629039005, -0.078, 0.9580000000000001, 0.3, 192.0, 0.0, 0.0, 0.0, 0.0, 0.0, 0.0, 0.0, 0.0, 0.0, 1.695416713603643E9, 0.0, 2023-09-22 16:05:13.603
128.0, -21625.983312843244, -9200.91679107151, -66040.91120253936, -66812.02403450299, -33150.09571911046, -41230.1842844706, -187500.02235174447, -61773.22557845421, -6617.859794838405, -187500.02235174447, -67230.0687110506, -60710.534240071094, -40699.28565016814, -46871.65282626782, -68232.0080080042, -64684.92027341369, -0.078, 0.9580000000000001, 0.3, 192.0, 0.0, 0.0, 0.0, 0.0, 0.0, 0.0, 0.0, 0.0, 0.0, 1.695416713603646E9, 0.0, 2023-09-22 16:05:13.603
130.0, -21635.348693770015, -9206.281209740784, -66055.39513294639, -66822.26113346353, -33146.497088253156, -41245.048194533374, -187500.02235174447, -61781.76394483614, -6603.465271409187, -187500.02235174447, -67210.37682418547, -60687.28842583757, -40676.397463845904, -46851.53625625804, -68214.79716477361, -64667.28474703846, -0.078, 0.9580000000000001, 0.3, 192.0, 0.0, 0.0, 0.0, 0.0, 0.0, 0.0, 0.0, 0.0, 0.0, 1.69541671360365E9, 0.0, 2023-09-22 16:05:13.603
132.0, -21634.029940847155, -9201.34147421616, -66050.41069393286, -66820.04831076245, -33160.19870760426, -41249.40678470216, -187500.02235174447, -61794.59384615348, -6620.005562306114, -187500.02235174447, -67234.44965296384, -60709.908391226345, -40708.53927237264, -46875.87730596987, -68246.84956632252, -64695.157372374226, -0.078, 0.966, 0.296, 192.0, 126.5, 72.0, 15.0, 24.0, 4.5, 32.0, 0.0, 0.0, 0.0, 1.695416713603653E9, 0.0, 2023-09-22 16:05:13.603
134.0, -21634.09699608052, -9203.44253819496, -66045.35919968596, -66814.4156711597, -33144.93246614128, -41244.75762185545, -187500.02235174447, -61779.171142479325, -6605.812204576994, -187500.02235174447, -67207.26993170619, -60686.52846652609, -40677.55975455758, -46851.648014980325, -68218.01581597517, -64668.98347961706, -0.078, 0.966, 0.296, 192.0, 0.0, 0.0, 0.0, 0.0, 0.0, 0.0, 0.0, 0.0, 0.0, 1.695416713663053E9, 0.0, 2023-09-22 16:05:13.663
136.0, -21629.023150089164, -9201.408529449527, -66046.29797295308, -66811.82286880289, -33152.33089355599, -41239.527313652914, -187500.02235174447, -61779.77463957961, -6610.59547789043, -187500.02235174447, -67228.74995812774, -60707.58380980299, -40693.02716172065, -46860.05227089552, -68232.7009120823, -64681.74632570104, -0.078, 0.966, 0.296, 192.0, 0.0, 0.0, 0.0, 0.0, 0.0, 0.0, 0.0, 0.0, 0.0, 1.695416713663065E9, 0.0, 2023-09-22 16:05:13.663
138.0, -21598.222446229753, -9167.232712177361, -66010.84810624697, -66772.19322588363, -33110.689593635754, -41205.977345225496, -187500.02235174447, -61742.93896471727, -6593.362282915388, -187500.02235174447, -67194.73060306675, -60669.16116108432, -40661.1982776163, -46839.10868634089, -68199.26270237716, -64646.85525260631, -0.078, 0.966, 0.296, 192.0, 0.0, 0.0, 0.0, 0.0, 0.0, 0.0, 0.0, 0.0, 0.0, 1.695416713663068E9, 0.0, 2023-09-22 16:05:13.663
140.0, -21619.590713929025, -9184.935293785966, -66029.9364960118, -66786.23012140156, -33136.52821022609, -41222.51763612242, -187500.02235174447, -61766.27418592861, -6588.266085179578, -187500.02235174447, -67203.7607078267, -60672.31275705252, -40670.965989943266, -46831.26322403708, -68204.4483070908, -64650.29742125243, -0.078, 0.966, 0.296, 192.0, 0.0, 0.0, 0.0, 0.0, 0.0, 0.0, 0.0, 0.0, 0.0, 1.695416713663071E9, 0.0, 2023-09-22 16:05:13.663
142.0, -21607.029033545143, -9172.48537212436, -66009.81992600202, -66768.12520839277, -33116.85867510542, -41201.79756901236, -187500.02235174447, -61741.1731769053, -6585.4274136337535, -187500.02235174447, -67181.09603894902, -60650.74332365314, -40664.1487078844, -46821.11553205437, -68190.00908017268, -64631.119624509774, -0.074, 0.964, 0.3, 192.0, 126.5, 88.0, 15.0, 16.0, 4.5, 48.0, 0.0, 0.0, 0.0, 1.695416713663075E9, 0.0, 2023-09-22 16:05:13.663
144.0, -21622.161164541383, -9191.126727000086, -66031.25524893466, -66794.72378429459, -33135.298864281045, -41221.5788628553, -187500.02235174447, -61763.569624849515, -6591.372977658865, -187500.02235174447, -67201.63729210345, -60675.509056509625, -40672.17298414386, -46832.22434904866, -68207.599903059, -64645.89412759473, -0.074, 0.964, 0.3, 192.0, 0.0, 0.0, 0.0, 0.0, 0.0, 0.0, 0.0, 0.0, 0.0, 1.695416713663078E9, 0.0, 2023-09-22 16:05:13.663
146.0, -21605.50911492218, -9174.362918658606, -66007.71886202322, -66783.77142951149, -33109.95198606873, -41201.30583063434, -187500.02235174447, -61746.0235054521, -6589.763652058084, -187500.02235174447, -67184.09117270603, -60665.786047671565, -40660.46067004927, -46832.492569982125, -68189.9420249393, -64639.32271472487, -0.074, 0.964, 0.3, 192.0, 0.0, 0.0, 0.0, 0.0, 0.0, 0.0, 0.0, 0.0, 0.0, 1.695416713663081E9, 0.0, 2023-09-22 16:05:13.663
148.0, -21625.066891320574, -9192.467831667404, -66039.54774612757, -66812.64988334774, -33127.85573337743, -41222.607043100244, -187500.02235174447, -61769.26931968562, -6592.06588173698, -187500.02235174447, -67207.02406251717, -60689.74711772765, -40667.188545130324, -46839.80159041901, -68202.16842915636, -64656.73472365555, -0.074, 0.964, 0.3, 192.0, 0.0, 0.0, 0.0, 0.0, 0.0, 0.0, 0.0, 0.0, 0.0, 1.695416713663084E9, 0.0, 2023-09-22 16:05:13.663
150.0, -21620.641245918425, -9187.43868916496, -66034.5856588585, -66798.61298782981, -33132.1696200573, -41209.71008654953, -187500.02235174447, -61757.51230210213, -6601.520669641575, -187500.02235174447, -67199.69269033584, -60676.53723675457, -40663.344045084006, -46838.12520958486, -68200.71556576676, -64650.342124741335, -0.074, 0.964, 0.3, 192.0, 0.0, 0.0, 0.0, 0.0, 0.0, 0.0, 0.0, 0.0, 0.0, 1.695416713722731E9, 0.0, 2023-09-22 16:05:13.722
152.0, -21631.392435001428, -9200.827384093689, -66043.48165315171, -66808.11247922332, -33146.00534987514, -41227.6808890916, -187500.02235174447, -61771.03510749759, -6610.997809290625, -187500.02235174447, -67221.15036501293, -60693.56926602951, -40688.087426196034, -46840.71801194167, -68224.56487710058, -64666.480084238065, -0.07, 0.962, 0.296, 192.0, 126.5, 104.0, 15.0, 8.0, 4.5, 32.0, 0.0, 0.0, 0.0, 1.695416713722745E9, 0.0, 2023-09-22 16:05:13.722
154.0, -21627.74910065521, -9191.462003166915, -66031.76933905714, -66799.79763028595, -33139.61275096092, -41220.05894423234, -187500.02235174447, -61765.33541266149, -6609.83551857895, -187500.02235174447, -67204.90064679392, -60680.06881237851, -40685.44992035031, -46841.18739857524, -68215.69123455182, -64658.522863211976, -0.07, 0.962, 0.296, 192.0, 0.0, 0.0, 0.0, 0.0, 0.0, 0.0, 0.0, 0.0, 0.0, 1.695416713722748E9, 0.0, 2023-09-22 16:05:13.722
156.0, -21645.697551452824, -9207.868183597111, -66044.46512990775, -66816.33792118287, -33143.85958240743, -41238.834409574796, -187500.02235174447, -61778.99232852368, -6599.173736473767, -187500.02235174447, -67213.55077189812, -60686.23789384817, -40686.03106570614, -46839.89099739683, -68214.50659209568, -64658.94754635663, -0.07, 0.962, 0.296, 192.0, 0.0, 0.0, 0.0, 0.0, 0.0, 0.0, 0.0, 0.0, 0.0, 1.695416713722751E9, 0.0, 2023-09-22 16:05:13.722
158.0, -21624.37398724246, -9186.879895553577, -66017.26305690563, -66791.88511274876, -33135.45532649223, -41214.47100811851, -187500.02235174447, -61761.759133548636, -6612.003637791114, -187500.02235174447, -67213.6178271315, -60689.545952027554, -40679.16908015837, -46854.151410359314, -68219.17810668684, -64666.12245632678, -0.07, 0.962, 0.296, 192.0, 0.0, 0.0, 0.0, 0.0, 0.0, 0.0, 0.0, 0.0, 0.0, 1.695416713722755E9, 0.0, 2023-09-22 16:05:13.722
160.0, -21626.832679132545, -9189.226828721385, -66024.95205699827, -66803.75388905453, -33123.966529842204, -41222.67409833361, -187500.02235174447, -61760.95447074825, -6583.505163610597, -187500.02235174447, -67192.31661466559, -60667.35066978344, -40662.80760321708, -46828.69277342472, -68197.45221107629, -64645.9611828281, -0.07, 0.962, 0.296, 192.0, 0.0, 0.0, 0.0, 0.0, 0.0, 0.0, 0.0, 0.0, 0.0, 1.695416713722758E9, 0.0, 2023-09-22 16:05:13.722
162.0, -21624.46339422028, -9184.935293785966, -66023.58860058649, -66793.44973486064, -33137.15405907083, -41214.6274703297, -187500.02235174447, -61760.440380625776, -6600.0454545075245, -187500.02235174447, -67201.2126089588, -60680.09116412296, -40677.96208595778, -46845.970671888674, -68215.89240025192, -64661.18272080216, -0.07200000000000001, 0.964, 0.294, 192.0, 126.5, 96.0, 15.0, 16.0, 4.5, 24.0, 0.0, 0.0, 0.0, 1.695416713722761E9, 0.0, 2023-09-22 16:05:13.722
164.0, -21658.214528347795, -9218.7758348913, -66049.69543811028, -66829.19017424466, -33151.593285988965, -41250.434964947104, -187500.02235174447, -61784.960244293245, -6591.328274169955, -187500.02235174447, -67198.17277171288, -60677.29719606605, -40669.557830042584, -46839.198093318715, -68207.97988271475, -64654.23132827656, -0.07200000000000001, 0.964, 0.294, 192.0, 0.0, 0.0, 0.0, 0.0, 0.0, 0.0, 0.0, 0.0, 0.0, 1.695416713783157E9, 0.0, 2023-09-22 16:05:13.783
166.0, -21629.201964044805, -9190.746747344345, -66014.7820132711, -66792.39920287124, -33133.0189863466, -41215.409781385635, -187500.02235174447, -61759.099275958455, -6620.9443355732365, -187500.02235174447, -67218.80343184512, -60696.20677187524, -40700.1573682019, -46866.22135236518, -68226.8000515461, -64676.068982609395, -0.07200000000000001, 0.964, 0.294, 192.0, 0.0, 0.0, 0.0, 0.0, 0.0, 0.0, 0.0, 0.0, 0.0, 1.695416713783171E9, 0.0, 2023-09-22 16:05:13.783
168.0, -21641.22720256176, -9204.135442273075, -66023.34273139748, -66808.02307224549, -33120.30084375153, -41224.55164486786, -187500.02235174447, -61762.56379634903, -6592.982303259648, -187500.02235174447, -67193.47890537727, -60671.038707618565, -40664.66279800687, -46834.61598570538, -68195.46290581976, -64644.55302292741, -0.07200000000000001, 0.964, 0.294, 192.0, 0.0, 0.0, 0.0, 0.0, 0.0, 0.0, 0.0, 0.0, 0.0, 1.695416713783174E9, 0.0, 2023-09-22 16:05:13.783
170.0, -21605.46441143327, -9167.567988344192, -65987.33407107998, -66771.16504563869, -33104.3640499549, -41188.498281061446, -187500.02235174447, -61735.048798924545, -6586.500297367608, -187500.02235174447, -67189.2097221863, -60668.69177445076, -40658.8960479374, -46830.3020990255, -68191.95368194029, -64642.876642093266, -0.07200000000000001, 0.964, 0.294, 192.0, 0.0, 0.0, 0.0, 0.0, 0.0, 0.0, 0.0, 0.0, 0.0, 1.695416713783178E9, 0.0, 2023-09-22 16:05:13.783
172.0, -21603.497457921203, -9166.472752865882, -65991.64795775985, -66782.02799344397, -33094.97631728367, -41196.723723021, -187500.02235174447, -61744.347124617954, -6567.791887258517, -187500.02235174447, -67158.83370147154, -60641.75792238211, -40638.53360873862, -46807.659781892275, -68170.58541424101, -64621.91070579419, -0.074, 0.96, 0.294, 192.0, 126.5, 88.0, 15.0, 0.0, 4.5, 24.0, 0.0, 0.0, 0.0, 1.695416713783181E9, 0.0, 2023-09-22 16:05:13.783
174.0, -21593.349765938496, -9152.681726536957, -65996.61004502894, -66772.34968809482, -33116.18812277176, -41200.25529864494, -187500.02235174447, -61749.08569444248, -6574.340948383921, -187500.02235174447, -67170.3001463771, -60652.352649253924, -40652.72696646774, -46817.181625030236, -68190.41141157287, -64640.976743814565, -0.074, 0.96, 0.294, 192.0, 0.0, 0.0, 0.0, 0.0, 0.0, 0.0, 0.0, 0.0, 0.0, 1.695416713783184E9, 0.0, 2023-09-22 16:05:13.783
176.0, -21631.32537976806, -9191.48435491137, -66008.54587656807, -66793.94147323865, -33110.89075933585, -41218.069638975816, -187500.02235174447, -61750.49385434316, -6575.726756540151, -187500.02235174447, -67158.2972596046, -60638.181643269265, -40642.42281227384, -46811.77250287205, -68174.22874858722, -64625.44228141812, -0.074, 0.96, 0.294, 192.0, 0.0, 0.0, 0.0, 0.0, 0.0, 0.0, 0.0, 0.0, 0.0, 1.695416713783188E9, 0.0, 2023-09-22 16:05:13.783
178.0, -21646.0104758752, -9206.325913229693, -66019.58763832899, -66803.95505475462, -33136.30469278153, -41226.56330186884, -187500.02235174447, -61772.577377865004, -6610.0813877679575, -187500.02235174447, -67206.93465553936, -60687.176667115295, -40677.96208595778, -46859.38171856186, -68216.18297292983, -64668.938776128154, -0.074, 0.96, 0.294, 192.0, 0.0, 0.0, 0.0, 0.0, 0.0, 0.0, 0.0, 0.0, 0.0, 1.695416713783191E9, 0.0, 2023-09-22 16:05:13.783
180.0, -21646.05517936411, -9214.238430766873, -66013.84324000397, -66801.38460414227, -33115.18229427127, -41217.13086570869, -187500.02235174447, -61748.549252575554, -6593.004655004103, -187500.02235174447, -67183.77824828366, -60665.80839941602, -40660.70653923828, -46839.01927936307, -68190.07613540604, -64640.88733683674, -0.074, 0.96, 0.294, 192.0, 0.0, 0.0, 0.0, 0.0, 0.0, 0.0, 0.0, 0.0, 0.0, 1.695416713843499E9, 0.0, 2023-09-22 16:05:13.843
182.0, -21646.099882853017, -9218.932297102487, -66015.43021386031, -66808.51481062351, -33132.88487587987, -41216.90734826414, -187500.02235174447, -61754.45011311175, -6605.9686667881815, -187500.02235174447, -67211.13678349696, -60695.290350352574, -40677.78327200214, -46860.23108485116, -68206.68348153633, -64659.148712056725, -0.076, 0.962, 0.296, 192.0, 126.5, 80.0, 15.0, 8.0, 4.5, 32.0, 0.0, 0.0, 0.0, 1.695416713843511E9, 0.0, 2023-09-22 16:05:13.843
184.0, -21649.51969975468, -9225.079026827696, -66014.53614408209, -66811.28642693597, -33118.55740768402, -41223.00937450044, -187500.02235174447, -61756.03708696808, -6596.73739632814, -187500.02235174447, -67189.05325997512, -60679.88999842286, -40661.42179506085, -46847.26707306708, -68186.85748420448, -64639.725046125066, -0.076, 0.962, 0.296, 192.0, 0.0, 0.0, 0.0, 0.0, 0.0, 0.0, 0.0, 0.0, 0.0, 1.695416713843515E9, 0.0, 2023-09-22 16:05:13.843
186.0, -21641.09309209503, -9214.283134255784, -66017.39716737237, -66813.16397347022, -33128.97332060019, -41228.95493852555, -187500.02235174447, -61765.55893010604, -6596.558582372497, -187500.02235174447, -67201.2126089588, -60694.10570789644, -40672.7988329886, -46862.04157615204, -68201.85550473399, -64660.623927190776, -0.076, 0.962, 0.296, 192.0, 0.0, 0.0, 0.0, 0.0, 0.0, 0.0, 0.0, 0.0, 0.0, 1.695416713843518E9, 0.0, 2023-09-22 16:05:13.843
188.0, -21648.268002065182, -9219.960477347431, -66026.67314132133, -66824.98804628706, -33135.83530614797, -41237.33684269629, -187500.02235174447, -61774.61138661044, -6598.413777162287, -187500.02235174447, -67191.71311756529, -60682.996890902155, -40669.62488527595, -46856.185419104746, -68200.53675181112, -64658.56756670089, -0.076, 0.962, 0.296, 192.0, 0.0, 0.0, 0.0, 0.0, 0.0, 0.0, 0.0, 0.0, 0.0, 1.695416713843521E9, 0.0, 2023-09-22 16:05:13.843
190.0, -21652.62659223397, -9227.917698373521, -66033.5351268691, -66830.3301132119, -33148.68755920977, -41248.5350666684, -187500.02235174447, -61795.04088104259, -6607.376826688866, -187500.02235174447, -67216.34473995504, -60709.21548714823, -40692.46836810927, -46874.87147746939, -68227.58236260204, -64687.49072402606, -0.076, 0.962, 0.296, 192.0, 0.0, 0.0, 0.0, 0.0, 0.0, 0.0, 0.0, 0.0, 0.0, 1.695416713843525E9, 0.0, 2023-09-22 16:05:13.843
192.0, -21625.67038842087, -9192.62429387859, -66002.1756293983, -66793.9191214942, -33112.924768081284, -41207.519615592915, -187500.02235174447, -61749.64448805386, -6589.473079380165, -187500.02235174447, -67182.72771629426, -60668.58001572848, -40670.20603063179, -46850.95511090221, -68196.11110640898, -64655.03599107695, -0.076, 0.96, 0.292, 192.0, 126.5, 80.0, 15.0, 0.0, 4.5, 16.0, 0.0, 0.0, 0.0, 1.695416713843528E9, 0.0, 2023-09-22 16:05:13.843
194.0, -21648.268002065182, -9214.439596466971, -66030.338827412, -66815.30974093793, -33136.59526545945, -41225.91510127963, -187500.02235174447, -61779.998157024165, -6582.9016665103045, -187500.02235174447, -67193.47890537727, -60672.80449543053, -40671.033045176635, -46839.89099739683, -68200.73791751121, -64653.38196198726, -0.076, 0.96, 0.292, 192.0, 0.0, 0.0, 0.0, 0.0, 0.0, 0.0, 0.0, 0.0, 0.0, 1.695416713903801E9, 0.0, 2023-09-22 16:05:13.903
196.0, -21639.86374614999, -9205.610657407124, -66027.07547272152, -66808.53716236797, -33131.18614330127, -41214.06867671832, -187500.02235174447, -61765.62598533941, -6608.583820889452, -187500.02235174447, -67200.22913220276, -60678.05715537753, -40682.41008310438, -46854.06200338149, -68215.66888280737, -64659.79691264593, -0.076, 0.96, 0.292, 192.0, 0.0, 0.0, 0.0, 0.0, 0.0, 0.0, 0.0, 0.0, 0.0, 1.695416713903813E9, 0.0, 2023-09-22 16:05:13.903
198.0, -21671.62557502098, -9239.808826423745, -66051.79650208908, -66845.43989246368, -33155.54954475755, -41250.34555796928, -187500.02235174447, -61803.10986079096, -6611.444844179731, -187500.02235174447, -67221.55269641313, -60699.80540273254, -40691.507243097694, -46862.5109627856, -68227.6047143465, -64675.80076167593, -0.076, 0.96, 0.292, 192.0, 0.0, 0.0, 0.0, 0.0, 0.0, 0.0, 0.0, 0.0, 0.0, 1.695416713903817E9, 0.0, 2023-09-22 16:05:13.903
200.0, -21636.13100482595, -9207.644666152557, -66012.27861789211, -66813.05221474794, -33123.69830890874, -41218.18139769809, -187500.02235174447, -61761.60267133745, -6612.003637791114, -187500.02235174447, -67208.90160905142, -60695.04448116356, -40684.935830227834, -46869.17178263328, -68219.89336250942, -64671.37511627378, -0.076, 0.96, 0.292, 192.0, 0.0, 0.0, 0.0, 0.0, 0.0, 0.0, 0.0, 0.0, 0.0, 1.69541671390382E9, 0.0, 2023-09-22 16:05:13.903
202.0, -21634.789900158634, -9210.908020843031, -66012.14450742537, -66810.66057809122, -33126.82755313248, -41225.982156513, -187500.02235174447, -61763.144941704864, -6581.247637420612, -187500.02235174447, -67192.83070478805, -60680.38173680088, -40666.2497718632, -46852.02799463606, -68198.70390876579, -64654.34308699884, -0.08, 0.9560000000000001, 0.294, 192.0, 126.5, 64.0, 14.5, 112.0, 4.5, 24.0, 0.0, 0.0, 0.0, 1.695416713903824E9, 0.0, 2023-09-22 16:05:13.903
204.0, -21605.777335855644, -9180.464944894904, -65983.78014371158, -66778.69758352013, -33116.23282626067, -41192.43218808558, -187500.02235174447, -61734.288839613066, -6575.413832117776, -187500.02235174447, -67166.99208819773, -60654.20784404372, -40654.872733935445, -46845.009546877096, -68185.53873128162, -64634.49473792252, -0.08, 0.9560000000000001, 0.294, 192.0, 0.0, 0.0, 0.0, 0.0, 0.0, 0.0, 0.0, 0.0, 0.0, 1.695416713903827E9, 0.0, 2023-09-22 16:05:13.903
206.0, -21622.13881279693, -9194.747709601845, -66005.7295567667, -66807.10665072282, -33123.29597750855, -41215.38742964118, -187500.02235174447, -61759.74747654766, -6566.92016922476, -187500.02235174447, -67168.84728298751, -60657.04651558954, -40656.92909442534, -46834.727744427655, -68193.0936209075, -64637.91455482419, -0.08, 0.9560000000000001, 0.294, 192.0, 0.0, 0.0, 0.0, 0.0, 0.0, 0.0, 0.0, 0.0, 0.0, 1.69541671390383E9, 0.0, 2023-09-22 16:05:13.903
208.0, -21605.95614981129, -9174.742898314345, -65989.45748680324, -66777.22236838608, -33113.52826518157, -41195.8743567317, -187500.02235174447, -61748.70571478674, -6571.971663471659, -187500.02235174447, -67167.3050126201, -60653.38082949887, -40649.59772224399, -46839.89099739683, -68197.56396979856, -64646.139996783735, -0.08, 0.9560000000000001, 0.294, 192.0, 0.0, 0.0, 0.0, 0.0, 0.0, 0.0, 0.0, 0.0, 0.0, 1.695416713903834E9, 0.0, 2023-09-22 16:05:13.903
210.0, -21638.165013571386, -9207.309389985729, -66019.07354820652, -66815.73442408258, -33130.24737003414, -41227.94911002507, -187500.02235174447, -61773.13617147639, -6565.914340724271, -187500.02235174447, -67167.57323355356, -60654.54312021055, -40651.18469610032, -46830.458561236694, -68195.48525756423, -64644.44126420513, -0.08, 0.9560000000000001, 0.294, 192.0, 0.0, 0.0, 0.0, 0.0, 0.0, 0.0, 0.0, 0.0, 0.0, 1.695416713963329E9, 0.0, 2023-09-22 16:05:13.963
212.0, -21643.417673518383, -9209.276343497795, -66015.29610339357, -66811.57699961388, -33137.71285268222, -41216.594423841765, -187500.02235174447, -61771.951529020254, -6591.037701492036, -187500.02235174447, -67193.32244316608, -60682.214579846215, -40678.56558305807, -46858.37589006137, -68220.22863867624, -64671.12924708477, -0.076, 0.9580000000000001, 0.296, 192.0, 126.5, 80.0, 14.5, 120.0, 4.5, 32.0, 0.0, 0.0, 0.0, 1.695416713963341E9, 0.0, 2023-09-22 16:05:13.963
214.0, -21660.829682449064, -9229.169396063018, -66025.9802372432, -66826.3738544433, -33135.008291603124, -41228.709069336546, -187500.02235174447, -61772.26445344263, -6588.735471813139, -187500.02235174447, -67194.73060306675, -60687.24372234866, -40676.86685047947, -46848.67523296776, -68211.35499612748, -64661.89797662473, -0.076, 0.9580000000000001, 0.296, 192.0, 0.0, 0.0, 0.0, 0.0, 0.0, 0.0, 0.0, 0.0, 0.0, 1.695416713963344E9, 0.0, 2023-09-22 16:05:13.963
216.0, -21632.979408857755, -9205.007160306832, -66006.24364688917, -66801.20579018662, -33133.197800302245, -41206.22321441451, -187500.02235174447, -61763.88254927189, -6593.54109687103, -187500.02235174447, -67194.99882400023, -60689.18832411627, -40681.71717902627, -46857.39241330534, -68214.19366767332, -64662.32265976938, -0.076, 0.9580000000000001, 0.296, 192.0, 0.0, 0.0, 0.0, 0.0, 0.0, 0.0, 0.0, 0.0, 0.0, 1.695416713963347E9, 0.0, 2023-09-22 16:05:13.963
218.0, -21649.184423587853, -9225.324896016706, -66032.0375599906, -66833.70522662465, -33140.55152422804, -41236.77804908491, -187500.02235174447, -61783.485029159194, -6581.448803120709, -187500.02235174447, -67185.83460877354, -60682.30398682404, -40669.28960910912, -46850.48572426865, -68208.60573155948, -64658.18758704515, -0.076, 0.9580000000000001, 0.296, 192.0, 0.0, 0.0, 0.0, 0.0, 0.0, 0.0, 0.0, 0.0, 0.0, 1.695416713963351E9, 0.0, 2023-09-22 16:05:13.963
220.0, -21633.6052577025, -9207.935238830476, -66015.09493769347, -66819.75773808453, -33146.13946034187, -41230.34074668178, -187500.02235174447, -61776.89126454488, -6600.380730674355, -187500.02235174447, -67197.18929495684, -60695.40210907485, -40685.651086050406, -46872.681006512765, -68224.83309803404, -64678.438267521655, -0.076, 0.9580000000000001, 0.296, 192.0, 0.0, 0.0, 0.0, 0.0, 0.0, 0.0, 0.0, 0.0, 0.0, 1.695416713963354E9, 0.0, 2023-09-22 16:05:13.963
222.0, -21643.127100840462, -9211.86914585461, -66023.09686220848, -66827.69260736616, -33138.0704805935, -41240.04140377539, -187500.02235174447, -61776.578340122505, -6584.510992111086, -187500.02235174447, -67174.34581212352, -60676.24666407665, -40662.360568327975, -46855.626625493365, -68204.09067917951, -64658.8134358899, -0.07, 0.9580000000000001, 0.296, 192.0, 126.5, 104.0, 14.5, 120.0, 4.5, 32.0, 0.0, 0.0, 0.0, 1.695416713963357E9, 0.0, 2023-09-22 16:05:13.963
224.0, -21634.834603647545, -9203.800166106244, -66014.29027489308, -66818.97542702859, -33147.90524815384, -41231.50303739346, -187500.02235174447, -61776.9806715227, -6596.424471905765, -187500.02235174447, -67191.53430360965, -60688.942454927266, -40681.06897843707, -46868.478878555165, -68222.1508886994, -64674.77258143099, -0.07, 0.9580000000000001, 0.296, 192.0, 0.0, 0.0, 0.0, 0.0, 0.0, 0.0, 0.0, 0.0, 0.0, 1.695416714023013E9, 0.0, 2023-09-22 16:05:14.023
226.0, -21640.131967083453, -9213.05378831074, -66026.71784481023, -66825.524488154, -33130.068556078506, -41239.393203186184, -187500.02235174447, -61775.460752899744, -6590.076576480458, -187500.02235174447, -67182.63830931643, -60677.610120488425, -40669.356664342486, -46854.82196269297, -68209.79037401562, -64665.720124926585, -0.07, 0.9580000000000001, 0.296, 192.0, 0.0, 0.0, 0.0, 0.0, 0.0, 0.0, 0.0, 0.0, 0.0, 1.695416714023028E9, 0.0, 2023-09-22 16:05:14.023
228.0, -21651.15137709992, -9222.30741051524, -66032.64105709089, -66827.6702556217, -33157.71766396972, -41240.55549389786, -187500.02235174447, -61788.76004085065, -6601.7441870861285, -187500.02235174447, -67209.616864874, -60698.19607713176, -40683.08063543805, -46866.534276787555, -68229.92929576985, -64684.54029375796, -0.07, 0.9580000000000001, 0.296, 192.0, 0.0, 0.0, 0.0, 0.0, 0.0, 0.0, 0.0, 0.0, 0.0, 1.695416714023032E9, 0.0, 2023-09-22 16:05:14.023
230.0, -21657.09694112503, -9229.035285596286, -66047.08028400902, -66839.74019762757, -33144.32896904099, -41247.708052123555, -187500.02235174447, -61788.044785028076, -6596.357416672399, -187500.02235174447, -67197.59162635704, -60682.66161473532, -40675.59280104552, -46856.78891620504, -68216.94293224132, -64671.48687499606, -0.07, 0.9580000000000001, 0.296, 192.0, 0.0, 0.0, 0.0, 0.0, 0.0, 0.0, 0.0, 0.0, 0.0, 1.695416714023035E9, 0.0, 2023-09-22 16:05:14.023
232.0, -21650.123196854973, -9220.027532580798, -66024.97440874272, -66831.26888647901, -33154.85664067944, -41237.850932818765, -187500.02235174447, -61792.64924438587, -6608.516765656086, -187500.02235174447, -67220.94919931283, -60713.261152894636, -40699.28565016814, -46879.051253682526, -68244.34617094352, -64700.99117767706, -0.068, 0.97, 0.3, 192.0, 126.5, 112.0, 15.0, 40.0, 4.5, 48.0, 0.0, 0.0, 0.0, 1.695416714023038E9, 0.0, 2023-09-22 16:05:14.023
234.0, -21638.38853101594, -9199.218058492906, -66004.4778590772, -66801.74223205356, -33121.8207623745, -41211.40881912813, -187500.02235174447, -61756.01473522362, -6588.757823557595, -187500.02235174447, -67173.4070388564, -60667.35066978344, -40662.94171368381, -46838.281671796045, -68194.43472557483, -64653.71723815409, -0.068, 0.97, 0.3, 192.0, 0.0, 0.0, 0.0, 0.0, 0.0, 0.0, 0.0, 0.0, 0.0, 1.695416714023042E9, 0.0, 2023-09-22 16:05:14.023
236.0, -21631.168917556875, -9190.277360710783, -65999.76164099714, -66791.6168918153, -33121.865465863404, -41204.524481835906, -187500.02235174447, -61751.54438633256, -6577.291378652022, -187500.02235174447, -67183.82295177257, -60674.05619312003, -40661.77942297213, -46831.77731415955, -68199.55327505509, -64653.828996876364, -0.068, 0.97, 0.3, 192.0, 0.0, 0.0, 0.0, 0.0, 0.0, 0.0, 0.0, 0.0, 0.0, 1.695416714023045E9, 0.0, 2023-09-22 16:05:14.023
238.0, -21623.971655842266, -9179.704985583423, -65992.98906242718, -66773.51197880649, -33104.87814007737, -41195.852004987246, -187500.02235174447, -61740.74849376065, -6574.7432797841175, -187500.02235174447, -67156.39736132591, -60640.57327992598, -40643.965082641254, -46817.33808724143, -68177.80502770007, -64630.58318264284, -0.068, 0.97, 0.3, 192.0, 0.0, 0.0, 0.0, 0.0, 0.0, 0.0, 0.0, 0.0, 0.0, 1.695416714023048E9, 0.0, 2023-09-22 16:05:14.023
240.0, -21625.71509190978, -9180.509648383815, -65996.9229694513, -66772.39439158373, -33118.736221639665, -41204.16685392462, -187500.02235174447, -61755.34418288997, -6583.639274077329, -187500.02235174447, -67174.79284701262, -60654.07373357699, -40649.776536199635, -46825.295308267516, -68191.841923218, -64643.10015953782, -0.068, 0.97, 0.3, 192.0, 0.0, 0.0, 0.0, 0.0, 0.0, 0.0, 0.0, 0.0, 0.0, 1.695416714084224E9, 0.0, 2023-09-22 16:05:14.084
242.0, -21617.444946461314, -9173.893532025044, -65995.58186478399, -66763.34193507933, -33112.164808769805, -41200.90349923414, -187500.02235174447, -61739.943830960256, -6583.34870139941, -187500.02235174447, -67150.76472172317, -60628.324523964475, -40634.19737031429, -46810.744322627106, -68169.87015841845, -64623.16240348368, -0.07200000000000001, 0.966, 0.298, 192.0, 126.5, 96.0, 15.0, 24.0, 4.5, 40.0, 0.0, 0.0, 0.0, 1.695416714084235E9, 0.0, 2023-09-22 16:05:14.084
244.0, -21634.544030969624, -9190.836154322167, -66022.40395813037, -66790.07462144789, -33135.47767823669, -41229.469028648025, -187500.02235174447, -61768.107028973944, -6591.2388671921335, -187500.02235174447, -67179.97845172626, -60656.95710861172, -40655.27506533564, -46826.815226890474, -68191.596054029, -64648.93396484065, -0.07200000000000001, 0.966, 0.298, 192.0, 0.0, 0.0, 0.0, 0.0, 0.0, 0.0, 0.0, 0.0, 0.0, 1.695416714084239E9, 0.0, 2023-09-22 16:05:14.084
