%OpenBCI Raw EXG Data
%Number of channels = 16
%Sample Rate = 125 Hz
%Board = OpenBCI_GUI$BoardCytonSerialDaisy
Sample Index, EXG Channel 0, EXG Channel 1, EXG Channel 2, EXG Channel 3, EXG Channel 4, EXG Channel 5, EXG Channel 6, EXG Channel 7, EXG Channel 8, EXG Channel 9, EXG Channel 10, EXG Channel 11, EXG Channel 12, EXG Channel 13, EXG Channel 14, EXG Channel 15, Accel Channel 0, Accel Channel 1, Accel Channel 2, Other, Other, Other, Other, Other, Other, Other, Analog Channel 0, Analog Channel 1, Analog Channel 2, Timestamp, Other, Timestamp (Formatted)
178.0, 7442.214482094584, 26990.40198211694, 187500.0, -43612.880243406325, 3609.5161568541716, -11050.501293003714, -187500.02235174447, -20957.755560607384, -5418.420483877717, 5997.934162370463, -46230.04600167823, 187500.0, -25039.318208613186, -45612.4673023781, 13096.803497887076, -20987.505732477395, 0.0, 0.0, 0.0, 192.0, 0.0, 0.0, 0.0, 0.0, 0.0, 0.0, 0.0, 0.0, 0.0, 1.695334815564211E9, 0.0, 2023-09-21 17:20:15.564
180.0, 7449.52350253147, 26986.401019859437, 187500.0, -43618.57993824243, 3620.3567529149955, -11055.642194228434, -187500.02235174447, -20960.013086797368, -5403.713036026124, 6000.2587437938155, -46212.589289258634, 187500.0, -25031.495098053827, -45600.64322956124, 13057.978517768208, -20978.185055039532, 0.0, 0.0, 0.0, 192.0, 0.0, 0.0, 0.0, 0.0, 0.0, 0.0, 0.0, 0.0, 0.0, 1.695334815564242E9, 0.0, 2023-09-21 17:20:15.564
182.0, 7465.706165517112, 27000.68378456638, 187500.0, -43601.50320547858, 3610.14200569892, -11045.51685399018, -187500.02235174447, -20946.870261057647, -5413.056065208443, 5997.218906547893, -46220.47945505136, 187500.0, -25033.23853412134, -45614.389552401255, 13092.713128651754, -20982.565996952773, 0.0, 0.0, 0.0, 192.0, 0.0, 0.0, 0.0, 0.0, 0.0, 0.0, 0.0, 0.0, 0.0, 1.695334815564253E9, 0.0, 2023-09-21 17:20:15.564
184.0, 7473.5963313098355, 27004.908264268433, 187500.0, -43599.58095545542, 3632.493750154227, -11057.296223318128, -187500.02235174447, -20958.135540263123, -5381.741271226558, 6011.52402299929, -46192.96445762688, 187500.0, -25009.031594876244, -45591.814290501396, 13042.689924560776, -20965.712781633472, 0.06, 1.006, 0.14, 192.0, 0.5, 112.0, 15.5, 56.0, 2.0, 48.0, 0.0, 0.0, 0.0, 1.695334815564262E9, 0.0, 2023-09-21 17:20:15.564
186.0, 7477.865514500799, 27010.33973817107, 187500.0, -43597.077560076425, 3623.4859971387386, -11055.686897717345, -187500.02235174447, -20961.35419146469, -5396.2475533780525, 6019.101264369639, -46201.77104494227, 187500.0, -25023.269656094275, -45600.30795339441, 13080.352613967969, -20975.52519744935, 0.06, 1.006, 0.14, 192.0, 0.0, 0.0, 0.0, 0.0, 0.0, 0.0, 0.0, 0.0, 0.0, 1.695334815564273E9, 0.0, 2023-09-21 17:20:15.564
188.0, 7473.484572587558, 27014.564217873125, 187500.0, -43589.05328381697, 3631.9796600317554, -11050.635403470445, -187500.02235174447, -20952.614659382663, -5387.485669551572, 6023.236337093871, -46193.12091983807, 187500.0, -25017.927589169456, -45584.10293866431, 13039.6277355704, -20972.06067705878, 0.06, 1.006, 0.14, 192.0, 0.0, 0.0, 0.0, 0.0, 0.0, 0.0, 0.0, 0.0, 0.0, 1.695334815564302E9, 0.0, 2023-09-21 17:20:15.564
190.0, 7475.049194699431, 27005.95879625783, 187500.0, -43600.095045577895, 3635.5782908890596, -11065.275796088672, -187500.02235174447, -20959.700162374993, -5393.16301264322, 6020.889403926063, -46199.02178037426, 187500.0, -25016.38531880204, -45598.63157256026, 13073.803552842564, -20971.77010438086, 0.06, 1.006, 0.14, 192.0, 0.0, 0.0, 0.0, 0.0, 0.0, 0.0, 0.0, 0.0, 0.0, 1.695334815564312E9, 0.0, 2023-09-21 17:20:15.564
192.0, 7464.990909694542, 26995.252310663738, 187500.0, -43613.95312714018, 3628.537491385638, -11075.311729349105, -187500.02235174447, -20968.819674112758, -5394.817041732913, 5999.856412393619, -46201.52517575326, 187500.0, -25020.632150248548, -45609.80744478792, 13050.49068337568, -20980.01789808487, 0.06, 1.006, 0.14, 192.0, 0.0, 0.0, 0.0, 0.0, 0.0, 0.0, 0.0, 0.0, 0.0, 1.695334815564321E9, 0.0, 2023-09-21 17:20:15.564
194.0, 7479.43013661267, 27007.29990092515, 187500.0, -43613.237871317615, 3625.7435233287247, -11066.6616042449, -187500.02235174447, -20968.95378457949, -5394.59352428836, 6003.812671162209, -46202.17337634246, 187500.0, -25028.030577663252, -45618.368162914296, 13075.904616821363, -20989.11505807818, 0.054, 1.004, 0.14200000000000002, 192.0, 0.5, 88.0, 15.5, 48.0, 2.0, 56.0, 0.0, 0.0, 0.0, 1.69533481556433E9, 0.0, 2023-09-21 17:20:15.564
0.0, 3748.745173066279, 13547.057038194782, 93749.98882412778, -21902.5190952443, 1654.8784559820242, -5670.704623544768, -93750.01117587223, -10669.269939573996, -2691.798233008174, 3004.4544344490096, -23097.018670680365, 93749.98882412778, -12505.063415177276, -22804.99312937178, 6525.211814071156, -10496.446251445563, 0.066, 1.009, 0.10500000000000001, 192.0, 1.0, 56.0, 15.5, 88.0, 1.0, 16.0, 0.0, 0.0, 0.0, 1.695334815709093E9, 0.0, 2023-09-21 17:20:15.709
2.0, 7503.145337479751, 27099.679660758935, 187500.0, -43800.05375147507, 3303.6325339832943, -11333.496729552357, -187500.02235174447, -21347.70409437467, -5760.37982229946, 6070.376166150113, -46516.81888303982, 187500.0, -25705.601359081433, -45511.1915482511, 12305.708206380392, -21178.747258037005, 0.066, 1.009, 0.10500000000000001, 192.0, 0.0, 0.0, 0.0, 0.0, 0.0, 0.0, 0.0, 0.0, 0.0, 1.695334815709126E9, 0.0, 2023-09-21 17:20:15.709
4.0, 7511.7731108395, 27112.733079520833, 187500.0, -43787.80499551356, 3301.8667461713253, -11323.5725550142, -187500.02235174447, -21352.46501594365, -5754.680127463356, 6080.277988943814, -46506.090045701276, 187500.0, -25701.60039682393, -45499.590992878795, 12312.033750061244, -21168.71132477657, 0.066, 1.009, 0.10500000000000001, 192.0, 0.0, 0.0, 0.0, 0.0, 0.0, 0.0, 0.0, 0.0, 0.0, 1.695334815709136E9, 0.0, 2023-09-21 17:20:15.709
6.0, 7516.9140120642205, 27114.632977799534, 187500.0, -43795.38223688391, 3293.909525145236, -11325.114825381617, -187500.02235174447, -21372.246309786595, -5752.824932673566, 6093.756090850365, -46506.40297012365, 187500.0, -25705.71311780371, -45495.52297538793, 12378.619596793604, -21166.565557308862, 0.066, 1.009, 0.10500000000000001, 192.0, 0.0, 0.0, 0.0, 0.0, 0.0, 0.0, 0.0, 0.0, 0.0, 1.695334815709145E9, 0.0, 2023-09-21 17:20:15.709
8.0, 7493.467032130603, 27102.898311960496, 187500.0, -43814.53768188211, 3275.357577247331, -11335.709552253433, -187500.02235174447, -21407.651473003803, -5757.47409552027, 6080.769727321831, -46506.78294977939, 187500.0, -25707.81418178251, -45498.71927484504, 12411.588419865182, -21177.71907779206, 0.084, 1.02, 0.022, 192.0, 1.0, 80.0, 15.5, 112.0, 0.0, 88.0, 0.0, 0.0, 0.0, 1.695334815709154E9, 0.0, 2023-09-21 17:20:15.709
10.0, 7494.361101908816, 27091.230701354827, 187500.0, -43830.67564137884, 3258.5043619280295, -11342.90681396804, -187500.02235174447, -21434.831194261456, -5774.5061247952135, 6076.478192386412, -46520.484569130494, 187500.0, -25723.125126734394, -45514.81253085286, 12460.069353588744, -21191.24188318752, 0.084, 1.02, 0.022, 192.0, 0.0, 0.0, 0.0, 0.0, 0.0, 0.0, 0.0, 0.0, 0.0, 1.695334815709163E9, 0.0, 2023-09-21 17:20:15.709
12.0, 7497.847974043843, 27103.21123638287, 187500.0, -43819.52212089564, 3257.587940405362, -11327.506462038335, -187500.02235174447, -21430.874935492866, -5761.430354288859, 6073.594817351677, -46507.09587420176, 187500.0, -25708.730603305175, -45508.06230402736, 12473.882731662123, -21187.531493607938, 0.084, 1.02, 0.022, 192.0, 0.0, 0.0, 0.0, 0.0, 0.0, 0.0, 0.0, 0.0, 0.0, 1.695334815709173E9, 0.0, 2023-09-21 17:20:15.709
14.0, 7501.290142689961, 27094.292890345205, 187500.0, -43828.73103961123, 3265.4334027091745, -11332.088569651673, -187500.02235174447, -21445.180051944262, -5761.4750577777695, 6079.652140099066, -46503.11726368872, 187500.0, -25709.535266105566, -45510.3421819618, 12487.785516713324, -21176.601490569294, 0.084, 1.02, 0.022, 192.0, 0.0, 0.0, 0.0, 0.0, 0.0, 0.0, 0.0, 0.0, 0.0, 1.69533481570921E9, 0.0, 2023-09-21 17:20:15.709
16.0, 7493.779956552978, 27094.40464906748, 187500.0, -43818.76216158416, 3258.1243822722895, -11325.315991081714, -187500.02235174447, -21450.991505502643, -5766.303034580116, 6078.422794154024, -46503.854871255746, 187500.0, -25693.710231031208, -45506.38592319321, 12505.488098321926, -21181.742391794014, 0.084, 1.02, 0.022, 192.0, 0.0, 0.0, 0.0, 0.0, 0.0, 0.0, 0.0, 0.0, 0.0, 1.695334815769403E9, 0.0, 2023-09-21 17:20:15.769
18.0, 7509.940267794164, 27101.35604159308, 187500.0, -43811.5425481251, 3288.612161709328, -11316.218831088405, -187500.02235174447, -21446.18588044475, -5758.032889131652, 6097.220611240937, -46492.14255716116, 187500.0, -25680.746219247132, -45491.94669627508, 12500.347197097206, -21170.99120271101, 0.094, 1.026, 0.0, 192.0, 1.0, 120.0, 16.0, 8.0, 0.0, 0.0, 0.0, 0.0, 0.0, 1.695334815769435E9, 0.0, 2023-09-21 17:20:15.769
20.0, 7490.114270462307, 27085.061619885164, 187500.0, -43827.501693666185, 3270.8201731229037, -11336.894194709563, -187500.02235174447, -21463.73199984217, -5770.23694160425, 6083.116660489638, -46503.273725899904, 187500.0, -25685.149512904827, -45500.19448997909, 12525.291743909329, -21177.897891747703, 0.094, 1.026, 0.0, 192.0, 0.0, 0.0, 0.0, 0.0, 0.0, 0.0, 0.0, 0.0, 0.0, 1.695334815769445E9, 0.0, 2023-09-21 17:20:15.769
22.0, 7500.351369422838, 27097.13156189103, 187500.0, -43832.37437395744, 3275.8269638808924, -11343.398552346058, -187500.02235174447, -21466.816540577, -5770.99690091573, 6078.422794154024, -46506.73824629048, 187500.0, -25693.710231031208, -45510.565699406354, 12533.383075402151, -21183.66464181717, 0.094, 1.026, 0.0, 192.0, 0.0, 0.0, 0.0, 0.0, 0.0, 0.0, 0.0, 0.0, 0.0, 1.695334815769454E9, 0.0, 2023-09-21 17:20:15.769
24.0, 7504.687607847168, 27105.155838150484, 187500.0, -43817.06342900556, 3279.6267604382947, -11327.595869016155, -187500.02235174447, -21448.309296168005, -5759.642214732435, 6090.559791393255, -46494.15421416214, 187500.0, -25676.655850011808, -45496.37234167723, 12550.10218025472, -21176.892063247215, 0.094, 1.026, 0.0, 192.0, 0.0, 0.0, 0.0, 0.0, 0.0, 0.0, 0.0, 0.0, 0.0, 1.695334815769463E9, 0.0, 2023-09-21 17:20:15.769
26.0, 7509.6943986051565, 27103.546512549703, 187500.0, -43829.51335066716, 3281.906638372736, -11338.972906943907, -187500.02235174447, -21455.81948230499, -5765.051336890619, 6094.069015272738, -46495.89765022966, 187500.0, -25689.2622338846, -45489.97974276302, 12536.557023114805, -21174.65688880168, 0.094, 1.026, 0.0, 192.0, 0.0, 0.0, 0.0, 0.0, 0.0, 0.0, 0.0, 0.0, 0.0, 1.695334815769472E9, 0.0, 2023-09-21 17:20:15.769
28.0, 7497.557401365924, 27099.389088081014, 187500.0, -43835.7941908591, 3257.4985334275407, -11342.057447678739, -187500.02235174447, -21445.33651415545, -5776.182505629362, 6087.564657636244, -46505.64301081217, 187500.0, -25691.922091474786, -45493.4889666425, 12561.30040422683, -21184.737525551027, 0.09, 1.026, -0.006, 192.0, 1.0, 104.0, 16.0, 8.0, 127.5, 104.0, 0.0, 0.0, 0.0, 1.695334815769481E9, 0.0, 2023-09-21 17:20:15.769
30.0, 7516.802253341944, 27106.809867240176, 187500.0, -43843.170266529356, 3264.226408508588, -11346.550148314256, -187500.02235174447, -21438.698046052225, -5772.80739221661, 6092.705558860965, -46489.370940848705, 187500.0, -25681.41677158079, -45494.60655386526, 12523.704770053002, -21188.514970363973, 0.09, 1.026, -0.006, 192.0, 0.0, 0.0, 0.0, 0.0, 0.0, 0.0, 0.0, 0.0, 0.0, 1.695334815829099E9, 0.0, 2023-09-21 17:20:15.829
32.0, 7510.655523616734, 27113.448335343404, 187500.0, -43827.658155877376, 3252.2458734805437, -11327.171185871504, -187500.02235174447, -21420.414319087784, -5759.530456010158, 6109.178794524526, -46471.78011796238, 187500.0, -25678.37693433487, -45487.364588661745, 12540.133302227654, -21181.585929582827, 0.09, 1.026, -0.006, 192.0, 0.0, 0.0, 0.0, 0.0, 0.0, 0.0, 0.0, 0.0, 0.0, 1.695334815829137E9, 0.0, 2023-09-21 17:20:15.829
34.0, 7506.229878214584, 27121.293797647217, 187500.0, -43822.58430988602, 3261.7677166185044, -11313.804842687232, -187500.02235174447, -21405.595112513915, -5765.163095612896, 6116.01842832785, -46460.29132131235, 187500.0, -25684.344850104437, -45472.97006523253, 12509.511412323882, -21164.352734607786, 0.09, 1.026, -0.006, 192.0, 0.0, 0.0, 0.0, 0.0, 0.0, 0.0, 0.0, 0.0, 0.0, 1.695334815829147E9, 0.0, 2023-09-21 17:20:15.829
36.0, 7503.078282246385, 27122.970178481362, 187500.0, -43819.00803077317, 3240.2206349635885, -11304.260647804815, -187500.02235174447, -21395.8497519314, -5773.656758505912, 6131.150559324094, -46452.714079942, 187500.0, -25695.677184543274, -45466.309245384844, 12531.505528867905, -21158.451874071583, 0.09, 1.026, -0.006, 192.0, 0.0, 0.0, 0.0, 0.0, 0.0, 0.0, 0.0, 0.0, 0.0, 1.69533481582919E9, 0.0, 2023-09-21 17:20:15.829
38.0, 7504.508793891525, 27120.93616973593, 187500.0, -43829.80392334508, 3258.660824139217, -11312.351979297637, -187500.02235174447, -21404.030490402045, -5771.66745324939, 6134.659783203577, -46442.72285017048, 187500.0, -25683.383725092855, -45455.960387702034, 12484.276292833842, -21159.70357176108, 0.092, 1.02, 0.004, 192.0, 1.0, 112.0, 15.5, 112.0, 0.0, 16.0, 0.0, 0.0, 0.0, 1.6953348158292E9, 0.0, 2023-09-21 17:20:15.829
40.0, 7506.252229959039, 27125.719443049366, 187500.0, -43826.4958651657, 3251.575321146884, -11304.081833849172, -187500.02235174447, -21390.37357453985, -5784.922037711387, 6141.477065262445, -46442.67814668157, 187500.0, -25690.89391122984, -45461.771841260415, 12513.311208881285, -21163.302202618386, 0.092, 1.02, 0.004, 192.0, 0.0, 0.0, 0.0, 0.0, 0.0, 0.0, 0.0, 0.0, 0.0, 1.69533481582921E9, 0.0, 2023-09-21 17:20:15.829
42.0, 7517.24928823105, 27135.397748398515, 187500.0, -43819.47741740673, 3273.681196413183, -11296.839868645653, -187500.02235174447, -21379.309461034474, -5777.858886463509, 6149.009603143883, -46427.6577744076, 187500.0, -25685.060105927005, -45446.729117241994, 12475.045022373799, -21149.13119663372, 0.092, 1.02, 0.004, 192.0, 0.0, 0.0, 0.0, 0.0, 0.0, 0.0, 0.0, 0.0, 0.0, 1.69533481582922E9, 0.0, 2023-09-21 17:20:15.829
44.0, 7525.362971468327, 27144.69607409192, 187500.0, -43821.57848138553, 3262.1253445297893, -11295.878743634075, -187500.02235174447, -21376.224920299643, -5780.518744053691, 6162.800629472808, -46425.266137750885, 187500.0, -25692.65969904181, -45446.70676549754, 12511.47836583595, -21143.163280864155, 0.092, 1.02, 0.004, 192.0, 0.0, 0.0, 0.0, 0.0, 0.0, 0.0, 0.0, 0.0, 0.0, 1.695334815829229E9, 0.0, 2023-09-21 17:20:15.829
46.0, 7514.34356145186, 27133.631960586546, 187500.0, -43834.073106536045, 3253.1175915143003, -11310.206211829927, -187500.02235174447, -21379.354164523385, -5771.890970693943, 6162.59946377271, -46413.5538236563, 187500.0, -25684.903643715817, -45442.07995439529, 12463.153894323576, -21146.069007643346, 0.092, 1.02, 0.004, 192.0, 0.0, 0.0, 0.0, 0.0, 0.0, 0.0, 0.0, 0.0, 0.0, 1.695334815889212E9, 0.0, 2023-09-21 17:20:15.889
48.0, 7517.5622126534245, 27134.5036786203, 187500.0, -43834.006051302684, 3240.421800663686, -11314.095415365151, -187500.02235174447, -21378.23657730062, -5790.912305225409, 6158.59850151521, -46430.89877735362, 187500.0, -25700.57221657899, -45464.923437228616, 12497.262656362374, -21164.82212124135, 0.094, 1.018, 0.01, 192.0, 1.0, 120.0, 15.5, 104.0, 0.0, 40.0, 0.0, 0.0, 0.0, 1.69533481588924E9, 0.0, 2023-09-21 17:20:15.889
50.0, 7517.875137075799, 27142.46089964639, 187500.0, -43825.33357445402, 3247.59671063384, -11309.267438562803, -187500.02235174447, -21363.663239915757, -5785.838459234054, 6158.6879084930315, -46422.71803888298, 187500.0, -25703.723812547185, -45451.89237021117, 12462.639804201104, -21165.62678404174, 0.094, 1.018, 0.01, 192.0, 0.0, 0.0, 0.0, 0.0, 0.0, 0.0, 0.0, 0.0, 0.0, 1.695334815889251E9, 0.0, 2023-09-21 17:20:15.889
52.0, 7528.045180802964, 27153.212088729393, 187500.0, -43815.02942026012, 3251.240044980055, -11299.47737449138, -187500.02235174447, -21351.056856042964, -5775.534305040158, 6180.03382444785, -46407.652963120105, 187500.0, -25679.80744598001, -45436.71553572602, 12474.821504929247, -21153.66860075815, 0.094, 1.018, 0.01, 192.0, 0.0, 0.0, 0.0, 0.0, 0.0, 0.0, 0.0, 0.0, 0.0, 1.69533481588926E9, 0.0, 2023-09-21 17:20:15.889
54.0, 7513.673009118201, 27147.46769040438, 187500.0, -43815.543510382595, 3242.6346233647614, -11293.956493610918, -187500.02235174447, -21337.9363820477, -5779.959950442309, 6168.74619349792, -46411.11748351067, 187500.0, -25679.47216981318, -45433.20631184654, 12461.253996044874, -21150.584060023317, 0.094, 1.018, 0.01, 192.0, 0.0, 0.0, 0.0, 0.0, 0.0, 0.0, 0.0, 0.0, 0.0, 1.695334815889269E9, 0.0, 2023-09-21 17:20:15.889
56.0, 7518.657448131735, 27149.635809616546, 187500.0, -43818.35983018397, 3247.395544933742, -11299.432671002469, -187500.02235174447, -21338.69634135918, -5775.9142846958985, 6183.5206965828775, -46405.57425088576, 187500.0, -25677.885195956853, -45436.89434968166, 12467.579539725726, -21144.10205413128, 0.094, 1.018, 0.01, 192.0, 0.0, 0.0, 0.0, 0.0, 0.0, 0.0, 0.0, 0.0, 0.0, 1.695334815889279E9, 0.0, 2023-09-21 17:20:15.889
58.0, 7510.521413150002, 27149.94873403892, 187500.0, -43813.88948129291, 3245.629757121773, -11291.251932531826, -187500.02235174447, -21332.057873255955, -5765.274854335172, 6177.5080773244, -46398.71226533798, 187500.0, -25670.151492375317, -45434.502713024944, 12439.550452178772, -21142.939763419603, 0.09, 1.016, 0.02, 192.0, 1.0, 104.0, 15.5, 96.0, 0.0, 80.0, 0.0, 0.0, 0.0, 1.695334815889337E9, 0.0, 2023-09-21 17:20:15.889
60.0, 7497.043311243452, 27125.942960493918, 187500.0, -43841.270368250654, 3242.746382087038, -11313.201345586938, -187500.02235174447, -21352.688533388202, -5781.613979532001, 6174.647054034121, -46413.732637611945, 187500.0, -25690.156303662814, -45448.71842249852, 12450.301641261774, -21153.310972846863, 0.09, 1.016, 0.02, 192.0, 0.0, 0.0, 0.0, 0.0, 0.0, 0.0, 0.0, 0.0, 0.0, 1.695334815949602E9, 0.0, 2023-09-21 17:20:15.949
62.0, 7491.120098962796, 27133.520201864267, 187500.0, -43837.87290309345, 3242.8581408093146, -11314.497746765346, -187500.02235174447, -21351.21331825415, -5803.473985609292, 6154.374021813157, -46424.10384703921, 187500.0, -25689.619861795887, -45464.38699536169, 12455.12961806412, -21177.115580691767, 0.09, 1.016, 0.02, 192.0, 0.0, 0.0, 0.0, 0.0, 0.0, 0.0, 0.0, 0.0, 0.0, 1.695334815949634E9, 0.0, 2023-09-21 17:20:15.949
64.0, 7503.905296791232, 27144.69607409192, 187500.0, -43830.34036521201, 3245.4732949105855, -11315.48122352138, -187500.02235174447, -21347.79350135249, -5787.850116235032, 6171.450754577012, -46410.98337304394, 187500.0, -25676.32057384498, -45454.351062101254, 12447.977059838422, -21173.695763790103, 0.09, 1.016, 0.02, 192.0, 0.0, 0.0, 0.0, 0.0, 0.0, 0.0, 0.0, 0.0, 0.0, 1.695334815949644E9, 0.0, 2023-09-21 17:20:15.949
66.0, 7490.404843140226, 27135.37539665406, 187500.0, -43823.07604826403, 3234.4762366385744, -11315.52592701029, -187500.02235174447, -21341.646771627282, -5788.09598542404, 6168.388565586635, -46405.66365786358, 187500.0, -25676.901719200818, -45448.830181220794, 12446.054809815265, -21168.934842221122, 0.09, 1.016, 0.02, 192.0, 0.0, 0.0, 0.0, 0.0, 0.0, 0.0, 0.0, 0.0, 0.0, 1.695334815949654E9, 0.0, 2023-09-21 17:20:15.949
68.0, 7499.479651389081, 27136.09065247663, 187500.0, -43825.80296108758, 3240.3100419414095, -11320.979752657386, -187500.02235174447, -21341.9373443052, -5796.679055294879, 6170.020242931872, -46411.788035844336, 187500.0, -25687.205873394716, -45446.885579453185, 12443.529062691816, -21161.245842128497, 0.084, 1.018, 0.024, 192.0, 1.0, 80.0, 15.5, 104.0, 0.0, 96.0, 0.0, 0.0, 0.0, 1.695334815949663E9, 0.0, 2023-09-21 17:20:15.949
70.0, 7492.640017585757, 27140.359835667594, 187500.0, -43822.15962674137, 3217.39950387472, -11320.935049168475, -187500.02235174447, -21331.92376278922, -5795.494412838747, 6170.377870843157, -46411.81038758879, 187500.0, -25688.099943172925, -45451.490038810975, 12453.676754674525, -21161.625821784237, 0.084, 1.018, 0.024, 192.0, 0.0, 0.0, 0.0, 0.0, 0.0, 0.0, 0.0, 0.0, 0.0, 1.695334815949673E9, 0.0, 2023-09-21 17:20:15.949
72.0, 7512.823642828899, 27151.71452185089, 187500.0, -43807.56393761205, 3258.8843415837696, -11300.170278569494, -187500.02235174447, -21315.964617248133, -5785.413776089404, 6180.883190737151, -46396.387683914625, 187500.0, -25685.97652744967, -45439.28598633838, 12425.401797938563, -21149.511176289463, 0.084, 1.018, 0.024, 192.0, 0.0, 0.0, 0.0, 0.0, 0.0, 0.0, 0.0, 0.0, 0.0, 1.695334815949682E9, 0.0, 2023-09-21 17:20:15.949
74.0, 7505.827546814388, 27152.429777673457, 187500.0, -43807.96626901225, 3245.0933152548455, -11296.214019800904, -187500.02235174447, -21312.142468946276, -5784.877334222476, 6192.953132743017, -46383.736596552924, 187500.0, -25670.263251097593, -45430.30058506734, 12432.263783486342, -21142.291562830396, 0.084, 1.018, 0.024, 192.0, 0.0, 0.0, 0.0, 0.0, 0.0, 0.0, 0.0, 0.0, 0.0, 1.695334815949691E9, 0.0, 2023-09-21 17:20:15.949
76.0, 7517.8527853313435, 27160.409350444002, 187500.0, -43809.48618763521, 3269.143792288756, -11289.150868553028, -187500.02235174447, -21298.574960061906, -5779.892895208943, 6198.22814443447, -46375.17587842654, 187500.0, -25666.798730707018, -45427.14898909914, 12406.849850040657, -21136.949495905577, 0.084, 1.018, 0.024, 192.0, 0.0, 0.0, 0.0, 0.0, 0.0, 0.0, 0.0, 0.0, 0.0, 1.695334816009021E9, 0.0, 2023-09-21 17:20:16.009
78.0, 7532.4708262051145, 27192.57351071519, 187500.0, -43804.94878351078, 3256.2691874824986, -11284.725223150877, -187500.02235174447, -21287.086163411877, -5781.90455220992, 6219.775226089386, -46368.425651601035, 187500.0, -25671.17967262026, -45414.76612267091, 12437.538795177794, -21135.541336004895, 0.078, 1.018, 0.038, 192.0, 1.0, 56.0, 15.5, 104.0, 0.5, 24.0, 0.0, 0.0, 0.0, 1.695334816009044E9, 0.0, 2023-09-21 17:20:16.009
80.0, 7530.705038393145, 27159.33646671015, 187500.0, -43826.4958651657, 3262.4159172077084, -11302.874839648586, -187500.02235174447, -21294.462239082128, -5771.578046271568, 6219.641115622654, -46360.58018929722, 187500.0, -25667.08930338494, -45417.04600060535, 12394.623445823605, -21142.336266319307, 0.078, 1.018, 0.038, 192.0, 0.0, 0.0, 0.0, 0.0, 0.0, 0.0, 0.0, 0.0, 0.0, 1.695334816009089E9, 0.0, 2023-09-21 17:20:16.009
82.0, 7496.506869376525, 27127.976969239353, 187500.0, -43833.53666466912, 3250.0330507794683, -11301.466679747902, -187500.02235174447, -21281.185302875674, -5778.99882543073, 6183.096013438227, -46360.58018929722, 187500.0, -25672.118445887383, -45437.654308993144, 12408.839155297179, -21149.734693734015, 0.078, 1.018, 0.038, 192.0, 0.0, 0.0, 0.0, 0.0, 0.0, 0.0, 0.0, 0.0, 0.0, 1.695334816009099E9, 0.0, 2023-09-21 17:20:16.009
84.0, 7478.401956367727, 27107.7486405073, 187500.0, -43856.447202735806, 3263.1088212858226, -11313.00017988684, -187500.02235174447, -21276.714953984614, -5788.2971511241385, 6154.418725302068, -46362.41303234256, 187500.0, -25673.32544008797, -45452.18294288909, 12372.11523915711, -21150.740522234504, 0.078, 1.018, 0.038, 192.0, 0.0, 0.0, 0.0, 0.0, 0.0, 0.0, 0.0, 0.0, 0.0, 1.695334816009109E9, 0.0, 2023-09-21 17:20:16.009
86.0, 7474.758622021512, 27100.864303215065, 187500.0, -43856.71542366927, 3249.7201263570937, -11314.81067118772, -187500.02235174447, -21273.0716196384, -5791.7616715147105, 6138.124303594149, -46365.27405563284, 187500.0, -25679.293355857535, -45470.35491113125, 12406.715739573925, -21163.078685173834, 0.078, 1.018, 0.038, 192.0, 0.0, 0.0, 0.0, 0.0, 0.0, 0.0, 0.0, 0.0, 0.0, 1.695334816009118E9, 0.0, 2023-09-21 17:20:16.009
88.0, 7474.266883643495, 27096.21514036836, 187500.0, -43865.43260400684, 3267.467411454608, -11325.830081204187, -187500.02235174447, -21280.98413717558, -5762.749107211722, 6134.5480244813, -46334.22748258442, 187500.0, -25657.545108502523, -45459.13433541469, 12350.612860991105, -21162.743409007002, 0.076, 1.018, 0.046, 192.0, 1.0, 48.0, 15.5, 104.0, 0.5, 56.0, 0.0, 0.0, 0.0, 1.695334816009127E9, 0.0, 2023-09-21 17:20:16.009
90.0, 7458.28538635795, 27070.465930755847, 187500.0, -43884.43158679386, 3251.6870798691607, -11339.732866255388, -187500.02235174447, -21294.015204193023, -5779.825839975577, 6113.246812015393, -46345.917444934545, 187500.0, -25681.684992514252, -45488.10219622877, 12390.466021354918, -21174.455723101586, 0.076, 1.018, 0.046, 192.0, 0.0, 0.0, 0.0, 0.0, 0.0, 0.0, 0.0, 0.0, 0.0, 1.695334816068665E9, 0.0, 2023-09-21 17:20:16.068
92.0, 7447.668307741679, 27057.45721548286, 187500.0, -43892.18764211985, 3248.7366496010604, -11341.588061045179, -187500.02235174447, -21300.094878684864, -5778.931770197364, 6086.268256457836, -46341.64826174358, 187500.0, -25683.65194602632, -45499.90391730117, 12365.029736164777, -21186.458609874084, 0.076, 1.018, 0.046, 192.0, 0.0, 0.0, 0.0, 0.0, 0.0, 0.0, 0.0, 0.0, 0.0, 1.695334816068691E9, 0.0, 2023-09-21 17:20:16.068
94.0, 7452.272767099473, 27054.663247425946, 187500.0, -43885.68328448335, 3246.255605966521, -11326.90296493804, -187500.02235174447, -21283.84516046586, -5782.753918499222, 6079.96506452144, -46340.8883024321, 187500.0, -25686.37885884987, -45505.178928992624, 12396.411585380029, -21191.510104120982, 0.076, 1.018, 0.046, 192.0, 0.0, 0.0, 0.0, 0.0, 0.0, 0.0, 0.0, 0.0, 0.0, 1.695334816068701E9, 0.0, 2023-09-21 17:20:16.068
96.0, 7440.225176838062, 27037.20653500635, 187500.0, -43895.7639212327, 3266.461582954119, -11333.38497083008, -187500.02235174447, -21285.186265133176, -5763.956101412309, 6070.5326283613, -46323.11866559013, 187500.0, -25659.13208235885, -45497.26641145544, 12356.178445360476, -21184.96104299558, 0.076, 1.018, 0.046, 192.0, 0.0, 0.0, 0.0, 0.0, 0.0, 0.0, 0.0, 0.0, 0.0, 1.69533481606871E9, 0.0, 2023-09-21 17:20:16.068
98.0, 7453.23389211105, 27052.02574158022, 187500.0, -43889.75130197422, 3254.9504345596356, -11317.805804944732, -187500.02235174447, -21265.181453845675, -5762.927921167365, 6067.269273670826, -46315.00498235285, 187500.0, -25660.45083528171, -45496.84172831079, 12382.285282884275, -21179.01547897047, 0.08, 1.008, 0.06, 192.0, 1.0, 64.0, 15.5, 64.0, 0.5, 112.0, 0.0, 0.0, 0.0, 1.695334816068719E9, 0.0, 2023-09-21 17:20:16.068
100.0, 7449.389392064738, 27052.562183447146, 187500.0, -43901.530671302164, 3239.2148064630996, -11329.227546361393, -187500.02235174447, -21269.428285292182, -5745.85118840351, 6071.784326050798, -46298.19647052246, 187500.0, -25649.096149098415, -45497.847556811284, 12337.201814317921, -21179.104885948287, 0.08, 1.008, 0.06, 192.0, 0.0, 0.0, 0.0, 0.0, 0.0, 0.0, 0.0, 0.0, 0.0, 1.695334816068728E9, 0.0, 2023-09-21 17:20:16.068
102.0, 7450.417572309682, 27039.9334478299, 187500.0, -43916.50634008722, 3224.037971977946, -11351.288718138781, -187500.02235174447, -21281.431172064684, -5758.859903676499, 6070.554980105756, -46303.24796476936, 187500.0, -25668.028076652063, -45512.82322559634, 12361.92284368549, -21187.509141863484, 0.08, 1.008, 0.06, 192.0, 0.0, 0.0, 0.0, 0.0, 0.0, 0.0, 0.0, 0.0, 0.0, 1.695334816068787E9, 0.0, 2023-09-21 17:20:16.068
104.0, 7443.399124550716, 27032.646779137467, 187500.0, -43913.131226674464, 3234.610347105306, -11352.316898383726, -187500.02235174447, -21283.107552898833, -5757.608205987001, 6057.032174710295, -46297.615325166626, 187500.0, -25671.470245298176, -45519.595804166296, 12342.275660309275, -21202.1048309928, 0.08, 1.008, 0.06, 192.0, 0.0, 0.0, 0.0, 0.0, 0.0, 0.0, 0.0, 0.0, 0.0, 1.695334816068796E9, 0.0, 2023-09-21 17:20:16.068
106.0, 7448.584729264347, 27028.5787616466, 187500.0, -43912.55008131863, 3231.7940273039376, -11350.975793716407, -187500.02235174447, -21282.59346277636, -5754.970700141275, 6059.647328811566, -46292.720293130915, 187500.0, -25659.243841081126, -45521.406295467175, 12348.176520845476, -21196.47219139006, 0.08, 1.008, 0.06, 192.0, 0.0, 0.0, 0.0, 0.0, 0.0, 0.0, 0.0, 0.0, 0.0, 1.695334816129078E9, 0.0, 2023-09-21 17:20:16.129
108.0, 7444.114380373286, 27036.603037906058, 187500.0, -43904.83872948155, 3229.2459284360325, -11339.263479621826, -187500.02235174447, -21274.63624175027, -5745.024173858664, 6060.29552940077, -46283.421967437505, 187500.0, -25653.566497989475, -45508.419931938646, 12328.976372358367, -21188.514970363973, 0.082, 1.0, 0.078, 192.0, 1.0, 72.0, 15.5, 32.0, 1.0, 56.0, 0.0, 0.0, 0.0, 1.695334816129105E9, 0.0, 2023-09-21 17:20:16.129
110.0, 7438.057057625897, 27018.743994086268, 187500.0, -43934.56654960711, 3219.522919597974, -11367.806657291254, -187500.02235174447, -21297.278558883496, -5760.737450210745, 6056.540436332279, -46296.430682710496, 187500.0, -25674.957117433205, -45525.42960946913, 12340.219299819388, -21196.516894878972, 0.082, 1.0, 0.078, 192.0, 0.0, 0.0, 0.0, 0.0, 0.0, 0.0, 0.0, 0.0, 0.0, 1.695334816129115E9, 0.0, 2023-09-21 17:20:16.129
112.0, 7435.978345391553, 27028.265837224226, 187500.0, -43924.0165262242, 3213.979686973058, -11353.166264673027, -187500.02235174447, -21277.363154573817, -5761.4750577777695, 6051.466590340923, -46298.62115366711, 187500.0, -25668.475111541167, -45525.58607168032, 12336.218337561886, -21211.224342730566, 0.082, 1.0, 0.078, 192.0, 0.0, 0.0, 0.0, 0.0, 0.0, 0.0, 0.0, 0.0, 0.0, 1.695334816129125E9, 0.0, 2023-09-21 17:20:16.129
114.0, 7442.058019883397, 27032.803241348654, 187500.0, -43922.74247679025, 3227.2566231795104, -11344.918470969018, -187500.02235174447, -21264.980288145576, -5755.99888038622, 6056.160456676538, -46292.094444286166, 187500.0, -25660.45083528171, -45519.3946384662, 12318.359293742096, -21200.249636203007, 0.082, 1.0, 0.078, 192.0, 0.0, 0.0, 0.0, 0.0, 0.0, 0.0, 0.0, 0.0, 0.0, 1.695334816129134E9, 0.0, 2023-09-21 17:20:16.129
116.0, 7432.245604067517, 27027.43882267938, 187500.0, -43922.720125045795, 3201.77563450046, -11350.081723938194, -187500.02235174447, -21273.20573010513, -5751.036793117141, 6057.948596232963, -46291.468595441416, 187500.0, -25660.629649237355, -45515.393676208696, 12309.865630849079, -21198.305034435398, 0.082, 1.0, 0.078, 192.0, 0.0, 0.0, 0.0, 0.0, 0.0, 0.0, 0.0, 0.0, 0.0, 1.695334816129153E9, 0.0, 2023-09-21 17:20:16.129
118.0, 7451.9374909326425, 27041.878049597508, 187500.0, -43906.716276015795, 3211.520995082974, -11354.037982706785, -187500.02235174447, -21281.565282531417, -5758.837551932043, 6056.898064243564, -46301.12454904611, 187500.0, -25661.099035870917, -45515.036048297414, 12301.126098767054, -21213.10188926481, 0.088, 1.008, 0.078, 192.0, 1.0, 96.0, 15.5, 64.0, 1.0, 56.0, 0.0, 0.0, 0.0, 1.695334816129162E9, 0.0, 2023-09-21 17:20:16.129
120.0, 7452.071601399375, 27042.01216006424, 187500.0, -43896.2109561218, 3200.9039164667033, -11356.049639707762, -187500.02235174447, -21275.329145828386, -5744.554787225103, 6065.995224236873, -46290.01573205182, 187500.0, -25652.31480029998, -45501.557946390865, 12293.81707833017, -21206.9551595396, 0.088, 1.008, 0.078, 192.0, 0.0, 0.0, 0.0, 0.0, 0.0, 0.0, 0.0, 0.0, 0.0, 1.695334816190589E9, 0.0, 2023-09-21 17:20:16.190
122.0, 7458.397145080226, 27033.20557274885, 187500.0, -43907.275069627176, 3213.3538381283092, -11370.77943930381, -187500.02235174447, -21280.69356449766, -5747.885197148943, 6057.7250787884095, -46296.09540654367, 187500.0, -25658.21566083618, -45511.124493017734, 12287.37977592704, -21207.513953150985, 0.088, 1.008, 0.078, 192.0, 0.0, 0.0, 0.0, 0.0, 0.0, 0.0, 0.0, 0.0, 0.0, 1.695334816190618E9, 0.0, 2023-09-21 17:20:16.190
124.0, 7454.485589800548, 27031.05980528114, 187500.0, -43900.54719454613, 3202.915573467681, -11370.958253259452, -187500.02235174447, -21268.511863769516, -5747.415810515382, 6053.947633975463, -46301.325714746206, 187500.0, -25652.31480029998, -45519.52874893293, 12326.62943919056, -21209.883238063245, 0.088, 1.008, 0.078, 192.0, 0.0, 0.0, 0.0, 0.0, 0.0, 0.0, 0.0, 0.0, 0.0, 1.695334816190672E9, 0.0, 2023-09-21 17:20:16.190
126.0, 7458.240682869039, 27026.54475290117, 187500.0, -43896.52388054418, 3242.5005128980297, -11367.337270657692, -187500.02235174447, -21261.091084610354, -5747.169941326373, 6053.925282231007, -46297.0788832997, 187500.0, -25658.66269572529, -45511.34801046229, 12302.869534834568, -21198.640310602226, 0.088, 1.008, 0.078, 192.0, 0.0, 0.0, 0.0, 0.0, 0.0, 0.0, 0.0, 0.0, 0.0, 1.695334816190682E9, 0.0, 2023-09-21 17:20:16.190
128.0, 7442.8403309393325, 27016.06178475163, 187500.0, -43899.31784860109, 3235.7949895614374, -11369.885369525597, -187500.02235174447, -21259.079427609377, -5751.28266230615, 6051.108962429638, -46303.94086884748, 187500.0, -25658.21566083618, -45510.923327317636, 12313.19604077292, -21198.662662346684, 0.082, 1.008, 0.078, 192.0, 1.0, 72.0, 15.5, 64.0, 1.0, 56.0, 0.0, 0.0, 0.0, 1.695334816190705E9, 0.0, 2023-09-21 17:20:16.190
130.0, 7439.867548926777, 27010.943235271363, 187500.0, -43903.8105492366, 3254.9280828151805, -11357.055468208251, -187500.02235174447, -21243.92494486868, -5759.977490899264, 6048.270290883815, -46307.40538923805, 187500.0, -25669.07860864146, -45506.7435511045, 12290.352557939597, -21194.974624511557, 0.082, 1.008, 0.078, 192.0, 0.0, 0.0, 0.0, 0.0, 0.0, 0.0, 0.0, 0.0, 0.0, 1.695334816190715E9, 0.0, 2023-09-21 17:20:16.190
132.0, 7436.8500634253105, 27005.981148002287, 187500.0, -43917.40040986543, 3237.6054808623176, -11354.999107718362, -187500.02235174447, -21246.115415825298, -5747.594624471024, 6052.003032207851, -46302.80092988026, 187500.0, -25660.920221915272, -45502.38496093571, 12315.654732663004, -21189.543150608915, 0.082, 1.008, 0.078, 192.0, 0.0, 0.0, 0.0, 0.0, 0.0, 0.0, 0.0, 0.0, 0.0, 1.695334816190724E9, 0.0, 2023-09-21 17:20:16.190
134.0, 7425.629487708747, 27001.15317119994, 187500.0, -43916.282822642665, 3248.4460769231414, -11352.652174550554, -187500.02235174447, -21241.376846000774, -5752.646118717924, 6047.085648427684, -46302.04097056878, 187500.0, -25671.380838320358, -45501.53559464641, 12272.895845520003, -21199.489676891528, 0.082, 1.008, 0.078, 192.0, 0.0, 0.0, 0.0, 0.0, 0.0, 0.0, 0.0, 0.0, 0.0, 1.695334816190733E9, 0.0, 2023-09-21 17:20:16.190
136.0, 7429.742208688523, 27008.171618958906, 187500.0, -43926.36345939201, 3228.776541802471, -11368.030174735806, -187500.02235174447, -21246.02600884748, -5770.058127648607, 6051.645404296566, -46306.913650860035, 187500.0, -25690.804504252017, -45511.16919650665, 12315.565325685184, -21201.031947258944, 0.082, 1.008, 0.078, 192.0, 0.0, 0.0, 0.0, 0.0, 0.0, 0.0, 0.0, 0.0, 0.0, 1.695334816249598E9, 0.0, 2023-09-21 17:20:16.249
138.0, 7452.451581055115, 27025.516572656226, 187500.0, -43912.728895274275, 3254.5033996705297, -11357.301337397259, -187500.02235174447, -21235.49833720903, -5746.521740737169, 6052.785343263787, -46295.089578043175, 187500.0, -25679.941556446738, -45508.0399522829, 12281.613025857572, -21205.502296150007, 0.09, 1.006, 0.084, 192.0, 1.0, 104.0, 15.5, 56.0, 1.0, 80.0, 0.0, 0.0, 0.0, 1.695334816249651E9, 0.0, 2023-09-21 17:20:16.249
140.0, 7451.736325232545, 27020.979168531798, 187500.0, -43914.87466274198, 3239.4159721631972, -11366.264386923836, -187500.02235174447, -21241.041569833946, -5755.931825152854, 6076.031157497306, -46286.88648782808, 187500.0, -25680.90268145832, -45496.595859121786, 12317.688741408438, -21189.65490933119, 0.09, 1.006, 0.084, 192.0, 0.0, 0.0, 0.0, 0.0, 0.0, 0.0, 0.0, 0.0, 0.0, 1.695334816249662E9, 0.0, 2023-09-21 17:20:16.249
142.0, 7455.312604345394, 27032.087985526086, 187500.0, -43911.745418518236, 3258.2361409945656, -11369.684203825498, -187500.02235174447, -21247.031837347968, -5758.591682743035, 6068.498619615868, -46290.44041519647, 187500.0, -25683.31666985949, -45497.04289401089, 12292.319511451664, -21200.875485047756, 0.09, 1.006, 0.084, 192.0, 0.0, 0.0, 0.0, 0.0, 0.0, 0.0, 0.0, 0.0, 0.0, 1.695334816249671E9, 0.0, 2023-09-21 17:20:16.249
144.0, 7456.966633435087, 27039.575819918613, 187500.0, -43912.103046429525, 3248.267262967499, -11371.382936404103, -187500.02235174447, -21250.429302505174, -5765.051336890619, 6079.786250565798, -46293.43554895348, 187500.0, -25692.056201941516, -45497.221707966535, 12330.138663070044, -21198.685014091137, 0.09, 1.006, 0.084, 192.0, 0.0, 0.0, 0.0, 0.0, 0.0, 0.0, 0.0, 0.0, 0.0, 1.69533481624968E9, 0.0, 2023-09-21 17:20:16.249
146.0, 7456.117267145785, 27051.06461656864, 187500.0, -43908.16913940539, 3248.4237251786863, -11374.936863772497, -187500.02235174447, -21249.959915871612, -5773.3885375724485, 6085.01655876834, -46287.333522717185, 187500.0, -25704.03673696956, -45484.72708281602, 12312.726654139358, -21203.155362982197, 0.09, 1.006, 0.084, 192.0, 0.0, 0.0, 0.0, 0.0, 0.0, 0.0, 0.0, 0.0, 0.0, 1.695334816249721E9, 0.0, 2023-09-21 17:20:16.249
148.0, 7473.104592931819, 27066.35320977607, 187500.0, -43901.754188746716, 3243.707507098616, -11364.096267711671, -187500.02235174447, -21240.907459367212, -5785.078499922574, 6101.2215734984375, -46290.82039485221, 187500.0, -25708.23886492716, -45484.54826886037, 12348.176520845476, -21202.66362460418, 0.082, 1.004, 0.074, 192.0, 1.0, 72.0, 15.5, 48.0, 1.0, 40.0, 0.0, 0.0, 0.0, 1.69533481624973E9, 0.0, 2023-09-21 17:20:16.249
150.0, 7472.188171409151, 27080.010125638262, 187500.0, -43894.42281656538, 3255.4421729376522, -11360.587043832189, -187500.02235174447, -21233.933715097155, -5784.318540611093, 6111.033989314317, -46279.421005180004, 187500.0, -25692.12325717488, -45460.028405192905, 12311.810232616692, -21191.867732032268, 0.082, 1.004, 0.074, 192.0, 0.0, 0.0, 0.0, 0.0, 0.0, 0.0, 0.0, 0.0, 0.0, 1.69533481630874E9, 0.0, 2023-09-21 17:20:16.308
152.0, 7488.728462306079, 27087.140332119507, 187500.0, -43882.44228153733, 3280.9455133611577, -11348.874729737609, -187500.02235174447, -21220.634427146248, -5788.028930190674, 6125.964954610462, -46280.06920576921, 187500.0, -25694.246672898134, -45459.84959123726, 12327.970543857879, -21170.030077699434, 0.082, 1.004, 0.074, 192.0, 0.0, 0.0, 0.0, 0.0, 0.0, 0.0, 0.0, 0.0, 0.0, 1.695334816308767E9, 0.0, 2023-09-21 17:20:16.308
154.0, 7493.3776251527825, 27102.920663704954, 187500.0, -43868.2042203193, 3276.5422197034623, -11336.268345864815, -187500.02235174447, -21208.117450251277, -5785.302017367127, 6132.893995391607, -46278.48223191288, 187500.0, -25698.672318300287, -45448.964291687524, 12302.28838947873, -21150.204080367577, 0.082, 1.004, 0.074, 192.0, 0.0, 0.0, 0.0, 0.0, 0.0, 0.0, 0.0, 0.0, 0.0, 1.695334816308777E9, 0.0, 2023-09-21 17:20:16.308
156.0, 7497.847974043843, 27102.071297415652, 187500.0, -43878.7095402133, 3272.071870812401, -11339.91168021103, -187500.02235174447, -21209.01152002949, -5778.305921352616, 6159.872550949162, -46276.96231328992, 187500.0, -25700.639271812353, -45445.52212304141, 12320.169785042977, -21123.65020795467, 0.082, 1.004, 0.074, 192.0, 0.0, 0.0, 0.0, 0.0, 0.0, 0.0, 0.0, 0.0, 0.0, 1.695334816308786E9, 0.0, 2023-09-21 17:20:16.308
158.0, 7490.158973951218, 27106.184018395426, 187500.0, -43881.23528733674, 3265.612216664817, -11343.309145368237, -187500.02235174447, -21208.095098506823, -5795.583819816568, 6150.59657700021, -46275.01771152231, 187500.0, -25698.046469455538, -45447.84670446476, 12313.1066337951, -21128.47818475702, 0.082, 1.006, 0.082, 192.0, 1.0, 72.0, 15.5, 56.0, 1.0, 72.0, 0.0, 0.0, 0.0, 1.695334816308796E9, 0.0, 2023-09-21 17:20:16.308
160.0, 7493.19881119714, 27109.35796610808, 187500.0, -43897.64146776694, 3277.168068548211, -11358.843607764675, -187500.02235174447, -21216.856982333302, -5796.902572739431, 6152.719992723464, -46283.51137441533, 187500.0, -25709.267045172102, -45457.502658069454, 12320.0580263207, -21143.990295409, 0.082, 1.006, 0.082, 192.0, 0.0, 0.0, 0.0, 0.0, 0.0, 0.0, 0.0, 0.0, 0.0, 1.695334816308806E9, 0.0, 2023-09-21 17:20:16.308
162.0, 7487.879096016776, 27114.543570821712, 187500.0, -43890.5112612857, 3271.401318478742, -11356.72019204142, -187500.02235174447, -21208.698595607115, -5784.519706311191, 6149.523693266356, -46274.950656288944, 187500.0, -25702.47211485769, -45448.27138760941, 12307.049311047711, -21145.979600665523, 0.082, 1.006, 0.082, 192.0, 0.0, 0.0, 0.0, 0.0, 0.0, 0.0, 0.0, 0.0, 0.0, 1.695334816308815E9, 0.0, 2023-09-21 17:20:16.308
164.0, 7503.726482835589, 27116.89050398952, 187500.0, -43882.107005370504, 3293.6413042117724, -11352.518064083823, -187500.02235174447, -21200.58491236984, -5789.593552302546, 6150.261300833381, -46278.92926680199, 187500.0, -25709.557617850023, -45458.79905924786, 12304.903543580001, -21146.627801254726, 0.082, 1.006, 0.082, 192.0, 0.0, 0.0, 0.0, 0.0, 0.0, 0.0, 0.0, 0.0, 0.0, 1.695334816308825E9, 0.0, 2023-09-21 17:20:16.308
166.0, 7500.641942100757, 27121.405556369493, 187500.0, -43876.18379308985, 3282.264266284021, -11349.925261727007, -187500.02235174447, -21198.34973792431, -5782.083366165562, 6159.090239893227, -46267.127545729585, 187500.0, -25705.93663524826, -45438.39191656017, 12316.034712318744, -21136.815385438847, 0.082, 1.006, 0.082, 192.0, 0.0, 0.0, 0.0, 0.0, 0.0, 0.0, 0.0, 0.0, 0.0, 1.695334816368718E9, 0.0, 2023-09-21 17:20:16.368
168.0, 7507.794500326455, 27117.78457376773, 187500.0, -43886.242078094736, 3298.7598536920377, -11356.92135774152, -187500.02235174447, -21204.47411590506, -5782.731566754766, 6162.018318416873, -46272.46961265441, 187500.0, -25704.997861981137, -45446.41619281962, 12324.349561256118, -21131.450966769575, 0.078, 1.01, 0.082, 192.0, 1.0, 56.0, 15.5, 72.0, 1.0, 72.0, 0.0, 0.0, 0.0, 1.695334816368775E9, 0.0, 2023-09-21 17:20:16.368
170.0, 7504.195869469151, 27119.617416813067, 187500.0, -43883.26929608218, 3283.717129673616, -11358.731849042399, -187500.02235174447, -21201.85896180379, -5790.375863358482, 6154.083449135238, -46282.237324981375, 187500.0, -25706.674242815287, -45450.41715507712, 12340.196948074932, -21135.00489413797, 0.078, 1.01, 0.082, 192.0, 0.0, 0.0, 0.0, 0.0, 0.0, 0.0, 0.0, 0.0, 0.0, 1.695334816368786E9, 0.0, 2023-09-21 17:20:16.368
172.0, 7520.8479190883545, 27133.22962918635, 187500.0, -43872.4063482769, 3295.9211821462136, -11340.269308122315, -187500.02235174447, -21183.70934530608, -5773.008557916708, 6159.6266817601545, -46272.76018533232, 187500.0, -25691.966794963693, -45455.42394583511, 12306.646979647516, -21117.682292185105, 0.078, 1.01, 0.082, 192.0, 0.0, 0.0, 0.0, 0.0, 0.0, 0.0, 0.0, 0.0, 0.0, 1.695334816368796E9, 0.0, 2023-09-21 17:20:16.368
174.0, 7506.989837526065, 27126.255884916292, 187500.0, -43873.52393549967, 3263.4217457081972, -11339.464645321923, -187500.02235174447, -21177.607319069783, -5779.33410159756, 6159.559626526789, -46275.4200429225, 187500.0, -25700.728678790176, -45442.99637591796, 12326.294163023731, -21112.586094449296, 0.078, 1.01, 0.082, 192.0, 0.0, 0.0, 0.0, 0.0, 0.0, 0.0, 0.0, 0.0, 0.0, 1.695334816368805E9, 0.0, 2023-09-21 17:20:16.368
176.0, 7510.387302683271, 27119.863286002077, 187500.0, -43877.279028568155, 3295.541202490473, -11337.117712154117, -187500.02235174447, -21174.81335101287, -5782.820973732588, 6159.64903350461, -46279.39865343555, 187500.0, -25705.84722827044, -45445.79034397487, 12295.493459164318, -21111.60261769326, 0.078, 1.01, 0.082, 192.0, 0.0, 0.0, 0.0, 0.0, 0.0, 0.0, 0.0, 0.0, 0.0, 1.695334816368814E9, 0.0, 2023-09-21 17:20:16.368
178.0, 7516.4446254306595, 27125.630036071547, 187500.0, -43865.36554877348, 3287.5616297199285, -11325.00306665934, -187500.02235174447, -21159.256536871977, -5777.635369018957, 6166.287501607836, -46274.86124931112, 187500.0, -25703.09796370244, -45441.09647763926, 12317.576982686162, -21108.89805661417, 0.078, 1.012, 0.08600000000000001, 192.0, 1.0, 56.0, 15.5, 80.0, 1.0, 88.0, 0.0, 0.0, 0.0, 1.695334816368823E9, 0.0, 2023-09-21 17:20:16.368
180.0, 7508.1074247488295, 27111.257864386782, 187500.0, -43897.2614881112, 3292.1437373332665, -11362.218721177427, -187500.02235174447, -21188.939653508623, -5782.061014421108, 6155.424553802557, -46279.46570866892, 187500.0, -25706.60718758192, -45452.16059114464, 12291.470145162362, -21118.84458289678, 0.078, 1.012, 0.08600000000000001, 192.0, 0.0, 0.0, 0.0, 0.0, 0.0, 0.0, 0.0, 0.0, 0.0, 1.695334816429079E9, 0.0, 2023-09-21 17:20:16.429
182.0, 7521.540823166469, 27130.592123340622, 187500.0, -43878.97776114676, 3271.356614989831, -11356.20610191895, -187500.02235174447, -21175.52860683544, -5789.19122090235, 6148.361402554679, -46284.09251977116, 187500.0, -25714.720870819197, -45466.51041108494, 12319.275715264765, -21138.178841850622, 0.078, 1.012, 0.08600000000000001, 192.0, 0.0, 0.0, 0.0, 0.0, 0.0, 0.0, 0.0, 0.0, 0.0, 1.695334816429105E9, 0.0, 2023-09-21 17:20:16.429
184.0, 7529.788616870477, 27134.973065253864, 187500.0, -43876.228496578755, 3283.8512401403477, -11359.089476953683, -187500.02235174447, -21171.348830622297, -5768.113525880996, 6161.906559694596, -46255.526990357284, 187500.0, -25701.443934612744, -45454.99926269046, 12274.840447287614, -21123.09141434329, 0.078, 1.012, 0.08600000000000001, 192.0, 0.0, 0.0, 0.0, 0.0, 0.0, 0.0, 0.0, 0.0, 0.0, 1.695334816429115E9, 0.0, 2023-09-21 17:20:16.429
186.0, 7538.237576274583, 27149.07701600516, 187500.0, -43857.989473103225, 3273.0776993128898, -11345.097284924661, -187500.02235174447, -21161.245842128497, -5767.487677036247, 6175.630530790154, -46251.28015891078, 187500.0, -25697.71119328871, -45442.974024173505, 12306.937552325435, -21113.949550861067, 0.078, 1.012, 0.08600000000000001, 192.0, 0.0, 0.0, 0.0, 0.0, 0.0, 0.0, 0.0, 0.0, 0.0, 1.695334816429125E9, 0.0, 2023-09-21 17:20:16.429
188.0, 7516.086997519375, 27123.84189651512, 187500.0, -43888.0078659067, 3256.1574287602225, -11374.512180627846, -187500.02235174447, -21190.012537242477, -5770.728679982267, 6171.070774921272, -46245.33459488566, 187500.0, -25702.338004390956, -45442.7281549845, 12277.701470577893, -21111.155582804156, 0.084, 1.01, 0.082, 192.0, 1.0, 80.0, 15.5, 72.0, 1.0, 72.0, 0.0, 0.0, 0.0, 1.695334816429134E9, 0.0, 2023-09-21 17:20:16.429
190.0, 7519.238593487572, 27131.21797218537, 187500.0, -43886.97968566176, 3243.3051756984205, -11380.569503375233, -187500.02235174447, -21191.08542097633, -5792.38752035946, 6152.6976409790095, -46266.367586418106, 187500.0, -25717.268969687102, -45475.47346061152, 12338.319401540686, -21128.70170220157, 0.084, 1.01, 0.082, 192.0, 0.0, 0.0, 0.0, 0.0, 0.0, 0.0, 0.0, 0.0, 0.0, 1.695334816429176E9, 0.0, 2023-09-21 17:20:16.429
192.0, 7520.222070243606, 27139.018731000273, 187500.0, -43872.249886065714, 3261.2089230071215, -11364.29743341177, -187500.02235174447, -21175.930938235633, -5781.748089998733, 6152.988213656929, -46258.5668276032, 187500.0, -25714.13972546336, -45456.675643524606, 12307.161069769987, -21126.75710043396, 0.084, 1.01, 0.082, 192.0, 0.0, 0.0, 0.0, 0.0, 0.0, 0.0, 0.0, 0.0, 0.0, 1.695334816429185E9, 0.0, 2023-09-21 17:20:16.429
194.0, 7516.221107986106, 27130.815640785175, 187500.0, -43881.10117687001, 3262.393565463253, -11367.538436357789, -187500.02235174447, -21174.768647523957, -5789.459441835814, 6169.640263276132, -46256.82339153569, 187500.0, -25725.740280835664, -45445.25390210794, 12341.560404486705, -21108.47337346952, 0.084, 1.01, 0.082, 192.0, 0.0, 0.0, 0.0, 0.0, 0.0, 0.0, 0.0, 0.0, 0.0, 1.695334816429194E9, 0.0, 2023-09-21 17:20:16.429
196.0, 7514.7458928520555, 27143.220858957873, 187500.0, -43864.96321737328, 3279.850277882848, -11351.53458732779, -187500.02235174447, -21160.374124094742, -5793.90743898242, 6162.510056794889, -46265.20529570643, 187500.0, -25719.28062668808, -45447.3773178312, 12311.67612214996, -21119.51513523044, 0.084, 1.01, 0.082, 192.0, 0.0, 0.0, 0.0, 0.0, 0.0, 0.0, 0.0, 0.0, 0.0, 1.695334816489273E9, 0.0, 2023-09-21 17:20:16.489
198.0, 7522.814872600422, 27153.212088729393, 187500.0, -43859.84466789301, 3283.9853506070795, -11350.193482660472, -187500.02235174447, -21158.80950198287, -5791.426395347881, 6183.587751816243, -46257.98568224737, 187500.0, -25714.586760352464, -45430.05471587834, 12316.437043718941, -21106.79699263537, 0.08600000000000001, 1.008, 0.08, 192.0, 1.0, 88.0, 15.5, 64.0, 1.0, 64.0, 0.0, 0.0, 0.0, 1.695334816489302E9, 0.0, 2023-09-21 17:20:16.489
200.0, 7531.733218638089, 27165.393789457536, 187500.0, -43855.64253993542, 3275.1117080583226, -11350.796979760764, -187500.02235174447, -21156.32845834833, -5783.223305132783, 6183.855972749708, -46245.96044373041, 187500.0, -25708.775306794087, -45426.72430595449, 12296.499287664807, -21099.04093730938, 0.08600000000000001, 1.008, 0.08, 192.0, 0.0, 0.0, 0.0, 0.0, 0.0, 0.0, 0.0, 0.0, 0.0, 1.695334816489317E9, 0.0, 2023-09-21 17:20:16.489
202.0, 7540.785675142489, 27160.90108882202, 187500.0, -43864.44912725081, 3264.2487602530437, -11361.145837443572, -187500.02235174447, -21169.51598757696, -5786.441956334348, 6190.382682130657, -46253.492981611846, 187500.0, -25723.125126734394, -45438.68248923808, 12323.410787988996, -21114.150716561166, 0.08600000000000001, 1.008, 0.08, 192.0, 0.0, 0.0, 0.0, 0.0, 0.0, 0.0, 0.0, 0.0, 0.0, 1.695334816489334E9, 0.0, 2023-09-21 17:20:16.489
204.0, 7535.622422173313, 27160.00701904381, 187500.0, -43857.02834809165, 3260.6948328846497, -11350.372296616113, -187500.02235174447, -21162.497539817996, -5779.289398108649, 6187.029920462361, -46243.38999311805, 187500.0, -25722.00753951163, -45433.02749789089, 12305.261171491287, -21112.921370616124, 0.08600000000000001, 1.008, 0.08, 192.0, 0.0, 0.0, 0.0, 0.0, 0.0, 0.0, 0.0, 0.0, 0.0, 1.695334816489344E9, 0.0, 2023-09-21 17:20:16.489
206.0, 7547.737067668089, 27170.512338937802, 187500.0, -43848.467629965264, 3274.284693513476, -11336.15658714254, -187500.02235174447, -21150.315839089853, -5779.33410159756, 6192.215525175992, -46245.20048441893, 187500.0, -25708.909417260817, -45425.58436698728, 12318.202831530909, -21105.433536223598, 0.08600000000000001, 1.008, 0.08, 192.0, 0.0, 0.0, 0.0, 0.0, 0.0, 0.0, 0.0, 0.0, 0.0, 1.695334816489353E9, 0.0, 2023-09-21 17:20:16.489
208.0, 7540.271585020017, 27175.94381284044, 187500.0, -43843.32672874055, 3259.5995974063394, -11335.553090042245, -187500.02235174447, -21143.967943664546, -5776.003691673719, 6199.3680834016905, -46235.186902902955, 187500.0, -25702.65092881333, -45412.195672058544, 12308.233953503843, -21099.08564079829, 0.088, 1.012, 0.074, 192.0, 1.0, 96.0, 15.5, 80.0, 1.0, 40.0, 0.0, 0.0, 0.0, 1.695334816489363E9, 0.0, 2023-09-21 17:20:16.489
210.0, 7551.246291547573, 27180.302403009227, 187500.0, -43840.75627812818, 3278.330359259887, -11335.374276086603, -187500.02235174447, -21142.55978376386, -5781.345758598538, 6202.765548558897, -46234.49399882484, 187500.0, -25719.772365066096, -45421.82927391878, 12311.698473894416, -21097.36455647523, 0.088, 1.012, 0.074, 192.0, 0.0, 0.0, 0.0, 0.0, 0.0, 0.0, 0.0, 0.0, 0.0, 1.695334816549589E9, 0.0, 2023-09-21 17:20:16.549
212.0, 7536.2259192736055, 27175.80970237371, 187500.0, -43843.505542696184, 3265.0310713089793, -11342.795055245764, -187500.02235174447, -21148.684161744615, -5777.456555063314, 6199.144565957137, -46231.67767902347, 187500.0, -25709.065879472004, -45415.503730237935, 12296.611046387083, -21100.47144895452, 0.088, 1.012, 0.074, 192.0, 0.0, 0.0, 0.0, 0.0, 0.0, 0.0, 0.0, 0.0, 0.0, 1.695334816549697E9, 0.0, 2023-09-21 17:20:16.549
214.0, 7537.388209985282, 27168.500681936825, 187500.0, -43853.80969689008, 3281.2807895279875, -11350.752276271854, -187500.02235174447, -21154.51796704745, -5782.306883610116, 6196.8423362782405, -46232.884673224056, 187500.0, -25708.641196327353, -45416.08487559377, 12300.500249922306, -21101.186704777087, 0.088, 1.012, 0.074, 192.0, 0.0, 0.0, 0.0, 0.0, 0.0, 0.0, 0.0, 0.0, 0.0, 1.695334816549707E9, 0.0, 2023-09-21 17:20:16.549
216.0, 7529.185119770184, 27171.786388371755, 187500.0, -43851.01572883317, 3253.095239769845, -11347.310107625737, -187500.02235174447, -21153.802711224882, -5784.09502316654, 6187.633417562654, -46237.39972560403, 187500.0, -25721.269931944604, -45431.10524786774, 12317.845203619625, -21110.12740255921, 0.088, 1.012, 0.074, 192.0, 0.0, 0.0, 0.0, 0.0, 0.0, 0.0, 0.0, 0.0, 0.0, 1.695334816549723E9, 0.0, 2023-09-21 17:20:16.549
218.0, 7535.868291362321, 27176.592013429647, 187500.0, -43849.875789865946, 3265.0310713089793, -11343.130331412594, -187500.02235174447, -21154.987353681012, -5783.558581299613, 6193.601333332221, -46230.71655401189, 187500.0, -25712.88802777386, -45427.104285610236, 12301.081395278145, -21106.70758565755, 0.08600000000000001, 1.01, 0.08, 192.0, 1.0, 88.0, 15.5, 72.0, 1.0, 64.0, 0.0, 0.0, 0.0, 1.695334816549735E9, 0.0, 2023-09-21 17:20:16.549
220.0, 7528.648677903257, 27176.212033773903, 187500.0, -43847.640615420416, 3260.6054259068283, -11341.990392445374, -187500.02235174447, -21149.511176289463, -5778.417680074893, 6202.60908634771, -46228.0119929328, 187500.0, -25697.308861888512, -45415.906061638125, 12305.730558124847, -21101.924312344112, 0.08600000000000001, 1.01, 0.08, 192.0, 0.0, 0.0, 0.0, 0.0, 0.0, 0.0, 0.0, 0.0, 0.0, 1.695334816549745E9, 0.0, 2023-09-21 17:20:16.549
222.0, 7537.231747774094, 27173.596879672634, 187500.0, -43847.998243331705, 3281.772527906004, -11344.426732591002, -187500.02235174447, -21146.404283810174, -5779.3788050864705, 6205.425406149078, -46229.666022022495, 187500.0, -25703.187370680258, -45418.9682506285, 12281.367156668563, -21101.298463499363, 0.08600000000000001, 1.01, 0.08, 192.0, 0.0, 0.0, 0.0, 0.0, 0.0, 0.0, 0.0, 0.0, 0.0, 1.695334816549754E9, 0.0, 2023-09-21 17:20:16.549
224.0, 7514.209450985129, 27161.258716733304, 187500.0, -43858.34710101451, 3252.4023356917305, -11359.692974053976, -187500.02235174447, -21163.212795640564, -5795.76263377221, 6193.936609499051, -46247.32390014218, 187500.0, -25722.633388356375, -45427.55132049934, 12325.131872312055, -21117.54818171837, 0.08600000000000001, 1.01, 0.08, 192.0, 0.0, 0.0, 0.0, 0.0, 0.0, 0.0, 0.0, 0.0, 0.0, 1.695334816549763E9, 0.0, 2023-09-21 17:20:16.549
226.0, 7529.766265126022, 27168.43362670346, 187500.0, -43851.842743378016, 3282.1748593062, -11346.5277965698, -187500.02235174447, -21145.37610356523, -5791.4710988367915, 6183.207772160504, -46239.098458182634, 187500.0, -25726.075557002492, -45424.153855342134, 12291.425441673451, -21115.000082850467, 0.08600000000000001, 1.01, 0.08, 192.0, 0.0, 0.0, 0.0, 0.0, 0.0, 0.0, 0.0, 0.0, 0.0, 1.695334816609862E9, 0.0, 2023-09-21 17:20:16.609
228.0, 7523.351314467349, 27165.304382479717, 187500.0, -43856.022519591155, 3253.9669578036023, -11352.406305361546, -187500.02235174447, -21151.545185034895, -5801.797604775144, 6191.902600753618, -46244.127600685075, 187500.0, -25728.690711103765, -45428.13246585518, 12317.1075960526, -21113.167239805134, 0.08600000000000001, 1.008, 0.08, 192.0, 1.0, 88.0, 15.5, 64.0, 1.0, 64.0, 0.0, 0.0, 0.0, 1.695334816609887E9, 0.0, 2023-09-21 17:20:16.609
230.0, 7527.732256380589, 27173.194548272437, 187500.0, -43850.993377088715, 3265.209885264622, -11348.628860548599, -187500.02235174447, -21146.538394276908, -5795.360302372015, 6193.020187976384, -46235.119847669586, 187500.0, -25706.13780094836, -45419.32587853979, 12285.14460148151, -21105.85821936825, 0.08600000000000001, 1.008, 0.08, 192.0, 0.0, 0.0, 0.0, 0.0, 0.0, 0.0, 0.0, 0.0, 0.0, 1.695334816609898E9, 0.0, 2023-09-21 17:20:16.609
232.0, 7529.274526748005, 27179.967126842395, 187500.0, -43846.99241483121, 3253.6987368701384, -11349.657040793543, -187500.02235174447, -21143.073873886333, -5796.030854705675, 6205.827737549274, -46234.136370913555, 187500.0, -25714.76557430811, -45418.09653259475, 12310.916162838479, -21108.27220776942, 0.08600000000000001, 1.008, 0.08, 192.0, 0.0, 0.0, 0.0, 0.0, 0.0, 0.0, 0.0, 0.0, 0.0, 1.695334816609907E9, 0.0, 2023-09-21 17:20:16.609
234.0, 7529.341581981371, 27173.418065716993, 187500.0, -43853.87675212345, 3269.5684754334065, -11357.793075775275, -187500.02235174447, -21147.432464055117, -5791.784023259166, 6204.508984626411, -46230.94007145645, 187500.0, -25718.23009469868, -45410.98867785796, 12280.830714801636, -21105.925274601614, 0.08600000000000001, 1.008, 0.08, 192.0, 0.0, 0.0, 0.0, 0.0, 0.0, 0.0, 0.0, 0.0, 0.0, 1.695334816609949E9, 0.0, 2023-09-21 17:20:16.609
236.0, 7527.754608125045, 27166.5113766803, 187500.0, -43860.76108941568, 3250.8600653243143, -11367.605491591155, -187500.02235174447, -21155.74731299249, -5804.345703643049, 6201.5138508694, -46240.640728550046, 187500.0, -25719.48179238818, -45429.56297750032, 12327.612915946595, -21116.27413228442, 0.08600000000000001, 1.008, 0.08, 192.0, 0.0, 0.0, 0.0, 0.0, 0.0, 0.0, 0.0, 0.0, 0.0, 1.69533481660996E9, 0.0, 2023-09-21 17:20:16.609
238.0, 7525.184157512684, 27161.593992900132, 187500.0, -43861.275179538155, 3271.088394056367, -11364.051564222762, -187500.02235174447, -21148.32653383333, -5803.697503053845, 6187.879286751662, -46240.95365297242, 187500.0, -25718.252446443137, -45430.76997170091, 12288.117383494066, -21123.158469576654, 0.084, 1.01, 0.082, 192.0, 1.0, 80.0, 15.5, 72.0, 1.0, 72.0, 0.0, 0.0, 0.0, 1.695334816609969E9, 0.0, 2023-09-21 17:20:16.609
240.0, 7537.365858240826, 27179.743609397843, 187500.0, -43847.48415320923, 3273.0776993128898, -11345.946651213962, -187500.02235174447, -21131.76389119195, -5797.997808217741, 6197.088205467249, -46237.89146398204, 187500.0, -25721.538152878067, -45429.56297750032, 12306.423462202962, -21114.061309583343, 0.084, 1.01, 0.082, 192.0, 0.0, 0.0, 0.0, 0.0, 0.0, 0.0, 0.0, 0.0, 0.0, 1.695334816668757E9, 0.0, 2023-09-21 17:20:16.668
242.0, 7518.992724298564, 27162.84569058963, 187500.0, -43870.01471162018, 3281.101975572345, -11362.419886877524, -187500.02235174447, -21149.98056292302, -5789.280627880172, 6196.864688022696, -46233.33170811316, 187500.0, -25722.320463934, -45425.29379430936, 12271.264168174765, -21107.60165543576, 0.084, 1.01, 0.082, 192.0, 0.0, 0.0, 0.0, 0.0, 0.0, 0.0, 0.0, 0.0, 0.0, 1.695334816668787E9, 0.0, 2023-09-21 17:20:16.668
244.0, 7524.491253434569, 27165.259678990806, 187500.0, -43870.52880174265, 3263.26528349701, -11361.503465354857, -187500.02235174447, -21148.28183034442, -5811.408854890926, 6187.275789651369, -46252.82242927819, 187500.0, -25736.290304218568, -45434.502713024944, 12309.798575615714, -21115.402414250664, 0.084, 1.01, 0.082, 192.0, 0.0, 0.0, 0.0, 0.0, 0.0, 0.0, 0.0, 0.0, 0.0, 1.695334816668797E9, 0.0, 2023-09-21 17:20:16.668
246.0, 7520.289125476972, 27162.309248722704, 187500.0, -43873.926266899856, 3262.1700480187, -11363.984508989395, -187500.02235174447, -21156.61903102625, -5804.591572832057, 6176.278731379358, -46253.76120254531, 187500.0, -25714.22913244118, -45441.18588461708, 12288.139735238521, -21123.06906259883, 0.084, 1.01, 0.082, 192.0, 0.0, 0.0, 0.0, 0.0, 0.0, 0.0, 0.0, 0.0, 0.0, 1.695334816668806E9, 0.0, 2023-09-21 17:20:16.668
248.0, 7525.206509257139, 27163.248021989828, 187500.0, -43869.791194175625, 3261.6336061517727, -11367.560788102244, -187500.02235174447, -21158.22835662703, -5814.158119458928, 6184.325359383269, -46256.46576362441, 187500.0, -25728.824821570495, -45445.67858525259, 12315.520622196273, -21127.070024856333, 0.084, 1.006, 0.08, 192.0, 1.0, 80.0, 15.5, 56.0, 1.0, 64.0, 0.0, 0.0, 0.0, 1.695334816668815E9, 0.0, 2023-09-21 17:20:16.668
250.0, 7524.647715645757, 27177.03904831875, 187500.0, -43852.178019544845, 3264.941664331158, -11360.29647115427, -187500.02235174447, -21157.982487438025, -5799.294209396149, 6186.471126850978, -46243.45704835142, 187500.0, -25724.46623140171, -45425.204387331534, 12282.685909591426, -21121.07975734231, 0.084, 1.006, 0.08, 192.0, 0.0, 0.0, 0.0, 0.0, 0.0, 0.0, 0.0, 0.0, 0.0, 1.695334816668825E9, 0.0, 2023-09-21 17:20:16.668
252.0, 7533.029619816497, 27177.821359374688, 187500.0, -43854.7484701572, 3267.713280643616, -11361.257596165848, -187500.02235174447, -21155.9931821815, -5803.67515130939, 6202.162051458604, -46245.468705352396, 187500.0, -25729.048339015048, -45423.50565475293, 12292.163049240477, -21123.158469576654, 0.084, 1.006, 0.08, 192.0, 0.0, 0.0, 0.0, 0.0, 0.0, 0.0, 0.0, 0.0, 0.0, 1.695334816668843E9, 0.0, 2023-09-21 17:20:16.668
254.0, 7517.58456439788, 27170.154711026516, 187500.0, -43865.812583662584, 3258.392603205753, -11373.484000382901, -187500.02235174447, -21158.60833628277, -5793.013369204208, 6200.396263646635, -46238.09262968214, 187500.0, -25716.687824331264, -45417.76125642792, 12279.601368856594, -21119.738652674994, 0.084, 1.006, 0.08, 192.0, 0.0, 0.0, 0.0, 0.0, 0.0, 0.0, 0.0, 0.0, 0.0, 1.695334816668852E9, 0.0, 2023-09-21 17:20:16.668
0.0, 7520.177366754695, 27164.09738827913, 187500.0, -43880.81060419209, 3251.776486846982, -11384.816334821742, -187500.02235174447, -21170.030077699434, -5809.955991501331, 6184.437118105545, -46257.18101944697, 187500.0, -25719.392385410356, -45447.89140795367, 12288.34090093862, -21135.22841158252, 0.084, 1.006, 0.08, 192.0, 0.0, 0.0, 0.0, 0.0, 0.0, 0.0, 0.0, 0.0, 0.0, 1.695334816729017E9, 0.0, 2023-09-21 17:20:16.729
2.0, 7525.117102279318, 27181.889376865554, 187500.0, -43863.53270572814, 3250.524789157485, -11367.270215424325, -187500.02235174447, -21154.71913274755, -5798.5118983402135, 6183.36423437169, -46250.58725483266, 187500.0, -25717.6713010873, -45444.11396314073, 12281.367156668563, -21131.51802200294, 0.084, 1.008, 0.07200000000000001, 192.0, 1.0, 80.0, 15.5, 64.0, 1.0, 32.0, 0.0, 0.0, 0.0, 1.695334816729043E9, 0.0, 2023-09-21 17:20:16.729
4.0, 7527.464035447126, 27181.174121042983, 187500.0, -43850.32282475506, 3265.299292242443, -11366.219683434927, -187500.02235174447, -21149.935859434114, -5793.52745932668, 6202.430272392067, -46242.1159436841, 187500.0, -25728.735414592677, -45435.776762458896, 12289.972578283856, -21115.08948982829, 0.084, 1.008, 0.07200000000000001, 192.0, 0.0, 0.0, 0.0, 0.0, 0.0, 0.0, 0.0, 0.0, 0.0, 1.695334816729053E9, 0.0, 2023-09-21 17:20:16.729
6.0, 7515.841128330366, 27178.38015298607, 187500.0, -43848.601740431994, 3248.133152500767, -11370.667680581533, -187500.02235174447, -21153.8921182027, -5802.62461931999, 6206.65475209412, -46237.44442909294, 187500.0, -25720.15234472184, -45422.23160531898, 12290.933703295435, -21112.80961189385, 0.084, 1.008, 0.07200000000000001, 192.0, 0.0, 0.0, 0.0, 0.0, 0.0, 0.0, 0.0, 0.0, 0.0, 1.695334816729065E9, 0.0, 2023-09-21 17:20:16.729
8.0, 7518.366875453816, 27173.216900016894, 187500.0, -43854.45789747929, 3249.138981001256, -11379.384860919103, -187500.02235174447, -21159.61416478326, -5815.432168892881, 6202.072644480782, -46250.18492343246, 187500.0, -25740.4253769428, -45438.61543400472, 12297.080433020645, -21119.00104510797, 0.084, 1.008, 0.07200000000000001, 192.0, 0.0, 0.0, 0.0, 0.0, 0.0, 0.0, 0.0, 0.0, 0.0, 1.695334816729083E9, 0.0, 2023-09-21 17:20:16.729
10.0, 7517.405750442237, 27178.938946597453, 187500.0, -43843.72906014074, 3237.2478529510327, -11368.924244514019, -187500.02235174447, -21153.310972846863, -5801.082348952574, 6212.08622599676, -46235.611586047606, 187500.0, -25725.762632580117, -45418.47651225049, 12294.599389386105, -21113.79308864988, 0.084, 1.008, 0.07200000000000001, 192.0, 0.0, 0.0, 0.0, 0.0, 0.0, 0.0, 0.0, 0.0, 0.0, 1.695334816729121E9, 0.0, 2023-09-21 17:20:16.729
12.0, 7522.9042795782425, 27178.491911708345, 187500.0, -43847.01476657567, 3257.1856090051665, -11369.885369525597, -187500.02235174447, -21153.310972846863, -5799.875354751987, 6215.796615576341, -46236.080972681164, 187500.0, -25715.480830130677, -45418.364753528214, 12278.014395000268, -21110.865010126236, 0.08600000000000001, 1.012, 0.07, 192.0, 1.0, 88.0, 15.5, 80.0, 1.0, 24.0, 0.0, 0.0, 0.0, 1.695334816729155E9, 0.0, 2023-09-21 17:20:16.729
14.0, 7518.165709753717, 27178.04487681924, 187500.0, -43846.031289819635, 3239.6394896077504, -11362.129314199605, -187500.02235174447, -21145.823138454336, -5797.371959372993, 6211.661542852109, -46234.71751626939, 187500.0, -25726.65670235833, -45423.12567509719, 12289.994930028312, -21109.479201970007, 0.08600000000000001, 1.012, 0.07, 192.0, 0.0, 0.0, 0.0, 0.0, 0.0, 0.0, 0.0, 0.0, 0.0, 1.695334816789249E9, 0.0, 2023-09-21 17:20:16.789
16.0, 7524.1336255232845, 27177.597841930135, 187500.0, -43843.5502461851, 3249.1166292568005, -11356.250805407859, -187500.02235174447, -21141.17397560763, -5804.301000154138, 6207.057083494316, -46238.02557444877, 187500.0, -25721.828725555984, -45413.31325928131, 12265.832694272125, -21106.193495535077, 0.08600000000000001, 1.012, 0.07, 192.0, 0.0, 0.0, 0.0, 0.0, 0.0, 0.0, 0.0, 0.0, 0.0, 1.695334816789274E9, 0.0, 2023-09-21 17:20:16.789
18.0, 7522.680762133689, 27176.167330284996, 187500.0, -43845.137220041426, 3251.776486846982, -11351.132255927594, -187500.02235174447, -21135.27311507143, -5792.722796526289, 6223.642077880154, -46226.82735047667, 187500.0, -25703.433239869268, -45403.83611963226, 12279.802534556691, -21090.949605816557, 0.08600000000000001, 1.012, 0.07, 192.0, 0.0, 0.0, 0.0, 0.0, 0.0, 0.0, 0.0, 0.0, 0.0, 1.695334816789284E9, 0.0, 2023-09-21 17:20:16.789
20.0, 7527.084055791385, 27172.881623850066, 187500.0, -43851.46276372227, 3260.918350329203, -11364.766820045332, -187500.02235174447, -21140.74929246298, -5806.29030541066, 6204.08430148176, -46242.182998917466, 187500.0, -25728.020158770105, -45425.98669838747, 12257.406086612475, -21106.059385068344, 0.08600000000000001, 1.012, 0.07, 192.0, 0.0, 0.0, 0.0, 0.0, 0.0, 0.0, 0.0, 0.0, 0.0, 1.695334816789293E9, 0.0, 2023-09-21 17:20:16.789
22.0, 7526.592317413369, 27184.258661777814, 187500.0, -43839.23635950522, 3253.0281845364793, -11361.682279310498, -187500.02235174447, -21133.887306915203, -5797.461366350814, 6214.366103931201, -46234.9633854584, 187500.0, -25713.603283596432, -45423.393896030655, 12286.91038929348, -21104.047728067366, 0.084, 1.012, 0.076, 192.0, 1.0, 80.0, 15.5, 80.0, 1.0, 48.0, 0.0, 0.0, 0.0, 1.695334816789334E9, 0.0, 2023-09-21 17:20:16.789
24.0, 7529.542747681469, 27181.017658831795, 187500.0, -43844.01963281866, 3280.4090714942304, -11369.34892765867, -187500.02235174447, -21141.889231430203, -5793.236886648761, 6213.6284963641765, -46223.228719619365, 187500.0, -25711.07753647298, -45421.024611118395, 12243.413894583451, -21099.532675687395, 0.084, 1.012, 0.076, 192.0, 0.0, 0.0, 0.0, 0.0, 0.0, 0.0, 0.0, 0.0, 0.0, 1.695334816789345E9, 0.0, 2023-09-21 17:20:16.789
26.0, 7529.96743082612, 27182.403466988024, 187500.0, -43850.16636254387, 3264.293463741954, -11374.981567261406, -187500.02235174447, -21147.09718788829, -5794.5779913160795, 6215.126063242682, -46223.27342310827, 187500.0, -25720.867600544407, -45413.84970114824, 12280.33897642362, -21105.83586762379, 0.084, 1.012, 0.076, 192.0, 0.0, 0.0, 0.0, 0.0, 0.0, 0.0, 0.0, 0.0, 0.0, 1.695334816789354E9, 0.0, 2023-09-21 17:20:16.789
28.0, 7531.040314559975, 27180.90590010952, 187500.0, -43854.39084224592, 3264.9863678200686, -11379.742488830387, -187500.02235174447, -21147.723036733038, -5792.946313970842, 6204.79955730433, -46223.04990566372, 187500.0, -25710.004652739128, -45419.43763726207, 12242.51982480524, -21118.33049277431, 0.084, 1.012, 0.076, 192.0, 0.0, 0.0, 0.0, 0.0, 0.0, 0.0, 0.0, 0.0, 0.0, 1.695334816789363E9, 0.0, 2023-09-21 17:20:16.789
30.0, 7526.234689502084, 27179.743609397843, 187500.0, -43855.3519672575, 3248.870760067792, -11385.4868871554, -187500.02235174447, -21156.61903102625, -5799.696540796344, 6210.65571435162, -46232.23647263485, 187500.0, -25721.38169066688, -45431.59698624575, 12265.408011127474, -21125.08071959981, 0.084, 1.012, 0.076, 192.0, 0.0, 0.0, 0.0, 0.0, 0.0, 0.0, 0.0, 0.0, 0.0, 1.695334816849571E9, 0.0, 2023-09-21 17:20:16.849
32.0, 7521.004381299542, 27178.22369077488, 187500.0, -43853.80969689008, 3255.196303748644, -11389.085518012706, -187500.02235174447, -21159.167129894155, -5792.611037804012, 6206.945324772039, -46224.681583008954, 187500.0, -25706.56248409301, -45423.99739313095, 12230.9863246663, -21121.884420142702, 0.08600000000000001, 1.012, 0.07, 192.0, 1.0, 88.0, 15.5, 80.0, 1.0, 24.0, 0.0, 0.0, 0.0, 1.695334816849595E9, 0.0, 2023-09-21 17:20:16.849
34.0, 7536.516491951525, 27201.022470119296, 187500.0, -43831.03326929013, 3235.817341305893, -11364.38684038959, -187500.02235174447, -21144.638495998206, -5799.920058240898, 6212.265039952403, -46225.910928954, 187500.0, -25725.986150024673, -45423.103323352734, 12272.493514119806, -21121.437385253597, 0.08600000000000001, 1.012, 0.07, 192.0, 0.0, 0.0, 0.0, 0.0, 0.0, 0.0, 0.0, 0.0, 0.0, 1.695334816849605E9, 0.0, 2023-09-21 17:20:16.849
36.0, 7558.890588151287, 27228.76098498833, 187500.0, -43834.631900147426, 3243.416934420697, -11362.553997344256, -187500.02235174447, -21149.220603611542, -5774.684938750856, 6245.546787446355, -46202.79922518721, 187500.0, -25705.735469548163, -45392.16850902659, 12237.401275324974, -21101.65609141065, 0.08600000000000001, 1.012, 0.07, 192.0, 0.0, 0.0, 0.0, 0.0, 0.0, 0.0, 0.0, 0.0, 0.0, 1.695334816849615E9, 0.0, 2023-09-21 17:20:16.849
38.0, 7557.460076506148, 27203.32469979819, 187500.0, -43838.34228972701, 3243.9533762876245, -11370.377107903614, -187500.02235174447, -21150.740522234504, -5768.337043325549, 6253.146380561159, -46205.0567513772, 187500.0, -25713.290359174058, -45405.95953535551, 12260.825903514136, -21117.972864863023, 0.08600000000000001, 1.012, 0.07, 192.0, 0.0, 0.0, 0.0, 0.0, 0.0, 0.0, 0.0, 0.0, 0.0, 1.695334816849624E9, 0.0, 2023-09-21 17:20:16.849
40.0, 7525.295916234961, 27174.356838984113, 187500.0, -43845.338385741525, 3241.002946019524, -11376.099154484173, -187500.02235174447, -21148.103016388777, -5778.171810885884, 6215.617801620699, -46207.984829900844, 187500.0, -25709.021175983093, -45404.93135511057, 12221.240964083787, -21114.687158428093, 0.08600000000000001, 1.012, 0.07, 192.0, 0.0, 0.0, 0.0, 0.0, 0.0, 0.0, 0.0, 0.0, 0.0, 1.695334816849633E9, 0.0, 2023-09-21 17:20:16.849
42.0, 7497.758567066022, 27130.79328904072, 187500.0, -43874.03802562213, 3234.811512805404, -11400.619018151643, -187500.02235174447, -21159.56946129435, -5800.300037896638, 6188.862763507696, -46237.04209769274, 187500.0, -25727.03668201407, -45443.04107940687, 12254.545063322195, -21131.875649914226, 0.082, 1.016, 0.076, 192.0, 1.0, 72.0, 15.5, 96.0, 1.0, 48.0, 0.0, 0.0, 0.0, 1.695334816849642E9, 0.0, 2023-09-21 17:20:16.849
44.0, 7485.330997148872, 27118.879809246042, 187500.0, -43875.1556128449, 3233.962146516102, -11400.864887340653, -187500.02235174447, -21151.165205379155, -5792.611037804012, 6160.5654550272775, -46234.270481380285, 187500.0, -25706.5177806041, -45454.55222780135, 12224.481967029807, -21139.050559884377, 0.082, 1.016, 0.076, 192.0, 0.0, 0.0, 0.0, 0.0, 0.0, 0.0, 0.0, 0.0, 0.0, 1.695334816909807E9, 0.0, 2023-09-21 17:20:16.909
46.0, 7480.748889535534, 27099.210274125373, 187500.0, -43885.77269146117, 3232.598690104329, -11414.141823547105, -187500.02235174447, -21155.926126948136, -5790.889953480953, 6150.484818277934, -46239.70195528292, 187500.0, -25717.626597598388, -45472.92536174362, 12234.1379206345, -21147.723036733038, 0.082, 1.016, 0.076, 192.0, 0.0, 0.0, 0.0, 0.0, 0.0, 0.0, 0.0, 0.0, 0.0, 1.695334816909834E9, 0.0, 2023-09-21 17:20:16.909
48.0, 7458.6877177581455, 27079.853663427075, 187500.0, -43891.22651710827, 3234.006850005013, -11417.248716026392, -187500.02235174447, -21152.573365279837, -5788.610075546512, 6124.422684243046, -46243.01001346231, 187500.0, -25713.55858010752, -45474.46763211103, 12221.50918501725, -21153.53449029142, 0.082, 1.016, 0.076, 192.0, 0.0, 0.0, 0.0, 0.0, 0.0, 0.0, 0.0, 0.0, 0.0, 1.695334816909844E9, 0.0, 2023-09-21 17:20:16.909
50.0, 7459.134752647252, 27074.668058713443, 187500.0, -43886.443243794834, 3252.134114758267, -11410.654951412076, -187500.02235174447, -21148.639458255704, -5789.86177323601, 6112.643314915099, -46248.93322574296, 187500.0, -25706.406021881823, -45480.234382180504, 12219.162251849444, -21153.46743505805, 0.082, 1.016, 0.076, 192.0, 0.0, 0.0, 0.0, 0.0, 0.0, 0.0, 0.0, 0.0, 0.0, 1.695334816909853E9, 0.0, 2023-09-21 17:20:16.909
52.0, 7434.391371535226, 27053.612715436546, 187500.0, -43892.18764211985, 3242.6346233647614, -11413.605381680178, -187500.02235174447, -21151.23226061252, -5787.000749945731, 6092.862021072152, -46252.39774613354, 187500.0, -25695.94540547674, -45482.76012930395, 12208.187545321887, -21153.869766458247, 0.08, 1.016, 0.082, 192.0, 1.0, 64.0, 15.5, 96.0, 1.0, 72.0, 0.0, 0.0, 0.0, 1.695334816909862E9, 0.0, 2023-09-21 17:20:16.909
54.0, 7436.8500634253105, 27042.101567042064, 187500.0, -43908.88439522796, 3250.234216479566, -11425.094178330206, -187500.02235174447, -21168.75602826548, -5790.2417528917495, 6082.311997689248, -46257.918627014, 187500.0, -25706.786001537563, -45498.540460889395, 12206.980551121302, -21152.841586213304, 0.08, 1.016, 0.082, 192.0, 0.0, 0.0, 0.0, 0.0, 0.0, 0.0, 0.0, 0.0, 0.0, 1.695334816909871E9, 0.0, 2023-09-21 17:20:16.909
56.0, 7426.523557486958, 27037.810032106645, 187500.0, -43909.97963070627, 3219.657030064706, -11420.512070716868, -187500.02235174447, -21159.725923505535, -5799.137747184962, 6062.7765730353085, -46270.59206612016, 187500.0, -25714.38559465237, -45519.61815591075, 12215.854193670059, -21161.782283995424, 0.08, 1.016, 0.082, 192.0, 0.0, 0.0, 0.0, 0.0, 0.0, 0.0, 0.0, 0.0, 0.0, 1.695334816909881E9, 0.0, 2023-09-21 17:20:16.909
58.0, 7449.769371720478, 27052.91981135843, 187500.0, -43908.59382255004, 3238.588957618351, -11421.406140495079, -187500.02235174447, -21157.401342082187, -5778.864714963998, 6072.924265018019, -46254.476458367884, 187500.0, -25696.615957810398, -45512.21972849604, 12196.855210883048, -21149.064141400355, 0.08, 1.016, 0.082, 192.0, 0.0, 0.0, 0.0, 0.0, 0.0, 0.0, 0.0, 0.0, 0.0, 1.69533481690989E9, 0.0, 2023-09-21 17:20:16.909
60.0, 7439.3758105487605, 27047.376578733514, 187500.0, -43913.22063365229, 3218.204166675111, -11427.418759753557, -187500.02235174447, -21162.229318884532, -5786.330197612071, 6070.644387083577, -46258.7679933033, 187500.0, -25715.592588852953, -45519.14876927719, 12217.575277993117, -21155.479092059028, 0.08, 1.016, 0.082, 192.0, 0.0, 0.0, 0.0, 0.0, 0.0, 0.0, 0.0, 0.0, 0.0, 1.695334816969106E9, 0.0, 2023-09-21 17:20:16.969
62.0, 7459.850008469822, 27059.245355039282, 187500.0, -43903.09529341404, 3231.1458267147336, -11418.299248015792, -187500.02235174447, -21155.881423459225, -5785.0114446892085, 6069.973834749918, -46255.72815605738, 187500.0, -25698.851132255928, -45512.13032151823, 12193.0777660701, -21159.144778149697, 0.076, 1.014, 0.084, 192.0, 1.0, 48.0, 15.5, 88.0, 1.0, 80.0, 0.0, 0.0, 0.0, 1.695334816969129E9, 0.0, 2023-09-21 17:20:16.969
64.0, 7455.022031667475, 27062.866337641044, 187500.0, -43903.1623486474, 3222.898033010725, -11417.271067770847, -187500.02235174447, -21159.815330483358, -5778.328273097071, 6083.6083988676555, -46247.72623154238, 187500.0, -25693.307899631014, -45501.066208012846, 12189.635597423983, -21160.91056596167, 0.076, 1.014, 0.084, 192.0, 0.0, 0.0, 0.0, 0.0, 0.0, 0.0, 0.0, 0.0, 0.0, 1.69533481696914E9, 0.0, 2023-09-21 17:20:16.969
66.0, 7456.653709012713, 27056.45138698237, 187500.0, -43913.60061330803, 3232.4645796375967, -11425.585916708222, -187500.02235174447, -21164.777417752437, -5771.958025927309, 6077.908704031552, -46248.50854259831, 187500.0, -25694.693707787243, -45502.452016169074, 12160.913605798914, -21170.588871310818, 0.076, 1.014, 0.084, 192.0, 0.0, 0.0, 0.0, 0.0, 0.0, 0.0, 0.0, 0.0, 0.0, 1.695334816969194E9, 0.0, 2023-09-21 17:20:16.969
68.0, 7438.012354136987, 27045.990770577286, 187500.0, -43932.35372690603, 3200.5686402998736, -11442.237966327426, -187500.02235174447, -21179.261348159474, -5791.851078492532, 6070.86790452813, -46263.998301505846, 187500.0, -25707.724774804687, -45510.498644172985, 12193.949484103858, -21183.53053135044, 0.076, 1.014, 0.084, 192.0, 0.0, 0.0, 0.0, 0.0, 0.0, 0.0, 0.0, 0.0, 0.0, 1.695334816969209E9, 0.0, 2023-09-21 17:20:16.969
70.0, 7439.755790204501, 27043.576782176115, 187500.0, -43929.44800012684, 3226.6307743347616, -11437.030009869339, -187500.02235174447, -21177.33909813632, -5804.09983445404, 6057.099229943661, -46277.23053422339, 187500.0, -25727.014330269616, -45521.495702445, 12168.088515769066, -21199.444973402617, 0.076, 1.014, 0.084, 192.0, 0.0, 0.0, 0.0, 0.0, 0.0, 0.0, 0.0, 0.0, 0.0, 1.695334816969224E9, 0.0, 2023-09-21 17:20:16.969
72.0, 7441.365115805283, 27050.505822957257, 187500.0, -43920.864930256, 3232.844559293337, -11425.496509730401, -187500.02235174447, -21160.99997293949, -5794.7568052717215, 6080.255637199359, -46269.519182386306, 187500.0, -25718.453612143232, -45495.79119632139, 12189.948521846358, -21181.42946737164, 0.084, 1.004, 0.08, 192.0, 1.0, 80.0, 15.5, 48.0, 1.0, 64.0, 0.0, 0.0, 0.0, 1.695334816969236E9, 0.0, 2023-09-21 17:20:16.969
74.0, 7442.147426861218, 27044.7837763767, 187500.0, -43925.82701752508, 3235.526768627974, -11434.079579601239, -187500.02235174447, -21166.23028114203, -5790.286456380661, 6071.113773717138, -46267.39576666305, 187500.0, -25711.345757406445, -45507.45880692707, 12172.782382104682, -21185.028098228944, 0.084, 1.004, 0.08, 192.0, 0.0, 0.0, 0.0, 0.0, 0.0, 0.0, 0.0, 0.0, 0.0, 1.695334817029038E9, 0.0, 2023-09-21 17:20:17.029
76.0, 7437.654726225702, 27034.434918693893, 187500.0, -43935.28180542968, 3204.256678134999, -11447.64708848561, -187500.02235174447, -21184.62576682875, -5790.778194758677, 6064.922340503018, -46272.17903997649, 187500.0, -25706.674242815287, -45513.73964711901, 12199.626827195505, -21195.980453012045, 0.084, 1.004, 0.08, 192.0, 0.0, 0.0, 0.0, 0.0, 0.0, 0.0, 0.0, 0.0, 0.0, 1.695334817029064E9, 0.0, 2023-09-21 17:20:17.029
78.0, 7446.66247924119, 27038.994674562775, 187500.0, -43928.241005926255, 3205.173099657667, -11448.183530352537, -187500.02235174447, -21185.497484862506, -5788.990055202253, 6055.311090387237, -46269.45212715294, 187500.0, -25716.509010375623, -45513.69494363009, 12172.156533259933, -21207.1563252397, 0.084, 1.004, 0.08, 192.0, 0.0, 0.0, 0.0, 0.0, 0.0, 0.0, 0.0, 0.0, 0.0, 1.695334817029081E9, 0.0, 2023-09-21 17:20:17.029
80.0, 7460.319395103383, 27048.82944212311, 187500.0, -43916.19341566484, 3203.072035678868, -11438.751094192397, -187500.02235174447, -21174.85805450178, -5780.943427198342, 6075.405308652557, -46257.7174613139, 187500.0, -25720.778193566584, -45506.27416447093, 12201.347911518564, -21194.684051833636, 0.084, 1.004, 0.08, 192.0, 0.0, 0.0, 0.0, 0.0, 0.0, 0.0, 0.0, 0.0, 0.0, 1.69533481702909E9, 0.0, 2023-09-21 17:20:17.029
82.0, 7469.394203352238, 27061.189956806895, 187500.0, -43906.80568299362, 3209.911669482192, -11435.845367413207, -187500.02235174447, -21165.738542764015, -5781.032834176163, 6073.7512795628645, -46255.86226652411, 187500.0, -25705.020213725595, -45510.431588939624, 12175.017556550212, -21180.691859804614, 0.09, 1.006, 0.078, 192.0, 1.0, 104.0, 15.5, 56.0, 1.0, 56.0, 0.0, 0.0, 0.0, 1.695334817029099E9, 0.0, 2023-09-21 17:20:17.029
84.0, 7469.707127774612, 27055.17733754842, 187500.0, -43913.31004063011, 3209.9340212266475, -11435.979477879939, -187500.02235174447, -21162.0952084178, -5776.406023073915, 6089.3080937037585, -46255.25876942382, 187500.0, -25710.250521928137, -45497.646391111186, 12203.13605107499, -21162.542243306907, 0.09, 1.006, 0.078, 192.0, 0.0, 0.0, 0.0, 0.0, 0.0, 0.0, 0.0, 0.0, 0.0, 1.695334817029108E9, 0.0, 2023-09-21 17:20:17.029
86.0, 7464.253302127517, 27047.35422698906, 187500.0, -43916.908671487414, 3211.58805031634, -11434.370152279158, -187500.02235174447, -21156.864900215256, -5781.591627787546, 6064.698823058466, -46266.94873177394, 187500.0, -25704.617882325398, -45512.39854245169, 12177.610358907028, -21169.96302246607, 0.09, 1.006, 0.078, 192.0, 0.0, 0.0, 0.0, 0.0, 0.0, 0.0, 0.0, 0.0, 0.0, 1.695334817029117E9, 0.0, 2023-09-21 17:20:17.029
88.0, 7467.427249840171, 27047.153061288962, 187500.0, -43917.60157556553, 3222.6074603328066, -11433.811358667775, -187500.02235174447, -21150.293487345396, -5771.734508482756, 6078.9145325320405, -46261.94194101595, 187500.0, -25711.792792295553, -45508.15171100518, 12192.0272340807, -21162.18461539562, 0.09, 1.006, 0.078, 192.0, 0.0, 0.0, 0.0, 0.0, 0.0, 0.0, 0.0, 0.0, 0.0, 1.69533481702916E9, 0.0, 2023-09-21 17:20:17.029
90.0, 7457.413668324193, 27045.633142666, 187500.0, -43922.34014539005, 3228.6424313357393, -11439.488701759423, -187500.02235174447, -21153.71330424706, -5767.152400869418, 6072.387823151091, -46260.265560181804, 187500.0, -25713.33506266297, -45494.986533521005, 12165.428658178886, -21166.789074753415, 0.09, 1.006, 0.078, 192.0, 0.0, 0.0, 0.0, 0.0, 0.0, 0.0, 0.0, 0.0, 0.0, 1.69533481708924E9, 0.0, 2023-09-21 17:20:17.089
92.0, 7468.522485318481, 27053.478604969812, 187500.0, -43915.70167728683, 3234.3421261718427, -11426.5470417198, -187500.02235174447, -21138.871745928736, -5767.442973547337, 6075.8076400527525, -46265.74173757336, 187500.0, -25703.969681736195, -45504.50837665897, 12192.764841647726, -21173.360487623275, 0.088, 1.006, 0.078, 192.0, 1.0, 96.0, 15.5, 56.0, 1.0, 56.0, 0.0, 0.0, 0.0, 1.695334817089264E9, 0.0, 2023-09-21 17:20:17.089
94.0, 7482.6934913031455, 27069.951840633374, 187500.0, -43906.53746206015, 3237.180797717667, -11418.925096860541, -187500.02235174447, -21124.678388199616, -5753.830761174055, 6085.977683779917, -46249.98375773236, 187500.0, -25698.784077022563, -45487.074015983824, 12182.125411287, -21160.798807239393, 0.088, 1.006, 0.078, 192.0, 0.0, 0.0, 0.0, 0.0, 0.0, 0.0, 0.0, 0.0, 0.0, 1.695334817089274E9, 0.0, 2023-09-21 17:20:17.089
96.0, 7497.289180432461, 27073.17049183494, 187500.0, -43909.577299306075, 3241.2711669529876, -11420.35560850568, -187500.02235174447, -21125.41599576664, -5745.292394792127, 6097.242962985392, -46241.825371006176, 187500.0, -25700.393402623347, -45485.41998689413, 12193.949484103858, -21158.496577560494, 0.088, 1.006, 0.078, 192.0, 0.0, 0.0, 0.0, 0.0, 0.0, 0.0, 0.0, 0.0, 0.0, 1.695334817089283E9, 0.0, 2023-09-21 17:20:17.089
98.0, 7491.298912918439, 27072.54464299019, 187500.0, -43909.376133605976, 3235.7055825836164, -11417.248716026392, -187500.02235174447, -21122.26439979844, -5741.738467423734, 6087.654064614066, -46239.70195528292, 187500.0, -25699.588739822953, -45485.889373527694, 12184.74056538827, -21158.65303977168, 0.088, 1.006, 0.078, 192.0, 0.0, 0.0, 0.0, 0.0, 0.0, 0.0, 0.0, 0.0, 0.0, 1.695334817089292E9, 0.0, 2023-09-21 17:20:17.089
100.0, 7489.354311150827, 27056.92077361593, 187500.0, -43929.000965237734, 3239.617137863295, -11428.916326632063, -187500.02235174447, -21136.167184849644, -5750.276833805661, 6087.855230314163, -46244.664042552, 187500.0, -25697.42062061079, -45487.923382273126, 12195.402347493453, -21158.720095005046, 0.088, 1.006, 0.078, 192.0, 0.0, 0.0, 0.0, 0.0, 0.0, 0.0, 0.0, 0.0, 0.0, 1.695334817089301E9, 0.0, 2023-09-21 17:20:17.089
102.0, 7480.771241279989, 27054.6855991704, 187500.0, -43925.13411344697, 3216.103102696312, -11422.79194865131, -187500.02235174447, -21133.484975515006, -5764.984281657253, 6070.599683594666, -46259.59500784815, 187500.0, -25716.79958305354, -45500.28389695691, 12201.504373729751, -21178.23316791453, 0.08, 1.006, 0.078, 192.0, 1.0, 64.0, 15.5, 56.0, 1.0, 56.0, 0.0, 0.0, 0.0, 1.695334817089311E9, 0.0, 2023-09-21 17:20:17.089
104.0, 7482.134697691763, 27046.750729888765, 187500.0, -43940.333299676575, 3228.329506913365, -11437.78996918082, -187500.02235174447, -21152.23808911301, -5768.135877625451, 6076.209971452949, -46258.85740028112, 187500.0, -25734.591571639965, -45502.65318186917, 12192.340158503075, -21177.80848476988, 0.08, 1.006, 0.078, 192.0, 0.0, 0.0, 0.0, 0.0, 0.0, 0.0, 0.0, 0.0, 0.0, 1.695334817149443E9, 0.0, 2023-09-21 17:20:17.149
106.0, 7481.19592442464, 27062.665171940946, 187500.0, -43921.73664828976, 3217.198338174622, -11421.227326539438, -187500.02235174447, -21142.068045385844, -5783.156249899417, 6062.128372446105, -46269.27331319729, 187500.0, -25730.56825763801, -45507.503510415976, 12205.393577264975, -21197.321557679363, 0.08, 1.006, 0.078, 192.0, 0.0, 0.0, 0.0, 0.0, 0.0, 0.0, 0.0, 0.0, 0.0, 1.695334817149489E9, 0.0, 2023-09-21 17:20:17.149
108.0, 7483.945188992642, 27057.278401527215, 187500.0, -43929.24683442675, 3233.336297671354, -11436.35945753568, -187500.02235174447, -21152.863937957758, -5768.359395070004, 6080.657968599555, -46254.52116185679, 187500.0, -25711.47986787318, -45494.51714688744, 12176.93980657337, -21174.254557401488, 0.08, 1.006, 0.078, 192.0, 0.0, 0.0, 0.0, 0.0, 0.0, 0.0, 0.0, 0.0, 0.0, 1.695334817149499E9, 0.0, 2023-09-21 17:20:17.149
110.0, 7474.915084232698, 27057.88189862751, 187500.0, -43920.73081978927, 3205.307210124399, -11428.066960342761, -187500.02235174447, -21140.972809907533, -5775.400194573426, 6072.477230128912, -46265.36175791761, 187500.0, -25724.130955234883, -45490.091501485294, 12201.325559774108, -21183.262310416976, 0.08, 1.006, 0.078, 192.0, 0.0, 0.0, 0.0, 0.0, 0.0, 0.0, 0.0, 0.0, 0.0, 1.695334817149542E9, 0.0, 2023-09-21 17:20:17.149
112.0, 7477.57494182288, 27053.322142758625, 187500.0, -43938.88043628698, 3220.037009720446, -11446.149521607103, -187500.02235174447, -21153.780359480425, -5784.787927244655, 6071.381994650602, -46273.05075801024, 187500.0, -25736.826746085495, -45500.12743474572, 12183.153591531944, -21184.67047031766, 0.08600000000000001, 1.012, 0.078, 192.0, 1.0, 88.0, 15.5, 80.0, 1.0, 56.0, 0.0, 0.0, 0.0, 1.695334817149552E9, 0.0, 2023-09-21 17:20:17.149
114.0, 7465.169723650185, 27037.45240419536, 187500.0, -43936.57820660809, 3207.6988467811166, -11442.640297727621, -187500.02235174447, -21144.52673727593, -5781.971607443286, 6063.8271050247085, -46277.65521736804, 187500.0, -25735.463289673724, -45510.83392033981, 12204.588914464584, -21186.883293018735, 0.08600000000000001, 1.012, 0.078, 192.0, 0.0, 0.0, 0.0, 0.0, 0.0, 0.0, 0.0, 0.0, 0.0, 1.695334817149562E9, 0.0, 2023-09-21 17:20:17.149
116.0, 7478.491363345548, 27039.91109608544, 187500.0, -43938.9698432648, 3225.8931667677366, -11444.78606519533, -187500.02235174447, -21148.594754766793, -5773.723813739278, 6047.376221105603, -46273.49779289935, 187500.0, -25732.065824516514, -45510.18571975061, 12176.738640873271, -21184.15638019519, 0.08600000000000001, 1.012, 0.078, 192.0, 0.0, 0.0, 0.0, 0.0, 0.0, 0.0, 0.0, 0.0, 0.0, 1.695334817149572E9, 0.0, 2023-09-21 17:20:17.149
118.0, 7474.378642365771, 27049.20942177885, 187500.0, -43937.807552553124, 3203.362608356787, -11445.389562295624, -187500.02235174447, -21148.70651348907, -5761.408002544404, 6061.6589858125435, -46264.17711546148, 187500.0, -25711.591626595455, -45508.17406274963, 12184.785268877182, -21184.312842406376, 0.08600000000000001, 1.012, 0.078, 192.0, 0.0, 0.0, 0.0, 0.0, 0.0, 0.0, 0.0, 0.0, 0.0, 1.695334817149581E9, 0.0, 2023-09-21 17:20:17.149
120.0, 7468.85776148531, 27038.8829158405, 187500.0, -43945.429497412384, 3212.68328579465, -11450.64222224262, -187500.02235174447, -21148.348885577787, -5773.52264803918, 6053.72411653091, -46274.92830454449, 187500.0, -25732.736376850175, -45517.427684954135, 12153.157550472923, -21189.073763975357, 0.08600000000000001, 1.012, 0.078, 192.0, 0.0, 0.0, 0.0, 0.0, 0.0, 0.0, 0.0, 0.0, 0.0, 1.695334817209794E9, 0.0, 2023-09-21 17:20:17.209
122.0, 7477.150258678229, 27048.695331656378, 187500.0, -43931.54906410564, 3222.6074603328066, -11439.600460481699, -187500.02235174447, -21136.547164505384, -5776.003691673719, 6063.313014902236, -46273.81071732172, 187500.0, -25733.42928092829, -45505.9388883041, 12177.856228096036, -21178.032002214433, 0.08, 1.014, 0.074, 192.0, 1.0, 64.0, 15.5, 88.0, 1.0, 40.0, 0.0, 0.0, 0.0, 1.695334817209817E9, 0.0, 2023-09-21 17:20:17.209
124.0, 7473.1269446762735, 27042.21332576434, 187500.0, -43942.94845377785, 3234.967975016591, -11452.251547843403, -187500.02235174447, -21147.32070533284, -5771.5109910382025, 6063.2459596688705, -46273.36368243262, 187500.0, -25730.970589038207, -45507.771731349436, 12140.573518344585, -21179.104885948287, 0.08, 1.014, 0.074, 192.0, 0.0, 0.0, 0.0, 0.0, 0.0, 0.0, 0.0, 0.0, 0.0, 1.695334817209828E9, 0.0, 2023-09-21 17:20:17.209
126.0, 7470.511790575003, 27041.565125175137, 187500.0, -43950.65980561493, 3210.425759604664, -11463.561530537789, -187500.02235174447, -21158.206004882577, -5791.113470925507, 6058.239168910882, -46287.199412250455, 187500.0, -25739.576010653498, -45524.87081585775, 12174.861094339025, -21196.47219139006, 0.08, 1.014, 0.074, 192.0, 0.0, 0.0, 0.0, 0.0, 0.0, 0.0, 0.0, 0.0, 0.0, 1.695334817209837E9, 0.0, 2023-09-21 17:20:17.209
128.0, 7468.9024649742205, 27044.40379672096, 187500.0, -43946.81530556861, 3228.8659487802925, -11463.807399726797, -187500.02235174447, -21160.552938050383, -5782.798621988132, 6054.86405549813, -46278.25871446833, 187500.0, -25740.693597876263, -45524.066153057356, 12140.819387533593, -21205.703461850102, 0.08, 1.014, 0.074, 192.0, 0.0, 0.0, 0.0, 0.0, 0.0, 0.0, 0.0, 0.0, 0.0, 1.695334817209846E9, 0.0, 2023-09-21 17:20:17.209
130.0, 7463.247473627028, 27042.101567042064, 187500.0, -43948.245817213756, 3222.5404050994402, -11457.817132212775, -187500.02235174447, -21155.27792635893, -5778.507087052713, 6063.514180602334, -46275.53180164478, 187500.0, -25738.704292619743, -45520.646336155696, 12166.926225057392, -21199.646139102715, 0.08, 1.014, 0.074, 192.0, 0.0, 0.0, 0.0, 0.0, 0.0, 0.0, 0.0, 0.0, 0.0, 1.695334817209855E9, 0.0, 2023-09-21 17:20:17.209
132.0, 7444.606118751302, 27028.01996803522, 187500.0, -43967.49066918978, 3211.3868846162422, -11475.787934754842, -187500.02235174447, -21171.281775388932, -5795.874392494487, 6044.246976881859, -46288.47346168441, 187500.0, -25754.886955605383, -45528.08946705931, 12149.000126004235, -21208.43037467365, 0.08600000000000001, 1.01, 0.074, 192.0, 1.0, 88.0, 15.5, 72.0, 1.0, 40.0, 0.0, 0.0, 0.0, 1.6953348172099E9, 0.0, 2023-09-21 17:20:17.209
134.0, 7453.435057811148, 27043.934410087397, 187500.0, -43953.342014949565, 3208.592916559329, -11464.723821249465, -187500.02235174447, -21162.363429351262, -5792.05224419263, 6050.751334518353, -46290.619229152115, 187500.0, -25751.62360091491, -45526.9495280921, 12177.319786229109, -21214.1077177653, 0.08600000000000001, 1.01, 0.074, 192.0, 0.0, 0.0, 0.0, 0.0, 0.0, 0.0, 0.0, 0.0, 0.0, 1.695334817269191E9, 0.0, 2023-09-21 17:20:17.269
136.0, 7460.900540459221, 27047.01895082223, 187500.0, -43946.1224014905, 3205.843651991326, -11467.36132709519, -187500.02235174447, -21156.82019672635, -5780.272874864683, 6057.032174710295, -46277.87873481259, 187500.0, -25740.447728687257, -45511.616231395754, 12131.677524051373, -21210.710252608093, 0.08600000000000001, 1.01, 0.074, 192.0, 0.0, 0.0, 0.0, 0.0, 0.0, 0.0, 0.0, 0.0, 0.0, 1.695334817269217E9, 0.0, 2023-09-21 17:20:17.269
138.0, 7459.894711958732, 27033.78671810469, 187500.0, -43960.18164875289, 3216.0807509518568, -11480.973539468472, -187500.02235174447, -21171.214720155564, -5789.481793580269, 6060.988433478884, -46285.25481048284, 187500.0, -25747.48852819068, -45523.73087689053, 12145.915585269402, -21215.024139287965, 0.08600000000000001, 1.01, 0.074, 192.0, 0.0, 0.0, 0.0, 0.0, 0.0, 0.0, 0.0, 0.0, 0.0, 1.695334817269227E9, 0.0, 2023-09-21 17:20:17.269
140.0, 7456.47489505707, 27034.479622182804, 187500.0, -43956.51596266222, 3220.1040649538118, -11476.391431855134, -187500.02235174447, -21158.921260705145, -5791.113470925507, 6044.783418748787, -46282.88552557058, 187500.0, -25740.134804264882, -45530.81637988286, 12130.358771128509, -21222.556677169407, 0.08600000000000001, 1.01, 0.074, 192.0, 0.0, 0.0, 0.0, 0.0, 0.0, 0.0, 0.0, 0.0, 0.0, 1.695334817269236E9, 0.0, 2023-09-21 17:20:17.269
142.0, 7462.599273037824, 27034.79254660518, 187500.0, -43952.09031726007, 3222.7415707995383, -11478.112516178193, -187500.02235174447, -21149.958211178568, -5780.697558009334, 6058.932072988996, -46268.20042946344, 187500.0, -25736.782042596584, -45516.66772564265, 12129.598811817028, -21208.899761307213, 0.088, 1.012, 0.078, 192.0, 1.0, 96.0, 15.5, 80.0, 1.0, 56.0, 0.0, 0.0, 0.0, 1.695334817269245E9, 0.0, 2023-09-21 17:20:17.269
144.0, 7444.159083862196, 27024.220171477817, 187500.0, -43956.65007312895, 3205.888355480237, -11484.907446492607, -187500.02235174447, -21150.42759781213, -5798.869526251498, 6043.330555359192, -46281.186792991975, 187500.0, -25742.437033943777, -45527.82124612585, 12117.64062853344, -21213.750089854013, 0.088, 1.012, 0.078, 192.0, 0.0, 0.0, 0.0, 0.0, 0.0, 0.0, 0.0, 0.0, 0.0, 1.695334817269255E9, 0.0, 2023-09-21 17:20:17.269
146.0, 7438.504092515003, 27010.563255615623, 187500.0, -43966.84246860057, 3204.7260647685607, -11489.08722270575, -187500.02235174447, -21163.704534018583, -5807.765520544711, 6045.76689550482, -46283.46667092641, 187500.0, -25756.250412017158, -45526.45778971408, 12120.63576229045, -21207.893932806724, 0.088, 1.012, 0.078, 192.0, 0.0, 0.0, 0.0, 0.0, 0.0, 0.0, 0.0, 0.0, 0.0, 1.695334817269265E9, 0.0, 2023-09-21 17:20:17.269
148.0, 7436.000697136009, 27020.15215398695, 187500.0, -43952.850276571546, 3212.839748005837, -11471.474048074968, -187500.02235174447, -21149.310010589365, -5805.284476910171, 6032.400552320547, -46281.387958692074, 187500.0, -25755.378693983403, -45535.934929363124, 12124.97200071478, -21213.705386365105, 0.088, 1.012, 0.078, 192.0, 0.0, 0.0, 0.0, 0.0, 0.0, 0.0, 0.0, 0.0, 0.0, 1.695334817269274E9, 0.0, 2023-09-21 17:20:17.269
150.0, 7448.9423571756315, 27024.600151133556, 187500.0, -43954.75017485025, 3230.9223092701804, -11471.027013185862, -187500.02235174447, -21149.958211178568, -5794.041549449152, 6044.559901304234, -46268.13337423008, 187500.0, -25743.934600822282, -45524.692001902105, 12118.981733200757, -21205.546999638915, 0.088, 1.012, 0.078, 192.0, 0.0, 0.0, 0.0, 0.0, 0.0, 0.0, 0.0, 0.0, 0.0, 1.695334817329874E9, 0.0, 2023-09-21 17:20:17.329
152.0, 7446.818941452378, 27024.667206366925, 187500.0, -43945.0718695011, 3208.838785748337, -11463.494475304422, -187500.02235174447, -21149.13119663372, -5797.304904139627, 6047.644442039066, -46263.66302533901, 187500.0, -25757.09977830646, -45515.48308318652, 12130.626992061972, -21202.305996692896, 0.082, 1.006, 0.082, 192.0, 1.0, 72.0, 15.5, 56.0, 1.0, 72.0, 0.0, 0.0, 0.0, 1.695334817329899E9, 0.0, 2023-09-21 17:20:17.329
154.0, 7450.082296142852, 27018.20755221934, 187500.0, -43957.49943941825, 3221.0428382209348, -11477.196094655526, -187500.02235174447, -21162.206967140075, -5797.550773328635, 6038.994316934863, -46267.35106317414, 187500.0, -25767.158063311348, -45518.00883030997, 12123.54148906964, -21200.58491236984, 0.082, 1.006, 0.082, 192.0, 0.0, 0.0, 0.0, 0.0, 0.0, 0.0, 0.0, 0.0, 0.0, 1.695334817329938E9, 0.0, 2023-09-21 17:20:17.329
156.0, 7455.737287490045, 27037.8323838511, 187500.0, -43943.8201718116, 3211.744512527527, -11468.210693384492, -187500.02235174447, -21152.796882724393, -5790.375863358482, 6046.549206560756, -46261.94194101595, 187500.0, -25738.704292619743, -45516.26539424246, 12127.855375749514, -21203.267121704474, 0.082, 1.006, 0.082, 192.0, 0.0, 0.0, 0.0, 0.0, 0.0, 0.0, 0.0, 0.0, 0.0, 1.695334817329948E9, 0.0, 2023-09-21 17:20:17.329
158.0, 7451.892787443732, 27028.19878199086, 187500.0, -43958.48291617429, 3216.013695718491, -11482.716975535986, -187500.02235174447, -21158.273060115942, -5790.331159869571, 6044.783418748787, -46265.74173757336, 187500.0, -25741.878240332397, -45528.08946705931, 12113.885535464948, -21203.602397871306, 0.082, 1.006, 0.082, 192.0, 0.0, 0.0, 0.0, 0.0, 0.0, 0.0, 0.0, 0.0, 0.0, 1.695334817329957E9, 0.0, 2023-09-21 17:20:17.329
160.0, 7454.262072355995, 27039.91109608544, 187500.0, -43944.08839274507, 3214.404370117709, -11476.74905976642, -187500.02235174447, -21150.0923216453, -5796.880220994976, 6036.7144390004205, -46275.59885687815, 187500.0, -25758.57499344051, -45530.145827549204, 12131.87868975147, -21211.559618897394, 0.082, 1.006, 0.082, 192.0, 0.0, 0.0, 0.0, 0.0, 0.0, 0.0, 0.0, 0.0, 0.0, 1.695334817329966E9, 0.0, 2023-09-21 17:20:17.329
162.0, 7465.169723650185, 27041.073386797118, 187500.0, -43947.73172709128, 3240.265338452499, -11482.716975535986, -187500.02235174447, -21155.792016481402, -5779.110584153007, 6056.808657265742, -46261.45020263794, 187500.0, -25747.33206597949, -45513.717295374554, 12109.772814485172, -21199.71319433608, 0.078, 1.012, 0.082, 192.0, 1.0, 56.0, 15.5, 80.0, 1.0, 72.0, 0.0, 0.0, 0.0, 1.695334817329976E9, 0.0, 2023-09-21 17:20:17.329
164.0, 7470.7800115084665, 27054.93146835941, 187500.0, -43934.56654960711, 3221.3781143877645, -11471.07171667477, -187500.02235174447, -21145.800786709882, -5770.99690091573, 6068.185695193493, -46250.631958321566, 187500.0, -25730.501202404645, -45505.87183307074, 12119.026436689668, -21198.305034435398, 0.078, 1.012, 0.082, 192.0, 0.0, 0.0, 0.0, 0.0, 0.0, 0.0, 0.0, 0.0, 0.0, 1.695334817389205E9, 0.0, 2023-09-21 17:20:17.389
166.0, 7475.093898188341, 27052.852756125067, 187500.0, -43938.16518046441, 3224.5967655893287, -11466.288443361336, -187500.02235174447, -21141.933934919114, -5786.464308078803, 6056.808657265742, -46258.92445551449, 187500.0, -25747.220307257216, -45506.56473714885, 12102.01675915918, -21201.523685636963, 0.078, 1.012, 0.082, 192.0, 0.0, 0.0, 0.0, 0.0, 0.0, 0.0, 0.0, 0.0, 0.0, 1.695334817389229E9, 0.0, 2023-09-21 17:20:17.389
168.0, 7470.556494063913, 27050.81874737963, 187500.0, -43940.53446537667, 3212.079788694357, -11470.132943407649, -187500.02235174447, -21147.030132654923, -5780.4293370758705, 6067.0010527373615, -46255.90697001302, 187500.0, -25744.96278106723, -45507.279992971424, 12130.582288573061, -21191.130124465242, 0.078, 1.012, 0.082, 192.0, 0.0, 0.0, 0.0, 0.0, 0.0, 0.0, 0.0, 0.0, 0.0, 1.695334817389242E9, 0.0, 2023-09-21 17:20:17.389
170.0, 7473.57397956538, 27052.517479958235, 187500.0, -43935.46061938532, 3220.68521030965, -11466.064925916782, -187500.02235174447, -21147.052484399377, -5782.686863265856, 6059.759087533843, -46258.70093806994, 187500.0, -25749.030798558095, -45508.688152872106, 12106.487108050242, -21206.9551595396, 0.078, 1.012, 0.082, 192.0, 0.0, 0.0, 0.0, 0.0, 0.0, 0.0, 0.0, 0.0, 0.0, 1.695334817389254E9, 0.0, 2023-09-21 17:20:17.389
172.0, 7457.078392157364, 27027.43882267938, 187500.0, -43955.06309927262, 3203.0496839344128, -11483.74515578093, -187500.02235174447, -21168.018420698456, -5786.441956334348, 6060.273177656314, -46263.283045683274, 187500.0, -25745.18629851178, -45514.32079247484, 12129.621163561484, -21210.28556946344, 0.082, 1.008, 0.082, 192.0, 1.0, 72.0, 15.5, 64.0, 1.0, 72.0, 0.0, 0.0, 0.0, 1.695334817389263E9, 0.0, 2023-09-21 17:20:17.389
174.0, 7459.268863113984, 27026.567104645623, 187500.0, -43951.44211667086, 3224.6414690782394, -11473.083373675749, -187500.02235174447, -21150.56170827886, -5791.851078492532, 6046.996241449862, -46267.84280155216, 187500.0, -25753.970534082717, -45518.83584485482, 12109.482241807253, -21211.760784597493, 0.082, 1.008, 0.082, 192.0, 0.0, 0.0, 0.0, 0.0, 0.0, 0.0, 0.0, 0.0, 0.0, 1.695334817389273E9, 0.0, 2023-09-21 17:20:17.389
176.0, 7465.281482372461, 27036.82655535061, 187500.0, -43940.71327933232, 3215.2090329180996, -11464.455600316001, -187500.02235174447, -21135.139004604698, -5796.43318610587, 6049.544340317767, -46273.94482778846, 187500.0, -25771.53900522459, -45533.923272362146, 12147.502559125729, -21205.234075216544, 0.082, 1.008, 0.082, 192.0, 0.0, 0.0, 0.0, 0.0, 0.0, 0.0, 0.0, 0.0, 0.0, 1.695334817389315E9, 0.0, 2023-09-21 17:20:17.389
178.0, 7454.239720611539, 27017.91697954142, 187500.0, -43961.656863886936, 3217.6677248081837, -11489.243684916937, -187500.02235174447, -21151.23226061252, -5787.648950534935, 6048.963194961929, -46260.064394481706, 187500.0, -25750.595420669964, -45510.58805115081, 12099.580419013551, -21196.87452279026, 0.082, 1.008, 0.082, 192.0, 0.0, 0.0, 0.0, 0.0, 0.0, 0.0, 0.0, 0.0, 0.0, 1.695334817389324E9, 0.0, 2023-09-21 17:20:17.389
180.0, 7455.670232256679, 27019.10162199755, 187500.0, -43970.64226515797, 3194.8912972082258, -11498.631417588165, -187500.02235174447, -21155.90377520368, -5801.551735586136, 6042.704706514443, -46278.191659234966, 187500.0, -25762.777121398107, -45533.27507177294, 12141.2664224227, -21212.073709019867, 0.082, 1.008, 0.082, 192.0, 0.0, 0.0, 0.0, 0.0, 0.0, 0.0, 0.0, 0.0, 0.0, 1.695334817449641E9, 0.0, 2023-09-21 17:20:17.449
182.0, 7442.23683383904, 27015.458287651338, 187500.0, -43977.03486407219, 3203.6978845236167, -11506.923914781084, -187500.02235174447, -21159.770626994447, -5803.697503053845, 6021.537604515267, -46283.556077904235, 187500.0, -25765.4816824772, -45549.077755102844, 12107.515288295184, -21220.92499982417, 0.084, 1.006, 0.08, 192.0, 1.0, 80.0, 15.5, 56.0, 1.0, 64.0, 0.0, 0.0, 0.0, 1.695334817449668E9, 0.0, 2023-09-21 17:20:17.449
184.0, 7470.802363252922, 27042.995636820277, 187500.0, -43952.67146261591, 3228.329506913365, -11492.194115185037, -187500.02235174447, -21146.158414621164, -5790.666436036401, 6039.217834379415, -46269.228609708385, 187500.0, -25761.748941153164, -45537.767772408464, 12119.004084945213, -21217.281665477953, 0.084, 1.006, 0.08, 192.0, 0.0, 0.0, 0.0, 0.0, 0.0, 0.0, 0.0, 0.0, 0.0, 1.695334817449679E9, 0.0, 2023-09-21 17:20:17.449
186.0, 7468.7236510185785, 27048.650628167466, 187500.0, -43943.52959913368, 3242.969899531591, -11483.029899958361, -187500.02235174447, -21135.94366740509, -5768.292339836638, 6055.936939231985, -46240.19369366094, 187500.0, -25733.51868790611, -45506.162405748655, 12077.787468169627, -21204.518819393972, 0.084, 1.006, 0.08, 192.0, 0.0, 0.0, 0.0, 0.0, 0.0, 0.0, 0.0, 0.0, 0.0, 1.695334817449688E9, 0.0, 2023-09-21 17:20:17.449
188.0, 7458.844179969333, 27030.903343069953, 187500.0, -43963.10972727653, 3237.7395913290493, -11499.212562944003, -187500.02235174447, -21148.348885577787, -5786.978398201275, 6051.712459529932, -46260.33261541517, 187500.0, -25753.05411256005, -45531.28576651642, 12102.575552770562, -21210.86671481928, 0.084, 1.006, 0.08, 192.0, 0.0, 0.0, 0.0, 0.0, 0.0, 0.0, 0.0, 0.0, 0.0, 1.695334817449698E9, 0.0, 2023-09-21 17:20:17.449
190.0, 7456.854874712811, 27041.878049597508, 187500.0, -43949.94454979236, 3233.6045186048173, -11487.164972682593, -187500.02235174447, -21138.2906005729, -5794.712101782811, 6036.937956444974, -46267.21695270741, 187500.0, -25761.413664986332, -45535.75611540749, 12094.037186388636, -21216.901685822213, 0.084, 1.006, 0.08, 192.0, 0.0, 0.0, 0.0, 0.0, 0.0, 0.0, 0.0, 0.0, 0.0, 1.695334817449707E9, 0.0, 2023-09-21 17:20:17.449
192.0, 7467.874284729277, 27039.30759898515, 187500.0, -43952.2244277268, 3252.0000042915353, -11492.350577396224, -187500.02235174447, -21141.643362241193, -5783.37976734397, 6053.858226997641, -46255.50463861282, 187500.0, -25747.84615610196, -45520.66868790015, 12088.426898530353, -21208.58683688484, 0.088, 1.008, 0.09, 192.0, 1.0, 96.0, 15.5, 64.0, 1.0, 104.0, 0.0, 0.0, 0.0, 1.695334817449716E9, 0.0, 2023-09-21 17:20:17.449
194.0, 7455.2231973675725, 27032.28915122618, 187500.0, -43956.761831851225, 3232.4198761486864, -11494.764565797397, -187500.02235174447, -21145.733731476514, -5789.101813924529, 6045.901005971552, -46256.59987409114, 187500.0, -25751.75771138164, -45520.13224603322, 12087.219904329766, -21213.34775845382, 0.088, 1.008, 0.09, 192.0, 0.0, 0.0, 0.0, 0.0, 0.0, 0.0, 0.0, 0.0, 0.0, 1.695334817509867E9, 0.0, 2023-09-21 17:20:17.509
196.0, 7474.468049343593, 27052.092796813584, 187500.0, -43940.44505839885, 3247.9543385451248, -11479.543027823333, -187500.02235174447, -21135.04959762688, -5794.041549449152, 6042.056505925239, -46263.283045683274, 187500.0, -25760.519595208123, -45528.87177811525, 12096.96526491228, -21214.465345676585, 0.088, 1.008, 0.09, 192.0, 0.0, 0.0, 0.0, 0.0, 0.0, 0.0, 0.0, 0.0, 0.0, 1.695334817509894E9, 0.0, 2023-09-21 17:20:17.509
198.0, 7468.388374851749, 27047.711854900346, 187500.0, -43937.829904297585, 3244.7356873435606, -11475.139734165637, -187500.02235174447, -21120.588018964296, -5780.4293370758705, 6049.477285084401, -46243.47940009587, 187500.0, -25738.324312964003, -45515.43837969761, 12080.760250182182, -21195.600473356306, 0.088, 1.008, 0.09, 192.0, 0.0, 0.0, 0.0, 0.0, 0.0, 0.0, 0.0, 0.0, 0.0, 1.695334817509939E9, 0.0, 2023-09-21 17:20:17.509
200.0, 7484.258113415017, 27044.314389743136, 187500.0, -43949.34105269206, 3247.842579822848, -11487.299083149324, -187500.02235174447, -21135.89896391618, -5775.735470740256, 6048.67262228401, -46246.228664663875, 187500.0, -25740.67124613181, -45525.451961213585, 12084.381232783942, -21192.985319255033, 0.088, 1.008, 0.09, 192.0, 0.0, 0.0, 0.0, 0.0, 0.0, 0.0, 0.0, 0.0, 0.0, 1.695334817509949E9, 0.0, 2023-09-21 17:20:17.509
202.0, 7472.881075487266, 27055.825538137622, 187500.0, -43927.056363470125, 3231.346992414831, -11464.679117760554, -187500.02235174447, -21121.884420142702, -5792.298113381638, 6047.95736646144, -46253.58238858967, 187500.0, -25762.48654872019, -45520.37811522223, 12097.457003290298, -21203.44593566012, 0.08600000000000001, 1.004, 0.088, 192.0, 1.0, 88.0, 15.5, 48.0, 1.0, 96.0, 0.0, 0.0, 0.0, 1.695334817509958E9, 0.0, 2023-09-21 17:20:17.509
204.0, 7455.670232256679, 27041.58747691959, 187500.0, -43941.69675608835, 3241.360573930809, -11471.69756551952, -187500.02235174447, -21131.965056892044, -5792.834555248565, 6072.298416173269, -46238.405554104516, 187500.0, -25756.026894572606, -45497.24405971099, 12074.010023356679, -21181.138894693722, 0.08600000000000001, 1.004, 0.088, 192.0, 0.0, 0.0, 0.0, 0.0, 0.0, 0.0, 0.0, 0.0, 0.0, 1.695334817509968E9, 0.0, 2023-09-21 17:20:17.509
206.0, 7445.097857129319, 27050.416415979438, 187500.0, -43931.660822827915, 3235.3479546723315, -11464.276786360359, -187500.02235174447, -21125.661864955648, -5810.268915923705, 6069.77266904982, -46253.67179556749, 187500.0, -25768.298002278567, -45503.61430688075, 12096.048843389612, -21200.540208880928, 0.08600000000000001, 1.004, 0.088, 192.0, 0.0, 0.0, 0.0, 0.0, 0.0, 0.0, 0.0, 0.0, 0.0, 1.695334817509977E9, 0.0, 2023-09-21 17:20:17.509
208.0, 7435.978345391553, 27040.201668763362, 187500.0, -43937.964014764315, 3253.139943258756, -11471.36228935269, -187500.02235174447, -21130.601600480273, -5823.747017830256, 6078.892180787585, -46255.63874907956, 187500.0, -25772.745999425173, -45498.138129489205, 12087.175200840855, -21196.606301856795, 0.08600000000000001, 1.004, 0.088, 192.0, 0.0, 0.0, 0.0, 0.0, 0.0, 0.0, 0.0, 0.0, 0.0, 1.695334817509987E9, 0.0, 2023-09-21 17:20:17.509
210.0, 7437.699429714612, 27059.40181725047, 187500.0, -43915.90284298693, 3230.7658470589936, -11457.5042077904, -187500.02235174447, -21120.297446286375, -5834.565262146623, 6084.636579112599, -46260.64553983755, 187500.0, -25772.745999425173, -45495.36651317674, 12112.387968586441, -21200.249636203007, 0.08600000000000001, 1.004, 0.088, 192.0, 0.0, 0.0, 0.0, 0.0, 0.0, 0.0, 0.0, 0.0, 0.0, 1.695334817570142E9, 0.0, 2023-09-21 17:20:17.570
212.0, 7444.0696768843745, 27057.725436416324, 187500.0, -43914.82995925307, 3256.73857411606, -11461.907501448095, -187500.02235174447, -21123.538449232394, -5836.442808680869, 6103.948486321984, -46250.54255134375, 187500.0, -25769.86262439044, -45475.1828879336, 12093.567799755074, -21184.357545895284, 0.09, 1.008, 0.082, 192.0, 1.0, 104.0, 15.5, 64.0, 1.0, 72.0, 0.0, 0.0, 0.0, 1.695334817570167E9, 0.0, 2023-09-21 17:20:17.570
214.0, 7439.442865782126, 27063.69335218589, 187500.0, -43912.81830225209, 3218.5394428419404, -11464.388545082635, -187500.02235174447, -21125.19247832209, -5849.2280065093055, 6111.123396292138, -46256.26459792431, 187500.0, -25785.553548998065, -45480.45789962506, 12123.07210243608, -21193.924092522157, 0.09, 1.008, 0.082, 192.0, 0.0, 0.0, 0.0, 0.0, 0.0, 0.0, 0.0, 0.0, 0.0, 1.695334817570177E9, 0.0, 2023-09-21 17:20:17.570
216.0, 7452.675098499668, 27083.005259395275, 187500.0, -43898.69199975634, 3233.9844982605578, -11452.810341454786, -187500.02235174447, -21120.006873608458, -5847.05988729714, 6119.706466162976, -46251.458972866414, 187500.0, -25776.992830871684, -45463.69409128357, 12098.1052038795, -21184.871636017757, 0.09, 1.008, 0.082, 192.0, 0.0, 0.0, 0.0, 0.0, 0.0, 0.0, 0.0, 0.0, 0.0, 1.695334817570186E9, 0.0, 2023-09-21 17:20:17.570
218.0, 7456.9219299461765, 27093.51057928927, 187500.0, -43885.41506354989, 3238.5666058738957, -11439.332239548236, -187500.02235174447, -21100.22557976551, -5847.216349508328, 6135.307983792781, -46242.451219850926, 187500.0, -25778.602156472465, -45454.61928303472, 12108.185840628845, -21183.374069139252, 0.09, 1.008, 0.082, 192.0, 0.0, 0.0, 0.0, 0.0, 0.0, 0.0, 0.0, 0.0, 0.0, 1.695334817570195E9, 0.0, 2023-09-21 17:20:17.570
220.0, 7455.491418301037, 27086.894462930497, 187500.0, -43897.64146776694, 3248.781353089971, -11453.525597277356, -187500.02235174447, -21113.99425434998, -5841.673116883411, 6140.828864673241, -46234.29283312474, 187500.0, -25770.309659279545, -45447.98081493149, 12066.611595941973, -21174.925109735144, 0.09, 1.008, 0.082, 192.0, 0.0, 0.0, 0.0, 0.0, 0.0, 0.0, 0.0, 0.0, 0.0, 1.695334817570243E9, 0.0, 2023-09-21 17:20:17.570
222.0, 7462.643976526735, 27088.704954231376, 187500.0, -43887.82905195106, 3232.330469170865, -11446.529501262845, -187500.02235174447, -21109.27803626991, -5850.814980365632, 6140.582995484233, -46248.039155964754, 187500.0, -25785.777066442617, -45450.886541710686, 12115.24899187672, -21178.9484237371, 0.084, 1.002, 0.082, 192.0, 1.0, 80.0, 15.5, 40.0, 1.0, 72.0, 0.0, 0.0, 0.0, 1.695334817570253E9, 0.0, 2023-09-21 17:20:17.570
224.0, 7461.861665470799, 27096.751582235287, 187500.0, -43881.21293559229, 3248.8931118122473, -11431.419722011056, -187500.02235174447, -21102.483105955496, -5851.641994910478, 6133.966879125462, -46246.00514721932, 187500.0, -25778.266880305637, -45447.48907655347, 12083.241293816722, -21174.05339170139, 0.084, 1.002, 0.082, 192.0, 0.0, 0.0, 0.0, 0.0, 0.0, 0.0, 0.0, 0.0, 0.0, 1.695334817629579E9, 0.0, 2023-09-21 17:20:17.629
226.0, 7471.919950475687, 27106.11696316206, 187500.0, -43873.702749455304, 3238.141922729245, -11419.618000938655, -187500.02235174447, -21091.88837908368, -5822.115340485017, 6154.061097390783, -46234.29283312474, 187500.0, -25770.71199067974, -45438.03428864888, 12122.043922191135, -21154.875594958736, 0.084, 1.002, 0.082, 192.0, 0.0, 0.0, 0.0, 0.0, 0.0, 0.0, 0.0, 0.0, 0.0, 1.695334817629604E9, 0.0, 2023-09-21 17:20:17.629
228.0, 7467.427249840171, 27110.587312053125, 187500.0, -43881.59291524803, 3252.3129287139095, -11425.161233563571, -187500.02235174447, -21096.202265763553, -5837.20276799235, 6156.899768936607, -46219.29481259523, 187500.0, -25762.330086509002, -45427.48426526598, 12081.386099026931, -21151.90281294618, 0.084, 1.002, 0.082, 192.0, 0.0, 0.0, 0.0, 0.0, 0.0, 0.0, 0.0, 0.0, 0.0, 1.695334817629614E9, 0.0, 2023-09-21 17:20:17.629
230.0, 7469.997700452531, 27100.12669564804, 187500.0, -43895.182775876856, 3241.8970157977365, -11434.437207512523, -187500.02235174447, -21100.627911165706, -5848.088067542085, 6157.235045103436, -46233.778743002265, 187500.0, -25782.290194307592, -45449.2772161099, 12112.075044164068, -21164.218624141053, 0.084, 1.002, 0.082, 192.0, 0.0, 0.0, 0.0, 0.0, 0.0, 0.0, 0.0, 0.0, 0.0, 1.695334817629623E9, 0.0, 2023-09-21 17:20:17.629
232.0, 7461.168761392684, 27085.665116985456, 187500.0, -43910.35961036201, 3247.350841444831, -11447.781198952342, -187500.02235174447, -21106.573475190817, -5842.0083930502415, 6139.353649539191, -46233.778743002265, 187500.0, -25785.262976320148, -45444.583349774286, 12089.76800319767, -21172.66758354516, 0.08, 1.006, 0.084, 192.0, 1.0, 64.0, 15.5, 56.0, 1.0, 80.0, 0.0, 0.0, 0.0, 1.695334817629633E9, 0.0, 2023-09-21 17:20:17.629
234.0, 7464.946206205632, 27085.709820474367, 187500.0, -43914.98642146426, 3228.6424313357393, -11452.497417032411, -187500.02235174447, -21105.545294945874, -5849.272709998216, 6130.59176571271, -46246.25101640833, 187500.0, -25775.875243648916, -45462.129469171705, 12115.986599443746, -21177.920243492157, 0.08, 1.006, 0.084, 192.0, 0.0, 0.0, 0.0, 0.0, 0.0, 0.0, 0.0, 0.0, 0.0, 1.695334817629642E9, 0.0, 2023-09-21 17:20:17.629
236.0, 7446.416610052182, 27074.891576158, 187500.0, -43921.62488956749, 3233.6045186048173, -11465.148504394116, -187500.02235174447, -21108.51807695843, -5841.807227350143, 6122.612192942166, -46239.05375469372, 187500.0, -25778.62450821692, -45460.40838484864, 12085.901151406902, -21175.215682413065, 0.08, 1.006, 0.084, 192.0, 0.0, 0.0, 0.0, 0.0, 0.0, 0.0, 0.0, 0.0, 0.0, 1.695334817629652E9, 0.0, 2023-09-21 17:20:17.629
238.0, 7457.681889257657, 27078.60196573758, 187500.0, -43919.50147384423, 3227.8824720242587, -11460.856969458697, -187500.02235174447, -21106.528771701905, -5856.1570472904505, 6120.265259774359, -46255.86226652411, 187500.0, -25801.043307905595, -45476.79221353438, 12106.39770107242, -21188.42556338615, 0.08, 1.006, 0.084, 192.0, 0.0, 0.0, 0.0, 0.0, 0.0, 0.0, 0.0, 0.0, 0.0, 1.695334817629661E9, 0.0, 2023-09-21 17:20:17.629
240.0, 7472.165819664696, 27094.471704300846, 187500.0, -43903.58703179205, 3237.292556439943, -11448.40704779709, -187500.02235174447, -21104.673576912115, -5844.332974473593, 6130.010620356872, -46242.9653099734, 187500.0, -25784.25714781966, -45471.29368439838, 12083.19659032781, -21183.463476117075, 0.08, 1.006, 0.084, 192.0, 0.0, 0.0, 0.0, 0.0, 0.0, 0.0, 0.0, 0.0, 0.0, 1.695334817690158E9, 0.0, 2023-09-21 17:20:17.690
242.0, 7488.259075672517, 27102.674794515944, 187500.0, -43900.18956663484, 3244.9592047881133, -11444.584899495232, -187500.02235174447, -21101.90196059966, -5831.0336865226855, 6142.88522516313, -46233.085838924155, 187500.0, -25789.643918233385, -45457.70382376955, 12088.002215385703, -21182.14472319421, 0.078, 1.006, 0.092, 192.0, 1.0, 56.0, 15.5, 56.0, 1.0, 112.0, 0.0, 0.0, 0.0, 1.695334817690215E9, 0.0, 2023-09-21 17:20:17.690
244.0, 7488.0355582279635, 27103.63591952752, 187500.0, -43886.711464728294, 3249.3401467013537, -11429.385713265625, -187500.02235174447, -21090.703736627547, -5824.037590508175, 6142.415838529568, -46221.35117308512, 187500.0, -25769.706162179253, -45442.214064862026, 12066.544540708606, -21172.399362611697, 0.078, 1.006, 0.092, 192.0, 0.0, 0.0, 0.0, 0.0, 0.0, 0.0, 0.0, 0.0, 0.0, 1.695334817690227E9, 0.0, 2023-09-21 17:20:17.690
246.0, 7485.57686633788, 27090.560149021167, 187500.0, -43896.14390088843, 3250.614196135306, -11445.233100084437, -187500.02235174447, -21095.710527385538, -5841.0696197831185, 6133.631602958632, -46235.27630988078, 187500.0, -25793.73428746871, -45455.982739446496, 12075.306424535087, -21167.05729568688, 0.078, 1.006, 0.092, 192.0, 0.0, 0.0, 0.0, 0.0, 0.0, 0.0, 0.0, 0.0, 0.0, 1.695334817690236E9, 0.0, 2023-09-21 17:20:17.690
248.0, 7479.988930224054, 27099.657309014478, 187500.0, -43881.23528733674, 3253.6763851256833, -11440.673344215555, -187500.02235174447, -21090.681384883093, -5841.114323272029, 6134.391562270112, -46226.223853376374, 187500.0, -25776.791665171586, -45453.121716156216, 12082.079003105046, -21164.956231708078, 0.078, 1.006, 0.092, 192.0, 0.0, 0.0, 0.0, 0.0, 0.0, 0.0, 0.0, 0.0, 0.0, 1.695334817690246E9, 0.0, 2023-09-21 17:20:17.690
250.0, 7497.199773454639, 27113.493038832312, 187500.0, -43871.892258154425, 3279.4032429937415, -11426.524689975346, -187500.02235174447, -21079.30434695534, -5826.585689376079, 6149.434286288534, -46214.93622242645, 187500.0, -25779.943261139782, -45438.146047371156, 12064.085848818524, -21150.22643211203, 0.078, 1.006, 0.092, 192.0, 0.0, 0.0, 0.0, 0.0, 0.0, 0.0, 0.0, 0.0, 0.0, 1.695334817690255E9, 0.0, 2023-09-21 17:20:17.690
252.0, 7477.396127867238, 27103.501809060792, 187500.0, -43889.59483976303, 3241.9193675421916, -11443.444960528012, -187500.02235174447, -21095.75523087445, -5837.225119736805, 6149.344879310713, -46218.15487362801, 187500.0, -25770.28730753509, -45443.21989336251, 12076.938101880325, -21151.344019334796, 0.08600000000000001, 1.002, 0.096, 192.0, 1.0, 88.0, 15.5, 40.0, 1.5, 0.0, 0.0, 0.0, 0.0, 1.695334817690265E9, 0.0, 2023-09-21 17:20:17.690
254.0, 7477.284369144961, 27097.93622469142, 187500.0, -43903.38586609195, 3248.267262967499, -11453.905576933095, -187500.02235174447, -21099.17504777611, -5849.607986165045, 6136.984364626928, -46231.72238251238, 187500.0, -25789.19688334428, -45458.28496912539, 12074.077078590046, -21164.509196818974, 0.08600000000000001, 1.002, 0.096, 192.0, 0.0, 0.0, 0.0, 0.0, 0.0, 0.0, 0.0, 0.0, 0.0, 1.695334817690275E9, 0.0, 2023-09-21 17:20:17.690
0.0, 7487.275598916483, 27120.46678310237, 187500.0, -43886.06326413909, 3253.9893095480575, -11440.69569596001, -187500.02235174447, -21082.299480712354, -5840.689640127378, 6140.35947803968, -46225.41919057598, 187500.0, -25788.705144966265, -45452.540570800375, 12086.035261873634, -21158.071894415843, 0.08600000000000001, 1.002, 0.096, 192.0, 0.0, 0.0, 0.0, 0.0, 0.0, 0.0, 0.0, 0.0, 0.0, 1.695334817750563E9, 0.0, 2023-09-21 17:20:17.750
2.0, 7492.14827920774, 27107.70393701839, 187500.0, -43904.861081226, 3264.069946297401, -11464.433248571546, -187500.02235174447, -21097.431611708595, -5828.239718465772, 6152.630585745644, -46212.589289258634, 187500.0, -25770.153197068357, -45444.33748058528, 12067.617424442462, -21158.22835662703, 0.08600000000000001, 1.002, 0.096, 192.0, 0.0, 0.0, 0.0, 0.0, 0.0, 0.0, 0.0, 0.0, 0.0, 1.695334817750599E9, 0.0, 2023-09-21 17:20:17.750
4.0, 7499.569058366902, 27127.194658183416, 187500.0, -43888.38784556244, 3251.865893824803, -11449.614041997676, -187500.02235174447, -21079.974899289, -5822.808244563133, 6158.374984070657, -46211.47170203587, 187500.0, -25769.6838104348, -45449.47838181, 12101.860296947993, -21168.800731754392, 0.08600000000000001, 1.002, 0.096, 192.0, 0.0, 0.0, 0.0, 0.0, 0.0, 0.0, 0.0, 0.0, 0.0, 1.695334817750611E9, 0.0, 2023-09-21 17:20:17.750
6.0, 7508.018017771008, 27130.212143684883, 187500.0, -43894.37811307646, 3258.034975294468, -11457.638318257132, -187500.02235174447, -21101.52198094392, -5819.321372428104, 6168.36621384218, -46202.97803914286, 187500.0, -25769.125016823415, -45442.95167242905, 12073.071250089557, -21159.927089205634, 0.084, 1.006, 0.094, 192.0, 1.0, 80.0, 15.5, 56.0, 1.0, 120.0, 0.0, 0.0, 0.0, 1.695334817750623E9, 0.0, 2023-09-21 17:20:17.750
8.0, 7490.494250118048, 27114.163591165972, 187500.0, -43905.48693007075, 3228.374210402276, -11463.025088670862, -187500.02235174447, -21111.80378339336, -5833.514730157224, 6157.369155570168, -46217.99841141682, 187500.0, -25779.71974369523, -45442.79521021786, 12099.513363780185, -21175.32744113534, 0.084, 1.006, 0.094, 192.0, 0.0, 0.0, 0.0, 0.0, 0.0, 0.0, 0.0, 0.0, 0.0, 1.695334817750671E9, 0.0, 2023-09-21 17:20:17.750
10.0, 7485.91214250471, 27109.872056230553, 187500.0, -43910.24785163973, 3247.0602687669125, -11463.717992748976, -187500.02235174447, -21112.22846653801, -5844.668250640422, 6141.544120495811, -46229.53191155576, 187500.0, -25798.897540437883, -45454.216951634524, 12065.739877908216, -21188.358508152785, 0.084, 1.006, 0.094, 192.0, 0.0, 0.0, 0.0, 0.0, 0.0, 0.0, 0.0, 0.0, 0.0, 1.69533481775068E9, 0.0, 2023-09-21 17:20:17.750
12.0, 7482.8723052587875, 27116.152896422496, 187500.0, -43904.39169459244, 3228.5083208690075, -11457.41480081258, -187500.02235174447, -21103.55598968935, -5848.982137320297, 6146.528559509345, -46232.19176914594, 187500.0, -25789.755676955665, -45457.74852725846, 12093.031357888147, -21188.67143257516, 0.084, 1.006, 0.094, 192.0, 0.0, 0.0, 0.0, 0.0, 0.0, 0.0, 0.0, 0.0, 0.0, 1.69533481775069E9, 0.0, 2023-09-21 17:20:17.750
14.0, 7488.706110561623, 27116.398765611502, 187500.0, -43911.79012200715, 3228.128341213267, -11465.237911371936, -187500.02235174447, -21108.808649636347, -5836.018125536219, 6148.115533365672, -46220.81473121819, 187500.0, -25777.66338320534, -45445.969157930514, 12047.187930010312, -21182.390592383217, 0.084, 1.006, 0.094, 192.0, 0.0, 0.0, 0.0, 0.0, 0.0, 0.0, 0.0, 0.0, 0.0, 1.695334817810856E9, 0.0, 2023-09-21 17:20:17.810
16.0, 7482.827601769877, 27119.90798949099, 187500.0, -43898.334371845056, 3211.006904960502, -11455.671364745065, -187500.02235174447, -21103.041899566877, -5847.037535552685, 6154.999870657906, -46230.18011214496, 187500.0, -25806.519485297144, -45452.831143478295, 12081.855485660493, -21188.269101174963, 0.076, 1.006, 0.098, 192.0, 1.0, 48.0, 15.5, 56.0, 1.5, 8.0, 0.0, 0.0, 0.0, 1.695334817810889E9, 0.0, 2023-09-21 17:20:17.810
18.0, 7482.201752925129, 27124.64655931551, 187500.0, -43890.26539209669, 3243.5957483763395, -11452.989155410429, -187500.02235174447, -21096.582245419293, -5843.997698306764, 6161.459524805489, -46213.371600314575, 187500.0, -25797.467028792744, -45434.65917523613, 12049.601918411485, -21169.180711410132, 0.076, 1.006, 0.098, 192.0, 0.0, 0.0, 0.0, 0.0, 0.0, 0.0, 0.0, 0.0, 0.0, 1.6953348178109E9, 0.0, 2023-09-21 17:20:17.810
