%OpenBCI Raw EXG Data
%Number of channels = 16
%Sample Rate = 125 Hz
%Board = OpenBCI_GUI$BoardCytonSerialDaisy
Sample Index, EXG Channel 0, EXG Channel 1, EXG Channel 2, EXG Channel 3, EXG Channel 4, EXG Channel 5, EXG Channel 6, EXG Channel 7, EXG Channel 8, EXG Channel 9, EXG Channel 10, EXG Channel 11, EXG Channel 12, EXG Channel 13, EXG Channel 14, EXG Channel 15, Accel Channel 0, Accel Channel 1, Accel Channel 2, Other, Other, Other, Other, Other, Other, Other, Analog Channel 0, Analog Channel 1, Analog Channel 2, Timestamp, Other, Timestamp (Formatted)
224.0, 55046.80336079638, 45285.170708319034, 16597.265493543804, 19011.499763905977, 20262.10221792486, 15433.410159755966, -128659.07742489308, 27436.25222876695, 38467.218097116725, 19337.142328875343, 28360.496861993895, 33416.975547906826, 41338.81376252339, 23840.907077897442, 2338.8418363144206, 18373.200997495773, -0.026000000000000002, 1.022, 0.03, 192.0, 127.5, 24.0, 15.5, 120.0, 0.0, 120.0, 0.0, 0.0, 0.0, 1.696015455225665E9, 0.0, 2023-09-29 14:24:15.225
226.0, 55180.846772294855, 45296.45833926897, 16605.33447329217, 19008.795202826885, 20257.453055078156, 15428.828052142628, -128514.26047256714, 27422.148278015648, 38460.13259412439, 19326.927581659267, 28443.220668222984, 33453.47594660234, 41382.10909153332, 23826.28903702367, 2355.2480167446156, 18403.845239143997, -0.026000000000000002, 1.022, 0.03, 192.0, 0.0, 0.0, 0.0, 0.0, 0.0, 0.0, 0.0, 0.0, 0.0, 1.696015455225697E9, 0.0, 2023-09-29 14:24:15.225
228.0, 55025.926831475124, 45273.234876779905, 16599.05363310023, 19015.634836630208, 20265.38792435979, 15445.770674439751, -128692.76150378723, 27446.310513771834, 38469.38621632889, 19330.839136938946, 28367.537661497317, 33414.94153916139, 41352.51538187449, 23839.364807530023, 2349.078935274951, 18379.481837687712, -0.026000000000000002, 1.022, 0.03, 192.0, 0.0, 0.0, 0.0, 0.0, 0.0, 0.0, 0.0, 0.0, 0.0, 1.696015455225709E9, 0.0, 2023-09-29 14:24:15.225
230.0, 55179.14803971625, 45287.91997288704, 16617.6726362315, 19024.888458834703, 20262.81747374743, 15435.690037690407, -128537.95332168977, 27426.730385628987, 38462.2783615921, 19324.9606281472, 28384.18971111652, 33453.49829834679, 41391.89915560474, 23833.24042954927, 2355.5832929114454, 18411.35542528098, -0.026000000000000002, 1.022, 0.03, 192.0, 0.0, 0.0, 0.0, 0.0, 0.0, 0.0, 0.0, 0.0, 0.0, 1.696015455225718E9, 0.0, 2023-09-29 14:24:15.225
232.0, 55015.82384298132, 45279.96275186095, 16593.24217954185, 19015.701891863573, 20263.800950503464, 15448.989325641314, -128706.01608824922, 27440.543763702368, 38460.75844296914, 19327.799299693026, 28393.19746413201, 33418.18254210741, 41351.531905118456, 23837.688426695877, 2351.3141097204816, 18388.042555814096, -0.026000000000000002, 1.022, 0.03, 192.0, 0.0, 0.0, 0.0, 0.0, 0.0, 0.0, 0.0, 0.0, 0.0, 1.696015455225727E9, 0.0, 2023-09-29 14:24:15.225
234.0, 55192.06734801142, 45296.12306310214, 16625.987485168873, 19036.57842118483, 20253.608555031846, 15430.996171354793, -128538.73563274571, 27428.898504841152, 38458.09858537896, 19327.39696829283, 28348.40456824357, 33456.02404547024, 41388.434635214166, 23843.388121531978, 2361.506505192102, 18417.949189895295, -0.03, 1.022, 0.028, 192.0, 127.5, 8.0, 15.5, 120.0, 0.0, 112.0, 0.0, 0.0, 0.0, 1.696015455225737E9, 0.0, 2023-09-29 14:24:15.225
236.0, 55032.31943038934, 45260.87436209612, 16580.99342358034, 19009.532810393906, 20248.73587474059, 15435.444168501399, -128670.2756488652, 27425.18811526157, 38452.01891088711, 19319.283285055553, 28446.81929908029, 33419.344832819086, 41351.55425686291, 23830.491164981268, 2346.7320021071437, 18391.14944829338, -0.03, 1.022, 0.028, 192.0, 0.0, 0.0, 0.0, 0.0, 0.0, 0.0, 0.0, 0.0, 0.0, 1.696015455225773E9, 0.0, 2023-09-29 14:24:15.225
238.0, 55181.53967637297, 45289.99868512138, 16617.493822275857, 19035.99727582899, 20243.684380493687, 15426.458767230364, -128530.6890047418, 27419.264902980914, 38453.31531206552, 19317.91982864378, 28352.98667585691, 33447.95506572188, 41370.4638326721, 23830.781737659185, 2352.0070137985963, 18410.148431080393, -0.03, 1.022, 0.028, 192.0, 0.0, 0.0, 0.0, 0.0, 0.0, 0.0, 0.0, 0.0, 0.0, 1.696015455225782E9, 0.0, 2023-09-29 14:24:15.225
240.0, 55015.287401114394, 45244.31171945474, 16567.85059784062, 18991.33849040729, 20249.96522068563, 15427.86692713105, -128677.78583500217, 27417.744984357952, 38455.885762677884, 19309.850848895414, 28461.48204344297, 33421.62471075353, 41351.263684184996, 23829.015949847217, 2344.899159061809, 18390.7918203821, -0.03, 1.022, 0.028, 192.0, 0.0, 0.0, 0.0, 0.0, 0.0, 0.0, 0.0, 0.0, 0.0, 1.696015455225791E9, 0.0, 2023-09-29 14:24:15.225
0.0, 27393.403934646125, 22606.979025242214, 8218.155290860568, 9496.719777193044, 10118.277087006223, 7660.859246356398, -65305.91878961549, 13673.098525178257, 19229.719845023137, 9653.137284891282, 14116.55713517155, 16708.01838731985, 20674.380144403, 11913.54684991203, 1176.8640490608275, 9196.91582881401, -0.027, 1.021, 0.034, 192.0, 127.5, 32.0, 15.5, 112.0, 0.5, 32.0, 0.0, 0.0, 0.0, 1.696015455379742E9, 0.0, 2023-09-29 14:24:15.379
2.0, 54889.42472808656, 45246.166914244524, 16495.006262660776, 19038.567726441353, 20227.27820006349, 15313.604809475519, -130549.58797092295, 27334.328274050746, 38367.506965101595, 19223.573115297928, 28297.442590885472, 33171.575745532005, 41358.28213194396, 23784.155998725415, 2327.7106675756777, 18302.211857105714, -0.027, 1.021, 0.034, 192.0, 0.0, 0.0, 0.0, 0.0, 0.0, 0.0, 0.0, 0.0, 0.0, 1.69601545537977E9, 0.0, 2023-09-29 14:24:15.379
4.0, 54885.28965536233, 45210.024143460294, 16454.437846474393, 19007.923484793126, 20218.181040070183, 15310.654379207419, -130516.19446470673, 27337.189297341025, 38353.939456217224, 19211.346711080874, 28517.65197725916, 33188.47366434022, 41380.052731043426, 23770.812007285596, 2319.55228084949, 18309.878505453886, -0.027, 1.021, 0.034, 192.0, 0.0, 0.0, 0.0, 0.0, 0.0, 0.0, 0.0, 0.0, 0.0, 1.696015455379782E9, 0.0, 2023-09-29 14:24:15.379
6.0, 54873.19736161201, 45228.50903612483, 16492.145239370497, 19041.92048810965, 20230.094519864862, 15312.531925741665, -130548.7162528892, 27339.111547364184, 38353.38066260584, 19214.520658793528, 28316.9333120505, 33163.03737915008, 41344.535809103945, 23776.7128678218, 2322.882690773331, 18306.14576412985, -0.027, 1.021, 0.034, 192.0, 0.0, 0.0, 0.0, 0.0, 0.0, 0.0, 0.0, 0.0, 0.0, 1.696015455379793E9, 0.0, 2023-09-29 14:24:15.379
8.0, 54902.6569608041, 45225.133922712084, 16465.948994868875, 19013.310255206856, 20230.921534409707, 15309.514440240198, -130491.87576673935, 27320.291378532813, 38349.603217792894, 19213.157202381757, 28528.09024191979, 33194.4862835987, 41381.32678047738, 23774.79061779864, 2332.918624033764, 18325.167098661317, -0.02, 1.022, 0.034, 192.0, 127.5, 48.0, 15.5, 120.0, 0.5, 8.0, 0.0, 0.0, 0.0, 1.696015455379806E9, 0.0, 2023-09-29 14:24:15.379
10.0, 54844.87770138714, 45241.830675820194, 16497.532009784223, 19035.706703151074, 20240.62219150331, 15317.181088588368, -130584.14376785085, 27353.03668415984, 38360.13088943135, 19219.75096699607, 28339.262704761353, 33171.016951920625, 41346.636873082745, 23778.813931800596, 2337.5901386249234, 18305.139935629362, -0.02, 1.022, 0.034, 192.0, 0.0, 0.0, 0.0, 0.0, 0.0, 0.0, 0.0, 0.0, 0.0, 1.696015455379817E9, 0.0, 2023-09-29 14:24:15.379
12.0, 54922.70647558051, 45232.3758879156, 16470.844026904586, 18999.206304455558, 20224.953618640142, 15306.45225124982, -130476.54247004302, 27335.579971740244, 38348.91031371478, 19210.72086223613, 28513.382794068195, 33203.65049882537, 41384.746597379046, 23781.540844624145, 2335.2879089460266, 18324.72006377221, -0.02, 1.022, 0.034, 192.0, 0.0, 0.0, 0.0, 0.0, 0.0, 0.0, 0.0, 0.0, 0.0, 1.696015455379827E9, 0.0, 2023-09-29 14:24:15.379
14.0, 54822.54830867628, 45232.73351582688, 16491.429983547925, 19018.026473286925, 20251.5298427975, 15314.856507165017, -130611.85993097544, 27351.673227748066, 38358.92389523076, 19218.47691756212, 28352.226716545432, 33162.61269600543, 41350.72724231807, 23783.485446391758, 2336.852531057898, 18298.456764037226, -0.02, 1.022, 0.034, 192.0, 0.0, 0.0, 0.0, 0.0, 0.0, 0.0, 0.0, 0.0, 0.0, 1.696015455379837E9, 0.0, 2023-09-29 14:24:15.379
16.0, 54939.224414732984, 45230.319527425716, 16485.12679161153, 19003.609598113253, 20233.357874555335, 15309.64855070693, -130472.25093510759, 27341.994922398917, 38349.35734860389, 19208.61979825733, 28488.30413678934, 33197.77199003363, 41398.11294056332, 23772.242518930736, 2346.620243384867, 18321.836688737476, -0.02, 1.022, 0.034, 192.0, 0.0, 0.0, 0.0, 0.0, 0.0, 0.0, 0.0, 0.0, 0.0, 1.696015455440932E9, 0.0, 2023-09-29 14:24:15.440
18.0, 54816.2898202288, 45233.158198971534, 16486.244378834293, 19010.940970294592, 20234.654275733745, 15325.741806714752, -130617.35846011144, 27357.21646037298, 38358.6556742973, 19218.834545473404, 28392.23633912043, 33159.7293209707, 41354.05765224191, 23780.535016123657, 2336.2490339576048, 18297.182714603274, -0.022, 1.022, 0.04, 192.0, 127.5, 40.0, 15.5, 120.0, 0.5, 32.0, 0.0, 0.0, 0.0, 1.696015455440954E9, 0.0, 2023-09-29 14:24:15.440
20.0, 54961.91143535512, 45250.34669045767, 16495.095669638595, 19020.52986866592, 20230.698016965154, 15328.312257327112, -130456.76117620006, 27353.08138764875, 38358.499212086106, 19224.824812987426, 28482.671497186602, 33207.96438550525, 41398.224699285594, 23789.118085994494, 2348.3189759634706, 18332.18554642028, -0.022, 1.022, 0.04, 192.0, 0.0, 0.0, 0.0, 0.0, 0.0, 0.0, 0.0, 0.0, 0.0, 1.696015455440964E9, 0.0, 2023-09-29 14:24:15.440
22.0, 54810.94775330398, 45232.957033271436, 16473.369774028037, 19015.67954011912, 20234.90014492275, 15329.876879438983, -130627.70731779425, 27354.46719580498, 38369.69743605822, 19231.91031597976, 28431.776575061867, 33170.949896687256, 41358.796222066434, 23802.66324313441, 2339.691202603722, 18311.130203143384, -0.022, 1.022, 0.04, 192.0, 0.0, 0.0, 0.0, 0.0, 0.0, 0.0, 0.0, 0.0, 0.0, 1.696015455440973E9, 0.0, 2023-09-29 14:24:15.440
24.0, 54970.24863603695, 45229.604271603144, 16482.332823554614, 19017.199458742078, 20219.544496481954, 15304.284132037656, -130464.56193501496, 27320.179619810537, 38359.5050405866, 19221.539106552496, 28449.54621190384, 33201.66119356885, 41390.42394047069, 23797.94702505434, 2334.6844118457334, 18327.04464519556, -0.022, 1.022, 0.04, 192.0, 0.0, 0.0, 0.0, 0.0, 0.0, 0.0, 0.0, 0.0, 0.0, 1.696015455440982E9, 0.0, 2023-09-29 14:24:15.440
26.0, 54801.738834588396, 45197.931849709974, 16460.15989305495, 19007.454098159564, 20243.594973515865, 15324.043074136147, -130638.65967257736, 27354.84717546072, 38362.88015399935, 19220.980312941112, 28457.749302118937, 33158.18705060328, 41347.59799809432, 23793.633138374465, 2332.0245542555517, 18300.58017976048, -0.022, 1.022, 0.04, 192.0, 0.0, 0.0, 0.0, 0.0, 0.0, 0.0, 0.0, 0.0, 0.0, 1.696015455440991E9, 0.0, 2023-09-29 14:24:15.440
28.0, 54973.93667387208, 45206.93960272546, 16492.189942859404, 19020.887496577205, 20222.6737407057, 15306.809879161106, -130452.8943244093, 27338.865678175174, 38352.19602014971, 19213.80540297096, 28431.642464595137, 33196.72145804423, 41387.16058578021, 23789.028679016672, 2344.3180137059708, 18329.235116152184, -0.016, 1.022, 0.034, 192.0, 127.5, 64.0, 15.5, 120.0, 0.5, 8.0, 0.0, 0.0, 0.0, 1.696015455441E9, 0.0, 2023-09-29 14:24:15.441
30.0, 54794.116889729135, 45180.5645442682, 16459.958727354853, 19001.016795756437, 20231.703845465643, 15320.13151885647, -130618.6772130343, 27348.119300379672, 38350.56434280448, 19213.112498892846, 28511.84052370078, 33161.83038494949, 41354.8623150423, 23787.352298182526, 2331.1304844773395, 18300.066089638007, -0.016, 1.022, 0.034, 192.0, 0.0, 0.0, 0.0, 0.0, 0.0, 0.0, 0.0, 0.0, 0.0, 1.69601545544101E9, 0.0, 2023-09-29 14:24:15.441
32.0, 54949.28269973787, 45220.10478020964, 16510.518373312756, 19033.58328742782, 20236.442415290167, 15314.387120531455, -130486.66781028126, 27341.45848053199, 38358.4545085972, 19226.34473161039, 28410.587121318236, 33199.470722612234, 41383.897231089744, 23788.872216805485, 2348.7213073636663, 18324.876525983396, -0.016, 1.022, 0.034, 192.0, 0.0, 0.0, 0.0, 0.0, 0.0, 0.0, 0.0, 0.0, 0.0, 1.696015455501183E9, 0.0, 2023-09-29 14:24:15.501
34.0, 54799.771881076325, 45196.30017236473, 16466.552491969167, 18997.015833498936, 20238.76699671352, 15320.958533401315, -130632.55764634105, 27355.629486516656, 38362.50017434361, 19223.170783897735, 28525.430384329604, 33184.87503348292, 41364.92060004719, 23792.359088940513, 2344.4744759171576, 18308.783269975578, -0.016, 1.022, 0.034, 192.0, 0.0, 0.0, 0.0, 0.0, 0.0, 0.0, 0.0, 0.0, 0.0, 1.696015455501204E9, 0.0, 2023-09-29 14:24:15.501
36.0, 54941.83956883426, 45224.48572212288, 16513.714672769867, 19025.067272790347, 20230.116871609316, 15306.094623338537, -130519.79309556403, 27343.157213110593, 38365.80823252299, 19213.291312848487, 28374.33259181173, 33202.063524969046, 41375.582382152366, 23792.180274984872, 2348.3636794523813, 18320.830860236987, -0.016, 1.022, 0.034, 192.0, 0.0, 0.0, 0.0, 0.0, 0.0, 0.0, 0.0, 0.0, 0.0, 1.696015455501213E9, 0.0, 2023-09-29 14:24:15.501
38.0, 54794.094537984674, 45194.780253741774, 16463.7361721678, 18992.81370554134, 20246.746569484065, 15324.199536347334, -130658.59742863149, 27356.523556294866, 38360.7567382761, 19206.675196489716, 28537.433271102105, 33182.12576891491, 41369.74857684953, 23782.144341724437, 2339.2888712035265, 18306.23517110767, -0.016, 1.02, 0.036000000000000004, 192.0, 127.5, 64.0, 15.5, 112.0, 0.5, 16.0, 0.0, 0.0, 0.0, 1.696015455501253E9, 0.0, 2023-09-29 14:24:15.501
40.0, 54929.76962682839, 45229.98425125888, 16515.189887903918, 19032.19747927159, 20233.447281533157, 15306.295789038633, -130564.80950889701, 27348.678093991053, 38368.40103487981, 19221.829679230414, 28326.589265655195, 33203.04700172508, 41373.548373406935, 23801.299786722637, 2350.375336453359, 18325.43531959478, -0.016, 1.02, 0.036000000000000004, 192.0, 0.0, 0.0, 0.0, 0.0, 0.0, 0.0, 0.0, 0.0, 0.0, 1.696015455501262E9, 0.0, 2023-09-29 14:24:15.501
42.0, 54835.17704429353, 45196.43428283147, 16451.710933650844, 18990.489124117987, 20226.29472330746, 15316.354074043522, -130629.20488467276, 27335.401157784603, 38354.76647076207, 19216.75583323906, 28548.542088096394, 33193.256937653656, 41369.72622510508, 23793.74489709674, 2334.7738188235544, 18313.611246777924, -0.016, 1.02, 0.036000000000000004, 192.0, 0.0, 0.0, 0.0, 0.0, 0.0, 0.0, 0.0, 0.0, 0.0, 1.696015455501271E9, 0.0, 2023-09-29 14:24:15.501
44.0, 54925.34398142624, 45218.763675542315, 16506.651521521988, 19030.118767037246, 20225.512412251523, 15308.799184417629, -130558.03693032706, 27343.201916599504, 38354.07356668396, 19218.365158839842, 28347.532850209816, 33189.90417598536, 41359.37736742227, 23794.862484319507, 2332.7845135670323, 18320.227363136695, -0.016, 1.02, 0.036000000000000004, 192.0, 0.0, 0.0, 0.0, 0.0, 0.0, 0.0, 0.0, 0.0, 0.0, 1.696015455501281E9, 0.0, 2023-09-29 14:24:15.501
46.0, 54852.61140496867, 45186.55481178222, 16455.086047063596, 18988.32100490582, 20227.14408959676, 15312.375463530478, -130582.08740736097, 27350.98032366995, 38345.132868901834, 19205.825830200414, 28581.779132101434, 33188.69718178477, 41370.84381232784, 23784.535978381155, 2328.8729582873534, 18327.49168008467, -0.016, 1.02, 0.036000000000000004, 192.0, 0.0, 0.0, 0.0, 0.0, 0.0, 0.0, 0.0, 0.0, 0.0, 1.696015455561478E9, 0.0, 2023-09-29 14:24:15.561
48.0, 54891.95047521001, 45209.17477717099, 16498.403727817982, 19022.072139033335, 20224.43952851767, 15304.105318082014, -130562.88725887386, 27339.089195619727, 38351.704281771694, 19209.022129657526, 28358.105225337178, 33175.487300811685, 41357.76804182149, 23794.99659478624, 2334.885577545831, 18323.222496893704, -0.024, 1.02, 0.028, 192.0, 127.5, 32.0, 15.5, 112.0, 0.0, 112.0, 0.0, 0.0, 0.0, 1.696015455561503E9, 0.0, 2023-09-29 14:24:15.561
50.0, 54852.276128801845, 45182.15151812453, 16453.789645885186, 18985.929368249104, 20227.233496574583, 15308.977998373271, -130567.82699439848, 27335.401157784603, 38341.668348511266, 19198.203885341154, 28577.956983799577, 33185.94791721677, 41375.291809474445, 23787.70992609381, 2325.721362319155, 18321.635523037377, -0.024, 1.02, 0.028, 192.0, 0.0, 0.0, 0.0, 0.0, 0.0, 0.0, 0.0, 0.0, 0.0, 1.696015455561514E9, 0.0, 2023-09-29 14:24:15.561
52.0, 54854.98068988093, 45207.76661727031, 16503.343463342604, 19018.741729109493, 20240.175156614205, 15312.733091441762, -130610.96586119723, 27346.64408524562, 38354.855877739894, 19208.575094768417, 28335.0382250593, 33167.395969318866, 41352.26951268548, 23797.41058318741, 2338.528911892046, 18317.18752589077, -0.024, 1.02, 0.028, 192.0, 0.0, 0.0, 0.0, 0.0, 0.0, 0.0, 0.0, 0.0, 0.0, 1.696015455561523E9, 0.0, 2023-09-29 14:24:15.561
54.0, 54883.36740533917, 45181.97270416888, 16461.098666322072, 18978.329775134298, 20227.747586697053, 15307.659245450408, -130538.92618881777, 27343.403082299603, 38340.90838919978, 19192.928873649704, 28557.70630332307, 33184.74092301619, 41391.787396882464, 23780.98205101276, 2325.5649001079682, 18331.649104553355, -0.024, 1.02, 0.028, 192.0, 0.0, 0.0, 0.0, 0.0, 0.0, 0.0, 0.0, 0.0, 0.0, 1.696015455561532E9, 0.0, 2023-09-29 14:24:15.561
56.0, 54856.36649803716, 45200.27878287778, 16492.88284693752, 19003.743708579983, 20223.545458739456, 15298.383271501456, -130589.32937256449, 27334.350625795203, 38351.860743982885, 19199.723803964116, 28361.256821305375, 33154.722530212704, 41357.49982088802, 23786.435876659856, 2327.017763497563, 18314.14768864485, -0.024, 1.02, 0.028, 192.0, 0.0, 0.0, 0.0, 0.0, 0.0, 0.0, 0.0, 0.0, 0.0, 1.696015455561541E9, 0.0, 2023-09-29 14:24:15.561
58.0, 54898.32072237977, 45203.94446896845, 16477.326032796627, 18994.020699741926, 20244.131415382795, 15312.59898097503, -130517.64732809633, 27358.356399340202, 38346.8539532249, 19198.494458019075, 28564.970620271044, 33186.50671082815, 41402.89621387675, 23788.402830171923, 2338.372449680859, 18334.577183077, -0.026000000000000002, 1.022, 0.032, 192.0, 127.5, 24.0, 15.5, 120.0, 0.5, 0.0, 0.0, 0.0, 0.0, 1.69601545556155E9, 0.0, 2023-09-29 14:24:15.561
60.0, 54815.149881261576, 45204.68207653548, 16494.469820793845, 19025.447252446087, 20243.840842704874, 15313.73891994225, -130648.27092269313, 27356.724721994964, 38361.6061045654, 19213.224257615122, 28358.932239882022, 33157.672960480806, 41369.6144663828, 23795.264815719704, 2355.426830700258, 18323.6248282939, -0.026000000000000002, 1.022, 0.032, 192.0, 0.0, 0.0, 0.0, 0.0, 0.0, 0.0, 0.0, 0.0, 0.0, 1.696015455561594E9, 0.0, 2023-09-29 14:24:15.561
62.0, 54917.699684822524, 45195.18258514197, 16474.174436828427, 19012.438537173097, 20230.698016965154, 15311.347283285533, -130524.9116450443, 27351.76263472589, 38348.48563057013, 19204.104745877357, 28505.671442231112, 33189.45714109625, 41399.990487097566, 23772.644850330933, 2353.2587114880935, 18343.607287836945, -0.026000000000000002, 1.022, 0.032, 192.0, 0.0, 0.0, 0.0, 0.0, 0.0, 0.0, 0.0, 0.0, 0.0, 1.69601545562101E9, 0.0, 2023-09-29 14:24:15.621
64.0, 54806.14212824609, 45191.427492073475, 16489.239512591306, 19034.455005461576, 20241.158633370236, 15319.572725245087, -130668.49925142518, 27357.149405139615, 38360.7567382761, 19218.07458616192, 28365.011914373867, 33150.7215679552, 41356.695158087634, 23778.6127661005, 2351.2917579760265, 18321.34495035946, -0.026000000000000002, 1.022, 0.032, 192.0, 0.0, 0.0, 0.0, 0.0, 0.0, 0.0, 0.0, 0.0, 0.0, 1.696015455621039E9, 0.0, 2023-09-29 14:24:15.621
66.0, 54945.01351654691, 45203.318620123704, 16488.546608513192, 19037.226621774033, 20223.299589550446, 15310.855544907517, -130514.74160131713, 27341.547887509812, 38357.29221788552, 19214.14067913779, 28472.076770314787, 33188.89834748487, 41397.889423118766, 23768.375667139968, 2355.382127211348, 18347.787064050088, -0.026000000000000002, 1.022, 0.032, 192.0, 0.0, 0.0, 0.0, 0.0, 0.0, 0.0, 0.0, 0.0, 0.0, 1.696015455621049E9, 0.0, 2023-09-29 14:24:15.621
68.0, 54800.35302643217, 45197.90949796552, 16480.83525667611, 19049.408322502175, 20236.53182226799, 15324.64657123644, -130677.48465269622, 27363.050265675818, 38362.07549119896, 19224.131908909312, 28397.734868256437, 33147.27939930909, 41357.20924821011, 23763.100655448518, 2340.6523276153002, 18316.472270068203, -0.024, 1.022, 0.03, 192.0, 127.5, 32.0, 15.5, 120.0, 0.0, 120.0, 0.0, 0.0, 0.0, 1.696015455621058E9, 0.0, 2023-09-29 14:24:15.621
70.0, 54955.63059516318, 45211.1193789386, 16496.16855337245, 19058.10315109529, 20235.458938534135, 15313.425995519878, -130523.23526421015, 27357.46232956199, 38364.46712785568, 19232.223240402134, 28429.8096215498, 33196.92262374433, 41407.14304532326, 23757.669181545876, 2355.672699889267, 18349.82107279552, -0.024, 1.022, 0.03, 192.0, 0.0, 0.0, 0.0, 0.0, 0.0, 0.0, 0.0, 0.0, 0.0, 1.696015455621068E9, 0.0, 2023-09-29 14:24:15.621
72.0, 54795.994436263376, 45187.35947458261, 16471.5369309827, 19041.54050845391, 20238.319961824414, 15317.695178710841, -130689.84516738, 27354.623658016168, 38363.34954063291, 19231.060949690458, 28412.419964363573, 33154.43195753479, 41363.22186746858, 23761.357219381003, 2337.411324669281, 18316.315807857016, -0.024, 1.022, 0.03, 192.0, 0.0, 0.0, 0.0, 0.0, 0.0, 0.0, 0.0, 0.0, 0.0, 1.696015455621091E9, 0.0, 2023-09-29 14:24:15.621
74.0, 54967.63348193568, 45211.58876557217, 16506.11507965506, 19063.646383720206, 20231.43562453218, 15314.498879253732, -130523.63759561034, 27349.169832369073, 38365.070624955966, 19235.19602241469, 28389.688240252526, 33191.3346876305, 41402.829158643384, 23765.38053338296, 2348.877769574853, 18343.450825625758, -0.024, 1.022, 0.03, 192.0, 0.0, 0.0, 0.0, 0.0, 0.0, 0.0, 0.0, 0.0, 0.0, 1.6960154556211E9, 0.0, 2023-09-29 14:24:15.621
76.0, 54802.65525611106, 45198.781215999275, 16474.956747884364, 19047.642534690207, 20236.353008312348, 15325.741806714752, -130700.01521110717, 27356.90353595061, 38367.41755812378, 19239.2416881611, 28427.52974361536, 33155.23662033518, 41365.90407680322, 23755.4563588448, 2339.333574692437, 18317.545153802057, -0.024, 1.022, 0.03, 192.0, 0.0, 0.0, 0.0, 0.0, 0.0, 0.0, 0.0, 0.0, 0.0, 1.69601545568064E9, 0.0, 2023-09-29 14:24:15.680
78.0, 54988.71117695703, 45225.04451573426, 16510.808945990677, 19069.86016867878, 20228.731063453088, 15305.468774493787, -130507.11965645787, 27349.63921900263, 38362.410767365785, 19236.715941037648, 28362.396760272597, 33191.31233588605, 41396.414207984715, 23760.932536236352, 2350.2859294755376, 18343.651991325856, -0.022, 1.018, 0.034, 192.0, 127.5, 40.0, 15.5, 104.0, 0.5, 8.0, 0.0, 0.0, 0.0, 1.696015455680667E9, 0.0, 2023-09-29 14:24:15.680
80.0, 54807.30441895776, 45200.54700381125, 16465.92664312442, 19047.374313756744, 20237.96233391313, 15325.98767590376, -130683.51962369915, 27359.31752435178, 38362.38841562133, 19237.677066049226, 28471.450921470037, 33156.44361453576, 41362.931294790666, 23751.433044842845, 2338.171283980761, 18318.215706135717, -0.022, 1.018, 0.034, 192.0, 0.0, 0.0, 0.0, 0.0, 0.0, 0.0, 0.0, 0.0, 0.0, 1.696015455680678E9, 0.0, 2023-09-29 14:24:15.680
82.0, 54964.03485107838, 45225.75977155683, 16508.84199247861, 19080.365488572777, 20223.791327928466, 15305.088794838048, -130545.02821505407, 27341.704349721, 38362.611933065884, 19241.119234695343, 28330.99255931289, 33180.672905525316, 41399.901080119744, 23755.255193144705, 2352.632862643345, 18341.662686069332, -0.022, 1.018, 0.034, 192.0, 0.0, 0.0, 0.0, 0.0, 0.0, 0.0, 0.0, 0.0, 0.0, 1.696015455680687E9, 0.0, 2023-09-29 14:24:15.680
84.0, 54811.55125040427, 45194.10970140812, 16455.644840674977, 19044.468586977553, 20228.95458089764, 15317.784585688662, -130677.70817014077, 27354.824823716262, 38352.93362771674, 19226.165917654744, 28477.53059596188, 33152.66616972282, 41374.889478074256, 23751.567155309578, 2334.0138595120743, 18316.695787512755, -0.022, 1.018, 0.034, 192.0, 0.0, 0.0, 0.0, 0.0, 0.0, 0.0, 0.0, 0.0, 0.0, 1.696015455680731E9, 0.0, 2023-09-29 14:24:15.680
86.0, 54944.87940608018, 45221.53529185478, 16503.432870320426, 19079.53847402793, 20224.327769795393, 15309.782661173662, -130567.84934614293, 27341.771404954365, 38354.74411901762, 19227.350560110877, 28312.59707362617, 33163.86439369493, 41380.27624848798, 23751.969486709775, 2341.635804371334, 18329.54804057456, -0.022, 1.018, 0.034, 192.0, 0.0, 0.0, 0.0, 0.0, 0.0, 0.0, 0.0, 0.0, 0.0, 1.696015455680741E9, 0.0, 2023-09-29 14:24:15.680
88.0, 54828.002134323375, 45184.587858270155, 16453.767294140733, 19044.58034569983, 20234.09548212236, 15316.666998465897, -130651.19900121678, 27360.099835407716, 38347.25628462509, 19216.018225672036, 28501.98340439599, 33151.168602844315, 41377.99637055354, 23735.78682372413, 2331.0634292439736, 18317.075767168495, -0.022, 1.022, 0.032, 192.0, 127.5, 40.0, 15.5, 120.0, 0.5, 0.0, 0.0, 0.0, 0.0, 1.69601545568075E9, 0.0, 2023-09-29 14:24:15.680
90.0, 54926.26040294891, 45202.066922434205, 16504.371643587547, 19087.071011909367, 20237.135319368284, 15304.082966337559, -130574.53251773508, 27340.60911424269, 38352.26307538308, 19219.28158036251, 28311.21126546994, 33156.30950406903, 41377.459928686614, 23738.44668131431, 2343.1557229942946, 18326.374092861905, -0.022, 1.022, 0.032, 192.0, 0.0, 0.0, 0.0, 0.0, 0.0, 0.0, 0.0, 0.0, 0.0, 1.69601545568076E9, 0.0, 2023-09-29 14:24:15.680
92.0, 54833.21009078147, 45178.0611488892, 16455.5330819527, 19051.37527601424, 20234.43075828919, 15317.829289177573, -130647.62272210393, 27340.20678284249, 38348.53033405904, 19221.717920508137, 28518.21077087054, 33158.38821630338, 41378.8680885873, 23746.47095757377, 2336.98664152463, 18316.986360190673, -0.022, 1.022, 0.032, 192.0, 0.0, 0.0, 0.0, 0.0, 0.0, 0.0, 0.0, 0.0, 0.0, 1.696015455741105E9, 0.0, 2023-09-29 14:24:15.741
94.0, 54904.64626606063, 45208.19130041496, 16507.433832577924, 19083.025346162958, 20228.82047043091, 15307.301617539122, -130612.68694552028, 27349.25923934689, 38356.53225857404, 19229.965714212147, 28287.250195413853, 33162.500937283156, 41373.59307689584, 23742.469995316267, 2343.4909991611244, 18323.602476549444, -0.022, 1.022, 0.032, 192.0, 0.0, 0.0, 0.0, 0.0, 0.0, 0.0, 0.0, 0.0, 0.0, 1.696015455741138E9, 0.0, 2023-09-29 14:24:15.741
96.0, 54859.18281783853, 45177.30118957772, 16464.429076245913, 19041.562860198363, 20235.5259937675, 15310.006178618216, -130619.2807101346, 27350.06390214728, 38349.133831159335, 19216.442908816687, 28521.764698238934, 33166.03251290709, 41392.27913526048, 23742.246477871715, 2341.5911008824232, 18325.81529925052, -0.022, 1.022, 0.032, 192.0, 0.0, 0.0, 0.0, 0.0, 0.0, 0.0, 0.0, 0.0, 0.0, 1.696015455741151E9, 0.0, 2023-09-29 14:24:15.741
98.0, 54883.68032976155, 45192.00863742932, 16504.63986452101, 19076.92331992666, 20232.933191410684, 15318.186917088857, -130626.4332683603, 27351.11443413668, 38356.59931380741, 19219.460394318154, 28298.470771130418, 33146.899419653346, 41363.691254102145, 23751.634210542943, 2344.630938128345, 18315.220572378705, -0.02, 1.022, 0.032, 192.0, 127.5, 48.0, 15.5, 120.0, 0.5, 0.0, 0.0, 0.0, 0.0, 1.696015455741167E9, 0.0, 2023-09-29 14:24:15.741
100.0, 54883.14388789462, 45162.16905858148, 16458.30469826516, 19034.633819417217, 20227.94875239715, 15312.978960630771, -130585.08254111798, 27342.17373635456, 38347.43509858073, 19207.032824401, 28525.095108162775, 33159.86343143743, 41390.20042302614, 23740.592448782023, 2336.4501996577023, 18324.00480794964, -0.02, 1.022, 0.032, 192.0, 0.0, 0.0, 0.0, 0.0, 0.0, 0.0, 0.0, 0.0, 0.0, 1.696015455741197E9, 0.0, 2023-09-29 14:24:15.741
102.0, 54867.81059119828, 45183.93965768095, 16484.523294511237, 19061.63472671923, 20222.830202916884, 15304.820573904584, -130618.78897175658, 27342.93369566604, 38345.088165412926, 19204.305911577452, 28329.629102901115, 33126.22405603219, 41356.65045459872, 23733.618704511966, 2335.3549641793925, 18305.43050830728, -0.02, 1.022, 0.032, 192.0, 0.0, 0.0, 0.0, 0.0, 0.0, 0.0, 0.0, 0.0, 0.0, 1.696015455741231E9, 0.0, 2023-09-29 14:24:15.741
104.0, 54896.42082410107, 45181.83859370215, 16457.321221509126, 19043.99920034399, 20221.354987782837, 15312.55427748612, -130558.79688963854, 27344.028931144352, 38337.466220553666, 19209.1338883798, 28539.243762402984, 33156.10833836893, 41382.24320200005, 23731.07060564406, 2331.8010368109985, 18317.63456077988, -0.02, 1.022, 0.032, 192.0, 0.0, 0.0, 0.0, 0.0, 0.0, 0.0, 0.0, 0.0, 0.0, 1.696015455741248E9, 0.0, 2023-09-29 14:24:15.741
106.0, 54839.60268969568, 45187.940619938454, 16489.30656782467, 19072.184750102133, 20228.596952986354, 15315.08002460957, -130650.8860767944, 27351.293248092326, 38349.290293370526, 19222.768452497538, 28342.056672818268, 33140.260951550124, 41350.839001040345, 23738.871364458962, 2343.2898334610263, 18311.353720587937, -0.02, 1.022, 0.032, 192.0, 0.0, 0.0, 0.0, 0.0, 0.0, 0.0, 0.0, 0.0, 0.0, 1.696015455801224E9, 0.0, 2023-09-29 14:24:15.801
108.0, 54919.510176123404, 45184.27493384778, 16464.317317523637, 19043.641572432705, 20216.99639761405, 15304.88762913795, -130539.99907255163, 27336.250524073905, 38340.50605779959, 19215.168859382735, 28525.60919828525, 33174.90615545585, 41396.682428918175, 23746.739178507232, 2336.0255165130516, 18334.91245924383, -0.02, 1.016, 0.028, 192.0, 127.5, 48.0, 15.5, 96.0, 0.0, 112.0, 0.0, 0.0, 0.0, 1.696015455801246E9, 0.0, 2023-09-29 14:24:15.801
110.0, 54814.456977183465, 45189.66170426151, 16476.87899790752, 19060.718305196562, 20229.021636131005, 15309.961475129305, -130664.63239963441, 27348.856907946698, 38349.200886392704, 19213.827754715414, 28378.266498835863, 33131.34260551246, 41348.17914345016, 23743.252306372204, 2332.6504031003005, 18305.877543196388, -0.02, 1.016, 0.028, 192.0, 0.0, 0.0, 0.0, 0.0, 0.0, 0.0, 0.0, 0.0, 0.0, 1.696015455801257E9, 0.0, 2023-09-29 14:24:15.801
112.0, 54920.091321479245, 45195.38375084207, 16474.21914031734, 19054.48216849353, 20226.495889007558, 15305.26760879369, -130536.5122004166, 27344.587724755733, 38342.49536305611, 19206.049347644966, 28509.247721343963, 33162.2774198386, 41390.98273408208, 23736.010341168683, 2339.020650270063, 18328.519860329612, -0.02, 1.016, 0.028, 192.0, 0.0, 0.0, 0.0, 0.0, 0.0, 0.0, 0.0, 0.0, 0.0, 1.696015455801267E9, 0.0, 2023-09-29 14:24:15.801
114.0, 54788.50660187085, 45195.85313747563, 16479.494152008792, 19055.398590016197, 20235.369531556313, 15311.50374549672, -130699.61287970697, 27351.405006814603, 38351.994854449615, 19212.665464003738, 28401.06527818028, 33129.487410722664, 41349.87787602877, 23743.006437183194, 2339.6241473703562, 18311.264313610114, -0.02, 1.016, 0.028, 192.0, 0.0, 0.0, 0.0, 0.0, 0.0, 0.0, 0.0, 0.0, 0.0, 1.696015455801276E9, 0.0, 2023-09-29 14:24:15.801
116.0, 54937.74919959893, 45217.33316389718, 16488.03251839072, 19056.11384583877, 20230.295685564957, 15303.099489581526, -130551.2643517571, 27353.41666381558, 38351.41370909378, 19218.52162105103, 28471.9203081036, 33181.20934739224, 41400.01283884202, 23749.197870397315, 2345.525007906557, 18335.06892145502, -0.02, 1.016, 0.028, 192.0, 0.0, 0.0, 0.0, 0.0, 0.0, 0.0, 0.0, 0.0, 0.0, 1.696015455801285E9, 0.0, 2023-09-29 14:24:15.801
118.0, 54780.325863400205, 45199.675285777485, 16470.061715848653, 19050.81648240286, 20241.784482214985, 15316.84581242154, -130740.51657206018, 27354.623658016168, 38356.68872078523, 19219.862725718347, 28416.756202787903, 33137.89166663786, 41360.78552732295, 23744.347541850515, 2335.89140604632, 18306.168115874305, -0.02, 1.02, 0.028, 192.0, 127.5, 48.0, 15.5, 112.0, 0.0, 112.0, 0.0, 0.0, 0.0, 1.696015455801294E9, 0.0, 2023-09-29 14:24:15.801
120.0, 54940.81138858931, 45219.79185578726, 16495.743870227798, 19066.01566863247, 20235.86126993433, 15312.688387952852, -130605.42262857231, 27353.21549811548, 38357.42632835225, 19221.159126896757, 28406.407345105094, 33176.403722334355, 41402.8738621323, 23746.85093722951, 2353.7728016105657, 18340.478043613202, -0.02, 1.02, 0.028, 192.0, 0.0, 0.0, 0.0, 0.0, 0.0, 0.0, 0.0, 0.0, 0.0, 1.696015455801304E9, 0.0, 2023-09-29 14:24:15.801
122.0, 54783.94684600197, 45184.587858270155, 16462.52917796721, 19044.557993955375, 20227.38995878577, 15311.50374549672, -130767.45042412882, 27344.11833812217, 38351.726633516155, 19211.726690736617, 28421.561827845795, 33133.71189042472, 41360.070271500386, 23741.17359413786, 2336.8972345468087, 18311.37607233239, -0.02, 1.02, 0.028, 192.0, 0.0, 0.0, 0.0, 0.0, 0.0, 0.0, 0.0, 0.0, 0.0, 1.696015455861506E9, 0.0, 2023-09-29 14:24:15.861
124.0, 54961.08442081028, 45213.667477806506, 16488.993643402297, 19066.932090155136, 20219.745662182053, 15298.31621626809, -130591.11751212091, 27335.848192673708, 38344.70818575718, 19211.27965584751, 28385.396705317107, 33164.89257393987, 41386.15475727973, 23744.45930057279, 2334.5503013790017, 18326.932886473285, -0.02, 1.02, 0.028, 192.0, 0.0, 0.0, 0.0, 0.0, 0.0, 0.0, 0.0, 0.0, 0.0, 1.696015455861526E9, 0.0, 2023-09-29 14:24:15.861
126.0, 54789.154802460056, 45184.721968736885, 16448.96166908284, 19044.133310810725, 20231.748548954554, 15316.30937055461, -130749.56902856458, 27350.22036435847, 38344.90935145728, 19216.264094861042, 28477.26237502842, 33137.2211143042, 41350.6601870847, 23741.017131926674, 2323.6426500848115, 18307.35275833044, -0.02, 1.02, 0.028, 192.0, 0.0, 0.0, 0.0, 0.0, 0.0, 0.0, 0.0, 0.0, 0.0, 1.696015455861536E9, 0.0, 2023-09-29 14:24:15.861
128.0, 54948.72390612649, 45216.21557667441, 16492.011128903763, 19073.481151280543, 20212.011958600517, 15299.567913957586, -130602.38279132638, 27337.949256652508, 38345.75871774658, 19211.123193636322, 28362.597925972692, 33169.4299780643, 41380.90209733273, 23741.441815071325, 2338.08187700294, 18333.280781898593, -0.018000000000000002, 1.02, 0.026000000000000002, 192.0, 127.5, 56.0, 15.5, 112.0, 0.0, 104.0, 0.0, 0.0, 0.0, 1.696015455861576E9, 0.0, 2023-09-29 14:24:15.861
130.0, 54802.96818053343, 45167.19820108393, 16435.796491598667, 19028.263572247455, 20207.452202731634, 15298.249161034724, -130707.79361817762, 27326.393404769115, 38334.22521760764, 19196.9298359072, 28506.45375328705, 33135.70119568124, 41353.767079563986, 23721.727576461744, 2315.8418912699094, 18302.234208850172, -0.018000000000000002, 1.02, 0.026000000000000002, 192.0, 0.0, 0.0, 0.0, 0.0, 0.0, 0.0, 0.0, 0.0, 0.0, 1.696015455861586E9, 0.0, 2023-09-29 14:24:15.861
132.0, 54928.38381867216, 45201.97751545638, 16492.189942859404, 19070.553072756895, 20222.58433372788, 15306.094623338537, -130605.04264891657, 27348.499280035412, 38338.80732522099, 19196.616911484827, 28372.678562722038, 33144.664245207816, 41363.490088402046, 23724.968579407763, 2329.610565854379, 18318.662741024822, -0.018000000000000002, 1.02, 0.026000000000000002, 192.0, 0.0, 0.0, 0.0, 0.0, 0.0, 0.0, 0.0, 0.0, 0.0, 1.696015455861595E9, 0.0, 2023-09-29 14:24:15.861
134.0, 54791.00999724984, 45166.818221428184, 16447.709971393346, 19040.065293319858, 20228.686359964177, 15311.727262941273, -130733.07344115656, 27345.705311978498, 38347.41274683628, 19200.79668769797, 28514.36627082423, 33133.77894565809, 41361.50078314552, 23740.614800526477, 2337.9477665362083, 18319.467403825212, -0.018000000000000002, 1.02, 0.026000000000000002, 192.0, 0.0, 0.0, 0.0, 0.0, 0.0, 0.0, 0.0, 0.0, 0.0, 1.696015455861604E9, 0.0, 2023-09-29 14:24:15.861
136.0, 54921.119501724184, 45202.268088134304, 16499.722480740846, 19076.520988526463, 20219.991531371063, 15298.830306390562, -130631.59652132947, 27344.654779989098, 38351.48076432714, 19203.70241447716, 28323.303559220265, 33142.40671901783, 41370.6649983722, 23742.201774382804, 2342.887502060831, 18328.229287651695, -0.018000000000000002, 1.02, 0.026000000000000002, 192.0, 0.0, 0.0, 0.0, 0.0, 0.0, 0.0, 0.0, 0.0, 0.0, 1.696015455921075E9, 0.0, 2023-09-29 14:24:15.921
138.0, 54808.98079979191, 45170.79683194123, 16443.843119602578, 19027.32479898033, 20217.24226680306, 15304.12766982647, -130711.43695252383, 27333.88123916164, 38345.87047646886, 19198.539161507986, 28538.50615483596, 33131.320253768, 41370.91086756121, 23725.393262552414, 2328.962365265175, 18314.5723717895, -0.018000000000000002, 1.02, 0.028, 192.0, 127.5, 56.0, 15.5, 112.0, 0.0, 112.0, 0.0, 0.0, 0.0, 1.696015455921119E9, 0.0, 2023-09-29 14:24:15.921
140.0, 54898.49953633542, 45219.23306217588, 16509.40078608999, 19079.873750194758, 20237.984685657586, 15299.836134891051, -130663.20188798927, 27342.419605543568, 38356.77812776305, 19209.156240124255, 28317.737974850894, 33141.66911145081, 41374.174222251684, 23734.848050457007, 2341.0323072710407, 18319.713273014222, -0.018000000000000002, 1.02, 0.028, 192.0, 0.0, 0.0, 0.0, 0.0, 0.0, 0.0, 0.0, 0.0, 0.0, 1.696015455921133E9, 0.0, 2023-09-29 14:24:15.921
142.0, 54847.35874502167, 45181.369207068594, 16449.02872431621, 19032.130424038223, 20221.28793254947, 15290.470753964277, -130671.22616424873, 27330.997864126908, 38345.64695902431, 19196.88513241829, 28559.717960324047, 33149.782794688086, 41387.96524858061, 23719.55945724958, 2340.8758450598534, 18323.088386426974, -0.018000000000000002, 1.02, 0.028, 192.0, 0.0, 0.0, 0.0, 0.0, 0.0, 0.0, 0.0, 0.0, 0.0, 1.696015455921146E9, 0.0, 2023-09-29 14:24:15.921
144.0, 54889.044748430824, 45205.352628869136, 16491.765259714753, 19072.452971035596, 20219.34333078186, 15298.696195923829, -130665.05708277907, 27328.203896069994, 38349.200886392704, 19202.070737131922, 28341.296713506785, 33131.096736323445, 41358.595056366335, 23729.41657655437, 2334.0585630009846, 18315.265275867616, -0.018000000000000002, 1.02, 0.028, 192.0, 0.0, 0.0, 0.0, 0.0, 0.0, 0.0, 0.0, 0.0, 0.0, 1.696015455921159E9, 0.0, 2023-09-29 14:24:15.921
146.0, 54860.456867272485, 45186.10777689311, 16444.02193355822, 19037.271325262944, 20223.18783082817, 15304.060614593103, -130661.10082401049, 27333.903590906095, 38343.54589504551, 19198.695623719173, 28571.519681396447, 33152.219134833715, 41377.23641124206, 23716.27375081465, 2326.5260251195464, 18322.641351537866, -0.018000000000000002, 1.02, 0.028, 192.0, 0.0, 0.0, 0.0, 0.0, 0.0, 0.0, 0.0, 0.0, 0.0, 1.696015455921172E9, 0.0, 2023-09-29 14:24:15.921
148.0, 54854.086620102724, 45206.604326558634, 16486.289082323205, 19079.15849437219, 20232.329694310392, 15310.721434440786, -130704.57496697606, 27353.304905093304, 38354.095918428415, 19215.012397171547, 28335.8875913486, 33139.635102705375, 41351.84482954083, 23742.917030205375, 2341.635804371334, 18318.662741024822, -0.024, 1.024, 0.028, 192.0, 127.5, 32.0, 16.0, 0.0, 0.0, 112.0, 0.0, 0.0, 0.0, 1.696015455921186E9, 0.0, 2023-09-29 14:24:15.921
150.0, 54858.93694864952, 45185.012541414806, 16440.646820145466, 19045.899098622693, 20224.126604095294, 15316.197611832335, -130665.54882115709, 27342.598419499212, 38337.466220553666, 19200.975501653615, 28553.146547454187, 33155.7283587132, 41387.76408288051, 23728.142527120417, 2336.4501996577023, 18331.269124897615, -0.024, 1.024, 0.028, 192.0, 0.0, 0.0, 0.0, 0.0, 0.0, 0.0, 0.0, 0.0, 0.0, 1.696015455921244E9, 0.0, 2023-09-29 14:24:15.921
152.0, 54818.74851211888, 45206.35845736962, 16479.047117119684, 19081.34896532881, 20228.865173919818, 15318.343379300044, -130755.64870305643, 27347.82872770175, 38351.16783990477, 19212.33018783691, 28322.610655142147, 33131.454364234734, 41354.92937027566, 23748.996704697216, 2339.1994642257055, 18318.327464857994, -0.024, 1.024, 0.028, 192.0, 0.0, 0.0, 0.0, 0.0, 0.0, 0.0, 0.0, 0.0, 0.0, 1.696015455980721E9, 0.0, 2023-09-29 14:24:15.980
154.0, 54889.20121064201, 45189.617000772596, 16454.370791241025, 19053.409284759677, 20228.14991809725, 15311.593152474541, -130648.74030932669, 27348.991018413428, 38333.66642399626, 19197.354519051853, 28528.425518086617, 33161.27159133811, 41391.27330675999, 23740.07835865955, 2345.7038218621997, 18344.702523315256, -0.024, 1.024, 0.028, 192.0, 0.0, 0.0, 0.0, 0.0, 0.0, 0.0, 0.0, 0.0, 0.0, 1.696015455980754E9, 0.0, 2023-09-29 14:24:15.980
156.0, 54802.40938692205, 45192.70154150743, 16475.470838006837, 19073.14587511371, 20239.415197302726, 15319.371559544988, -130776.39112191096, 27359.339876096237, 38341.82481072245, 19201.400184798265, 28362.352056783686, 33122.51366645261, 41353.78943130844, 23738.066701658572, 2352.2528829876046, 18324.56360156102, -0.024, 1.024, 0.028, 192.0, 0.0, 0.0, 0.0, 0.0, 0.0, 0.0, 0.0, 0.0, 0.0, 1.696015455980764E9, 0.0, 2023-09-29 14:24:15.980
158.0, 54910.077739963264, 45186.688922248955, 16463.35619251206, 19049.788302157915, 20223.724272695097, 15305.580533216063, -130641.63245458991, 27339.826803186752, 38334.448735052196, 19193.934702150193, 28506.945491665065, 33159.3269895705, 41393.57553643889, 23728.634265498433, 2351.17999925375, 18348.412912894837, -0.022, 1.024, 0.028, 192.0, 127.5, 40.0, 16.0, 0.0, 0.0, 112.0, 0.0, 0.0, 0.0, 1.696015455980774E9, 0.0, 2023-09-29 14:24:15.980
160.0, 54789.64654083807, 45192.81330022971, 16472.095724594084, 19061.2994505524, 20225.087729106872, 15307.726300683773, -130783.63308711447, 27342.441957288025, 38341.243665366615, 19199.835562686392, 28383.51915878286, 33117.261006505614, 41343.12764920326, 23738.84901271451, 2341.1664177377725, 18312.985397933175, -0.022, 1.024, 0.028, 192.0, 0.0, 0.0, 0.0, 0.0, 0.0, 0.0, 0.0, 0.0, 0.0, 1.696015455980783E9, 0.0, 2023-09-29 14:24:15.980
162.0, 54912.178803942064, 45211.16408242752, 16485.484419522814, 19061.992354630514, 20230.25098207605, 15309.805012918117, -130654.8870390519, 27344.006579399895, 38341.82481072245, 19198.74032720808, 28479.005811095933, 33157.06946338051, 41394.84958587284, 23740.92772494885, 2348.9671765526746, 18340.746264546666, -0.022, 1.024, 0.028, 192.0, 0.0, 0.0, 0.0, 0.0, 0.0, 0.0, 0.0, 0.0, 0.0, 1.696015455980792E9, 0.0, 2023-09-29 14:24:15.980
164.0, 54785.10913671365, 45196.63544853157, 16473.347422283583, 19057.477302250543, 20232.642618732767, 15300.484335480254, -130789.64570637295, 27329.99203562642, 38344.61877877936, 19199.2320655861, 28405.468571837973, 33121.17256178529, 41353.78943130844, 23741.821794727064, 2343.8039235834985, 18314.304150856038, -0.022, 1.024, 0.028, 192.0, 0.0, 0.0, 0.0, 0.0, 0.0, 0.0, 0.0, 0.0, 0.0, 1.696015455980801E9, 0.0, 2023-09-29 14:24:15.980
166.0, 54928.339115183255, 45212.95222198394, 16481.058774120662, 19060.226566818546, 20223.500755250545, 15297.131573811957, -130642.03478599011, 27333.903590906095, 38340.70722349969, 19192.213617827132, 28464.63363941117, 33159.95283841525, 41391.519175949004, 23733.5516492786, 2344.1168480058727, 18332.744340031666, -0.022, 1.024, 0.028, 192.0, 0.0, 0.0, 0.0, 0.0, 0.0, 0.0, 0.0, 0.0, 0.0, 1.696015456041059E9, 0.0, 2023-09-29 14:24:16.041
168.0, 54772.145124929564, 45201.150500911535, 16465.45725649086, 19052.58227021483, 20230.698016965154, 15307.525134983676, -130812.86916886202, 27336.228172329447, 38353.805345750494, 19204.32826332191, 28429.921380272077, 33129.46505897821, 41356.94102727664, 23743.766396494677, 2341.009955526585, 18309.900857198343, -0.024, 1.024, 0.034, 192.0, 127.5, 32.0, 16.0, 0.0, 0.5, 8.0, 0.0, 0.0, 0.0, 1.696015456041084E9, 0.0, 2023-09-29 14:24:16.041
170.0, 54939.671449622096, 45212.840463261666, 16482.64574797699, 19066.06037212138, 20210.91672312221, 15292.236541776247, -130637.31856791003, 27325.141707079616, 38343.25532236759, 19199.679100475205, 28424.53460985835, 33164.04320765057, 41386.93706833566, 23742.022960427163, 2347.335499207437, 18340.18747093528, -0.024, 1.024, 0.034, 192.0, 0.0, 0.0, 0.0, 0.0, 0.0, 0.0, 0.0, 0.0, 0.0, 1.696015456041094E9, 0.0, 2023-09-29 14:24:16.041
172.0, 54776.05668020924, 45182.643256502546, 16447.10647429305, 19045.72028466705, 20222.785499427977, 15309.402681517922, -130790.83034882908, 27335.714082206978, 38337.98031067614, 19196.773373696014, 28475.29542151635, 33122.37955598588, 41351.62131209628, 23741.88884996043, 2334.1032664898953, 18313.05245316654, -0.024, 1.024, 0.034, 192.0, 0.0, 0.0, 0.0, 0.0, 0.0, 0.0, 0.0, 0.0, 0.0, 1.696015456041137E9, 0.0, 2023-09-29 14:24:16.041
174.0, 54935.670487364594, 45209.30888763772, 16481.01407063175, 19069.05550587839, 20215.208258057628, 15308.642722206441, -130640.38075690041, 27350.041550402828, 38334.56049377447, 19192.79476318297, 28414.945711487024, 33155.61659999092, 41375.31416121891, 23743.69934126131, 2350.397688197814, 18344.210784937237, -0.024, 1.024, 0.034, 192.0, 0.0, 0.0, 0.0, 0.0, 0.0, 0.0, 0.0, 0.0, 0.0, 1.696015456041146E9, 0.0, 2023-09-29 14:24:16.041
176.0, 54781.19758143397, 45186.75597748232, 16451.19684352837, 19047.575479456842, 20236.084787378884, 15320.891478167949, -130786.11413074902, 27356.769425483875, 38336.37098507536, 19186.84919915786, 28504.26328233043, 33128.861561877915, 41343.82055328137, 23746.962695951785, 2344.3180137059708, 18324.34008411647, -0.024, 1.024, 0.034, 192.0, 0.0, 0.0, 0.0, 0.0, 0.0, 0.0, 0.0, 0.0, 0.0, 1.696015456041155E9, 0.0, 2023-09-29 14:24:16.041
178.0, 54926.39451341564, 45224.083390722684, 16488.993643402297, 19074.039944891923, 20222.6737407057, 15306.072271594081, -130656.7422338417, 27336.004654884895, 38337.64503450931, 19186.379812524297, 28388.391839074116, 33149.492222010165, 41370.73205360556, 23745.822756984566, 2362.154705781306, 18347.854119283453, -0.024, 1.022, 0.036000000000000004, 192.0, 127.5, 32.0, 15.5, 120.0, 0.5, 16.0, 0.0, 0.0, 0.0, 1.696015456041164E9, 0.0, 2023-09-29 14:24:16.041
180.0, 54777.464840109926, 45190.98045718437, 16440.19978525636, 19036.556069440376, 20222.740795939066, 15310.69908269633, -130784.52715689268, 27337.211649085482, 38333.77818271854, 19181.93181537769, 28531.152430910162, 33123.45243971973, 41349.96728300658, 23741.73238774924, 2337.6795456027444, 18320.741453259165, -0.024, 1.022, 0.036000000000000004, 192.0, 0.0, 0.0, 0.0, 0.0, 0.0, 0.0, 0.0, 0.0, 0.0, 1.696015456041174E9, 0.0, 2023-09-29 14:24:16.041
182.0, 54914.771606298884, 45218.204881930935, 16497.397899317493, 19073.77172395846, 20225.780633184986, 15300.149059313424, -130665.839393835, 27333.903590906095, 38340.327243843945, 19185.686908446183, 28364.67663820704, 33139.009253860626, 41365.32293144738, 23750.516623320178, 2353.661042888289, 18335.828880766498, -0.024, 1.022, 0.036000000000000004, 192.0, 0.0, 0.0, 0.0, 0.0, 0.0, 0.0, 0.0, 0.0, 0.0, 1.696015456101253E9, 0.0, 2023-09-29 14:24:16.101
184.0, 54789.1324507156, 45187.29241934924, 16446.30181149266, 19036.62312467374, 20229.781595442488, 15309.156812328913, -130766.57870609507, 27347.18052711255, 38335.81219146397, 19178.98138510959, 28558.801538801377, 33128.81685838901, 41363.02070176849, 23742.69351276082, 2342.2616532160823, 18326.48585158418, -0.024, 1.022, 0.036000000000000004, 192.0, 0.0, 0.0, 0.0, 0.0, 0.0, 0.0, 0.0, 0.0, 0.0, 1.696015456101275E9, 0.0, 2023-09-29 14:24:16.101
186.0, 54906.47910910596, 45223.92692851149, 16507.12090815555, 19080.857226950793, 20224.975970384596, 15295.321082511078, -130689.6440016799, 27330.88610540463, 38349.893790470815, 19196.259283573545, 28341.9896175849, 33147.592323731464, 41364.1606407357, 23761.781902525654, 2356.5891214119342, 18342.44499712527, -0.024, 1.022, 0.036000000000000004, 192.0, 0.0, 0.0, 0.0, 0.0, 0.0, 0.0, 0.0, 0.0, 0.0, 1.696015456101285E9, 0.0, 2023-09-29 14:24:16.101
188.0, 54824.0905790437, 45192.478024062875, 16441.026799801206, 19025.156679768166, 20214.850630146342, 15295.008158088704, -130718.74597296072, 27319.419660499057, 38330.6489384948, 19174.041649584968, 28589.08815253832, 33140.3727102724, 41367.55810589291, 23741.352408093502, 2333.3656589228704, 18325.748244017155, -0.02, 1.022, 0.036000000000000004, 192.0, 127.5, 48.0, 15.5, 120.0, 0.5, 16.0, 0.0, 0.0, 0.0, 1.696015456101295E9, 0.0, 2023-09-29 14:24:16.101
190.0, 54875.52194303536, 45235.683946094985, 16492.9946056598, 19064.272232564956, 20227.5240692525, 15298.137402312446, -130707.1007140995, 27337.36811129667, 38342.763583989574, 19185.731611935094, 28368.632896975625, 33135.67884393678, 41347.195666694126, 23747.812062241086, 2338.148932236306, 18320.160307903327, -0.02, 1.022, 0.036000000000000004, 192.0, 0.0, 0.0, 0.0, 0.0, 0.0, 0.0, 0.0, 0.0, 0.0, 1.696015456101305E9, 0.0, 2023-09-29 14:24:16.101
192.0, 54826.839843611706, 45209.46534984891, 16445.11716903653, 19032.10807229377, 20225.512412251523, 15301.780736658662, -130727.79842946511, 27342.12903286565, 38344.26115086808, 19184.278748545497, 28571.05029476289, 33155.19191684627, 41376.38704495276, 23748.12498666346, 2340.719382848666, 18328.206935907237, -0.02, 1.022, 0.036000000000000004, 192.0, 0.0, 0.0, 0.0, 0.0, 0.0, 0.0, 0.0, 0.0, 0.0, 1.696015456101314E9, 0.0, 2023-09-29 14:24:16.101
194.0, 54848.945718878, 45233.06879199372, 16490.155934113973, 19071.15656985719, 20224.99832212905, 15309.380329773467, -130740.67303427137, 27351.874393448164, 38348.26211312558, 19191.006623626545, 28349.70096942198, 33137.44463174875, 41353.52121037498, 23757.60212631251, 2345.3908974398255, 18325.81529925052, -0.02, 1.022, 0.036000000000000004, 192.0, 0.0, 0.0, 0.0, 0.0, 0.0, 0.0, 0.0, 0.0, 0.0, 1.696015456101367E9, 0.0, 2023-09-29 14:24:16.101
196.0, 54853.63958521361, 45227.65966983553, 16451.800340628666, 19038.23245027452, 20218.24809530355, 15315.817632176595, -130706.38545827693, 27335.177640340047, 38344.3505578459, 19204.50707727755, 28575.051257020386, 33162.85856519444, 41379.7174548766, 23759.569079824578, 2342.9322055497414, 18344.09902621496, -0.02, 1.022, 0.036000000000000004, 192.0, 0.0, 0.0, 0.0, 0.0, 0.0, 0.0, 0.0, 0.0, 0.0, 1.696015456161527E9, 0.0, 2023-09-29 14:24:16.161
198.0, 54838.97684085093, 45231.7276873264, 16495.989739416807, 19077.079782137847, 20224.014845373018, 15314.677693209374, -130752.43005185487, 27341.167907854073, 38358.18628766374, 19216.174687883224, 28372.343286555206, 33147.01117837562, 41351.42014639618, 23779.99857425673, 2344.2286067281493, 18334.264258654628, -0.026000000000000002, 1.02, 0.034, 192.0, 127.5, 24.0, 15.5, 112.0, 0.5, 8.0, 0.0, 0.0, 0.0, 1.696015456161551E9, 0.0, 2023-09-29 14:24:16.161
200.0, 54870.47044878846, 45213.80158827324, 16471.469875749335, 19049.274212035445, 20220.595028471354, 15307.435728005854, -130695.20958604928, 27331.8025269273, 38352.68775852773, 19192.906521905246, 28562.109596980765, 33173.49799555516, 41387.182937524674, 23773.829492787063, 2348.1625137522833, 18351.944488518773, -0.026000000000000002, 1.02, 0.034, 192.0, 0.0, 0.0, 0.0, 0.0, 0.0, 0.0, 0.0, 0.0, 0.0, 1.696015456161561E9, 0.0, 2023-09-29 14:24:16.161
202.0, 54799.52601188732, 45205.71025678042, 16494.17924811593, 19064.29458430941, 20234.788386200475, 15306.385196016456, -130799.88280533349, 27337.88220141914, 38355.45937484019, 19184.65872820124, 28378.311202324774, 33132.013157846115, 41353.14123071924, 23765.42523687187, 2353.4822289326466, 18328.54221207407, -0.026000000000000002, 1.02, 0.034, 192.0, 0.0, 0.0, 0.0, 0.0, 0.0, 0.0, 0.0, 0.0, 0.0, 1.69601545616157E9, 0.0, 2023-09-29 14:24:16.161
204.0, 54881.19928612701, 45191.628657773574, 16474.710878695354, 19040.557031697874, 20223.947790139653, 15297.198629045324, -130699.47876924025, 27335.334102551235, 38348.150354403304, 19167.671402415206, 28531.018320443432, 33161.24923959366, 41394.35784749482, 23753.13177742145, 2360.3442144804258, 18346.7812355496, -0.026000000000000002, 1.02, 0.034, 192.0, 0.0, 0.0, 0.0, 0.0, 0.0, 0.0, 0.0, 0.0, 0.0, 1.696015456161579E9, 0.0, 2023-09-29 14:24:16.161
206.0, 54780.974063989415, 45189.63935251706, 16479.762372942256, 19042.993371843502, 20218.00222611454, 15295.969283100283, -130824.46972423432, 27323.085346589727, 38352.86657248337, 19168.654879171238, 28377.528891268837, 33118.19977977274, 41350.90605627371, 23750.538975064635, 2343.401592183303, 18316.248752623647, -0.026000000000000002, 1.02, 0.034, 192.0, 0.0, 0.0, 0.0, 0.0, 0.0, 0.0, 0.0, 0.0, 0.0, 1.696015456161588E9, 0.0, 2023-09-29 14:24:16.161
208.0, 54895.95143746751, 45198.490643321355, 16474.50971299526, 19029.470566448043, 20226.92057215221, 15290.627216175464, -130674.98125731722, 27325.476983246444, 38340.461354310675, 19157.054323798933, 28521.45177381656, 33153.068501123016, 41390.98273408208, 23734.602181268, 2342.7086881051887, 18335.694770299768, -0.024, 1.016, 0.032, 192.0, 127.5, 32.0, 15.5, 96.0, 0.5, 0.0, 0.0, 0.0, 0.0, 1.696015456161597E9, 0.0, 2023-09-29 14:24:16.161
210.0, 54766.26661613782, 45200.435245088964, 16477.102515352075, 19031.10224379328, 20224.506583751034, 15295.768117400185, -130825.2743870347, 27325.02994835734, 38349.625569537355, 19165.168007036213, 28420.33248190075, 33112.589491914456, 41348.69323357263, 23735.94328593532, 2342.395763682814, 18308.604456019933, -0.024, 1.016, 0.032, 192.0, 0.0, 0.0, 0.0, 0.0, 0.0, 0.0, 0.0, 0.0, 0.0, 1.696015456161607E9, 0.0, 2023-09-29 14:24:16.161
212.0, 54907.61904807318, 45224.12809421159, 16490.200637602884, 19042.859261376772, 20224.126604095294, 15295.678710422364, -130684.52545219964, 27333.233038572438, 38351.860743982885, 19166.84438787036, 28482.224462297498, 33162.16566111633, 41393.97786783909, 23749.823719242064, 2350.2859294755376, 18341.10389245795, -0.024, 1.016, 0.032, 192.0, 0.0, 0.0, 0.0, 0.0, 0.0, 0.0, 0.0, 0.0, 0.0, 1.696015456221031E9, 0.0, 2023-09-29 14:24:16.221
214.0, 54758.75643000084, 45206.09023643616, 16463.60206170107, 19032.644514160696, 20221.33263603838, 15296.304559267111, -130838.0372331187, 27330.684939704533, 38352.19602014971, 19165.547986691952, 28437.968008275988, 33118.6691664063, 41341.92065500267, 23746.761530251686, 2343.2227782276605, 18316.76284274612, -0.024, 1.016, 0.032, 192.0, 0.0, 0.0, 0.0, 0.0, 0.0, 0.0, 0.0, 0.0, 0.0, 1.696015456221054E9, 0.0, 2023-09-29 14:24:16.221
216.0, 54911.19532718603, 45220.28359416528, 16484.29977706668, 19042.836909632315, 20218.024577858996, 15292.147134798424, -130674.22129800574, 27325.968721624464, 38343.72470900115, 19158.574242421895, 28466.310020245317, 33152.86733542292, 41377.48228043107, 23741.93355344934, 2341.792266582521, 18341.170947691317, -0.024, 1.016, 0.032, 192.0, 0.0, 0.0, 0.0, 0.0, 0.0, 0.0, 0.0, 0.0, 0.0, 1.696015456221094E9, 0.0, 2023-09-29 14:24:16.221
218.0, 54743.780761215785, 45196.188413642456, 16467.06658209164, 19032.66686590515, 20238.81170020243, 15300.573742458075, -130847.87200067902, 27333.07657636125, 38353.24655213911, 19163.737495391073, 28472.79202613736, 33120.479657707176, 41349.6096550953, 23751.567155309578, 2340.786438082032, 18317.165174146317, -0.018000000000000002, 1.018, 0.034, 192.0, 127.5, 56.0, 15.5, 104.0, 0.5, 8.0, 0.0, 0.0, 0.0, 1.696015456221103E9, 0.0, 2023-09-29 14:24:16.221
220.0, 54911.37414114167, 45212.30402139474, 16494.335710327116, 19044.4462352331, 20222.830202916884, 15289.554332441608, -130678.31166724107, 27319.01732909886, 38350.40788059329, 19161.658783156727, 28435.86694429719, 33154.36490230142, 41381.08091128837, 23753.13177742145, 2356.365603967381, 18347.34002916098, -0.018000000000000002, 1.018, 0.034, 192.0, 0.0, 0.0, 0.0, 0.0, 0.0, 0.0, 0.0, 0.0, 0.0, 1.696015456221113E9, 0.0, 2023-09-29 14:24:16.221
222.0, 54742.439656548464, 45177.725872722374, 16455.086047063596, 19019.367577954243, 20227.591124485865, 15301.087832580548, -130839.80302093066, 27333.21068682798, 38350.34082535992, 19160.384733722774, 28506.990195153976, 33119.69734665124, 41353.74472781953, 23752.21535589878, 2341.4569904156915, 18318.349816602447, -0.018000000000000002, 1.018, 0.034, 192.0, 0.0, 0.0, 0.0, 0.0, 0.0, 0.0, 0.0, 0.0, 0.0, 1.696015456221122E9, 0.0, 2023-09-29 14:24:16.221
224.0, 54895.81732700078, 45208.79479751525, 16501.711785997366, 19049.788302157915, 20232.352046054846, 15290.962492342293, -130706.74308618822, 27331.511954249378, 38349.58086604844, 19158.060152299422, 28406.63086254965, 33142.40671901783, 41379.80686185442, 23748.683780274845, 2357.885522590342, 18342.892032014373, -0.018000000000000002, 1.018, 0.034, 192.0, 0.0, 0.0, 0.0, 0.0, 0.0, 0.0, 0.0, 0.0, 0.0, 1.696015456221131E9, 0.0, 2023-09-29 14:24:16.221
226.0, 54753.16849388701, 45180.743358223845, 16448.626392916012, 19006.850601059272, 20226.697054707653, 15287.721489396274, -130821.69810792187, 27316.40217499759, 38343.948226445704, 19151.242870240556, 28538.30498913586, 33116.3669367274, 41357.03043425446, 23734.17749812335, 2342.015784027074, 18317.63456077988, -0.018000000000000002, 1.018, 0.034, 192.0, 0.0, 0.0, 0.0, 0.0, 0.0, 0.0, 0.0, 0.0, 0.0, 1.696015456280773E9, 0.0, 2023-09-29 14:24:16.280
228.0, 54889.8047077423, 45219.389524387065, 16493.30753008217, 19037.092511307303, 20221.869077905307, 15282.066498049082, -130710.85580716799, 27317.564465709267, 38345.714014257675, 19155.288535986965, 28403.613377048183, 33131.588474701464, 41364.27239945798, 23754.808158255597, 2342.9098538052863, 18319.512107314124, -0.014, 1.022, 0.028, 192.0, 127.5, 72.0, 15.5, 120.0, 0.0, 112.0, 0.0, 0.0, 0.0, 1.696015456280799E9, 0.0, 2023-09-29 14:24:16.280
230.0, 54760.83514223518, 45195.1155299086, 16446.570032426123, 19004.235446958, 20223.120775594805, 15286.894474851428, -130838.7301371968, 27318.391480254115, 38351.97250270516, 19161.256451756533, 28548.966771241045, 33124.950006598236, 41355.912847031694, 23754.539937322133, 2329.632917598834, 18305.162287373816, -0.014, 1.022, 0.028, 192.0, 0.0, 0.0, 0.0, 0.0, 0.0, 0.0, 0.0, 0.0, 0.0, 1.69601545628081E9, 0.0, 2023-09-29 14:24:16.280
232.0, 54887.77069899687, 45224.46337037842, 16498.6943004959, 19044.20036604409, 20215.722348180097, 15272.857579333495, -130742.59528429453, 27314.569331952254, 38356.39814810731, 19164.631565169282, 28362.463815505962, 33137.46698349321, 41366.686387859154, 23755.88104198945, 2336.2266822131496, 18315.71231075672, -0.014, 1.022, 0.028, 192.0, 0.0, 0.0, 0.0, 0.0, 0.0, 0.0, 0.0, 0.0, 0.0, 1.696015456280824E9, 0.0, 2023-09-29 14:24:16.280
234.0, 54793.759261817846, 45188.23119261637, 16434.276572975705, 19003.90017079117, 20204.5688276969, 15280.434820703844, -130806.878901348, 27319.531419221334, 38348.19505789221, 19154.573280164397, 28582.404980946183, 33133.17544855779, 41366.32875994787, 23744.682818017343, 2323.1956151957056, 18308.872676953397, -0.014, 1.022, 0.028, 192.0, 0.0, 0.0, 0.0, 0.0, 0.0, 0.0, 0.0, 0.0, 0.0, 1.696015456280833E9, 0.0, 2023-09-29 14:24:16.280
236.0, 54878.24885585891, 45214.60625107363, 16478.30950955266, 19045.072084077845, 20193.839990358352, 15274.243387489723, -130740.60597903801, 27312.49061971791, 38347.032767180535, 19160.340030233863, 28384.748504727904, 33127.14047755486, 41353.342396419335, 23742.17942263835, 2314.858414513876, 18306.570447274502, -0.014, 1.022, 0.028, 192.0, 0.0, 0.0, 0.0, 0.0, 0.0, 0.0, 0.0, 0.0, 0.0, 1.696015456280842E9, 0.0, 2023-09-29 14:24:16.280
238.0, 54805.27041021233, 45193.12622465208, 16439.216308500327, 19023.10031927828, 20220.840897660364, 15285.910998095394, -130780.70500859083, 27326.01342511337, 38343.92587470125, 19160.2729750005, 28607.260120780484, 33126.916960110306, 41367.84867857083, 23724.78976545212, 2321.273365172549, 18308.112717641918, -0.018000000000000002, 1.024, 0.028, 192.0, 127.5, 56.0, 16.0, 0.0, 0.0, 112.0, 0.0, 0.0, 0.0, 1.696015456280851E9, 0.0, 2023-09-29 14:24:16.280
240.0, 54848.38692526662, 45216.61790807461, 16490.290044580703, 19070.48601752353, 20216.527010980488, 15285.285149250645, -130773.35128466503, 27322.16892506706, 38355.63818879583, 19175.718030419117, 28372.544452255304, 33118.42329721729, 41354.79525980893, 23744.883983717442, 2347.0672782739734, 18311.979569432686, -0.018000000000000002, 1.024, 0.028, 192.0, 0.0, 0.0, 0.0, 0.0, 0.0, 0.0, 0.0, 0.0, 0.0, 1.696015456280889E9, 0.0, 2023-09-29 14:24:16.280
242.0, 54831.53370994732, 45182.4644425469, 16441.227965501304, 19036.421958973642, 20205.99933934204, 15288.459096963299, -130742.17060114988, 27326.549866980302, 38336.415688564266, 19168.833693126882, 28618.14542033022, 33130.78381190107, 41371.96139955061, 23729.21541085427, 2335.17615022375, 18316.919304957308, -0.018000000000000002, 1.024, 0.028, 192.0, 0.0, 0.0, 0.0, 0.0, 0.0, 0.0, 0.0, 0.0, 0.0, 1.696015456340879E9, 0.0, 2023-09-29 14:24:16.340
244.0, 54827.21982326744, 45201.79870150074, 16486.132620112017, 19078.1526658717, 20217.309322036424, 15287.386213229443, -130784.68361910387, 27336.161117096082, 38349.51381081508, 19183.004699111545, 28398.897158968113, 33109.773172113084, 41350.32491091787, 23726.75671896419, 2346.7096503626885, 18306.883371696877, -0.018000000000000002, 1.024, 0.028, 192.0, 0.0, 0.0, 0.0, 0.0, 0.0, 0.0, 0.0, 0.0, 0.0, 1.696015456340902E9, 0.0, 2023-09-29 14:24:16.340
246.0, 54836.540500705305, 45175.22247734338, 16454.884881363498, 19050.682371936127, 20220.885601149275, 15291.968320842781, -130754.64287455594, 27328.583875725733, 38340.41665082177, 19171.001812339047, 28603.46032422308, 33125.03941357606, 41381.55029792193, 23717.03371012613, 2349.3248044639595, 18312.828935721987, -0.018000000000000002, 1.024, 0.028, 192.0, 0.0, 0.0, 0.0, 0.0, 0.0, 0.0, 0.0, 0.0, 0.0, 1.696015456340912E9, 0.0, 2023-09-29 14:24:16.340
248.0, 54800.35302643217, 45183.78319546976, 16489.574788758135, 19079.851398450304, 20224.595990728856, 15295.812820889096, -130832.94103538289, 27338.753919452898, 38356.889886485325, 19184.502265990053, 28387.251900106898, 33103.98407029916, 41356.18106796516, 23727.471974786757, 2358.6454819018227, 18300.356662315924, -0.024, 1.022, 0.03, 192.0, 127.5, 32.0, 15.5, 120.0, 0.0, 120.0, 0.0, 0.0, 0.0, 1.696015456340921E9, 0.0, 2023-09-29 14:24:16.340
250.0, 54868.704660976495, 45180.05045414573, 16464.183207056907, 19050.43650274712, 20221.28793254947, 15292.16948654288, -130733.47577255676, 27336.831669429743, 38343.85881946788, 19177.863797886825, 28585.735390870024, 33135.54473347005, 41387.36175148031, 23713.703300202287, 2352.5434556655237, 18325.34591261696, -0.024, 1.022, 0.03, 192.0, 0.0, 0.0, 0.0, 0.0, 0.0, 0.0, 0.0, 0.0, 0.0, 1.696015456340931E9, 0.0, 2023-09-29 14:24:16.340
252.0, 54793.200468206465, 45198.08831192116, 16484.16566659995, 19074.509331525485, 20220.259752304526, 15293.175315043369, -130846.39678554497, 27334.998826384406, 38354.81117425099, 19192.012452127034, 28411.57059807427, 33102.374744698376, 41349.073213228374, 23714.3962042804, 2346.4190776847695, 18300.602531504934, -0.024, 1.022, 0.03, 192.0, 0.0, 0.0, 0.0, 0.0, 0.0, 0.0, 0.0, 0.0, 0.0, 1.69601545634094E9, 0.0, 2023-09-29 14:24:16.340
254.0, 54896.7561002679, 45192.72389325189, 16460.7857418997, 19060.897119152203, 20211.43081324468, 15286.067460306582, -130726.43497305334, 27332.40602402759, 38347.032767180535, 19179.070792087412, 28570.98323952952, 33136.215285803715, 41389.95455383713, 23710.46229725627, 2348.2966242190155, 18324.34008411647, -0.024, 1.022, 0.03, 192.0, 0.0, 0.0, 0.0, 0.0, 0.0, 0.0, 0.0, 0.0, 0.0, 1.696015456340949E9, 0.0, 2023-09-29 14:24:16.340
0.0, 54780.683491311494, 45194.17675664148, 16467.424210002926, 19077.705630982593, 20222.092595349863, 15299.813783146596, -130882.96423947386, 27344.94535266702, 38361.2037731652, 19191.498362004564, 28431.128374472664, 33101.324212708976, 41343.351166647815, 23718.17364909335, 2336.7184205911663, 18297.24976983664, -0.024, 1.022, 0.03, 192.0, 0.0, 0.0, 0.0, 0.0, 0.0, 0.0, 0.0, 0.0, 0.0, 1.696015456401219E9, 0.0, 2023-09-29 14:24:16.401
2.0, 54913.47520512047, 45206.827844003186, 16465.88193963551, 19069.547244256406, 20218.963351126116, 15287.341509740534, -130733.96751093477, 27328.293303047813, 38354.61000855089, 19182.60236771135, 28536.87447749072, 33138.33870152697, 41389.75338813703, 23707.467163499256, 2347.7825340965433, 18327.692845784768, -0.018000000000000002, 1.018, 0.034, 192.0, 127.5, 56.0, 15.5, 104.0, 0.5, 8.0, 0.0, 0.0, 0.0, 1.696015456401245E9, 0.0, 2023-09-29 14:24:16.401
4.0, 54769.30645338374, 45187.33712283816, 16460.137541310494, 19070.798941945905, 20231.10034836535, 15301.60192270302, -130903.3490304171, 27349.46040504699, 38359.549744075506, 19192.41478352723, 28455.938810818054, 33096.47388416217, 41345.31812015988, 23713.144506590907, 2337.9030630472976, 18300.222551849194, -0.018000000000000002, 1.018, 0.034, 192.0, 0.0, 0.0, 0.0, 0.0, 0.0, 0.0, 0.0, 0.0, 0.0, 1.696015456401263E9, 0.0, 2023-09-29 14:24:16.401
6.0, 54923.53349012536, 45191.11456765111, 16470.709916437856, 19073.68231698064, 20213.017787101006, 15282.468829449277, -130727.5525602761, 27328.717986192463, 38346.51867705806, 19184.65872820124, 28499.904692161643, 33132.72841366869, 41386.199460768636, 23716.27375081465, 2346.4861329181354, 18333.05726445404, -0.018000000000000002, 1.018, 0.034, 192.0, 0.0, 0.0, 0.0, 0.0, 0.0, 0.0, 0.0, 0.0, 0.0, 1.696015456401305E9, 0.0, 2023-09-29 14:24:16.401
8.0, 54758.68937476747, 45165.90179990552, 16444.40191321396, 19064.808674431883, 20211.67668243369, 15292.616521431986, -130881.01963770624, 27326.952198380495, 38340.751926988596, 19174.958071107634, 28500.7764101954, 33084.02396250057, 41336.489181100034, 23704.829657653532, 2325.028458241041, 18301.317787327505, -0.018000000000000002, 1.018, 0.034, 192.0, 0.0, 0.0, 0.0, 0.0, 0.0, 0.0, 0.0, 0.0, 0.0, 1.696015456401314E9, 0.0, 2023-09-29 14:24:16.401
10.0, 54915.73273131046, 45198.13301541007, 16480.83525667611, 19087.62980552075, 20212.034310344974, 15287.967358585282, -130730.88297019995, 27320.604302955187, 38343.65765376778, 19182.915292133726, 28475.653049427638, 33127.65456767733, 41382.53377467797, 23718.97831189374, 2337.5901386249234, 18332.274953398104, -0.018000000000000002, 1.018, 0.034, 192.0, 0.0, 0.0, 0.0, 0.0, 0.0, 0.0, 0.0, 0.0, 0.0, 1.696015456401323E9, 0.0, 2023-09-29 14:24:16.401
12.0, 54753.54847354275, 45177.63646574455, 16452.716762151333, 19063.422866275654, 20223.81367967292, 15296.97511160077, -130896.17412044694, 27346.867602690174, 38345.33403460193, 19182.669422944717, 28517.58492202579, 33093.612860871894, 41354.594094108834, 23704.31556753106, 2333.3209554339596, 18303.083575139473, -0.02, 1.022, 0.038, 192.0, 127.5, 48.0, 15.5, 120.0, 0.5, 24.0, 0.0, 0.0, 0.0, 1.696015456401333E9, 0.0, 2023-09-29 14:24:16.401
14.0, 54922.751179069426, 45204.74913176884, 16491.005300403274, 19078.666755994174, 20213.353063267838, 15278.669032891874, -130740.47186857127, 27324.962893123975, 38348.61974103686, 19181.104800832843, 28440.203182721518, 33130.13561131187, 41387.00412356903, 23708.02595711064, 2340.9429002932193, 18330.28564814158, -0.02, 1.022, 0.038, 192.0, 0.0, 0.0, 0.0, 0.0, 0.0, 0.0, 0.0, 0.0, 0.0, 1.696015456401342E9, 0.0, 2023-09-29 14:24:16.401
16.0, 54760.16458990152, 45170.43920402994, 16439.618639900524, 19040.311162508868, 20215.61058945782, 15281.373593970966, -130873.66591378045, 27321.185448311026, 38339.63433976583, 19172.387620495276, 28561.148471969187, 33096.74210509564, 41360.405547667215, 23691.195093535793, 2326.8165977974654, 18301.94363617225, -0.02, 1.022, 0.038, 192.0, 0.0, 0.0, 0.0, 0.0, 0.0, 0.0, 0.0, 0.0, 0.0, 1.696015456461588E9, 0.0, 2023-09-29 14:24:16.461
18.0, 54906.2108881725, 45201.575184056186, 16482.958672399363, 19071.760066957482, 20200.85843811732, 15274.913939823384, -130746.75270876322, 27318.816163398766, 38337.86855195386, 19175.159236807733, 28426.546266859328, 33115.74108788265, 41368.25100997103, 23700.716936673754, 2317.339458148415, 18305.519915285102, -0.02, 1.022, 0.038, 192.0, 0.0, 0.0, 0.0, 0.0, 0.0, 0.0, 0.0, 0.0, 0.0, 1.69601545646162E9, 0.0, 2023-09-29 14:24:16.461
20.0, 54761.88567422458, 45181.45861404641, 16442.81493935763, 19042.613392187763, 20223.456051761634, 15290.806030131107, -130887.32282964264, 27329.45559375949, 38342.80828747848, 19172.164103050723, 28574.604222131282, 33099.89370106384, 41358.39389066624, 23694.12317205944, 2318.144120948806, 18298.613226248413, -0.02, 1.022, 0.038, 192.0, 0.0, 0.0, 0.0, 0.0, 0.0, 0.0, 0.0, 0.0, 0.0, 1.69601545646163E9, 0.0, 2023-09-29 14:24:16.461
22.0, 54896.55493456781, 45212.88516675057, 16490.13358236952, 19085.68520375314, 20210.89437137775, 15284.569893428075, -130786.78468308267, 27323.331215778737, 38350.4525840822, 19179.98721361008, 28386.871920451158, 33115.718736138195, 41365.926428547675, 23707.757736177176, 2330.7728565660545, 18313.611246777924, -0.022, 1.024, 0.032, 192.0, 127.5, 40.0, 16.0, 0.0, 0.5, 0.0, 0.0, 0.0, 0.0, 1.696015456461639E9, 0.0, 2023-09-29 14:24:16.461
24.0, 54775.69905229796, 45181.83859370215, 16443.61960215802, 19054.92920338264, 20222.539630238967, 15303.345358770533, -130891.25673666678, 27336.161117096082, 38351.95015096071, 19186.98330962459, 28570.871480807244, 33115.00348031562, 41366.61933262579, 23713.03274786863, 2324.424961140747, 18309.878505453886, -0.022, 1.024, 0.032, 192.0, 0.0, 0.0, 0.0, 0.0, 0.0, 0.0, 0.0, 0.0, 0.0, 1.696015456461649E9, 0.0, 2023-09-29 14:24:16.461
26.0, 54873.71145173448, 45208.146596926046, 16492.771088215242, 19098.87273298177, 20219.365682526313, 15292.281245265156, -130827.46485799133, 27334.976474639952, 38352.151316660806, 19190.51488524853, 28360.966248627457, 33118.110372794916, 41366.14994599223, 23711.11049784547, 2337.6571938582892, 18320.205011392238, -0.022, 1.024, 0.032, 192.0, 0.0, 0.0, 0.0, 0.0, 0.0, 0.0, 0.0, 0.0, 0.0, 1.696015456461658E9, 0.0, 2023-09-29 14:24:16.461
28.0, 54799.481308398405, 45167.46642201739, 16433.449558430857, 19053.945726626604, 20208.79330739895, 15283.698175394318, -130845.48036402231, 27313.228227284937, 38335.40986006378, 19168.677230915695, 28594.340812485316, 33108.40971570131, 41370.97792279458, 23704.136753575418, 2324.8719960298536, 18316.71813925721, -0.022, 1.024, 0.032, 192.0, 0.0, 0.0, 0.0, 0.0, 0.0, 0.0, 0.0, 0.0, 0.0, 1.696015456461852E9, 0.0, 2023-09-29 14:24:16.461
30.0, 54847.40344851059, 45203.20686140143, 16481.148181098484, 19093.374203845764, 20209.508563221523, 15282.491181193733, -130821.74281141078, 27319.196143054505, 38338.02501416505, 19173.1252280623, 28387.944804185012, 33094.484578905656, 41349.83317253985, 23702.84035239701, 2333.499769389602, 18305.318749585003, -0.022, 1.024, 0.032, 192.0, 0.0, 0.0, 0.0, 0.0, 0.0, 0.0, 0.0, 0.0, 0.0, 1.696015456520927E9, 0.0, 2023-09-29 14:24:16.520
32.0, 54805.628038123614, 45184.94548618144, 16445.228927758806, 19055.77856967194, 20222.740795939066, 15286.782716129152, -130831.376413271, 27323.17475356755, 38335.11928738586, 19169.526597204997, 28609.18237080364, 33112.94711982574, 41373.50366991803, 23696.35834650497, 2333.4550659006914, 18311.398424076848, -0.02, 1.022, 0.03, 192.0, 127.5, 48.0, 15.5, 120.0, 0.0, 120.0, 0.0, 0.0, 0.0, 1.696015456520952E9, 0.0, 2023-09-29 14:24:16.520
34.0, 54808.69022711399, 45209.688867293466, 16496.056794650172, 19087.58510203184, 20232.307342565935, 15292.191838287335, -130894.5424431017, 27331.958989138486, 38350.36317710438, 19183.2282165561, 28368.31997255325, 33098.77611384107, 41358.95268427762, 23705.611968709465, 2349.5483219085127, 18307.062185652518, -0.02, 1.022, 0.03, 192.0, 0.0, 0.0, 0.0, 0.0, 0.0, 0.0, 0.0, 0.0, 0.0, 1.696015456520963E9, 0.0, 2023-09-29 14:24:16.520
36.0, 54828.27035525684, 45164.00190162682, 16445.631259159, 19041.428749731633, 20213.464821990114, 15278.356108469501, -130836.45025926236, 27314.658738930077, 38335.141639130314, 19163.066943057413, 28576.61587913226, 33117.55157918353, 41384.25485900103, 23694.346689503993, 2337.0313450135404, 18318.327464857994, -0.02, 1.022, 0.03, 192.0, 0.0, 0.0, 0.0, 0.0, 0.0, 0.0, 0.0, 0.0, 0.0, 1.696015456520972E9, 0.0, 2023-09-29 14:24:16.520
38.0, 54807.662046869045, 45170.72977670786, 16474.82263741763, 19067.110904110777, 20216.05762434693, 15273.863407833984, -130870.84959397907, 27313.4964482184, 38332.39237456231, 19160.98823082307, 28385.955498928488, 33078.659543831294, 41337.36089913379, 23694.525503459634, 2328.694144331711, 18295.01459539111, -0.02, 1.022, 0.03, 192.0, 0.0, 0.0, 0.0, 0.0, 0.0, 0.0, 0.0, 0.0, 0.0, 1.696015456520981E9, 0.0, 2023-09-29 14:24:16.520
40.0, 54844.67653568704, 45150.657910187, 16437.87520383301, 19038.075988063334, 20216.772880169498, 15279.049012547615, -130789.6680581174, 27316.73745116442, 38320.94828140119, 19147.577184149886, 28610.07644058185, 33102.017116787094, 41377.48228043107, 23683.886073098907, 2321.7204000616553, 18308.403290319835, -0.02, 1.022, 0.03, 192.0, 0.0, 0.0, 0.0, 0.0, 0.0, 0.0, 0.0, 0.0, 0.0, 1.69601545652099E9, 0.0, 2023-09-29 14:24:16.520
42.0, 54780.01293897784, 45166.08061386116, 16463.043268089685, 19068.87669192275, 20218.940999381663, 15277.015003802182, -130892.08375121163, 27314.658738930077, 38339.67904325474, 19167.69375415966, 28410.989452718433, 33076.62553508586, 41341.22775092456, 23702.70624193028, 2325.0061064965853, 18291.72888895618, -0.02, 1.02, 0.032, 192.0, 127.5, 48.0, 15.5, 112.0, 0.5, 0.0, 0.0, 0.0, 0.0, 1.696015456520999E9, 0.0, 2023-09-29 14:24:16.520
44.0, 54867.20709409799, 45154.591817211134, 16438.992791055774, 19057.678467950638, 20211.028481844485, 15275.696250879319, -130771.02670324167, 27300.30891898977, 38325.06100238097, 19152.2710504855, 28590.496312439005, 33111.91893958079, 41374.93418156316, 23690.233968524215, 2314.947821491697, 18307.017482163606, -0.02, 1.02, 0.032, 192.0, 0.0, 0.0, 0.0, 0.0, 0.0, 0.0, 0.0, 0.0, 0.0, 1.696015456521009E9, 0.0, 2023-09-29 14:24:16.521
46.0, 54761.88567422458, 45148.869770630576, 16451.68858190639, 19072.743543713517, 20217.532839480977, 15282.446477704822, -130897.60463209209, 27311.775363895344, 38328.525522771546, 19157.568413921406, 28449.032121781365, 33073.563346095485, 41332.1082391868, 23687.104724300472, 2323.106208217884, 18291.415964533804, -0.02, 1.02, 0.032, 192.0, 0.0, 0.0, 0.0, 0.0, 0.0, 0.0, 0.0, 0.0, 0.0, 1.696015456580774E9, 0.0, 2023-09-29 14:24:16.580
48.0, 54865.24014058592, 45162.638445215045, 16454.817826130133, 19073.905834425193, 20215.99056911356, 15286.670957406874, -130791.41149418493, 27327.93567513653, 38328.503171027085, 19161.301155245445, 28552.252477675975, 33110.51077968011, 41379.65039964324, 23706.081355343027, 2331.912795533275, 18319.310941614025, -0.02, 1.02, 0.032, 192.0, 0.0, 0.0, 0.0, 0.0, 0.0, 0.0, 0.0, 0.0, 0.0, 1.696015456580797E9, 0.0, 2023-09-29 14:24:16.580
50.0, 54736.82936869018, 45151.797849154216, 16451.06273306164, 19074.732848970038, 20220.684435449177, 15294.40466098841, -130941.39169948002, 27338.999788641908, 38331.11832512836, 19163.871605857803, 28446.23815372445, 33072.46811061718, 41337.51736134498, 23705.50020998719, 2325.9672315081634, 18297.786211703566, -0.02, 1.02, 0.032, 192.0, 0.0, 0.0, 0.0, 0.0, 0.0, 0.0, 0.0, 0.0, 0.0, 1.696015456580843E9, 0.0, 2023-09-29 14:24:16.580
52.0, 54887.32366410776, 45159.911532391496, 16468.631204203513, 19076.0516018929, 20220.438566260167, 15278.870198591972, -130782.02376151369, 27323.286512289826, 38326.11153437037, 19167.090257059368, 28513.092221390274, 33120.99374782965, 41377.86226008681, 23706.77425942114, 2341.1887694822276, 18331.738511531177, -0.016, 1.016, 0.036000000000000004, 192.0, 127.5, 64.0, 15.5, 96.0, 0.5, 16.0, 0.0, 0.0, 0.0, 1.696015456580852E9, 0.0, 2023-09-29 14:24:16.580
54.0, 54729.430941275474, 45150.970834609376, 16445.765369625733, 19052.336401025823, 20219.119813337304, 15269.191893242823, -130952.25464728531, 27305.762744636864, 38333.68877574072, 19161.301155245445, 28477.083561072777, 33079.79948279852, 41345.25106492652, 23690.83746562451, 2328.4259233982475, 18294.075822123985, -0.016, 1.016, 0.036000000000000004, 192.0, 0.0, 0.0, 0.0, 0.0, 0.0, 0.0, 0.0, 0.0, 0.0, 1.696015456580862E9, 0.0, 2023-09-29 14:24:16.580
56.0, 54890.63172228715, 45180.810413457206, 16479.02476537523, 19069.1002093673, 20222.472575005602, 15278.601977658509, -130790.69623836235, 27324.068823345762, 38334.649900752294, 19157.568413921406, 28483.789084409367, 33112.47773319217, 41385.6183154128, 23684.333107988015, 2334.6844118457334, 18310.906685698832, -0.016, 1.016, 0.036000000000000004, 192.0, 0.0, 0.0, 0.0, 0.0, 0.0, 0.0, 0.0, 0.0, 0.0, 1.696015456580871E9, 0.0, 2023-09-29 14:24:16.580
58.0, 54730.66028722052, 45154.92709337796, 16456.985945342298, 19060.025401118448, 20236.218897845614, 15292.035376076148, -130948.56660945018, 27330.617884471165, 38334.78401121903, 19163.379867479787, 28508.7783347104, 33088.02492475807, 41358.75151857752, 23699.509942473167, 2347.5813683964457, 18308.246828108648, -0.016, 1.016, 0.036000000000000004, 192.0, 0.0, 0.0, 0.0, 0.0, 0.0, 0.0, 0.0, 0.0, 0.0, 1.696015456580881E9, 0.0, 2023-09-29 14:24:16.580
60.0, 54896.06319618979, 45182.95618092491, 16485.12679161153, 19084.00882291899, 20220.416214515713, 15277.193817757825, -130777.46400564481, 27308.959044093972, 38327.944377415704, 19166.799684381447, 28474.915441860612, 33120.92669259628, 41382.6678851447, 23698.34765176149, 2344.4074206837918, 18326.284685884082, -0.016, 1.016, 0.036000000000000004, 192.0, 0.0, 0.0, 0.0, 0.0, 0.0, 0.0, 0.0, 0.0, 0.0, 1.696015456641033E9, 0.0, 2023-09-29 14:24:16.641
62.0, 54728.916851153, 45154.99414861133, 16443.843119602578, 19059.287793551423, 20228.14991809725, 15288.526152196664, -130932.31689123118, 27321.721890177952, 38320.97063314565, 19170.577129194397, 28560.433216146615, 33096.45153241772, 41353.275341185974, 23705.857837898475, 2329.0741239874515, 18295.595740746947, -0.02, 1.018, 0.032, 192.0, 127.5, 48.0, 15.5, 104.0, 0.5, 0.0, 0.0, 0.0, 0.0, 1.696015456641058E9, 0.0, 2023-09-29 14:24:16.641
64.0, 54876.952454680504, 45186.91243969351, 16492.21229460386, 19098.850381237316, 20228.14991809725, 15289.286111508145, -130803.90611933544, 27327.779212925343, 38323.764601202565, 19186.80449566895, 28444.517069401394, 33130.60499794543, 41377.50463217552, 23716.83254442603, 2348.430734685747, 18325.949409717254, -0.02, 1.018, 0.032, 192.0, 0.0, 0.0, 0.0, 0.0, 0.0, 0.0, 0.0, 0.0, 0.0, 1.696015456641068E9, 0.0, 2023-09-29 14:24:16.641
66.0, 54722.814824916706, 45140.59962518211, 16434.500090420257, 19061.210043574578, 20218.113984836815, 15295.991634844737, -130933.88151334305, 27328.807393170286, 38315.04742086499, 19175.539216463472, 28577.778169843936, 33103.134704009855, 41352.04599524093, 23712.228085068236, 2333.0527345004957, 18315.57820028999, -0.02, 1.018, 0.032, 192.0, 0.0, 0.0, 0.0, 0.0, 0.0, 0.0, 0.0, 0.0, 0.0, 1.696015456641077E9, 0.0, 2023-09-29 14:24:16.641
68.0, 54850.108009589676, 45165.924151649975, 16484.88092242252, 19100.705576027107, 20219.008054615028, 15295.522248211177, -130830.75056442626, 27332.16015483858, 38314.37686853133, 19174.064001329425, 28413.783420775348, 33117.663337905804, 41366.75344309252, 23718.374814793446, 2336.8078275689877, 18332.565526076025, -0.02, 1.018, 0.032, 192.0, 0.0, 0.0, 0.0, 0.0, 0.0, 0.0, 0.0, 0.0, 0.0, 1.696015456641085E9, 0.0, 2023-09-29 14:24:16.641
70.0, 54716.31046728021, 45112.88346205753, 16430.946163051864, 19065.076895365346, 20228.015807630516, 15302.630102947964, -130931.42282145296, 27337.904553163597, 38297.79187414549, 19165.88326285878, 28576.7946930879, 33099.06668651899, 41355.97990226506, 23714.105631602484, 2329.655269343289, 18321.791985248565, -0.02, 1.018, 0.032, 192.0, 0.0, 0.0, 0.0, 0.0, 0.0, 0.0, 0.0, 0.0, 0.0, 1.696015456641094E9, 0.0, 2023-09-29 14:24:16.641
72.0, 54814.47932892792, 45137.336270491636, 16482.154009598973, 19098.91743647068, 20226.250019818548, 15289.21905627478, -130851.18005885842, 27338.41864328607, 38296.406065989264, 19160.652954656238, 28384.323821583253, 33096.65269811782, 41353.275341185974, 23704.98611986472, 2344.943862550719, 18333.727816787698, -0.014, 1.014, 0.036000000000000004, 192.0, 127.5, 72.0, 15.5, 88.0, 0.5, 16.0, 0.0, 0.0, 0.0, 1.696015456641142E9, 0.0, 2023-09-29 14:24:16.641
74.0, 54711.72835966687, 45100.67940958493, 16429.158023495438, 19058.77370342895, 20221.511449994025, 15294.091736566037, -130911.59682412111, 27333.680073461543, 38280.87160359283, 19148.001867294537, 28597.47005670906, 33089.857767803405, 41355.309349931405, 23707.78008792163, 2342.7086881051887, 18328.229287651695, -0.014, 1.014, 0.036000000000000004, 192.0, 0.0, 0.0, 0.0, 0.0, 0.0, 0.0, 0.0, 0.0, 0.0, 1.696015456641151E9, 0.0, 2023-09-29 14:24:16.641
76.0, 54778.8282965217, 45124.57342440765, 16477.30368105217, 19090.87080846677, 20218.04692960345, 15285.128687039458, -130881.4443208509, 27318.59264595421, 38285.34195248389, 19158.84246335536, 28385.396705317107, 33088.49431139163, 41345.56398934889, 23716.854896170487, 2342.1275427493506, 18318.975665447197, -0.014, 1.014, 0.036000000000000004, 192.0, 0.0, 0.0, 0.0, 0.0, 0.0, 0.0, 0.0, 0.0, 0.0, 1.696015456701263E9, 0.0, 2023-09-29 14:24:16.701
78.0, 54708.55441195422, 45093.61625833705, 16434.522442164714, 19050.704723680585, 20227.85934541933, 15289.26375976369, -130933.81445810969, 27320.11256457717, 38285.63252516181, 19149.365323706308, 28592.61972816226, 33095.06572426149, 41364.29475120244, 23703.197980308294, 2331.4434088997136, 18309.58793277597, -0.014, 1.014, 0.036000000000000004, 192.0, 0.0, 0.0, 0.0, 0.0, 0.0, 0.0, 0.0, 0.0, 0.0, 1.69601545670129E9, 0.0, 2023-09-29 14:24:16.701
80.0, 54755.515427054816, 45113.33049694663, 16482.31047181016, 19084.612320019285, 20219.05275810394, 15278.221998002768, -130926.3042719727, 27316.893913375607, 38298.70829566816, 19153.209823752622, 28356.250030547388, 33088.33784918045, 41351.84482954083, 23705.16493382036, 2339.780609581543, 18304.558790273524, -0.014, 1.014, 0.036000000000000004, 192.0, 0.0, 0.0, 0.0, 0.0, 0.0, 0.0, 0.0, 0.0, 0.0, 1.6960154567013E9, 0.0, 2023-09-29 14:24:16.701
82.0, 54747.60290951764, 45094.890307771006, 16439.842157345076, 19054.01278185997, 20221.220877316104, 15284.16756202788, -130903.7513618173, 27320.984282610927, 38289.09704555238, 19145.07378877089, 28598.56529218737, 33103.134704009855, 41369.56976289389, 23700.6945849293, 2324.6261268408452, 18309.409118820324, -0.016, 1.014, 0.038, 192.0, 127.5, 64.0, 15.5, 88.0, 0.5, 24.0, 0.0, 0.0, 0.0, 1.696015456701309E9, 0.0, 2023-09-29 14:24:16.701
84.0, 54750.95567118593, 45126.652136642, 16472.274538549726, 19087.62980552075, 20217.644598203256, 15286.22392251777, -130933.6579958985, 27325.40992801308, 38296.80839738946, 19153.612155152816, 28393.130408898644, 33085.0074392566, 41341.13834394674, 23708.942378633306, 2323.083856473429, 18303.351796072937, -0.016, 1.014, 0.038, 192.0, 0.0, 0.0, 0.0, 0.0, 0.0, 0.0, 0.0, 0.0, 0.0, 1.696015456701318E9, 0.0, 2023-09-29 14:24:16.701
86.0, 54785.66793032503, 45129.490808187824, 16434.522442164714, 19052.939898126115, 20221.690263949666, 15286.067460306582, -130860.72425374083, 27319.531419221334, 38291.33221999791, 19145.207899237623, 28615.396155762217, 33110.89075933585, 41375.53767866346, 23700.806343651577, 2320.0663709719624, 18317.411043335323, -0.016, 1.014, 0.038, 192.0, 0.0, 0.0, 0.0, 0.0, 0.0, 0.0, 0.0, 0.0, 0.0, 1.696015456701327E9, 0.0, 2023-09-29 14:24:16.701
88.0, 54738.99748790234, 45149.27210203077, 16471.64868970498, 19091.474305567062, 20237.269429835014, 15297.26568427869, -130954.24395254183, 27338.17277409706, 38308.31954578395, 19160.9211755897, 28410.698880040512, 33085.32036367898, 41345.295768415424, 23720.095899116506, 2333.790342067521, 18308.112717641918, -0.016, 1.014, 0.038, 192.0, 0.0, 0.0, 0.0, 0.0, 0.0, 0.0, 0.0, 0.0, 0.0, 1.696015456701336E9, 0.0, 2023-09-29 14:24:16.701
90.0, 54811.77476784882, 45133.15649427849, 16447.7323231378, 19067.267366321965, 20228.32873205289, 15292.50476270971, -130855.96333217184, 27325.36522452417, 38297.47894972312, 19157.45665519913, 28596.7995043754, 33114.9140733378, 41385.1712805237, 23714.575018236046, 2335.757295579588, 18332.789043520577, -0.016, 1.014, 0.038, 192.0, 0.0, 0.0, 0.0, 0.0, 0.0, 0.0, 0.0, 0.0, 0.0, 1.696015456761579E9, 0.0, 2023-09-29 14:24:16.761
92.0, 54723.37361852809, 45145.6064159401, 16473.21331181685, 19092.59189278983, 20241.180985114694, 15298.02564359017, -130987.16807212449, 27337.681035719044, 38310.48766499611, 19166.106780303333, 28422.344138901728, 33086.72852357966, 41342.52415210297, 23729.282466087636, 2336.338440935426, 18314.214743878216, -0.018000000000000002, 1.018, 0.036000000000000004, 192.0, 127.5, 56.0, 15.5, 104.0, 0.5, 16.0, 0.0, 0.0, 0.0, 1.696015456761618E9, 0.0, 2023-09-29 14:24:16.761
94.0, 54842.419009497055, 45145.11467756208, 16458.125884309517, 19073.995241403012, 20224.953618640142, 15287.274454507167, -130834.79623017267, 27325.16405882407, 38298.70829566816, 19155.333239475876, 28578.80635008888, 33122.8712943639, 41379.13630952076, 23712.943340890808, 2339.981775281641, 18335.940639488774, -0.018000000000000002, 1.018, 0.036000000000000004, 192.0, 0.0, 0.0, 0.0, 0.0, 0.0, 0.0, 0.0, 0.0, 0.0, 1.696015456761691E9, 0.0, 2023-09-29 14:24:16.761
96.0, 54721.92075513849, 45143.12537230556, 16465.81488440214, 19083.29356709642, 20231.14505185426, 15296.416317989388, -130985.91637443501, 27326.63927395812, 38313.23692956411, 19166.64322217026, 28464.477177199984, 33087.622593357875, 41334.58928282133, 23729.37187306546, 2336.0031647685964, 18307.263351352616, -0.018000000000000002, 1.018, 0.036000000000000004, 192.0, 0.0, 0.0, 0.0, 0.0, 0.0, 0.0, 0.0, 0.0, 0.0, 1.696015456761706E9, 0.0, 2023-09-29 14:24:16.761
98.0, 54866.58124525324, 45151.77549740976, 16471.514579238246, 19074.531683269943, 20222.18200232768, 15286.715660895785, -130830.5270469817, 27326.281646046835, 38310.398258018286, 19157.50135868804, 28553.392416643193, 33126.84990487694, 41378.73397812057, 23721.97344565075, 2334.0362112565294, 18334.085444698983, -0.018000000000000002, 1.018, 0.036000000000000004, 192.0, 0.0, 0.0, 0.0, 0.0, 0.0, 0.0, 0.0, 0.0, 0.0, 1.696015456761721E9, 0.0, 2023-09-29 14:24:16.761
100.0, 54717.137481825055, 45150.03206134225, 16462.886805878497, 19066.82033143286, 20234.90014492275, 15293.532942954655, -131004.78124675529, 27320.447840744, 38318.71310695566, 19162.79872212395, 28495.054363614843, 33081.98995375514, 41349.989634751044, 23733.5516492786, 2329.8117315544764, 18303.24003735066, -0.018000000000000002, 1.018, 0.036000000000000004, 192.0, 0.0, 0.0, 0.0, 0.0, 0.0, 0.0, 0.0, 0.0, 0.0, 1.696015456761734E9, 0.0, 2023-09-29 14:24:16.761
102.0, 54871.87860868915, 45172.137936608546, 16486.892579423496, 19074.911662925682, 20236.62122924581, 15292.996501087726, -130855.80686996067, 27334.01534962837, 38322.80347619099, 19171.158274550235, 28511.46054404504, 33130.38148050087, 41389.93220209268, 23731.294123088614, 2339.8029613259987, 18333.48194759869, -0.016, 1.02, 0.034, 192.0, 127.5, 64.0, 15.5, 112.0, 0.5, 8.0, 0.0, 0.0, 0.0, 1.696015456761747E9, 0.0, 2023-09-29 14:24:16.761
104.0, 54723.46302550591, 45152.624863699064, 16455.7342476528, 19059.64542146271, 20230.094519864862, 15296.55042845612, -131007.26229038982, 27334.88706766213, 38328.3467088159, 19169.1242658048, 28509.270073088417, 33097.345602195935, 41356.24812319853, 23729.818907954563, 2334.1256182343504, 18308.649159508845, -0.016, 1.02, 0.034, 192.0, 0.0, 0.0, 0.0, 0.0, 0.0, 0.0, 0.0, 0.0, 0.0, 1.696015456761761E9, 0.0, 2023-09-29 14:24:16.761
106.0, 54885.91550420708, 45174.730738965365, 16473.727401939323, 19068.92139541166, 20221.086766849374, 15286.067460306582, -130840.45122151986, 27321.096041333207, 38318.802513933486, 19162.84342561286, 28503.682136974592, 33126.29111126556, 41379.069254287395, 23726.644960241912, 2328.5376821205236, 18326.888182984374, -0.016, 1.02, 0.034, 192.0, 0.0, 0.0, 0.0, 0.0, 0.0, 0.0, 0.0, 0.0, 0.0, 1.696015456820974E9, 0.0, 2023-09-29 14:24:16.820
108.0, 54729.430941275474, 45143.14772405002, 16438.97043931132, 19048.648363190696, 20222.874906405796, 15296.952759856316, -131000.6238222866, 27322.7500704229, 38323.45167678019, 19168.99015533807, 28545.189326428095, 33097.27854696257, 41344.49110561504, 23730.712977732775, 2320.491054116613, 18304.894066440353, -0.016, 1.02, 0.034, 192.0, 0.0, 0.0, 0.0, 0.0, 0.0, 0.0, 0.0, 0.0, 0.0, 1.696015456821003E9, 0.0, 2023-09-29 14:24:16.821
110.0, 54896.040844445335, 45171.53443950826, 16469.92760538192, 19070.016630889968, 20210.84966788884, 15278.199646258314, -130825.90023587945, 27308.824933627242, 38312.365211530356, 19162.150521534746, 28491.031049612888, 33123.38538448636, 41361.299617445424, 23734.780995223642, 2323.240318684616, 18323.982456205184, -0.016, 1.02, 0.034, 192.0, 0.0, 0.0, 0.0, 0.0, 0.0, 0.0, 0.0, 0.0, 0.0, 1.696015456821013E9, 0.0, 2023-09-29 14:24:16.821
112.0, 54729.47564476438, 45154.99414861133, 16428.979209539797, 19044.80386314438, 20223.076072105894, 15296.97511160077, -130975.52281326329, 27324.202933812492, 38313.79572317549, 19163.84925411335, 28611.9539871161, 33096.31742195099, 41339.216093923584, 23729.953018421296, 2314.2549174135825, 18300.602531504934, -0.018000000000000002, 1.022, 0.034, 192.0, 127.5, 56.0, 15.5, 120.0, 0.5, 8.0, 0.0, 0.0, 0.0, 1.696015456821022E9, 0.0, 2023-09-29 14:24:16.821
114.0, 54871.58803601123, 45193.103872907624, 16481.796381687687, 19083.382974074244, 20217.04110110296, 15285.910998095394, -130876.14695741498, 27315.12812556364, 38326.80443844848, 19175.025126341003, 28450.261467726406, 33123.74301239765, 41363.66890235769, 23743.207602883293, 2326.8613012863757, 18322.373130604403, -0.018000000000000002, 1.022, 0.034, 192.0, 0.0, 0.0, 0.0, 0.0, 0.0, 0.0, 0.0, 0.0, 0.0, 1.696015456821032E9, 0.0, 2023-09-29 14:24:16.821
116.0, 54736.49409252335, 45160.31386379169, 16436.64585788797, 19049.922412624648, 20224.86421166232, 15294.292902266134, -131006.70349677844, 27327.06395710277, 38322.6470139798, 19167.917271604216, 28598.677050909646, 33108.230901745665, 41350.213152195596, 23737.016169669172, 2314.8137110249654, 18305.38580481837, -0.018000000000000002, 1.022, 0.034, 192.0, 0.0, 0.0, 0.0, 0.0, 0.0, 0.0, 0.0, 0.0, 0.0, 1.696015456821084E9, 0.0, 2023-09-29 14:24:16.821
118.0, 54865.70952721948, 45195.137881653056, 16500.013053418763, 19093.418907334675, 20228.418139030713, 15279.719564881274, -130921.02926028124, 27329.99203562642, 38331.90063618429, 19175.852140885847, 28404.865074737678, 33126.60403568793, 41366.03818726995, 23737.574963280556, 2334.3491356789036, 18320.29441837006, -0.018000000000000002, 1.022, 0.034, 192.0, 0.0, 0.0, 0.0, 0.0, 0.0, 0.0, 0.0, 0.0, 0.0, 1.696015456821094E9, 0.0, 2023-09-29 14:24:16.821
120.0, 54771.83220050719, 45156.961102123394, 16443.21727075783, 19047.709589923572, 20219.29862729295, 15283.385250971944, -130982.42950229997, 27312.624730184645, 38319.94245290071, 19165.100951802844, 28611.9539871161, 33118.98209082867, 41359.17620172217, 23732.79168996712, 2322.2344901841275, 18314.818240978508, -0.018000000000000002, 1.022, 0.034, 192.0, 0.0, 0.0, 0.0, 0.0, 0.0, 0.0, 0.0, 0.0, 0.0, 1.696015456880805E9, 0.0, 2023-09-29 14:24:16.880
122.0, 54873.91261743458, 45194.780253741774, 16501.01888191925, 19088.613282276783, 20224.685397706675, 15288.369689985479, -130909.2498909533, 27323.890009390117, 38328.078487882434, 19173.684021673682, 28423.752298802414, 33121.999576330134, 41357.56687612139, 23736.12209989096, 2332.493940889113, 18321.27789512609, -0.016, 1.022, 0.032, 192.0, 127.5, 64.0, 15.5, 120.0, 0.5, 0.0, 0.0, 0.0, 0.0, 1.69601545688084E9, 0.0, 2023-09-29 14:24:16.880
124.0, 54801.582372377205, 45173.92607616497, 16446.950012081863, 19056.270308049956, 20222.405519772234, 15300.372576757978, -130951.58409495166, 27332.540134494324, 38327.4973425266, 19176.768562408517, 28652.410644580206, 33124.257102520125, 41366.79814658143, 23745.08514941754, 2326.436618141725, 18325.100043427952, -0.016, 1.022, 0.032, 192.0, 0.0, 0.0, 0.0, 0.0, 0.0, 0.0, 0.0, 0.0, 0.0, 1.69601545688085E9, 0.0, 2023-09-29 14:24:16.880
126.0, 54859.406335283085, 45219.14365519806, 16504.393995332004, 19106.44997435212, 20229.58042974239, 15310.721434440786, -130951.18176355146, 27332.204858327492, 38350.676101526755, 19202.56247550994, 28417.985548732944, 33132.46019273522, 41357.76804182149, 23775.79644629913, 2338.730077592144, 18332.744340031666, -0.016, 1.022, 0.032, 192.0, 0.0, 0.0, 0.0, 0.0, 0.0, 0.0, 0.0, 0.0, 0.0, 1.696015456880859E9, 0.0, 2023-09-29 14:24:16.880
128.0, 54823.956468576966, 45189.818166472694, 16451.800340628666, 19063.24405232001, 20220.28210404898, 15310.162640829401, -130963.49757474633, 27322.83947740072, 38346.2504561246, 19200.506115020053, 28639.62544675177, 33152.73322495618, 41376.25293448602, 23768.174501439873, 2330.7058013326887, 18344.188433192783, -0.016, 1.022, 0.032, 192.0, 0.0, 0.0, 0.0, 0.0, 0.0, 0.0, 0.0, 0.0, 0.0, 1.696015456880867E9, 0.0, 2023-09-29 14:24:16.880
130.0, 54839.08859957321, 45189.99698042834, 16494.02278590474, 19096.548151558418, 20221.176173827193, 15293.331777254556, -130978.3167813202, 27323.420622756556, 38346.36221484688, 19199.299120819465, 28401.71347876948, 33131.856695634924, 41343.060593969894, 23764.55351883811, 2337.2548624580936, 18332.81139526503, -0.016, 1.022, 0.032, 192.0, 0.0, 0.0, 0.0, 0.0, 0.0, 0.0, 0.0, 0.0, 0.0, 1.696015456880876E9, 0.0, 2023-09-29 14:24:16.880
132.0, 54835.80289313828, 45162.23611381485, 16447.77702662671, 19055.756217927483, 20221.645560460754, 15290.336643497545, -130933.03214705375, 27323.264160545372, 38321.3953162903, 19173.862835629327, 28647.381502077762, 33142.630236462384, 41369.05567277142, 23740.480690059747, 2331.2869466885268, 18339.606325579443, -0.018000000000000002, 1.022, 0.034, 192.0, 127.5, 56.0, 15.5, 120.0, 0.5, 8.0, 0.0, 0.0, 0.0, 1.696015456880885E9, 0.0, 2023-09-29 14:24:16.880
134.0, 54810.21014573696, 45170.819183685686, 16481.6399194765, 19086.31105259789, 20212.23547604507, 15281.351242226512, -130991.88429020457, 27319.21849479896, 38335.856894952885, 19187.542103235974, 28425.518086614382, 33116.41164021631, 41341.20539918011, 23750.22605064226, 2333.3433071784148, 18319.8250317365, -0.018000000000000002, 1.022, 0.034, 192.0, 0.0, 0.0, 0.0, 0.0, 0.0, 0.0, 0.0, 0.0, 0.0, 1.696015456880894E9, 0.0, 2023-09-29 14:24:16.880
136.0, 54859.76396319437, 45156.42466025647, 16452.69441040688, 19058.505482495486, 20214.269484790504, 15284.279320750156, -130900.55506236019, 27323.688843690023, 38321.1941505902, 19175.248643785555, 28648.923772445178, 33139.9703788722, 41373.57072515139, 23729.058948643084, 2324.536719863024, 18335.135976688383, -0.018000000000000002, 1.022, 0.034, 192.0, 0.0, 0.0, 0.0, 0.0, 0.0, 0.0, 0.0, 0.0, 0.0, 1.696015456941105E9, 0.0, 2023-09-29 14:24:16.941
138.0, 54791.658197839046, 45171.91441916399, 16481.282291565214, 19085.55109328641, 20227.38995878577, 15289.353166741512, -131002.41196184301, 27328.002730369895, 38334.35932807438, 19188.145600336265, 28470.15452029163, 33118.78092512857, 41335.595111321825, 23749.488443075235, 2331.5104641330795, 18318.729796258187, -0.018000000000000002, 1.022, 0.034, 192.0, 0.0, 0.0, 0.0, 0.0, 0.0, 0.0, 0.0, 0.0, 0.0, 1.696015456941131E9, 0.0, 2023-09-29 14:24:16.941
140.0, 54870.35869006618, 45165.2088958274, 16469.637032704002, 19067.82615993335, 20223.00901687253, 15287.45326846281, -130918.90584455799, 27324.18058206804, 38337.041537409015, 19189.84433291487, 28609.495295226014, 33158.857602936936, 41380.85739384382, 23748.79553899712, 2345.1226765063616, 18339.226345923704, -0.018000000000000002, 1.022, 0.034, 192.0, 0.0, 0.0, 0.0, 0.0, 0.0, 0.0, 0.0, 0.0, 0.0, 1.696015456941198E9, 0.0, 2023-09-29 14:24:16.941
142.0, 54765.14902891505, 45167.868753417584, 16473.8391606616, 19064.38399128723, 20228.82047043091, 15285.016928317182, -131041.63927336209, 27311.149515050594, 38335.27574959704, 19183.630547956294, 28474.803683138336, 33112.90241633683, 41337.13738168924, 23748.817890741575, 2336.6066618688897, 18312.784232233076, -0.02, 1.02, 0.032, 192.0, 127.5, 48.0, 15.5, 112.0, 0.5, 0.0, 0.0, 0.0, 0.0, 1.696015456941209E9, 0.0, 2023-09-29 14:24:16.941
144.0, 54882.607446027694, 45177.05532038872, 16472.274538549726, 19054.504520237984, 20218.91864763721, 15287.162695784891, -130910.7027543429, 27321.654834944587, 38330.02308965005, 19176.477989730596, 28587.70234438209, 33148.12876559839, 41374.21892574059, 23740.27952435965, 2338.305394447493, 18333.280781898593, -0.02, 1.02, 0.032, 192.0, 0.0, 0.0, 0.0, 0.0, 0.0, 0.0, 0.0, 0.0, 0.0, 1.696015456941219E9, 0.0, 2023-09-29 14:24:16.941
146.0, 54750.64274676356, 45162.30316904822, 16464.943166368386, 19055.398590016197, 20219.231572059583, 15288.59320743003, -131063.29811373928, 27321.967759366962, 38338.226179865145, 19185.88807414628, 28495.322584548307, 33113.12593378138, 41334.90220724371, 23750.65073378691, 2332.2927751890156, 18309.252656609136, -0.02, 1.02, 0.032, 192.0, 0.0, 0.0, 0.0, 0.0, 0.0, 0.0, 0.0, 0.0, 0.0, 1.696015456941228E9, 0.0, 2023-09-29 14:24:16.941
148.0, 54896.35376886771, 45166.684110961454, 16469.413515259446, 19056.605584216784, 20206.602836442333, 15277.864370091484, -130905.31598392916, 27306.25448301488, 38329.486647783124, 19178.243777542564, 28554.37589339923, 33154.20844009023, 41371.447309428135, 23747.834413985544, 2336.137275235328, 18334.19720342126, -0.02, 1.02, 0.032, 192.0, 0.0, 0.0, 0.0, 0.0, 0.0, 0.0, 0.0, 0.0, 0.0, 1.696015456941237E9, 0.0, 2023-09-29 14:24:16.941
150.0, 54729.520348253296, 45152.31193927669, 16440.91504107893, 19044.915621866658, 20216.23643830257, 15288.302634752112, -131089.94139313, 27321.78894541132, 38325.82096169245, 19183.004699111545, 28523.463430817537, 33102.88883482085, 41324.93332921664, 23740.726559248753, 2320.245184927605, 18305.028176907086, -0.02, 1.02, 0.032, 192.0, 0.0, 0.0, 0.0, 0.0, 0.0, 0.0, 0.0, 0.0, 0.0, 1.69601545700149E9, 0.0, 2023-09-29 14:24:17.001
152.0, 54908.08843470674, 45163.64427371553, 16469.949957126377, 19055.800921416394, 20207.251037031536, 15269.326003709557, -130898.92338501495, 27318.302073276293, 38325.32922331443, 19182.580015966894, 28522.74817499497, 33138.74103292716, 41365.434690169655, 23751.902431476406, 2335.7349438351325, 18334.733645288186, -0.022, 1.016, 0.036000000000000004, 192.0, 127.5, 40.0, 15.5, 96.0, 0.5, 16.0, 0.0, 0.0, 0.0, 1.696015457001513E9, 0.0, 2023-09-29 14:24:17.001
154.0, 54731.06261862071, 45132.59770066711, 16442.6808288909, 19039.975886342036, 20220.639731960266, 15284.16756202788, -131070.67418940953, 27324.247637301403, 38326.49151402611, 19167.380829737285, 28575.18536748712, 33098.08320976296, 41327.10144842881, 23741.866498215975, 2331.0410774995185, 18311.599589776946, -0.022, 1.016, 0.036000000000000004, 192.0, 0.0, 0.0, 0.0, 0.0, 0.0, 0.0, 0.0, 0.0, 0.0, 1.696015457001524E9, 0.0, 2023-09-29 14:24:17.001
156.0, 54900.354731125204, 45157.69870969042, 16479.22593107533, 19057.700819695096, 20211.65433068923, 15264.185102484835, -130901.8514635386, 27308.15438129358, 38324.30104306949, 19158.596594166353, 28518.65780575965, 33132.41548924631, 41368.07219601538, 23736.904410946896, 2342.731039849644, 18335.158328432837, -0.022, 1.016, 0.036000000000000004, 192.0, 0.0, 0.0, 0.0, 0.0, 0.0, 0.0, 0.0, 0.0, 0.0, 1.696015457001533E9, 0.0, 2023-09-29 14:24:17.001
158.0, 54734.92947041148, 45127.63561339803, 16440.53506142319, 19030.61050541526, 20219.499792993047, 15272.656413633396, -131059.14068927059, 27316.536285464324, 38326.625624492845, 19153.813320852914, 28612.95981561659, 33098.64200337434, 41342.18887593614, 23736.07739640205, 2324.670830329756, 18302.591836761458, -0.022, 1.016, 0.036000000000000004, 192.0, 0.0, 0.0, 0.0, 0.0, 0.0, 0.0, 0.0, 0.0, 0.0, 1.696015457001543E9, 0.0, 2023-09-29 14:24:17.001
160.0, 54883.85914371719, 45157.385785268045, 16488.859532935563, 19055.219776060556, 20213.353063267838, 15260.608823371986, -130937.4577924559, 27304.488695202912, 38336.549799030996, 19161.03293431198, 28495.21082582603, 33132.639006690864, 41368.83215532686, 23740.7042075043, 2336.2937374465155, 18319.132127658384, -0.022, 1.016, 0.036000000000000004, 192.0, 0.0, 0.0, 0.0, 0.0, 0.0, 0.0, 0.0, 0.0, 0.0, 1.696015457001551E9, 0.0, 2023-09-29 14:24:17.001
162.0, 54750.8215607192, 45112.88346205753, 16446.12299753702, 19017.42297618663, 20215.364720268815, 15263.82747457355, -131047.92011355402, 27300.823009112242, 38336.907426942285, 19152.51691967451, 28635.043339138432, 33116.07636404948, 41364.875896558275, 23726.712015475277, 2324.6037750963897, 18304.558790273524, -0.024, 1.018, 0.042, 192.0, 127.5, 32.0, 15.5, 104.0, 0.5, 40.0, 0.0, 0.0, 0.0, 1.696015457001597E9, 0.0, 2023-09-29 14:24:17.001
164.0, 54883.21094312799, 45144.108849061595, 16498.157858628972, 19064.227529076044, 20218.583371470377, 15258.999497771205, -130942.77750763626, 27316.31276801977, 38343.65765376778, 19160.474140700597, 28483.54321522036, 33132.10256482394, 41380.27624848798, 23729.46128004328, 2337.8807113028424, 18313.00774967763, -0.024, 1.018, 0.042, 192.0, 0.0, 0.0, 0.0, 0.0, 0.0, 0.0, 0.0, 0.0, 0.0, 1.696015457001607E9, 0.0, 2023-09-29 14:24:17.001
166.0, 54752.67675550899, 45112.570537635154, 16442.949049824365, 19036.421958973642, 20225.579467484888, 15273.97516655626, -131053.17277350102, 27321.54307622231, 38339.03084266554, 19157.568413921406, 28663.58651680786, 33114.84701810444, 41372.83311758436, 23717.145468848405, 2337.0089932690853, 18300.6695867383, -0.024, 1.018, 0.042, 192.0, 0.0, 0.0, 0.0, 0.0, 0.0, 0.0, 0.0, 0.0, 0.0, 1.696015457061691E9, 0.0, 2023-09-29 14:24:17.061
168.0, 54862.17795159554, 45151.77549740976, 16493.35223357108, 19082.757125229495, 20214.56005746842, 15268.901320564906, -130981.9154121775, 27318.16796280956, 38346.339863102425, 19174.153408307244, 28459.49273818645, 33124.45826822022, 41368.85450707132, 23730.26594284367, 2343.468647416669, 18315.175868889793, -0.024, 1.018, 0.042, 192.0, 0.0, 0.0, 0.0, 0.0, 0.0, 0.0, 0.0, 0.0, 0.0, 1.696015457061725E9, 0.0, 2023-09-29 14:24:17.061
170.0, 54774.402651119555, 45129.46845644337, 16439.618639900524, 19048.894232379705, 20215.09649933535, 15273.25991073369, -131041.95219778446, 27310.88129411713, 38337.55562753149, 19173.08052457339, 28668.123920932285, 33113.99765181514, 41369.23448672706, 23716.07258511455, 2330.303469932493, 18306.034005407575, -0.024, 1.018, 0.042, 192.0, 0.0, 0.0, 0.0, 0.0, 0.0, 0.0, 0.0, 0.0, 0.0, 1.696015457061739E9, 0.0, 2023-09-29 14:24:17.061
172.0, 54848.65514620008, 45160.20210506942, 16488.83718119111, 19092.703651512107, 20221.511449994025, 15271.896454321917, -131000.53441530878, 27322.012462855873, 38338.60615952089, 19179.808399654437, 28449.94854330403, 33105.88396857786, 41354.102355730814, 23711.51282924567, 2338.41715316977, 18306.05635715203, -0.03, 1.02, 0.044, 192.0, 127.5, 8.0, 15.5, 112.0, 0.5, 48.0, 0.0, 0.0, 0.0, 1.696015457061749E9, 0.0, 2023-09-29 14:24:17.061
174.0, 54788.66306408204, 45124.57342440765, 16442.278497490704, 19066.9991453885, 20226.652351218745, 15283.876989349961, -131038.71119483844, 27325.566390224267, 38335.074583896945, 19173.214635040124, 28665.888746486755, 33109.86257909091, 41373.10133851783, 23699.487590728713, 2338.1936357252166, 18310.347892087448, -0.03, 1.02, 0.044, 192.0, 0.0, 0.0, 0.0, 0.0, 0.0, 0.0, 0.0, 0.0, 0.0, 1.696015457061759E9, 0.0, 2023-09-29 14:24:17.061
176.0, 54833.32184950374, 45148.22157004137, 16484.72446021133, 19107.947541230624, 20221.422043016202, 15274.31044272309, -131021.76857254132, 27324.337044279226, 38337.44386880921, 19178.310832775933, 28446.036988024356, 33095.60216612842, 41359.511477889, 23700.15814306237, 2337.9701182806634, 18312.71717699971, -0.03, 1.02, 0.044, 192.0, 0.0, 0.0, 0.0, 0.0, 0.0, 0.0, 0.0, 0.0, 0.0, 1.696015457061768E9, 0.0, 2023-09-29 14:24:17.061
178.0, 54815.95454406197, 45125.48984593032, 16440.289192234184, 19078.48794203853, 20216.43760400267, 15273.841056089528, -131006.01059270032, 27314.815201141264, 38328.30200532699, 19175.248643785555, 28677.71281930361, 33109.81787560199, 41386.73590263556, 23693.474971470234, 2325.050809985496, 18313.05245316654, -0.03, 1.02, 0.044, 192.0, 0.0, 0.0, 0.0, 0.0, 0.0, 0.0, 0.0, 0.0, 0.0, 1.696015457061777E9, 0.0, 2023-09-29 14:24:17.061
180.0, 54807.952619546966, 45154.524761977766, 16487.630186990522, 19120.39746289223, 20231.18975534317, 15281.328890482057, -131054.24565723487, 27334.864715917676, 38338.382642076336, 19188.70439394765, 28455.759996862413, 33096.83151207346, 41356.985730765555, 23701.387489007415, 2330.951670521697, 18304.938769929264, -0.03, 1.02, 0.044, 192.0, 0.0, 0.0, 0.0, 0.0, 0.0, 0.0, 0.0, 0.0, 0.0, 1.696015457121177E9, 0.0, 2023-09-29 14:24:17.121
182.0, 54836.02641058283, 45145.53936070673, 16451.956802839853, 19083.24886360751, 20225.266543062513, 15276.053878790604, -130999.95326995294, 27316.35747150868, 38331.31949082846, 19179.294309531964, 28666.58165056487, 33123.832419375474, 41390.49099570406, 23695.777201149132, 2329.36469666537, 18315.019406678606, -0.028, 1.014, 0.046, 192.0, 127.5, 16.0, 15.5, 88.0, 0.5, 56.0, 0.0, 0.0, 0.0, 1.696015457121206E9, 0.0, 2023-09-29 14:24:17.121
184.0, 54783.209238434945, 45160.22445681387, 16480.5893874871, 19110.3615296318, 20233.737854211075, 15281.150076526414, -131105.6546694821, 27321.40896575558, 38342.92004620076, 19190.76075443754, 28456.274086984886, 33092.76349458259, 41358.237428455046, 23703.06386984156, 2325.766065808066, 18293.449973279236, -0.028, 1.014, 0.046, 192.0, 0.0, 0.0, 0.0, 0.0, 0.0, 0.0, 0.0, 0.0, 0.0, 1.69601545712125E9, 0.0, 2023-09-29 14:24:17.121
186.0, 54869.93400692153, 45141.49369496032, 16451.420360972927, 19079.851398450304, 20216.527010980488, 15269.728335109752, -130989.35854308112, 27313.988186596416, 38333.30879608498, 19182.535312477983, 28630.081251869353, 33125.79937288754, 41396.23539402907, 23694.905483115373, 2324.2237954406496, 18313.5218398001, -0.028, 1.014, 0.046, 192.0, 0.0, 0.0, 0.0, 0.0, 0.0, 0.0, 0.0, 0.0, 0.0, 1.69601545712126E9, 0.0, 2023-09-29 14:24:17.121
188.0, 54783.52216285732, 45133.201197767405, 16462.328012267117, 19089.797924732917, 20214.20242955714, 15264.319212951568, -131089.06967509625, 27303.84049461371, 38334.448735052196, 19182.423553755707, 28484.370229765205, 33083.576927611466, 41344.91578875969, 23688.043497567596, 2311.952687734686, 18283.57050222999, -0.028, 1.014, 0.046, 192.0, 0.0, 0.0, 0.0, 0.0, 0.0, 0.0, 0.0, 0.0, 0.0, 1.69601545712127E9, 0.0, 2023-09-29 14:24:17.121
190.0, 54880.931065193545, 45131.27894774425, 16449.6322214165, 19079.002032161003, 20213.509525479025, 15266.017945530171, -130970.02428412728, 27304.555750436277, 38324.032822136025, 19172.275861773, 28643.38053982026, 33117.35041348343, 41376.11882401929, 23676.085314284006, 2305.895364987298, 18300.311958827016, -0.028, 1.014, 0.046, 192.0, 0.0, 0.0, 0.0, 0.0, 0.0, 0.0, 0.0, 0.0, 0.0, 1.69601545712128E9, 0.0, 2023-09-29 14:24:17.121
192.0, 54759.67285152351, 45130.87661634405, 16453.342610996082, 19092.837761978837, 20218.181040070183, 15273.88575957844, -131120.54093128932, 27312.40121274009, 38336.97448217565, 19183.854065400847, 28510.0300323999, 33081.45351188821, 41345.2063614376, 23688.44582896779, 2301.3579608628706, 18279.457781250214, -0.024, 1.02, 0.04, 192.0, 127.5, 32.0, 15.5, 112.0, 0.5, 32.0, 0.0, 0.0, 0.0, 1.696015457121289E9, 0.0, 2023-09-29 14:24:17.121
194.0, 54902.4110916151, 45147.28279677425, 16452.225023773317, 19084.254692108, 20201.730156151076, 15257.993669270716, -130957.41790025448, 27297.045564299297, 38327.54204601551, 19173.438152484676, 28600.5993009328, 33116.32223323849, 41385.23833575706, 23687.797628378587, 2304.2860393865158, 18308.559752531022, -0.024, 1.02, 0.04, 192.0, 0.0, 0.0, 0.0, 0.0, 0.0, 0.0, 0.0, 0.0, 0.0, 1.696015457121299E9, 0.0, 2023-09-29 14:24:17.121
196.0, 54738.25988033532, 45137.13510479154, 16438.031666044197, 19084.142933385723, 20215.47647899109, 15272.231730488746, -131132.208541895, 27317.095079075705, 38327.609101248876, 19173.08052457339, 28547.84918401828, 33067.32720939245, 41334.119896187774, 23676.554700917568, 2284.8400217103986, 18273.355755013916, -0.024, 1.02, 0.04, 192.0, 0.0, 0.0, 0.0, 0.0, 0.0, 0.0, 0.0, 0.0, 0.0, 1.696015457180795E9, 0.0, 2023-09-29 14:24:17.180
198.0, 54893.13511766614, 45145.67347117347, 16457.567090698136, 19096.123468413767, 20212.123717322793, 15262.59812862851, -130969.95722889391, 27303.371107980147, 38322.222330835146, 19172.521730962006, 28560.254402190974, 33105.50398892212, 41380.09743453234, 23683.953128332276, 2304.59896380889, 18310.95138918774, -0.024, 1.02, 0.04, 192.0, 0.0, 0.0, 0.0, 0.0, 0.0, 0.0, 0.0, 0.0, 0.0, 1.696015457180822E9, 0.0, 2023-09-29 14:24:17.180
200.0, 54728.08983660815, 45121.06420052817, 16437.651686388457, 19087.495695054018, 20223.970141884107, 15276.791486357628, -131149.19586768103, 27326.102832091194, 38325.61979599235, 19174.51103621853, 28553.79474804339, 33064.37677912435, 41345.69809981562, 23681.15916027536, 2303.637838797312, 18285.09042085295, -0.024, 1.02, 0.04, 192.0, 0.0, 0.0, 0.0, 0.0, 0.0, 0.0, 0.0, 0.0, 0.0, 1.696015457180833E9, 0.0, 2023-09-29 14:24:17.180
202.0, 54889.40237634211, 45152.73662242134, 16464.227910545815, 19096.83872423634, 20214.470650490603, 15256.741971581218, -130991.39255182655, 27300.800657367785, 38315.04742086499, 19171.717068161615, 28521.161201138642, 33101.659488875805, 41372.83311758436, 23673.5372154161, 2303.0566934414737, 18307.129240885883, -0.022, 1.018, 0.034, 192.0, 127.5, 40.0, 15.5, 104.0, 0.5, 8.0, 0.0, 0.0, 0.0, 1.696015457180843E9, 0.0, 2023-09-29 14:24:17.180
204.0, 54722.97128712789, 45133.6035291676, 16435.64002938748, 19081.460724051085, 20222.405519772234, 15275.629195645954, -131158.27067592987, 27316.22336104195, 38320.94828140119, 19179.137847320777, 28574.6936291091, 33076.06674147448, 41345.586341093345, 23681.986174820206, 2298.720455017144, 18283.794019674544, -0.022, 1.018, 0.034, 192.0, 0.0, 0.0, 0.0, 0.0, 0.0, 0.0, 0.0, 0.0, 0.0, 1.696015457180853E9, 0.0, 2023-09-29 14:24:17.180
206.0, 54894.65503628911, 45157.27402654577, 16472.87803565002, 19102.851343494815, 20213.218952801104, 15259.06655300457, -130988.0174384138, 27297.514950932855, 38316.05324936548, 19172.208806539635, 28498.74240144997, 33105.436933688754, 41368.00514078202, 23676.15236951737, 2303.3472661193928, 18307.57627577499, -0.022, 1.018, 0.034, 192.0, 0.0, 0.0, 0.0, 0.0, 0.0, 0.0, 0.0, 0.0, 0.0, 1.696015457180915E9, 0.0, 2023-09-29 14:24:17.180
208.0, 54736.158816356525, 45122.852340084595, 16429.046264773162, 19070.463665779076, 20212.99543535655, 15267.090829264025, -131120.4068208226, 27310.88129411713, 38316.410877276765, 19166.732629148082, 28620.827629664855, 33075.373837396364, 41357.16454472119, 23671.369096203936, 2292.573725291935, 18277.244958549138, -0.022, 1.018, 0.034, 192.0, 0.0, 0.0, 0.0, 0.0, 0.0, 0.0, 0.0, 0.0, 0.0, 1.696015457180928E9, 0.0, 2023-09-29 14:24:17.180
210.0, 54879.50055354841, 45158.95040737992, 16470.21817805984, 19096.995186447526, 20203.585350940866, 15249.812930800073, -130993.11363614962, 27292.418753197046, 38318.31077555547, 19167.783161137482, 28486.06896234381, 33093.72461959417, 41370.687350116656, 23672.39727644888, 2296.2394113826053, 18289.62782497738, -0.022, 1.018, 0.034, 192.0, 0.0, 0.0, 0.0, 0.0, 0.0, 0.0, 0.0, 0.0, 0.0, 1.696015457241203E9, 0.0, 2023-09-29 14:24:17.241
212.0, 54744.048982149245, 45124.3499069631, 16421.133747235985, 19059.77953192944, 20206.62518818679, 15264.855654818495, -131111.08614338472, 27294.519817175846, 38314.175702831235, 19163.64808841325, 28646.934467188654, 33075.530299607555, 41357.45511739911, 23664.752979845165, 2278.0674431404404, 18267.924281111274, -0.03, 1.018, 0.028, 192.0, 127.5, 8.0, 15.5, 104.0, 0.0, 112.0, 0.0, 0.0, 0.0, 1.696015457241227E9, 0.0, 2023-09-29 14:24:17.241
214.0, 54864.83780918572, 45157.251674801315, 16476.141390340494, 19100.146782415723, 20211.699034178142, 15257.032544259137, -131028.13881971108, 27299.325442233738, 38319.428362778235, 19170.197149538657, 28459.425682953082, 33087.1085032354, 41364.42886166917, 23672.754904360165, 2298.5639928059572, 18283.682260952268, -0.03, 1.018, 0.028, 192.0, 0.0, 0.0, 0.0, 0.0, 0.0, 0.0, 0.0, 0.0, 0.0, 1.696015457241238E9, 0.0, 2023-09-29 14:24:17.241
216.0, 54765.998395204355, 45118.04671502671, 16416.551639622645, 19056.67263945015, 20195.873999103787, 15255.154997724892, -131092.7800646758, 27287.501369416877, 38309.705353940175, 19157.3225447324, 28655.271667870486, 33080.067703731984, 41355.04112899794, 23656.63929660789, 2283.789489720999, 18272.61814744689, -0.03, 1.018, 0.028, 192.0, 0.0, 0.0, 0.0, 0.0, 0.0, 0.0, 0.0, 0.0, 0.0, 1.696015457241249E9, 0.0, 2023-09-29 14:24:17.241
218.0, 54847.582262466225, 45155.150610822515, 16472.922739138932, 19109.288645897945, 20213.08484233437, 15257.278413448146, -131047.7860030873, 27301.627671912633, 38319.51776975606, 19167.17966403719, 28446.461671169007, 33078.63719208684, 41355.309349931405, 23664.73062810071, 2302.184975407717, 18282.67643245178, -0.03, 1.018, 0.028, 192.0, 0.0, 0.0, 0.0, 0.0, 0.0, 0.0, 0.0, 0.0, 0.0, 1.696015457241258E9, 0.0, 2023-09-29 14:24:17.241
220.0, 54772.70391854095, 45131.815389611176, 16421.06669200262, 19067.177959344146, 20206.80400214243, 15264.632137373941, -131104.87235842613, 27304.332232991725, 38313.72866794213, 19160.9211755897, 28652.76827249149, 33083.46516888919, 41366.61933262579, 23666.943450801784, 2294.048940425985, 18284.553978986023, -0.03, 1.018, 0.028, 192.0, 0.0, 0.0, 0.0, 0.0, 0.0, 0.0, 0.0, 0.0, 0.0, 1.696015457241267E9, 0.0, 2023-09-29 14:24:17.241
222.0, 54829.45499771297, 45162.70550044841, 16477.817771174643, 19109.869791253783, 20224.730101195586, 15262.30755595059, -131095.0822943547, 27313.719965662953, 38326.29034832601, 19172.477027473098, 28413.1575719306, 33080.96177351019, 41352.73889931905, 23689.11638130145, 2310.343362133904, 18293.33821455696, -0.02, 1.02, 0.028, 192.0, 127.5, 48.0, 15.5, 112.0, 0.0, 112.0, 0.0, 0.0, 0.0, 1.696015457241277E9, 0.0, 2023-09-29 14:24:17.241
224.0, 54806.835032324205, 45133.625880912055, 16418.71975883481, 19057.253784805987, 20201.752507895533, 15251.288145934124, -131077.49147146838, 27292.195235752493, 38312.834598163914, 19159.155387777733, 28650.801318979422, 33091.91412829329, 41371.62612338378, 23673.31369797155, 2305.0459986979963, 18298.188543103763, -0.02, 1.02, 0.028, 192.0, 0.0, 0.0, 0.0, 0.0, 0.0, 0.0, 0.0, 0.0, 0.0, 1.696015457241287E9, 0.0, 2023-09-29 14:24:17.241
226.0, 54812.66883762704, 45152.96013986589, 16462.462122733847, 19091.384898589244, 20214.04596734595, 15257.166654725868, -131108.42628579453, 27307.282663259826, 38318.48958951111, 19161.50232094554, 28438.48209839846, 33068.7577210376, 41342.367689891784, 23677.44877069578, 2303.302562630482, 18280.79888591753, -0.02, 1.02, 0.028, 192.0, 0.0, 0.0, 0.0, 0.0, 0.0, 0.0, 0.0, 0.0, 0.0, 1.696015457301507E9, 0.0, 2023-09-29 14:24:17.301
228.0, 54826.86219535616, 45130.72015413286, 16428.800395584156, 19054.973906871546, 20208.81565914341, 15250.25996568918, -131063.40987246155, 27289.937709562506, 38314.91331039826, 19151.578146407384, 28645.48160379906, 33094.12695099437, 41376.16352750821, 23669.849177580974, 2309.985734222619, 18295.282816324572, -0.02, 1.02, 0.028, 192.0, 0.0, 0.0, 0.0, 0.0, 0.0, 0.0, 0.0, 0.0, 0.0, 1.696015457301576E9, 0.0, 2023-09-29 14:24:17.301
230.0, 54795.27918044081, 45148.89212237503, 16458.908195365453, 19088.38976483223, 20207.85453413183, 15250.416427900367, -131130.37569884965, 27295.995032309896, 38319.2942523115, 19155.35559122033, 28445.187621735055, 33060.554630822495, 41343.82055328137, 23669.491549669692, 2306.767083021055, 18272.037002091052, -0.02, 1.02, 0.028, 192.0, 0.0, 0.0, 0.0, 0.0, 0.0, 0.0, 0.0, 0.0, 0.0, 1.696015457301586E9, 0.0, 2023-09-29 14:24:17.301
232.0, 54857.014698626364, 45139.23616877034, 16428.465119417324, 19061.366505785765, 20206.96046435362, 15250.192910455813, -131025.81423828773, 27297.045564299297, 38311.87347315234, 19149.141806261756, 28652.075368413374, 33093.38934342734, 41380.43271069917, 23663.724799600222, 2313.1820336797277, 18294.276987824083, -0.02, 1.018, 0.026000000000000002, 192.0, 127.5, 48.0, 15.5, 104.0, 0.0, 104.0, 0.0, 0.0, 0.0, 1.696015457301595E9, 0.0, 2023-09-29 14:24:17.301
234.0, 54769.99935746186, 45150.92613112046, 16449.40870397195, 19086.601625275805, 20218.538667981466, 15257.524282637154, -131151.63220782665, 27308.02027082685, 38326.200941348194, 19160.94352733416, 28461.86202309871, 33061.895735489816, 41341.29480615792, 23674.565395661044, 2317.3171064039598, 18272.059353835506, -0.02, 1.018, 0.026000000000000002, 192.0, 0.0, 0.0, 0.0, 0.0, 0.0, 0.0, 0.0, 0.0, 0.0, 1.696015457301605E9, 0.0, 2023-09-29 14:24:17.301
236.0, 54862.87085567366, 45144.19825603942, 16422.608962370035, 19064.451046520597, 20198.980891583073, 15244.023828986148, -131022.99791848636, 27290.898834574087, 38310.77823767403, 19150.12528301779, 28619.240655808528, 33095.937442295246, 41374.28598097396, 23661.936660043797, 2308.242298155105, 18293.897008168344, -0.02, 1.018, 0.026000000000000002, 192.0, 0.0, 0.0, 0.0, 0.0, 0.0, 0.0, 0.0, 0.0, 0.0, 1.696015457301614E9, 0.0, 2023-09-29 14:24:17.301
238.0, 54748.4746275514, 45140.97960483785, 16430.6779421184, 19081.036040906434, 20210.603798699834, 15257.859558803984, -131164.0150742549, 27301.98529982392, 38313.81807491995, 19150.84053884036, 28479.184625051574, 33054.29614237501, 41325.02273619446, 23664.507110656155, 2300.1733184067393, 18260.816426374487, -0.02, 1.018, 0.026000000000000002, 192.0, 0.0, 0.0, 0.0, 0.0, 0.0, 0.0, 0.0, 0.0, 0.0, 1.696015457301623E9, 0.0, 2023-09-29 14:24:17.301
240.0, 54868.19057085402, 45136.37514548006, 16425.53704089368, 19075.179883859146, 20209.262694032514, 15255.624384358453, -131027.44591563297, 27291.479979929925, 38304.028010848524, 19146.258431227023, 28595.547806685903, 33093.88108180536, 41368.3627686933, 23666.339953701492, 2317.3841616373256, 18298.836743692966, -0.02, 1.018, 0.026000000000000002, 192.0, 0.0, 0.0, 0.0, 0.0, 0.0, 0.0, 0.0, 0.0, 0.0, 1.696015457361694E9, 0.0, 2023-09-29 14:24:17.361
242.0, 54737.79049370176, 45126.920357575465, 16429.739168851276, 19081.416020562177, 20213.75539466803, 15260.005326271694, -131186.5232809214, 27303.773439380344, 38315.94149064321, 19156.719047632105, 28485.241947798964, 33056.79953775401, 41336.913864244685, 23676.73351487321, 2317.540623848513, 18276.03796434855, -0.02, 1.022, 0.03, 192.0, 127.5, 48.0, 15.5, 120.0, 0.0, 120.0, 0.0, 0.0, 0.0, 1.696015457361736E9, 0.0, 2023-09-29 14:24:17.361
244.0, 54877.019509913865, 45144.667642672975, 16435.05888403164, 19084.254692108, 20207.42985098718, 15257.054896003592, -131025.54601735427, 27290.69766887399, 38300.138807313306, 19147.97951555008, 28561.148471969187, 33095.40100042832, 41369.36859719379, 23672.30786947106, 2313.8078825244766, 18300.58017976048, -0.02, 1.022, 0.03, 192.0, 0.0, 0.0, 0.0, 0.0, 0.0, 0.0, 0.0, 0.0, 0.0, 1.696015457361747E9, 0.0, 2023-09-29 14:24:17.361
246.0, 54712.510670722804, 45126.272156986255, 16424.44180541537, 19085.90872119769, 20213.017787101006, 15263.671012362363, -131215.60290045774, 27302.58879692421, 38315.91913889875, 19161.345858734352, 28503.39156429667, 33062.029845956546, 41334.119896187774, 23679.326317230025, 2317.4065133817808, 18278.362545771903, -0.02, 1.022, 0.03, 192.0, 0.0, 0.0, 0.0, 0.0, 0.0, 0.0, 0.0, 0.0, 0.0, 1.696015457361756E9, 0.0, 2023-09-29 14:24:17.361
248.0, 54874.94079767953, 45149.003881097306, 16454.504901707758, 19102.53841907244, 20213.934208623676, 15252.741009323718, -131062.1358230276, 27302.63350041312, 38311.8958248968, 19149.767655106505, 28497.49070376047, 33100.98893654215, 41372.02845478398, 23677.180549762317, 2322.45800762868, 18306.413985063315, -0.02, 1.022, 0.03, 192.0, 0.0, 0.0, 0.0, 0.0, 0.0, 0.0, 0.0, 0.0, 0.0, 1.696015457361765E9, 0.0, 2023-09-29 14:24:17.361
250.0, 54723.03834236126, 45135.88340710204, 16428.040436272673, 19082.332442084844, 20212.883676634276, 15261.189968727824, -131214.75353416844, 27302.857017857674, 38312.856949908375, 19149.968820806604, 28532.135907666197, 33064.466186102174, 41342.47944861406, 23672.39727644888, 2314.7690075360547, 18287.839685420953, -0.02, 1.022, 0.03, 192.0, 0.0, 0.0, 0.0, 0.0, 0.0, 0.0, 0.0, 0.0, 0.0, 1.696015457361813E9, 0.0, 2023-09-29 14:24:17.361
252.0, 54892.62102754367, 45165.70063420542, 16467.424210002926, 19094.49179106853, 20211.967255111605, 15241.855709773983, -131047.36131994265, 27287.903700817074, 38313.907481897775, 19154.908556331226, 28488.080619344786, 33099.5137214081, 41375.20240249663, 23667.055209524064, 2323.307373917982, 18303.91058968432, -0.02, 1.026, 0.034, 192.0, 127.5, 48.0, 16.0, 8.0, 0.5, 8.0, 0.0, 0.0, 0.0, 1.696015457361822E9, 0.0, 2023-09-29 14:24:17.361
254.0, 54735.84589193415, 45131.41305821098, 16418.093909990064, 19060.695953452105, 20208.458031232123, 15240.536956851121, -131182.9246500641, 27277.10780824516, 38313.66161270876, 19150.527614417984, 28588.46230369357, 33072.557517595, 41351.19662895163, 23664.39535193388, 2309.114016188862, 18271.433504990757, -0.02, 1.026, 0.034, 192.0, 0.0, 0.0, 0.0, 0.0, 0.0, 0.0, 0.0, 0.0, 0.0, 1.696015457361832E9, 0.0, 2023-09-29 14:24:17.361
