%OpenBCI Raw EXG Data
%Number of channels = 16
%Sample Rate = 125 Hz
%Board = OpenBCI_GUI$BoardCytonSerialDaisy
Sample Index, EXG Channel 0, EXG Channel 1, EXG Channel 2, EXG Channel 3, EXG Channel 4, EXG Channel 5, EXG Channel 6, EXG Channel 7, EXG Channel 8, EXG Channel 9, EXG Channel 10, EXG Channel 11, EXG Channel 12, EXG Channel 13, EXG Channel 14, EXG Channel 15, Accel Channel 0, Accel Channel 1, Accel Channel 2, Other, Other, Other, Other, Other, Other, Other, Analog Channel 0, Analog Channel 1, Analog Channel 2, Timestamp, Other, Timestamp (Formatted)
0.0, -187500.02235174447, 9204.940105073465, -17203.17658223827, -33991.057752496934, -16757.616908266176, -33439.72962376232, -187500.02235174447, -43010.52308208026, 0.0, 0.0, 0.0, 0.0, 0.0, 0.0, 0.0, 0.0, 0.0, 0.0, 0.0, 192.0, 0.0, 0.0, 0.0, 0.0, 0.0, 0.0, 0.0, 0.0, 0.0, 1.695676375044109E9, 0.0, 2023-09-25 16:12:55.044
224.0, -187500.02235174447, 9216.495956956858, -17187.530361119552, -33979.099569213344, -16744.272916826358, -33448.424452355444, -187500.02235174447, -43002.02941918724, -3281.392548250264, -8689.687691889727, -45476.233419923, -44212.59989888667, -31909.238625674087, -38680.18551828689, -28989.36319224396, -38311.42643826323, -0.054, 1.006, 0.132, 192.0, 127.0, 40.0, 15.5, 56.0, 2.0, 16.0, 0.0, 0.0, 0.0, 1.695676375044117E9, 0.0, 2023-09-25 16:12:55.044
226.0, -187500.02235174447, 9209.030474308787, -17199.086213002945, -33989.71664782961, -16753.817111708773, -33431.213609124854, -187500.02235174447, -43002.38704709853, -3198.9146112101807, -8701.489412962128, -45456.98856794698, -44208.06249476224, -31885.389314340275, -38688.79093990218, -28982.635317162913, -38271.79679534397, -0.054, 1.006, 0.132, 192.0, 0.0, 0.0, 0.0, 0.0, 0.0, 0.0, 0.0, 0.0, 0.0, 1.695676375044121E9, 0.0, 2023-09-25 16:12:55.044
228.0, -187500.02235174447, 9221.994486092864, -17182.322404661467, -33973.60104007734, -16735.51103299988, -33449.18441166692, -187500.02235174447, -42985.80205271269, -3279.9620366051245, -8689.665340145271, -45472.880658254704, -44212.018753530836, -31907.763410540036, -38677.86093686354, -28982.434151462814, -38317.12613309934, -0.054, 1.006, 0.132, 192.0, 0.0, 0.0, 0.0, 0.0, 0.0, 0.0, 0.0, 0.0, 0.0, 1.695676375044124E9, 0.0, 2023-09-25 16:12:55.044
230.0, -187500.02235174447, 9214.663113911523, -17193.006538511105, -33984.86631928281, -16747.066884883272, -33421.95998692036, -187500.02235174447, -42998.028456929744, -3210.8951462382256, -8690.134726778833, -45448.763125987425, -44198.3841894131, -31880.69544800466, -38677.81623337463, -28968.956049556262, -38292.24864152058, -0.054, 1.006, 0.132, 192.0, 0.0, 0.0, 0.0, 0.0, 0.0, 0.0, 0.0, 0.0, 0.0, 1.695676375044127E9, 0.0, 2023-09-25 16:12:55.044
232.0, -187500.02235174447, 9207.421148708005, -17199.60030312542, -33990.11897922981, -16751.55958551879, -33438.343815606095, -187500.02235174447, -42996.016799928766, -3256.8726845827923, -8701.265895517576, -45477.70863505705, -44217.96431755595, -31916.055907732956, -38690.40026550296, -28989.92198585534, -38299.13297881281, -0.054, 1.006, 0.132, 192.0, 0.0, 0.0, 0.0, 0.0, 0.0, 0.0, 0.0, 0.0, 0.0, 1.695676375044131E9, 0.0, 2023-09-25 16:12:55.044
234.0, -187500.02235174447, 9200.559163160226, -17203.958893294202, -33996.73509558858, -16756.141693132126, -33417.310824073655, -187500.02235174447, -43005.784512255734, -3213.085617194846, -8703.00933158509, -45464.208181406044, -44212.10816050866, -31899.89559649177, -38690.154396313956, -28981.428322962325, -38272.19912674417, -0.042, 1.004, 0.126, 192.0, 127.0, 88.0, 15.5, 48.0, 1.5, 120.0, 0.0, 0.0, 0.0, 1.695676375044134E9, 0.0, 2023-09-25 16:12:55.044
236.0, -187500.02235174447, 9199.329817215183, -17202.30486420451, -33998.43382816718, -16753.683001242043, -33450.9949029678, -187500.02235174447, -43004.37635235505, -3258.9513968171354, -8709.938372366236, -45482.111928714745, -44227.396753716086, -31924.6836810927, -38698.02221036222, -28993.78883764611, -38284.06790304994, -0.042, 1.004, 0.126, 192.0, 0.0, 0.0, 0.0, 0.0, 0.0, 0.0, 0.0, 0.0, 0.0, 1.695676375044137E9, 0.0, 2023-09-25 16:12:55.044
238.0, -187500.02235174447, 9187.952779287432, -17210.329140463968, -34015.041174297476, -16765.08239091425, -33431.772402736235, -187500.02235174447, -43023.08476246414, -3232.7998558044264, -8721.695389949726, -45468.99145471948, -44227.06147754926, -31902.823675015414, -38707.47699826682, -28989.07261956604, -38283.30794373846, -0.042, 1.004, 0.126, 192.0, 0.0, 0.0, 0.0, 0.0, 0.0, 0.0, 0.0, 0.0, 0.0, 1.69567637504414E9, 0.0, 2023-09-25 16:12:55.044
240.0, -187500.02235174447, 9192.758404345323, -17203.91418980529, -34007.553339904945, -16757.102818143703, -33455.01821696976, -187500.02235174447, -43016.31218389418, -3257.2750159829875, -8719.571974226472, -45486.85049853927, -44236.0915823092, -31922.31439618044, -38705.264175565746, -28998.639166192912, -38286.034856562, -0.042, 1.004, 0.126, 192.0, 0.0, 0.0, 0.0, 0.0, 0.0, 0.0, 0.0, 0.0, 0.0, 1.695676375044143E9, 0.0, 2023-09-25 16:12:55.044
0.0, -93750.01117587223, 4582.532296482599, -8595.944475644168, -16997.965216394095, -8367.979033944492, -16741.03191388034, -93750.01117587223, -21481.7698576176, -1641.8026854756697, -4360.400660085757, -22739.30135241763, -22116.782917592875, -15955.189282320653, -19352.989715694155, -14496.872067078599, -19157.27784124349, -0.037000000000000005, 1.006, 0.133, 192.0, 127.5, 0.0, 15.5, 64.0, 2.0, 48.0, 0.0, 0.0, 0.0, 1.695676375187263E9, 0.0, 2023-09-25 16:12:55.187
2.0, -187500.02235174447, 9163.678784808968, -17190.436087898743, -33993.695258342654, -16732.40414052059, -33485.595403384614, -187500.02235174447, -42969.41822402695, -3619.0156482476773, -8977.041718607154, -45520.13224603322, -44240.42782073353, -31956.199640774685, -38720.0386786507, -28970.900651323875, -38129.72910758604, -0.037000000000000005, 1.006, 0.133, 192.0, 0.0, 0.0, 0.0, 0.0, 0.0, 0.0, 0.0, 0.0, 0.0, 1.695676375187274E9, 0.0, 2023-09-25 16:12:55.187
4.0, -187500.02235174447, 9158.046145206232, -17191.620730354873, -34003.86530206982, -16738.707332456986, -33482.84613881661, -187500.02235174447, -42964.07615710213, -3685.1544600909306, -8969.956215614822, -45529.452923471086, -44244.920521369044, -31969.051893836488, -38715.68008848192, -28967.816110589043, -38178.053579098414, -0.037000000000000005, 1.006, 0.133, 192.0, 0.0, 0.0, 0.0, 0.0, 0.0, 0.0, 0.0, 0.0, 0.0, 1.695676375187278E9, 0.0, 2023-09-25 16:12:55.187
6.0, -187500.02235174447, 9151.787656758745, -17203.26598921609, -34015.01882255302, -16750.17377736256, -33480.521557393266, -187500.02235174447, -42981.71168347737, -3608.2421074202193, -8993.82787869309, -45527.64243217021, -44257.88453315313, -31963.70982691167, -38738.322405615145, -28978.3884857164, -38120.676651081645, -0.037000000000000005, 1.006, 0.133, 192.0, 0.0, 0.0, 0.0, 0.0, 0.0, 0.0, 0.0, 0.0, 0.0, 1.695676375187281E9, 0.0, 2023-09-25 16:12:55.187
8.0, -187500.02235174447, 9154.559273071203, -17199.801468825517, -34009.83321783939, -16743.580012748243, -33488.34466795262, -187500.02235174447, -42958.77879366622, -3687.277875814185, -8984.261332066219, -45544.78622016743, -44262.75721344438, -31987.98382139013, -38730.52164680024, -28983.663497407855, -38160.08277655635, -0.03, 1.014, 0.14, 192.0, 127.5, 8.0, 15.5, 88.0, 2.0, 48.0, 0.0, 0.0, 0.0, 1.695676375187284E9, 0.0, 2023-09-25 16:12:55.187
10.0, -187500.02235174447, 9168.327947655673, -17198.370957180377, -34004.78172359249, -16741.054265624793, -33475.17949046844, -187500.02235174447, -42956.90124713197, -3625.2517849507076, -8981.355605287028, -45527.57537693684, -44251.00019586089, -31963.642771678304, -38727.75003048778, -28975.460407192757, -38127.20336046259, -0.03, 1.014, 0.14, 192.0, 0.0, 0.0, 0.0, 0.0, 0.0, 0.0, 0.0, 0.0, 0.0, 1.695676375187287E9, 0.0, 2023-09-25 16:12:55.187
12.0, -187500.02235174447, 9153.866368993089, -17218.576934167973, -34025.07710755791, -16757.862777455186, -33487.428246429954, -187500.02235174447, -42975.27438107424, -3681.041739111154, -8976.281759295674, -45539.17593230915, -44251.693099939, -31981.255946309084, -38726.498332798285, -28988.51382595466, -38161.31212250139, -0.03, 1.014, 0.14, 192.0, 0.0, 0.0, 0.0, 0.0, 0.0, 0.0, 0.0, 0.0, 0.0, 1.695676375187291E9, 0.0, 2023-09-25 16:12:55.187
14.0, -187500.02235174447, 9161.980052230365, -17218.50987893461, -34025.792363380475, -16744.98817264893, -33476.67705734695, -187500.02235174447, -42971.251067072284, -3629.3198024415738, -8989.53634375767, -45538.28186253093, -44253.28007379533, -31972.203489804688, -38740.4458213384, -28985.339878242004, -38128.52211338546, -0.03, 1.014, 0.14, 192.0, 0.0, 0.0, 0.0, 0.0, 0.0, 0.0, 0.0, 0.0, 0.0, 1.695676375187294E9, 0.0, 2023-09-25 16:12:55.187
16.0, -187500.02235174447, 9164.639909820546, -17222.555544681018, -34027.781668637, -16742.663591225577, -33499.14056052453, -187500.02235174447, -42973.39683453999, -3677.018425109199, -8977.265236051708, -45552.229351071044, -44249.10029758219, -31988.833187679436, -38732.8909317125, -28987.843273620998, -38156.37238697677, -0.03, 1.014, 0.14, 192.0, 0.0, 0.0, 0.0, 0.0, 0.0, 0.0, 0.0, 0.0, 0.0, 1.695676375247538E9, 0.0, 2023-09-25 16:12:55.247
18.0, -187500.02235174447, 9168.998499989331, -17223.89664934834, -34030.84385762738, -16744.16115810408, -33475.15713872399, -187500.02235174447, -42969.440575771405, -3640.67448862487, -8978.53928548566, -45539.086525331324, -44242.86416087916, -31970.57181245945, -38734.969643946846, -28984.266994508147, -38144.05657578189, -0.026000000000000002, 0.982, 0.14400000000000002, 192.0, 127.5, 24.0, 15.0, 88.0, 2.0, 64.0, 0.0, 0.0, 0.0, 1.695676375247548E9, 0.0, 2023-09-25 16:12:55.247
20.0, -187500.02235174447, 9170.63017733457, -17222.130861536367, -34029.94978784917, -16736.36039928918, -33503.29798499322, -187500.02235174447, -42965.77488968073, -3667.429526737872, -8973.197218560841, -45548.27309230246, -44247.602730703686, -31987.894414412312, -38729.33700434411, -28989.16202654386, -38155.008930564996, -0.026000000000000002, 0.982, 0.14400000000000002, 192.0, 0.0, 0.0, 0.0, 0.0, 0.0, 0.0, 0.0, 0.0, 0.0, 1.695676375247552E9, 0.0, 2023-09-25 16:12:55.247
22.0, -187500.02235174447, 9161.734183041357, -17228.702274406227, -34042.35500602186, -16747.513919772377, -33479.69454284842, -187500.02235174447, -42984.97503816784, -3648.832875351057, -8982.652006465436, -45535.8455223853, -44248.27328303734, -31971.264716537564, -38738.7917922487, -28986.569224187046, -38156.08181429885, -0.026000000000000002, 0.982, 0.14400000000000002, 192.0, 0.0, 0.0, 0.0, 0.0, 0.0, 0.0, 0.0, 0.0, 0.0, 1.695676375247555E9, 0.0, 2023-09-25 16:12:55.247
24.0, -187500.02235174447, 9168.126781955574, -17218.442823701243, -34029.569808193424, -16737.142710345117, -33510.62935717456, -187500.02235174447, -42976.86135493057, -3662.400384235428, -8982.652006465436, -45549.90476964769, -44259.85148666519, -31987.916766156766, -38738.255350381776, -29000.382602260426, -38155.38891022073, -0.026000000000000002, 0.982, 0.14400000000000002, 192.0, 0.0, 0.0, 0.0, 0.0, 0.0, 0.0, 0.0, 0.0, 0.0, 1.695676375247558E9, 0.0, 2023-09-25 16:12:55.247
26.0, -187500.02235174447, 9165.176351687474, -17220.432128957764, -34037.59408445288, -16742.484777269936, -33484.00842952829, -187500.02235174447, -42983.700988733886, -3661.6851284128584, -8979.701576197336, -45533.856217128785, -44250.039070849314, -31964.715655412158, -38735.05905092467, -28984.088180552506, -38180.64638145523, -0.026000000000000002, 0.982, 0.14400000000000002, 192.0, 0.0, 0.0, 0.0, 0.0, 0.0, 0.0, 0.0, 0.0, 0.0, 1.695676375247561E9, 0.0, 2023-09-25 16:12:55.247
28.0, -187500.02235174447, 9157.196778916928, -17223.44961445923, -34035.805944896456, -16750.59846050721, -33507.50011295082, -187500.02235174447, -42964.27732280223, -3646.083610783054, -8986.20593383383, -45545.72499343455, -44261.773736688345, -31984.631059721836, -38743.843286495605, -28998.527407470636, -38156.662959654685, -0.032, 0.988, 0.158, 192.0, 127.5, 0.0, 15.0, 112.0, 2.0, 120.0, 0.0, 0.0, 0.0, 1.695676375247564E9, 0.0, 2023-09-25 16:12:55.247
30.0, -187500.02235174447, 9153.687555037446, -17222.063806303002, -34040.902142632265, -16752.654820997097, -33477.369961425065, -187500.02235174447, -42962.22096231234, -3667.988320349255, -8991.145669358453, -45546.373194023756, -44265.77469894585, -31980.540690486516, -38746.81606850816, -28997.521578970147, -38172.62210519578, -0.032, 0.988, 0.158, 192.0, 0.0, 0.0, 0.0, 0.0, 0.0, 0.0, 0.0, 0.0, 0.0, 1.69567637530776E9, 0.0, 2023-09-25 16:12:55.307
32.0, -187500.02235174447, 9164.326985398173, -17210.575009652974, -34028.69809015967, -16738.5508702458, -33504.907310594004, -187500.02235174447, -42958.62233145504, -3644.7425061157355, -8989.223419335296, -45548.34014753582, -44266.28878906832, -31984.787521933024, -38743.485658584315, -28996.158122558372, -38145.66590138267, -0.032, 0.988, 0.158, 192.0, 0.0, 0.0, 0.0, 0.0, 0.0, 0.0, 0.0, 0.0, 0.0, 1.695676375307772E9, 0.0, 2023-09-25 16:12:55.307
34.0, -187500.02235174447, 9146.065610178186, -17217.280532989567, -34042.89144788879, -16751.98426866344, -33474.352475923595, -187500.02235174447, -42973.19566883989, -3682.0028641227323, -8987.34587280105, -45537.81247589737, -44257.9962918754, -31975.064513094967, -38739.10471667108, -28981.49537819569, -38182.00983786701, -0.032, 0.988, 0.158, 192.0, 0.0, 0.0, 0.0, 0.0, 0.0, 0.0, 0.0, 0.0, 0.0, 1.695676375307776E9, 0.0, 2023-09-25 16:12:55.307
36.0, -187500.02235174447, 9152.815837003689, -17211.15615500881, -34035.671834429726, -16748.720913972964, -33503.32033673768, -187500.02235174447, -42976.146099107995, -3638.685183368347, -9002.053320652643, -45551.06706035937, -44270.6473792371, -31991.403638291795, -38753.7451092893, -28992.73830565671, -38130.06438375287, -0.032, 0.988, 0.158, 192.0, 0.0, 0.0, 0.0, 0.0, 0.0, 0.0, 0.0, 0.0, 0.0, 1.695676375307779E9, 0.0, 2023-09-25 16:12:55.307
38.0, -187500.02235174447, 9149.23955789084, -17203.48950666064, -34034.30837801795, -16750.59846050721, -33483.360228939084, -187500.02235174447, -42971.76515719476, -3698.610210253026, -8994.096099626553, -45547.33431903533, -44260.0973558542, -31987.62619347885, -38744.64794929599, -28979.863700850452, -38182.30041054492, -0.04, 1.002, 0.176, 192.0, 127.0, 96.0, 15.5, 40.0, 2.5, 64.0, 0.0, 0.0, 0.0, 1.695676375307782E9, 0.0, 2023-09-25 16:12:55.307
40.0, -187500.02235174447, 9159.186084173452, -17199.734413592152, -34026.68643315869, -16746.373980805158, -33501.286327992246, -187500.02235174447, -42967.85360191508, -3631.6220321204705, -9002.276838097196, -45541.58992071032, -44255.13526858512, -31988.922594657255, -38750.7946790212, -28980.534253184112, -38132.18779947612, -0.04, 1.002, 0.176, 192.0, 0.0, 0.0, 0.0, 0.0, 0.0, 0.0, 0.0, 0.0, 0.0, 1.695676375307785E9, 0.0, 2023-09-25 16:12:55.307
42.0, -187500.02235174447, 9163.85759876461, -17188.5585413645, -34025.50179070256, -16740.160195846584, -33493.12794126606, -187500.02235174447, -42971.385177539014, -3697.4926230302603, -8994.431375793383, -45543.37806026675, -44244.85346613568, -31990.978955147144, -38742.52453357274, -28970.811244346052, -38189.9670588931, -0.04, 1.002, 0.176, 192.0, 0.0, 0.0, 0.0, 0.0, 0.0, 0.0, 0.0, 0.0, 0.0, 1.695676375307788E9, 0.0, 2023-09-25 16:12:55.307
44.0, -187500.02235174447, 9166.09277321014, -17189.296148931524, -34024.27244475752, -16745.345800560215, -33493.77614185526, -187500.02235174447, -42955.64954944248, -3622.2342994492415, -8997.091233383564, -45533.45388572859, -44238.170294543546, -31979.959545130678, -38743.03862369521, -28967.369075699935, -38150.27036074047, -0.04, 1.002, 0.176, 192.0, 0.0, 0.0, 0.0, 0.0, 0.0, 0.0, 0.0, 0.0, 0.0, 1.695676375307791E9, 0.0, 2023-09-25 16:12:55.307
46.0, -187500.02235174447, 9153.017002703788, -17192.604207110908, -34038.801078653465, -16753.392428564122, -33476.788816069224, -187500.02235174447, -42966.847773414585, -3693.625771239492, -8993.202029848342, -45537.54425496391, -44237.00800383187, -31990.91189991378, -38737.78596374822, -28961.7364360972, -38202.595794510344, -0.04, 1.002, 0.176, 192.0, 0.0, 0.0, 0.0, 0.0, 0.0, 0.0, 0.0, 0.0, 0.0, 1.695676375368093E9, 0.0, 2023-09-25 16:12:55.368
48.0, -187500.02235174447, 9153.285223637251, -17197.83451531345, -34044.389014767294, -16758.443922811024, -33489.953993553405, -187500.02235174447, -42979.49886077629, -3618.769779058669, -9014.123262658508, -45541.63462419923, -44247.35686151467, -31989.86136792438, -38759.37774889204, -28971.6382588909, -38132.72424134305, -0.056, 0.994, 0.18, 192.0, 127.0, 32.0, 15.5, 8.0, 2.5, 80.0, 0.0, 0.0, 0.0, 1.695676375368103E9, 0.0, 2023-09-25 16:12:55.368
50.0, -187500.02235174447, 9146.57970030066, -17200.092041503434, -34054.89433466129, -16764.568300791776, -33487.04826677421, -187500.02235174447, -42974.76029095177, -3697.716140474813, -9009.027064922699, -45553.05636561589, -44245.144038813596, -32004.568815775972, -38754.393309878506, -28969.60425014547, -38182.30041054492, -0.056, 0.994, 0.18, 192.0, 0.0, 0.0, 0.0, 0.0, 0.0, 0.0, 0.0, 0.0, 0.0, 1.695676375368107E9, 0.0, 2023-09-25 16:12:55.368
52.0, -187500.02235174447, 9151.273566636273, -17199.89087580334, -34055.654293972766, -16764.41183858059, -33493.84319708862, -187500.02235174447, -42983.902154433985, -3622.122540726965, -9022.952201718355, -45550.01652836997, -44249.122649326644, -31997.416257550274, -38768.60901935209, -28973.895785080887, -38126.73397382903, -0.056, 0.994, 0.18, 192.0, 0.0, 0.0, 0.0, 0.0, 0.0, 0.0, 0.0, 0.0, 0.0, 1.69567637536811E9, 0.0, 2023-09-25 16:12:55.368
54.0, -187500.02235174447, 9151.273566636273, -17192.894779788825, -34050.87102065933, -16754.84529195372, -33495.72074362287, -187500.02235174447, -42978.381273553525, -3705.271030100707, -9007.21657362182, -45554.73274645004, -44243.78058240182, -32007.675708255258, -38754.3486063896, -28964.239831476192, -38186.79311118044, -0.056, 0.994, 0.18, 192.0, 0.0, 0.0, 0.0, 0.0, 0.0, 0.0, 0.0, 0.0, 0.0, 1.695676375368113E9, 0.0, 2023-09-25 16:12:55.368
56.0, -187500.02235174447, 9147.116142167586, -17200.762593837095, -34055.54253525049, -16760.142655389627, -33484.74603709531, -187500.02235174447, -42984.70681723438, -3635.377125188962, -9019.241812138775, -45543.713336433575, -44241.791277145305, -31993.32588831495, -38763.71398731637, -28957.221383717228, -38146.381157205244, -0.056, 0.994, 0.18, 192.0, 0.0, 0.0, 0.0, 0.0, 0.0, 0.0, 0.0, 0.0, 0.0, 1.695676375368116E9, 0.0, 2023-09-25 16:12:55.368
58.0, -187500.02235174447, 9146.400886345016, -17194.660567600797, -34051.9886078821, -16757.03576291034, -33498.11238027959, -187500.02235174447, -42982.449291044395, -3707.662666757425, -9009.854079467545, -45559.82894418585, -44246.79806790329, -32013.308347857997, -38755.13091744553, -28959.456558162758, -38184.624991968274, -0.058, 0.98, 0.18, 192.0, 127.0, 24.0, 15.0, 80.0, 2.5, 80.0, 0.0, 0.0, 0.0, 1.695676375368119E9, 0.0, 2023-09-25 16:12:55.368
60.0, -187500.02235174447, 9144.121008410575, -17200.941407792736, -34054.335541049906, -16759.69562050052, -33486.668287118475, -187500.02235174447, -42982.426939299934, -3643.4908084262383, -9026.953163975855, -45549.12245859176, -44253.1459633286, -32003.18300761974, -38768.6984263299, -28963.144595997885, -38144.861238582285, -0.058, 0.98, 0.18, 192.0, 0.0, 0.0, 0.0, 0.0, 0.0, 0.0, 0.0, 0.0, 0.0, 1.695676375428397E9, 0.0, 2023-09-25 16:12:55.428
62.0, -187500.02235174447, 9131.112293137587, -17210.798527097526, -34063.142128365296, -16767.36226884869, -33505.53315943875, -187500.02235174447, -42985.77970096823, -3698.1408236194643, -9023.01925695172, -45563.65109248771, -44260.298521554294, -32022.360804362394, -38766.37384490655, -28965.26801172114, -38177.584192464856, -0.058, 0.98, 0.18, 192.0, 0.0, 0.0, 0.0, 0.0, 0.0, 0.0, 0.0, 0.0, 0.0, 1.695676375428409E9, 0.0, 2023-09-25 16:12:55.428
64.0, -187500.02235174447, 9136.18613912894, -17210.68676837525, -34056.637770728805, -16764.4565420695, -33488.45642667489, -187500.02235174447, -42977.621314242046, -3655.672509154381, -9033.50222510126, -45558.465487774076, -44263.51717275586, -32011.766077490578, -38773.59345836562, -28963.658686120354, -38147.74461361702, -0.058, 0.98, 0.18, 192.0, 0.0, 0.0, 0.0, 0.0, 0.0, 0.0, 0.0, 0.0, 0.0, 1.695676375428413E9, 0.0, 2023-09-25 16:12:55.428
66.0, -187500.02235174447, 9138.622479274569, -17203.757727594108, -34045.6854159457, -16752.274841341357, -33510.83052287466, -187500.02235174447, -42971.251067072284, -3699.30311433114, -9022.438111595882, -45565.48393553304, -44266.266437323866, -32027.43465035375, -38762.506993115785, -28963.21165123125, -38165.84952662582, -0.058, 0.98, 0.18, 192.0, 0.0, 0.0, 0.0, 0.0, 0.0, 0.0, 0.0, 0.0, 0.0, 1.695676375428416E9, 0.0, 2023-09-25 16:12:55.428
68.0, -187500.02235174447, 9139.963583941888, -17207.579875895965, -34046.04304385699, -16752.02897215235, -33483.53904289473, -187500.02235174447, -42973.68740721791, -3662.3333290020623, -9024.472120341316, -45551.13411559274, -44261.43846052152, -32005.596996020915, -38763.91515301647, -28951.58874411449, -38159.00989282249, -0.042, 0.99, 0.18, 192.0, 127.0, 88.0, 15.0, 120.0, 2.5, 80.0, 0.0, 0.0, 0.0, 1.695676375428419E9, 0.0, 2023-09-25 16:12:55.428
70.0, -187500.02235174447, 9127.647772747014, -17218.196954512234, -34050.491041003595, -16760.053248411805, -33506.360173983594, -187500.02235174447, -42966.11016584756, -3679.9688553772994, -9027.154329675952, -45570.84835420232, -44274.58128626124, -32029.24514165463, -38765.99386525081, -28967.525537911122, -38152.773756119466, -0.042, 0.99, 0.18, 192.0, 0.0, 0.0, 0.0, 0.0, 0.0, 0.0, 0.0, 0.0, 0.0, 1.695676375428422E9, 0.0, 2023-09-25 16:12:55.428
72.0, -187500.02235174447, 9132.363990827083, -17214.419509699288, -34045.238381056595, -16752.297193085815, -33484.00842952829, -187500.02235174447, -42968.948837393385, -3669.1059075720204, -9032.742265789779, -45564.52281052146, -44274.17895486104, -32021.466734584184, -38768.98899900782, -28969.850119334475, -38152.21496250808, -0.042, 0.99, 0.18, 192.0, 0.0, 0.0, 0.0, 0.0, 0.0, 0.0, 0.0, 0.0, 0.0, 1.695676375428425E9, 0.0, 2023-09-25 16:12:55.428
74.0, -187500.02235174447, 9137.370781585072, -17212.318445720488, -34038.44345074218, -16747.04453313882, -33509.7576391408, -187500.02235174447, -42969.97701763833, -3675.9902448642547, -9015.866698726022, -45562.377043053755, -44265.12649835664, -32026.138249175343, -38754.84034476762, -28965.782101843608, -38151.857334596796, -0.042, 0.99, 0.18, 192.0, 0.0, 0.0, 0.0, 0.0, 0.0, 0.0, 0.0, 0.0, 0.0, 1.695676375428428E9, 0.0, 2023-09-25 16:12:55.428
76.0, -187500.02235174447, 9130.7546652263, -17218.59928591243, -34047.74177643559, -16753.012448908383, -33474.91126953498, -187500.02235174447, -42973.86622117356, -3680.102965844031, -9025.16502441943, -45558.532543007444, -44266.06527162377, -32018.113972915886, -38763.57987684964, -28969.336029212005, -38160.48510795654, -0.042, 0.99, 0.18, 192.0, 0.0, 0.0, 0.0, 0.0, 0.0, 0.0, 0.0, 0.0, 0.0, 1.695676375487667E9, 0.0, 2023-09-25 16:12:55.487
78.0, -187500.02235174447, 9145.596223544624, -17209.949160808224, -34033.838991384386, -16736.628620222644, -33506.04724956122, -187500.02235174447, -42969.48527926031, -3671.3187302730958, -9018.057169682643, -45566.288598333434, -44266.98169314643, -32031.502667844616, -38757.38844363552, -28977.717933382744, -38138.490991412524, -0.03, 0.992, 0.182, 192.0, 127.5, 8.0, 15.5, 0.0, 2.5, 88.0, 0.0, 0.0, 0.0, 1.695676375487676E9, 0.0, 2023-09-25 16:12:55.487
80.0, -187500.02235174447, 9134.599165272613, -17215.335931221955, -34046.37832002382, -16742.529480758843, -33474.68775209042, -187500.02235174447, -42976.83900318611, -3699.593687009059, -9009.921134700911, -45551.312929548374, -44255.0458616073, -32012.682499013248, -38746.346681874595, -28963.16694774234, -38177.785358164954, -0.03, 0.992, 0.182, 192.0, 0.0, 0.0, 0.0, 0.0, 0.0, 0.0, 0.0, 0.0, 0.0, 1.69567637548768E9, 0.0, 2023-09-25 16:12:55.487
82.0, -187500.02235174447, 9140.634136275547, -17219.135727779358, -34038.801078653465, -16741.098969113704, -33506.20371177241, -187500.02235174447, -42972.48041301732, -3660.3440237455397, -9022.818091251624, -45563.49463027652, -44270.803841448294, -32028.10520268741, -38758.90836225848, -28977.96380257175, -38133.64066286572, -0.03, 0.992, 0.182, 192.0, 0.0, 0.0, 0.0, 0.0, 0.0, 0.0, 0.0, 0.0, 0.0, 1.695676375487683E9, 0.0, 2023-09-25 16:12:55.487
84.0, -187500.02235174447, 9142.064647920686, -17210.709120119707, -34035.04598558498, -16734.415797521568, -33480.74507483782, -187500.02235174447, -42961.72922393432, -3708.6461435134584, -9016.179623148397, -45557.616121484774, -44260.99142563241, -32019.566836305483, -38747.71013828637, -28968.710180367256, -38178.99235236554, -0.03, 0.992, 0.182, 192.0, 0.0, 0.0, 0.0, 0.0, 0.0, 0.0, 0.0, 0.0, 0.0, 1.695676375487686E9, 0.0, 2023-09-25 16:12:55.487
86.0, -187500.02235174447, 9149.15015091302, -17209.12214626338, -34030.06154657144, -16732.40414052059, -33495.69839187842, -187500.02235174447, -42958.197648310386, -3649.168151517886, -9019.107701672043, -45550.977653381546, -44256.945759886, -32015.72233625917, -38750.61586506556, -28967.078503022018, -38137.12753500075, -0.03, 0.992, 0.182, 192.0, 0.0, 0.0, 0.0, 0.0, 0.0, 0.0, 0.0, 0.0, 0.0, 1.695676375487689E9, 0.0, 2023-09-25 16:12:55.487
88.0, -187500.02235174447, 9134.800330972712, -17214.665378888294, -34044.947808378674, -16747.804492450297, -33474.10660673459, -187500.02235174447, -42973.843869429096, -3699.3925213089615, -9023.131015673998, -45553.54810399391, -44257.77277443085, -32017.57753104896, -38753.87921975604, -28968.218441989236, -38175.93016337516, -0.022, 0.992, 0.182, 192.0, 127.5, 40.0, 15.5, 0.0, 2.5, 88.0, 0.0, 0.0, 0.0, 1.695676375487693E9, 0.0, 2023-09-25 16:12:55.487
90.0, -187500.02235174447, 9143.159883398996, -17210.642064886342, -34033.63782568429, -16744.40702729309, -33501.263976247785, -187500.02235174447, -42972.45806127287, -3643.0437735371324, -9030.887070999988, -45554.129249349746, -44264.99238788991, -32021.24321713963, -38761.63527508203, -28978.299078738582, -38117.68151732463, -0.022, 0.992, 0.182, 192.0, 0.0, 0.0, 0.0, 0.0, 0.0, 0.0, 0.0, 0.0, 0.0, 1.695676375547525E9, 0.0, 2023-09-25 16:12:55.547
92.0, -187500.02235174447, 9143.696325265924, -17204.718852605685, -34029.502752960056, -16742.820053436764, -33483.47198766136, -187500.02235174447, -42971.474584516836, -3714.144672649464, -9021.946373217866, -45555.49270576152, -44258.57743723124, -32024.215999152184, -38750.10177494309, -28969.96187805675, -38174.298486029926, -0.022, 0.992, 0.182, 192.0, 0.0, 0.0, 0.0, 0.0, 0.0, 0.0, 0.0, 0.0, 0.0, 1.695676375547536E9, 0.0, 2023-09-25 16:12:55.547
94.0, -187500.02235174447, 9152.637023048046, -17200.78494558155, -34022.17138077872, -16746.46338778298, -33492.52444416576, -187500.02235174447, -42979.49886077629, -3641.3897444474396, -9021.097006928565, -45543.91450213367, -44248.80972490427, -32014.783562992045, -38748.06776619766, -28969.693657123287, -38129.14796223021, -0.022, 0.992, 0.182, 192.0, 0.0, 0.0, 0.0, 0.0, 0.0, 0.0, 0.0, 0.0, 0.0, 1.69567637554754E9, 0.0, 2023-09-25 16:12:55.547
96.0, -187500.02235174447, 9150.67006953598, -17194.72762283416, -34023.847761612866, -16738.97555339045, -33477.5487753807, -187500.02235174447, -42960.902209389475, -3718.7714837517124, -9012.379826590995, -45548.58601672483, -44246.28397778082, -32023.254874140606, -38740.8928562275, -28967.480834422215, -38183.95443963462, -0.022, 0.992, 0.182, 192.0, 0.0, 0.0, 0.0, 0.0, 0.0, 0.0, 0.0, 0.0, 0.0, 1.695676375547543E9, 0.0, 2023-09-25 16:12:55.547
98.0, -187500.02235174447, 9155.43099110496, -17194.369994922876, -34021.12084878932, -16738.528518501345, -33481.39327542702, -187500.02235174447, -42960.36576752255, -3634.9300902998557, -9025.746169775268, -45536.851350885794, -44241.925387612035, -32012.391926335327, -38754.70623430088, -28960.73060759671, -38127.47158139606, -0.022, 0.99, 0.17400000000000002, 192.0, 127.5, 40.0, 15.0, 120.0, 2.5, 56.0, 0.0, 0.0, 0.0, 1.695676375547546E9, 0.0, 2023-09-25 16:12:55.547
100.0, -187500.02235174447, 9138.555424041204, -17203.17658223827, -34037.23645654159, -16752.096027385716, -33482.175586482954, -187500.02235174447, -42977.487203775316, -3709.070826658109, -9027.847233754068, -45553.45869701609, -44247.62508244814, -32031.323853888975, -38754.77328953425, -28966.027971032618, -38174.03026509646, -0.022, 0.99, 0.17400000000000002, 192.0, 0.0, 0.0, 0.0, 0.0, 0.0, 0.0, 0.0, 0.0, 0.0, 1.69567637554755E9, 0.0, 2023-09-25 16:12:55.547
102.0, -187500.02235174447, 9141.684668264947, -17199.086213002945, -34031.35794774985, -16751.805454707795, -33481.81795857167, -187500.02235174447, -42977.71072121987, -3640.0709915245766, -9043.135826961498, -45553.63751097173, -44253.391832517606, -32023.970129963178, -38767.24556294031, -28968.576069900522, -38117.70386906909, -0.022, 0.99, 0.17400000000000002, 192.0, 0.0, 0.0, 0.0, 0.0, 0.0, 0.0, 0.0, 0.0, 0.0, 1.695676375547553E9, 0.0, 2023-09-25 16:12:55.547
104.0, -187500.02235174447, 9144.478636321859, -17191.531323377054, -34026.9323023477, -16745.256393582393, -33490.57984239815, -187500.02235174447, -42972.90509616198, -3714.368190094017, -9034.530405346204, -45560.2536273305, -44256.2975592968, -32036.934141747257, -38756.829650024134, -28965.513880910145, -38158.16052653319, -0.022, 0.99, 0.17400000000000002, 192.0, 0.0, 0.0, 0.0, 0.0, 0.0, 0.0, 0.0, 0.0, 0.0, 1.695676375547556E9, 0.0, 2023-09-25 16:12:55.547
106.0, -187500.02235174447, 9145.730334011358, -17192.87242804437, -34027.73696514809, -16752.051323896805, -33476.85587130259, -187500.02235174447, -42982.67280848895, -3652.990299819744, -9033.345762890072, -45540.22646429855, -44246.08281208072, -32013.464810069185, -38752.158135432976, -28959.233040718205, -38133.327738443346, -0.022, 0.99, 0.17400000000000002, 192.0, 0.0, 0.0, 0.0, 0.0, 0.0, 0.0, 0.0, 0.0, 0.0, 1.69567637560786E9, 0.0, 2023-09-25 16:12:55.607
108.0, -187500.02235174447, 9140.723543253367, -17199.756765336606, -34036.96823560813, -16760.276765856357, -33496.63716514554, -187500.02235174447, -43002.722323265356, -3710.434283069883, -9037.726704803314, -45561.08064187535, -44262.08666111072, -32040.66688307129, -38756.203801179385, -28978.232023505214, -38161.289770756935, -0.03, 0.992, 0.17, 192.0, 127.5, 8.0, 15.5, 0.0, 2.5, 40.0, 0.0, 0.0, 0.0, 1.69567637560787E9, 0.0, 2023-09-25 16:12:55.607
110.0, -187500.02235174447, 9138.823644974667, -17203.06482351599, -34040.72332867662, -16754.107684386694, -33480.11922599307, -187500.02235174447, -42975.81082294117, -3655.337232987551, -9049.21550145334, -45554.196304583114, -44263.85244892269, -32026.071193941974, -38766.86558328457, -28970.20774724576, -38123.71648832756, -0.03, 0.992, 0.17, 192.0, 0.0, 0.0, 0.0, 0.0, 0.0, 0.0, 0.0, 0.0, 0.0, 1.695676375607874E9, 0.0, 2023-09-25 16:12:55.607
112.0, -187500.02235174447, 9135.113255395087, -17200.11439324789, -34035.29185477398, -16752.520710530367, -33489.328144708656, -187500.02235174447, -42969.239410071306, -3710.0990069030536, -9042.957013005855, -45570.758947224494, -44269.44038503652, -32048.311179675005, -38761.00942623728, -28970.230098990214, -38141.284959469434, -0.03, 0.992, 0.17, 192.0, 0.0, 0.0, 0.0, 0.0, 0.0, 0.0, 0.0, 0.0, 0.0, 1.695676375607877E9, 0.0, 2023-09-25 16:12:55.607
114.0, -187500.02235174447, 9130.844072204121, -17203.60126538292, -34043.494944989085, -16756.27580359886, -33470.70914157738, -187500.02235174447, -42984.97503816784, -3670.312901772607, -9052.79178056619, -45560.49949651951, -44267.54048675782, -32035.615388824393, -38767.536135618226, -28970.297154223583, -38117.50270336899, -0.03, 0.992, 0.17, 192.0, 0.0, 0.0, 0.0, 0.0, 0.0, 0.0, 0.0, 0.0, 0.0, 1.69567637560788E9, 0.0, 2023-09-25 16:12:55.607
116.0, -187500.02235174447, 9146.646755534024, -17195.197009467724, -34030.64269192728, -16747.26805058337, -33500.928700080956, -187500.02235174447, -42978.56008750917, -3715.888108716978, -9042.308812416652, -45571.58596176934, -44268.18868734702, -32052.736825077158, -38761.65762682648, -28977.06973279354, -38139.474468168555, -0.03, 0.992, 0.17, 192.0, 0.0, 0.0, 0.0, 0.0, 0.0, 0.0, 0.0, 0.0, 0.0, 1.695676375607883E9, 0.0, 2023-09-25 16:12:55.607
118.0, -187500.02235174447, 9157.934386483954, -17183.529398862054, -34023.356023234846, -16742.46242552548, -33474.95597302389, -187500.02235174447, -42977.6436659865, -3689.513050259716, -9030.171815177418, -45547.04374635741, -44248.7426696709, -32025.534752075047, -38751.97932147734, -28961.199994230272, -38152.84081135283, -0.036000000000000004, 0.992, 0.168, 192.0, 127.0, 112.0, 15.5, 0.0, 2.5, 32.0, 0.0, 0.0, 0.0, 1.695676375607886E9, 0.0, 2023-09-25 16:12:55.607
120.0, -187500.02235174447, 9142.511682809793, -17183.194122695222, -34024.8312383689, -16742.909460414587, -33492.83736858814, -187500.02235174447, -42981.376407310534, -3697.1796986078857, -9036.676172813914, -45546.708470190584, -44249.03324234882, -32032.82142076748, -38750.347644132096, -28957.713122095243, -38157.80289862191, -0.036000000000000004, 0.992, 0.168, 192.0, 0.0, 0.0, 0.0, 0.0, 0.0, 0.0, 0.0, 0.0, 0.0, 1.695676375668099E9, 0.0, 2023-09-25 16:12:55.668
122.0, -187500.02235174447, 9144.880967722054, -17184.69168957373, -34028.27340701502, -16742.64123948112, -33471.02206599976, -187500.02235174447, -42985.80205271269, -3684.327445546084, -9050.377792165016, -45541.83578989933, -44254.777640673834, -32026.92056023128, -38760.62944658154, -28962.049360519573, -38153.98075032005, -0.036000000000000004, 0.992, 0.168, 192.0, 0.0, 0.0, 0.0, 0.0, 0.0, 0.0, 0.0, 0.0, 0.0, 1.695676375668117E9, 0.0, 2023-09-25 16:12:55.668
124.0, -187500.02235174447, 9140.701191508913, -17191.754840821606, -34031.44735472767, -16745.055227882294, -33493.97730755536, -187500.02235174447, -42980.9964276548, -3686.4285095248833, -9048.366135164038, -45546.26143530148, -44254.53177148483, -32033.559028334505, -38756.427318623944, -28961.714084352745, -38144.05657578189, -0.036000000000000004, 0.992, 0.168, 192.0, 0.0, 0.0, 0.0, 0.0, 0.0, 0.0, 0.0, 0.0, 0.0, 1.69567637566812E9, 0.0, 2023-09-25 16:12:55.668
126.0, -187500.02235174447, 9144.635098533046, -17191.240750699133, -34033.39195649528, -16747.737437216932, -33468.85394678759, -187500.02235174447, -42980.191764854404, -3704.6228295115034, -9048.433190397405, -45544.406240511686, -44252.45305925048, -32029.24514165463, -38757.90253375799, -28959.858889562955, -38159.188706778135, -0.036000000000000004, 0.992, 0.168, 192.0, 0.0, 0.0, 0.0, 0.0, 0.0, 0.0, 0.0, 0.0, 0.0, 1.695676375668123E9, 0.0, 2023-09-25 16:12:55.668
128.0, -187500.02235174447, 9154.849845749122, -17186.278663430057, -34021.09849704486, -16738.439111523523, -33491.16098775399, -187500.02235174447, -42977.93423866442, -3682.8969339009445, -9043.247585683774, -45546.97669112405, -44251.62604470564, -32036.397699880326, -38754.01333022277, -28967.033799533107, -38136.36757568927, -0.032, 0.994, 0.162, 192.0, 127.5, 0.0, 15.5, 8.0, 2.5, 8.0, 0.0, 0.0, 0.0, 1.695676375668127E9, 0.0, 2023-09-25 16:12:55.668
130.0, -187500.02235174447, 9135.560290284193, -17204.227114227666, -34041.90797113276, -16757.75101873291, -33459.48856586082, -187500.02235174447, -42992.999314427296, -3701.4041783099387, -9051.584786365604, -45541.545217221406, -44249.837905149216, -32032.262627156095, -38758.595437836106, -28962.697561108776, -38156.88647709924, -0.032, 0.994, 0.162, 192.0, 0.0, 0.0, 0.0, 0.0, 0.0, 0.0, 0.0, 0.0, 0.0, 1.69567637566813E9, 0.0, 2023-09-25 16:12:55.668
132.0, -187500.02235174447, 9144.299822366218, -17202.72954734916, -34032.162610550244, -16754.733533231443, -33496.726572123356, -187500.02235174447, -42989.24422135881, -3665.4849249702606, -9064.414687682949, -45554.84450517232, -44264.366539045164, -32052.669769843793, -38771.96178102038, -28982.612965418455, -38105.365706129756, -0.032, 0.994, 0.162, 192.0, 0.0, 0.0, 0.0, 0.0, 0.0, 0.0, 0.0, 0.0, 0.0, 1.695676375668133E9, 0.0, 2023-09-25 16:12:55.668
134.0, -187500.02235174447, 9146.244424133829, -17196.06872750148, -34029.34629074887, -16747.558623261288, -33469.0998159766, -187500.02235174447, -42983.902154433985, -3726.5051873332486, -9054.535216633703, -45549.14481033621, -44255.33643428522, -32041.806822038514, -38760.0483012257, -28969.35838095646, -38160.90979110119, -0.032, 0.994, 0.162, 192.0, 0.0, 0.0, 0.0, 0.0, 0.0, 0.0, 0.0, 0.0, 0.0, 1.695676375668136E9, 0.0, 2023-09-25 16:12:55.668
136.0, -187500.02235174447, 9158.806104517711, -17190.078459987457, -34016.3822789648, -16738.372056290158, -33485.416589428976, -187500.02235174447, -42977.35309330858, -3673.464497740805, -9049.617832853537, -45540.20411255409, -44249.45792549347, -32033.313159145495, -38753.275722655744, -28965.625639632424, -38121.32485167085, -0.032, 0.994, 0.162, 192.0, 0.0, 0.0, 0.0, 0.0, 0.0, 0.0, 0.0, 0.0, 0.0, 1.695676375728311E9, 0.0, 2023-09-25 16:12:55.728
138.0, -187500.02235174447, 9137.862519963088, -17203.467154916187, -34035.06833732943, -16756.611079765687, -33463.75774905178, -187500.02235174447, -42996.016799928766, -3722.5712803091146, -9056.8374463126, -45543.62392945575, -44254.04003310681, -32037.9623219922, -38758.23780992482, -28968.710180367256, -38151.54441017442, -0.032, 1.0, 0.154, 192.0, 127.5, 0.0, 15.5, 32.0, 2.0, 104.0, 0.0, 0.0, 0.0, 1.695676375728342E9, 0.0, 2023-09-25 16:12:55.728
140.0, -187500.02235174447, 9149.641889291035, -17201.50020140412, -34025.233569769094, -16746.753960460897, -33486.735342351836, -187500.02235174447, -42990.11593939256, -3656.5442271881375, -9063.632376627014, -45545.74734517901, -44257.88453315313, -32041.71741506069, -38763.95985650538, -28978.63435490541, -38090.5912030448, -0.032, 1.0, 0.154, 192.0, 0.0, 0.0, 0.0, 0.0, 0.0, 0.0, 0.0, 0.0, 0.0, 1.695676375728347E9, 0.0, 2023-09-25 16:12:55.728
142.0, -187500.02235174447, 9143.651621777013, -17200.82964907046, -34031.31324426094, -16749.54792851781, -33478.71106609238, -187500.02235174447, -42994.742750494814, -3730.886129246489, -9055.809266067656, -45546.641414957216, -44254.62117846265, -32042.92440926128, -38755.309731401176, -28973.046418791586, -38153.5560671754, -0.032, 1.0, 0.154, 192.0, 0.0, 0.0, 0.0, 0.0, 0.0, 0.0, 0.0, 0.0, 0.0, 1.695676375728352E9, 0.0, 2023-09-25 16:12:55.728
144.0, -187500.02235174447, 9153.866368993089, -17195.576989123463, -34024.13833429079, -16743.624716237155, -33493.06088603269, -187500.02235174447, -42992.149948137994, -3655.7172126432915, -9068.482705173816, -45542.372231766254, -44258.063347108764, -32034.028414968066, -38766.03856873972, -28977.561471171557, -38106.57270033034, -0.032, 1.0, 0.154, 192.0, 0.0, 0.0, 0.0, 0.0, 0.0, 0.0, 0.0, 0.0, 0.0, 1.695676375728357E9, 0.0, 2023-09-25 16:12:55.728
146.0, -187500.02235174447, 9146.780866000756, -17191.01723325458, -34025.18886628019, -16743.55766100379, -33476.23002245784, -187500.02235174447, -42993.46870106086, -3736.049382215665, -9049.506074131259, -45540.4499817431, -44246.28397778082, -32035.078946957467, -38746.503144085786, -28964.552755898567, -38175.326666274865, -0.032, 1.0, 0.154, 192.0, 0.0, 0.0, 0.0, 0.0, 0.0, 0.0, 0.0, 0.0, 0.0, 1.695676375728361E9, 0.0, 2023-09-25 16:12:55.728
148.0, -187500.02235174447, 9151.027697447265, -17192.470096644174, -34022.68547090119, -16748.184472106037, -33476.6994090914, -187500.02235174447, -42995.726227250845, -3644.0048985487106, -9070.740231363801, -45538.97476660905, -44256.00698661888, -32032.9108277453, -38765.07744372814, -28971.660610635354, -38097.56494731485, -0.03, 1.008, 0.15, 192.0, 127.5, 8.0, 15.5, 64.0, 2.0, 88.0, 0.0, 0.0, 0.0, 1.695676375728366E9, 0.0, 2023-09-25 16:12:55.728
150.0, -187500.02235174447, 9150.558310813703, -17190.011404754092, -34019.73504063309, -16750.218480851472, -33475.09008349062, -187500.02235174447, -42991.32293359315, -3725.566414066126, -9054.155236977964, -45544.98738586753, -44252.60952146167, -32047.0147784966, -38749.34181563161, -28969.917174567843, -38141.68729086963, -0.03, 1.008, 0.15, 192.0, 0.0, 0.0, 0.0, 0.0, 0.0, 0.0, 0.0, 0.0, 0.0, 1.695676375787752E9, 0.0, 2023-09-25 16:12:55.787
152.0, -187500.02235174447, 9150.133627669053, -17195.241712956635, -34026.68643315869, -16759.203882122503, -33473.301943934195, -187500.02235174447, -43002.38704709853, -3650.6880701408472, -9062.045402770687, -45531.86691187226, -44249.52498072684, -32031.256798655606, -38755.71206280137, -28968.084331522507, -38088.91482221065, -0.03, 1.008, 0.15, 192.0, 0.0, 0.0, 0.0, 0.0, 0.0, 0.0, 0.0, 0.0, 0.0, 1.695676375787764E9, 0.0, 2023-09-25 16:12:55.787
154.0, -187500.02235174447, 9136.409656573494, -17202.237808971146, -34038.28698853099, -16767.854007226706, -33486.13184525154, -187500.02235174447, -43012.154759425495, -3720.0678849301203, -9067.052193528676, -45548.63072021374, -44261.41610877706, -32056.402511167827, -38761.85879252658, -28983.73055264122, -38123.11299122727, -0.03, 1.008, 0.15, 192.0, 0.0, 0.0, 0.0, 0.0, 0.0, 0.0, 0.0, 0.0, 0.0, 1.695676375787768E9, 0.0, 2023-09-25 16:12:55.787
156.0, -187500.02235174447, 9138.555424041204, -17198.482715902654, -34037.16940130823, -16761.014373423382, -33484.94720279541, -187500.02235174447, -43007.058561689686, -3668.792983149646, -9084.598312926091, -45543.288653288924, -44266.48995476842, -32042.387967394352, -38778.71200784588, -28987.664459665357, -38094.63686879121, -0.03, 1.008, 0.15, 192.0, 0.0, 0.0, 0.0, 0.0, 0.0, 0.0, 0.0, 0.0, 0.0, 1.695676375787771E9, 0.0, 2023-09-25 16:12:55.787
158.0, -187500.02235174447, 9144.746857255323, -17191.106640232403, -34031.35794774985, -16757.818073966275, -33499.83346460265, -187500.02235174447, -43001.02359068675, -3735.2000159263634, -9073.355385465073, -45550.68708070363, -44262.08666111072, -32058.570630379993, -38768.027873996245, -28982.992945074195, -38136.12170650026, -0.032, 1.014, 0.15, 192.0, 127.5, 0.0, 15.5, 88.0, 2.0, 88.0, 0.0, 0.0, 0.0, 1.695676375787774E9, 0.0, 2023-09-25 16:12:55.787
160.0, -187500.02235174447, 9150.871235236078, -17190.659605343295, -34032.54259020598, -16757.482797799446, -33473.25724044529, -187500.02235174447, -43006.58917505612, -3676.6384454534586, -9077.333995978117, -45528.42474322614, -44250.91078888307, -32037.425880125273, -38770.33010367514, -28975.572165915033, -38112.16063644417, -0.032, 1.014, 0.15, 192.0, 0.0, 0.0, 0.0, 0.0, 0.0, 0.0, 0.0, 0.0, 0.0, 1.695676375787777E9, 0.0, 2023-09-25 16:12:55.787
162.0, -187500.02235174447, 9148.926633468465, -17186.435125641245, -34034.59895069587, -16751.492530285424, -33495.38546745604, -187500.02235174447, -43010.99246871382, -3721.4760448308048, -9068.169780751441, -45539.6006154538, -44253.21301856197, -32055.91077278981, -38762.350530904594, -28976.265069993147, -38132.9477587876, -0.032, 1.014, 0.15, 192.0, 0.0, 0.0, 0.0, 0.0, 0.0, 0.0, 0.0, 0.0, 0.0, 1.69567637578778E9, 0.0, 2023-09-25 16:12:55.787
164.0, -187500.02235174447, 9144.322174110672, -17191.26310244359, -34044.8360496564, -16755.02410590936, -33475.693580590916, -187500.02235174447, -43008.51142507928, -3676.6831489423694, -9084.620664670547, -45530.59286243831, -44253.28007379533, -32038.297598159028, -38773.43699615443, -28971.30298272407, -38110.23838642101, -0.032, 1.014, 0.15, 192.0, 0.0, 0.0, 0.0, 0.0, 0.0, 0.0, 0.0, 0.0, 0.0, 1.695676375787783E9, 0.0, 2023-09-25 16:12:55.787
166.0, -187500.02235174447, 9149.396020102027, -17187.64211984183, -34039.225761798116, -16749.391466306624, -33502.13569428155, -187500.02235174447, -43004.33164886614, -3712.4459400708606, -9077.870437845044, -45545.188551567626, -44254.3976610181, -32057.9671332797, -38767.06674898467, -28974.991020559195, -38118.75440105848, -0.032, 1.014, 0.15, 192.0, 0.0, 0.0, 0.0, 0.0, 0.0, 0.0, 0.0, 0.0, 0.0, 1.695676375847664E9, 0.0, 2023-09-25 16:12:55.847
168.0, -187500.02235174447, 9149.910110224499, -17182.501218617108, -34036.38709025229, -16744.965820904472, -33471.67026658896, -187500.02235174447, -42997.08968366262, -3693.782233450679, -9075.903484332977, -45527.262452514464, -44241.724221911936, -32036.442403369238, -38761.07648147064, -28964.083369265005, -38127.40452616269, -0.036000000000000004, 1.018, 0.14200000000000002, 192.0, 127.0, 112.0, 15.5, 104.0, 2.0, 56.0, 0.0, 0.0, 0.0, 1.695676375847674E9, 0.0, 2023-09-25 16:12:55.847
170.0, -187500.02235174447, 9143.629270032558, -17188.715003575686, -34038.48815423109, -16752.878338441653, -33495.72074362287, -187500.02235174447, -43003.057599432184, -3694.6092479955255, -9079.815039612657, -45537.61131019727, -44248.51915222635, -32051.8651070434, -38762.641103582515, -28969.78306410111, -38117.5474068579, -0.036000000000000004, 1.018, 0.14200000000000002, 192.0, 0.0, 0.0, 0.0, 0.0, 0.0, 0.0, 0.0, 0.0, 0.0, 1.695676375847677E9, 0.0, 2023-09-25 16:12:55.847
172.0, -187500.02235174447, 9151.675898036468, -17184.132895962346, -34033.12373556182, -16748.609155250688, -33472.72079857836, -187500.02235174447, -43000.17422439745, -3699.928963175889, -9086.520562949248, -45536.58312995233, -44248.0944690817, -32046.8136127965, -38766.37384490655, -28971.45944493526, -38125.97401451755, -0.036000000000000004, 1.018, 0.14200000000000002, 192.0, 0.0, 0.0, 0.0, 0.0, 0.0, 0.0, 0.0, 0.0, 0.0, 1.69567637584768E9, 0.0, 2023-09-25 16:12:55.847
174.0, -187500.02235174447, 9153.15111317052, -17183.060012228492, -34031.961444850145, -16744.16115810408, -33487.02591502976, -187500.02235174447, -42992.306410349185, -3699.9960184092547, -9063.922949304933, -45530.972842094045, -44231.59888167368, -32042.47737437217, -38742.725699272836, -28959.54596514058, -38133.41714542117, -0.036000000000000004, 1.018, 0.14200000000000002, 192.0, 0.0, 0.0, 0.0, 0.0, 0.0, 0.0, 0.0, 0.0, 0.0, 1.695676375847683E9, 0.0, 2023-09-25 16:12:55.847
176.0, -187500.02235174447, 9140.745894997823, -17194.526457134063, -34049.015825869545, -16756.521672787865, -33462.66251357347, -187500.02235174447, -43004.599869799604, -3706.1874516233747, -9087.861667616568, -45536.784295652425, -44246.86512313666, -32045.29369417354, -38761.97055124886, -28969.44778793428, -38136.07700301135, -0.036000000000000004, 1.018, 0.14200000000000002, 192.0, 0.0, 0.0, 0.0, 0.0, 0.0, 0.0, 0.0, 0.0, 0.0, 1.695676375847686E9, 0.0, 2023-09-25 16:12:55.847
178.0, -187500.02235174447, 9141.595261287124, -17199.108564747403, -34046.713596190646, -16759.025068166862, -33495.38546745604, -187500.02235174447, -43004.666925032965, -3682.5840094785704, -9082.832525114123, -45539.04182184242, -44245.702832424984, -32052.446252399237, -38756.15909769048, -28973.851081591976, -38107.71263929756, -0.032, 1.012, 0.134, 192.0, 127.5, 0.0, 15.5, 80.0, 2.0, 24.0, 0.0, 0.0, 0.0, 1.695676375847689E9, 0.0, 2023-09-25 16:12:55.847
180.0, -187500.02235174447, 9123.490348278327, -17215.492393433142, -34067.791291212, -16778.5604928208, -33470.86560378857, -187500.02235174447, -43021.587195585635, -3716.40219883945, -9094.522487464248, -45542.1487143217, -44252.90009413959, -32054.86024080041, -38768.4972606298, -28981.5400816846, -38134.221808221555, -0.032, 1.012, 0.134, 192.0, 0.0, 0.0, 0.0, 0.0, 0.0, 0.0, 0.0, 0.0, 0.0, 1.695676375907907E9, 0.0, 2023-09-25 16:12:55.907
182.0, -187500.02235174447, 9146.847921234123, -17200.852000814917, -34044.65723570075, -16757.214576865983, -33499.811112858195, -187500.02235174447, -42995.592116784115, -3680.9746838777883, -9094.746004908802, -45550.82119117036, -44257.83982966421, -32066.863127572913, -38767.96081876288, -28987.01625907615, -38087.35020009878, -0.032, 1.012, 0.134, 192.0, 0.0, 0.0, 0.0, 0.0, 0.0, 0.0, 0.0, 0.0, 0.0, 1.69567637590792E9, 0.0, 2023-09-25 16:12:55.907
184.0, -187500.02235174447, 9157.196778916928, -17186.792753552527, -34038.532857720005, -16740.048437124307, -33474.66540034597, -187500.02235174447, -42982.6951602334, -3741.011469484743, -9070.159086007963, -45534.57147295135, -44234.70577415297, -32046.21011569621, -38741.85398123908, -28959.74713084068, -38154.4054334647, -0.032, 1.012, 0.134, 192.0, 0.0, 0.0, 0.0, 0.0, 0.0, 0.0, 0.0, 0.0, 0.0, 1.695676375907923E9, 0.0, 2023-09-25 16:12:55.907
186.0, -187500.02235174447, 9153.173464914975, -17199.086213002945, -34048.6358462138, -16748.385637806135, -33481.52738589375, -187500.02235174447, -42979.20828809837, -3662.9591778468107, -9076.730498877823, -45527.37421123675, -44232.560006685264, -32034.520153346082, -38747.91130398647, -28956.416720916837, -38108.11497069776, -0.032, 1.012, 0.134, 192.0, 0.0, 0.0, 0.0, 0.0, 0.0, 0.0, 0.0, 0.0, 0.0, 1.695676375907927E9, 0.0, 2023-09-25 16:12:55.907
188.0, -187500.02235174447, 9136.230842617852, -17207.132841006856, -34062.158651609265, -16755.739361731932, -33466.12703396405, -187500.02235174447, -42971.675750216935, -3730.3496873795616, -9078.60804541207, -45541.187589310124, -44238.773791643835, -32039.39283363734, -38749.9453127319, -28963.122244253427, -38147.990482806024, -0.04, 1.002, 0.14400000000000002, 192.0, 127.0, 96.0, 15.5, 40.0, 2.0, 64.0, 0.0, 0.0, 0.0, 1.69567637590793E9, 0.0, 2023-09-25 16:12:55.907
190.0, -187500.02235174447, 9137.996630429821, -17216.87820158937, -34068.663009245756, -16753.906518686596, -33485.52834815125, -187500.02235174447, -42986.785529468725, -3661.6404249239476, -9078.384527967517, -45538.57243520885, -44239.64550967759, -32026.965263720187, -38754.28155115623, -28963.68103786481, -38089.9430024556, -0.04, 1.002, 0.14400000000000002, 192.0, 0.0, 0.0, 0.0, 0.0, 0.0, 0.0, 0.0, 0.0, 0.0, 1.695676375907933E9, 0.0, 2023-09-25 16:12:55.907
192.0, -187500.02235174447, 9137.303726351705, -17219.672169646285, -34075.39088432681, -16758.93566118904, -33484.38840918403, -187500.02235174447, -42988.64072425851, -3739.960937495344, -9075.65761514397, -45553.72691794955, -44248.04976559279, -32032.48614460065, -38757.23198142433, -28973.225232747227, -38140.368537946764, -0.04, 1.002, 0.14400000000000002, 192.0, 0.0, 0.0, 0.0, 0.0, 0.0, 0.0, 0.0, 0.0, 0.0, 1.695676375907936E9, 0.0, 2023-09-25 16:12:55.907
194.0, -187500.02235174447, 9151.273566636273, -17209.97151255268, -34052.12271834883, -16749.726742473453, -33478.889880048024, -187500.02235174447, -42982.2481253443, -3665.9990150927324, -9067.02984178422, -45540.22646429855, -44233.811704374755, -32016.9069787153, -38749.87825749854, -28969.716008867745, -38085.562060542354, -0.04, 1.002, 0.14400000000000002, 192.0, 0.0, 0.0, 0.0, 0.0, 0.0, 0.0, 0.0, 0.0, 0.0, 1.69567637590794E9, 0.0, 2023-09-25 16:12:55.907
196.0, -187500.02235174447, 9154.223996904373, -17201.2096287262, -34047.5853142244, -16737.813262678774, -33477.928755036446, -187500.02235174447, -42971.675750216935, -3752.5002661347708, -9043.895786272979, -45545.00973761198, -44221.80881760226, -32016.303481615007, -38730.09696365559, -28963.144595997885, -38149.01866305097, -0.04, 1.002, 0.14400000000000002, 192.0, 0.0, 0.0, 0.0, 0.0, 0.0, 0.0, 0.0, 0.0, 0.0, 1.695676375968137E9, 0.0, 2023-09-25 16:12:55.968
198.0, -187500.02235174447, 9147.585528801148, -17207.490468918142, -34052.74856719358, -16741.5013005139, -33477.504071891795, -187500.02235174447, -42970.17818333843, -3667.2060092933193, -9053.082353244108, -45528.044763570404, -44222.904053080565, -31986.24038532262, -38739.149420159985, -28953.443938904282, -38102.415275861655, -0.03, 1.002, 0.148, 192.0, 127.5, 8.0, 15.5, 40.0, 2.0, 80.0, 0.0, 0.0, 0.0, 1.695676375968167E9, 0.0, 2023-09-25 16:12:55.968
200.0, -187500.02235174447, 9140.052990919708, -17210.88793407535, -34060.191698097195, -16748.87737618415, -33476.09591199111, -187500.02235174447, -42975.855526430074, -3738.5080741057486, -9049.707239831358, -45542.61810095526, -44235.53278869782, -31999.673783740258, -38739.171771904446, -28968.061979778053, -38137.7533838455, -0.03, 1.002, 0.148, 192.0, 0.0, 0.0, 0.0, 0.0, 0.0, 0.0, 0.0, 0.0, 0.0, 1.695676375968171E9, 0.0, 2023-09-25 16:12:55.968
202.0, -187500.02235174447, 9154.71573528239, -17198.438012413742, -34045.32778803442, -16738.752035945898, -33473.57016486766, -187500.02235174447, -42960.96926462284, -3673.576256463082, -9050.89188228749, -45531.598690938794, -44235.86806486465, -31980.47363525315, -38739.48469632682, -28967.458482677757, -38094.61451704676, -0.03, 1.002, 0.148, 192.0, 0.0, 0.0, 0.0, 0.0, 0.0, 0.0, 0.0, 0.0, 0.0, 1.695676375968175E9, 0.0, 2023-09-25 16:12:55.968
204.0, -187500.02235174447, 9147.674935778969, -17194.571160622974, -34044.27725604502, -16740.428416780047, -33481.3038684492, -187500.02235174447, -42965.48431700281, -3740.7432485512795, -9037.614946081036, -45537.52190321945, -44234.77282938633, -31988.877891168344, -38726.76655373175, -28965.580936143513, -38140.793221091415, -0.03, 1.002, 0.148, 192.0, 0.0, 0.0, 0.0, 0.0, 0.0, 0.0, 0.0, 0.0, 0.0, 1.695676375968178E9, 0.0, 2023-09-25 16:12:55.968
206.0, -187500.02235174447, 9133.369819327572, -17209.70329161922, -34056.16838409524, -16759.516806544878, -33458.9968274828, -187500.02235174447, -42974.402663040484, -3669.284721527663, -9055.988080023299, -45533.76681015096, -44241.47835272293, -31976.51737648456, -38743.88798998451, -28970.923003068332, -38094.100426924284, -0.03, 1.002, 0.148, 192.0, 0.0, 0.0, 0.0, 0.0, 0.0, 0.0, 0.0, 0.0, 0.0, 1.695676375968183E9, 0.0, 2023-09-25 16:12:55.968
208.0, -187500.02235174447, 9154.559273071203, -17191.888951288336, -34032.31907276143, -16735.801605677796, -33486.3553626961, -187500.02235174447, -42952.9896918523, -3738.7762950392125, -9046.488588629793, -45556.565589495374, -44252.4977627394, -32004.948795431712, -38735.77430674724, -28981.853006106976, -38115.51339811247, -0.03, 1.004, 0.152, 192.0, 127.5, 8.0, 15.5, 48.0, 2.0, 96.0, 0.0, 0.0, 0.0, 1.695676375968187E9, 0.0, 2023-09-25 16:12:55.968
210.0, -187500.02235174447, 9152.748781770324, -17190.078459987457, -34039.292817031484, -16735.220460321958, -33460.71791180586, -187500.02235174447, -42943.087869058596, -3688.462518270316, -9034.910385001944, -45523.90969084617, -44231.777695629324, -31964.492137967605, -38725.023117664234, -28958.227212217716, -38112.38415388872, -0.03, 1.004, 0.152, 192.0, 0.0, 0.0, 0.0, 0.0, 0.0, 0.0, 0.0, 0.0, 0.0, 1.695676376028598E9, 0.0, 2023-09-25 16:12:56.028
212.0, -187500.02235174447, 9145.260947377796, -17193.520628633574, -34047.71942469113, -16736.047474866806, -33481.81795857167, -187500.02235174447, -42956.63302619851, -3721.788969253179, -9038.97840249281, -45540.4499817431, -44244.74170741341, -31988.52026325706, -38730.65575726697, -28967.68200012231, -38127.091601740314, -0.03, 1.004, 0.152, 192.0, 0.0, 0.0, 0.0, 0.0, 0.0, 0.0, 0.0, 0.0, 0.0, 1.695676376028612E9, 0.0, 2023-09-25 16:12:56.028
214.0, -187500.02235174447, 9146.57970030066, -17192.335986177444, -34046.3336165349, -16735.667495211066, -33461.2990571617, -187500.02235174447, -42960.07519484463, -3690.9659136493106, -9048.164969463942, -45533.05155432839, -44245.94870161399, -31979.065475352465, -38740.53522831622, -28969.336029212005, -38113.41233413367, -0.03, 1.004, 0.152, 192.0, 0.0, 0.0, 0.0, 0.0, 0.0, 0.0, 0.0, 0.0, 0.0, 1.695676376028615E9, 0.0, 2023-09-25 16:12:56.028
216.0, -187500.02235174447, 9137.124912396064, -17201.433146170755, -34050.334578792404, -16744.60819299319, -33482.5555661387, -187500.02235174447, -42969.32881704913, -3716.111626161531, -9043.024068239221, -45542.64045269972, -44249.480277237926, -31995.561062760484, -38736.26604512525, -28976.30977348206, -38121.3472034153, -0.03, 1.004, 0.152, 192.0, 0.0, 0.0, 0.0, 0.0, 0.0, 0.0, 0.0, 0.0, 0.0, 1.695676376028619E9, 0.0, 2023-09-25 16:12:56.028
218.0, -187500.02235174447, 9126.32901982415, -17212.810184098504, -34061.93513416471, -16758.958012933494, -33461.92490600645, -187500.02235174447, -42988.32779983614, -3700.264239342718, -9063.721783604835, -45543.33335677783, -44258.912713398066, -31994.599937748902, -38752.62752206654, -28986.83744512051, -38109.56783408736, -0.03, 1.004, 0.152, 192.0, 127.5, 8.0, 15.5, 48.0, 2.0, 96.0, 0.0, 0.0, 0.0, 1.695676376028622E9, 0.0, 2023-09-25 16:12:56.028
220.0, -187500.02235174447, 9148.993688701832, -17191.956006521705, -34038.44345074218, -16734.371094032656, -33508.55064494022, -187500.02235174447, -42971.45223277238, -3713.0941406600646, -9054.848141056078, -45551.55879873739, -44258.33156804223, -32011.654318768302, -38747.44191735291, -28990.704296911277, -38108.6961160536, -0.03, 1.004, 0.152, 192.0, 0.0, 0.0, 0.0, 0.0, 0.0, 0.0, 0.0, 0.0, 0.0, 1.695676376028627E9, 0.0, 2023-09-25 16:12:56.028
222.0, -187500.02235174447, 9148.770171257278, -17189.899646031816, -34041.25977054355, -16736.829785922742, -33474.285420690234, -187500.02235174447, -42976.280209574725, -3723.0630186871317, -9042.465274627839, -45527.88830135921, -44237.41033523206, -31983.982859132633, -38736.288396869706, -28969.246622234183, -38152.46083169709, -0.03, 1.004, 0.152, 192.0, 0.0, 0.0, 0.0, 0.0, 0.0, 0.0, 0.0, 0.0, 0.0, 1.695676376028632E9, 0.0, 2023-09-25 16:12:56.028
224.0, -187500.02235174447, 9155.922729482976, -17185.295186674022, -34031.62616868331, -16730.146614330606, -33504.86260710509, -187500.02235174447, -42973.55329675118, -3700.331294576084, -9041.302983916163, -45535.68906017412, -44240.22665503343, -31995.404600549296, -38737.51774281475, -28976.265069993147, -38129.43853490812, -0.03, 1.004, 0.152, 192.0, 0.0, 0.0, 0.0, 0.0, 0.0, 0.0, 0.0, 0.0, 0.0, 1.695676376028637E9, 0.0, 2023-09-25 16:12:56.028
226.0, -187500.02235174447, 9141.885833965043, -17197.812163568993, -34048.41232876925, -16746.530443016345, -33473.39135091202, -187500.02235174447, -42985.42207305695, -3722.0348384421873, -9045.147483962475, -45526.59190018081, -44235.71160265346, -31987.067399867465, -38740.57993180513, -28972.845253091487, -38159.14400328923, -0.03, 1.004, 0.152, 192.0, 0.0, 0.0, 0.0, 0.0, 0.0, 0.0, 0.0, 0.0, 0.0, 1.695676376088846E9, 0.0, 2023-09-25 16:12:56.088
228.0, -187500.02235174447, 9159.543712084736, -17194.325291433965, -34033.4813634731, -16739.288477812825, -33497.26301399029, -187500.02235174447, -42967.80889842616, -3687.63550372547, -9050.847178798578, -45539.77942940944, -44246.48514348092, -32005.507589043093, -38745.85494349658, -28988.44677072129, -38114.5969765898, -0.032, 1.006, 0.152, 192.0, 127.5, 0.0, 15.5, 56.0, 2.0, 96.0, 0.0, 0.0, 0.0, 1.695676376088856E9, 0.0, 2023-09-25 16:12:56.088
230.0, -187500.02235174447, 9148.747819512822, -17199.734413592152, -34040.65627344326, -16747.536271516834, -33465.00944674128, -187500.02235174447, -42964.83611641361, -3731.891957746978, -9047.159140963453, -45536.62783344124, -44237.94677709899, -32001.774847719058, -38739.86467598256, -28980.51190143966, -38148.68338688414, -0.032, 1.006, 0.152, 192.0, 0.0, 0.0, 0.0, 0.0, 0.0, 0.0, 0.0, 0.0, 0.0, 1.69567637608886E9, 0.0, 2023-09-25 16:12:56.088
232.0, -187500.02235174447, 9154.134589926553, -17201.2096287262, -34034.80011639596, -16745.077579626748, -33482.86849056107, -187500.02235174447, -42974.42501478494, -3684.953294390833, -9051.137751476497, -45538.818304397864, -44239.22082653294, -32009.7544204896, -38742.81510625066, -28986.122189297937, -38094.70392402457, -0.032, 1.006, 0.152, 192.0, 0.0, 0.0, 0.0, 0.0, 0.0, 0.0, 0.0, 0.0, 0.0, 1.695676376088863E9, 0.0, 2023-09-25 16:12:56.088
234.0, -187500.02235174447, 9156.168598671986, -17191.59837861042, -34030.35211924936, -16736.583916733733, -33463.89185951852, -187500.02235174447, -42968.34534029309, -3744.1630654529413, -9047.740286319291, -45537.119571819254, -44238.41616373255, -32007.921577444267, -38740.15524866048, -28980.578956673024, -38140.45794492459, -0.032, 1.006, 0.152, 192.0, 0.0, 0.0, 0.0, 0.0, 0.0, 0.0, 0.0, 0.0, 0.0, 1.695676376088866E9, 0.0, 2023-09-25 16:12:56.088
236.0, -187500.02235174447, 9162.360031886104, -17188.044451242025, -34022.529008690006, -16731.17479457555, -33486.69063886293, -187500.02235174447, -42955.76130816476, -3680.2370763107633, -9050.221329953829, -45527.17304553665, -44234.52696019733, -32000.47844654065, -38741.04931843869, -28976.287421737605, -38091.48527282301, -0.032, 1.006, 0.152, 192.0, 0.0, 0.0, 0.0, 0.0, 0.0, 0.0, 0.0, 0.0, 0.0, 1.695676376088869E9, 0.0, 2023-09-25 16:12:56.088
238.0, -187500.02235174447, 9158.739049284346, -17186.88216053035, -34027.08876455889, -16729.856041652685, -33473.21253695638, -187500.02235174447, -42956.63302619851, -3752.79083881269, -9042.241757183285, -45528.178874037134, -44230.883625851115, -32001.52897853005, -38730.85692296707, -28967.860814077954, -38155.88064859875, -0.022, 1.006, 0.154, 192.0, 127.5, 40.0, 15.5, 56.0, 2.0, 104.0, 0.0, 0.0, 0.0, 1.695676376088873E9, 0.0, 2023-09-25 16:12:56.088
240.0, -187500.02235174447, 9151.608842803102, -17192.49244838863, -34027.9828343371, -16732.31473354277, -33490.06575227568, -187500.02235174447, -42975.095567118595, -3674.112698330009, -9062.201864981875, -45526.658955414176, -44240.20430328898, -32000.14317037382, -38747.061937697166, -28973.06877053604, -38095.68740078061, -0.022, 1.006, 0.154, 192.0, 0.0, 0.0, 0.0, 0.0, 0.0, 0.0, 0.0, 0.0, 0.0, 1.695676376147622E9, 0.0, 2023-09-25 16:12:56.147
242.0, -187500.02235174447, 9147.183197400951, -17185.652814585308, -34024.98770058009, -16726.950314873495, -33478.062865503176, -187500.02235174447, -42965.998407125284, -3760.3233766941285, -9057.753867835268, -45537.745420664, -44245.59107370271, -32013.308347857997, -38738.255350381776, -28975.192186259294, -38154.76306137598, -0.022, 1.006, 0.154, 192.0, 0.0, 0.0, 0.0, 0.0, 0.0, 0.0, 0.0, 0.0, 0.0, 1.695676376147634E9, 0.0, 2023-09-25 16:12:56.147
244.0, -187500.02235174447, 9141.036467675742, -17189.653776842806, -34028.16164829274, -16731.577125975746, -33479.49337714832, -187500.02235174447, -42977.66601773095, -3683.6792449568807, -9070.472010430338, -45528.268281014956, -44246.41808824755, -31999.003231406597, -38743.776231262236, -28970.3865612014, -38112.98765098902, -0.022, 1.006, 0.154, 192.0, 0.0, 0.0, 0.0, 0.0, 0.0, 0.0, 0.0, 0.0, 0.0, 1.695676376147638E9, 0.0, 2023-09-25 16:12:56.147
246.0, -187500.02235174447, 9124.697342478912, -17193.25240770011, -34035.91770361873, -16737.656800467586, -33478.10756899209, -187500.02235174447, -42966.423090269935, -3758.5128853932483, -9074.003586054276, -45549.502438247495, -44258.53273374233, -32020.125629916864, -38745.85494349658, -28975.818035104043, -38150.73974737403, -0.022, 1.006, 0.154, 192.0, 0.0, 0.0, 0.0, 0.0, 0.0, 0.0, 0.0, 0.0, 0.0, 1.695676376147641E9, 0.0, 2023-09-25 16:12:56.147
248.0, -187500.02235174447, 9114.214374329375, -17198.84034381394, -34041.103308332364, -16741.27778306935, -33475.98415326884, -187500.02235174447, -42969.95466589388, -3689.0436636261543, -9091.884981618523, -45542.372231766254, -44265.417071034564, -32009.62031002287, -38758.12605120255, -28975.706276381767, -38102.839959006305, -0.024, 1.004, 0.154, 192.0, 127.5, 32.0, 15.5, 48.0, 2.0, 104.0, 0.0, 0.0, 0.0, 1.695676376147644E9, 0.0, 2023-09-25 16:12:56.147
250.0, -187500.02235174447, 9092.376719996539, -17206.283474717555, -34050.44633751468, -16748.296230828313, -33487.696467363414, -187500.02235174447, -42972.48041301732, -3765.084298263109, -9096.13181306503, -45562.98054015405, -44277.84464095171, -32032.53084808956, -38759.73537680333, -28985.094009052995, -38143.60954089279, -0.024, 1.004, 0.154, 192.0, 0.0, 0.0, 0.0, 0.0, 0.0, 0.0, 0.0, 0.0, 0.0, 1.695676376147647E9, 0.0, 2023-09-25 16:12:56.147
252.0, -187500.02235174447, 9084.441850714904, -17200.561428136996, -34043.40553801126, -16743.26708832587, -33482.175586482954, -187500.02235174447, -42975.20732584087, -3707.595611524059, -9108.492327748816, -45553.212827827076, -44279.92335318606, -32017.309310115495, -38764.742167561315, -28981.24950900668, -38107.734991042016, -0.024, 1.004, 0.154, 192.0, 0.0, 0.0, 0.0, 0.0, 0.0, 0.0, 0.0, 0.0, 0.0, 1.69567637614765E9, 0.0, 2023-09-25 16:12:56.147
254.0, -187500.02235174447, 9064.593501638592, -17203.422451427276, -34046.7359479351, -16749.235004095437, -33499.29702273572, -187500.02235174447, -42981.666979988455, -3775.723728623835, -9117.477729019849, -45572.16710712518, -44289.62401027966, -32040.130441204365, -38766.217382695366, -28987.776218387633, -38138.82626757935, -0.024, 1.004, 0.154, 192.0, 0.0, 0.0, 0.0, 0.0, 0.0, 0.0, 0.0, 0.0, 0.0, 1.695676376147653E9, 0.0, 2023-09-25 16:12:56.147
0.0, -187500.02235174447, 9065.55462665017, -17188.200913453213, -34029.726270404615, -16735.801605677796, -33480.54390913772, -187500.02235174447, -42963.78558442421, -3737.681059560902, -9110.079301605141, -45553.34693829381, -44275.31889382826, -32016.281129870553, -38757.053167468686, -28973.336991469503, -38126.26458719547, -0.024, 1.004, 0.154, 192.0, 0.0, 0.0, 0.0, 0.0, 0.0, 0.0, 0.0, 0.0, 0.0, 1.695676376207995E9, 0.0, 2023-09-25 16:12:56.207
2.0, -187500.02235174447, 9035.245661168774, -17199.533247892054, -34046.66889270173, -16746.485739527434, -33490.33397320914, -187500.02235174447, -42983.72334047835, -3782.719824638346, -9110.392226027516, -45561.79589769791, -44278.47048979646, -32029.558066077003, -38752.359301133074, -28971.995886802186, -38151.20913400759, -0.034, 1.008, 0.158, 192.0, 127.0, 120.0, 15.5, 64.0, 2.0, 120.0, 0.0, 0.0, 0.0, 1.695676376208004E9, 0.0, 2023-09-25 16:12:56.208
4.0, -187500.02235174447, 9011.418701579416, -17204.1600589943, -34058.31415156295, -16746.239870338424, -33483.8519673171, -187500.02235174447, -42998.40843658548, -3747.202902698863, -9141.61761303158, -45569.52960127945, -44293.58026904825, -32022.316100873486, -38778.510842145784, -28974.92396532583, -38123.98470926103, -0.034, 1.008, 0.158, 192.0, 0.0, 0.0, 0.0, 0.0, 0.0, 0.0, 0.0, 0.0, 0.0, 1.695676376208008E9, 0.0, 2023-09-25 16:12:56.208
6.0, -187500.02235174447, 9004.690826498369, -17200.092041503434, -34047.764128180046, -16737.098006856206, -33506.516636194785, -187500.02235174447, -42974.26855257375, -3795.37091200005, -9143.76338049929, -45589.087377677846, -44304.48792034244, -32043.416147639295, -38774.68869384393, -28979.59547991699, -38141.97786354755, -0.034, 1.008, 0.158, 192.0, 0.0, 0.0, 0.0, 0.0, 0.0, 0.0, 0.0, 0.0, 0.0, 1.695676376208011E9, 0.0, 2023-09-25 16:12:56.208
8.0, -187500.02235174447, 8985.73654720027, -17217.057015545015, -34068.528898779026, -16751.93956517453, -33485.81892082917, -187500.02235174447, -42996.26266911777, -3771.1863244994074, -9157.867331250589, -45584.2594008755, -44306.030190709855, -32025.110068930397, -38783.24941197031, -28977.717933382744, -38136.07700301135, -0.034, 1.008, 0.158, 192.0, 0.0, 0.0, 0.0, 0.0, 0.0, 0.0, 0.0, 0.0, 0.0, 1.695676376208014E9, 0.0, 2023-09-25 16:12:56.208
10.0, -187500.02235174447, 8993.336140315074, -17206.238771228644, -34050.960427637154, -16734.371094032656, -33504.99671757183, -187500.02235174447, -42963.986750124306, -3806.5691359721586, -9144.791560744234, -45606.1641104417, -44308.131254688655, -32032.53084808956, -38765.25625768379, -28979.237852005703, -38147.92342757266, -0.034, 1.008, 0.158, 192.0, 0.0, 0.0, 0.0, 0.0, 0.0, 0.0, 0.0, 0.0, 0.0, 1.695676376208017E9, 0.0, 2023-09-25 16:12:56.208
12.0, -187500.02235174447, 8982.9202273989, -17205.16588749479, -34060.92930566422, -16741.344838302713, -33471.46910088886, -187500.02235174447, -42967.69713970389, -3789.6265136750358, -9151.117104425086, -45605.1135784523, -44305.87372849867, -32015.230597881153, -38767.24556294031, -28969.045456534084, -38144.45890718209, -0.046, 0.996, 0.15, 192.0, 127.0, 72.0, 15.5, 16.0, 2.0, 88.0, 0.0, 0.0, 0.0, 1.69567637620802E9, 0.0, 2023-09-25 16:12:56.208
14.0, -187500.02235174447, 8986.831782678579, -17199.332082191955, -34058.381206796315, -16738.953201645996, -33498.268842490776, -187500.02235174447, -42976.48137527482, -3788.0171880742537, -9148.569005557181, -45595.8152527589, -44310.09820820072, -32038.96815049269, -38763.982208249836, -28971.4370931908, -38126.86808429576, -0.046, 0.996, 0.15, 192.0, 0.0, 0.0, 0.0, 0.0, 0.0, 0.0, 0.0, 0.0, 0.0, 1.695676376268082E9, 0.0, 2023-09-25 16:12:56.268
16.0, -187500.02235174447, 8968.637462691959, -17213.59249515444, -34080.531785551524, -16757.482797799446, -33472.00554275579, -187500.02235174447, -42998.43078832993, -3801.919973125455, -9155.38628761605, -45585.935781709646, -44311.126388445664, -32027.635816053848, -38771.35828392008, -28975.21453800375, -38141.3520147028, -0.046, 0.996, 0.15, 192.0, 0.0, 0.0, 0.0, 0.0, 0.0, 0.0, 0.0, 0.0, 0.0, 1.695676376268094E9, 0.0, 2023-09-25 16:12:56.268
18.0, -187500.02235174447, 8975.186523817363, -17217.727567878672, -34076.46376806066, -16757.12516988816, -33507.76833388428, -187500.02235174447, -43000.91183196448, -3774.6731966344355, -9176.352223915128, -45604.4653778631, -44334.32749919027, -32045.9642465072, -38792.413627196984, -28996.56045395857, -38093.474578079535, -0.046, 0.996, 0.15, 192.0, 0.0, 0.0, 0.0, 0.0, 0.0, 0.0, 0.0, 0.0, 0.0, 1.695676376268098E9, 0.0, 2023-09-25 16:12:56.268
20.0, -187500.02235174447, 8985.691843711358, -17208.92098056328, -34064.70675047717, -16751.447826796513, -33487.83057783015, -187500.02235174447, -42994.00514292779, -3819.175519844952, -9161.778886530266, -45601.40318887272, -44322.12344671768, -32042.276208672072, -38780.38838868003, -28992.22421553424, -38131.96428203157, -0.046, 0.996, 0.15, 192.0, 0.0, 0.0, 0.0, 0.0, 0.0, 0.0, 0.0, 0.0, 0.0, 1.695676376268101E9, 0.0, 2023-09-25 16:12:56.268
22.0, -187500.02235174447, 8994.58783800457, -17207.132841006856, -34054.98374163911, -16748.251527339402, -33507.45540946191, -187500.02235174447, -42993.15577663849, -3782.3845484715166, -9155.18512191595, -45595.4129213587, -44311.215795423486, -32041.985635994155, -38774.465176399375, -28985.49634045319, -38113.25587192248, -0.042, 1.004, 0.154, 192.0, 127.0, 88.0, 15.5, 48.0, 2.0, 104.0, 0.0, 0.0, 0.0, 1.695676376268104E9, 0.0, 2023-09-25 16:12:56.268
24.0, -187500.02235174447, 8981.601474476038, -17222.801413870027, -34073.02159941454, -16769.08335317175, -33480.83448181563, -187500.02235174447, -43004.242241888314, -3816.783883188234, -9159.856636507111, -45594.7647207695, -44309.315897144785, -32038.38700513685, -38780.410740424486, -28986.725686398233, -38151.6561688967, -0.042, 1.004, 0.154, 192.0, 0.0, 0.0, 0.0, 0.0, 0.0, 0.0, 0.0, 0.0, 0.0, 1.695676376268107E9, 0.0, 2023-09-25 16:12:56.268
26.0, -187500.02235174447, 9000.801622963147, -17209.770346852583, -34054.29083756099, -16757.25928035489, -33511.52342695277, -187500.02235174447, -42987.053750402185, -3760.502190649771, -9165.399869132027, -45602.34196213984, -44311.0593332123, -32052.178031465774, -38788.032685283746, -28993.49826496819, -38097.1402641702, -0.042, 1.004, 0.154, 192.0, 0.0, 0.0, 0.0, 0.0, 0.0, 0.0, 0.0, 0.0, 0.0, 1.69567637626811E9, 0.0, 2023-09-25 16:12:56.268
28.0, -187500.02235174447, 9002.25448635274, -17195.398175167822, -34048.07705260242, -16747.558623261288, -33492.39033369903, -187500.02235174447, -42971.02754962773, -3823.4670547803707, -9150.491255580337, -45591.233145145554, -44297.11184467219, -32038.901095259323, -38770.3524554196, -28972.800549602576, -38163.41318648019, -0.042, 1.004, 0.154, 192.0, 0.0, 0.0, 0.0, 0.0, 0.0, 0.0, 0.0, 0.0, 0.0, 1.695676376268113E9, 0.0, 2023-09-25 16:12:56.268
30.0, -187500.02235174447, 9015.866698726022, -17197.02985251306, -34048.25586655806, -16749.92790817355, -33502.806246615204, -187500.02235174447, -42977.91188691997, -3736.429361871405, -9156.570930072181, -45579.699645006614, -44297.916507472575, -32027.43465035375, -38778.510842145784, -28971.146520512884, -38112.65237482219, -0.042, 1.004, 0.154, 192.0, 0.0, 0.0, 0.0, 0.0, 0.0, 0.0, 0.0, 0.0, 0.0, 1.695676376328471E9, 0.0, 2023-09-25 16:12:56.328
32.0, -187500.02235174447, 9024.673286041414, -17191.620730354873, -34051.69803520418, -16747.133940116637, -33480.96859228237, -187500.02235174447, -42968.12182284854, -3816.3592000435833, -9136.566118784682, -45574.40228157071, -44283.96901893247, -32034.49780160163, -38762.90932451598, -28960.90942155235, -38169.336398760846, -0.036000000000000004, 1.0, 0.148, 192.0, 127.0, 112.0, 15.5, 32.0, 2.0, 80.0, 0.0, 0.0, 0.0, 1.695676376328498E9, 0.0, 2023-09-25 16:12:56.328
34.0, -187500.02235174447, 9021.320524373117, -17201.187276981746, -34058.26944807404, -16751.380771563145, -33488.21055748589, -187500.02235174447, -42976.97311365284, -3734.171835681419, -9146.400886345016, -45567.94262742312, -44286.315952100274, -32028.48518234315, -38774.599286866105, -28963.323409953526, -38103.68932529561, -0.036000000000000004, 1.0, 0.148, 192.0, 0.0, 0.0, 0.0, 0.0, 0.0, 0.0, 0.0, 0.0, 0.0, 1.695676376328501E9, 0.0, 2023-09-25 16:12:56.328
36.0, -187500.02235174447, 9019.577088305603, -17198.88504730285, -34059.789366697, -16749.413818051078, -33487.562356896684, -187500.02235174447, -42967.02658737023, -3813.3193627976616, -9146.356182856105, -45579.49847930652, -44291.702722514005, -32042.276208672072, -38775.69452234441, -28972.509976924655, -38149.041014795424, -0.036000000000000004, 1.0, 0.148, 192.0, 0.0, 0.0, 0.0, 0.0, 0.0, 0.0, 0.0, 0.0, 0.0, 1.695676376328504E9, 0.0, 2023-09-25 16:12:56.328
38.0, -187500.02235174447, 9029.233041910296, -17201.611960126396, -34061.30928531996, -16748.564451761777, -33486.71299060738, -187500.02235174447, -42964.9925786248, -3738.820998528123, -9150.267738135784, -45566.80268845591, -44284.706626499494, -32026.115897430886, -38778.24262121232, -28965.580936143513, -38100.962412472065, -0.036000000000000004, 1.0, 0.148, 192.0, 0.0, 0.0, 0.0, 0.0, 0.0, 0.0, 0.0, 0.0, 0.0, 1.695676376328508E9, 0.0, 2023-09-25 16:12:56.328
40.0, -187500.02235174447, 9033.189300678885, -17200.472021159178, -34066.65135224478, -16748.676210484053, -33487.852929574605, -187500.02235174447, -42970.35699729407, -3813.9899151313207, -9143.450456076915, -45581.5101363075, -44292.61914403667, -32043.617313339393, -38775.515708388775, -28970.855947834963, -38145.621197893764, -0.036000000000000004, 1.0, 0.148, 192.0, 0.0, 0.0, 0.0, 0.0, 0.0, 0.0, 0.0, 0.0, 0.0, 1.695676376328511E9, 0.0, 2023-09-25 16:12:56.328
42.0, -187500.02235174447, 9048.008507252754, -17194.660567600797, -34061.4880992756, -16744.228213337447, -33479.113397492576, -187500.02235174447, -42976.41432004146, -3738.820998528123, -9148.367839857083, -45569.373139068266, -44288.685237012534, -32026.406470108806, -38780.79072008023, -28965.893860565888, -38095.575642058335, -0.044, 1.002, 0.14200000000000002, 192.0, 127.0, 80.0, 15.5, 40.0, 2.0, 56.0, 0.0, 0.0, 0.0, 1.695676376328514E9, 0.0, 2023-09-25 16:12:56.328
44.0, -187500.02235174447, 9039.06780947063, -17204.98707353915, -34074.65327675978, -16756.566376276776, -33488.903461564005, -187500.02235174447, -42990.473567303845, -3805.406845260483, -9141.259985120296, -45576.54804903842, -44286.83004222275, -32041.9632842497, -38776.47683340035, -28969.648953634376, -38138.93802630163, -0.044, 1.002, 0.14200000000000002, 192.0, 0.0, 0.0, 0.0, 0.0, 0.0, 0.0, 0.0, 0.0, 0.0, 1.695676376388806E9, 0.0, 2023-09-25 16:12:56.388
46.0, -187500.02235174447, 9067.052193528676, -17185.25048318511, -34054.380244538814, -16732.27003005386, -33486.75769409629, -187500.02235174447, -42967.51832574825, -3742.4866846187933, -9145.998554944821, -45567.07090938937, -44284.90779219959, -32029.982749221654, -38784.63522012654, -28969.7383606122, -38103.890490995705, -0.044, 1.002, 0.14200000000000002, 192.0, 0.0, 0.0, 0.0, 0.0, 0.0, 0.0, 0.0, 0.0, 0.0, 1.695676376388819E9, 0.0, 2023-09-25 16:12:56.388
48.0, -187500.02235174447, 9061.79953358168, -17189.720832076175, -34064.75145396608, -16739.89197491312, -33495.050191289214, -187500.02235174447, -42980.5940962546, -3799.237763790818, -9127.536014024738, -45563.80755469889, -44275.94474267301, -32032.9108277453, -38767.51378387377, -28953.7345115822, -38151.499706685514, -0.044, 1.002, 0.14200000000000002, 192.0, 0.0, 0.0, 0.0, 0.0, 0.0, 0.0, 0.0, 0.0, 0.0, 1.695676376388823E9, 0.0, 2023-09-25 16:12:56.388
50.0, -187500.02235174447, 9070.248492985786, -17197.096907746425, -34068.26067784556, -16749.5032250289, -33477.012333513776, -187500.02235174447, -42981.57757301063, -3737.725763049813, -9141.461150820393, -45557.43730752913, -44280.236277608434, -32025.24417939713, -38779.96370553538, -28964.39629368738, -38114.932252756626, -0.044, 1.002, 0.14200000000000002, 192.0, 0.0, 0.0, 0.0, 0.0, 0.0, 0.0, 0.0, 0.0, 0.0, 1.695676376388827E9, 0.0, 2023-09-25 16:12:56.388
52.0, -187500.02235174447, 9070.382603452517, -17197.655701357806, -34070.0935208909, -16750.7549227184, -33496.77127561227, -187500.02235174447, -42982.60575325558, -3786.4525659623823, -9135.672049006469, -45567.71910997857, -44285.01955092187, -32047.19359245224, -38776.23096421134, -28975.281593237116, -38135.51820939997, -0.042, 1.0, 0.148, 192.0, 127.0, 88.0, 15.5, 32.0, 2.0, 80.0, 0.0, 0.0, 0.0, 1.69567637638883E9, 0.0, 2023-09-25 16:12:56.388
54.0, -187500.02235174447, 9076.909312833466, -17195.375823423365, -34071.658143002765, -16750.17377736256, -33472.85490904509, -187500.02235174447, -42980.907020676976, -3751.6061963565585, -9136.767284484778, -45554.37511853875, -44279.610428763684, -32029.401603865816, -38779.71783634637, -28967.92786931132, -38124.61055810578, -0.042, 1.0, 0.148, 192.0, 0.0, 0.0, 0.0, 0.0, 0.0, 0.0, 0.0, 0.0, 0.0, 1.695676376388833E9, 0.0, 2023-09-25 16:12:56.388
56.0, -187500.02235174447, 9084.978292581833, -17185.853980285407, -34055.36372129485, -16734.348742288203, -33500.79458961423, -187500.02235174447, -42978.31421832016, -3787.0337113182204, -9131.84990070461, -45568.83669720134, -44282.35969333169, -32046.165412207298, -38776.11920548906, -28969.35838095646, -38129.25972095248, -0.042, 1.0, 0.148, 192.0, 0.0, 0.0, 0.0, 0.0, 0.0, 0.0, 0.0, 0.0, 0.0, 1.695676376388836E9, 0.0, 2023-09-25 16:12:56.388
58.0, -187500.02235174447, 9078.65274890098, -17190.436087898743, -34059.31998006344, -16739.064960368272, -33468.18339445393, -187500.02235174447, -42969.95466589388, -3763.74319359579, -9135.090903650631, -45552.72108944906, -44271.96613215997, -32023.456039840705, -38774.26401069928, -28954.181546471304, -38128.23154070754, -0.042, 1.0, 0.148, 192.0, 0.0, 0.0, 0.0, 0.0, 0.0, 0.0, 0.0, 0.0, 0.0, 1.69567637638884E9, 0.0, 2023-09-25 16:12:56.388
60.0, -187500.02235174447, 9085.17945828193, -17185.608111096397, -34052.32388404893, -16732.82882366524, -33494.40199070001, -187500.02235174447, -42973.24037232881, -3774.5390861677038, -9129.19004311443, -45561.84060118683, -44275.81063220628, -32041.71741506069, -38766.32914141764, -28954.7850435716, -38119.71552607007, -0.042, 1.0, 0.148, 192.0, 0.0, 0.0, 0.0, 0.0, 0.0, 0.0, 0.0, 0.0, 0.0, 1.695676376448136E9, 0.0, 2023-09-25 16:12:56.448
62.0, -187500.02235174447, 9086.162935037963, -17183.97643375116, -34057.062453873456, -16733.007637620885, -33466.104682219586, -187500.02235174447, -42977.129575864026, -3772.885057078011, -9134.465054805882, -45553.59280748282, -44271.16146935958, -32028.999272465622, -38769.32427517465, -28955.701465094266, -38136.45698266709, -0.044, 1.01, 0.14200000000000002, 192.0, 127.0, 80.0, 15.5, 72.0, 2.0, 56.0, 0.0, 0.0, 0.0, 1.695676376448153E9, 0.0, 2023-09-25 16:12:56.448
64.0, -187500.02235174447, 9084.46420245936, -17196.60516936841, -34066.494890033595, -16746.083408127237, -33492.815016843684, -187500.02235174447, -42998.54254705222, -3759.4069551714606, -9135.917918195477, -45559.13604010773, -44276.458832795484, -32041.315083660495, -38772.52057463176, -28963.904555309364, -38110.41720037666, -0.044, 1.01, 0.14200000000000002, 192.0, 0.0, 0.0, 0.0, 0.0, 0.0, 0.0, 0.0, 0.0, 0.0, 1.695676376448156E9, 0.0, 2023-09-25 16:12:56.448
66.0, -187500.02235174447, 9078.429231456426, -17204.18241073876, -34076.68728550521, -16758.466274555478, -33466.01527524177, -187500.02235174447, -42999.23545113033, -3778.852972847578, -9147.294956123229, -45562.511153520485, -44281.66678925357, -32045.606618595913, -38782.31063870319, -28973.67226763633, -38116.63098533523, -0.044, 1.01, 0.14200000000000002, 192.0, 0.0, 0.0, 0.0, 0.0, 0.0, 0.0, 0.0, 0.0, 0.0, 1.695676376448159E9, 0.0, 2023-09-25 16:12:56.448
68.0, -187500.02235174447, 9092.287313018718, -17188.044451242025, -34058.60472424087, -16741.03191388034, -33498.71587737988, -187500.02235174447, -42980.21411659886, -3761.0609842611534, -9140.835301975645, -45568.21084835659, -44280.07981539724, -32053.519136133094, -38778.98022877934, -28975.97449731523, -38089.60772628876, -0.044, 1.01, 0.14200000000000002, 192.0, 0.0, 0.0, 0.0, 0.0, 0.0, 0.0, 0.0, 0.0, 0.0, 1.695676376448163E9, 0.0, 2023-09-25 16:12:56.448
70.0, -187500.02235174447, 9087.504039705282, -17192.78302106655, -34068.305381334474, -16749.145597117615, -33471.558507866685, -187500.02235174447, -42987.65724750248, -3798.0307695902316, -9136.074380406664, -45555.89503716172, -44270.91560017057, -32040.66688307129, -38772.788795565226, -28963.45752042026, -38129.86321805277, -0.044, 1.01, 0.14200000000000002, 192.0, 0.0, 0.0, 0.0, 0.0, 0.0, 0.0, 0.0, 0.0, 0.0, 1.695676376448166E9, 0.0, 2023-09-25 16:12:56.448
72.0, -187500.02235174447, 9100.378644511538, -17182.568273850477, -34054.69316896119, -16738.483815012434, -33496.21248200089, -187500.02235174447, -42978.47068053135, -3754.690737091391, -9133.794502472223, -45555.49270576152, -44271.8990769266, -32044.936066262257, -38771.55944962018, -28965.715046610243, -38091.12764491173, -0.046, 1.006, 0.14400000000000002, 192.0, 127.0, 72.0, 15.5, 56.0, 2.0, 64.0, 0.0, 0.0, 0.0, 1.695676376448171E9, 0.0, 2023-09-25 16:12:56.448
74.0, -187500.02235174447, 9092.197906040896, -17173.78403827954, -34055.67664571722, -16729.185489319025, -33470.507975877284, -187500.02235174447, -42972.81568918416, -3805.2280313048404, -9137.95192694091, -45548.58601672483, -44265.551181501294, -32037.33647314745, -38768.56431586317, -28951.029950503107, -38142.64841588121, -0.046, 1.006, 0.14400000000000002, 192.0, 0.0, 0.0, 0.0, 0.0, 0.0, 0.0, 0.0, 0.0, 0.0, 1.695676376507837E9, 0.0, 2023-09-25 16:12:56.507
76.0, -187500.02235174447, 9087.615798427558, -17188.424430897765, -34063.83503244341, -16738.193242334513, -33484.96955453987, -187500.02235174447, -42983.65628524498, -3738.9998124837653, -9151.8100085032, -45546.90963589068, -44273.06136763828, -32035.995368480133, -38777.72853108985, -28949.934715024796, -38095.285069380414, -0.046, 1.006, 0.14400000000000002, 192.0, 0.0, 0.0, 0.0, 0.0, 0.0, 0.0, 0.0, 0.0, 0.0, 1.695676376507851E9, 0.0, 2023-09-25 16:12:56.507
78.0, -187500.02235174447, 9086.632321671525, -17189.4079076538, -34069.80294821298, -16744.54113775982, -33471.692618333414, -187500.02235174447, -42981.8457939441, -3809.8324906626335, -9147.674935778969, -45562.5558570094, -44278.29167584082, -32048.400586652828, -38774.152251977, -28958.428377917815, -38146.202343249606, -0.046, 1.006, 0.14400000000000002, 192.0, 0.0, 0.0, 0.0, 0.0, 0.0, 0.0, 0.0, 0.0, 0.0, 1.695676376507855E9, 0.0, 2023-09-25 16:12:56.507
80.0, -187500.02235174447, 9104.290199791218, -17176.890930758826, -34053.329712549414, -16726.92796312904, -33482.53321439424, -187500.02235174447, -42967.56302923716, -3744.9900799977877, -9140.388267086539, -45551.71526094857, -44267.026396635345, -32036.9117900028, -38767.69259782942, -28955.701465094266, -38104.56104332936, -0.046, 1.006, 0.14400000000000002, 192.0, 0.0, 0.0, 0.0, 0.0, 0.0, 0.0, 0.0, 0.0, 0.0, 1.695676376507858E9, 0.0, 2023-09-25 16:12:56.507
82.0, -187500.02235174447, 9083.525429192237, -17192.20187571071, -34078.587183783915, -16745.725780215955, -33468.47396713185, -187500.02235174447, -42991.680561504436, -3807.1949848169074, -9144.411581088494, -45554.03984237192, -44266.82523093525, -32043.72907206167, -38770.17364146395, -28950.24763944717, -38148.39281420622, -0.048, 1.004, 0.146, 192.0, 127.0, 64.0, 15.5, 48.0, 2.0, 72.0, 0.0, 0.0, 0.0, 1.695676376507861E9, 0.0, 2023-09-25 16:12:56.507
84.0, -187500.02235174447, 9096.757661909778, -17180.958948249692, -34065.82433769993, -16734.728721943942, -33487.070618518665, -187500.02235174447, -42988.43955855841, -3735.8705682600225, -9160.169560929486, -45551.84937141531, -44275.207135105986, -32042.209153438707, -38786.04338002722, -28958.338970939993, -38081.11406339575, -0.048, 1.004, 0.146, 192.0, 0.0, 0.0, 0.0, 0.0, 0.0, 0.0, 0.0, 0.0, 0.0, 1.695676376507865E9, 0.0, 2023-09-25 16:12:56.507
86.0, -187500.02235174447, 9090.923856606943, -17177.11444820338, -34067.56777376745, -16736.807434178285, -33476.29707769121, -187500.02235174447, -42987.41137831347, -3825.299897825706, -9144.411581088494, -45550.95530163709, -44266.48995476842, -32043.77377555058, -38766.9996937513, -28944.97262775572, -38149.86802934027, -0.048, 1.004, 0.146, 192.0, 0.0, 0.0, 0.0, 0.0, 0.0, 0.0, 0.0, 0.0, 0.0, 1.695676376507869E9, 0.0, 2023-09-25 16:12:56.507
88.0, -187500.02235174447, 9101.384473012027, -17179.55078834901, -34059.61055274136, -16741.523652258355, -33472.96666776737, -187500.02235174447, -42987.7466544803, -3734.015373470232, -9156.660337050002, -45543.288653288924, -44266.24408557941, -32035.168353935285, -38777.41560666748, -28950.53821212509, -38085.60676403127, -0.048, 1.004, 0.146, 192.0, 0.0, 0.0, 0.0, 0.0, 0.0, 0.0, 0.0, 0.0, 0.0, 1.695676376507874E9, 0.0, 2023-09-25 16:12:56.507
90.0, -187500.02235174447, 9118.170633097963, -17161.512930573575, -34043.83022115591, -16727.68792244052, -33470.46327238838, -187500.02235174447, -42968.9935408823, -3813.7440459423124, -9130.575851270658, -45547.4013742687, -44253.1459633286, -32045.070176728987, -38752.53811508872, -28943.229191688206, -38141.66493912518, -0.048, 1.004, 0.146, 192.0, 0.0, 0.0, 0.0, 0.0, 0.0, 0.0, 0.0, 0.0, 0.0, 1.695676376568111E9, 0.0, 2023-09-25 16:12:56.568
92.0, -187500.02235174447, 9108.000589370798, -17178.43320112624, -34063.09742487639, -16745.815187193773, -33465.411778141475, -187500.02235174447, -42996.93322145143, -3734.820036270623, -9136.81198797369, -45528.67061241515, -44246.70866092547, -32021.71260377319, -38758.05899596918, -28939.16117419734, -38100.604784560775, -0.048, 0.998, 0.146, 192.0, 127.0, 64.0, 15.5, 24.0, 2.0, 72.0, 0.0, 0.0, 0.0, 1.695676376568122E9, 0.0, 2023-09-25 16:12:56.568
94.0, -187500.02235174447, 9102.055025345686, -17187.038622741537, -34072.574564525436, -16749.972611662462, -33494.11141802209, -187500.02235174447, -43003.9516692104, -3801.6964556809016, -9149.57483405767, -45556.76675519547, -44266.8475826797, -32056.067235001, -38772.83349905413, -28961.91525005284, -38130.71258434207, -0.048, 0.998, 0.146, 192.0, 0.0, 0.0, 0.0, 0.0, 0.0, 0.0, 0.0, 0.0, 0.0, 1.695676376568125E9, 0.0, 2023-09-25 16:12:56.568
96.0, -187500.02235174447, 9112.090958606119, -17177.69559355922, -34063.45505278767, -16734.63931496612, -33484.366057439576, -187500.02235174447, -42984.55035502319, -3752.2543969457624, -9149.172502657473, -45537.700717175096, -44258.778602931336, -32031.837944011444, -38770.77713856425, -28949.01829350213, -38121.48131388203, -0.048, 0.998, 0.146, 192.0, 0.0, 0.0, 0.0, 0.0, 0.0, 0.0, 0.0, 0.0, 0.0, 1.695676376568129E9, 0.0, 2023-09-25 16:12:56.568
98.0, -187500.02235174447, 9100.870382889556, -17185.608111096397, -34073.93802093721, -16743.848233681707, -33503.655612904506, -187500.02235174447, -42993.200480127394, -3800.4447579914045, -9148.770171257278, -45548.049574857905, -44265.30531231229, -32047.551220363526, -38769.59249610812, -28950.180584213806, -38151.700872385605, -0.048, 0.998, 0.146, 192.0, 0.0, 0.0, 0.0, 0.0, 0.0, 0.0, 0.0, 0.0, 0.0, 1.695676376568132E9, 0.0, 2023-09-25 16:12:56.568
100.0, -187500.02235174447, 9106.324208536651, -17180.422506382765, -34064.393826054795, -16740.36136154668, -33479.046342259215, -187500.02235174447, -42994.94391619491, -3752.9696527683323, -9160.303671396217, -45543.86979864476, -44264.47829776744, -32039.124612703876, -38780.99188578032, -28950.29234293608, -38121.88364528223, -0.048, 0.998, 0.146, 192.0, 0.0, 0.0, 0.0, 0.0, 0.0, 0.0, 0.0, 0.0, 0.0, 1.695676376568136E9, 0.0, 2023-09-25 16:12:56.568
102.0, -187500.02235174447, 9108.291162048718, -17178.321442403965, -34063.276238832026, -16739.35553304619, -33496.525406423265, -187500.02235174447, -42990.31710509266, -3799.327170768639, -9144.702153766413, -45546.52965623494, -44256.90105639709, -32050.568705864993, -38762.23877218232, -28944.704406822257, -38146.93995081663, -0.044, 1.002, 0.14400000000000002, 192.0, 127.0, 80.0, 15.5, 40.0, 2.0, 64.0, 0.0, 0.0, 0.0, 1.695676376568139E9, 0.0, 2023-09-25 16:12:56.568
104.0, -187500.02235174447, 9103.865516646567, -17187.418602397276, -34074.47446280414, -16748.02800989485, -33472.474929389355, -187500.02235174447, -42999.7495412528, -3763.1843999844077, -9160.549540585225, -45538.43832474212, -44260.96907388796, -32036.263589413596, -38774.889859544026, -28949.711197580244, -38124.588206361324, -0.044, 1.002, 0.14400000000000002, 192.0, 0.0, 0.0, 0.0, 0.0, 0.0, 0.0, 0.0, 0.0, 0.0, 1.695676376628339E9, 0.0, 2023-09-25 16:12:56.628
106.0, -187500.02235174447, 9108.268810304262, -17186.233959941146, -34069.490023790604, -16744.07175112626, -33498.58176691315, -187500.02235174447, -42991.7476167378, -3784.7985368726895, -9154.201645159917, -45553.503400505, -44265.215905334466, -32055.284923945062, -38770.86654554207, -28956.26025870565, -38123.470619138556, -0.044, 1.002, 0.14400000000000002, 192.0, 0.0, 0.0, 0.0, 0.0, 0.0, 0.0, 0.0, 0.0, 0.0, 1.69567637662835E9, 0.0, 2023-09-25 16:12:56.628
108.0, -187500.02235174447, 9114.393188285016, -17178.92493950426, -34063.611514998855, -16740.07078886876, -33476.319429435665, -187500.02235174447, -42990.630029515036, -3774.9861210568097, -9157.017964961287, -45542.77456316645, -44260.34322504321, -32040.465717371193, -38772.67703684295, -28952.214592959237, -38130.35495643079, -0.044, 1.002, 0.14400000000000002, 192.0, 0.0, 0.0, 0.0, 0.0, 0.0, 0.0, 0.0, 0.0, 0.0, 1.695676376628354E9, 0.0, 2023-09-25 16:12:56.628
110.0, -187500.02235174447, 9121.769263955268, -17174.432238868743, -34054.670817216735, -16733.45467250999, -33502.82859835966, -187500.02235174447, -42983.477471289334, -3782.429251960427, -9145.506816566804, -45543.48981898902, -44255.76111742987, -32046.76890930759, -38760.405929136985, -28950.62761910291, -38133.64066286572, -0.044, 1.002, 0.14400000000000002, 192.0, 0.0, 0.0, 0.0, 0.0, 0.0, 0.0, 0.0, 0.0, 0.0, 1.695676376628357E9, 0.0, 2023-09-25 16:12:56.628
112.0, -187500.02235174447, 9100.579810211637, -17189.765535565082, -34076.66493376076, -16750.665515740577, -33468.406911898484, -187500.02235174447, -43003.59404129911, -3780.9093333374663, -9159.364898129093, -45538.05834508638, -44258.04099536431, -32037.850563269923, -38770.86654554207, -28952.39340691488, -38137.59692163431, -0.038, 1.004, 0.14200000000000002, 192.0, 127.0, 104.0, 15.5, 48.0, 2.0, 56.0, 0.0, 0.0, 0.0, 1.69567637662836E9, 0.0, 2023-09-25 16:12:56.628
114.0, -187500.02235174447, 9109.9004876495, -17187.73152681965, -34070.58525926891, -16740.294306313313, -33498.09002853513, -187500.02235174447, -42992.708741749375, -3771.0298622882206, -9165.176351687474, -45552.4528685156, -44270.46856528146, -32058.48122340217, -38774.06284499918, -28962.96578204224, -38104.73985728501, -0.038, 1.004, 0.14200000000000002, 192.0, 0.0, 0.0, 0.0, 0.0, 0.0, 0.0, 0.0, 0.0, 0.0, 1.695676376628363E9, 0.0, 2023-09-25 16:12:56.628
116.0, -187500.02235174447, 9105.273676547251, -17191.01723325458, -34080.97882044063, -16745.703428471497, -33467.53519386473, -187500.02235174447, -42996.910869706975, -3801.517641725259, -9162.225921419373, -45543.89215038921, -44261.52786749934, -32048.646455841837, -38767.334969918134, -28949.040645246583, -38143.56483740388, -0.038, 1.004, 0.14200000000000002, 192.0, 0.0, 0.0, 0.0, 0.0, 0.0, 0.0, 0.0, 0.0, 0.0, 1.695676376628366E9, 0.0, 2023-09-25 16:12:56.628
118.0, -187500.02235174447, 9108.335865537629, -17189.58672160944, -34073.91566919276, -16744.585841248732, -33492.52444416576, -187500.02235174447, -42995.3462475951, -3764.950187796377, -9168.395002889038, -45553.704566205095, -44267.42872803554, -32060.135252491866, -38772.6993885874, -28959.25539246266, -38106.93032824163, -0.038, 1.004, 0.14200000000000002, 192.0, 0.0, 0.0, 0.0, 0.0, 0.0, 0.0, 0.0, 0.0, 0.0, 1.69567637662837E9, 0.0, 2023-09-25 16:12:56.628
120.0, -187500.02235174447, 9106.99476087031, -17182.79179129503, -34071.7922534695, -16739.713160957475, -33469.882127032535, -187500.02235174447, -42992.08289290463, -3811.8441476636112, -9166.62921507707, -45549.14481033621, -44264.5453530008, -32053.094452988444, -38768.452557140896, -28950.046473747072, -38142.626064136755, -0.038, 1.004, 0.14200000000000002, 192.0, 0.0, 0.0, 0.0, 0.0, 0.0, 0.0, 0.0, 0.0, 0.0, 1.695676376688811E9, 0.0, 2023-09-25 16:12:56.688
122.0, -187500.02235174447, 9119.42233078746, -17183.797619795518, -34062.82920394292, -16737.813262678774, -33490.28926972023, -187500.02235174447, -42990.02653241474, -3758.177609226419, -9163.8128952757, -45546.46260100158, -44261.17023958806, -32050.54635412054, -38767.17850770694, -28951.834613303497, -38098.28020313742, -0.044, 1.002, 0.14200000000000002, 192.0, 127.0, 80.0, 15.5, 40.0, 2.0, 56.0, 0.0, 0.0, 0.0, 1.69567637668882E9, 0.0, 2023-09-25 16:12:56.688
124.0, -187500.02235174447, 9113.454415017894, -17188.715003575686, -34074.04977965949, -16746.016352893872, -33473.726627078846, -187500.02235174447, -42998.47549181885, -3815.107502354086, -9154.425162604472, -45545.85910390128, -44257.05751860828, -32051.507479132117, -38760.94237100391, -28953.443938904282, -38144.570665904364, -0.044, 1.002, 0.14200000000000002, 192.0, 0.0, 0.0, 0.0, 0.0, 0.0, 0.0, 0.0, 0.0, 0.0, 1.695676376688824E9, 0.0, 2023-09-25 16:12:56.688
126.0, -187500.02235174447, 9127.33484832464, -17178.63436682634, -34062.18100335372, -16734.68401845503, -33495.07254303367, -187500.02235174447, -42990.25004985929, -3752.5002661347708, -9150.625366047068, -45540.94172012112, -44254.35295752918, -32041.560952849504, -38759.80243203669, -28958.093101750983, -38102.281165394925, -0.044, 1.002, 0.14200000000000002, 192.0, 0.0, 0.0, 0.0, 0.0, 0.0, 0.0, 0.0, 0.0, 0.0, 1.695676376688827E9, 0.0, 2023-09-25 16:12:56.688
128.0, -187500.02235174447, 9114.37083654056, -17187.73152681965, -34079.57066053995, -16750.240832595926, -33479.471025403865, -187500.02235174447, -43011.93124198094, -3812.5370517417255, -9145.439761333439, -45539.28769103142, -44254.509419740374, -32036.95649349171, -38757.83547852463, -28958.517784895634, -38157.19940152161, -0.044, 1.002, 0.14200000000000002, 192.0, 0.0, 0.0, 0.0, 0.0, 0.0, 0.0, 0.0, 0.0, 0.0, 1.695676376688831E9, 0.0, 2023-09-25 16:12:56.688
130.0, -187500.02235174447, 9117.120101108563, -17194.772326323073, -34075.68145700472, -16753.772408219866, -33491.22804298736, -187500.02235174447, -43003.16935815446, -3732.78602752519, -9158.202607417417, -45538.818304397864, -44264.0983181117, -32027.43465035375, -38773.59345836562, -28969.805415845563, -38091.35116235628, -0.044, 1.002, 0.14200000000000002, 192.0, 0.0, 0.0, 0.0, 0.0, 0.0, 0.0, 0.0, 0.0, 0.0, 1.695676376688834E9, 0.0, 2023-09-25 16:12:56.688
132.0, -187500.02235174447, 9121.791615699723, -17188.625596597863, -34070.07116914644, -16746.5527947608, -33484.58957488413, -187500.02235174447, -42996.352076095594, -3818.2590983222844, -9133.414522816483, -45544.406240511686, -44254.28590229582, -32031.413260866793, -38751.599341821595, -28963.301058209072, -38150.8515060963, -0.044, 1.002, 0.138, 192.0, 127.0, 80.0, 15.5, 40.0, 2.0, 40.0, 0.0, 0.0, 0.0, 1.695676376688838E9, 0.0, 2023-09-25 16:12:56.688
134.0, -187500.02235174447, 9116.918935408466, -17199.712061847695, -34077.73781749461, -16751.13490237414, -33485.01425802878, -187500.02235174447, -42995.7485789953, -3736.205844426852, -9137.147264140518, -45534.68323167363, -44249.27911153783, -32009.37444083386, -38756.60613257958, -28964.038665776097, -38098.16844441515, -0.044, 1.002, 0.138, 192.0, 0.0, 0.0, 0.0, 0.0, 0.0, 0.0, 0.0, 0.0, 0.0, 1.695676376748159E9, 0.0, 2023-09-25 16:12:56.748
136.0, -187500.02235174447, 9105.094862591608, -17206.21641948419, -34089.204262400184, -16753.705352986497, -33487.495301663315, -187500.02235174447, -42995.61446852857, -3814.593412231614, -9133.570985027669, -45551.737612693025, -44258.73389944243, -32022.740784018137, -38758.86365876957, -28974.052247292075, -38138.87097106826, -0.044, 1.002, 0.138, 192.0, 0.0, 0.0, 0.0, 0.0, 0.0, 0.0, 0.0, 0.0, 0.0, 1.69567637674817E9, 0.0, 2023-09-25 16:12:56.748
138.0, -187500.02235174447, 9110.883964405533, -17206.41758518429, -34079.637715773315, -16746.105759871694, -33478.17462422545, -187500.02235174447, -42989.87007020356, -3747.851103288067, -9131.536976282237, -45538.259510786476, -44252.7436319284, -31998.10916162839, -38756.203801179385, -28967.838462333497, -38097.877871737226, -0.044, 1.002, 0.138, 192.0, 0.0, 0.0, 0.0, 0.0, 0.0, 0.0, 0.0, 0.0, 0.0, 1.695676376748174E9, 0.0, 2023-09-25 16:12:56.748
140.0, -187500.02235174447, 9117.880060420044, -17197.02985251306, -34069.6911894907, -16738.305001056793, -33483.56139463918, -187500.02235174447, -42977.91188691997, -3820.2484035788066, -9118.237688331328, -45551.335281292835, -44253.90592264008, -32007.631004766346, -38746.79371676371, -28968.01727628914, -38143.6542443817, -0.044, 1.002, 0.138, 192.0, 0.0, 0.0, 0.0, 0.0, 0.0, 0.0, 0.0, 0.0, 0.0, 1.695676376748177E9, 0.0, 2023-09-25 16:12:56.748
142.0, -187500.02235174447, 9115.04138887422, -17203.623617127374, -34072.46280580316, -16743.803530192796, -33466.61877234206, -187500.02235174447, -42984.28213408973, -3745.079486975609, -9117.745949953312, -45529.2964612599, -44246.194570802996, -31983.066437609967, -38745.54201907421, -28961.289401208094, -38107.33265964183, -0.038, 1.0, 0.14200000000000002, 192.0, 127.0, 104.0, 15.5, 32.0, 2.0, 56.0, 0.0, 0.0, 0.0, 1.695676376748181E9, 0.0, 2023-09-25 16:12:56.748
144.0, -187500.02235174447, 9116.315438308173, -17197.2086664687, -34066.38313131132, -16735.55573648879, -33485.17072023996, -187500.02235174447, -42977.55425900868, -3807.8431854061114, -9108.671141704457, -45545.23325505653, -44253.77181217335, -31999.47261804016, -38739.86467598256, -28968.956049556262, -38143.050747281406, -0.038, 1.0, 0.14200000000000002, 192.0, 0.0, 0.0, 0.0, 0.0, 0.0, 0.0, 0.0, 0.0, 0.0, 1.695676376748184E9, 0.0, 2023-09-25 16:12:56.748
146.0, -187500.02235174447, 9107.687664948424, -17205.4117566838, -34075.68145700472, -16746.239870338424, -33461.343760650605, -187500.02235174447, -42979.49886077629, -3747.6052340990586, -9113.588525484625, -45529.72114440455, -44250.106126082675, -31976.025638106545, -38743.50801032878, -28961.11058725245, -38110.97599398804, -0.038, 1.0, 0.14200000000000002, 192.0, 0.0, 0.0, 0.0, 0.0, 0.0, 0.0, 0.0, 0.0, 0.0, 1.695676376748188E9, 0.0, 2023-09-25 16:12:56.748
148.0, -187500.02235174447, 9116.382493541538, -17192.06776524398, -34062.292762075995, -16733.365265532168, -33488.14350225252, -187500.02235174447, -42963.87499140203, -3801.4505864918933, -9110.101653349597, -45551.11176384828, -44262.623102977646, -32004.166484375775, -38743.1950859064, -28975.035724048106, -38127.56098837388, -0.038, 1.0, 0.14200000000000002, 192.0, 0.0, 0.0, 0.0, 0.0, 0.0, 0.0, 0.0, 0.0, 0.0, 1.695676376748191E9, 0.0, 2023-09-25 16:12:56.748
150.0, -187500.02235174447, 9125.09967387911, -17185.02696574056, -34058.090634118395, -16732.113567842673, -33464.29419091871, -187500.02235174447, -42961.59511346759, -3755.562455125148, -9104.983103869332, -45524.423780968646, -44245.16639055806, -31973.723408427646, -38738.83649573762, -28959.16598548484, -38118.24031093602, -0.038, 1.0, 0.14200000000000002, 192.0, 0.0, 0.0, 0.0, 0.0, 0.0, 0.0, 0.0, 0.0, 0.0, 1.695676376807979E9, 0.0, 2023-09-25 16:12:56.807
152.0, -187500.02235174447, 9120.718731965868, -17193.565332122485, -34065.422006299734, -16740.6519342246, -33496.905386079, -187500.02235174447, -42974.58147699612, -3785.93847583991, -9099.37281601105, -45536.985461352524, -44248.80972490427, -31992.230652836643, -38736.75778350327, -28971.660610635354, -38138.6027501348, -0.04, 1.0, 0.14200000000000002, 192.0, 127.0, 96.0, 15.5, 32.0, 2.0, 56.0, 0.0, 0.0, 0.0, 1.695676376807989E9, 0.0, 2023-09-25 16:12:56.807
154.0, -187500.02235174447, 9115.153147596497, -17192.157172221803, -34063.209183598665, -16737.07565511175, -33464.71887406336, -187500.02235174447, -42969.865258916056, -3750.8909405339887, -9111.889792906022, -45528.84942637079, -44250.97784411643, -31984.228728321643, -38748.85007725359, -28973.7393228697, -38121.03427899293, -0.04, 1.0, 0.14200000000000002, 192.0, 0.0, 0.0, 0.0, 0.0, 0.0, 0.0, 0.0, 0.0, 0.0, 1.695676376807993E9, 0.0, 2023-09-25 16:12:56.807
156.0, -187500.02235174447, 9117.790653442224, -17191.039584999035, -34058.18004109622, -16729.274896296847, -33494.67021163347, -187500.02235174447, -42966.0431106142, -3778.204772258374, -9106.99476087031, -45545.07679284535, -44257.83982966421, -32003.09360064192, -38743.060975439665, -28975.013372303652, -38113.72525855604, -0.04, 1.0, 0.14200000000000002, 192.0, 0.0, 0.0, 0.0, 0.0, 0.0, 0.0, 0.0, 0.0, 0.0, 1.695676376807997E9, 0.0, 2023-09-25 16:12:56.807
158.0, -187500.02235174447, 9112.985028384332, -17195.55463737901, -34060.906953919766, -16730.236021308425, -33463.95891475188, -187500.02235174447, -42965.17139258044, -3778.3835862140163, -9107.821775415156, -45535.599653196296, -44253.9953296179, -31983.42406552125, -38740.6469870385, -28963.703389609265, -38129.28207269694, -0.04, 1.0, 0.14200000000000002, 192.0, 0.0, 0.0, 0.0, 0.0, 0.0, 0.0, 0.0, 0.0, 0.0, 1.695676376808E9, 0.0, 2023-09-25 16:12:56.808
160.0, -187500.02235174447, 9116.807176686189, -17192.69361408873, -34053.64263697179, -16722.904649127086, -33499.11820878008, -187500.02235174447, -42962.46683150135, -3776.237818746307, -9109.118176593563, -45542.84161839982, -44259.963245387466, -31999.919652929268, -38737.60714979257, -28967.72670361122, -38122.44243889361, -0.04, 1.0, 0.14200000000000002, 192.0, 0.0, 0.0, 0.0, 0.0, 0.0, 0.0, 0.0, 0.0, 0.0, 1.695676376808004E9, 0.0, 2023-09-25 16:12:56.808
162.0, -187500.02235174447, 9107.508850992781, -17202.34956769342, -34065.6902272332, -16735.019294621863, -33466.64112408651, -187500.02235174447, -42972.32395080614, -3786.3855107290165, -9114.594353985114, -45538.39362125321, -44260.54439074331, -31990.62132723586, -38741.02696669423, -28965.31271521005, -38142.491953670025, -0.034, 0.998, 0.14, 192.0, 127.0, 120.0, 15.5, 24.0, 2.0, 48.0, 0.0, 0.0, 0.0, 1.695676376808007E9, 0.0, 2023-09-25 16:12:56.808
164.0, -187500.02235174447, 9112.403883028494, -17207.915152062793, -34063.87973593232, -16739.489643512923, -33500.19109251393, -187500.02235174447, -42976.52607876374, -3763.9890627847985, -9119.265868576273, -45550.24004581452, -44270.33445481473, -32009.843827467423, -38747.553676075186, -28981.78595087361, -38104.806912518376, -0.034, 0.998, 0.14, 192.0, 0.0, 0.0, 0.0, 0.0, 0.0, 0.0, 0.0, 0.0, 0.0, 1.695676376868204E9, 0.0, 2023-09-25 16:12:56.868
166.0, -187500.02235174447, 9118.572964498158, -17198.192143224733, -34058.76118645206, -16730.50424224189, -33473.726627078846, -187500.02235174447, -42957.325930276624, -3805.451548749393, -9114.817871429666, -45545.43442075663, -44264.0983181117, -32006.736934988134, -38743.37389986204, -28979.103741538973, -38139.206247235095, -0.034, 0.998, 0.14, 192.0, 0.0, 0.0, 0.0, 0.0, 0.0, 0.0, 0.0, 0.0, 0.0, 1.695676376868215E9, 0.0, 2023-09-25 16:12:56.868
168.0, -187500.02235174447, 9123.42329304496, -17194.459401900698, -34048.50173574707, -16722.7481869159, -33495.29606047822, -187500.02235174447, -42949.74868890628, -3767.8335628311115, -9111.688627205924, -45540.31587127637, -44259.94089364301, -32004.43470530924, -38739.8423242381, -28967.12320651093, -38109.99251723201, -0.034, 0.998, 0.14, 192.0, 0.0, 0.0, 0.0, 0.0, 0.0, 0.0, 0.0, 0.0, 0.0, 1.695676376868219E9, 0.0, 2023-09-25 16:12:56.868
170.0, -187500.02235174447, 9114.057912118187, -17197.432183913254, -34056.414253284245, -16732.247678309403, -33470.73149332184, -187500.02235174447, -42961.818630912145, -3811.665333707969, -9118.260040075784, -45541.83578989933, -44259.78443143183, -32004.501760542604, -38741.02696669423, -28963.859851820453, -38147.05170953891, -0.034, 0.998, 0.14, 192.0, 0.0, 0.0, 0.0, 0.0, 0.0, 0.0, 0.0, 0.0, 0.0, 1.695676376868222E9, 0.0, 2023-09-25 16:12:56.868
172.0, -187500.02235174447, 9123.982086656342, -17188.625596597863, -34043.11496533334, -16721.652951437587, -33492.9044238215, -187500.02235174447, -42957.39298550999, -3754.5789783691143, -9119.221165087363, -45537.208978797076, -44259.38210003163, -32003.63004250885, -38741.89868472799, -28964.73156985421, -38100.22480490504, -0.024, 0.996, 0.148, 192.0, 127.5, 32.0, 15.5, 16.0, 2.0, 80.0, 0.0, 0.0, 0.0, 1.695676376868226E9, 0.0, 2023-09-25 16:12:56.868
174.0, -187500.02235174447, 9116.76247319728, -17193.811201311495, -34054.7378724501, -16732.180623076038, -33471.133824722034, -187500.02235174447, -42967.49597400379, -3817.6779529664464, -9114.013208629276, -45536.87370263025, -44252.967149372955, -32006.222844865664, -38739.216475393354, -28958.964819784742, -38149.77862236245, -0.024, 0.996, 0.148, 192.0, 0.0, 0.0, 0.0, 0.0, 0.0, 0.0, 0.0, 0.0, 0.0, 1.695676376868229E9, 0.0, 2023-09-25 16:12:56.868
176.0, -187500.02235174447, 9125.323191323661, -17198.63917811384, -34046.46772700164, -16733.007637620885, -33487.495301663315, -187500.02235174447, -42974.536773507214, -3744.7665625532345, -9130.374685570561, -45540.18176080963, -44262.04195762181, -32012.30251935751, -38756.829650024134, -28972.599383902478, -38081.67285700713, -0.024, 0.996, 0.148, 192.0, 0.0, 0.0, 0.0, 0.0, 0.0, 0.0, 0.0, 0.0, 0.0, 1.695676376868233E9, 0.0, 2023-09-25 16:12:56.868
178.0, -187500.02235174447, 9125.971391912864, -17187.93269251975, -34041.460936243646, -16728.336123029723, -33474.26306894577, -187500.02235174447, -42964.12086059104, -3830.194929861418, -9112.023903372754, -45542.104010832794, -44249.27911153783, -32015.14119090333, -38737.7412602593, -28962.049360519573, -38147.36463396128, -0.024, 0.996, 0.148, 192.0, 0.0, 0.0, 0.0, 0.0, 0.0, 0.0, 0.0, 0.0, 0.0, 1.695676376868236E9, 0.0, 2023-09-25 16:12:56.868
180.0, -187500.02235174447, 9120.47286277686, -17197.745108335628, -34045.26073280105, -16739.444940024012, -33476.92292653596, -187500.02235174447, -42977.755424708776, -3743.69367881938, -9130.642906504025, -45536.0466880854, -44257.05751860828, -32011.028469923556, -38753.05220521119, -28968.218441989236, -38087.30549660987, -0.024, 0.996, 0.148, 192.0, 0.0, 0.0, 0.0, 0.0, 0.0, 0.0, 0.0, 0.0, 0.0, 1.695676376928505E9, 0.0, 2023-09-25 16:12:56.928
182.0, -187500.02235174447, 9119.534089509736, -17188.670300086775, -34043.96433162264, -16731.755939931387, -33474.352475923595, -187500.02235174447, -42964.03145361322, -3828.3397350716277, -9121.389284299526, -45542.64045269972, -44257.25868430838, -32025.400641608318, -38741.36224286106, -28968.665476878345, -38144.235389737536, -0.026000000000000002, 1.0, 0.15, 192.0, 127.5, 24.0, 15.5, 32.0, 2.0, 88.0, 0.0, 0.0, 0.0, 1.695676376928514E9, 0.0, 2023-09-25 16:12:56.928
184.0, -187500.02235174447, 9123.289182578228, -17184.915207018283, -34038.19758155318, -16724.469271238955, -33473.83838580112, -187500.02235174447, -42956.65537794297, -3747.0017369987654, -9129.257098347796, -45529.519978704455, -44253.66005345107, -32005.86521695438, -38747.73249003082, -28959.791834329586, -38095.19566240259, -0.026000000000000002, 1.0, 0.15, 192.0, 0.0, 0.0, 0.0, 0.0, 0.0, 0.0, 0.0, 0.0, 0.0, 1.695676376928518E9, 0.0, 2023-09-25 16:12:56.928
186.0, -187500.02235174447, 9123.445644789415, -17181.607148838895, -34035.29185477398, -16724.469271238955, -33473.927792778944, -187500.02235174447, -42954.956645364364, -3827.490368782326, -9116.76247319728, -45537.25368228599, -44252.274245294844, -32019.320967116473, -38735.55078930269, -28957.10962499495, -38148.68338688414, -0.026000000000000002, 1.0, 0.15, 192.0, 0.0, 0.0, 0.0, 0.0, 0.0, 0.0, 0.0, 0.0, 0.0, 1.695676376928521E9, 0.0, 2023-09-25 16:12:56.928
188.0, -187500.02235174447, 9111.621571972559, -17195.1076024899, -34048.032349113506, -16734.013466121374, -33464.11537696307, -187500.02235174447, -42969.77585193823, -3742.017297985232, -9136.14143564003, -45530.3469932493, -44256.00698661888, -32008.033336166543, -38750.5935133211, -28960.6859041078, -38096.760284514465, -0.026000000000000002, 1.0, 0.15, 192.0, 0.0, 0.0, 0.0, 0.0, 0.0, 0.0, 0.0, 0.0, 0.0, 1.695676376928525E9, 0.0, 2023-09-25 16:12:56.928
190.0, -187500.02235174447, 9112.336827795129, -17194.191180967235, -34048.30057004697, -16734.996942877406, -33481.37092368257, -187500.02235174447, -42970.58051473863, -3821.2095285903847, -9133.772150727767, -45552.85519991579, -44268.03222513583, -32034.229580668165, -38750.72762378784, -28972.26410773565, -38131.87487505375, -0.026000000000000002, 1.0, 0.15, 192.0, 0.0, 0.0, 0.0, 0.0, 0.0, 0.0, 0.0, 0.0, 0.0, 1.695676376928528E9, 0.0, 2023-09-25 16:12:56.928
192.0, -187500.02235174447, 9118.416502286971, -17194.459401900698, -34048.54643923598, -16733.40996902108, -33472.877260789544, -187500.02235174447, -42979.141232865004, -3756.7918010701896, -9140.835301975645, -45537.18662705262, -44263.51717275586, -32015.901150214813, -38756.2485046683, -28968.844290833986, -38097.22967114802, -0.028, 1.002, 0.148, 192.0, 127.5, 16.0, 15.5, 40.0, 2.0, 80.0, 0.0, 0.0, 0.0, 1.695676376928532E9, 0.0, 2023-09-25 16:12:56.928
194.0, -187500.02235174447, 9118.61766798707, -17191.039584999035, -34045.61836071234, -16733.78994867682, -33493.39616219952, -187500.02235174447, -42977.822479942144, -3821.656563479491, -9128.81006345869, -45541.92519687715, -44261.10318435469, -32029.602769565914, -38745.05028069619, -28968.129035011418, -38131.293729697914, -0.028, 1.002, 0.148, 192.0, 0.0, 0.0, 0.0, 0.0, 0.0, 0.0, 0.0, 0.0, 0.0, 1.695676376988739E9, 0.0, 2023-09-25 16:12:56.988
196.0, -187500.02235174447, 9120.025827887754, -17193.520628633574, -34045.372491523325, -16736.762730689374, -33473.25724044529, -187500.02235174447, -42972.68157871742, -3764.3243389516283, -9138.778941485756, -45529.229406026534, -44258.55508548678, -32015.230597881153, -38751.62169356605, -28965.759750099154, -38105.81274101886, -0.028, 1.002, 0.148, 192.0, 0.0, 0.0, 0.0, 0.0, 0.0, 0.0, 0.0, 0.0, 0.0, 1.69567637698875E9, 0.0, 2023-09-25 16:12:56.988
198.0, -187500.02235174447, 9124.496176778815, -17180.087230215937, -34032.855514628354, -16721.898820626597, -33484.58957488413, -187500.02235174447, -42947.0888313161, -3816.582717488136, -9122.439816288927, -45538.08069683084, -44253.16831507305, -32028.753403276613, -38735.48373406932, -28959.233040718205, -38138.46863966807, -0.028, 1.002, 0.148, 192.0, 0.0, 0.0, 0.0, 0.0, 0.0, 0.0, 0.0, 0.0, 0.0, 1.695676376988754E9, 0.0, 2023-09-25 16:12:56.988
200.0, -187500.02235174447, 9106.570077725659, -17202.103698504412, -34055.654293972766, -16744.652896482097, -33449.22911515583, -187500.02235174447, -42980.12470962104, -3764.3466906960834, -9144.14336015503, -45527.977708337035, -44257.83982966421, -32013.1071821579, -38753.990978478316, -28958.808357573555, -38107.33265964183, -0.028, 1.002, 0.148, 192.0, 0.0, 0.0, 0.0, 0.0, 0.0, 0.0, 0.0, 0.0, 0.0, 1.695676376988757E9, 0.0, 2023-09-25 16:12:56.988
202.0, -187500.02235174447, 9121.791615699723, -17185.384593651845, -34037.37056700833, -16728.514936985368, -33488.09879876361, -187500.02235174447, -42960.32106403364, -3804.199851059896, -9139.04716241922, -45547.64724345771, -44266.78052744634, -32036.822383024977, -38749.207705164874, -28969.246622234183, -38109.12079919825, -0.03, 1.01, 0.146, 192.0, 127.5, 8.0, 15.5, 72.0, 2.0, 72.0, 0.0, 0.0, 0.0, 1.695676376988761E9, 0.0, 2023-09-25 16:12:56.988
204.0, -187500.02235174447, 9122.216298844374, -17181.428334883254, -34038.64461644228, -16729.476061996946, -33454.74999603629, -187500.02235174447, -42963.919694890945, -3782.8092316161674, -9134.353296083606, -45524.71435364656, -44250.01671910485, -32010.782600734547, -38744.603245807084, -28952.326351681513, -38110.797180032394, -0.03, 1.01, 0.146, 192.0, 0.0, 0.0, 0.0, 0.0, 0.0, 0.0, 0.0, 0.0, 0.0, 1.695676376988764E9, 0.0, 2023-09-25 16:12:56.988
206.0, -187500.02235174447, 9125.502005279304, -17180.422506382765, -34034.7330611626, -16729.006675363384, -33485.08131326215, -187500.02235174447, -42964.41143326896, -3789.0006648302874, -9132.52045303827, -45534.72793516254, -44254.82234416275, -32026.87585674237, -38745.74318477431, -28961.512918652646, -38099.621307804744, -0.03, 1.01, 0.146, 192.0, 0.0, 0.0, 0.0, 0.0, 0.0, 0.0, 0.0, 0.0, 0.0, 1.695676376988768E9, 0.0, 2023-09-25 16:12:56.988
208.0, -187500.02235174447, 9117.634191231036, -17189.2067419537, -34043.83022115591, -16742.998867392405, -33451.73251053483, -187500.02235174447, -42970.625218227535, -3791.8393363761115, -9130.32998208165, -45522.948565834595, -44245.56872195825, -32013.04012692453, -38741.876332983535, -28954.740340082688, -38111.53478759942, -0.03, 1.01, 0.146, 192.0, 0.0, 0.0, 0.0, 0.0, 0.0, 0.0, 0.0, 0.0, 0.0, 1.695676376988771E9, 0.0, 2023-09-25 16:12:56.988
210.0, -187500.02235174447, 9119.712903465379, -17191.799544310517, -34041.99737811057, -16736.963896389472, -33484.88014756205, -187500.02235174447, -42978.40362529798, -3777.2436472467957, -9139.650659519513, -45540.38292650973, -44260.23146632093, -32036.040071969044, -38751.97932147734, -28973.87343333643, -38075.05674064836, -0.03, 1.01, 0.146, 192.0, 0.0, 0.0, 0.0, 0.0, 0.0, 0.0, 0.0, 0.0, 0.0, 1.695676377049238E9, 0.0, 2023-09-25 16:12:57.049
212.0, -187500.02235174447, 9116.13662435253, -17191.106640232403, -34044.54547697848, -16737.768559189863, -33457.67807455994, -187500.02235174447, -42972.68157871742, -3806.680894694435, -9135.068551906175, -45532.26924327246, -44253.48123949543, -32017.01873743758, -38744.37972836253, -28961.714084352745, -38110.08192420983, -0.028, 1.004, 0.146, 192.0, 127.5, 16.0, 15.5, 48.0, 2.0, 72.0, 0.0, 0.0, 0.0, 1.695676377049249E9, 0.0, 2023-09-25 16:12:57.049
214.0, -187500.02235174447, 9134.42035131697, -17177.27091041457, -34024.92064534672, -16722.055282837784, -33486.511824907284, -187500.02235174447, -42958.823497155136, -3781.8034031156785, -9131.872252449066, -45539.511208475975, -44252.22954180593, -32026.607635808905, -38741.65281553898, -28967.860814077954, -38081.024656417925, -0.028, 1.004, 0.146, 192.0, 0.0, 0.0, 0.0, 0.0, 0.0, 0.0, 0.0, 0.0, 0.0, 1.695676377049253E9, 0.0, 2023-09-25 16:12:57.049
216.0, -187500.02235174447, 9121.031656388242, -17184.602282595908, -34037.79525015298, -16735.823957422253, -33455.30878964768, -187500.02235174447, -42968.21122982636, -3819.913127411977, -9124.116197123074, -45526.52484494744, -44243.55706495727, -32012.548388546515, -38733.15915264597, -28952.885145292898, -38132.99246227652, -0.028, 1.004, 0.146, 192.0, 0.0, 0.0, 0.0, 0.0, 0.0, 0.0, 0.0, 0.0, 0.0, 1.695676377049256E9, 0.0, 2023-09-25 16:12:57.049
218.0, -187500.02235174447, 9126.9548686689, -17179.01434648208, -34028.58633143739, -16725.340989272714, -33486.3553626961, -187500.02235174447, -42960.343415778094, -3772.6391878890026, -9137.393133329528, -45538.28186253093, -44256.47637325244, -32024.461868341194, -38744.893818485005, -28962.317581453037, -38077.91776393864, -0.028, 1.004, 0.146, 192.0, 0.0, 0.0, 0.0, 0.0, 0.0, 0.0, 0.0, 0.0, 0.0, 1.69567637704926E9, 0.0, 2023-09-25 16:12:57.049
220.0, -187500.02235174447, 9118.081226120143, -17183.484695373143, -34040.36570076534, -16738.081483612237, -33458.86271701607, -187500.02235174447, -42978.35892180907, -3835.067610152675, -9127.401903558004, -45534.83969388482, -44249.18970456001, -32019.969167705676, -38733.9414637019, -28950.11352898044, -38131.11491574227, -0.028, 1.004, 0.146, 192.0, 0.0, 0.0, 0.0, 0.0, 0.0, 0.0, 0.0, 0.0, 0.0, 1.695676377049264E9, 0.0, 2023-09-25 16:12:57.049
222.0, -187500.02235174447, 9118.125929609052, -17189.519666376076, -34039.53868622049, -16739.422588279558, -33479.71689459287, -187500.02235174447, -42967.42891877043, -3770.046385532187, -9145.015078188788, -45542.752211422, -44261.88549541062, -32027.457002098206, -38750.50410634329, -28970.364209456948, -38073.894449936684, -0.03, 1.004, 0.156, 192.0, 127.5, 8.0, 15.5, 48.0, 2.0, 112.0, 0.0, 0.0, 0.0, 1.695676377049268E9, 0.0, 2023-09-25 16:12:57.049
224.0, -187500.02235174447, 9123.42329304496, -17175.72864004715, -34031.469706472126, -16723.955181116486, -33461.142594950514, -187500.02235174447, -42952.721470918834, -3843.0248311787645, -9136.119083895575, -45544.6521097007, -44257.862181408665, -32029.78158352156, -38739.03766143771, -28959.456558162758, -38128.34329942981, -0.03, 1.004, 0.156, 192.0, 0.0, 0.0, 0.0, 0.0, 0.0, 0.0, 0.0, 0.0, 0.0, 1.695676377108472E9, 0.0, 2023-09-25 16:12:57.108
226.0, -187500.02235174447, 9113.700284206901, -17189.653776842806, -34040.81273565444, -16736.56156498928, -33467.42343514245, -187500.02235174447, -42969.95466589388, -3762.0668127616423, -9141.170578142473, -45533.11860956176, -44255.80582091878, -32016.303481615007, -38740.73639401631, -28950.69467433628, -38074.743816225986, -0.03, 1.004, 0.156, 192.0, 0.0, 0.0, 0.0, 0.0, 0.0, 0.0, 0.0, 0.0, 0.0, 1.695676377108484E9, 0.0, 2023-09-25 16:12:57.108
228.0, -187500.02235174447, 9110.906316149989, -17190.950178021216, -34044.56782872294, -16740.964858646974, -33468.697484576405, -187500.02235174447, -42970.15583159398, -3843.5389213012368, -9148.8595782351, -45553.92808364965, -44268.18868734702, -32041.806822038514, -38746.48079234133, -28967.190261744294, -38113.76996204495, -0.03, 1.004, 0.156, 192.0, 0.0, 0.0, 0.0, 0.0, 0.0, 0.0, 0.0, 0.0, 0.0, 1.695676377108488E9, 0.0, 2023-09-25 16:12:57.108
230.0, -187500.02235174447, 9126.105502379598, -17181.204817438702, -34032.31907276143, -16727.754977673885, -33475.738284079824, -187500.02235174447, -42952.69911917438, -3777.3107024801616, -9148.278432879262, -45538.97476660905, -44260.723204698945, -32024.48422008565, -38745.89964698549, -28961.95995354175, -38073.08978713629, -0.03, 1.004, 0.156, 192.0, 0.0, 0.0, 0.0, 0.0, 0.0, 0.0, 0.0, 0.0, 0.0, 1.695676377108491E9, 0.0, 2023-09-25 16:12:57.108
232.0, -187500.02235174447, 9116.315438308173, -17183.14941920631, -34042.645578699776, -16730.906573642085, -33461.72374030635, -187500.02235174447, -42959.02466285523, -3855.295938884728, -9143.204586887907, -45543.31100503338, -44260.90201865459, -32033.04493821203, -38740.02113819375, -28957.534308139602, -38130.62317736426, -0.024, 1.008, 0.154, 192.0, 127.5, 32.0, 15.5, 64.0, 2.0, 104.0, 0.0, 0.0, 0.0, 1.695676377108494E9, 0.0, 2023-09-25 16:12:57.108
234.0, -187500.02235174447, 9122.216298844374, -17175.952157491705, -34036.96823560813, -16727.68792244052, -33467.28932467572, -187500.02235174447, -42961.036319856204, -3773.7120716228574, -9155.028659704765, -45532.96214735057, -44263.33835880022, -32019.90211247231, -38749.9453127319, -28953.35453192646, -38070.474633035024, -0.024, 1.008, 0.154, 192.0, 0.0, 0.0, 0.0, 0.0, 0.0, 0.0, 0.0, 0.0, 0.0, 1.695676377108497E9, 0.0, 2023-09-25 16:12:57.108
236.0, -187500.02235174447, 9106.167746325464, -17184.758744807095, -34047.40650026876, -16735.578088233244, -33469.68096133244, -187500.02235174447, -42973.68740721791, -3852.881950483555, -9144.076304921664, -45540.31587127637, -44260.589094232215, -32032.24027541164, -38741.2951876277, -28950.44880514727, -38129.058555252384, -0.024, 1.008, 0.154, 192.0, 0.0, 0.0, 0.0, 0.0, 0.0, 0.0, 0.0, 0.0, 0.0, 1.6956763771085E9, 0.0, 2023-09-25 16:12:57.108
238.0, -187500.02235174447, 9108.648789960002, -17176.421544125264, -34032.29672101697, -16726.07859683974, -33465.9482200084, -187500.02235174447, -42958.97995936632, -3777.0201298022425, -9168.395002889038, -45531.129304305236, -44264.07596636724, -32023.09841192942, -38758.50603085828, -28951.700502836768, -38072.642752247186, -0.024, 1.008, 0.154, 192.0, 0.0, 0.0, 0.0, 0.0, 0.0, 0.0, 0.0, 0.0, 0.0, 1.695676377108504E9, 0.0, 2023-09-25 16:12:57.108
240.0, -187500.02235174447, 9105.296028291707, -17176.1533231918, -34032.67670067271, -16726.816204406765, -33471.37969391104, -187500.02235174447, -42949.100488317075, -3855.5418080737363, -9154.089886437641, -45539.98059510954, -44257.303387797285, -32034.25193241262, -38739.61880679355, -28942.737453310187, -38122.420087149156, -0.024, 1.008, 0.154, 192.0, 0.0, 0.0, 0.0, 0.0, 0.0, 0.0, 0.0, 0.0, 0.0, 1.695676377169302E9, 0.0, 2023-09-25 16:12:57.169
