%OpenBCI Raw EXG Data
%Number of channels = 16
%Sample Rate = 125 Hz
%Board = OpenBCI_GUI$BoardCytonSerialDaisy
Sample Index, EXG Channel 0, EXG Channel 1, EXG Channel 2, EXG Channel 3, EXG Channel 4, EXG Channel 5, EXG Channel 6, EXG Channel 7, EXG Channel 8, EXG Channel 9, EXG Channel 10, EXG Channel 11, EXG Channel 12, EXG Channel 13, EXG Channel 14, EXG Channel 15, Accel Channel 0, Accel Channel 1, Accel Channel 2, Other, Other, Other, Other, Other, Other, Other, Analog Channel 0, Analog Channel 1, Analog Channel 2, Timestamp, Other, Timestamp (Formatted)
0.0, 39815.207101727385, 53308.23997357368, -22664.378305003444, -31580.355057758698, 2509.072722086039, 2592.109452737505, -187500.02235174447, -30762.772949072478, 0.0, 0.0, 0.0, 0.0, 0.0, 0.0, 0.0, 0.0, 0.0, 0.0, 0.0, 192.0, 0.0, 0.0, 0.0, 0.0, 0.0, 0.0, 0.0, 0.0, 0.0, 1.695766435762724E9, 0.0, 2023-09-26 17:13:55.762
210.0, 39820.39270644101, 53334.14564539739, -22667.306383527088, -31588.356982273697, 2520.3380012915136, 2662.9868344052834, -187500.02235174447, -30720.952835196596, 13888.524638238507, -36504.2655473072, 44706.126416459854, -33736.53843838435, -1548.282986674665, -28124.75301322377, -36840.569894381755, -33761.95237183003, 0.0, 0.0, 0.0, 192.0, 0.0, 0.0, 0.0, 0.0, 0.0, 0.0, 0.0, 0.0, 0.0, 1.695766435762734E9, 0.0, 2023-09-26 17:13:55.762
212.0, 39825.93593906593, 53317.35948531145, -22668.982764361237, -31591.039191608335, 2501.3390185045027, 2577.3796531414573, -187500.02235174447, -30779.335591713858, 13886.490629493073, -36513.876797422985, 44808.78797874308, -33743.60158963223, -1551.8816175319694, -28137.180583140922, -36849.354129952684, -33658.59790546869, 0.0, 0.0, 0.0, 192.0, 0.0, 0.0, 0.0, 0.0, 0.0, 0.0, 0.0, 0.0, 0.0, 1.695766435762738E9, 0.0, 2023-09-26 17:13:55.762
214.0, 39827.366450711066, 53336.425523331825, -22666.90405212689, -31588.289927040332, 2525.1436263494047, 2657.7341744582864, -187500.02235174447, -30717.242445617016, 13893.84435341887, -36510.47933226578, 44713.32367817446, -33737.141935484644, -1549.1100012195113, -28131.1903156269, -36842.26862696036, -33764.03108406438, 0.062, 0.9380000000000001, 0.386, 192.0, 0.5, 120.0, 14.5, 40.0, 6.0, 8.0, 0.0, 0.0, 0.0, 1.695766435762742E9, 0.0, 2023-09-26 17:13:55.762
216.0, 39830.36158446808, 53316.867746933436, -22663.707752669783, -31585.697124683516, 2513.0960360879944, 2578.65370257541, -187500.02235174447, -30772.65242012172, 13896.615969731329, -36506.098390352534, 44798.10384489344, -33733.163324971596, -1544.1479139504331, -28132.17379238293, -36836.233655957425, -33676.389894055115, 0.062, 0.9380000000000001, 0.386, 192.0, 0.0, 0.0, 0.0, 0.0, 0.0, 0.0, 0.0, 0.0, 0.0, 1.695766435762745E9, 0.0, 2023-09-26 17:13:55.762
218.0, 39827.74643036681, 53332.80454073007, -22664.378305003444, -31582.85845313769, 2526.551786250089, 2655.81192443513, -187500.02235174447, -30731.055823690396, 13898.046481376468, -36506.098390352534, 44686.814509250464, -33731.73281332646, -1545.6007773400281, -28126.47409754683, -36834.71373733446, -33803.23604383899, 0.062, 0.9380000000000001, 0.386, 192.0, 0.0, 0.0, 0.0, 0.0, 0.0, 0.0, 0.0, 0.0, 0.0, 1.695766435762748E9, 0.0, 2023-09-26 17:13:55.762
220.0, 39824.863055332076, 53315.727807966214, -22672.24611905171, -31590.748618930415, 2502.1883847938043, 2590.5001271367228, -187500.02235174447, -30772.22773697707, 13893.151449340756, -36510.90401541043, 44809.324420610006, -33733.29743543833, -1547.5453791076397, -28127.770498725236, -36846.068423517754, -33667.62801022864, 0.062, 0.9380000000000001, 0.386, 192.0, 0.0, 0.0, 0.0, 0.0, 0.0, 0.0, 0.0, 0.0, 0.0, 1.695766435762751E9, 0.0, 2023-09-26 17:13:55.762
222.0, 39820.236244229825, 53324.35558132596, -22672.402581262897, -31589.8545491522, 2519.0639518575613, 2653.8002674341524, -187500.02235174447, -30721.93631195263, 13897.867667420825, -36508.69119270935, 44689.85434649639, -33730.39170865914, -1548.7076698193157, -28121.42260329993, -36836.1442489796, -33800.062096126334, 0.062, 0.9380000000000001, 0.386, 192.0, 0.0, 0.0, 0.0, 0.0, 0.0, 0.0, 0.0, 0.0, 0.0, 1.695766435762755E9, 0.0, 2023-09-26 17:13:55.762
224.0, 39818.693973862406, 53312.33034280901, -22673.67663069685, -31587.77583691786, 2506.2564022846705, 2594.32227543858, -187500.02235174447, -30778.70974286911, 13883.227274802599, -36526.90786444043, 44827.96577548573, -33752.47523218099, -1556.2625594452095, -28141.203897142877, -36847.34247295171, -33643.77869889483, 0.062, 0.9380000000000001, 0.39, 192.0, 0.5, 120.0, 14.5, 40.0, 6.0, 24.0, 0.0, 0.0, 0.0, 1.695766435762758E9, 0.0, 2023-09-26 17:13:55.762
0.0, 19888.582216332223, 26640.731291858112, -11304.394758271546, -15753.30832640032, 1321.2339664976557, 1375.995740413158, -93750.01117587223, -15341.61154527802, 6945.782237742214, -18256.480187950157, 22347.743493049562, -16867.699249708563, -775.3373116656913, -14056.87797747588, -18412.428309014835, -16892.86731396524, 0.059, 0.935, 0.39, 192.0, 0.5, 96.0, 14.5, 16.0, 6.0, 24.0, 0.0, 0.0, 0.0, 1.695766435929195E9, 0.0, 2023-09-26 17:13:55.929
2.0, 39785.85926125757, 53292.25847628814, -22588.829408744503, -31483.929632178504, 2676.6661020119313, 2816.856243235617, -187500.02235174447, -30596.63243253618, 13864.898844349247, -36324.78103933109, 44895.579802463035, -33595.94596576047, -1413.904299009359, -28049.15941347592, -36735.78491637527, -33549.18611635997, 0.059, 0.935, 0.39, 192.0, 0.0, 0.0, 0.0, 0.0, 0.0, 0.0, 0.0, 0.0, 0.0, 1.695766435929214E9, 0.0, 2023-09-26 17:13:55.929
4.0, 39784.07112170114, 53289.55391520905, -22591.109286678948, -31490.501045048364, 2668.485363541289, 2816.386856602056, -187500.02235174447, -30606.511903585426, 13865.681155405184, -36323.506989897134, 44967.03832948665, -33590.11216045763, -1399.7779965136049, -28041.962151761312, -36718.10468651113, -33464.38359789653, 0.059, 0.935, 0.39, 192.0, 0.0, 0.0, 0.0, 0.0, 0.0, 0.0, 0.0, 0.0, 0.0, 1.695766435929219E9, 0.0, 2023-09-26 17:13:55.929
6.0, 39778.59494430959, 53287.20698204124, -22592.495094835176, -31490.94807993747, 2659.3435000590684, 2807.1779378864694, -187500.02235174447, -30608.948243731054, 13866.776390883493, -36323.35052768594, 44896.94325887481, -33589.218090679424, -1408.7633977846383, -28049.382930920474, -36721.278634223774, -33549.81196520472, 0.059, 0.935, 0.39, 192.0, 0.0, 0.0, 0.0, 0.0, 0.0, 0.0, 0.0, 0.0, 0.0, 1.695766435929224E9, 0.0, 2023-09-26 17:13:55.929
8.0, 39787.96032523636, 53306.429482272804, -22590.192865156278, -31490.14341713708, 2665.1996571063587, 2827.540377085254, -187500.02235174447, -30604.09791518425, 13861.300213491942, -36320.10952473993, 44978.59418137004, -33587.69817205646, -1406.5952785724735, -28053.138023988966, -36725.92779707048, -33442.50124007479, 0.058, 0.934, 0.382, 192.0, 0.5, 104.0, 14.5, 24.0, 5.5, 120.0, 0.0, 0.0, 0.0, 1.695766435929231E9, 0.0, 2023-09-26 17:13:55.929
10.0, 39780.025455954725, 53286.93876110778, -22597.412478615344, -31493.250309616367, 2655.4319447793896, 2810.1060164101145, -187500.02235174447, -30604.164970417616, 13865.70350714964, -36319.528379384086, 44918.579747507545, -33585.46299761093, -1411.959697241747, -28052.154547232934, -36719.22227373389, -33515.90436886601, 0.058, 0.934, 0.382, 192.0, 0.0, 0.0, 0.0, 0.0, 0.0, 0.0, 0.0, 0.0, 0.0, 1.695766435929236E9, 0.0, 2023-09-26 17:13:55.929
12.0, 39785.34517113509, 53300.10393859195, -22598.306548393553, -31496.267795117834, 2667.0548518961496, 2841.733734814374, -187500.02235174447, -30585.657726008623, 13861.79195186996, -36327.61971087691, 44956.0636229591, -33593.46492212593, -1405.9247262388142, -28052.623933866496, -36722.23975923536, -33455.17467918094, 0.058, 0.934, 0.382, 192.0, 0.0, 0.0, 0.0, 0.0, 0.0, 0.0, 0.0, 0.0, 0.0, 1.695766435929241E9, 0.0, 2023-09-26 17:13:55.929
14.0, 39777.49970883128, 53275.69583364676, -22605.414403130344, -31503.0850771767, 2656.7506977022526, 2787.776623699263, -187500.02235174447, -30610.24464490946, 13867.826922872893, -36329.00551903314, 44907.58268923553, -33600.23750069589, -1406.6846855502947, -28054.07679725609, -36723.13382901357, -33516.35140375512, 0.058, 0.934, 0.382, 192.0, 0.0, 0.0, 0.0, 0.0, 0.0, 0.0, 0.0, 0.0, 0.0, 1.695766435929245E9, 0.0, 2023-09-26 17:13:55.929
16.0, 39779.10903443206, 53299.43338625829, -22606.91197000885, -31505.767286511338, 2669.0218054082166, 2835.4528946224327, -187500.02235174447, -30586.507092297925, 13861.590786169862, -36335.50987666963, 44912.99181139372, -33599.4775413844, -1408.4057698733534, -28060.156471747934, -36740.881114111085, -33501.04045880323, 0.058, 0.934, 0.382, 192.0, 0.0, 0.0, 0.0, 0.0, 0.0, 0.0, 0.0, 0.0, 0.0, 1.69576643598945E9, 0.0, 2023-09-26 17:13:55.989
18.0, 39783.78054902322, 53286.67054017432, -22600.3852606279, -31497.76536199634, 2656.90715991344, 2774.812611915185, -187500.02235174447, -30618.87241826921, 13869.391544984765, -36330.48073416719, 44929.66621275738, -33591.16269244703, -1407.9587349842473, -28057.31780020211, -36734.644977408054, -33498.11238027959, 0.058, 0.936, 0.38, 192.0, 0.5, 104.0, 14.5, 32.0, 5.5, 112.0, 0.0, 0.0, 0.0, 1.695766435989469E9, 0.0, 2023-09-26 17:13:55.989
20.0, 39783.42292111194, 53303.97079038272, -22609.81769678804, -31506.929577223014, 2653.710860456331, 2829.864958508606, -187500.02235174447, -30609.26116815343, 13862.037821058968, -36330.25721672264, 44919.87614868595, -33587.049971467255, -1407.5564035840516, -28063.30806771613, -36744.435041479475, -33509.35530774061, 0.058, 0.936, 0.38, 192.0, 0.0, 0.0, 0.0, 0.0, 0.0, 0.0, 0.0, 0.0, 0.0, 1.695766435989474E9, 0.0, 2023-09-26 17:13:55.989
22.0, 39780.27132514374, 53287.005816341145, -22604.989719985693, -31499.70996376395, 2648.1452760869597, 2760.418088485967, -187500.02235174447, -30649.181383750605, 13865.815265871915, -36333.654681879845, 44963.68556781836, -33595.00719249334, -1409.8809850074035, -28065.923221817404, -36743.04923332325, -33473.458406145386, 0.058, 0.936, 0.38, 192.0, 0.0, 0.0, 0.0, 0.0, 0.0, 0.0, 0.0, 0.0, 0.0, 1.69576643598948E9, 0.0, 2023-09-26 17:13:55.989
24.0, 39772.38115935101, 53302.517926993125, -22606.88961826439, -31501.386344598097, 2661.444564037867, 2839.9455952579497, -187500.02235174447, -30606.19897916305, 13865.301175749442, -36334.86167608043, 44911.67305847086, -33585.41829412202, -1405.030656460602, -28055.08262575658, -36733.41563146301, -33522.83340964716, 0.058, 0.936, 0.38, 192.0, 0.0, 0.0, 0.0, 0.0, 0.0, 0.0, 0.0, 0.0, 0.0, 1.695766435989485E9, 0.0, 2023-09-26 17:13:55.989
26.0, 39765.60858078105, 53268.81149635452, -22609.527124110118, -31506.259024889354, 2648.838180165074, 2757.847637873607, -187500.02235174447, -30649.203735495063, 13857.925100079192, -36342.327158728505, 44977.7671668252, -33601.82447455222, -1410.9762204857136, -28062.12342526, -36736.56722743121, -33454.90645824748, 0.058, 0.936, 0.38, 192.0, 0.0, 0.0, 0.0, 0.0, 0.0, 0.0, 0.0, 0.0, 0.0, 1.69576643598949E9, 0.0, 2023-09-26 17:13:55.989
28.0, 39765.80974648115, 53292.99608385516, -22610.309435166055, -31504.85086498867, 2664.19382860587, 2838.4480283794437, -187500.02235174447, -30601.840388994264, 13858.707411135127, -36340.15903951634, 44894.61867745146, -33600.55042511826, -1406.8634995059372, -28061.564631648616, -36732.901541340536, -33534.121040597085, 0.064, 0.936, 0.378, 192.0, 1.0, 0.0, 14.5, 32.0, 5.5, 104.0, 0.0, 0.0, 0.0, 1.695766435989496E9, 0.0, 2023-09-26 17:13:55.989
30.0, 39775.420996596935, 53280.724976149206, -22607.180190942312, -31494.636117772596, 2643.3172992846135, 2761.088640819626, -187500.02235174447, -30649.91899131763, 13856.963975067614, -36342.5283244286, 44982.125756993984, -33598.56111986174, -1411.1773861858114, -28066.21379449532, -36741.05992806672, -33440.802507496184, 0.064, 0.936, 0.378, 192.0, 0.0, 0.0, 0.0, 0.0, 0.0, 0.0, 0.0, 0.0, 0.0, 1.695766436048985E9, 0.0, 2023-09-26 17:13:56.048
32.0, 39780.40543561047, 53308.061159618046, -22595.981966970205, -31483.124969378114, 2671.882828698496, 2852.3284616861897, -187500.02235174447, -30579.57805151678, 13862.037821058968, -36326.05508876504, 44882.81695637905, -33581.394980120065, -1408.3163628955322, -28054.70264610084, -36730.6216634061, -33549.230819848875, 0.064, 0.936, 0.378, 192.0, 0.0, 0.0, 0.0, 0.0, 0.0, 0.0, 0.0, 0.0, 0.0, 1.695766436049E9, 0.0, 2023-09-26 17:13:56.049
34.0, 39778.10320593157, 53284.904752362345, -22598.574769327017, -31484.42137055652, 2658.248264580758, 2790.5482400117207, -187500.02235174447, -30624.505057871946, 13867.134018794779, -36329.40785043334, 44983.37745468348, -33579.49508184136, -1399.5991825579624, -28050.433462909874, -36719.35638420062, -33446.61396105456, 0.064, 0.936, 0.378, 192.0, 0.0, 0.0, 0.0, 0.0, 0.0, 0.0, 0.0, 0.0, 0.0, 1.695766436049006E9, 0.0, 2023-09-26 17:13:56.049
36.0, 39777.49970883128, 53305.87068866142, -22597.345423381976, -31482.297954833266, 2672.218104865325, 2860.6433106235636, -187500.02235174447, -30572.917231669097, 13865.479989705085, -36328.111449254924, 44877.340778987505, -33577.46107309593, -1404.002476215658, -28051.238125710264, -36722.30681446872, -33562.06072116622, 0.064, 0.936, 0.378, 192.0, 0.0, 0.0, 0.0, 0.0, 0.0, 0.0, 0.0, 0.0, 0.0, 1.695766436049011E9, 0.0, 2023-09-26 17:13:56.049
38.0, 39774.77279600773, 53287.65401693035, -22601.480496106207, -31488.89171944758, 2656.7283459577975, 2792.5822487571536, -187500.02235174447, -30617.978348490997, 13859.109742535324, -36333.028833035096, 44994.8215478446, -33578.46690159642, -1402.1025779369568, -28054.41207342292, -36724.45258193643, -33429.112545146054, 0.058, 0.934, 0.376, 192.0, 0.5, 104.0, 14.5, 24.0, 5.5, 96.0, 0.0, 0.0, 0.0, 1.695766436049017E9, 0.0, 2023-09-26 17:13:56.049
40.0, 39769.85541222756, 53296.997046112665, -22602.866304262436, -31491.082190404202, 2665.6243402510095, 2843.119542970603, -187500.02235174447, -30577.499339282436, 13857.902748334736, -36332.447687679254, 44887.26495352566, -33585.95473598895, -1409.4339501182974, -28051.998085021747, -36729.124096527594, -33549.07435763769, 0.058, 0.934, 0.376, 192.0, 0.0, 0.0, 0.0, 0.0, 0.0, 0.0, 0.0, 0.0, 0.0, 1.695766436049022E9, 0.0, 2023-09-26 17:13:56.049
42.0, 39773.56580180714, 53280.94849359376, -22599.1335629384, -31498.167693396535, 2658.896465169962, 2786.3461120541233, -187500.02235174447, -30623.298063671362, 13857.053382045435, -36338.99674880466, 45002.28703049267, -33590.22391917991, -1402.348447125965, -28062.79397759366, -36732.58861691816, -33420.95415841987, 0.058, 0.934, 0.376, 192.0, 0.0, 0.0, 0.0, 0.0, 0.0, 0.0, 0.0, 0.0, 0.0, 1.695766436049027E9, 0.0, 2023-09-26 17:13:56.049
44.0, 39771.59884829508, 53285.44119422927, -22597.300719893065, -31495.798408484272, 2668.8653431970292, 2820.052542692726, -187500.02235174447, -30592.542063300858, 13863.580091426384, -36334.01230979113, 44875.35147373098, -33583.36193363213, -1404.6283250604065, -28059.46356766982, -36726.57599765968, -33563.06654966671, 0.058, 0.934, 0.376, 192.0, 0.0, 0.0, 0.0, 0.0, 0.0, 0.0, 0.0, 0.0, 0.0, 1.695766436049032E9, 0.0, 2023-09-26 17:13:56.049
46.0, 39773.29758087368, 53285.68706341828, -22602.955711240258, -31498.882949219103, 2658.7623547032304, 2790.414129544989, -187500.02235174447, -30627.522543373412, 13853.320640721398, -36340.94135057227, 44988.02661753019, -33593.42021863702, -1406.70703729475, -28066.750236362248, -36739.71882339941, -33433.78405973721, 0.058, 0.934, 0.376, 192.0, 0.0, 0.0, 0.0, 0.0, 0.0, 0.0, 0.0, 0.0, 0.0, 1.695766436108558E9, 0.0, 2023-09-26 17:13:56.108
48.0, 39765.63093252551, 53286.46937447422, -22606.062603719547, -31495.57489103972, 2661.4669157823228, 2820.0748944371817, -187500.02235174447, -30600.186359904572, 13863.691850148662, -36333.922902813305, 44873.38452021891, -33586.8264540227, -1408.3610663844427, -28060.379989192486, -36736.388413475564, -33563.893564211554, 0.062, 0.934, 0.37, 192.0, 0.5, 120.0, 14.5, 24.0, 5.5, 72.0, 0.0, 0.0, 0.0, 1.695766436108571E9, 0.0, 2023-09-26 17:13:56.108
50.0, 39766.323836603624, 53283.295426761564, -22616.478516635718, -31506.2366731449, 2646.848874908552, 2807.1332343975587, -187500.02235174447, -30626.11438347273, 13851.97953605408, -36342.79654536206, 44974.995550512744, -33602.53973037478, -1409.7245227962164, -28064.515061916718, -36747.34076825866, -33438.52262956174, 0.062, 0.934, 0.37, 192.0, 0.0, 0.0, 0.0, 0.0, 0.0, 0.0, 0.0, 0.0, 0.0, 1.695766436108576E9, 0.0, 2023-09-26 17:13:56.108
52.0, 39767.2849616152, 53278.66861565931, -22606.71080430875, -31498.90530096356, 2663.2103518498366, 2807.021475675282, -187500.02235174447, -30599.24758663745, 13858.483893690574, -36339.64494939386, 44869.11533702795, -33601.48919838538, -1411.7138280527388, -28061.765797348715, -36742.84806762315, -33562.239535121866, 0.062, 0.934, 0.37, 192.0, 0.0, 0.0, 0.0, 0.0, 0.0, 0.0, 0.0, 0.0, 0.0, 1.695766436108581E9, 0.0, 2023-09-26 17:13:56.108
54.0, 39764.3345313471, 53288.2798657751, -22614.623321845927, -31505.208492899954, 2662.00335764925, 2818.711438025408, -187500.02235174447, -30600.7228017715, 13851.97953605408, -36343.42239420681, 44943.189018152836, -33597.42118089452, -1409.7915780295823, -28068.69483812986, -36739.49530595485, -33472.58668811163, 0.062, 0.934, 0.37, 192.0, 0.0, 0.0, 0.0, 0.0, 0.0, 0.0, 0.0, 0.0, 0.0, 1.695766436108586E9, 0.0, 2023-09-26 17:13:56.108
56.0, 39766.21207788135, 53285.68706341828, -22609.81769678804, -31498.011231185348, 2662.9868344052834, 2797.969019170883, -187500.02235174447, -30601.102781427242, 13858.394486712754, -36333.297053968556, 44880.02298832214, -33591.56502384723, -1414.1948716872778, -28062.12342526, -36736.00843381983, -33550.97425591639, 0.062, 0.934, 0.37, 192.0, 0.0, 0.0, 0.0, 0.0, 0.0, 0.0, 0.0, 0.0, 0.0, 1.695766436108592E9, 0.0, 2023-09-26 17:13:56.108
58.0, 39764.9827319363, 53298.44990950226, -22614.15393521237, -31501.833379487205, 2662.6068547495433, 2826.6910107959525, -187500.02235174447, -30602.86856923921, 13852.895957576748, -36332.00065279015, 44926.827541211554, -33590.93917500248, -1410.3056681520545, -28060.491747914763, -36739.49530595485, -33489.886938320036, 0.07, 0.9380000000000001, 0.368, 192.0, 1.0, 24.0, 14.5, 40.0, 5.5, 64.0, 0.0, 0.0, 0.0, 1.695766436108597E9, 0.0, 2023-09-26 17:13:56.108
60.0, 39755.0362056537, 53275.29350224656, -22617.4396416473, -31505.499065577875, 2654.4708197678115, 2791.442309789933, -187500.02235174447, -30612.882150755187, 13853.208881999122, -36337.18625750378, 44879.084215055016, -33600.058686740245, -1415.8041972880599, -28064.403303194442, -36738.422422220996, -33552.717691983904, 0.07, 0.9380000000000001, 0.368, 192.0, 0.0, 0.0, 0.0, 0.0, 0.0, 0.0, 0.0, 0.0, 0.0, 1.69576643616886E9, 0.0, 2023-09-26 17:13:56.168
62.0, 39762.30052260167, 53296.34884552346, -22618.71369108125, -31509.589434813195, 2663.5903315055766, 2840.4373336359663, -187500.02235174447, -30590.66451676661, 13840.334277192866, -36346.7304523862, 44915.60696549499, -33604.84196005368, -1414.4407408762863, -28074.17101552141, -36741.88694261157, -33497.777104112756, 0.07, 0.9380000000000001, 0.368, 192.0, 0.0, 0.0, 0.0, 0.0, 0.0, 0.0, 0.0, 0.0, 0.0, 1.695766436168878E9, 0.0, 2023-09-26 17:13:56.168
64.0, 39766.34618834808, 53282.379005238894, -22613.215161945245, -31500.559330053253, 2653.196770333859, 2782.7251294523635, -187500.02235174447, -30626.092031728273, 13854.79585585545, -36338.21443774873, 44902.441788010816, -33599.701058828956, -1412.9208222533252, -28066.012628795223, -36736.27665475329, -33517.066659577686, 0.07, 0.9380000000000001, 0.368, 192.0, 0.0, 0.0, 0.0, 0.0, 0.0, 0.0, 0.0, 0.0, 0.0, 1.695766436168883E9, 0.0, 2023-09-26 17:13:56.168
66.0, 39768.46960407133, 53310.296334063576, -22615.785612557604, -31498.301803863265, 2664.842029195074, 2852.999014019849, -187500.02235174447, -30587.6693830096, 13851.130169764778, -36335.28635922508, 44894.529270473635, -33595.34246866017, -1406.5952785724735, -28062.481053171286, -36739.674119910494, -33515.032650832254, 0.07, 0.9380000000000001, 0.368, 192.0, 0.0, 0.0, 0.0, 0.0, 0.0, 0.0, 0.0, 0.0, 0.0, 1.695766436168889E9, 0.0, 2023-09-26 17:13:56.168
68.0, 39762.88166795751, 53286.93876110778, -22616.3891096579, -31495.552539295262, 2650.4922092547667, 2784.5579724976988, -187500.02235174447, -30622.33693865978, 13854.281765732976, -36333.60997839093, 44916.81395969557, -33592.79436979227, -1411.8702902639259, -28064.000971794245, -36742.4233844785, -33503.074467548664, 0.064, 0.9440000000000001, 0.37, 192.0, 1.0, 0.0, 14.5, 64.0, 5.5, 72.0, 0.0, 0.0, 0.0, 1.695766436168895E9, 0.0, 2023-09-26 17:13:56.168
70.0, 39765.74269124779, 53305.60246772796, -22617.14906896938, -31501.498103320373, 2658.896465169962, 2846.9193395280054, -187500.02235174447, -30595.58190054678, 13848.380905196776, -36336.918036570314, 44886.03560758062, -33589.218090679424, -1411.3785518859092, -28063.196308993854, -36746.26788452481, -33526.096764337635, 0.064, 0.9440000000000001, 0.37, 192.0, 0.0, 0.0, 0.0, 0.0, 0.0, 0.0, 0.0, 0.0, 0.0, 1.695766436168901E9, 0.0, 2023-09-26 17:13:56.168
72.0, 39770.168336649935, 53287.05051983005, -22608.700109565274, -31495.172559639523, 2655.1190203570154, 2769.515248479277, -187500.02235174447, -30634.96567427703, 13853.477102932586, -36331.7771353456, 44941.51263731869, -33593.57668084821, -1411.1103309524456, -28068.985410807778, -36743.250399023345, -33474.46423464587, 0.064, 0.9440000000000001, 0.37, 192.0, 0.0, 0.0, 0.0, 0.0, 0.0, 0.0, 0.0, 0.0, 0.0, 1.695766436168907E9, 0.0, 2023-09-26 17:13:56.168
74.0, 39766.904981959466, 53309.35756079645, -22614.2880456791, -31497.117161407135, 2668.0159769077277, 2852.0825924971814, -187500.02235174447, -30586.507092297925, 13858.394486712754, -36325.049260264546, 44865.248485237185, -33581.50673884234, -1405.61180181644, -28061.0728932706, -36738.44477396546, -33554.79640421825, 0.064, 0.9440000000000001, 0.37, 192.0, 0.0, 0.0, 0.0, 0.0, 0.0, 0.0, 0.0, 0.0, 0.0, 1.695766436168918E9, 0.0, 2023-09-26 17:13:56.168
76.0, 39763.6863307579, 53281.03790057157, -22615.740909068696, -31503.308594621256, 2649.687546454376, 2770.521076979766, -187500.02235174447, -30635.12213648822, 13853.208881999122, -36333.14059175737, 44939.210407639795, -33591.945003502966, -1411.4232553748197, -28065.140910761467, -36747.005492091834, -33475.738284079824, 0.064, 0.9440000000000001, 0.37, 192.0, 0.0, 0.0, 0.0, 0.0, 0.0, 0.0, 0.0, 0.0, 0.0, 1.695766436229164E9, 0.0, 2023-09-26 17:13:56.229
78.0, 39765.67563601442, 53299.41103451384, -22612.72342356723, -31504.9849754554, 2667.747755974264, 2849.668604096008, -187500.02235174447, -30581.85792945122, 13851.711315120616, -36331.30774871204, 44859.28056946761, -33588.860462768134, -1409.4115983738423, -28065.677352628394, -36743.78684089027, -33552.49417453935, 0.06, 0.9420000000000001, 0.37, 192.0, 0.5, 112.0, 14.5, 56.0, 5.5, 72.0, 0.0, 0.0, 0.0, 1.695766436229183E9, 0.0, 2023-09-26 17:13:56.229
80.0, 39762.077005157116, 53277.37221448091, -22611.650539833372, -31504.42618184402, 2651.006299377239, 2776.3995857715113, -187500.02235174447, -30628.751889318453, 13851.711315120616, -36336.49335342566, 44961.60685558401, -33597.75645706135, -1406.282354150099, -28072.092303287067, -36739.29414025476, -33440.08725167361, 0.06, 0.9420000000000001, 0.37, 192.0, 0.0, 0.0, 0.0, 0.0, 0.0, 0.0, 0.0, 0.0, 0.0, 1.695766436229189E9, 0.0, 2023-09-26 17:13:56.229
82.0, 39754.67857774241, 53296.79588041257, -22616.43381314681, -31508.65066154607, 2656.236607579781, 2852.3955169195556, -187500.02235174447, -30576.873490437687, 13847.397428440741, -36336.33689121448, 44862.40981369136, -33592.05676222524, -1408.964563484736, -28070.93001257539, -36739.69647165495, -33545.40867154702, 0.06, 0.9420000000000001, 0.37, 192.0, 0.0, 0.0, 0.0, 0.0, 0.0, 0.0, 0.0, 0.0, 0.0, 1.695766436229193E9, 0.0, 2023-09-26 17:13:56.229
84.0, 39772.9399529624, 53292.77256641061, -22599.51354259414, -31488.243518858377, 2655.9236831574062, 2786.9496091544165, -187500.02235174447, -30619.520618858412, 13852.851254087836, -36332.51474291262, 44976.269599946696, -33594.71661981542, -1403.9801244712025, -28063.866861327515, -36736.56722743121, -33420.08244038611, 0.06, 0.9420000000000001, 0.37, 192.0, 0.0, 0.0, 0.0, 0.0, 0.0, 0.0, 0.0, 0.0, 0.0, 1.695766436229197E9, 0.0, 2023-09-26 17:13:56.229
86.0, 39769.85541222756, 53310.430444530306, -22601.547551339576, -31485.874233946113, 2668.328901330102, 2867.348833960156, -187500.02235174447, -30565.451749021024, 13859.780294868982, -36319.41662066181, 44857.55948514456, -33586.31236390023, -1401.901412236859, -28054.613239123017, -36727.62652964908, -33554.058796651225, 0.06, 0.9420000000000001, 0.37, 192.0, 0.0, 0.0, 0.0, 0.0, 0.0, 0.0, 0.0, 0.0, 0.0, 1.695766436229201E9, 0.0, 2023-09-26 17:13:56.229
88.0, 39778.88551698751, 53298.49461299117, -22599.155914682855, -31485.762475223837, 2653.7332122007865, 2801.187670372447, -187500.02235174447, -30623.43217413809, 13863.244815259555, -36317.13674272737, 44989.50183266423, -33587.09467495616, -1400.5156040806298, -28054.79205307866, -36732.45450645143, -33407.36429779104, 0.06, 0.9400000000000001, 0.376, 192.0, 0.5, 112.0, 14.5, 48.0, 5.5, 96.0, 0.0, 0.0, 0.0, 1.695766436229206E9, 0.0, 2023-09-26 17:13:56.229
90.0, 39768.76017674925, 53300.30510429205, -22603.067469962534, -31490.61280377064, 2667.658348996443, 2844.6394615935637, -187500.02235174447, -30576.985249159963, 13868.98921358457, -36318.410792161325, 44854.07261300953, -33579.919764986014, -1400.4709005917193, -28047.393625663954, -36727.112439526616, -33565.94992470145, 0.06, 0.9400000000000001, 0.376, 192.0, 0.0, 0.0, 0.0, 0.0, 0.0, 0.0, 0.0, 0.0, 0.0, 1.695766436289488E9, 0.0, 2023-09-26 17:13:56.289
92.0, 39759.43949931139, 53277.81924937001, -22617.79726955858, -31508.605958057164, 2645.865398152518, 2789.900039422517, -187500.02235174447, -30635.703281844057, 13850.392562197752, -36337.834458092984, 44963.14912595143, -33594.94013725998, -1406.7964442725713, -28072.78520736518, -36743.719785656904, -33444.2446761423, 0.06, 0.9400000000000001, 0.376, 192.0, 0.0, 0.0, 0.0, 0.0, 0.0, 0.0, 0.0, 0.0, 0.0, 1.695766436289506E9, 0.0, 2023-09-26 17:13:56.289
94.0, 39756.48906904329, 53285.798822140554, -22619.138374225902, -31508.85182724617, 2652.1238866000044, 2824.031153205771, -187500.02235174447, -30601.102781427242, 13851.085466275868, -36338.05797553754, 44851.52451414162, -33600.30455592925, -1414.2172234317331, -28077.300259745152, -36749.21831479291, -33571.40375034854, 0.06, 0.9400000000000001, 0.376, 192.0, 0.0, 0.0, 0.0, 0.0, 0.0, 0.0, 0.0, 0.0, 0.0, 1.695766436289512E9, 0.0, 2023-09-26 17:13:56.289
96.0, 39766.81557498164, 53291.610275698935, -22610.62235958843, -31504.672051033027, 2657.4436017803673, 2798.1478331265253, -187500.02235174447, -30621.755793303942, 13846.838634829359, -36339.91317032733, 44974.4144051569, -33595.34246866017, -1409.322191396021, -28079.13310279049, -36745.954960102434, -33424.731603232816, 0.06, 0.9400000000000001, 0.376, 192.0, 0.0, 0.0, 0.0, 0.0, 0.0, 0.0, 0.0, 0.0, 0.0, 1.695766436289518E9, 0.0, 2023-09-26 17:13:56.289
98.0, 39757.740766732786, 53281.44023197177, -22617.886676536404, -31509.835304002205, 2657.488305269278, 2818.063237436204, -187500.02235174447, -30600.119304671207, 13862.663669903717, -36328.73729809967, 44858.9899967897, -33594.046067481766, -1403.9130692378367, -28065.096207272556, -36737.14837278704, -33564.36295084512, 0.058, 0.9380000000000001, 0.374, 192.0, 0.5, 104.0, 14.5, 40.0, 5.5, 88.0, 0.0, 0.0, 0.0, 1.695766436289524E9, 0.0, 2023-09-26 17:13:56.289
100.0, 39756.422013809926, 53283.6754064173, -22623.362853927953, -31517.70311805047, 2650.6039679770433, 2811.022437932782, -187500.02235174447, -30616.01139497893, 13848.827940085881, -36335.71104236973, 44952.64380605744, -33599.008154750845, -1405.1647669273339, -28079.13310279049, -36747.0725473252, -33448.13387967752, 0.058, 0.9380000000000001, 0.374, 192.0, 0.0, 0.0, 0.0, 0.0, 0.0, 0.0, 0.0, 0.0, 0.0, 1.69576643628953E9, 0.0, 2023-09-26 17:13:56.289
102.0, 39758.41131906644, 53274.980577824186, -22618.80309805907, -31506.594301056186, 2659.7011279703534, 2809.3013536097233, -187500.02235174447, -30601.19218840506, 13850.034934286468, -36334.057013280035, 44867.50601142717, -33601.62330885212, -1412.9208222533252, -28073.053428298645, -36744.03271007928, -33538.50198251033, 0.058, 0.9380000000000001, 0.374, 192.0, 0.0, 0.0, 0.0, 0.0, 0.0, 0.0, 0.0, 0.0, 0.0, 1.695766436289535E9, 0.0, 2023-09-26 17:13:56.289
104.0, 39751.95166491886, 53285.955284351745, -22623.027577761124, -31506.124914422624, 2661.422212293412, 2833.150664943536, -187500.02235174447, -30598.15235115914, 13845.899861562237, -36333.05118477955, 44923.184206865335, -33599.343430917674, -1401.9237639813143, -28068.180748007388, -36735.44964020844, -33464.58476359663, 0.058, 0.9380000000000001, 0.374, 192.0, 0.0, 0.0, 0.0, 0.0, 0.0, 0.0, 0.0, 0.0, 0.0, 1.695766436289541E9, 0.0, 2023-09-26 17:13:56.289
106.0, 39747.21309509434, 53267.40333645384, -22625.48626965121, -31503.353298110163, 2657.510657013733, 2809.346057098634, -187500.02235174447, -30599.135827915172, 13843.351762694332, -36335.66633888082, 44867.97539806073, -33609.17819847801, -1414.0384094760907, -28070.415922452918, -36742.08810831167, -33529.650691706025, 0.058, 0.9380000000000001, 0.374, 192.0, 0.0, 0.0, 0.0, 0.0, 0.0, 0.0, 0.0, 0.0, 0.0, 1.695766436348801E9, 0.0, 2023-09-26 17:13:56.348
108.0, 39758.657188255456, 53285.50824946264, -22623.966351028248, -31500.693440519983, 2664.19382860587, 2843.6112813486197, -187500.02235174447, -30593.547891801347, 13847.285669718465, -36334.74991735815, 44911.20367183729, -33600.23750069589, -1408.8081012735488, -28066.772588106705, -36740.456430966435, -33463.06484497367, 0.06, 0.928, 0.378, 192.0, 0.5, 112.0, 14.5, 0.0, 5.5, 104.0, 0.0, 0.0, 0.0, 1.695766436348839E9, 0.0, 2023-09-26 17:13:56.348
110.0, 39756.28790334319, 53272.611292911926, -22625.262752206654, -31495.597242784173, 2653.7555639452416, 2801.455891305911, -187500.02235174447, -30595.827769735788, 13854.840559344359, -36329.60901613343, 44879.55360168858, -33589.53101510179, -1413.0325809756018, -28064.537413661175, -36738.422422220996, -33503.02976405976, 0.06, 0.928, 0.378, 192.0, 0.0, 0.0, 0.0, 0.0, 0.0, 0.0, 0.0, 0.0, 0.0, 1.695766436348845E9, 0.0, 2023-09-26 17:13:56.348
112.0, 39756.17614462091, 53295.34301702297, -22626.42504291833, -31501.05106843127, 2660.6175494930208, 2856.0388512657705, -187500.02235174447, -30582.260260851417, 13843.463521416608, -36331.28539696758, 44912.768293949164, -33595.789503549284, -1415.3348106544986, -28070.125349775, -36745.79849789125, -33453.25242915779, 0.06, 0.928, 0.378, 192.0, 0.0, 0.0, 0.0, 0.0, 0.0, 0.0, 0.0, 0.0, 0.0, 1.69576643634885E9, 0.0, 2023-09-26 17:13:56.348
114.0, 39759.260685355744, 53269.817324855016, -22617.216124202743, -31499.307632363754, 2655.81192443513, 2794.3703883135786, -187500.02235174447, -30614.379717633692, 13854.1700070107, -36326.457420165236, 44908.722628202755, -33592.77201804781, -1412.160862941845, -28064.69387587236, -36741.59636993365, -33468.2504496873, 0.06, 0.928, 0.378, 192.0, 0.0, 0.0, 0.0, 0.0, 0.0, 0.0, 0.0, 0.0, 0.0, 1.695766436348896E9, 0.0, 2023-09-26 17:13:56.348
116.0, 39763.66397901344, 53289.82213614251, -22616.791441058092, -31507.354260367665, 2668.8876949414844, 2853.8483803091503, -187500.02235174447, -30587.311755098315, 13850.88430057577, -36326.94915854325, 44884.113357557464, -33589.843939524166, -1404.4271593603087, -28070.952364319848, -36741.73048040039, -33487.76352259678, 0.06, 0.928, 0.378, 192.0, 0.0, 0.0, 0.0, 0.0, 0.0, 0.0, 0.0, 0.0, 0.0, 1.695766436348902E9, 0.0, 2023-09-26 17:13:56.348
118.0, 39761.04882491217, 53259.13319100538, -22614.846839290483, -31509.90235923557, 2665.736098973286, 2773.873838648062, -187500.02235174447, -30630.070642241317, 13858.528597179486, -36326.81504807652, 44907.2027095798, -33589.82158777971, -1404.0471797045684, -28077.389666722975, -36740.63524492207, -33475.827691057646, 0.056, 0.932, 0.376, 192.0, 0.5, 96.0, 14.5, 16.0, 5.5, 96.0, 0.0, 0.0, 0.0, 1.695766436348907E9, 0.0, 2023-09-26 17:13:56.348
120.0, 39752.9351416749, 53274.421784212806, -22622.066452749546, -31514.775039526827, 2675.7273287448083, 2851.702612841441, -187500.02235174447, -30584.830711463776, 13846.302192962432, -36337.700347626254, 44858.11827875594, -33596.19183494947, -1406.260002405644, -28086.062143571635, -36739.808230377224, -33520.66529043499, 0.056, 0.932, 0.376, 192.0, 0.0, 0.0, 0.0, 0.0, 0.0, 0.0, 0.0, 0.0, 0.0, 1.695766436348912E9, 0.0, 2023-09-26 17:13:56.348
122.0, 39755.505592287256, 53259.82609508349, -22613.72925206772, -31498.301803863265, 2666.00431990675, 2780.869934662573, -187500.02235174447, -30616.39137463467, 13845.810454584414, -36333.54292315757, 44927.96748017878, -33599.209320450944, -1408.2716594066214, -28081.681201658394, -36734.95790183043, -33451.710158790374, 0.056, 0.932, 0.376, 192.0, 0.0, 0.0, 0.0, 0.0, 0.0, 0.0, 0.0, 0.0, 0.0, 1.695766436409572E9, 0.0, 2023-09-26 17:13:56.409
124.0, 39749.24710383977, 53282.69192966127, -22621.619417860442, -31497.877120718615, 2673.156878132448, 2870.7462991173625, -187500.02235174447, -30558.254487306418, 13848.045629029946, -36321.04829800705, 44843.76845881563, -33585.15007318855, -1403.220165159722, -28063.68804737187, -36724.720802869895, -33538.83725867716, 0.056, 0.932, 0.376, 192.0, 0.0, 0.0, 0.0, 0.0, 0.0, 0.0, 0.0, 0.0, 0.0, 1.695766436409588E9, 0.0, 2023-09-26 17:13:56.409
126.0, 39749.3812143065, 53259.26730147211, -22620.121850981934, -31500.246405630878, 2658.3153198141245, 2789.475356277866, -187500.02235174447, -30624.281540427393, 13843.016486527502, -36330.90541731184, 44937.04228842763, -33608.015907766334, -1410.1492059408672, -28067.867823585013, -36733.90736984103, -33432.75587949227, 0.056, 0.932, 0.376, 192.0, 0.0, 0.0, 0.0, 0.0, 0.0, 0.0, 0.0, 0.0, 0.0, 1.695766436409594E9, 0.0, 2023-09-26 17:13:56.409
128.0, 39744.39677529297, 53275.91935109131, -22618.80309805907, -31505.1861411555, 2677.5378200456885, 2861.738546101874, -187500.02235174447, -30571.710237468513, 13848.35855345232, -36327.53030389909, 44838.35933665745, -33604.0820007422, -1407.578755328507, -28064.716227616816, -36732.14158202906, -33536.289159809254, 0.056, 0.934, 0.376, 192.0, 0.5, 96.0, 14.5, 24.0, 5.5, 96.0, 0.0, 0.0, 0.0, 1.695766436409599E9, 0.0, 2023-09-26 17:13:56.409
130.0, 39748.04010963919, 53254.551083392034, -22613.930417767813, -31510.416449358043, 2667.010148407239, 2778.634760217042, -187500.02235174447, -30631.25528469745, 13847.822111585392, -36320.6236148624, 44940.28329137365, -33604.819608309226, -1404.7624355271382, -28072.762855620727, -36736.14254428656, -33426.29622534469, 0.056, 0.934, 0.376, 192.0, 0.0, 0.0, 0.0, 0.0, 0.0, 0.0, 0.0, 0.0, 0.0, 1.695766436409605E9, 0.0, 2023-09-26 17:13:56.409
132.0, 39747.01192939424, 53274.33237723498, -22612.43285088931, -31509.76824876884, 2675.794383978174, 2845.3994209050443, -187500.02235174447, -30577.901670682633, 13849.587899397362, -36308.687783323265, 44816.499330580154, -33597.68940182798, -1408.5175285956298, -28070.46062594183, -36743.76448914582, -33559.62438102059, 0.056, 0.934, 0.376, 192.0, 0.0, 0.0, 0.0, 0.0, 0.0, 0.0, 0.0, 0.0, 0.0, 1.695766436409611E9, 0.0, 2023-09-26 17:13:56.409
134.0, 39748.3306823171, 53258.887321816364, -22605.14618219688, -31510.505856335865, 2670.0946891420713, 2784.6473794755198, -187500.02235174447, -30633.02107250942, 13844.916384806203, -36308.28545192307, 44937.93635820584, -33601.93623327449, -1407.4893483506858, -28069.052466041147, -36741.88694261157, -33420.440068297394, 0.056, 0.934, 0.376, 192.0, 0.0, 0.0, 0.0, 0.0, 0.0, 0.0, 0.0, 0.0, 0.0, 1.695766436409616E9, 0.0, 2023-09-26 17:13:56.409
136.0, 39748.777717206205, 53272.11955453391, -22595.289062892087, -31507.890702234592, 2683.595142793077, 2845.9582145164272, -187500.02235174447, -30571.6655339796, 13851.823073842892, -36300.84232101945, 44823.80835101704, -33594.15782620404, -1408.8751565069147, -28059.03888452517, -36735.002605319336, -33541.184191844965, 0.056, 0.934, 0.376, 192.0, 0.0, 0.0, 0.0, 0.0, 0.0, 0.0, 0.0, 0.0, 0.0, 1.695766436469823E9, 0.0, 2023-09-26 17:13:56.469
138.0, 39751.52698177421, 53261.122496261894, -22590.148161667366, -31509.790600513294, 2667.658348996443, 2793.4986702798215, -187500.02235174447, -30613.195075177562, 13853.275937232487, -36304.70917281022, 44933.42130582587, -33595.588337849185, -1403.354275626454, -28063.620992138505, -36734.46616345241, -33415.94736766188, 0.058, 0.936, 0.382, 192.0, 0.5, 104.0, 14.5, 32.0, 5.5, 120.0, 0.0, 0.0, 0.0, 1.695766436469853E9, 0.0, 2023-09-26 17:13:56.469
140.0, 39749.96235966234, 53273.5277144346, -22591.37750761241, -31505.3873068556, 2675.123831644515, 2840.4149818915107, -187500.02235174447, -30578.169891616097, 13862.84248385936, -36299.83649251896, 44810.084379921485, -33591.83324478069, -1399.8227000025154, -28054.210907722823, -36723.9161400695, -33558.73031124238, 0.058, 0.936, 0.382, 192.0, 0.0, 0.0, 0.0, 0.0, 0.0, 0.0, 0.0, 0.0, 0.0, 1.695766436469862E9, 0.0, 2023-09-26 17:13:56.469
142.0, 39759.43949931139, 53273.28184524558, -22589.455257589252, -31493.026792171815, 2663.2774070832024, 2808.2731733647793, -187500.02235174447, -30606.176627418594, 13854.639393644262, -36307.369030400405, 44940.819733240576, -33591.36385814713, -1404.024827960113, -28054.568535634106, -36733.41563146301, -33411.432315281905, 0.058, 0.936, 0.382, 192.0, 0.0, 0.0, 0.0, 0.0, 0.0, 0.0, 0.0, 0.0, 0.0, 1.69576643646987E9, 0.0, 2023-09-26 17:13:56.469
144.0, 39759.283037100206, 53276.34403423596, -22587.04126918808, -31482.096789133167, 2670.4970205422665, 2842.7172115704075, -187500.02235174447, -30573.00663864692, 13866.575225183395, -36295.343791883446, 44831.94438599877, -33580.16563417502, -1402.2366884036885, -28038.676445326382, -36720.98806154586, -33537.67496796548, 0.058, 0.936, 0.382, 192.0, 0.0, 0.0, 0.0, 0.0, 0.0, 0.0, 0.0, 0.0, 0.0, 1.695766436469877E9, 0.0, 2023-09-26 17:13:56.469
146.0, 39764.04395866919, 53277.908656347834, -22590.23756864519, -31482.81204495574, 2666.1831338623924, 2830.2896416532567, -187500.02235174447, -30596.543025558356, 13860.36144022482, -36302.20577743123, 44948.12875367746, -33584.54657608826, -1402.1696331703226, -28041.55982036112, -36727.98415756037, -33405.57615823462, 0.058, 0.936, 0.382, 192.0, 0.0, 0.0, 0.0, 0.0, 0.0, 0.0, 0.0, 0.0, 0.0, 1.695766436469882E9, 0.0, 2023-09-26 17:13:56.469
148.0, 39757.27138009923, 53266.01752829761, -22594.931434980805, -31491.484521804396, 2665.9596164178392, 2830.3566968866226, -187500.02235174447, -30580.829749206277, 13867.670460661706, -36296.528434339576, 44852.30682519756, -33585.9770877334, -1406.1705954278227, -28035.97188424729, -36727.35830871562, -33519.70416542341, 0.062, 0.932, 0.378, 192.0, 0.5, 120.0, 14.5, 16.0, 5.5, 104.0, 0.0, 0.0, 0.0, 1.695766436469888E9, 0.0, 2023-09-26 17:13:56.469
150.0, 39758.925409188916, 53275.606426668935, -22592.76331576864, -31491.305707848755, 2667.2783693407023, 2831.9660224874046, -187500.02235174447, -30588.965784188007, 13858.282727990476, -36305.267966421605, 44941.80320999661, -33586.96056448943, -1405.9247262388142, -28047.32657043059, -36733.393279718555, -33414.22628333882, 0.062, 0.932, 0.378, 192.0, 0.0, 0.0, 0.0, 0.0, 0.0, 0.0, 0.0, 0.0, 0.0, 1.695766436469894E9, 0.0, 2023-09-26 17:13:56.469
152.0, 39758.25485685526, 53271.694871389256, -22589.0305744446, -31485.963640923936, 2662.875075683007, 2824.8805194950723, -187500.02235174447, -30581.947336429042, 13868.720992651106, -36292.92980348227, 44859.59349388999, -33574.42123585001, -1403.1754616708115, -28035.59190459155, -36724.586692403165, -33517.714860166896, 0.062, 0.932, 0.378, 192.0, 0.0, 0.0, 0.0, 0.0, 0.0, 0.0, 0.0, 0.0, 0.0, 1.695766436530076E9, 0.0, 2023-09-26 17:13:56.530
154.0, 39755.974978920814, 53283.094261061466, -22598.373603626922, -31503.0850771767, 2660.6399012374764, 2833.284775410268, -187500.02235174447, -30603.516769828413, 13861.590786169862, -36302.27283266459, 44922.26778534267, -33579.0256952078, -1399.8227000025154, -28043.750291317738, -36732.186285517964, -33443.730586019825, 0.062, 0.932, 0.378, 192.0, 0.0, 0.0, 0.0, 0.0, 0.0, 0.0, 0.0, 0.0, 0.0, 1.69576643653009E9, 0.0, 2023-09-26 17:13:56.530
156.0, 39756.690234743386, 53267.17981900929, -22591.04223144558, -31501.363992853643, 2659.164686103426, 2793.342208068634, -187500.02235174447, -30615.050269967353, 13864.228292015589, -36308.128989711884, 44889.38836924891, -33588.14520694556, -1408.383418128898, -28057.69777985785, -36735.762564630815, -33492.65855463249, 0.062, 0.932, 0.378, 192.0, 0.0, 0.0, 0.0, 0.0, 0.0, 0.0, 0.0, 0.0, 0.0, 1.695766436530096E9, 0.0, 2023-09-26 17:13:56.530
158.0, 39753.22571435281, 53277.841601114465, -22595.512580336643, -31505.968452211437, 2661.355157060046, 2839.3644499021116, -187500.02235174447, -30588.9210806991, 13861.300213491942, -36309.15716995682, 44923.474779543256, -33586.73704704488, -1403.1754616708115, -28056.848413568547, -36732.94624482945, -33451.30782739018, 0.064, 0.928, 0.378, 192.0, 1.0, 0.0, 14.5, 0.0, 5.5, 104.0, 0.0, 0.0, 0.0, 1.695766436530101E9, 0.0, 2023-09-26 17:13:56.530
160.0, 39749.403566050954, 53254.72989734768, -22592.606853557452, -31497.206568384954, 2655.7225174573086, 2789.4083010445, -187500.02235174447, -30610.132886187184, 13862.328393736887, -36308.08428622297, 44910.86839567046, -33589.419256379515, -1411.5350140970963, -28052.93685828887, -36731.40397446203, -33476.54294688022, 0.064, 0.928, 0.378, 192.0, 0.0, 0.0, 0.0, 0.0, 0.0, 0.0, 0.0, 0.0, 0.0, 1.695766436530106E9, 0.0, 2023-09-26 17:13:56.530
162.0, 39753.896266686475, 53281.01554882712, -22592.09276343498, -31493.65264101656, 2665.9596164178392, 2845.757048816329, -187500.02235174447, -30586.931775442576, 13856.271070989498, -36303.05514372053, 44910.51076775918, -33588.45813136794, -1407.288182650588, -28047.572439619595, -36731.98511981787, -33474.57599336815, 0.064, 0.928, 0.378, 192.0, 0.0, 0.0, 0.0, 0.0, 0.0, 0.0, 0.0, 0.0, 0.0, 1.695766436530111E9, 0.0, 2023-09-26 17:13:56.530
164.0, 39747.81659219463, 53257.92619680479, -22590.774010512116, -31485.762475223837, 2658.158857602937, 2792.3363795681453, -187500.02235174447, -30606.646014052156, 13862.574262925895, -36300.439989619255, 44924.525311532656, -33581.64084930907, -1406.2376506611886, -28046.611314608017, -36724.13965751405, -33471.53615612223, 0.064, 0.928, 0.378, 192.0, 0.0, 0.0, 0.0, 0.0, 0.0, 0.0, 0.0, 0.0, 0.0, 1.695766436530117E9, 0.0, 2023-09-26 17:13:56.530
166.0, 39744.329720059606, 53278.71331914823, -22594.462048347243, -31487.46120780244, 2668.1724391189146, 2867.7735171048066, -187500.02235174447, -30567.508109510913, 13858.238024501567, -36301.0211349751, 44910.57782299254, -33578.33279112969, -1405.0083047161465, -28044.35378841803, -36726.28542498177, -33479.247507959306, 0.064, 0.928, 0.378, 192.0, 0.0, 0.0, 0.0, 0.0, 0.0, 0.0, 0.0, 0.0, 0.0, 1.695766436590387E9, 0.0, 2023-09-26 17:13:56.590
168.0, 39745.04497588217, 53252.38296417987, -22597.166609426335, -31489.271699103323, 2652.973252889306, 2785.608504487098, -187500.02235174447, -30622.6275113377, 13855.667573889206, -36308.33015541198, 44962.03153872866, -33591.587375591684, -1412.2279181752108, -28048.64532335345, -36731.09105003966, -33426.36328057805, 0.058, 0.93, 0.382, 192.0, 0.5, 104.0, 14.5, 8.0, 5.5, 120.0, 0.0, 0.0, 0.0, 1.695766436590406E9, 0.0, 2023-09-26 17:13:56.590
170.0, 39748.59890325057, 53268.900903332345, -22593.94795822477, -31491.149245637567, 2670.00528216425, 2862.766726346818, -187500.02235174447, -30567.48575776646, 13858.975632068592, -36313.18048395878, 44894.77513966264, -33587.98874473438, -1407.1987756727667, -28046.298390185642, -36726.91127382652, -33488.545833652715, 0.058, 0.93, 0.382, 192.0, 0.0, 0.0, 0.0, 0.0, 0.0, 0.0, 0.0, 0.0, 0.0, 1.695766436590412E9, 0.0, 2023-09-26 17:13:56.590
172.0, 39746.67665322741, 53243.44226639775, -22592.785667513093, -31497.00540268486, 2653.1073633560377, 2784.5579724976988, -187500.02235174447, -30626.986101506485, 13862.238986759066, -36308.03958273406, 44954.07431770257, -33586.290012155776, -1406.0588367055461, -28051.46164315482, -36728.02886104928, -33428.151420134476, 0.058, 0.93, 0.382, 192.0, 0.0, 0.0, 0.0, 0.0, 0.0, 0.0, 0.0, 0.0, 0.0, 1.695766436590418E9, 0.0, 2023-09-26 17:13:56.590
174.0, 39743.45800202584, 53266.35280446444, -22593.52327508012, -31502.481580076408, 2665.2443605952694, 2865.292473470268, -187500.02235174447, -30561.607248974713, 13855.578166911384, -36315.14743747085, 44882.48168021222, -33589.50866335734, -1408.6516390623617, -28054.188555978366, -36733.19211401846, -33500.235796002846, 0.058, 0.93, 0.382, 192.0, 0.0, 0.0, 0.0, 0.0, 0.0, 0.0, 0.0, 0.0, 0.0, 1.695766436590423E9, 0.0, 2023-09-26 17:13:56.590
176.0, 39752.66692074143, 53249.812513567515, -22584.47081857572, -31497.00540268486, 2663.3444623165683, 2782.970998641372, -187500.02235174447, -30612.34570888826, 13857.276899489987, -36314.74510607065, 44980.53878313766, -33590.51449185783, -1408.1822524288002, -28054.36736993401, -36730.398145961546, -33399.00474536476, 0.058, 0.93, 0.382, 192.0, 0.0, 0.0, 0.0, 0.0, 0.0, 0.0, 0.0, 0.0, 0.0, 1.695766436590429E9, 0.0, 2023-09-26 17:13:56.590
178.0, 39750.96818816283, 53272.00779581163, -22590.95282446776, -31498.480617818906, 2670.8546484535514, 2860.3303862011894, -187500.02235174447, -30566.85990892171, 13859.824998357893, -36308.01723098961, 44861.62750263542, -33579.0256952078, -1404.2930488935767, -28049.673503598395, -36726.79951510424, -33529.807153917216, 0.052000000000000005, 0.932, 0.382, 192.0, 0.5, 80.0, 14.5, 16.0, 5.5, 120.0, 0.0, 0.0, 0.0, 1.695766436590434E9, 0.0, 2023-09-26 17:13:56.590
180.0, 39756.64553125448, 53254.72989734768, -22581.699202263262, -31487.46120780244, 2670.6534827534538, 2791.777585956763, -187500.02235174447, -30610.646976309657, 13863.066001303912, -36303.882158265376, 44967.75358530922, -33577.84105275167, -1402.6613715483395, -28051.305180943633, -36723.55851215822, -33420.171847363934, 0.052000000000000005, 0.932, 0.382, 192.0, 0.0, 0.0, 0.0, 0.0, 0.0, 0.0, 0.0, 0.0, 0.0, 1.695766436590439E9, 0.0, 2023-09-26 17:13:56.590
182.0, 39748.59890325057, 53266.28574923107, -22586.14719940987, -31488.064704902736, 2679.4600700688447, 2870.56748516172, -187500.02235174447, -30548.062091834796, 13865.748210638549, -36306.34085015546, 44849.78107807411, -33577.63988705157, -1399.7109412802388, -28042.252724439233, -36712.22617771938, -33547.2191628479, 0.052000000000000005, 0.932, 0.382, 192.0, 0.0, 0.0, 0.0, 0.0, 0.0, 0.0, 0.0, 0.0, 0.0, 1.695766436649283E9, 0.0, 2023-09-26 17:13:56.649
184.0, 39748.15186836146, 53255.758077592625, -22594.394993113878, -31491.059838659745, 2661.221046593314, 2795.0409406472377, -187500.02235174447, -30622.493400870968, 13853.432399443675, -36319.23780670617, 44991.60289664303, -33592.03441048079, -1408.0481419620685, -28052.69098909986, -36730.77812561728, -33386.77834114771, 0.052000000000000005, 0.932, 0.382, 192.0, 0.0, 0.0, 0.0, 0.0, 0.0, 0.0, 0.0, 0.0, 0.0, 1.695766436649297E9, 0.0, 2023-09-26 17:13:56.649
186.0, 39742.854504925555, 53267.224522498196, -22594.57380706952, -31485.27073684582, 2674.0285961662053, 2854.831857065184, -187500.02235174447, -30571.15144385713, 13859.668536146706, -36314.007498503626, 44864.35441545897, -33586.31236390023, -1409.9480402407696, -28042.319779672598, -36725.30194822573, -33525.26974979279, 0.052000000000000005, 0.932, 0.382, 192.0, 0.0, 0.0, 0.0, 0.0, 0.0, 0.0, 0.0, 0.0, 0.0, 1.695766436649306E9, 0.0, 2023-09-26 17:13:56.649
188.0, 39749.5823800066, 53259.91550206131, -22590.818714001027, -31484.555481023253, 2673.0227676657164, 2810.5306995547653, -187500.02235174447, -30597.325336614293, 13854.617041899806, -36319.863655550915, 44985.50087040674, -33584.56892783272, -1405.1871186717892, -28047.639494852963, -36721.90448306852, -33388.924108615414, 0.058, 0.934, 0.38, 192.0, 0.5, 104.0, 14.5, 24.0, 5.5, 112.0, 0.0, 0.0, 0.0, 1.695766436649312E9, 0.0, 2023-09-26 17:13:56.649
190.0, 39742.04984212516, 53261.614234639914, -22594.260882647144, -31484.019039156323, 2673.447450810367, 2848.6180721066085, -187500.02235174447, -30566.703446710522, 13861.523730936497, -36315.72858282668, 44869.1376887724, -33577.55048007375, -1405.768264027627, -28048.93589603137, -36719.31168071171, -33522.22991254686, 0.058, 0.934, 0.38, 192.0, 0.0, 0.0, 0.0, 0.0, 0.0, 0.0, 0.0, 0.0, 0.0, 1.695766436649317E9, 0.0, 2023-09-26 17:13:56.649
192.0, 39753.315121330634, 53263.40237419634, -22594.61851055843, -31484.533129278796, 2664.976139661806, 2821.058371193215, -187500.02235174447, -30596.744191258455, 13856.271070989498, -36323.52934164159, 44991.13351000947, -33581.394980120065, -1404.963601227236, -28055.015570523214, -36730.77812561728, -33379.69283815537, 0.058, 0.934, 0.38, 192.0, 0.0, 0.0, 0.0, 0.0, 0.0, 0.0, 0.0, 0.0, 0.0, 1.695766436649322E9, 0.0, 2023-09-26 17:13:56.649
194.0, 39747.86129568354, 53256.85331307093, -22595.60198731446, -31488.779960725304, 2668.0830321410936, 2837.978641745882, -187500.02235174447, -30572.224327590982, 13860.808475113927, -36318.120219483404, 44885.02977908013, -33578.69041904097, -1409.0539704625571, -28051.193422221357, -36722.776201102286, -33503.61090941559, 0.058, 0.934, 0.38, 192.0, 0.0, 0.0, 0.0, 0.0, 0.0, 0.0, 0.0, 0.0, 0.0, 1.695766436649327E9, 0.0, 2023-09-26 17:13:56.649
196.0, 39746.07315612712, 53259.28965321656, -22594.394993113878, -31499.441742830488, 2672.0169391652275, 2820.767798515296, -187500.02235174447, -30604.29908088435, 13851.26428023151, -36329.56431264452, 44969.5640766101, -33584.881852255094, -1403.9577727267472, -28060.60350663704, -36728.81117210522, -33402.84924541107, 0.058, 0.934, 0.38, 192.0, 0.0, 0.0, 0.0, 0.0, 0.0, 0.0, 0.0, 0.0, 0.0, 1.695766436709573E9, 0.0, 2023-09-26 17:13:56.709
198.0, 39744.21796133732, 53253.81347582501, -22590.684603534297, -31499.32998410821, 2673.447450810367, 2814.9116414680057, -187500.02235174447, -30594.509016812925, 13852.426570943186, -36321.89766429635, 44876.20084002028, -33583.29487839877, -1407.3105343950433, -28054.3226664451, -36724.18436100297, -33513.33391825365, 0.062, 0.934, 0.378, 192.0, 0.5, 120.0, 14.5, 24.0, 5.5, 104.0, 0.0, 0.0, 0.0, 1.695766436709628E9, 0.0, 2023-09-26 17:13:56.709
200.0, 39748.75536546175, 53260.54135090606, -22593.657385546852, -31504.359126610652, 2677.157840389948, 2827.473321851888, -187500.02235174447, -30594.352554601737, 13851.845425587348, -36319.95306252874, 44939.635090784446, -33580.56796557522, -1401.7449500256719, -28060.916431059413, -36725.480762181374, -33434.722833004336, 0.062, 0.934, 0.378, 192.0, 0.0, 0.0, 0.0, 0.0, 0.0, 0.0, 0.0, 0.0, 0.0, 1.695766436709643E9, 0.0, 2023-09-26 17:13:56.709
202.0, 39745.424955537914, 53243.46461814221, -22590.90812097885, -31497.22892012941, 2675.772032233719, 2813.0564466782153, -187500.02235174447, -30586.14946438664, 13855.891091333759, -36320.55655962903, 44877.98897957671, -33587.83228252319, -1406.0588367055461, -28058.54714614715, -36723.42440169149, -33511.25520601931, 0.062, 0.934, 0.378, 192.0, 0.0, 0.0, 0.0, 0.0, 0.0, 0.0, 0.0, 0.0, 0.0, 1.695766436709652E9, 0.0, 2023-09-26 17:13:56.709
204.0, 39751.70579572985, 53254.52873164758, -22591.623376801417, -31490.724562492916, 2674.743851988775, 2841.733734814374, -187500.02235174447, -30586.261223108915, 13853.097123276846, -36321.562388129525, 44927.83336971204, -33587.92168950101, -1401.61083955894, -28057.54131764666, -36724.18436100297, -33445.00463545378, 0.062, 0.934, 0.378, 192.0, 0.0, 0.0, 0.0, 0.0, 0.0, 0.0, 0.0, 0.0, 0.0, 1.695766436709658E9, 0.0, 2023-09-26 17:13:56.709
206.0, 39746.74370846077, 53235.73091456067, -22590.192865156278, -31483.348486822666, 2668.1277356300043, 2807.1779378864694, -187500.02235174447, -30602.689755283565, 13861.009640814023, -36313.73927757017, 44875.6420464089, -33589.10633195714, -1403.8907174933813, -28049.69585534285, -36724.9666720589, -33511.8587031196, 0.062, 0.934, 0.378, 192.0, 0.0, 0.0, 0.0, 0.0, 0.0, 0.0, 0.0, 0.0, 0.0, 1.695766436709664E9, 0.0, 2023-09-26 17:13:56.709
208.0, 39749.71649047333, 53262.08362127348, -22590.61754830093, -31487.95294618046, 2683.5057358152553, 2860.866828068117, -187500.02235174447, -30571.75494095742, 13853.655916888229, -36307.61489958941, 44893.14346231741, -33583.4289888655, -1400.225031402711, -28048.868840798004, -36726.24072149285, -33483.24847021681, 0.058, 0.9420000000000001, 0.376, 192.0, 0.5, 104.0, 14.5, 56.0, 5.5, 96.0, 0.0, 0.0, 0.0, 1.69576643670967E9, 0.0, 2023-09-26 17:13:56.709
210.0, 39744.240313081784, 53240.022449496086, -22593.32210938002, -31494.636117772596, 2670.6534827534538, 2808.027304175771, -187500.02235174447, -30591.893862711655, 13856.02520180049, -36304.73152455468, 44882.995770334695, -33583.496044098865, -1403.9801244712025, -28046.857183797027, -36723.60321564713, -33504.974365827366, 0.058, 0.9420000000000001, 0.376, 192.0, 0.0, 0.0, 0.0, 0.0, 0.0, 0.0, 0.0, 0.0, 0.0, 1.695766436709675E9, 0.0, 2023-09-26 17:13:56.709
212.0, 39749.64943523997, 53260.02726078359, -22588.158856410846, -31498.257100374354, 2679.9518084468614, 2861.403269935044, -187500.02235174447, -30565.85408042122, 13850.45961743112, -36313.33694616997, 44883.50986045717, -33587.51935810081, -1402.1249296814121, -28053.36154143352, -36728.900579083034, -33499.319374480176, 0.058, 0.9420000000000001, 0.376, 192.0, 0.0, 0.0, 0.0, 0.0, 0.0, 0.0, 0.0, 0.0, 0.0, 1.695766436769891E9, 0.0, 2023-09-26 17:13:56.769
214.0, 39748.576551506114, 53238.45782738422, -22578.838178972983, -31491.37276308212, 2676.5990467785655, 2792.8728214350726, -187500.02235174447, -30603.62852855069, 13858.908576835225, -36309.80537054603, 44907.06859911306, -33587.541709845274, -1398.0569121905462, -28051.014608265712, -36716.87534056608, -33486.75769409629, 0.058, 0.9420000000000001, 0.376, 192.0, 0.0, 0.0, 0.0, 0.0, 0.0, 0.0, 0.0, 0.0, 0.0, 1.695766436769906E9, 0.0, 2023-09-26 17:13:56.769
216.0, 39745.15673460445, 53262.15067650684, -22587.42124884382, -31496.692478262485, 2686.2102968943473, 2864.5101624143317, -187500.02235174447, -30564.892955409643, 13854.035896543968, -36314.38747815937, 44865.650816637375, -33587.00526797835, -1398.7945197575714, -28055.842585068058, -36721.41274469051, -33525.00152885932, 0.058, 0.9420000000000001, 0.376, 192.0, 0.0, 0.0, 0.0, 0.0, 0.0, 0.0, 0.0, 0.0, 0.0, 1.695766436769911E9, 0.0, 2023-09-26 17:13:56.769
218.0, 39742.89920841446, 53238.21195819521, -22589.589368055986, -31499.173521897024, 2667.8371629520852, 2786.6813882209526, -187500.02235174447, -30621.621682837213, 13855.332297722376, -36314.700402581744, 44938.293986117125, -33585.95473598895, -1401.677894792306, -28061.94461130436, -36723.111477269114, -33458.058054215675, 0.056, 0.9460000000000001, 0.376, 192.0, 0.5, 96.0, 14.5, 72.0, 5.5, 96.0, 0.0, 0.0, 0.0, 1.695766436769917E9, 0.0, 2023-09-26 17:13:56.769
220.0, 39744.70969971534, 53259.06613577201, -22593.255054146655, -31501.85573123166, 2679.907104957951, 2862.18558099098, -187500.02235174447, -30564.065940864795, 13853.633565143773, -36313.33694616997, 44868.109508527465, -33582.89254699857, -1404.449511104764, -28060.759968848226, -36727.49241918235, -33531.63999696255, 0.056, 0.9460000000000001, 0.376, 192.0, 0.0, 0.0, 0.0, 0.0, 0.0, 0.0, 0.0, 0.0, 0.0, 1.695766436769922E9, 0.0, 2023-09-26 17:13:56.769
222.0, 39745.04497588217, 53235.261527927105, -22593.70208903576, -31496.200739884465, 2662.6292064939985, 2795.4432720474333, -187500.02235174447, -30612.748040288454, 13853.700620377138, -36314.16396071482, 44943.2113698973, -33589.39690463506, -1402.348447125965, -28057.004875779734, -36727.60417790463, -33455.44290011441, 0.056, 0.9460000000000001, 0.376, 192.0, 0.0, 0.0, 0.0, 0.0, 0.0, 0.0, 0.0, 0.0, 0.0, 1.695766436769928E9, 0.0, 2023-09-26 17:13:56.769
224.0, 39735.0313943662, 53255.73572584817, -22594.81967625853, -31490.2328241149, 2686.0538346831604, 2881.0057498223487, -187500.02235174447, -30555.058187849307, 13851.197224998145, -36311.571158358, 44859.6381973789, -33588.50283485685, -1403.6672000488281, -28051.41693966591, -36727.671233138, -33539.59721798864, 0.056, 0.9460000000000001, 0.376, 192.0, 0.0, 0.0, 0.0, 0.0, 0.0, 0.0, 0.0, 0.0, 0.0, 1.695766436769933E9, 0.0, 2023-09-26 17:13:56.769
226.0, 39741.33458630259, 53242.68230708627, -22590.796362256573, -31481.56034726624, 2666.6301687514983, 2811.894155966539, -187500.02235174447, -30595.604252291236, 13848.22444298559, -36318.0755159945, 44982.50573664972, -33590.961526746934, -1406.1035401944566, -28047.32657043059, -36724.25141623634, -33406.336117546096, 0.056, 0.9460000000000001, 0.376, 192.0, 0.0, 0.0, 0.0, 0.0, 0.0, 0.0, 0.0, 0.0, 0.0, 1.695766436830147E9, 0.0, 2023-09-26 17:13:56.830
228.0, 39751.01289165174, 53260.80957183953, -22585.498998820665, -31481.403885055053, 2679.393014835479, 2874.2555229968457, -187500.02235174447, -30552.375978514672, 13859.199149513144, -36309.78301880157, 44874.5915144195, -33579.89741324156, -1402.3931506148758, -28045.627837851986, -36719.55754990072, -33521.22408404638, 0.062, 0.9460000000000001, 0.372, 192.0, 0.5, 120.0, 14.5, 72.0, 5.5, 80.0, 0.0, 0.0, 0.0, 1.695766436830176E9, 0.0, 2023-09-26 17:13:56.830
230.0, 39748.66595848393, 53238.413123895305, -22593.970309969227, -31491.685687504494, 2660.0587558816383, 2803.3110860957013, -187500.02235174447, -30613.15037168865, 13857.969803568103, -36312.6216903474, 44972.78272781167, -33582.020828964814, -1398.2804296350992, -28051.349884432544, -36721.45744817942, -33417.444934540385, 0.062, 0.9460000000000001, 0.372, 192.0, 0.0, 0.0, 0.0, 0.0, 0.0, 0.0, 0.0, 0.0, 0.0, 1.695766436830182E9, 0.0, 2023-09-26 17:13:56.830
232.0, 39749.068289884126, 53253.92523454729, -22598.977100727214, -31494.636117772596, 2673.5592095326438, 2863.2584647248345, -187500.02235174447, -30558.500356495424, 13857.746286123549, -36308.687783323265, 44857.85005782248, -33577.57283181821, -1402.191984914778, -28048.019474508703, -36721.435096434965, -33548.64967449304, 0.062, 0.9460000000000001, 0.372, 192.0, 0.0, 0.0, 0.0, 0.0, 0.0, 0.0, 0.0, 0.0, 0.0, 1.695766436830187E9, 0.0, 2023-09-26 17:13:56.830
234.0, 39742.40747003644, 53236.468522127696, -22608.52129560963, -31505.968452211437, 2657.6000639915546, 2803.4004930735223, -187500.02235174447, -30609.23881640897, 13847.643297629751, -36321.58473987398, 44980.56113488211, -33585.373590633106, -1405.7459122831717, -28061.83285258208, -36733.728555885384, -33407.14078034649, 0.062, 0.9460000000000001, 0.372, 192.0, 0.0, 0.0, 0.0, 0.0, 0.0, 0.0, 0.0, 0.0, 0.0, 1.695766436830193E9, 0.0, 2023-09-26 17:13:56.830
236.0, 39741.96043514734, 53245.051591998534, -22607.649577575874, -31504.225016143922, 2673.3133403436354, 2851.2332262078794, -187500.02235174447, -30566.748150199433, 13848.939698808159, -36320.4224491623, 44870.81406960655, -33587.45230286745, -1410.7303512967053, -28060.558803148127, -36731.80630586223, -33528.533104483264, 0.062, 0.9460000000000001, 0.372, 192.0, 0.0, 0.0, 0.0, 0.0, 0.0, 0.0, 0.0, 0.0, 0.0, 1.695766436830199E9, 0.0, 2023-09-26 17:13:56.830
238.0, 39744.82145843762, 53239.39660065134, -22607.58252234251, -31506.86252198965, 2668.4630117968336, 2817.7503130138293, -187500.02235174447, -30600.186359904572, 13845.78810283996, -36320.19893171775, 44980.00234127073, -33588.43577962348, -1402.9519442262583, -28062.50340491574, -36732.5215616848, -33408.19131233589, 0.062, 0.9400000000000001, 0.372, 192.0, 0.5, 120.0, 14.5, 48.0, 5.5, 80.0, 0.0, 0.0, 0.0, 1.695766436830204E9, 0.0, 2023-09-26 17:13:56.830
240.0, 39744.84381018207, 53241.698830330235, -22601.502847850665, -31492.982088682904, 2673.9838926772945, 2852.060240752726, -187500.02235174447, -30570.413836290103, 13853.208881999122, -36316.68970783827, 44871.05993879556, -33578.39984636305, -1405.477691349708, -28054.523832145194, -36726.93362557097, -33537.25028482083, 0.062, 0.9400000000000001, 0.372, 192.0, 0.0, 0.0, 0.0, 0.0, 0.0, 0.0, 0.0, 0.0, 0.0, 1.69576643683021E9, 0.0, 2023-09-26 17:13:56.830
242.0, 39749.94000791788, 53242.59290010845, -22600.94405423928, -31490.098713648167, 2670.1170408865264, 2837.7774760457846, -187500.02235174447, -30583.556662029823, 13846.592765640351, -36322.03177476308, 44972.67096908939, -33581.08205569769, -1404.5389180825853, -28050.99225652126, -36729.347613972146, -33418.96485316334, 0.062, 0.9400000000000001, 0.372, 192.0, 0.0, 0.0, 0.0, 0.0, 0.0, 0.0, 0.0, 0.0, 0.0, 1.695766436890518E9, 0.0, 2023-09-26 17:13:56.890
244.0, 39748.04010963919, 53244.78337106507, -22599.647653060874, -31482.208547855444, 2681.1364509029927, 2846.4276011499887, -187500.02235174447, -30564.557679242815, 13857.612175656817, -36307.54784435604, 44861.672206124334, -33568.676837524996, -1401.4320256032975, -28041.470413383297, -36716.00362253233, -33549.9684274159, 0.062, 0.9400000000000001, 0.372, 192.0, 0.0, 0.0, 0.0, 0.0, 0.0, 0.0, 0.0, 0.0, 0.0, 1.695766436890533E9, 0.0, 2023-09-26 17:13:56.890
246.0, 39749.71649047333, 53248.49376064465, -22604.497981607674, -31487.416504313533, 2672.173401376415, 2844.125371471092, -187500.02235174447, -30583.62371726319, 13841.854195815826, -36320.86948405141, 44964.19965794083, -33582.80314002075, -1404.7847872715936, -28055.08262575658, -36727.64888139354, -33433.448783570384, 0.062, 0.9400000000000001, 0.372, 192.0, 0.0, 0.0, 0.0, 0.0, 0.0, 0.0, 0.0, 0.0, 0.0, 1.695766436890538E9, 0.0, 2023-09-26 17:13:56.890
248.0, 39743.34624330357, 53233.13811220385, -22601.32403389502, -31489.85284445916, 2677.6942822568753, 2828.8814817525727, -187500.02235174447, -30580.47212129499, 13848.917347063703, -36319.34956542845, 44884.06865406855, -33580.79148301977, -1405.5000430941634, -28052.735692588773, -36720.02693653428, -33527.72844168287, 0.062, 0.936, 0.378, 192.0, 0.5, 120.0, 14.5, 32.0, 5.5, 104.0, 0.0, 0.0, 0.0, 1.695766436890543E9, 0.0, 2023-09-26 17:13:56.890
250.0, 39736.01487112223, 53243.174045464286, -22611.359967155455, -31506.750763267373, 2672.0616426541383, 2845.4888278828657, -187500.02235174447, -30592.58676678977, 13834.947506779135, -36321.58473987398, 44960.15399219441, -33586.89350925607, -1401.7225982812165, -28060.000009536747, -36728.58765466066, -33437.315635361156, 0.062, 0.936, 0.378, 192.0, 0.0, 0.0, 0.0, 0.0, 0.0, 0.0, 0.0, 0.0, 0.0, 1.695766436890548E9, 0.0, 2023-09-26 17:13:56.890
252.0, 39748.75536546175, 53239.30719367352, -22593.545626824576, -31491.79744622677, 2679.750642746764, 2814.1069786676144, -187500.02235174447, -30580.785045717366, 13844.782274339472, -36320.37774567339, 44920.79257020862, -33583.920727243516, -1403.9801244712025, -28058.03305602468, -36723.20088424694, -33488.79170284173, 0.062, 0.936, 0.378, 192.0, 0.0, 0.0, 0.0, 0.0, 0.0, 0.0, 0.0, 0.0, 0.0, 1.695766436890553E9, 0.0, 2023-09-26 17:13:56.890
254.0, 39748.934179417396, 53255.98159503718, -22599.915873994338, -31499.978184697415, 2680.1753258914146, 2859.9057030565386, -187500.02235174447, -30563.462443764503, 13846.771579595994, -36320.4224491623, 44940.0597739291, -33573.68362828298, -1393.3406941104763, -28063.196308993854, -36718.55172140023, -33462.5954583401, 0.062, 0.936, 0.378, 192.0, 0.0, 0.0, 0.0, 0.0, 0.0, 0.0, 0.0, 0.0, 0.0, 1.695766436890557E9, 0.0, 2023-09-26 17:13:56.890
0.0, 39748.39773755047, 53239.91069077381, -22603.17922868481, -31495.977222439913, 2667.256017596247, 2818.9349554699606, -187500.02235174447, -30588.87637721019, 13844.335239450365, -36321.36122242943, 44939.970366951275, -33583.138416187576, -1405.9247262388142, -28059.709436858826, -36723.75967785832, -33472.02789450024, 0.062, 0.936, 0.378, 192.0, 0.0, 0.0, 0.0, 0.0, 0.0, 0.0, 0.0, 0.0, 0.0, 1.695766436949776E9, 0.0, 2023-09-26 17:13:56.949
2.0, 39742.832153181094, 53259.937853805764, -22607.94015025379, -31497.117161407135, 2676.420232822923, 2876.75891837584, -187500.02235174447, -30567.91044091111, 13840.043704514947, -36318.0755159945, 44943.36783210848, -33579.04804695226, -1402.3931506148758, -28053.205079222334, -36725.10078252564, -33452.894801246504, 0.06, 0.934, 0.376, 192.0, 0.5, 112.0, 14.5, 24.0, 5.5, 96.0, 0.0, 0.0, 0.0, 1.695766436949791E9, 0.0, 2023-09-26 17:13:56.949
4.0, 39738.786487434685, 53235.64150758285, -22608.61070258745, -31496.08898116219, 2669.066508897127, 2808.5860977871534, -187500.02235174447, -30600.543987815858, 13838.076751002878, -36317.919053783306, 44954.096669447026, -33583.56309933223, -1406.997609972669, -28054.769701334204, -36725.167837759, -33447.35156862158, 0.06, 0.934, 0.376, 192.0, 0.0, 0.0, 0.0, 0.0, 0.0, 0.0, 0.0, 0.0, 0.0, 1.695766436949796E9, 0.0, 2023-09-26 17:13:56.949
6.0, 39748.375385806015, 53260.31783346151, -22606.621397330928, -31488.265870602834, 2681.024692180716, 2873.6743776410076, -187500.02235174447, -30564.87060366519, 13840.93777429316, -36315.59447235995, 44923.29596558762, -33579.47273009691, -1401.2979151365657, -28054.07679725609, -36724.20671274742, -33472.251411944795, 0.06, 0.934, 0.376, 192.0, 0.0, 0.0, 0.0, 0.0, 0.0, 0.0, 0.0, 0.0, 0.0, 1.695766436949801E9, 0.0, 2023-09-26 17:13:56.949
8.0, 39752.39869980797, 53235.30623141602, -22603.62626357392, -31482.32030657772, 2672.1510496319593, 2804.9427634409385, -187500.02235174447, -30603.516769828413, 13846.436303429164, -36310.94530951325, 44948.441678099836, -33575.382360861586, -1398.3027813795545, -28043.97380876229, -36718.417610933495, -33454.39236812501, 0.06, 0.934, 0.376, 192.0, 0.0, 0.0, 0.0, 0.0, 0.0, 0.0, 0.0, 0.0, 0.0, 1.695766436949806E9, 0.0, 2023-09-26 17:13:56.949
10.0, 39749.87295268452, 53263.06709802951, -22605.52616185262, -31487.03652465779, 2682.634017781498, 2882.860944612139, -187500.02235174447, -30552.48773723695, 13837.40619866922, -36318.410792161325, 44908.588517736025, -33580.5232620863, -1401.3649703699316, -28057.876593813493, -36718.641128378054, -33489.68577261994, 0.06, 0.934, 0.376, 192.0, 0.0, 0.0, 0.0, 0.0, 0.0, 0.0, 0.0, 0.0, 0.0, 1.695766436949811E9, 0.0, 2023-09-26 17:13:56.949
12.0, 39752.86808644153, 53242.59290010845, -22595.065545447535, -31480.822739699215, 2681.091747414082, 2812.989391444849, -187500.02235174447, -30588.786970232366, 13848.783236596972, -36311.43704789127, 44959.818716027585, -33571.85078523765, -1393.6536185328507, -28047.30421868613, -36703.73251482636, -33438.500277817286, 0.062, 0.936, 0.38, 192.0, 0.5, 120.0, 14.5, 32.0, 5.5, 112.0, 0.0, 0.0, 0.0, 1.695766436949816E9, 0.0, 2023-09-26 17:13:56.949
14.0, 39750.319987573625, 53263.33531896297, -22602.57573158452, -31487.617670013628, 2686.3444073610794, 2890.7511104048626, -187500.02235174447, -30536.305074251304, 13843.910556305715, -36313.11342872542, 44882.079348812025, -33574.15301491654, -1394.413577844331, -28049.964076276312, -36705.47595089387, -33515.52438921027, 0.062, 0.936, 0.38, 192.0, 0.0, 0.0, 0.0, 0.0, 0.0, 0.0, 0.0, 0.0, 0.0, 1.695766436949821E9, 0.0, 2023-09-26 17:13:56.949
16.0, 39755.39383356498, 53240.53653961856, -22606.353176397464, -31492.08801890469, 2664.8643809395294, 2805.345094841134, -187500.02235174447, -30600.20871164903, 13840.602498126329, -36317.60612936093, 44983.89154480595, -33580.7244277864, -1400.0462174470686, -28059.1729949919, -36719.691660367454, -33402.71513494434, 0.062, 0.936, 0.38, 192.0, 0.0, 0.0, 0.0, 0.0, 0.0, 0.0, 0.0, 0.0, 0.0, 1.695766437009661E9, 0.0, 2023-09-26 17:13:57.009
18.0, 39755.572647520625, 53261.904807317835, -22604.363871140944, -31491.685687504494, 2685.6515032829648, 2886.3701684916223, -187500.02235174447, -30545.29047552234, 13846.145730751245, -36311.50410312464, 44881.43114822282, -33572.20841314893, -1396.7158075232278, -28054.009742022725, -36719.91517781201, -33511.67988916396, 0.062, 0.936, 0.38, 192.0, 0.0, 0.0, 0.0, 0.0, 0.0, 0.0, 0.0, 0.0, 0.0, 1.69576643700968E9, 0.0, 2023-09-26 17:13:57.009
20.0, 39756.84669695458, 53245.78919956556, -22607.58252234251, -31496.603071284662, 2667.8148112076296, 2805.6133157745976, -187500.02235174447, -30609.171761175607, 13846.07867551788, -36313.04637349205, 44985.25500121772, -33573.10248292714, -1393.8771359774037, -28054.3226664451, -36720.27280572329, -33401.932823888405, 0.062, 0.936, 0.38, 192.0, 0.0, 0.0, 0.0, 0.0, 0.0, 0.0, 0.0, 0.0, 0.0, 1.695766437009685E9, 0.0, 2023-09-26 17:13:57.009
22.0, 39758.21015336635, 53263.804705596536, -22614.623321845927, -31502.213359142945, 2677.090785156582, 2874.501392185854, -187500.02235174447, -30556.220478560983, 13847.93387030767, -36308.84424553445, 44861.672206124334, -33567.603953791135, -1397.7886912570825, -28061.49757641525, -36723.98319530287, -33541.29595056724, 0.07, 0.932, 0.376, 192.0, 1.0, 24.0, 14.5, 16.0, 5.5, 96.0, 0.0, 0.0, 0.0, 1.69576643700969E9, 0.0, 2023-09-26 17:13:57.009
24.0, 39756.48906904329, 53250.080734500974, -22615.651502090874, -31498.748838752374, 2662.9197791719175, 2810.0389611767487, -187500.02235174447, -30609.61879606471, 13840.93777429316, -36316.71205958272, 44994.150995510936, -33580.99264871987, -1404.5389180825853, -28066.102035773045, -36734.60027391914, -33395.428466251906, 0.07, 0.932, 0.376, 192.0, 0.0, 0.0, 0.0, 0.0, 0.0, 0.0, 0.0, 0.0, 0.0, 1.695766437009695E9, 0.0, 2023-09-26 17:13:57.009
26.0, 39749.627083495514, 53249.7678100786, -22614.95859801276, -31485.561309523742, 2679.1471456464706, 2874.3225782302115, -187500.02235174447, -30554.968780871488, 13846.1680824957, -36308.486617623166, 44865.00261604817, -33575.874099239605, -1401.7449500256719, -28048.801785564636, -36722.53033191327, -33536.78089818727, 0.07, 0.932, 0.376, 192.0, 0.0, 0.0, 0.0, 0.0, 0.0, 0.0, 0.0, 0.0, 0.0, 1.695766437009704E9, 0.0, 2023-09-26 17:13:57.009
28.0, 39742.72039445882, 53231.77465579208, -22613.72925206772, -31486.56713802423, 2673.514506043733, 2824.925222983983, -187500.02235174447, -30614.8267525228, 13836.534480635462, -36313.00167000314, 44971.352216166524, -33586.51352960033, -1400.2697348916215, -28047.438329152865, -36729.41466920551, -33411.99110889329, 0.07, 0.932, 0.376, 192.0, 0.0, 0.0, 0.0, 0.0, 0.0, 0.0, 0.0, 0.0, 0.0, 1.695766437009709E9, 0.0, 2023-09-26 17:13:57.009
30.0, 39742.496877014266, 53241.274147185584, -22606.397879886375, -31489.1822921255, 2680.644712524976, 2865.292473470268, -187500.02235174447, -30565.22823157647, 13837.942640536146, -36316.48854213817, 44858.11827875594, -33587.38524763408, -1399.4650720912305, -28052.355712933033, -36719.08816326716, -33537.02676737628, 0.07, 0.932, 0.376, 192.0, 0.0, 0.0, 0.0, 0.0, 0.0, 0.0, 0.0, 0.0, 0.0, 1.695766437069914E9, 0.0, 2023-09-26 17:13:57.069
32.0, 39748.26362708374, 53245.543330376546, -22606.822563031026, -31502.95096670997, 2673.9615409328394, 2828.0991706966365, -187500.02235174447, -30596.654784280636, 13839.417855670197, -36321.137704984874, 44971.10634697752, -33583.65250631005, -1393.9218394663144, -28060.000009536747, -36720.47397142339, -33404.01153612274, 0.066, 0.932, 0.37, 192.0, 1.0, 8.0, 14.5, 16.0, 5.5, 72.0, 0.0, 0.0, 0.0, 1.695766437069929E9, 0.0, 2023-09-26 17:13:57.069
34.0, 39740.97695839131, 53246.325641432486, -22608.76716479864, -31505.3873068556, 2683.1481079039704, 2855.99414777686, -187500.02235174447, -30563.61890597569, 13842.50239640503, -36316.13091422688, 44879.48654645521, -33581.55144233125, -1398.258077890644, -28066.057332284134, -36718.50701791132, -33511.45637171941, 0.066, 0.932, 0.37, 192.0, 0.0, 0.0, 0.0, 0.0, 0.0, 0.0, 0.0, 0.0, 0.0, 1.695766437069935E9, 0.0, 2023-09-26 17:13:57.069
36.0, 39746.02845263821, 53242.50349313063, -22610.734118310706, -31507.197798156478, 2672.843953710074, 2825.349906128634, -187500.02235174447, -30604.612005306724, 13834.12049223429, -36325.33983294247, 44984.87502156199, -33586.781750533795, -1397.5651738125293, -28075.51212018873, -36723.737326113864, -33384.878442869005, 0.066, 0.932, 0.37, 192.0, 0.0, 0.0, 0.0, 0.0, 0.0, 0.0, 0.0, 0.0, 0.0, 1.69576643706994E9, 0.0, 2023-09-26 17:13:57.069
38.0, 39745.87199042702, 53240.089504729454, -22605.637920574896, -31499.441742830488, 2678.364834590535, 2837.4869033678656, -187500.02235174447, -30574.414798547605, 13844.089370261356, -36315.683879337776, 44871.90930508486, -33582.6243260651, -1395.6876272782836, -28065.61029739503, -36721.32333771269, -33523.74983116983, 0.066, 0.932, 0.37, 192.0, 0.0, 0.0, 0.0, 0.0, 0.0, 0.0, 0.0, 0.0, 0.0, 1.695766437069945E9, 0.0, 2023-09-26 17:13:57.069
40.0, 39742.78744969219, 53244.64926059834, -22611.09174622199, -31510.416449358043, 2670.5640757756323, 2843.3654121596114, -187500.02235174447, -30589.166949888106, 13832.041779999947, -36329.36314694442, 44966.83716378656, -33588.234613923385, -1394.9947232001691, -28073.99220156577, -36732.00747156233, -33410.22532108132, 0.066, 0.932, 0.37, 192.0, 0.0, 0.0, 0.0, 0.0, 0.0, 0.0, 0.0, 0.0, 0.0, 1.69576643706995E9, 0.0, 2023-09-26 17:13:57.069
42.0, 39749.425917795415, 53239.12837971788, -22599.93822573879, -31497.877120718615, 2677.090785156582, 2825.640478806553, -187500.02235174447, -30586.663554509112, 13846.324544706888, -36313.918091525804, 44895.75861641868, -33578.06457019622, -1395.3970546003645, -28061.65403862644, -36724.586692403165, -33503.096819293125, 0.058, 0.932, 0.37, 192.0, 0.5, 104.0, 14.5, 16.0, 5.5, 72.0, 0.0, 0.0, 0.0, 1.695766437069956E9, 0.0, 2023-09-26 17:13:57.069
44.0, 39741.178124091406, 53255.80278108153, -22612.94694101178, -31509.56708306874, 2669.647654252965, 2859.0116332783264, -187500.02235174447, -30578.77338871639, 13835.618059112796, -36319.595434617455, 44944.79834375362, -33583.71956154342, -1394.8159092445267, -28070.46062594183, -36731.851009351136, -33443.97645520884, 0.058, 0.932, 0.37, 192.0, 0.0, 0.0, 0.0, 0.0, 0.0, 0.0, 0.0, 0.0, 0.0, 1.695766437069961E9, 0.0, 2023-09-26 17:13:57.069
46.0, 39747.54837126117, 53246.593862365946, -22599.848818760973, -31488.824664214215, 2674.3191688441243, 2829.864958508606, -187500.02235174447, -30579.086313138763, 13839.194338225645, -36313.22518744769, 44924.81588421058, -33580.9255934865, -1402.2813918925992, -28063.576288649594, -36724.13965751405, -33474.12895847904, 0.058, 0.932, 0.37, 192.0, 0.0, 0.0, 0.0, 0.0, 0.0, 0.0, 0.0, 0.0, 0.0, 1.69576643713019E9, 0.0, 2023-09-26 17:13:57.130
48.0, 39740.97695839131, 53260.697813117244, -22594.685565791795, -31481.828568199704, 2690.1442039184817, 2888.784156892795, -187500.02235174447, -30545.13401331115, 13834.1651957232, -36317.226149705195, 44951.88384674595, -33571.06847418171, -1391.8207754875154, -28056.423730423896, -36714.64016612055, -33433.582894037114, 0.058, 0.932, 0.37, 192.0, 0.0, 0.0, 0.0, 0.0, 0.0, 0.0, 0.0, 0.0, 0.0, 1.695766437130204E9, 0.0, 2023-09-26 17:13:57.130
50.0, 39748.86712418403, 53246.88443504387, -22579.329917351, -31462.337847034676, 2689.6077620515543, 2836.928109756483, -187500.02235174447, -30572.939583413554, 13839.574317881385, -36309.29128042356, 44958.25409391572, -33578.04221845177, -1390.4573190757417, -28044.085567484566, -36702.50316888132, -33437.24858012779, 0.058, 0.932, 0.37, 192.0, 0.0, 0.0, 0.0, 0.0, 0.0, 0.0, 0.0, 0.0, 0.0, 1.695766437130209E9, 0.0, 2023-09-26 17:13:57.130
52.0, 39753.538638775186, 53272.521885934104, -22584.69433602027, -31466.919954648016, 2690.814756252141, 2899.803566909262, -187500.02235174447, -30553.694731437536, 13844.134073750267, -36300.66350706381, 44950.96742522329, -33565.54759330125, -1381.158993382334, -28034.250799924233, -36707.35349742812, -33437.11446966106, 0.062, 0.93, 0.372, 192.0, 0.5, 120.0, 14.5, 8.0, 5.5, 80.0, 0.0, 0.0, 0.0, 1.695766437130215E9, 0.0, 2023-09-26 17:13:57.130
54.0, 39763.395758079976, 53255.48985665916, -22580.268690618122, -31461.019094111813, 2681.29291311418, 2836.637537078564, -187500.02235174447, -30573.408970047116, 13857.321602978898, -36287.54303306854, 44976.5154691357, -33557.344503086155, -1381.382510826887, -28021.532657329164, -36705.34184042714, -33417.2884723292, 0.062, 0.93, 0.372, 192.0, 0.0, 0.0, 0.0, 0.0, 0.0, 0.0, 0.0, 0.0, 0.0, 1.69576643713022E9, 0.0, 2023-09-26 17:13:57.130
56.0, 39750.252932340256, 53269.14677252135, -22593.724440780217, -31486.410675813044, 2693.407558608956, 2884.0455870682704, -187500.02235174447, -30556.086368094253, 13851.107818020322, -36298.18246342927, 44925.86641619998, -33560.473747309894, -1381.807193971538, -28038.609390093017, -36712.628509119575, -33465.121205463554, 0.062, 0.93, 0.372, 192.0, 0.0, 0.0, 0.0, 0.0, 0.0, 0.0, 0.0, 0.0, 0.0, 1.695766437130226E9, 0.0, 2023-09-26 17:13:57.130
58.0, 39739.81466767963, 53236.312059916505, -22604.252112418668, -31500.022888186326, 2669.871171697518, 2805.4121500745, -187500.02235174447, -30606.8248280078, 13841.78714058246, -36308.66543157881, 44958.58937008255, -33573.19188990496, -1389.451490575253, -28066.03498053968, -36722.10564876862, -33435.058109171165, 0.062, 0.93, 0.372, 192.0, 0.0, 0.0, 0.0, 0.0, 0.0, 0.0, 0.0, 0.0, 0.0, 1.695766437130232E9, 0.0, 2023-09-26 17:13:57.130
60.0, 39736.95364438935, 53254.19345548075, -22604.632092074407, -31500.89460622008, 2679.9294567024062, 2890.5499447047646, -187500.02235174447, -30546.27395227837, 13835.036913756958, -36320.087172995474, 44899.133729831425, -33573.3260003717, -1394.1677086553227, -28071.35469572004, -36723.35734645812, -33488.76935109727, 0.062, 0.93, 0.372, 192.0, 0.0, 0.0, 0.0, 0.0, 0.0, 0.0, 0.0, 0.0, 0.0, 1.695766437190521E9, 0.0, 2023-09-26 17:13:57.190
62.0, 39748.129516617, 53237.42964713927, -22597.434830359798, -31492.758571238348, 2670.1840961198923, 2809.7260367543745, -187500.02235174447, -30605.662537296124, 13840.177814981678, -36320.645966606855, 44978.92945753688, -33578.26573589632, -1395.9111447228368, -28069.588907908073, -36723.51380866931, -33400.61407096554, 0.056, 0.934, 0.376, 192.0, 0.5, 96.0, 14.5, 24.0, 5.5, 96.0, 0.0, 0.0, 0.0, 1.695766437190534E9, 0.0, 2023-09-26 17:13:57.190
64.0, 39743.681519470396, 53255.08752525897, -22609.32595841002, -31496.223091628923, 2675.772032233719, 2889.767633648829, -187500.02235174447, -30554.47704249347, 13845.229309228578, -36313.13578046987, 44889.88010762693, -33573.415407349516, -1393.3630458549317, -28059.97765779229, -36725.68192788147, -33496.726572123356, 0.056, 0.934, 0.376, 192.0, 0.0, 0.0, 0.0, 0.0, 0.0, 0.0, 0.0, 0.0, 0.0, 1.695766437190537E9, 0.0, 2023-09-26 17:13:57.190
66.0, 39740.887551413485, 53236.602632594426, -22612.05287123357, -31494.61376602814, 2667.4348315518896, 2807.1108826531035, -187500.02235174447, -30614.066793211317, 13838.635544614262, -36320.221283462204, 44996.65439088993, -33582.177291176, -1395.7993860005602, -28063.330419460588, -36735.58375067518, -33384.20789053534, 0.056, 0.934, 0.376, 192.0, 0.0, 0.0, 0.0, 0.0, 0.0, 0.0, 0.0, 0.0, 0.0, 1.695766437190541E9, 0.0, 2023-09-26 17:13:57.190
68.0, 39738.18299033439, 53251.6677083573, -22611.561132855553, -31489.472864803418, 2681.2482096252693, 2879.508182943843, -187500.02235174447, -30556.62280996118, 13840.758960337516, -36310.69944032424, 44890.46125298277, -33574.98002946139, -1395.2405923891774, -28049.40528266493, -36728.05121279373, -33501.19692101442, 0.056, 0.934, 0.376, 192.0, 0.0, 0.0, 0.0, 0.0, 0.0, 0.0, 0.0, 0.0, 0.0, 1.695766437190544E9, 0.0, 2023-09-26 17:13:57.190
70.0, 39736.551312989155, 53228.39954237933, -22611.963464255747, -31492.356239838155, 2667.5242385297106, 2820.2313566483685, -187500.02235174447, -30599.180531404083, 13833.561698622907, -36311.25823393562, 44983.06453026111, -33581.17146267551, -1396.4252348453088, -28057.898945557947, -36730.12992502808, -33400.27879479871, 0.056, 0.934, 0.376, 192.0, 0.0, 0.0, 0.0, 0.0, 0.0, 0.0, 0.0, 0.0, 0.0, 1.695766437190547E9, 0.0, 2023-09-26 17:13:57.190
72.0, 39732.30448154265, 53237.25083318363, -22607.738984553693, -31490.344582837177, 2686.2102968943473, 2885.7219679024183, -187500.02235174447, -30548.978513357466, 13834.344009678844, -36313.2698909366, 44860.01817703464, -33579.96446847492, -1400.0015139581578, -28062.637515382474, -36719.959881300914, -33532.176438829476, 0.05, 0.9380000000000001, 0.376, 192.0, 0.5, 72.0, 14.5, 40.0, 5.5, 96.0, 0.0, 0.0, 0.0, 1.69576643719055E9, 0.0, 2023-09-26 17:13:57.190
74.0, 39738.29474905667, 53225.71733304469, -22605.772031041626, -31483.124969378114, 2679.325959602113, 2842.89602552605, -187500.02235174447, -30582.10379864023, 13827.951410764625, -36319.528379384086, 44990.75353035373, -33580.59031731967, -1397.4981185791635, -28064.492710172264, -36719.043459778244, -33381.41392247843, 0.05, 0.9380000000000001, 0.376, 192.0, 0.0, 0.0, 0.0, 0.0, 0.0, 0.0, 0.0, 0.0, 0.0, 1.695766437190553E9, 0.0, 2023-09-26 17:13:57.190
76.0, 39738.518266501225, 53237.9660890062, -22608.454240376264, -31478.542861764774, 2687.9537329618615, 2899.088311086692, -187500.02235174447, -30537.266199262882, 13834.679285845672, -36312.44287639175, 44874.92679058633, -33574.041256194265, -1396.805214501049, -28056.043750768156, -36719.959881300914, -33504.124999538064, 0.05, 0.9380000000000001, 0.376, 192.0, 0.0, 0.0, 0.0, 0.0, 0.0, 0.0, 0.0, 0.0, 0.0, 1.69576643725007E9, 0.0, 2023-09-26 17:13:57.250
78.0, 39746.699004971866, 53236.11089421641, -22605.414403130344, -31480.062780387736, 2686.0538346831604, 2859.9727582899045, -187500.02235174447, -30565.563507743303, 13829.82895729887, -36313.33694616997, 44994.26275423321, -33580.612669064125, -1390.9043539648478, -28055.26143971222, -36719.98223304537, -33363.93485831438, 0.05, 0.9380000000000001, 0.376, 192.0, 0.0, 0.0, 0.0, 0.0, 0.0, 0.0, 0.0, 0.0, 0.0, 1.695766437250087E9, 0.0, 2023-09-26 17:13:57.250
80.0, 39748.48714452829, 53249.1196094894, -22599.155914682855, -31474.74306520737, 2690.904163229962, 2883.5538486902537, -187500.02235174447, -30540.28368476435, 13842.033009771469, -36303.14455069835, 44879.95593308877, -33570.59908754815, -1389.2950283640657, -28045.203154707335, -36711.95795678592, -33494.62550814456, 0.05, 0.9380000000000001, 0.376, 192.0, 0.0, 0.0, 0.0, 0.0, 0.0, 0.0, 0.0, 0.0, 0.0, 1.695766437250092E9, 0.0, 2023-09-26 17:13:57.250
82.0, 39748.353034061554, 53249.14196123385, -22607.42606013132, -31488.265870602834, 2678.0519101681602, 2857.447011166455, -187500.02235174447, -30582.10379864023, 13836.646239357739, -36307.32432691149, 44982.192812227346, -33568.05098868025, -1385.897563206859, -28054.859108312026, -36716.674174865984, -33382.3303440011, 0.052000000000000005, 0.9400000000000001, 0.376, 192.0, 0.5, 80.0, 14.5, 48.0, 5.5, 96.0, 0.0, 0.0, 0.0, 1.695766437250097E9, 0.0, 2023-09-26 17:13:57.250
84.0, 39744.84381018207, 53244.04576349804, -22612.254036933668, -31483.594356011672, 2671.927532187406, 2866.94650255996, -187500.02235174447, -30567.932792655563, 13840.334277192866, -36302.36223964241, 44884.046302324095, -33570.3755701036, -1395.6205720449177, -28058.949477547347, -36721.25628247932, -33495.94426106742, 0.052000000000000005, 0.9400000000000001, 0.376, 192.0, 0.0, 0.0, 0.0, 0.0, 0.0, 0.0, 0.0, 0.0, 0.0, 1.695766437250103E9, 0.0, 2023-09-26 17:13:57.250
86.0, 39748.9788829063, 53247.42087691079, -22610.018862488138, -31483.817873456228, 2672.91100894344, 2864.7113281144298, -187500.02235174447, -30583.53431028537, 13831.035951499458, -36310.83355079097, 44977.655408102924, -33578.31043938523, -1394.838260988982, -28063.218660738312, -36733.01330006281, -33385.03490508019, 0.052000000000000005, 0.9400000000000001, 0.376, 192.0, 0.0, 0.0, 0.0, 0.0, 0.0, 0.0, 0.0, 0.0, 0.0, 1.695766437250108E9, 0.0, 2023-09-26 17:13:57.250
88.0, 39743.614464237035, 53237.362591905905, -22597.05485070406, -31475.81594894123, 2679.6612357689423, 2855.1671332320134, -187500.02235174447, -30568.446882778037, 13843.26235571651, -36301.13289369737, 44895.423340251844, -33570.66614278151, -1389.9208772088143, -28051.1710704769, -36716.182436487965, -33487.47294991886, 0.052000000000000005, 0.9400000000000001, 0.376, 192.0, 0.0, 0.0, 0.0, 0.0, 0.0, 0.0, 0.0, 0.0, 0.0, 1.695766437250114E9, 0.0, 2023-09-26 17:13:57.250
90.0, 39739.211170579336, 53245.409219909816, -22602.061641462045, -31491.86450146014, 2673.201581621359, 2874.6131509081306, -187500.02235174447, -30565.451749021024, 13832.622925355785, -36312.37582115839, 44967.70888182031, -33584.054837710246, -1386.3445980959652, -28062.12342526, -36725.167837759, -33392.075704583614, 0.052000000000000005, 0.9400000000000001, 0.376, 192.0, 0.0, 0.0, 0.0, 0.0, 0.0, 0.0, 0.0, 0.0, 0.0, 1.695766437309682E9, 0.0, 2023-09-26 17:13:57.309
92.0, 39752.9351416749, 53235.39563839384, -22586.638937787884, -31481.3815333106, 2678.2977793571686, 2834.2235486773907, -187500.02235174447, -30583.064923651807, 13848.425608685686, -36296.0143442171, 44910.42136078136, -33581.238517908874, -1388.6468277748618, -28051.483994899274, -36723.31264296921, -33464.87533627455, 0.056, 0.9400000000000001, 0.374, 192.0, 0.5, 96.0, 14.5, 48.0, 5.5, 88.0, 0.0, 0.0, 0.0, 1.695766437309693E9, 0.0, 2023-09-26 17:13:57.309
94.0, 39741.803972936155, 53249.41018216732, -22595.736097781195, -31501.09577192018, 2684.9809509493057, 2873.540267174276, -187500.02235174447, -30576.627621248677, 13846.25748947352, -36288.682972035764, 44926.78283772264, -33571.82843349319, -1382.0530631605463, -28054.233259467277, -36722.26211097981, -33443.55177206419, 0.056, 0.9400000000000001, 0.374, 192.0, 0.0, 0.0, 0.0, 0.0, 0.0, 0.0, 0.0, 0.0, 0.0, 1.695766437309697E9, 0.0, 2023-09-26 17:13:57.309
96.0, 39740.17229559091, 53237.58610935046, -22590.438734345287, -31493.920861950024, 2669.647654252965, 2825.640478806553, -187500.02235174447, -30585.970650430998, 13839.663724859205, -36288.66062029131, 44927.14046563393, -33580.21033766393, -1396.3134761230322, -28063.08455027158, -36728.69941338294, -33445.51872557625, 0.056, 0.9400000000000001, 0.374, 192.0, 0.0, 0.0, 0.0, 0.0, 0.0, 0.0, 0.0, 0.0, 0.0, 1.6957664373097E9, 0.0, 2023-09-26 17:13:57.309
98.0, 39738.87589441251, 53250.795990323546, -22589.924644222814, -31500.134646908602, 2685.942075960884, 2882.637427167586, -187500.02235174447, -30559.215612317996, 13838.344971936343, -36286.47014933469, 44933.73423024824, -33577.23755565137, -1390.546726053563, -28058.1224630025, -36730.91223608401, -33425.2903968442, 0.056, 0.9400000000000001, 0.374, 192.0, 0.0, 0.0, 0.0, 0.0, 0.0, 0.0, 0.0, 0.0, 0.0, 1.695766437309703E9, 0.0, 2023-09-26 17:13:57.309
100.0, 39746.833115438596, 53231.75230404762, -22574.099609148456, -31482.119140877625, 2686.7020352723644, 2835.8552260226284, -187500.02235174447, -30573.945411914043, 13842.07771326038, -36287.14070166835, 44949.402803111414, -33580.36679987512, -1392.1113481654345, -28050.098186743046, -36717.70235511093, -33416.84143744009, 0.056, 0.9400000000000001, 0.374, 192.0, 0.0, 0.0, 0.0, 0.0, 0.0, 0.0, 0.0, 0.0, 0.0, 1.695766437309707E9, 0.0, 2023-09-26 17:13:57.309
102.0, 39751.303464329656, 53255.400449681336, -22575.686583004783, -31475.19010009648, 2693.5863725645986, 2920.7695032083398, -187500.02235174447, -30526.13503052414, 13847.352724951832, -36276.098939907424, 44918.42328529636, -33568.85565148063, -1382.0530631605463, -28026.271227153688, -36710.102761996124, -33441.51776331875, 0.056, 0.934, 0.372, 192.0, 0.5, 96.0, 14.5, 24.0, 5.5, 80.0, 0.0, 0.0, 0.0, 1.69576643730971E9, 0.0, 2023-09-26 17:13:57.309
104.0, 39748.934179417396, 53237.67551632828, -22577.854702216948, -31468.328114548698, 2683.595142793077, 2853.669566353508, -187500.02235174447, -30563.14951934213, 13852.180701754178, -36270.89098344934, 44953.80609676911, -33566.709884012926, -1387.126909151901, -28018.246950894234, -36711.153293985524, -33408.25836756925, 0.056, 0.934, 0.372, 192.0, 0.0, 0.0, 0.0, 0.0, 0.0, 0.0, 0.0, 0.0, 0.0, 1.695766437309713E9, 0.0, 2023-09-26 17:13:57.309
106.0, 39748.509496272745, 53269.63851089937, -22583.1297139084, -31470.786806438784, 2693.407558608956, 2928.9949451678926, -187500.02235174447, -30532.795850371822, 13839.328448692377, -36273.595544528434, 44923.58653826553, -33566.26284912382, -1392.7595487546384, -28020.325663128577, -36720.451619678934, -33434.87929521553, 0.056, 0.934, 0.372, 192.0, 0.0, 0.0, 0.0, 0.0, 0.0, 0.0, 0.0, 0.0, 0.0, 1.69576643737005E9, 0.0, 2023-09-26 17:13:57.370
108.0, 39748.218923594824, 53244.224577453686, -22567.595251511964, -31469.08807386018, 2688.4678230843333, 2835.251728922335, -187500.02235174447, -30578.259298593915, 13848.112684263311, -36273.595544528434, 44994.57567865559, -33560.38434033207, -1388.2891998635769, -28025.153639930923, -36707.59936661713, -33364.78422460368, 0.056, 0.934, 0.372, 192.0, 0.0, 0.0, 0.0, 0.0, 0.0, 0.0, 0.0, 0.0, 0.0, 1.695766437370062E9, 0.0, 2023-09-26 17:13:57.370
110.0, 39747.168391605424, 53268.38681320987, -22569.204577112745, -31474.94423090747, 2694.681608042909, 2903.7821774223066, -187500.02235174447, -30544.798737144323, 13846.615117384807, -36285.486672578656, 44906.95684039078, -33563.915915956015, -1383.4612230612306, -28034.519020857697, -36704.04543924874, -33454.23590591382, 0.056, 0.934, 0.372, 192.0, 0.0, 0.0, 0.0, 0.0, 0.0, 0.0, 0.0, 0.0, 0.0, 1.695766437370065E9, 0.0, 2023-09-26 17:13:57.370
112.0, 39762.05465341266, 53256.24981597064, -22561.85085318695, -31465.221222069413, 2686.456166083356, 2818.0408856917484, -187500.02235174447, -30604.880226240188, 13852.627736643284, -36279.563460298, 44996.78850135666, -33557.411558319516, -1381.2707521046107, -28033.0661574681, -36706.325317183175, -33362.68316062488, 0.052000000000000005, 0.9400000000000001, 0.37, 192.0, 0.5, 80.0, 14.5, 48.0, 5.5, 72.0, 0.0, 0.0, 0.0, 1.695766437370069E9, 0.0, 2023-09-26 17:13:57.370
114.0, 39762.79226097969, 53280.05442381554, -22570.74684748016, -31469.110425604635, 2699.353122634068, 2896.7190261744295, -187500.02235174447, -30546.13984181164, 13864.898844349247, -36266.42063455828, 44878.97245633274, -33543.084090123666, -1375.1463741238565, -28020.59388406204, -36703.93368052646, -33495.407819200496, 0.052000000000000005, 0.9400000000000001, 0.37, 192.0, 0.0, 0.0, 0.0, 0.0, 0.0, 0.0, 0.0, 0.0, 0.0, 1.695766437370072E9, 0.0, 2023-09-26 17:13:57.370
116.0, 39758.27720859971, 53253.366440935904, -22582.23564413019, -31481.31447807723, 2675.0791281556044, 2823.6511735500308, -187500.02235174447, -30600.745153515956, 13857.522768678997, -36277.41769283029, 44982.10340524953, -33552.941209428456, -1379.5049642926413, -28031.12155570049, -36719.51284641181, -33389.99699234927, 0.052000000000000005, 0.9400000000000001, 0.37, 192.0, 0.0, 0.0, 0.0, 0.0, 0.0, 0.0, 0.0, 0.0, 0.0, 1.695766437370075E9, 0.0, 2023-09-26 17:13:57.370
118.0, 39747.660129983444, 53261.94951080674, -22586.638937787884, -31485.51660603483, 2688.6466370399758, 2898.0601308417477, -187500.02235174447, -30542.585914443247, 13853.767675610505, -36283.34090511095, 44897.72556993074, -33561.07724441019, -1387.6186475299178, -28034.98840749126, -36723.7149743694, -33482.68967660543, 0.052000000000000005, 0.9400000000000001, 0.37, 192.0, 0.0, 0.0, 0.0, 0.0, 0.0, 0.0, 0.0, 0.0, 0.0, 1.695766437370078E9, 0.0, 2023-09-26 17:13:57.370
120.0, 39744.508534015244, 53238.72604831768, -22590.2822721341, -31490.00930667035, 2677.649578767965, 2822.354772371623, -187500.02235174447, -30596.140694158163, 13848.112684263311, -36289.107655180414, 45015.407504487936, -33573.482462582884, -1386.389301584876, -28039.235238937767, -36720.42926793447, -33347.01458776171, 0.052000000000000005, 0.9400000000000001, 0.37, 192.0, 0.0, 0.0, 0.0, 0.0, 0.0, 0.0, 0.0, 0.0, 0.0, 1.695766437430217E9, 0.0, 2023-09-26 17:13:57.430
122.0, 39736.35014728906, 53253.45584791373, -22589.52231282262, -31485.89658569057, 2682.589314292588, 2885.3419882466783, -187500.02235174447, -30540.12722255316, 13849.07380927489, -36297.17663492878, 44892.38350300593, -33569.19092764746, -1392.51367956563, -28040.241067438255, -36717.992927788844, -33481.52738589375, 0.054, 0.9380000000000001, 0.37, 192.0, 0.5, 88.0, 14.5, 40.0, 5.5, 72.0, 0.0, 0.0, 0.0, 1.695766437430229E9, 0.0, 2023-09-26 17:13:57.430
124.0, 39737.62419672301, 53238.43547563976, -22585.029612187103, -31477.313515819733, 2683.4386805818895, 2843.5889296041646, -187500.02235174447, -30575.398275303636, 13843.843501072348, -36300.95407974173, 45012.21120503083, -33573.79538700526, -1383.5729817835072, -28040.822212794094, -36705.38654391605, -33340.6666923364, 0.054, 0.9380000000000001, 0.37, 192.0, 0.0, 0.0, 0.0, 0.0, 0.0, 0.0, 0.0, 0.0, 0.0, 1.695766437430233E9, 0.0, 2023-09-26 17:13:57.430
126.0, 39730.404583263946, 53238.52488261758, -22582.392106341376, -31461.689646445473, 2694.346331876079, 2896.473156985421, -187500.02235174447, -30533.019367816374, 13843.843501072348, -36296.57313782849, 44890.125976815936, -33574.667105039014, -1387.5068888076412, -28026.3159306426, -36701.430285147464, -33473.324295678656, 0.054, 0.9380000000000001, 0.37, 192.0, 0.0, 0.0, 0.0, 0.0, 0.0, 0.0, 0.0, 0.0, 0.0, 1.695766437430236E9, 0.0, 2023-09-26 17:13:57.430
128.0, 39738.00417637875, 53237.317888417, -22576.71476324973, -31458.381588266086, 2693.072282442127, 2868.6452351385637, -187500.02235174447, -30555.706388438513, 13841.1165882488, -36299.03182971857, 44984.495041906244, -33581.372628375604, -1380.0414061595686, -28015.296520626132, -36700.64797409153, -33358.70455011184, 0.054, 0.9380000000000001, 0.37, 192.0, 0.0, 0.0, 0.0, 0.0, 0.0, 0.0, 0.0, 0.0, 0.0, 1.695766437430239E9, 0.0, 2023-09-26 17:13:57.430
130.0, 39725.71071692833, 53232.400504636826, -22586.95186221026, -31474.921879163016, 2686.2773521277136, 2895.0426453402815, -187500.02235174447, -30537.37795798516, 13850.571376153395, -36293.64505930484, 44857.470078166734, -33574.041256194265, -1381.4495660602531, -28016.995253204735, -36698.32339266818, -33502.448618703915, 0.054, 0.9380000000000001, 0.37, 192.0, 0.0, 0.0, 0.0, 0.0, 0.0, 0.0, 0.0, 0.0, 0.0, 1.695766437430243E9, 0.0, 2023-09-26 17:13:57.430
132.0, 39740.21699907983, 53241.072981485486, -22581.98977494118, -31475.078341374203, 2688.512526573244, 2863.1467060025584, -187500.02235174447, -30561.33902804125, 13838.54613763644, -36303.97156524319, 44979.17532672588, -33583.25017490985, -1387.4621853187307, -28037.64826508144, -36714.28253820926, -33358.01164603372, 0.058, 0.932, 0.376, 192.0, 0.5, 104.0, 14.5, 16.0, 5.5, 96.0, 0.0, 0.0, 0.0, 1.695766437430246E9, 0.0, 2023-09-26 17:13:57.430
134.0, 39739.702908957355, 53248.35965017792, -22576.08891440498, -31467.478748259397, 2692.781709764208, 2873.6520258965525, -187500.02235174447, -30532.99701607192, 13853.1194750213, -36286.604259801425, 44870.09881378398, -33565.16761364551, -1382.164821882823, -28021.890285240446, -36695.2612036778, -33489.328144708656, 0.058, 0.932, 0.376, 192.0, 0.0, 0.0, 0.0, 0.0, 0.0, 0.0, 0.0, 0.0, 0.0, 1.695766437430249E9, 0.0, 2023-09-26 17:13:57.430
136.0, 39746.341377060584, 53263.022394540596, -22574.61369927093, -31474.787768696282, 2686.612628294543, 2860.8891798125724, -187500.02235174447, -30567.016371132897, 13847.039800529457, -36292.66158254881, 44959.79636428313, -33560.74196824336, -1378.6779497477949, -28028.484049854764, -36704.42541890447, -33388.32061151512, 0.058, 0.932, 0.376, 192.0, 0.0, 0.0, 0.0, 0.0, 0.0, 0.0, 0.0, 0.0, 0.0, 1.695766437490496E9, 0.0, 2023-09-26 17:13:57.490
138.0, 39739.43468802389, 53251.53359789057, -22576.33478359399, -31480.88979493258, 2684.220991637825, 2833.664755066008, -187500.02235174447, -30582.886109696166, 13855.399352955743, -36283.85499523342, 44889.61188669347, -33556.65159900804, -1379.124984636901, -28030.048671966633, -36704.15719797101, -33481.48268240484, 0.058, 0.932, 0.376, 192.0, 0.0, 0.0, 0.0, 0.0, 0.0, 0.0, 0.0, 0.0, 0.0, 1.695766437490507E9, 0.0, 2023-09-26 17:13:57.490
140.0, 39746.25197008276, 53263.42472594079, -22579.41932432882, -31487.438856057986, 2684.802136993663, 2851.5237988857984, -187500.02235174447, -30580.226252105982, 13847.889166818759, -36294.293259894046, 44959.79636428313, -33557.83624146417, -1374.7216909792055, -28039.391701148954, -36711.48857015235, -33395.45081799637, 0.058, 0.932, 0.376, 192.0, 0.0, 0.0, 0.0, 0.0, 0.0, 0.0, 0.0, 0.0, 0.0, 1.695766437490511E9, 0.0, 2023-09-26 17:13:57.490
142.0, 39744.86616192653, 53250.95245253473, -22580.60396678495, -31482.4320653, 2680.9576369473502, 2826.4004381180334, -187500.02235174447, -30576.359400315214, 13853.36534421031, -36289.599393558434, 44920.74786671971, -33561.54663104375, -1383.930609694792, -28033.222619679287, -36710.818017818696, -33450.39140586751, 0.062, 0.936, 0.378, 192.0, 0.5, 120.0, 14.5, 32.0, 5.5, 104.0, 0.0, 0.0, 0.0, 1.695766437490514E9, 0.0, 2023-09-26 17:13:57.490
144.0, 39751.862257941044, 53270.33141497748, -22578.234681872687, -31479.57104200972, 2692.4911370862887, 2873.786136363284, -187500.02235174447, -30553.38180701516, 13848.425608685686, -36293.04156220455, 44957.382375881956, -33561.41252057702, -1380.7566619821384, -28035.256628424722, -36707.35349742812, -33399.02709710921, 0.062, 0.936, 0.378, 192.0, 0.0, 0.0, 0.0, 0.0, 0.0, 0.0, 0.0, 0.0, 0.0, 1.695766437490517E9, 0.0, 2023-09-26 17:13:57.490
146.0, 39742.16160084744, 53240.04480124055, -22570.858606202437, -31472.5302425063, 2683.1257561595153, 2825.573423573187, -187500.02235174447, -30578.8180922053, 13853.767675610505, -36284.90552722282, 44926.1569888779, -33563.0218461778, -1381.4495660602531, -28029.802802777627, -36695.708238566905, -33442.411833096965, 0.062, 0.936, 0.378, 192.0, 0.0, 0.0, 0.0, 0.0, 0.0, 0.0, 0.0, 0.0, 0.0, 1.695766437490521E9, 0.0, 2023-09-26 17:13:57.490
148.0, 39742.18395259189, 53258.10501076043, -22570.0762951465, -31467.456396514943, 2698.6825703004088, 2888.314770259234, -187500.02235174447, -30540.171926042072, 13844.625812128284, -36295.74612328364, 44926.93929993383, -33569.66031428103, -1376.3310165799876, -28033.93787550186, -36693.49541586583, -33429.9395596909, 0.062, 0.936, 0.378, 192.0, 0.0, 0.0, 0.0, 0.0, 0.0, 0.0, 0.0, 0.0, 0.0, 1.695766437490524E9, 0.0, 2023-09-26 17:13:57.490
150.0, 39739.43468802389, 53240.938871018756, -22577.117094649922, -31467.881079659594, 2683.4833840708, 2831.8542637651285, -187500.02235174447, -30573.766597958398, 13849.699658119638, -36293.175672671285, 44939.38922159543, -33566.64282877956, -1378.3650253254207, -28026.181820175865, -36692.914270509995, -33418.428411296416, 0.062, 0.936, 0.378, 192.0, 0.0, 0.0, 0.0, 0.0, 0.0, 0.0, 0.0, 0.0, 0.0, 1.695766437550124E9, 0.0, 2023-09-26 17:13:57.550
152.0, 39740.30640605765, 53266.33045271999, -22584.89550172037, -31478.207585597946, 2694.5251458317216, 2905.86088965665, -187500.02235174447, -30530.69478639302, 13840.200166726134, -36300.70821055272, 44913.64001198292, -33568.319209613706, -1380.4437375597643, -28034.653131324427, -36710.25922420731, -33437.919132461444, 0.064, 0.936, 0.376, 192.0, 1.0, 0.0, 14.5, 32.0, 5.5, 96.0, 0.0, 0.0, 0.0, 1.695766437550137E9, 0.0, 2023-09-26 17:13:57.550
154.0, 39751.77285096322, 53243.84459779794, -22581.2298156297, -31473.156091351044, 2677.5825235345987, 2831.094304453648, -187500.02235174447, -30577.476987537982, 13853.521806421497, -36292.4157133598, 44953.89550374693, -33561.01018917682, -1378.5885427699736, -28028.484049854764, -36705.498302638334, -33407.14078034649, 0.064, 0.936, 0.376, 192.0, 0.0, 0.0, 0.0, 0.0, 0.0, 0.0, 0.0, 0.0, 0.0, 1.695766437550141E9, 0.0, 2023-09-26 17:13:57.550
156.0, 39744.664996226435, 53263.670595129806, -22589.634071544897, -31485.42719905701, 2688.7583957622523, 2905.3020960452673, -187500.02235174447, -30534.159306783597, 13849.319678463899, -36300.641155319354, 44888.42724423733, -33565.50288981234, -1379.6837782482837, -28031.903866756424, -36713.90255855353, -33476.72176083586, 0.064, 0.936, 0.376, 192.0, 0.0, 0.0, 0.0, 0.0, 0.0, 0.0, 0.0, 0.0, 0.0, 1.695766437550144E9, 0.0, 2023-09-26 17:13:57.550
158.0, 39753.91861843093, 53243.241100697654, -22583.688507519782, -31485.04721940127, 2679.0800904131047, 2809.5025193098213, -187500.02235174447, -30595.00075519094, 13844.379942939275, -36313.292242681055, 44982.416329671905, -33575.225898650395, -1386.7916329850714, -28050.03113150968, -36717.92587255548, -33380.408093977945, 0.064, 0.936, 0.376, 192.0, 0.0, 0.0, 0.0, 0.0, 0.0, 0.0, 0.0, 0.0, 0.0, 1.695766437550147E9, 0.0, 2023-09-26 17:13:57.550
160.0, 39753.56099051965, 53270.845505099955, -22583.621452286417, -31487.483559546898, 2704.4940238587888, 2894.215630795435, -187500.02235174447, -30536.886219607142, 13851.152521509233, -36303.83745477646, 44876.37965397593, -33559.154994387034, -1375.548705524052, -28045.963114018814, -36704.91715728249, -33495.49722617832, 0.064, 0.936, 0.376, 192.0, 0.0, 0.0, 0.0, 0.0, 0.0, 0.0, 0.0, 0.0, 0.0, 1.69576643755015E9, 0.0, 2023-09-26 17:13:57.550
162.0, 39755.46088879835, 53254.19345548075, -22585.633109287395, -31490.031658414802, 2684.4221573379227, 2805.993295430338, -187500.02235174447, -30596.63243253618, 13851.711315120616, -36305.826760032985, 44976.5154691357, -33562.8206804777, -1377.1803828692894, -28050.433462909874, -36707.93464278396, -33389.32644001561, 0.066, 0.9400000000000001, 0.376, 192.0, 1.0, 8.0, 14.5, 48.0, 5.5, 96.0, 0.0, 0.0, 0.0, 1.695766437550153E9, 0.0, 2023-09-26 17:13:57.550
164.0, 39751.95166491886, 53269.50440043264, -22591.1316384234, -31496.491312562386, 2688.445471339878, 2876.691863142474, -187500.02235174447, -30557.271010550383, 13846.413951684708, -36310.61003334642, 44872.55750567407, -33564.49706131185, -1380.0861096484794, -28049.60644836503, -36713.27670970878, -33504.68379314945, 0.066, 0.9400000000000001, 0.376, 192.0, 0.0, 0.0, 0.0, 0.0, 0.0, 0.0, 0.0, 0.0, 0.0, 1.695766437550157E9, 0.0, 2023-09-26 17:13:57.550
166.0, 39754.05272889766, 53256.518036904105, -22578.726420250707, -31483.504949033853, 2684.802136993663, 2817.5267955692766, -187500.02235174447, -30590.48570281097, 13846.369248195799, -36310.3194606685, 44979.84587905954, -33566.75458750183, -1378.9461706812585, -28046.20898320782, -36714.237834720356, -33384.81138763564, 0.066, 0.9400000000000001, 0.376, 192.0, 0.0, 0.0, 0.0, 0.0, 0.0, 0.0, 0.0, 0.0, 0.0, 1.695766437610404E9, 0.0, 2023-09-26 17:13:57.610
168.0, 39742.072193869615, 53270.01849055511, -22588.024745944113, -31481.31447807723, 2690.2783143852134, 2891.66753192753, -187500.02235174447, -30544.08348132175, 13842.435341171664, -36304.843283276954, 44869.04828179458, -33559.93730544297, -1386.1881358847781, -28037.60356159253, -36713.29906145323, -33504.23675826034, 0.066, 0.9400000000000001, 0.376, 192.0, 0.0, 0.0, 0.0, 0.0, 0.0, 0.0, 0.0, 0.0, 0.0, 1.695766437610416E9, 0.0, 2023-09-26 17:13:57.610
170.0, 39751.8846096855, 53257.68032761578, -22587.309490121545, -31477.60408849765, 2678.2977793571686, 2830.51315909781, -187500.02235174447, -30587.6693830096, 13838.233213214065, -36302.608108831424, 45003.09169329306, -33569.21327939192, -1388.222144630211, -28033.93787550186, -36716.830637077175, -33354.92710529889, 0.066, 0.9400000000000001, 0.376, 192.0, 0.0, 0.0, 0.0, 0.0, 0.0, 0.0, 0.0, 0.0, 0.0, 1.69576643761042E9, 0.0, 2023-09-26 17:13:57.610
172.0, 39748.75536546175, 53266.822191098, -22590.505789578652, -31483.639059500583, 2685.2715236272247, 2881.989226578382, -187500.02235174447, -30541.33421675375, 13844.849329572837, -36298.29422215155, 44873.630389407925, -33570.39792184805, -1388.4233103303088, -28034.451965624332, -36716.674174865984, -33500.12403728057, 0.064, 0.9420000000000001, 0.374, 192.0, 1.0, 0.0, 14.5, 56.0, 5.5, 88.0, 0.0, 0.0, 0.0, 1.695766437610423E9, 0.0, 2023-09-26 17:13:57.610
174.0, 39754.56681902013, 53262.84358058496, -22589.879940733903, -31488.623498514116, 2674.7215002443195, 2835.2070254334244, -187500.02235174447, -30585.59067077526, 13841.295402204443, -36304.95504199923, 44997.97314381279, -33574.91297422802, -1388.8256417305042, -28045.44902389634, -36722.44092493545, -33360.44798617935, 0.064, 0.9420000000000001, 0.374, 192.0, 0.0, 0.0, 0.0, 0.0, 0.0, 0.0, 0.0, 0.0, 0.0, 1.695766437610426E9, 0.0, 2023-09-26 17:13:57.610
176.0, 39759.37244407803, 53273.17008652331, -22582.52621680811, -31477.179405353, 2687.10436667256, 2877.2283050094015, -187500.02235174447, -30536.550943440314, 13850.146693008744, -36293.68976279375, 44877.541944687604, -33565.43583457897, -1389.451490575253, -28037.69296857035, -36714.237834720356, -33499.72170588037, 0.064, 0.9420000000000001, 0.374, 192.0, 0.0, 0.0, 0.0, 0.0, 0.0, 0.0, 0.0, 0.0, 0.0, 1.69576643761043E9, 0.0, 2023-09-26 17:13:57.610
178.0, 39764.60275228057, 53271.0243190556, -22583.1297139084, -31481.60505075515, 2677.649578767965, 2847.3663744171113, -187500.02235174447, -30573.81130144731, 13847.240966229554, -36298.04835296254, 44981.05287326013, -33561.99366593286, -1383.2377056166777, -28039.972846504792, -36719.35638420062, -33380.810425378135, 0.064, 0.9420000000000001, 0.374, 192.0, 0.0, 0.0, 0.0, 0.0, 0.0, 0.0, 0.0, 0.0, 0.0, 1.695766437610433E9, 0.0, 2023-09-26 17:13:57.610
180.0, 39754.25389459776, 53260.54135090606, -22584.873149975916, -31482.65558274455, 2684.869192227029, 2867.3711857046114, -187500.02235174447, -30548.486774979447, 13853.901786077236, -36289.33117262497, 44861.806316591064, -33556.38337807458, -1384.2211823727112, -28030.518058600195, -36711.667384108, -33519.793572401235, 0.064, 0.9420000000000001, 0.374, 192.0, 0.0, 0.0, 0.0, 0.0, 0.0, 0.0, 0.0, 0.0, 0.0, 1.695766437670706E9, 0.0, 2023-09-26 17:13:57.670
182.0, 39753.181010863904, 53264.18468525227, -22592.048059946068, -31494.770228239326, 2677.6048752790543, 2849.1098104846255, -187500.02235174447, -30586.64120276466, 13840.580146381873, -36303.099847209436, 44961.428041628365, -33569.54855555875, -1385.1823073842893, -28040.26341918271, -36718.08233476667, -33403.65390821146, 0.06, 0.9420000000000001, 0.37, 192.0, 0.5, 112.0, 14.5, 56.0, 5.5, 72.0, 0.0, 0.0, 0.0, 1.69576643767072E9, 0.0, 2023-09-26 17:13:57.670
184.0, 39757.00315916576, 53264.16233350782, -22582.079181919, -31482.36501006663, 2687.5290498172108, 2840.7279063138853, -187500.02235174447, -30563.417740275592, 13844.670515617194, -36299.99295473015, 44877.474889454235, -33575.248250394856, -1392.6477900323619, -28040.196363949344, -36716.85298882163, -33498.51471167978, 0.06, 0.9420000000000001, 0.37, 192.0, 0.0, 0.0, 0.0, 0.0, 0.0, 0.0, 0.0, 0.0, 0.0, 1.695766437670724E9, 0.0, 2023-09-26 17:13:57.670
186.0, 39759.752423733764, 53277.99806332566, -22580.22398712921, -31476.508853019342, 2683.5280875597105, 2860.1739239900025, -187500.02235174447, -30576.29234508185, 13845.78810283996, -36295.90258549483, 44935.432962826846, -33561.881907210576, -1380.5554962820406, -28038.050596481633, -36712.42734341948, -33428.46434455685, 0.06, 0.9420000000000001, 0.37, 192.0, 0.0, 0.0, 0.0, 0.0, 0.0, 0.0, 0.0, 0.0, 0.0, 1.695766437670727E9, 0.0, 2023-09-26 17:13:57.670
188.0, 39761.83113596811, 53272.09720278945, -22576.580652782995, -31468.082245359692, 2685.7856137496965, 2849.5568453737314, -187500.02235174447, -30565.921135654586, 13854.706448877627, -36286.78307375706, 44882.03464532312, -33551.756566972326, -1385.9199149513145, -28030.607465578018, -36708.26991895079, -33500.839293103134, 0.06, 0.9420000000000001, 0.37, 192.0, 0.0, 0.0, 0.0, 0.0, 0.0, 0.0, 0.0, 0.0, 0.0, 1.69576643767073E9, 0.0, 2023-09-26 17:13:57.670
190.0, 39761.942894690386, 53280.367348237916, -22587.354193610456, -31483.102617633656, 2692.155860919459, 2877.720043387418, -187500.02235174447, -30561.406083274615, 13846.346896451343, -36295.7684750281, 44942.54081756363, -33558.797366475745, -1386.3669498404206, -28041.626875594484, -36713.61198587561, -33422.71994623184, 0.06, 0.9420000000000001, 0.37, 192.0, 0.0, 0.0, 0.0, 0.0, 0.0, 0.0, 0.0, 0.0, 0.0, 1.695766437670734E9, 0.0, 2023-09-26 17:13:57.670
192.0, 39760.98176967881, 53261.07779277299, -22587.711821521738, -31478.922841420514, 2690.77005276323, 2840.3255749136897, -187500.02235174447, -30565.00471413192, 13849.096161019346, -36300.70821055272, 44910.37665729245, -33568.54272705826, -1388.9374004527808, -28037.64826508144, -36708.716953839896, -33466.93169676443, 0.06, 0.9460000000000001, 0.378, 192.0, 0.5, 112.0, 14.5, 72.0, 5.5, 104.0, 0.0, 0.0, 0.0, 1.695766437670737E9, 0.0, 2023-09-26 17:13:57.670
194.0, 39759.79712722268, 53280.41205172683, -22591.95865296825, -31483.124969378114, 2697.632038311009, 2889.052377826259, -187500.02235174447, -30543.636446432647, 13845.966916795602, -36302.29518440905, 44922.2007301093, -33563.31241885572, -1382.4777463051971, -28035.34603540254, -36708.80636081772, -33439.66256852896, 0.06, 0.9460000000000001, 0.378, 192.0, 0.0, 0.0, 0.0, 0.0, 0.0, 0.0, 0.0, 0.0, 0.0, 1.69576643767074E9, 0.0, 2023-09-26 17:13:57.670
196.0, 39758.03133941071, 53255.93689154827, -22593.836199502493, -31481.694457732974, 2681.6952445143756, 2826.7133625404076, -187500.02235174447, -30584.696600997046, 13849.654954630729, -36301.222300675196, 44913.26003232718, -33557.411558319516, -1384.7576242396385, -28042.722111072795, -36711.22034921889, -33455.30878964768, 0.06, 0.9460000000000001, 0.378, 192.0, 0.0, 0.0, 0.0, 0.0, 0.0, 0.0, 0.0, 0.0, 0.0, 1.695766437729526E9, 0.0, 2023-09-26 17:13:57.729
198.0, 39760.042996411685, 53276.54519993606, -22595.46787684773, -31488.243518858377, 2688.736044017797, 2897.7695581638286, -187500.02235174447, -30534.092251550228, 13844.581108639373, -36307.59254784496, 44904.118168844965, -33565.5699450457, -1384.4223480728087, -28047.773605319693, -36716.24949172133, -33456.56048733717, 0.06, 0.9460000000000001, 0.378, 192.0, 0.0, 0.0, 0.0, 0.0, 0.0, 0.0, 0.0, 0.0, 0.0, 1.695766437729538E9, 0.0, 2023-09-26 17:13:57.729
200.0, 39752.59986550807, 53244.716315831705, -22597.635996059897, -31492.937385193993, 2678.3424828460793, 2829.216757919402, -187500.02235174447, -30577.72285672699, 13845.855158073326, -36306.49731236664, 44934.158913392894, -33565.70405551244, -1388.4233103303088, -28048.377102419985, -36710.102761996124, -33430.23013236882, 0.06, 0.9460000000000001, 0.378, 192.0, 0.0, 0.0, 0.0, 0.0, 0.0, 0.0, 0.0, 0.0, 0.0, 1.695766437729541E9, 0.0, 2023-09-26 17:13:57.729
202.0, 39752.19753410787, 53265.123458519396, -22595.490228592185, -31492.624460771618, 2696.5368028326993, 2896.4508052409656, -187500.02235174447, -30541.893010365133, 13837.339143435855, -36308.91130076782, 44891.534136716626, -33569.10152066965, -1387.4621853187307, -28049.53939313166, -36708.53813988425, -33466.77523455325, 0.062, 0.9400000000000001, 0.378, 192.0, 0.5, 120.0, 14.5, 48.0, 5.5, 104.0, 0.0, 0.0, 0.0, 1.695766437729544E9, 0.0, 2023-09-26 17:13:57.729
204.0, 39748.10716487255, 53241.16238846331, -22596.406650114855, -31488.71290549194, 2675.324997344613, 2823.8523392501284, -187500.02235174447, -30594.218444135007, 13837.585012624862, -36310.297108924045, 44940.43975358483, -33573.57186956071, -1385.2940661065659, -28048.421805908896, -36706.66059335001, -33420.32830957512, 0.062, 0.9400000000000001, 0.378, 192.0, 0.0, 0.0, 0.0, 0.0, 0.0, 0.0, 0.0, 0.0, 0.0, 1.695766437729548E9, 0.0, 2023-09-26 17:13:57.729
206.0, 39749.761193962244, 53269.63851089937, -22600.541722839087, -31481.47094028842, 2692.3346748751014, 2911.1135496036472, -187500.02235174447, -30539.859001619698, 13838.054399258424, -36306.78788504456, 44862.61097939146, -33566.3746078461, -1381.807193971538, -28035.435442380363, -36710.84036956315, -33495.318412222674, 0.062, 0.9400000000000001, 0.378, 192.0, 0.0, 0.0, 0.0, 0.0, 0.0, 0.0, 0.0, 0.0, 0.0, 1.695766437729551E9, 0.0, 2023-09-26 17:13:57.729
208.0, 39755.86322019854, 53253.18762698027, -22602.75454554016, -31479.70515247645, 2673.425099065912, 2831.675449809486, -187500.02235174447, -30591.312717355817, 13838.792006825448, -36305.93851875526, 44964.75845155221, -33561.79250023276, -1387.193964385267, -28032.753233045725, -36721.18922724596, -33389.70641967135, 0.062, 0.9400000000000001, 0.378, 192.0, 0.0, 0.0, 0.0, 0.0, 0.0, 0.0, 0.0, 0.0, 0.0, 1.695766437729554E9, 0.0, 2023-09-26 17:13:57.729
210.0, 39763.06048191315, 53275.91935109131, -22597.323071637522, -31478.94519316497, 2691.6641225414423, 2898.596572708675, -187500.02235174447, -30538.27202776337, 13842.033009771469, -36301.51287335311, 44879.30773249957, -33559.55732578723, -1386.5234120516077, -28036.26245692521, -36713.74609634234, -33481.99677252731, 0.062, 0.9400000000000001, 0.378, 192.0, 0.0, 0.0, 0.0, 0.0, 0.0, 0.0, 0.0, 0.0, 0.0, 1.695766437789817E9, 0.0, 2023-09-26 17:13:57.789
212.0, 39754.54446727568, 53253.29938570254, -22603.335690895998, -31488.42233281402, 2673.6486165104648, 2828.188577674458, -187500.02235174447, -30599.091124426264, 13844.871681317292, -36300.797617530545, 44964.24436142974, -33556.49513679685, -1382.6342085163842, -28043.303256428633, -36714.12607599808, -33395.987259863294, 0.062, 0.9400000000000001, 0.378, 192.0, 0.5, 120.0, 14.5, 48.0, 5.5, 104.0, 0.0, 0.0, 0.0, 1.69576643778983E9, 0.0, 2023-09-26 17:13:57.789
214.0, 39753.15865911945, 53273.05832780103, -22607.671929320328, -31494.457303816955, 2688.0878434285933, 2896.3837500075997, -187500.02235174447, -30549.939638369044, 13837.607364369318, -36309.38068740138, 44873.473927196734, -33564.966447945415, -1390.7925952425715, -28055.417901923407, -36722.99971854684, -33489.730476108845, 0.062, 0.9400000000000001, 0.378, 192.0, 0.0, 0.0, 0.0, 0.0, 0.0, 0.0, 0.0, 0.0, 0.0, 1.695766437789833E9, 0.0, 2023-09-26 17:13:57.789
216.0, 39755.0362056537, 53256.62979562638, -22608.00720548716, -31497.497141062875, 2683.8857154709954, 2824.7687607727958, -187500.02235174447, -30592.363249345217, 13837.629716113774, -36306.63142283338, 44990.06062627562, -33563.93826770047, -1381.3378073379765, -28055.574364134594, -36721.05511677922, -33358.95041930085, 0.062, 0.9400000000000001, 0.378, 192.0, 0.0, 0.0, 0.0, 0.0, 0.0, 0.0, 0.0, 0.0, 0.0, 1.695766437789836E9, 0.0, 2023-09-26 17:13:57.789
218.0, 39755.10326088706, 53271.0243190556, -22601.52519959512, -31487.438856057986, 2700.7165790458416, 2890.505241215854, -187500.02235174447, -30544.754033655412, 13845.698695862138, -36301.490521608655, 44851.56921763053, -33560.74196824336, -1377.001568913647, -28042.92327677289, -36712.628509119575, -33511.36696474159, 0.062, 0.9400000000000001, 0.378, 192.0, 0.0, 0.0, 0.0, 0.0, 0.0, 0.0, 0.0, 0.0, 0.0, 1.69576643778984E9, 0.0, 2023-09-26 17:13:57.789
220.0, 39749.91765617343, 53252.82999906898, -22602.642786817883, -31494.971393939424, 2689.5630585626436, 2843.454819137433, -187500.02235174447, -30584.94247018605, 13838.88141380327, -36314.81216130402, 44967.19479169784, -33572.297820126754, -1377.1803828692894, -28047.728901830782, -36714.75192484283, -33381.12334980051, 0.062, 0.9400000000000001, 0.378, 192.0, 0.0, 0.0, 0.0, 0.0, 0.0, 0.0, 0.0, 0.0, 0.0, 1.695766437789843E9, 0.0, 2023-09-26 17:13:57.789
222.0, 39751.32581607412, 53264.139981763365, -22597.85951350445, -31489.42816131451, 2697.1402999329925, 2887.420700481022, -187500.02235174447, -30543.23411503245, 13843.664687116705, -36310.67708857979, 44853.04443276458, -33564.83233747868, -1381.158993382334, -28041.895096527947, -36706.817055561194, -33503.11917103758, 0.064, 0.936, 0.38, 192.0, 1.0, 0.0, 14.5, 32.0, 5.5, 112.0, 0.0, 0.0, 0.0, 1.695766437789846E9, 0.0, 2023-09-26 17:13:57.789
224.0, 39756.77964172121, 53265.39167945286, -22605.45910661925, -31497.787713740792, 2680.8458782250736, 2846.5617116167205, -187500.02235174447, -30591.29036561136, 13835.081617245867, -36311.52645486909, 44972.04512024464, -33564.16178514502, -1381.360159082432, -28054.210907722823, -36714.2154829759, -33364.91833507041, 0.064, 0.936, 0.38, 192.0, 0.0, 0.0, 0.0, 0.0, 0.0, 0.0, 0.0, 0.0, 0.0, 1.695766437789849E9, 0.0, 2023-09-26 17:13:57.789
226.0, 39752.24223759678, 53270.152601021844, -22605.57086534153, -31489.42816131451, 2692.938171975395, 2885.8784301136056, -187500.02235174447, -30546.542173211838, 13840.043704514947, -36305.78205654408, 44858.7888310896, -33563.24536362235, -1386.7022260072501, -28046.387797163465, -36714.32724169818, -33492.43503718794, 0.064, 0.936, 0.38, 192.0, 0.0, 0.0, 0.0, 0.0, 0.0, 0.0, 0.0, 0.0, 0.0, 1.695766437850706E9, 0.0, 2023-09-26 17:13:57.850
228.0, 39747.81659219463, 53261.614234639914, -22611.270560177632, -31493.60793752765, 2688.5348783176996, 2861.738546101874, -187500.02235174447, -30585.300098097337, 13830.253640443521, -36316.242672949156, 44965.004320741216, -33572.63309629358, -1382.7683189831162, -28052.713340844315, -36719.93752955646, -33364.35954145903, 0.064, 0.936, 0.38, 192.0, 0.0, 0.0, 0.0, 0.0, 0.0, 0.0, 0.0, 0.0, 0.0, 1.695766437850718E9, 0.0, 2023-09-26 17:13:57.850
230.0, 39743.01096713674, 53254.30521420303, -22610.689414821794, -31486.70124849096, 2684.802136993663, 2868.4217176940106, -187500.02235174447, -30565.80937693231, 13840.915422548704, -36304.217434432205, 44855.25725546566, -33565.5699450457, -1381.673083504806, -28043.683236084373, -36714.6178143761, -33493.306755221696, 0.064, 0.936, 0.38, 192.0, 0.0, 0.0, 0.0, 0.0, 0.0, 0.0, 0.0, 0.0, 0.0, 1.695766437850721E9, 0.0, 2023-09-26 17:13:57.850
232.0, 39743.43565028139, 53257.63562412687, -22615.51739162414, -31498.19004514099, 2680.8905817139844, 2866.3877089485777, -187500.02235174447, -30577.991077660452, 13831.818262555393, -36316.48854213817, 44955.52718109217, -33571.58256430418, -1380.935475937781, -28054.188555978366, -36727.023032548794, -33375.26719275322, 0.064, 0.932, 0.382, 192.0, 1.0, 0.0, 14.5, 16.0, 5.5, 120.0, 0.0, 0.0, 0.0, 1.695766437850725E9, 0.0, 2023-09-26 17:13:57.850
234.0, 39750.56585676263, 53250.21484496771, -22610.24237993269, -31494.2337863724, 2681.29291311418, 2844.348888915645, -187500.02235174447, -30583.10962714072, 13839.708428348116, -36314.834513048474, 44878.391310976906, -33576.16467191752, -1385.3164178510212, -28053.003913522236, -36721.725669112886, -33467.49049037582, 0.064, 0.932, 0.382, 192.0, 0.0, 0.0, 0.0, 0.0, 0.0, 0.0, 0.0, 0.0, 0.0, 1.695766437850728E9, 0.0, 2023-09-26 17:13:57.850
236.0, 39754.38800506449, 53273.01362431212, -22611.583484600007, -31496.960699195948, 2690.3453696185793, 2868.0640897827257, -187500.02235174447, -30574.43715029206, 13840.110759748311, -36309.04541123455, 44921.26195684218, -33568.60978229163, -1379.0132259146246, -28053.763872833715, -36722.57503540219, -33414.136876361, 0.064, 0.932, 0.382, 192.0, 0.0, 0.0, 0.0, 0.0, 0.0, 0.0, 0.0, 0.0, 0.0, 1.695766437850731E9, 0.0, 2023-09-26 17:13:57.850
238.0, 39751.59403700758, 53257.076830515485, -22609.415365387842, -31496.625423029116, 2689.518355073733, 2843.0301359927817, -187500.02235174447, -30569.832690934265, 13841.02718127098, -36306.98905074466, 44881.878183111934, -33569.61561079211, -1381.9860079271805, -28055.484957156776, -36716.85298882163, -33470.70914157738, 0.064, 0.932, 0.382, 192.0, 0.0, 0.0, 0.0, 0.0, 0.0, 0.0, 0.0, 0.0, 0.0, 1.695766437850735E9, 0.0, 2023-09-26 17:13:57.850
240.0, 39753.71745273083, 53273.795935368056, -22609.79534504358, -31500.984013197904, 2696.8497272550735, 2882.6150754231307, -187500.02235174447, -30559.48383325146, 13834.031085256469, -36313.13578046987, 44921.440770797824, -33574.57769806119, -1375.325188079499, -28063.285715971677, -36716.38360218806, -33413.64513798298, 0.064, 0.932, 0.382, 192.0, 0.0, 0.0, 0.0, 0.0, 0.0, 0.0, 0.0, 0.0, 0.0, 1.695766437910479E9, 0.0, 2023-09-26 17:13:57.910
242.0, 39748.3306823171, 53248.65022285584, -22605.90614150836, -31495.351373595164, 2691.3735498635233, 2841.3984586475444, -187500.02235174447, -30580.04743815034, 13840.870719059792, -36307.72665831169, 44894.26104954017, -33575.80704400624, -1379.7284817371944, -28054.210907722823, -36712.40499167502, -33451.710158790374, 0.062, 0.936, 0.38, 192.0, 0.5, 120.0, 14.5, 32.0, 5.5, 112.0, 0.0, 0.0, 0.0, 1.695766437910492E9, 0.0, 2023-09-26 17:13:57.910
244.0, 39743.65916772594, 53267.93977832077, -22617.529048625118, -31504.828513244214, 2687.2384771392917, 2896.473156985421, -187500.02235174447, -30574.43715029206, 13830.968896266091, -36307.59254784496, 44893.85871813998, -33574.73416027238, -1376.286313091077, -28054.03209376718, -36715.86951206559, -33441.42835634093, 0.062, 0.936, 0.38, 192.0, 0.0, 0.0, 0.0, 0.0, 0.0, 0.0, 0.0, 0.0, 0.0, 1.695766437910496E9, 0.0, 2023-09-26 17:13:57.910
246.0, 39748.46479278384, 53253.70171710273, -22605.995548486182, -31492.08801890469, 2682.3657968480347, 2838.828008035184, -187500.02235174447, -30583.891938196655, 13826.900878775226, -36313.024021747595, 44934.33772734854, -33580.79148301977, -1391.6643132763284, -28056.289619957166, -36724.00554704732, -33406.693745457385, 0.062, 0.936, 0.38, 192.0, 0.0, 0.0, 0.0, 0.0, 0.0, 0.0, 0.0, 0.0, 0.0, 1.695766437910499E9, 0.0, 2023-09-26 17:13:57.910
