%OpenBCI Raw EXG Data
%Number of channels = 16
%Sample Rate = 125 Hz
%Board = OpenBCI_GUI$BoardCytonSerialDaisy
Sample Index, EXG Channel 0, EXG Channel 1, EXG Channel 2, EXG Channel 3, EXG Channel 4, EXG Channel 5, EXG Channel 6, EXG Channel 7, EXG Channel 8, EXG Channel 9, EXG Channel 10, EXG Channel 11, EXG Channel 12, EXG Channel 13, EXG Channel 14, EXG Channel 15, Accel Channel 0, Accel Channel 1, Accel Channel 2, Other, Other, Other, Other, Other, Other, Other, Analog Channel 0, Analog Channel 1, Analog Channel 2, Timestamp, Other, Timestamp (Formatted)
178.0, -159835.8717365112, 29102.57477791009, -48002.293467795076, -38796.36988596558, 3042.4524000230313, -13806.761957020994, -187500.02235174447, -631.9285192404412, 7637.635783867334, -36648.5013542773, 863.894923197618, -20515.995683192694, -23804.42903094638, -22519.337835232956, -25743.50991767763, -40481.55730742899, 0.0, 0.0, 0.0, 192.0, 0.0, 0.0, 0.0, 0.0, 0.0, 0.0, 0.0, 0.0, 0.0, 1.695756405323445E9, 0.0, 2023-09-26 14:26:45.323
180.0, -159817.43154733558, 29086.32505969108, -48021.225395348716, -38806.87520585957, 3020.9053183681153, -13819.323637404876, -187500.02235174447, -640.4221821334579, 7626.0352284950295, -36633.19040932541, 862.956149930495, -20500.327110329523, -23819.76232764272, -22538.98501860917, -25745.4768711897, -40492.77788314556, 0.0, 0.0, 0.0, 192.0, 0.0, 0.0, 0.0, 0.0, 0.0, 0.0, 0.0, 0.0, 0.0, 1.695756405323465E9, 0.0, 2023-09-26 14:26:45.323
182.0, -159813.29647461136, 29097.41152494091, -48008.641363220384, -38789.15027250651, 3032.461170251509, -13805.510259331497, -187500.02235174447, -634.096638452606, 7624.314144171971, -36651.027101400745, 862.3079493412912, -20506.116212143446, -23811.268664749703, -22528.74791964864, -25736.491469918667, -40487.56992668747, 0.0, 0.0, 0.0, 192.0, 0.0, 0.0, 0.0, 0.0, 0.0, 0.0, 0.0, 0.0, 0.0, 1.695756405323476E9, 0.0, 2023-09-26 14:26:45.323
184.0, -159805.36160532973, 29094.796370839642, -48018.565537758535, -38794.872319087066, 3020.5476904568304, -13816.194393181133, -187500.02235174447, -646.0995252251059, 7623.755350560588, -36634.73267969283, 866.5100772988889, -20486.49138051169, -23807.625330403487, -22530.31254176051, -25733.339873950466, -40491.9061651118, 0.0, 0.0, 0.0, 192.0, 0.0, 0.0, 0.0, 0.0, 0.0, 0.0, 0.0, 0.0, 0.0, 1.695756405323485E9, 0.0, 2023-09-26 14:26:45.323
186.0, -159789.17894234406, 29103.401792454933, -48026.746276229176, -38799.700295889415, 3015.9432310990373, -13822.564640350896, -187500.02235174447, -642.903225767997, 7624.962344761175, -36652.34585432361, 857.5917312612214, -20492.05696488106, -23812.699176394843, -22536.392216252356, -25737.407891441333, -40497.73997041464, 0.054, 1.012, -0.026000000000000002, 192.0, 0.5, 88.0, 15.5, 80.0, 127.5, 24.0, 0.0, 0.0, 0.0, 1.695756405323496E9, 0.0, 2023-09-26 14:26:45.323
188.0, -159798.83489594876, 29101.010155798216, -48016.7326947132, -38788.502071917304, 3023.7663416583946, -13812.774576279471, -187500.02235174447, -649.6087491045892, 7634.730057088144, -36628.16126682297, 859.4469260510118, -20482.222197320723, -23811.693347894354, -22540.32612327649, -25738.681940875285, -40500.06455183799, 0.054, 1.012, -0.026000000000000002, 192.0, 0.0, 0.0, 0.0, 0.0, 0.0, 0.0, 0.0, 0.0, 0.0, 1.695756405323507E9, 0.0, 2023-09-26 14:26:45.323
190.0, -159799.30428258234, 29104.25115874424, -48021.918299426834, -38792.279516730254, 3023.8333968917605, -13812.931038490658, -187500.02235174447, -634.9236529974525, 7640.250937968605, -36640.18650533992, 862.5091150413889, -20500.572979518533, -23811.268664749703, -22526.535096947562, -25731.350568693946, -40492.15203430081, 0.054, 1.012, -0.026000000000000002, 192.0, 0.0, 0.0, 0.0, 0.0, 0.0, 0.0, 0.0, 0.0, 0.0, 1.695756405323516E9, 0.0, 2023-09-26 14:26:45.323
192.0, -159792.21877959, 29106.352222723035, -48016.397418546374, -38789.59730739562, 3029.667202194596, -13804.63854129774, -187500.02235174447, -637.5611588431786, 7626.146987217306, -36625.099077832594, 863.9172749420733, -20480.90344439786, -23819.6729206649, -22521.707120145216, -25731.887010560873, -40493.604897690406, 0.054, 1.012, -0.026000000000000002, 192.0, 0.0, 0.0, 0.0, 0.0, 0.0, 0.0, 0.0, 0.0, 0.0, 1.695756405323525E9, 0.0, 2023-09-26 14:26:45.323
194.0, -159782.83104691876, 29102.597129654543, -48013.201119089266, -38790.312563218184, 3032.729391184973, -13804.884410486748, -187500.02235174447, -635.0577634641843, 7625.8564145393875, -36647.92020892146, 853.7919347038192, -20491.565226503044, -23825.81965039011, -22523.87523935738, -25733.786908839575, -40499.08107508196, 0.054, 1.012, -0.026000000000000002, 192.0, 0.0, 0.0, 0.0, 0.0, 0.0, 0.0, 0.0, 0.0, 0.0, 1.695756405323536E9, 0.0, 2023-09-26 14:26:45.323
0.0, -80001.8331410686, 14599.757146806378, -23944.932096592438, -19338.77400622058, 1549.1994081973326, -6867.752297848738, -93750.01117587223, -273.51829689959254, 3821.1871768459296, -18315.801717734543, 432.4839034657364, -10236.69662913044, -11910.752881855116, -11256.964356537384, -12862.043125872986, -20244.176118871703, 0.054, 1.014, -0.034, 192.0, 0.5, 88.0, 15.5, 88.0, 127.0, 120.0, 0.0, 0.0, 0.0, 1.695756405459555E9, 0.0, 2023-09-26 14:26:45.459
2.0, -160024.63221843628, 29190.864168508553, -47889.88654492934, -38673.88232635049, 3097.1918221940787, -13733.761159629961, -187500.02235174447, -554.9267595919084, 7731.96014546873, -36482.67376216337, 976.3912530411784, -20400.32540563648, -23786.36882142649, -22489.36414591839, -25657.545108502523, -40392.68677147469, 0.054, 1.014, -0.034, 192.0, 0.0, 0.0, 0.0, 0.0, 0.0, 0.0, 0.0, 0.0, 0.0, 1.695756405459578E9, 0.0, 2023-09-26 14:26:45.459
4.0, -160031.74007317307, 29207.426811149933, -47874.1509168328, -38655.97857904179, 3110.7369793339944, -13720.014836789947, -187500.02235174447, -547.39422171047, 7736.9222327378075, -36487.63584943245, 982.1356513661923, -20400.303053892025, -23779.260966689704, -22476.57894808995, -25653.611201478387, -40387.4341115277, 0.054, 1.014, -0.034, 192.0, 0.0, 0.0, 0.0, 0.0, 0.0, 0.0, 0.0, 0.0, 0.0, 1.695756405459587E9, 0.0, 2023-09-26 14:26:45.459
6.0, -160062.92075668823, 29201.168322702448, -47879.62709422435, -38664.09226227907, 3108.591211866285, -13731.280115995422, -187500.02235174447, -550.7693351232214, 7753.48487537919, -36475.16357602639, 991.7692532264297, -20407.14268769535, -23763.637097315444, -22463.972564217158, -25638.479070482146, -40373.5313264765, 0.054, 1.014, -0.034, 192.0, 0.0, 0.0, 0.0, 0.0, 0.0, 0.0, 0.0, 0.0, 0.0, 1.695756405459597E9, 0.0, 2023-09-26 14:26:45.459
8.0, -160026.39800624826, 29201.414191891457, -47893.73104497565, -38681.57132644312, 3093.369673892221, -13750.256747037978, -187500.02235174447, -546.0978205320622, 7736.519901337612, -36480.34918074002, 987.7906427133851, -20395.788001512054, -23784.737144081253, -22490.995823263627, -25658.01449513608, -40399.638164000295, 0.062, 1.012, -0.028, 192.0, 0.5, 120.0, 15.5, 80.0, 127.5, 16.0, 0.0, 0.0, 0.0, 1.695756405459606E9, 0.0, 2023-09-26 14:26:45.459
10.0, -160046.04518962445, 29185.075066694626, -47890.802966452, -38680.565497942625, 3098.778796050405, -13742.120712056247, -187500.02235174447, -561.6769864174112, 7738.665668805322, -36487.859366877005, 983.0520728888599, -20395.139800922847, -23782.770190569187, -22500.003576279116, -25658.66269572529, -40399.72757097812, 0.062, 1.012, -0.028, 192.0, 0.0, 0.0, 0.0, 0.0, 0.0, 0.0, 0.0, 0.0, 0.0, 1.695756405459616E9, 0.0, 2023-09-26 14:26:45.459
12.0, -160035.33870403038, 29177.5872323021, -47900.43656831224, -38691.80842540365, 3097.884726272193, -13748.513310970464, -187500.02235174447, -551.5292944347018, 7731.602517557445, -36499.70579143832, 977.1065088637482, -20411.970664497694, -23786.100600493028, -22498.617768122884, -25658.550937003012, -40399.8840331893, 0.062, 1.012, -0.028, 192.0, 0.0, 0.0, 0.0, 0.0, 0.0, 0.0, 0.0, 0.0, 0.0, 1.695756405459625E9, 0.0, 2023-09-26 14:26:45.459
14.0, -160031.15892781722, 29165.11495889604, -47904.30342010301, -38699.13979758499, 3094.4872611149863, -13753.698915684095, -187500.02235174447, -560.7605648947435, 7716.0233516720955, -36495.146035569436, 964.6342354576869, -20402.135896937358, -23796.829437831573, -22515.40392820882, -25670.17384411977, -40413.22802462912, 0.062, 1.012, -0.028, 192.0, 0.0, 0.0, 0.0, 0.0, 0.0, 0.0, 0.0, 0.0, 0.0, 1.695756405459634E9, 0.0, 2023-09-26 14:26:45.459
16.0, -160042.69242795618, 29173.519214811233, -47893.12754787535, -38688.52271896872, 3098.3541129057544, -13747.418075492154, -187500.02235174447, -548.198884510861, 7729.635564045378, -36520.2693963372, 961.8179156563182, -20422.61009485842, -23788.022850516183, -22509.391308950344, -25663.289506827536, -40407.46127455965, 0.062, 1.012, -0.028, 192.0, 0.0, 0.0, 0.0, 0.0, 0.0, 0.0, 0.0, 0.0, 0.0, 1.695756405519913E9, 0.0, 2023-09-26 14:26:45.519
18.0, -160038.020913365, 29171.887537465995, -47898.1566903778, -38695.58587021659, 3089.972208735014, -13757.185787819122, -187500.02235174447, -552.4010124684587, 7734.709410036732, -36500.733971683265, 975.7430524519746, -20411.188353441757, -23784.871254547987, -22507.513762416096, -25659.914393414783, -40401.582765767904, 0.058, 1.014, -0.03, 192.0, 0.5, 104.0, 15.5, 88.0, 127.5, 8.0, 0.0, 0.0, 0.0, 1.695756405519935E9, 0.0, 2023-09-26 14:26:45.519
20.0, -160014.35041598685, 29165.29377285168, -47912.864138229386, -38708.99691688978, 3081.523249330908, -13770.73094495904, -187500.02235174447, -560.2464747722715, 7710.658933002822, -36523.33158532758, 961.6614534451311, -20415.837516288462, -23806.32892922508, -22521.148326533836, -25678.712210501697, -40423.10749567837, 0.058, 1.014, -0.03, 192.0, 0.0, 0.0, 0.0, 0.0, 0.0, 0.0, 0.0, 0.0, 0.0, 1.695756405519946E9, 0.0, 2023-09-26 14:26:45.519
22.0, -160020.94418060116, 29171.708723510354, -47898.13433863334, -38689.0815125801, 3094.1296332037014, -13752.648383694695, -187500.02235174447, -564.5603614521458, 7715.486909805169, -36516.0672683796, 963.5613517238322, -20405.242789416647, -23804.205513501827, -22516.208591009214, -25677.348754089922, -40413.94328045169, 0.058, 1.014, -0.03, 192.0, 0.0, 0.0, 0.0, 0.0, 0.0, 0.0, 0.0, 0.0, 0.0, 1.695756405519987E9, 0.0, 2023-09-26 14:26:45.519
24.0, -160034.779910419, 29174.703857267366, -47890.6018007519, -38682.3312857546, 3105.372560664721, -13745.451121980086, -187500.02235174447, -552.2892537461822, 7720.806624985532, -36527.2207888628, 964.6342354576869, -20421.738376824665, -23794.32604245258, -22502.73048910266, -25664.27298358357, -40399.794626211486, 0.058, 1.014, -0.03, 192.0, 0.0, 0.0, 0.0, 0.0, 0.0, 0.0, 0.0, 0.0, 0.0, 1.695756405519996E9, 0.0, 2023-09-26 14:26:45.519
26.0, -160027.7167591711, 29179.174206158426, -47883.31513205948, -38678.37502698601, 3114.8720520582265, -13739.371447488244, -187500.02235174447, -549.3388234780817, 7726.841595988464, -36505.40548627442, 975.5642384963321, -20403.32053939349, -23787.776981327177, -22501.88112281336, -25657.634515480342, -40394.29609707548, 0.058, 1.014, -0.03, 192.0, 0.0, 0.0, 0.0, 0.0, 0.0, 0.0, 0.0, 0.0, 0.0, 1.695756405520022E9, 0.0, 2023-09-26 14:26:45.520
28.0, -160040.81488142192, 29178.704819524864, -47886.779652450045, -38684.2311840333, 3107.5406798768854, -13743.685334168118, -187500.02235174447, -545.941358320875, 7720.046665674051, -36521.83401844907, 969.4622122600332, -20421.13487972437, -23787.642870860444, -22502.17169549128, -25655.64521022382, -40391.546832507476, 0.056, 1.014, -0.03, 192.0, 0.5, 96.0, 15.5, 88.0, 127.5, 8.0, 0.0, 0.0, 0.0, 1.695756405520031E9, 0.0, 2023-09-26 14:26:45.520
30.0, -160016.7197008991, 29186.237357406302, -47890.780614707546, -38694.133006827, 3096.94595300507, -13751.53079647193, -187500.02235174447, -552.8703991020202, 7718.280877862082, -36505.897224652435, 975.8101076853404, -20397.352623623923, -23794.504856408224, -22504.473925170176, -25663.870652183374, -40399.19112911119, 0.056, 1.014, -0.03, 192.0, 0.0, 0.0, 0.0, 0.0, 0.0, 0.0, 0.0, 0.0, 0.0, 1.695756405579175E9, 0.0, 2023-09-26 14:26:45.579
32.0, -160015.33389274287, 29178.280136380214, -47898.603725266905, -38701.71024819735, 3089.078138956802, -13763.377221033243, -187500.02235174447, -557.4078032264475, 7705.003941655629, -36520.42585854839, 963.3378342792791, -20409.757841796618, -23800.539827411158, -22515.672149142283, -25673.571309276977, -40408.444751315685, 0.056, 1.014, -0.03, 192.0, 0.0, 0.0, 0.0, 0.0, 0.0, 0.0, 0.0, 0.0, 0.0, 1.695756405579209E9, 0.0, 2023-09-26 14:26:45.579
34.0, -159984.9578720281, 29180.850586992576, -47900.79419622353, -38704.057181365155, 3085.3901011216763, -13763.86895941126, -187500.02235174447, -560.4699922168246, 7717.655029017334, -36502.70092519533, 969.5516192378544, -20394.335138122457, -23797.008251787218, -22512.207628751712, -25672.431370309758, -40407.125998392825, 0.056, 1.014, -0.03, 192.0, 0.0, 0.0, 0.0, 0.0, 0.0, 0.0, 0.0, 0.0, 0.0, 1.695756405579219E9, 0.0, 2023-09-26 14:26:45.579
36.0, -160002.34752921434, 29173.228642133316, -47893.57458276446, -38699.095094096076, 3089.145194190168, -13759.10803784228, -187500.02235174447, -567.3766812535144, 7713.005866170629, -36519.48708528127, 955.8723516312066, -20410.160173196815, -23804.518437924202, -22519.69546314424, -25685.529492560567, -40414.814998485446, 0.056, 1.014, -0.03, 192.0, 0.0, 0.0, 0.0, 0.0, 0.0, 0.0, 0.0, 0.0, 0.0, 1.695756405579228E9, 0.0, 2023-09-26 14:26:45.579
38.0, -159973.33496491134, 29180.783531759207, -47895.29566708752, -38698.93863188489, 3088.1617174341345, -13765.970023390058, -187500.02235174447, -563.4204224849251, 7717.76678773961, -36500.9127856389, 972.6585117171421, -20395.497428834133, -23799.623405888487, -22513.258160741112, -25681.014440180596, -40411.462236817155, 0.054, 1.016, -0.038, 192.0, 0.5, 88.0, 15.5, 96.0, 127.0, 104.0, 0.0, 0.0, 0.0, 1.695756405579237E9, 0.0, 2023-09-26 14:26:45.579
40.0, -160018.5748956889, 29179.64359279199, -47880.67762621375, -38684.499404966766, 3106.691313587584, -13748.379200503732, -187500.02235174447, -567.5331434647017, 7714.838709215965, -36520.22469284829, 966.2659128029243, -20417.6703593338, -23799.95868205532, -22509.659529883807, -25678.913376201795, -40404.98023092511, 0.054, 1.016, -0.038, 192.0, 0.0, 0.0, 0.0, 0.0, 0.0, 0.0, 0.0, 0.0, 0.0, 1.695756405579246E9, 0.0, 2023-09-26 14:26:45.579
42.0, -159996.53607565595, 29188.226662662826, -47890.71355947418, -38691.204928303356, 3103.986752508492, -13754.078895339835, -187500.02235174447, -555.2843875031933, 7738.710372294233, -36505.3160792966, 983.9908461559828, -20410.22722843018, -23790.190969728348, -22498.662471611795, -25667.08930338494, -40390.1833760957, 0.054, 1.016, -0.038, 192.0, 0.0, 0.0, 0.0, 0.0, 0.0, 0.0, 0.0, 0.0, 0.0, 1.695756405579255E9, 0.0, 2023-09-26 14:26:45.579
44.0, -160010.2153432626, 29176.715514268344, -47896.18973686573, -38690.42261724742, 3094.174336692612, -13755.15177907369, -187500.02235174447, -569.6789109324111, 7716.582145283479, -36511.30634681063, 969.2610465599355, -20417.17862095578, -23805.390155957957, -22513.258160741112, -25686.736486761154, -40403.30385009097, 0.054, 1.016, -0.038, 192.0, 0.0, 0.0, 0.0, 0.0, 0.0, 0.0, 0.0, 0.0, 0.0, 1.6957564055793E9, 0.0, 2023-09-26 14:26:45.579
46.0, -159978.2076452026, 29180.604717803566, -47901.15182413481, -38696.2340708058, 3090.978037235503, -13757.811636663871, -187500.02235174447, -561.0511375726626, 7717.878546461886, -36505.24902406323, 972.4796977614997, -20404.840458016453, -23807.6700338924, -22507.804335094017, -25685.440085582744, -40402.09685589038, 0.054, 1.016, -0.038, 192.0, 0.0, 0.0, 0.0, 0.0, 0.0, 0.0, 0.0, 0.0, 0.0, 1.695756405639043E9, 0.0, 2023-09-26 14:26:45.639
48.0, -160000.7158518691, 29166.076083907617, -47892.99343740862, -38693.88713763799, 3099.069368728324, -13751.620203449751, -187500.02235174447, -571.5564574666569, 7710.614229513912, -36515.12849511248, 959.7392034219747, -20411.411870886313, -23812.162734527916, -22519.494297444144, -25693.710231031208, -40408.35534433786, 0.056, 1.012, -0.03, 192.0, 0.5, 96.0, 15.5, 80.0, 127.5, 8.0, 0.0, 0.0, 0.0, 1.695756405639069E9, 0.0, 2023-09-26 14:26:45.639
50.0, -159986.29897669543, 29175.57557530112, -47892.792271708524, -38694.64709694947, 3100.2540111844555, -13751.307279027376, -187500.02235174447, -561.0287858282072, 7722.393598841858, -36513.80974218962, 973.1726018396142, -20415.43518488827, -23798.684632621364, -22502.395212935833, -25681.64028902534, -40400.21930935614, 0.056, 1.012, -0.03, 192.0, 0.0, 0.0, 0.0, 0.0, 0.0, 0.0, 0.0, 0.0, 0.0, 1.695756405639079E9, 0.0, 2023-09-26 14:26:45.639
52.0, -160005.14149727125, 29163.080950150605, -47899.96718167868, -38707.834626178104, 3091.246258168967, -13764.651270467195, -187500.02235174447, -577.3902627694921, 7707.99907541264, -36514.61440499001, 968.7246046930081, -20418.65383608983, -23803.60201640153, -22511.60413165142, -25688.792847251043, -40406.23192861461, 0.056, 1.012, -0.03, 192.0, 0.0, 0.0, 0.0, 0.0, 0.0, 0.0, 0.0, 0.0, 0.0, 1.695756405639088E9, 0.0, 2023-09-26 14:26:45.639
54.0, -159977.1571132132, 29168.847700220074, -47903.47640555816, -38712.103809369066, 3089.4804703569976, -13769.121619358257, -187500.02235174447, -564.6944719188776, 7702.388787554359, -36525.812628962114, 965.3271395358014, -20420.28551343507, -23813.883818850973, -22520.99186432265, -25693.576120564478, -40416.71489676415, 0.056, 1.012, -0.03, 192.0, 0.0, 0.0, 0.0, 0.0, 0.0, 0.0, 0.0, 0.0, 0.0, 1.695756405639097E9, 0.0, 2023-09-26 14:26:45.639
56.0, -160002.45928793662, 29169.5853077871, -47887.18198385024, -38693.99889636027, 3101.2821914293995, -13753.296584283898, -187500.02235174447, -584.5875244841009, 7696.934961907264, -36521.05170739314, 963.4495930015556, -20417.558600611523, -23813.772060128696, -22524.903419602328, -25692.860864741906, -40411.596347283885, 0.056, 1.012, -0.03, 192.0, 0.0, 0.0, 0.0, 0.0, 0.0, 0.0, 0.0, 0.0, 0.0, 1.695756405639107E9, 0.0, 2023-09-26 14:26:45.639
58.0, -159993.45153492113, 29187.958441729363, -47888.94777166221, -38692.54603297068, 3101.148080962668, -13757.454008752586, -187500.02235174447, -570.3047597771597, 7719.085540662473, -36518.481256780775, 979.7663664539298, -20427.3710164274, -23798.349356454535, -22503.55750364751, -25678.756913990608, -40395.57014650943, 0.06, 1.01, -0.028, 192.0, 0.5, 112.0, 15.5, 72.0, 127.5, 16.0, 0.0, 0.0, 0.0, 1.695756405639116E9, 0.0, 2023-09-26 14:26:45.639
60.0, -160008.00252056154, 29184.985659716807, -47879.604742479896, -38683.76179739974, 3107.495976387975, -13746.47930222503, -187500.02235174447, -573.6128179565452, 7714.9057644493305, -36504.98080312977, 980.5710292543208, -20411.14364995285, -23806.999481558738, -22507.156134504814, -25687.965832706195, -40400.398123311774, 0.06, 1.01, -0.028, 192.0, 0.0, 0.0, 0.0, 0.0, 0.0, 0.0, 0.0, 0.0, 0.0, 1.695756405699284E9, 0.0, 2023-09-26 14:26:45.699
62.0, -160007.55548567243, 29191.266499908746, -47884.72329196016, -38687.53924221268, 3101.975095507514, -13750.86024413827, -187500.02235174447, -562.9510358513637, 7724.33820060947, -36514.32383231209, 987.9918084134828, -20423.57121987, -23797.879969820973, -22499.26596871209, -25679.78509423555, -40389.579878995406, 0.06, 1.01, -0.028, 192.0, 0.0, 0.0, 0.0, 0.0, 0.0, 0.0, 0.0, 0.0, 0.0, 1.695756405699309E9, 0.0, 2023-09-26 14:26:45.699
64.0, -160006.66141589422, 29187.645517306988, -47887.71842571717, -38688.92505036891, 3094.8001855373604, -13746.948688858593, -187500.02235174447, -572.070547589129, 7721.454825574735, -36498.18587281536, 987.6565322466532, -20406.60624582842, -23807.312405981113, -22508.094907771934, -25693.21849265319, -40398.07354188842, 0.06, 1.01, -0.028, 192.0, 0.0, 0.0, 0.0, 0.0, 0.0, 0.0, 0.0, 0.0, 0.0, 1.695756405699319E9, 0.0, 2023-09-26 14:26:45.699
66.0, -160017.30084625495, 29196.563863344654, -47882.66693147027, -38682.1301200545, 3098.197650694567, -13742.590098689807, -187500.02235174447, -560.9617305948414, 7729.546157067556, -36507.4171432754, 988.1929741135806, -20419.52555412359, -23803.065574534605, -22505.79267809304, -25692.70440253072, -40392.39619879678, 0.06, 1.01, -0.028, 192.0, 0.0, 0.0, 0.0, 0.0, 0.0, 0.0, 0.0, 0.0, 0.0, 1.695756405699359E9, 0.0, 2023-09-26 14:26:45.699
68.0, -160011.0647095519, 29192.808770276162, -47885.01386463808, -38686.26519277873, 3095.113109959735, -13748.133331314724, -187500.02235174447, -571.9587888668524, 7724.852290731942, -36490.42981748936, 996.4407678175888, -20399.3642806249, -23807.312405981113, -22506.39617519333, -25699.856960756417, -40398.09589363288, 0.054, 1.014, -0.028, 192.0, 0.5, 88.0, 15.5, 88.0, 127.5, 16.0, 0.0, 0.0, 0.0, 1.695756405699368E9, 0.0, 2023-09-26 14:26:45.699
70.0, -160032.9694191181, 29192.5405493427, -47885.23738208263, -38687.40513174595, 3100.5669356068297, -13752.022534849946, -187500.02235174447, -563.2416085292826, 7725.455787832236, -36513.318003811604, 990.1375758811922, -20423.213591958713, -23795.264815719704, -22502.50697165811, -25690.580986807465, -40388.305829561454, 0.054, 1.014, -0.028, 192.0, 0.0, 0.0, 0.0, 0.0, 0.0, 0.0, 0.0, 0.0, 0.0, 1.695756405699379E9, 0.0, 2023-09-26 14:26:45.699
72.0, -160017.3679014883, 29187.287889395702, -47886.46672802767, -38694.84826264957, 3100.790453051383, -13759.689183198117, -187500.02235174447, -572.9869691117965, 7709.80956671352, -36489.17811979987, 985.7119304790415, -20399.029004458072, -23808.586455415065, -22513.526381674576, -25701.37687937938, -40407.59538502638, 0.054, 1.014, -0.028, 192.0, 0.0, 0.0, 0.0, 0.0, 0.0, 0.0, 0.0, 0.0, 0.0, 1.695756405699398E9, 0.0, 2023-09-26 14:26:45.699
74.0, -160039.54083198798, 29191.244148164293, -47885.81852743847, -38696.21171906134, 3102.8244617968157, -13764.025421622448, -187500.02235174447, -573.0316726007071, 7729.590860556467, -36515.77669570169, 979.8781251762064, -20426.633408860376, -23797.27647272068, -22504.943311803738, -25688.65873678431, -40398.90055643327, 0.054, 1.014, -0.028, 192.0, 0.0, 0.0, 0.0, 0.0, 0.0, 0.0, 0.0, 0.0, 0.0, 1.695756405699407E9, 0.0, 2023-09-26 14:26:45.699
76.0, -160004.20272400414, 29189.143084185493, -47903.16348113579, -38713.44491403639, 3077.499935328953, -13784.58902652133, -187500.02235174447, -584.7663384397433, 7717.990305184163, -36495.36955301399, 984.5943432562761, -20403.387594626856, -23815.33668224057, -22526.37863473638, -25707.165981193302, -40417.273690375536, 0.054, 1.014, -0.028, 192.0, 0.0, 0.0, 0.0, 0.0, 0.0, 0.0, 0.0, 0.0, 0.0, 1.69575640575939E9, 0.0, 2023-09-26 14:26:45.759
78.0, -160010.17063977369, 29186.237357406302, -47898.76018747809, -38705.77826568821, 3076.315292872822, -13778.82227645186, -187500.02235174447, -588.0296931302182, 7708.446110301747, -36518.14598061395, 970.1104128492372, -20422.721853580697, -23825.551429456646, -22528.770271393096, -25720.778193566584, -40427.264920147056, 0.054, 1.012, -0.03, 192.0, 0.5, 88.0, 15.5, 80.0, 127.5, 8.0, 0.0, 0.0, 0.0, 1.695756405759413E9, 0.0, 2023-09-26 14:26:45.759
80.0, -160014.59628517585, 29195.803904033175, -47877.16840233427, -38686.22048928982, 3087.915848245126, -13755.598813962795, -187500.02235174447, -580.228934315316, 7725.701657021244, -36501.40452401692, 984.661398489642, -20406.38272838387, -23812.09567929455, -22518.711986388207, -25711.725737062185, -40408.62356527133, 0.054, 1.012, -0.03, 192.0, 0.0, 0.0, 0.0, 0.0, 0.0, 0.0, 0.0, 0.0, 0.0, 1.695756405759423E9, 0.0, 2023-09-26 14:26:45.759
82.0, -160039.80905292142, 29192.16056968696, -47882.64457972581, -38690.06498933613, 3087.6476273116623, -13760.87382565425, -187500.02235174447, -575.1103848350507, 7724.6734767763, -36510.00994563221, 985.6672269901309, -20426.387539671367, -23802.529132667678, -22508.139611260845, -25695.766591521096, -40390.071617373425, 0.054, 1.012, -0.03, 192.0, 0.0, 0.0, 0.0, 0.0, 0.0, 0.0, 0.0, 0.0, 0.0, 1.695756405759432E9, 0.0, 2023-09-26 14:26:45.759
84.0, -160026.88974462627, 29198.687279067908, -47877.79425117901, -38685.75110265626, 3093.816708781327, -13753.788322661916, -187500.02235174447, -577.457318002858, 7718.549098795545, -36494.162558813405, 987.1424421241811, -20403.85698126042, -23812.22978976128, -22525.708082402718, -25702.449763113233, -40397.402989554765, 0.054, 1.012, -0.03, 192.0, 0.0, 0.0, 0.0, 0.0, 0.0, 0.0, 0.0, 0.0, 0.0, 1.695756405759442E9, 0.0, 2023-09-26 14:26:45.759
86.0, -160057.2881170855, 29186.68439229541, -47883.56100124848, -38694.28946903819, 3091.8274035248046, -13758.705706442084, -187500.02235174447, -576.5855999691009, 7725.8804709768865, -36509.85348342103, 981.7333199659968, -20428.37684492789, -23803.84788559054, -22509.92775081727, -25694.60430080942, -40390.80922494045, 0.054, 1.012, -0.03, 192.0, 0.0, 0.0, 0.0, 0.0, 0.0, 0.0, 0.0, 0.0, 0.0, 1.695756405759451E9, 0.0, 2023-09-26 14:26:45.759
88.0, -160047.34159080288, 29193.43461912091, -47873.21214356567, -38684.2311840333, 3098.6223338392183, -13753.34128777281, -187500.02235174447, -570.617684199534, 7726.327505865992, -36494.54253846914, 981.0404158878823, -20415.122260465894, -23806.999481558738, -22513.83930609695, -25700.75103053463, -40399.638164000295, 0.056, 1.012, -0.036000000000000004, 192.0, 0.5, 96.0, 15.5, 80.0, 127.0, 112.0, 0.0, 0.0, 0.0, 1.695756405759489E9, 0.0, 2023-09-26 14:26:45.759
90.0, -160066.67584975672, 29188.003145218274, -47882.175193092255, -38691.62961144801, 3091.402720380154, -13764.15953208918, -187500.02235174447, -576.6303034580116, 7735.335258881481, -36505.047858363134, 979.4757937760108, -20426.633408860376, -23799.91397856641, -22511.917056073795, -25696.928882232773, -40395.659553487254, 0.056, 1.012, -0.036000000000000004, 192.0, 0.0, 0.0, 0.0, 0.0, 0.0, 0.0, 0.0, 0.0, 0.0, 1.69575640581977E9, 0.0, 2023-09-26 14:26:45.819
92.0, -160040.45725351063, 29191.02063071974, -47886.89141117232, -38695.541166727686, 3091.313313402333, -13770.90975891468, -187500.02235174447, -574.3504255235703, 7711.709464992222, -36500.19752981634, 982.3144653218347, -20409.80254528553, -23813.03445256167, -22517.639102654353, -25705.288434659058, -40404.91317569175, 0.056, 1.012, -0.036000000000000004, 192.0, 0.0, 0.0, 0.0, 0.0, 0.0, 0.0, 0.0, 0.0, 0.0, 1.695756405819795E9, 0.0, 2023-09-26 14:26:45.819
94.0, -160062.3843148213, 29178.458950335855, -47889.014826895575, -38698.91628014044, 3091.3803686356987, -13774.776610705449, -187500.02235174447, -586.9568093963635, 7712.804700470531, -36508.2665095647, 971.4291657721003, -20420.397272157345, -23815.89547585195, -22534.2688005291, -25712.28453067357, -40411.57399553943, 0.056, 1.012, -0.036000000000000004, 192.0, 0.0, 0.0, 0.0, 0.0, 0.0, 0.0, 0.0, 0.0, 0.0, 1.695756405819805E9, 0.0, 2023-09-26 14:26:45.819
96.0, -160043.7876634345, 29190.52889234172, -47885.99734139411, -38694.80355916066, 3096.431862882598, -13768.831046680338, -187500.02235174447, -578.3513877810702, 7708.513165535112, -36505.27137580769, 975.4301280296003, -20417.379786655878, -23815.582551429576, -22520.12014628889, -25707.5683125935, -40405.60607976986, 0.056, 1.012, -0.036000000000000004, 192.0, 0.0, 0.0, 0.0, 0.0, 0.0, 0.0, 0.0, 0.0, 0.0, 1.695756405819814E9, 0.0, 2023-09-26 14:26:45.819
98.0, -160072.93433820418, 29182.236395148804, -47880.16353609128, -38691.85312889256, 3097.169470449623, -13765.567691989863, -187500.02235174447, -591.360103054059, 7715.866889460909, -36503.97497462928, 975.05014837386, -20424.889972792862, -23812.028624061182, -22517.84026835445, -25705.154324192325, -40402.40978031275, 0.058, 1.014, -0.038, 192.0, 0.5, 104.0, 15.5, 88.0, 127.0, 104.0, 0.0, 0.0, 0.0, 1.695756405819823E9, 0.0, 2023-09-26 14:26:45.819
100.0, -160076.75648650606, 29190.48418885281, -47871.759280176084, -38685.79580614517, 3105.685485087095, -13759.242148309011, -187500.02235174447, -581.1453558379836, 7728.652087289344, -36502.5668147286, 987.5894770132873, -20427.125147238392, -23801.27743497818, -22517.035605554058, -25697.621786310887, -40396.508919776556, 0.058, 1.014, -0.038, 192.0, 0.0, 0.0, 0.0, 0.0, 0.0, 0.0, 0.0, 0.0, 0.0, 1.695756405819832E9, 0.0, 2023-09-26 14:26:45.819
102.0, -160091.6874518022, 29183.890424238496, -47875.246152311105, -38691.87548063701, 3097.594153594274, -13762.974889633047, -187500.02235174447, -579.8266029151205, 7718.52674705109, -36497.22474780378, 990.5846107702984, -20420.486679135167, -23806.619501903, -22513.682843885763, -25702.114486946404, -40399.213480855644, 0.058, 1.014, -0.038, 192.0, 0.0, 0.0, 0.0, 0.0, 0.0, 0.0, 0.0, 0.0, 0.0, 1.695756405819841E9, 0.0, 2023-09-26 14:26:45.819
104.0, -160073.24726262657, 29193.322860398635, -47878.50950700158, -38692.389570759486, 3093.9955227369696, -13762.840779166316, -187500.02235174447, -562.8392771290871, 7724.1817383982825, -36500.64456470544, 987.9024014356615, -20422.18541171377, -23813.459135706322, -22520.723643389185, -25704.215550925204, -40400.554585522965, 0.058, 1.014, -0.038, 192.0, 0.0, 0.0, 0.0, 0.0, 0.0, 0.0, 0.0, 0.0, 0.0, 1.69575640581985E9, 0.0, 2023-09-26 14:26:45.819
106.0, -160098.0800507164, 29188.852511507575, -47874.10621334389, -38683.98531484429, 3099.5387553618857, -13758.370430275254, -187500.02235174447, -574.5068877347575, 7716.895069705853, -36493.02261984618, 988.4611950470443, -20419.123222723392, -23808.161772270414, -22520.231905011166, -25699.856960756417, -40391.47977727411, 0.058, 1.014, -0.038, 192.0, 0.0, 0.0, 0.0, 0.0, 0.0, 0.0, 0.0, 0.0, 0.0, 1.695756405880166E9, 0.0, 2023-09-26 14:26:45.880
108.0, -160088.04411745598, 29187.712572540353, -47884.99151289362, -38695.65292544996, 3091.7603482914387, -13781.459782297587, -187500.02235174447, -578.6419604589893, 7724.204090142738, -36503.393829273446, 994.6302765167089, -20427.013388516116, -23806.686557136367, -22515.64979739783, -25697.51002758861, -40392.776178452514, 0.062, 1.016, -0.034, 192.0, 0.5, 120.0, 15.5, 96.0, 127.0, 120.0, 0.0, 0.0, 0.0, 1.695756405880188E9, 0.0, 2023-09-26 14:26:45.880
110.0, -160105.47847813112, 29178.302488124667, -47883.47159427066, -38695.63057370551, 3086.5970953222627, -13780.29749158591, -187500.02235174447, -598.3338473241148, 7698.656046230322, -36506.90305315293, 983.2979420778684, -20417.402138400335, -23822.936275355372, -22532.815937139505, -25714.497353374645, -40411.93162345071, 0.062, 1.016, -0.034, 192.0, 0.0, 0.0, 0.0, 0.0, 0.0, 0.0, 0.0, 0.0, 0.0, 1.69575640588023E9, 0.0, 2023-09-26 14:26:45.880
112.0, -160100.1364112063, 29182.77283701573, -47890.53474551854, -38701.7325999418, 3079.6457027966626, -13787.830029467348, -187500.02235174447, -587.2697338187378, 7708.8037382130315, -36525.00796616173, 983.0297211444046, -20435.5741066425, -23820.7234526543, -22528.83732662646, -25709.356452149925, -40408.55651003796, 0.062, 1.016, -0.034, 192.0, 0.0, 0.0, 0.0, 0.0, 0.0, 0.0, 0.0, 0.0, 0.0, 1.695756405880239E9, 0.0, 2023-09-26 14:26:45.880
114.0, -160104.785574053, 29174.413284589446, -47879.96237039118, -38690.40026550296, 3088.2287726675004, -13773.323747315855, -187500.02235174447, -584.8333936731093, 7714.458729560224, -36504.8690444075, 987.9694566690275, -20417.960932011716, -23819.494106709255, -22531.36307374991, -25708.551789349534, -40404.466140802644, 0.062, 1.016, -0.034, 192.0, 0.0, 0.0, 0.0, 0.0, 0.0, 0.0, 0.0, 0.0, 0.0, 1.695756405880249E9, 0.0, 2023-09-26 14:26:45.880
116.0, -160096.6942425602, 29162.879784450506, -47894.46865254267, -38707.92403315593, 3078.215191151523, -13784.857247454793, -187500.02235174447, -584.3863587840032, 7699.974799153185, -36526.99727141825, 976.3465495522678, -20430.924943795795, -23828.457156235836, -22547.612791968917, -25713.71504231871, -40410.27759436102, 0.062, 1.016, -0.034, 192.0, 0.0, 0.0, 0.0, 0.0, 0.0, 0.0, 0.0, 0.0, 0.0, 1.695756405880258E9, 0.0, 2023-09-26 14:26:45.880
118.0, -160095.46489661516, 29146.09362436457, -47897.3073240885, -38713.04258263619, 3072.761365504428, -13788.38882307873, -187500.02235174447, -591.0471786316847, 7690.654121715323, -36527.06432665161, 974.0443198733711, -20426.387539671367, -23829.172412058404, -22539.409701753822, -25716.71017607572, -40414.457370574164, 0.064, 1.016, -0.03, 192.0, 1.0, 0.0, 15.5, 96.0, 127.5, 8.0, 0.0, 0.0, 0.0, 1.695756405880267E9, 0.0, 2023-09-26 14:26:45.880
120.0, -160110.93230377822, 29131.296769535158, -47898.22374561116, -38712.729658213815, 3078.8633917407265, -13785.259578854988, -187500.02235174447, -583.1123093500506, 7677.913627375798, -36554.40051012045, 964.7236424355082, -20453.366095228925, -23833.41924350491, -22551.390236781866, -25721.80637381153, -40417.63131828682, 0.064, 1.016, -0.03, 192.0, 0.0, 0.0, 0.0, 0.0, 0.0, 0.0, 0.0, 0.0, 0.0, 1.695756405939056E9, 0.0, 2023-09-26 14:26:45.939
122.0, -160104.3385391639, 29123.51836246471, -47902.314114846486, -38716.99884140478, 3073.431917838087, -13790.087555657336, -187500.02235174447, -585.0569111176624, 7674.09147907394, -36540.4753733248, 967.1823343255919, -20444.00071430215, -23830.021778347706, -22540.54964072104, -25720.12999297738, -40415.55260605247, 0.064, 1.016, -0.03, 192.0, 0.0, 0.0, 0.0, 0.0, 0.0, 0.0, 0.0, 0.0, 0.0, 1.695756405939082E9, 0.0, 2023-09-26 14:26:45.939
124.0, -160119.42596667123, 29113.303615248635, -47909.06434167199, -38721.87152169603, 3068.268664868911, -13794.893180715226, -187500.02235174447, -585.5262977512239, 7667.251845270615, -36569.55499286115, 948.2504067719468, -20469.414647747835, -23843.566935487623, -22553.491300760663, -25730.098871004448, -40423.420420100745, 0.064, 1.016, -0.03, 192.0, 0.0, 0.0, 0.0, 0.0, 0.0, 0.0, 0.0, 0.0, 0.0, 1.695756405939092E9, 0.0, 2023-09-26 14:26:45.939
126.0, -160092.5815215804, 29107.738030879264, -47920.39667611083, -38732.600359034586, 3056.042260651858, -13801.464593585086, -187500.02235174447, -592.7682629547432, 7661.663909156789, -36553.84171650907, 947.4904474604664, -20453.99194407367, -23846.00327563325, -22564.197786354754, -25738.01138854163, -40430.61768181535, 0.064, 1.016, -0.03, 192.0, 0.0, 0.0, 0.0, 0.0, 0.0, 0.0, 0.0, 0.0, 0.0, 1.695756405939102E9, 0.0, 2023-09-26 14:26:45.939
128.0, -160119.31420794895, 29095.466923173302, -47913.82526324097, -38724.01728916375, 3062.300749099344, -13795.697843515616, -187500.02235174447, -595.361065311559, 7647.291737472026, -36578.20511796536, 931.5313019193771, -20480.545816486578, -23847.947877400864, -22565.538891022075, -25739.62071414241, -40430.416516115256, 0.058, 1.014, -0.034, 192.0, 0.5, 104.0, 15.5, 88.0, 127.0, 120.0, 0.0, 0.0, 0.0, 1.695756405939111E9, 0.0, 2023-09-26 14:26:45.939
130.0, -160115.536763136, 29105.5699116671, -47909.73489400565, -38720.508065284266, 3066.1899526345674, -13789.260541112488, -187500.02235174447, -586.1521465959725, 7654.019612553074, -36560.54723984566, 945.277624759391, -20466.77714190211, -23845.019798877216, -22555.815882184015, -25736.692635618765, -40423.59923405638, 0.058, 1.014, -0.034, 192.0, 0.0, 0.0, 0.0, 0.0, 0.0, 0.0, 0.0, 0.0, 0.0, 1.69575640593912E9, 0.0, 2023-09-26 14:26:45.939
132.0, -160129.26073423156, 29089.029620770172, -47926.498702347126, -38739.216475393354, 3052.0636501388135, -13805.376148864765, -187500.02235174447, -590.8683646760422, 7655.785400365044, -36578.62980111001, 930.9054530746286, -20489.39710729088, -23851.121825113514, -22571.19388236927, -25746.37094096791, -40435.73623129562, 0.058, 1.014, -0.034, 192.0, 0.0, 0.0, 0.0, 0.0, 0.0, 0.0, 0.0, 0.0, 0.0, 1.695756405939164E9, 0.0, 2023-09-26 14:26:45.939
134.0, -160099.4435071282, 29097.009193540718, -47920.08375168846, -38737.67420502594, 3060.8478857097493, -13805.107927931302, -187500.02235174447, -581.5700389826345, 7646.956461305197, -36564.279981169704, 928.8490925847403, -20473.32620302751, -23859.54843277317, -22575.060734160037, -25750.34955148096, -40443.469934877154, 0.058, 1.014, -0.034, 192.0, 0.0, 0.0, 0.0, 0.0, 0.0, 0.0, 0.0, 0.0, 0.0, 1.695756405939173E9, 0.0, 2023-09-26 14:26:45.939
136.0, -160137.75439712458, 29088.783751581166, -47913.64644928533, -38730.87927471152, 3065.4746968119975, -13800.592875551329, -187500.02235174447, -583.0229023722294, 7641.524987402558, -36581.58023137811, 926.6362698836649, -20494.940339915793, -23845.466833766324, -22570.635088757885, -25737.56435365252, -40430.1929986707, 0.058, 1.014, -0.034, 192.0, 0.0, 0.0, 0.0, 0.0, 0.0, 0.0, 0.0, 0.0, 0.0, 1.695756405999211E9, 0.0, 2023-09-26 14:26:45.999
138.0, -160116.7437573366, 29098.886740074962, -47918.58618480995, -38740.08819342711, 3063.1277636441905, -13805.890238987236, -187500.02235174447, -582.486460505302, 7647.291737472026, -36567.342170160075, 938.6391566561648, -20482.937453143295, -23846.316200055626, -22569.361039323932, -25738.972513553206, -40437.47966736313, 0.058, 1.014, -0.034, 192.0, 0.5, 104.0, 15.5, 88.0, 127.0, 120.0, 0.0, 0.0, 0.0, 1.695756405999234E9, 0.0, 2023-09-26 14:26:45.999
140.0, -160150.6960571642, 29089.18608298136, -47918.78735051004, -38741.07167018315, 3064.602978778241, -13798.312997616888, -187500.02235174447, -595.7410449672991, 7644.386010692837, -36585.69295235789, 928.245595484447, -20499.47774404022, -23848.841947179073, -22570.031591657593, -25746.460347945733, -40444.587522099915, 0.058, 1.014, -0.034, 192.0, 0.0, 0.0, 0.0, 0.0, 0.0, 0.0, 0.0, 0.0, 0.0, 1.695756405999244E9, 0.0, 2023-09-26 14:26:45.999
142.0, -160129.5513069095, 29098.059725530118, -47928.7115250482, -38749.43122260943, 3056.3551850742324, -13803.49860233052, -187500.02235174447, -585.4368907734026, 7649.191635750728, -36572.01368475124, 942.3942497246563, -20493.66629048184, -23833.41924350491, -22569.584556768485, -25743.442862444266, -40442.32999590993, 0.058, 1.014, -0.034, 192.0, 0.0, 0.0, 0.0, 0.0, 0.0, 0.0, 0.0, 0.0, 0.0, 1.695756405999253E9, 0.0, 2023-09-26 14:26:45.999
144.0, -160153.87000487687, 29087.464998658303, -47929.717353548695, -38748.179524919935, 3050.8343041937715, -13798.82708773936, -187500.02235174447, -598.8926409354974, 7628.0915889849175, -36573.220678951824, 930.1231420186928, -20502.562284775053, -23828.121880069004, -22571.41739981382, -25753.411740471332, -40447.470897134655, 0.058, 1.014, -0.034, 192.0, 0.0, 0.0, 0.0, 0.0, 0.0, 0.0, 0.0, 0.0, 0.0, 1.695756405999263E9, 0.0, 2023-09-26 14:26:45.999
146.0, -160131.80883309947, 29100.004327297727, -47940.80381879852, -38755.53324884573, 3045.112257613213, -13798.469459828075, -187500.02235174447, -584.9675041398411, 7638.015763523074, -36567.208059693345, 938.66150840062, -20498.82954345102, -23811.00044381624, -22561.962611909225, -25755.28928700558, -40445.81686804496, 0.058, 1.014, -0.034, 192.0, 0.0, 0.0, 0.0, 0.0, 0.0, 0.0, 0.0, 0.0, 0.0, 1.695756405999273E9, 0.0, 2023-09-26 14:26:45.999
148.0, -160134.73691162313, 29085.051010257128, -47944.804781056024, -38761.948199504404, 3037.825588920783, -13799.631750539751, -187500.02235174447, -598.4679577908466, 7647.738772361133, -36557.775623533205, 925.6080896387208, -20496.504962027666, -23824.81382188962, -22574.4795888042, -25769.19207205678, -40459.18321122923, 0.054, 1.014, -0.028, 192.0, 0.5, 88.0, 15.5, 88.0, 127.5, 16.0, 0.0, 0.0, 0.0, 1.695756405999282E9, 0.0, 2023-09-26 14:26:45.999
150.0, -160118.6436556153, 29090.750705093233, -47937.138132707856, -38757.16492619097, 3049.0685163818025, -13791.026328924458, -187500.02235174447, -590.1084053645618, 7632.539586131524, -36564.078815469606, 930.9725083079944, -20496.39320330539, -23812.18508627237, -22561.493225275663, -25756.540984695075, -40452.38828091482, 0.054, 1.014, -0.028, 192.0, 0.0, 0.0, 0.0, 0.0, 0.0, 0.0, 0.0, 0.0, 0.0, 1.695756406059487E9, 0.0, 2023-09-26 14:26:46.059
152.0, -160108.83123979942, 29079.217204954293, -47951.040917759055, -38768.98899900782, 3034.651641208129, -13802.269256385478, -187500.02235174447, -607.0510276616845, 7629.4997488856025, -36551.830059508095, 929.7655141074079, -20491.967557903237, -23807.75944087022, -22561.023838642104, -25749.455481702746, -40451.74008032562, 0.054, 1.014, -0.028, 192.0, 0.0, 0.0, 0.0, 0.0, 0.0, 0.0, 0.0, 0.0, 0.0, 1.695756406059516E9, 0.0, 2023-09-26 14:26:46.059
154.0, -160104.51735311953, 29095.19870223984, -47940.37913565387, -38751.040548210214, 3052.845961194749, -13777.481171784542, -187500.02235174447, -594.1764228554276, 7635.825292566454, -36551.65124555245, 931.5760054082878, -20490.849970680472, -23804.22786524628, -22557.98400139618, -25732.80343208354, -40446.86740003436, 0.054, 1.014, -0.028, 192.0, 0.0, 0.0, 0.0, 0.0, 0.0, 0.0, 0.0, 0.0, 0.0, 1.695756406059578E9, 0.0, 2023-09-26 14:26:46.059
156.0, -160101.8798472738, 29079.887757287954, -47955.980653283674, -38760.22711518134, 3048.1520948591346, -13783.985529421036, -187500.02235174447, -591.4271582874248, 7647.716420616677, -36532.18287613188, 930.9278048190838, -20481.90927289835, -23803.24438849025, -22552.306658304533, -25714.095021974448, -40441.52533310954, 0.054, 1.014, -0.028, 192.0, 0.0, 0.0, 0.0, 0.0, 0.0, 0.0, 0.0, 0.0, 0.0, 1.695756406059587E9, 0.0, 2023-09-26 14:26:46.059
158.0, -160081.00331795256, 29077.51847237569, -47964.34020570996, -38767.111452473575, 3042.5194552563976, -13791.87569521376, -187500.02235174447, -578.910181392453, 7654.220778253171, -36546.28682688318, 922.9929355374499, -20492.34753755898, -23798.438763432358, -22551.725512948695, -25710.786963795064, -40453.52821988204, 0.058, 1.014, -0.032, 192.0, 0.5, 104.0, 15.5, 88.0, 127.5, 0.0, 0.0, 0.0, 0.0, 1.695756406059596E9, 0.0, 2023-09-26 14:26:46.059
160.0, -160075.10245741636, 29073.60691709601, -47964.16139175432, -38763.28930417172, 3047.1015628697355, -13790.378128335255, -187500.02235174447, -591.9859518988076, 7634.439484410225, -36535.64739652245, 916.5779848787768, -20482.356307787457, -23798.99755704374, -22558.40868454083, -25713.223303940693, -40468.19096424472, 0.058, 1.014, -0.032, 192.0, 0.0, 0.0, 0.0, 0.0, 0.0, 0.0, 0.0, 0.0, 0.0, 1.695756406059606E9, 0.0, 2023-09-26 14:26:46.059
162.0, -160097.65536757177, 29084.67103060139, -47950.683289847766, -38746.65960629697, 3058.9703391755033, -13772.273215326455, -187500.02235174447, -587.5379547522015, 7654.6231096533675, -36550.019568207215, 918.9249180465839, -20505.19979062078, -23784.603033614523, -22549.51269024762, -25699.633443311865, -40462.73713859763, 0.058, 1.014, -0.032, 192.0, 0.0, 0.0, 0.0, 0.0, 0.0, 0.0, 0.0, 0.0, 0.0, 1.695756406059615E9, 0.0, 2023-09-26 14:26:46.059
164.0, -160094.10144020338, 29082.525263133677, -47960.898037063846, -38752.42635636644, 3050.0296413933806, -13779.671642741161, -187500.02235174447, -594.5340507667125, 7664.6590429138005, -36517.87775968049, 932.4477234420448, -20491.788743947596, -23772.60014684202, -22541.041379099057, -25690.871559485386, -40456.43394666123, 0.058, 1.014, -0.032, 192.0, 0.0, 0.0, 0.0, 0.0, 0.0, 0.0, 0.0, 0.0, 0.0, 1.695756406059624E9, 0.0, 2023-09-26 14:26:46.059
166.0, -160106.3948996538, 29087.666164358398, -47953.834885815966, -38740.22230389385, 3059.6408915091624, -13772.362622304276, -187500.02235174447, -586.5991814850786, 7659.451086455713, -36536.63087327849, 918.9025663021287, -20507.25615111067, -23783.619556858488, -22535.60990519642, -25691.27389088558, -40456.81392631697, 0.058, 1.014, -0.032, 192.0, 0.0, 0.0, 0.0, 0.0, 0.0, 0.0, 0.0, 0.0, 0.0, 1.695756406119778E9, 0.0, 2023-09-26 14:26:46.119
168.0, -160108.56301886597, 29088.13555099196, -47946.32469967898, -38729.20289387738, 3061.1384583876684, -13762.416096021665, -187500.02235174447, -585.2133733288496, 7679.254732043116, -36516.4695997798, 930.1678455076034, -20485.30673805556, -23779.596242856533, -22520.075442799982, -25680.32153610248, -40444.83339128893, 0.06, 1.012, -0.032, 192.0, 0.5, 112.0, 15.5, 80.0, 127.5, 0.0, 0.0, 0.0, 0.0, 1.695756406119799E9, 0.0, 2023-09-26 14:26:46.119
170.0, -160101.9916059961, 29084.84984455703, -47954.594845127445, -38738.165943403954, 3046.5427692583526, -13778.397593307209, -187500.02235174447, -583.4699372613355, 7660.211045767194, -36529.59007377506, 929.1843687515699, -20492.10166836997, -23792.80612382962, -22540.92962037678, -25691.13978041885, -40453.416461159766, 0.06, 1.012, -0.032, 192.0, 0.0, 0.0, 0.0, 0.0, 0.0, 0.0, 0.0, 0.0, 0.0, 1.695756406119809E9, 0.0, 2023-09-26 14:26:46.119
172.0, -160107.71365257667, 29097.210359240817, -47935.68526931826, -38724.01728916375, 3061.361975832221, -13766.774686190449, -187500.02235174447, -586.8897541629975, 7670.895179616831, -36513.78739044516, 942.3048427468351, -20474.24262455018, -23785.5641586261, -22521.930637589772, -25688.23405363966, -40444.520466866554, 0.06, 1.012, -0.032, 192.0, 0.0, 0.0, 0.0, 0.0, 0.0, 0.0, 0.0, 0.0, 0.0, 1.695756406119818E9, 0.0, 2023-09-26 14:26:46.119
174.0, -160095.2860826595, 29087.979088780772, -47953.43255441577, -38747.97835921984, 3045.380478546677, -13790.82516322436, -187500.02235174447, -588.8567076750645, 7670.157572049806, -36526.08084989558, 937.342755477757, -20487.09487761198, -23794.035469774662, -22529.2173062822, -25692.682050786265, -40448.63318784633, 0.06, 1.012, -0.032, 192.0, 0.0, 0.0, 0.0, 0.0, 0.0, 0.0, 0.0, 0.0, 0.0, 1.695756406119827E9, 0.0, 2023-09-26 14:26:46.119
176.0, -160080.15395166326, 29094.058763272616, -47935.57351059598, -38732.33213810112, 3059.9091124426263, -13773.279043826944, -187500.02235174447, -595.7633967117545, 7651.784438107543, -36519.71060272582, 935.3310984767793, -20462.70912441124, -23804.741955368754, -22540.013198854114, -25705.2660829146, -40459.36202518488, 0.06, 1.012, -0.032, 192.0, 0.0, 0.0, 0.0, 0.0, 0.0, 0.0, 0.0, 0.0, 0.0, 1.695756406119869E9, 0.0, 2023-09-26 14:26:46.119
178.0, -160089.11700118985, 29094.081115017074, -47939.216844942195, -38738.300053870684, 3054.522342028897, -13782.44325905362, -187500.02235174447, -594.9587339113634, 7679.411194254303, -36533.50162905474, 935.2640432434134, -20483.362136287946, -23798.349356454535, -22541.086082587968, -25695.766591521096, -40446.91210352327, 0.06, 1.01, -0.032, 192.0, 0.5, 112.0, 15.5, 72.0, 127.5, 0.0, 0.0, 0.0, 0.0, 1.695756406119878E9, 0.0, 2023-09-26 14:26:46.119
180.0, -160057.62339325232, 29101.211321498315, -47940.96028100971, -38741.585760305614, 3048.2638535814112, -13785.907779444193, -187500.02235174447, -595.8304519451203, 7668.414135982292, -36519.93412017037, 943.8024096253407, -20457.635278419886, -23807.04418504765, -22542.695408188752, -25699.499332845135, -40452.701205337195, 0.06, 1.01, -0.032, 192.0, 0.0, 0.0, 0.0, 0.0, 0.0, 0.0, 0.0, 0.0, 0.0, 1.695756406180025E9, 0.0, 2023-09-26 14:26:46.180
182.0, -160073.87311147133, 29085.453341657325, -47944.2683391891, -38743.284492884224, 3048.7332402149727, -13794.960235948593, -187500.02235174447, -610.3143823521593, 7647.89523457232, -36540.90005646945, 927.3068222173241, -20473.99675536117, -23817.14717354145, -22543.23185005568, -25708.551789349534, -40462.267751964064, 0.06, 1.01, -0.032, 192.0, 0.0, 0.0, 0.0, 0.0, 0.0, 0.0, 0.0, 0.0, 0.0, 1.69575640618005E9, 0.0, 2023-09-26 14:26:46.180
184.0, -160046.6263349803, 29094.036411528163, -47938.92627226428, -38739.23882713781, 3057.8974554416486, -13790.601645779807, -187500.02235174447, -605.6875712499108, 7659.473438200169, -36522.48221903828, 937.3651072222123, -20455.62362141891, -23817.258932263725, -22538.98501860917, -25706.048393970537, -40458.62441761785, 0.06, 1.01, -0.032, 192.0, 0.0, 0.0, 0.0, 0.0, 0.0, 0.0, 0.0, 0.0, 0.0, 1.69575640618006E9, 0.0, 2023-09-26 14:26:46.180
186.0, -160079.23753014058, 29087.822626569585, -47932.69013556125, -38731.70628925637, 3063.284225855378, -13783.270273598466, -187500.02235174447, -609.4650160628577, 7669.934054605253, -36534.73097499979, 934.7052496320307, -20472.81211290504, -23808.921731581897, -22538.51563197561, -25699.14170493385, -40450.756603569585, 0.06, 1.01, -0.032, 192.0, 0.0, 0.0, 0.0, 0.0, 0.0, 0.0, 0.0, 0.0, 0.0, 1.695756406180069E9, 0.0, 2023-09-26 14:26:46.180
188.0, -160032.4776807401, 29089.5660626371, -47945.520036878595, -38744.02210045124, 3049.5826065042743, -13794.222628381567, -187500.02235174447, -598.0879781351064, 7659.920473089275, -36512.37923054448, 941.5225316908994, -20453.209633017737, -23818.488278208766, -22551.99373388216, -25707.635367826864, -40460.189039729725, 0.058, 1.018, -0.036000000000000004, 192.0, 0.5, 104.0, 15.5, 104.0, 127.0, 112.0, 0.0, 0.0, 0.0, 1.695756406180078E9, 0.0, 2023-09-26 14:26:46.180
190.0, -160078.70108827366, 29094.28228071717, -47922.47538834517, -38720.910396684456, 3067.151077646146, -13773.770782204962, -187500.02235174447, -596.2998385786818, 7664.212008024694, -36534.46275406632, 933.3641449647123, -20471.582766959997, -23813.839115362065, -22538.22505929769, -25702.47211485769, -40449.907237280284, 0.058, 1.018, -0.036000000000000004, 192.0, 0.0, 0.0, 0.0, 0.0, 0.0, 0.0, 0.0, 0.0, 0.0, 1.695756406180088E9, 0.0, 2023-09-26 14:26:46.180
192.0, -160037.86445115382, 29101.658356387423, -47937.98749899716, -38734.142629402, 3050.879007682682, -13788.63469226774, -187500.02235174447, -587.8285274301204, 7672.70567091771, -36521.78931496016, 944.9647003370167, -20454.461330707232, -23816.14134504096, -22539.901440131838, -25699.968719478693, -40448.81200180197, 0.058, 1.018, -0.036000000000000004, 192.0, 0.0, 0.0, 0.0, 0.0, 0.0, 0.0, 0.0, 0.0, 0.0, 1.695756406180098E9, 0.0, 2023-09-26 14:26:46.180
194.0, -160071.59323353687, 29100.987804053762, -47922.810664512, -38720.17278911743, 3065.295882856355, -13777.190599106623, -187500.02235174447, -597.2386118458047, 7689.380072281369, -36526.63964350696, 942.6177671692094, -20464.206691289746, -23809.368766471, -22530.625466182886, -25697.80060026653, -40443.00054824359, 0.058, 1.018, -0.036000000000000004, 192.0, 0.0, 0.0, 0.0, 0.0, 0.0, 0.0, 0.0, 0.0, 0.0, 1.695756406180107E9, 0.0, 2023-09-26 14:26:46.180
196.0, -160040.30079129944, 29104.541731422156, -47932.936004750256, -38735.26021662477, 3060.691423498562, -13791.361605091288, -187500.02235174447, -589.326094308626, 7669.7105371606995, -36514.368535801, 952.1172585627149, -20452.13674928388, -23820.29876950965, -22541.287248288067, -25702.785039280065, -40454.42228966025, 0.058, 1.018, -0.036000000000000004, 192.0, 0.0, 0.0, 0.0, 0.0, 0.0, 0.0, 0.0, 0.0, 0.0, 1.695756406238877E9, 0.0, 2023-09-26 14:26:46.238
198.0, -160068.86632071334, 29096.651565629432, -47928.62211807038, -38733.42737357943, 3070.593246292263, -13784.097288143312, -187500.02235174447, -597.2609635902601, 7661.641557412334, -36521.40933530442, 943.4224299696006, -20461.345667999467, -23814.397908973446, -22544.930582634282, -25699.38757412286, -40453.617626859865, 0.058, 1.02, -0.036000000000000004, 192.0, 0.5, 104.0, 15.5, 112.0, 127.0, 112.0, 0.0, 0.0, 0.0, 1.695756406238934E9, 0.0, 2023-09-26 14:26:46.238
200.0, -160065.55826253394, 29105.547559922645, -47928.040972714545, -38733.13680090151, 3076.2035341505452, -13780.766878219472, -187500.02235174447, -583.6263994725227, 7672.929188362264, -36525.65616675093, 949.0550695723379, -20465.34663025697, -23814.934350840373, -22538.917963375803, -25695.364260120903, -40451.49421113661, 0.058, 1.02, -0.036000000000000004, 192.0, 0.0, 0.0, 0.0, 0.0, 0.0, 0.0, 0.0, 0.0, 0.0, 1.695756406238945E9, 0.0, 2023-09-26 14:26:46.238
202.0, -160079.21517839615, 29094.975184795283, -47931.14786519383, -38734.835533480116, 3069.3639003472213, -13784.656081754694, -187500.02235174447, -596.389245556503, 7670.6493104278225, -36517.87775968049, 949.6809184170864, -20461.971516844216, -23814.08498455107, -22538.247411042146, -25702.539170091055, -40452.52239138155, 0.058, 1.02, -0.036000000000000004, 192.0, 0.0, 0.0, 0.0, 0.0, 0.0, 0.0, 0.0, 0.0, 0.0, 1.695756406238954E9, 0.0, 2023-09-26 14:26:46.238
204.0, -160073.20255913766, 29102.32890872108, -47926.699868047224, -38727.59356827659, 3067.46400206852, -13780.386898563731, -187500.02235174447, -591.6283239875227, 7674.516162218591, -36529.36655633051, 952.1172585627149, -20466.441865735276, -23822.399833488445, -22539.320294776, -25706.473077115188, -40449.706071580185, 0.058, 1.02, -0.036000000000000004, 192.0, 0.0, 0.0, 0.0, 0.0, 0.0, 0.0, 0.0, 0.0, 0.0, 1.695756406238963E9, 0.0, 2023-09-26 14:26:46.238
206.0, -160074.70012601616, 29097.120952262994, -47938.07690597497, -38739.75291726028, 3051.4825047829754, -13789.81933472387, -187500.02235174447, -602.35716132607, 7671.856304628409, -36517.9671666583, 953.6595289301312, -20456.76356038613, -23819.76232764272, -22540.661399443317, -25707.680071315775, -40445.3474814114, 0.058, 1.02, -0.036000000000000004, 192.0, 0.0, 0.0, 0.0, 0.0, 0.0, 0.0, 0.0, 0.0, 0.0, 1.695756406238971E9, 0.0, 2023-09-26 14:26:46.238
208.0, -160042.71477970062, 29093.18704523886, -47950.482124147675, -38753.43218486693, 3043.41352503461, -13798.44710808362, -187500.02235174447, -601.0607601476622, 7645.436542682236, -36537.27907386769, 933.5653106648101, -20462.41855173332, -23843.790452932175, -22554.22890832769, -25728.020158770105, -40464.48057466514, 0.06, 1.02, -0.038, 192.0, 0.5, 112.0, 15.5, 112.0, 127.0, 104.0, 0.0, 0.0, 0.0, 1.69575640623898E9, 0.0, 2023-09-26 14:26:46.238
210.0, -160042.2230413226, 29087.353239936027, -47942.52490312158, -38749.61003656507, 3053.494161783953, -13789.506410301497, -187500.02235174447, -606.4698823058466, 7646.732943860644, -36530.08181215308, 930.6372321411649, -20459.401066231858, -23838.873069152007, -22556.888765917873, -25726.746109336153, -40463.20652523119, 0.06, 1.02, -0.038, 192.0, 0.0, 0.0, 0.0, 0.0, 0.0, 0.0, 0.0, 0.0, 0.0, 1.695756406299158E9, 0.0, 2023-09-26 14:26:46.299
212.0, -160036.25512555303, 29094.550501650632, -47942.994289755145, -38749.47592609834, 3054.9246734290928, -13791.182791135645, -187500.02235174447, -595.4728240338354, 7653.259653241594, -36548.00791120624, 929.5643484073101, -20478.422400763324, -23833.843926649562, -22556.3746757954, -25723.102774989937, -40461.61955137486, 0.06, 1.02, -0.038, 192.0, 0.0, 0.0, 0.0, 0.0, 0.0, 0.0, 0.0, 0.0, 0.0, 1.695756406299181E9, 0.0, 2023-09-26 14:26:46.299
214.0, -160043.13946284528, 29093.835245828064, -47933.45009487273, -38740.982263205326, 3063.8653712112155, -13782.711479987083, -187500.02235174447, -597.4621292903578, 7659.495789944624, -36535.28976861117, 938.7509153784413, -20469.884034381394, -23824.5232492117, -22547.545736735552, -25718.09598423195, -40452.65650184829, 0.06, 1.02, -0.038, 192.0, 0.0, 0.0, 0.0, 0.0, 0.0, 0.0, 0.0, 0.0, 0.0, 1.695756406299195E9, 0.0, 2023-09-26 14:26:46.299
216.0, -160049.75557920404, 29091.84594057154, -47937.78633329706, -38744.0444521957, 3063.016004921914, -13785.505448043998, -187500.02235174447, -595.584582756112, 7657.484132943647, -36548.74551877326, 934.5711391652989, -20489.44181077979, -23822.53394395518, -22547.299867546542, -25716.397251653347, -40453.57292337095, 0.06, 1.02, -0.038, 192.0, 0.0, 0.0, 0.0, 0.0, 0.0, 0.0, 0.0, 0.0, 0.0, 1.695756406299204E9, 0.0, 2023-09-26 14:26:46.299
218.0, -160043.11711110082, 29096.85273132953, -47933.91948150629, -38736.55661780317, 3062.926597944093, -13776.408288050687, -187500.02235174447, -599.5408415247014, 7667.274197015071, -36525.63381500648, 937.275700244391, -20467.984136102696, -23821.058728821128, -22544.863527400914, -25720.018234255105, -40451.0471762475, 0.062, 1.018, -0.034, 192.0, 0.5, 120.0, 15.5, 104.0, 127.0, 120.0, 0.0, 0.0, 0.0, 1.695756406299213E9, 0.0, 2023-09-26 14:26:46.299
220.0, -160050.3814280488, 29092.04710627164, -47946.212940956706, -38749.855905754084, 3052.1530571166345, -13784.343157332321, -187500.02235174447, -595.0481408891847, 7655.807752109498, -36534.775678488695, 931.5313019193771, -20484.971461888726, -23821.796336388154, -22538.51563197561, -25717.51483887611, -40444.85574303338, 0.062, 1.018, -0.034, 192.0, 0.0, 0.0, 0.0, 0.0, 0.0, 0.0, 0.0, 0.0, 0.0, 1.695756406299262E9, 0.0, 2023-09-26 14:26:46.299
222.0, -160038.80322442093, 29092.650603371934, -47940.37913565387, -38749.00653946478, 3058.657414753129, -13776.2518258395, -187500.02235174447, -598.7808822132209, 7649.213987495183, -36518.50360852523, 930.1007902742375, -20464.117284311928, -23829.887667880976, -22557.201690340244, -25728.55660063703, -40458.982045529134, 0.062, 1.018, -0.034, 192.0, 0.0, 0.0, 0.0, 0.0, 0.0, 0.0, 0.0, 0.0, 0.0, 1.695756406299272E9, 0.0, 2023-09-26 14:26:46.299
224.0, -160061.60200376535, 29093.008231283216, -47938.25571993062, -38746.704309785884, 3061.2502171099445, -13777.34706131781, -187500.02235174447, -596.4563007898689, 7664.256711513604, -36541.30238786965, 927.664450128609, -20487.407802034355, -23816.878952607985, -22539.834384898473, -25717.201914453737, -40449.549609368994, 0.062, 1.018, -0.034, 192.0, 0.0, 0.0, 0.0, 0.0, 0.0, 0.0, 0.0, 0.0, 0.0, 1.695756406299283E9, 0.0, 2023-09-26 14:26:46.299
226.0, -160032.05299759543, 29098.015022041207, -47945.07300198949, -38752.80633602218, 3055.9752054184924, -13788.254712611999, -187500.02235174447, -595.8081002006651, 7664.9496155917195, -36521.16346611542, 935.889892088162, -20466.39716224637, -23822.690406166366, -22546.74107393516, -25718.23009469868, -40455.47282164965, 0.062, 1.018, -0.034, 192.0, 0.0, 0.0, 0.0, 0.0, 0.0, 0.0, 0.0, 0.0, 0.0, 1.695756406359379E9, 0.0, 2023-09-26 14:26:46.359
228.0, -160058.00337290805, 29092.449437671836, -47943.24015894415, -38748.33598713112, 3061.2278653654894, -13790.691052757627, -187500.02235174447, -596.8809839345198, 7662.580330679457, -36547.85144899505, 921.8529965702292, -20484.367964788435, -23822.198667788347, -22550.540870492565, -25718.163039465315, -40455.38341467183, 0.06, 1.014, -0.038, 192.0, 0.5, 112.0, 15.5, 88.0, 127.0, 104.0, 0.0, 0.0, 0.0, 1.695756406359405E9, 0.0, 2023-09-26 14:26:46.359
230.0, -160039.2726110545, 29100.69723137584, -47940.35678390942, -38745.43026035193, 3067.3298916017884, -13786.846552711315, -187500.02235174447, -592.8353181881092, 7652.834970096943, -36529.00892841923, 930.4807699299777, -20468.60998494744, -23826.221981790302, -22551.85962341543, -25721.359338922422, -40461.39603393031, 0.06, 1.014, -0.038, 192.0, 0.0, 0.0, 0.0, 0.0, 0.0, 0.0, 0.0, 0.0, 0.0, 1.695756406359415E9, 0.0, 2023-09-26 14:26:46.359
232.0, -160063.34543983286, 29086.481521902268, -47946.39175491235, -38753.16396393347, 3055.6846327405733, -13791.987453936035, -187500.02235174447, -596.9256874234304, 7663.7202696466775, -36546.84562049456, 927.8879675731621, -20494.96269166025, -23817.169525285903, -22552.329010048987, -25713.51387661861, -40453.3494059264, 0.06, 1.014, -0.038, 192.0, 0.0, 0.0, 0.0, 0.0, 0.0, 0.0, 0.0, 0.0, 0.0, 1.695756406359425E9, 0.0, 2023-09-26 14:26:46.359
234.0, -160024.18518354718, 29087.55440563612, -47953.968996282696, -38758.68484481393, 3045.089905868758, -13794.960235948593, -187500.02235174447, -597.1268531235282, 7648.789304350532, -36536.78733548967, 931.3301362192793, -20474.5331972281, -23832.659284193433, -22559.593326996965, -25729.741243093165, -40471.029635790546, 0.06, 1.014, -0.038, 192.0, 0.0, 0.0, 0.0, 0.0, 0.0, 0.0, 0.0, 0.0, 0.0, 1.695756406359434E9, 0.0, 2023-09-26 14:26:46.359
236.0, -160040.032570366, 29078.32313517608, -47960.965092297214, -38765.12214721706, 3042.072420367291, -13798.1565354057, -187500.02235174447, -599.6749519914332, 7652.030307296552, -36551.91946648592, 920.0425052693494, -20490.313528813545, -23831.541696970668, -22555.03357112808, -25727.439013414267, -40463.36298744238, 0.06, 1.014, -0.038, 192.0, 0.0, 0.0, 0.0, 0.0, 0.0, 0.0, 0.0, 0.0, 0.0, 1.695756406359443E9, 0.0, 2023-09-26 14:26:46.359
238.0, -160011.60115141884, 29085.632155612966, -47957.58997888446, -38765.99386525081, 3040.3513360442325, -13797.754204005505, -187500.02235174447, -597.5962397570896, 7644.788342093032, -36549.170201917914, 918.2767174573801, -20474.488493739187, -23851.30063906916, -22567.70701023424, -25739.777176353597, -40475.76820561507, 0.058, 1.018, -0.03, 192.0, 0.5, 104.0, 15.5, 104.0, 127.5, 8.0, 0.0, 0.0, 0.0, 1.695756406359452E9, 0.0, 2023-09-26 14:26:46.359
240.0, -160038.6244104653, 29079.686591587855, -47948.939853780255, -38759.73537680333, 3048.0626878813136, -13797.262465627487, -187500.02235174447, -609.3979608294918, 7643.022554281063, -36559.586114834085, 913.9404790330505, -20490.02295613563, -23841.354112786546, -22568.28815559008, -25736.491469918667, -40472.57190615796, 0.058, 1.018, -0.03, 192.0, 0.0, 0.0, 0.0, 0.0, 0.0, 0.0, 0.0, 0.0, 0.0, 1.695756406419693E9, 0.0, 2023-09-26 14:26:46.419
242.0, -160040.3678465328, 29100.205492997826, -47929.73970529315, -38742.9939202063, 3070.146211403157, -13784.521971287963, -187500.02235174447, -589.5496117531791, 7682.383976266859, -36547.38206236149, 930.2572524854246, -20487.832485179006, -23825.126746311995, -22551.546698993054, -25715.637292341864, -40455.00343501609, 0.058, 1.018, -0.03, 192.0, 0.0, 0.0, 0.0, 0.0, 0.0, 0.0, 0.0, 0.0, 0.0, 1.695756406419748E9, 0.0, 2023-09-26 14:26:46.419
244.0, -160053.60007925035, 29092.494141160747, -47941.25085368763, -38752.918094744455, 3052.331871072277, -13793.552076047907, -187500.02235174447, -592.9694286548411, 7664.793153380532, -36542.263512881225, 931.1066187747263, -20485.23968282219, -23825.417318989912, -22552.351361793444, -25717.760708065118, -40451.2483419476, 0.058, 1.018, -0.03, 192.0, 0.0, 0.0, 0.0, 0.0, 0.0, 0.0, 0.0, 0.0, 0.0, 1.695756406419758E9, 0.0, 2023-09-26 14:26:46.419
246.0, -160050.85081468234, 29104.04999304414, -47927.6609930588, -38739.797620749196, 3066.592284034763, -13781.660947997683, -187500.02235174447, -585.0569111176624, 7653.237301497138, -36547.73969027277, 936.9180723331061, -20482.892749654384, -23828.613618447023, -22557.80518744054, -25718.386556909867, -40449.39314715781, 0.058, 1.018, -0.03, 192.0, 0.0, 0.0, 0.0, 0.0, 0.0, 0.0, 0.0, 0.0, 0.0, 1.695756406419767E9, 0.0, 2023-09-26 14:26:46.419
248.0, -160071.10149515886, 29099.91492031991, -47928.39860062583, -38739.95408296038, 3059.5514845313414, -13781.437430553131, -187500.02235174447, -585.7498151957769, 7666.961272592697, -36548.94668447336, 944.4506102145447, -20482.065735109536, -23816.81189737462, -22543.65653320033, -25709.08823121646, -40437.52437085204, 0.058, 1.014, -0.03, 192.0, 0.5, 104.0, 15.5, 88.0, 127.5, 8.0, 0.0, 0.0, 0.0, 1.695756406419776E9, 0.0, 2023-09-26 14:26:46.419
250.0, -160057.15400661874, 29103.781772110677, -47926.72221979168, -38738.255350381776, 3060.3561473317322, -13777.81644795137, -187500.02235174447, -575.1103848350507, 7669.5317232050575, -36549.50547808474, 944.0929823032598, -20473.505016983156, -23833.463946993823, -22555.055922872536, -25717.42543189829, -40444.453411633185, 0.058, 1.014, -0.03, 192.0, 0.0, 0.0, 0.0, 0.0, 0.0, 0.0, 0.0, 0.0, 0.0, 1.695756406419786E9, 0.0, 2023-09-26 14:26:46.419
252.0, -160103.57857985242, 29101.166618009403, -47908.326734104965, -38719.591643761596, 3075.3541678612432, -13761.410267521176, -187500.02235174447, -587.6273617300227, 7686.85432515792, -36541.972940203304, 949.6585666726312, -20471.96274661574, -23813.973225828795, -22538.739149420162, -25710.116411461404, -40432.89755974979, 0.058, 1.014, -0.03, 192.0, 0.0, 0.0, 0.0, 0.0, 0.0, 0.0, 0.0, 0.0, 0.0, 1.695756406419794E9, 0.0, 2023-09-26 14:26:46.419
254.0, -160092.1344866913, 29108.073307046096, -47922.43068485626, -38733.33796660161, 3063.2171706220115, -13778.174075862657, -187500.02235174447, -575.9150476354417, 7678.85240064292, -36545.92919897189, 955.4029649976451, -20476.544854229076, -23819.963493342817, -22540.1696610653, -25709.736431805664, -40429.991832970605, 0.058, 1.014, -0.03, 192.0, 0.0, 0.0, 0.0, 0.0, 0.0, 0.0, 0.0, 0.0, 0.0, 1.695756406419803E9, 0.0, 2023-09-26 14:26:46.419
0.0, -160092.3803558803, 29105.43580120037, -47930.03027797107, -38741.56340856116, 3056.9363304300705, -13788.500581801009, -187500.02235174447, -590.5107367647573, 7661.0157085675855, -36534.19453313286, 951.5137614624217, -20458.886976109385, -23831.541696970668, -22551.971382137704, -25723.460402901223, -40441.05594647598, 0.058, 1.014, -0.03, 192.0, 0.0, 0.0, 0.0, 0.0, 0.0, 0.0, 0.0, 0.0, 0.0, 1.695756406480499E9, 0.0, 2023-09-26 14:26:46.480
2.0, -160070.74386724757, 29108.989728568762, -47942.59195835495, -38757.053167468686, 3048.8449989372493, -13802.40336685221, -187500.02235174447, -589.0578733751623, 7668.615301682389, -36546.08566118308, 942.3048427468351, -20468.140598313883, -23837.599019718054, -22565.00244915515, -25732.24463847216, -40452.298873937, 0.052000000000000005, 1.016, -0.03, 192.0, 0.5, 80.0, 15.5, 96.0, 127.5, 8.0, 0.0, 0.0, 0.0, 1.69575640648054E9, 0.0, 2023-09-26 14:26:46.480
4.0, -160079.77397200753, 29095.891606317953, -47929.53853959305, -38748.49244934231, 3058.009214163925, -13790.579294035351, -187500.02235174447, -599.1385101245058, 7653.460818941691, -36542.75525125924, 937.6109764112207, -20458.641106920375, -23838.58249647409, -22576.200673127256, -25737.251429230146, -40455.986911772125, 0.052000000000000005, 1.016, -0.03, 192.0, 0.0, 0.0, 0.0, 0.0, 0.0, 0.0, 0.0, 0.0, 0.0, 1.69575640648055E9, 0.0, 2023-09-26 14:26:46.480
6.0, -160097.1859809382, 29097.120952262994, -47922.25187090062, -38739.171771904446, 3065.4299933230873, -13783.024404409458, -187500.02235174447, -581.8382599160982, 7664.793153380532, -36561.128385201504, 942.729525891486, -20482.602176976467, -23826.780775401687, -22556.642896728863, -25725.18148722428, -40445.012205244566, 0.052000000000000005, 1.016, -0.03, 192.0, 0.0, 0.0, 0.0, 0.0, 0.0, 0.0, 0.0, 0.0, 0.0, 1.695756406480559E9, 0.0, 2023-09-26 14:26:46.480
8.0, -160095.3754896373, 29097.65739412992, -47923.6600308013, -38738.97060620435, 3061.317272343311, -13786.511276544486, -187500.02235174447, -585.9286291514194, 7669.598778438423, -36540.14009715797, 951.3349475067791, -20458.19407203127, -23833.061615593626, -22555.301792061546, -25721.31463543351, -40442.46410637666, 0.052000000000000005, 1.016, -0.03, 192.0, 0.0, 0.0, 0.0, 0.0, 0.0, 0.0, 0.0, 0.0, 0.0, 1.695756406480604E9, 0.0, 2023-09-26 14:26:46.480
10.0, -160108.0936322324, 29097.52328366319, -47928.48800760365, -38741.13872541651, 3057.9198071861038, -13789.998148679513, -187500.02235174447, -580.0501203596735, 7670.80577263901, -36558.401472377955, 946.8422468712624, -20477.595386218476, -23831.206420803835, -22554.050094372047, -25722.923961034296, -40441.793554043004, 0.052000000000000005, 1.016, -0.03, 192.0, 0.0, 0.0, 0.0, 0.0, 0.0, 0.0, 0.0, 0.0, 0.0, 1.695756406480614E9, 0.0, 2023-09-26 14:26:46.480
12.0, -160086.81477151095, 29096.919786562896, -47931.751362294126, -38741.04931843869, 3050.007289648925, -13793.507372558997, -187500.02235174447, -586.9791611408187, 7656.746525376621, -36534.39569883295, 946.8422468712624, -20453.455502206743, -23838.269572051715, -22567.438789300777, -25733.04930127255, -40451.225990203144, 0.048, 1.012, -0.028, 192.0, 0.5, 64.0, 15.5, 80.0, 127.5, 16.0, 0.0, 0.0, 0.0, 1.695756406480622E9, 0.0, 2023-09-26 14:26:46.480
14.0, -160090.3910506238, 29101.546597665143, -47931.885472760856, -38738.70238527088, 3050.8119524493163, -13794.401442337208, -187500.02235174447, -579.8936581484865, 7658.020574810574, -36547.73969027277, 938.7732671228966, -20469.168778558826, -23849.020761134718, -22558.40868454083, -25735.53034490709, -40448.163801212766, 0.048, 1.012, -0.028, 192.0, 0.0, 0.0, 0.0, 0.0, 0.0, 0.0, 0.0, 0.0, 0.0, 1.695756406539395E9, 0.0, 2023-09-26 14:26:46.539
16.0, -160063.16662587723, 29099.51258891971, -47935.28293791806, -38741.92103647245, 3048.532074514875, -13794.848477226315, -187500.02235174447, -581.9276668939194, 7655.5618829204905, -36532.29463485416, 943.7577061364301, -20449.611002160433, -23844.595115732565, -22555.458254272733, -25736.6255803854, -40447.91793202376, 0.048, 1.012, -0.028, 192.0, 0.0, 0.0, 0.0, 0.0, 0.0, 0.0, 0.0, 0.0, 0.0, 1.695756406539419E9, 0.0, 2023-09-26 14:26:46.539
18.0, -160071.19090213667, 29095.913958062407, -47937.20518794122, -38743.910341728966, 3047.5038942699307, -13790.981625435546, -187500.02235174447, -590.5330885092126, 7662.9603103351965, -36562.42478637991, 927.9550228065281, -20472.074505338016, -23852.86526118103, -22556.285268817577, -25745.968609567717, -40452.209466959175, 0.048, 1.012, -0.028, 192.0, 0.0, 0.0, 0.0, 0.0, 0.0, 0.0, 0.0, 0.0, 0.0, 1.695756406539429E9, 0.0, 2023-09-26 14:26:46.539
20.0, -160083.41730635375, 29105.011118055718, -47919.39084761034, -38729.225245621834, 3063.686557255573, -13772.832008937838, -187500.02235174447, -586.1297948515171, 7659.607548666901, -36553.95347523135, 940.1590752791257, -20466.106589568448, -23832.86044989353, -22548.1715855803, -25732.691673361263, -40437.01028072957, 0.048, 1.012, -0.028, 192.0, 0.0, 0.0, 0.0, 0.0, 0.0, 0.0, 0.0, 0.0, 0.0, 1.695756406539438E9, 0.0, 2023-09-26 14:26:46.539
22.0, -160110.4405654002, 29103.714716877308, -47924.73291453516, -38737.271873625745, 3063.0607084108246, -13782.979700920547, -187500.02235174447, -582.9111436499529, 7670.515199961091, -36562.46948986882, 937.9015490891396, -20483.67506071032, -23832.99456036026, -22546.69637044625, -25728.28837970357, -40433.3445946389, 0.048, 1.008, -0.028, 192.0, 0.5, 64.0, 15.5, 64.0, 127.5, 16.0, 0.0, 0.0, 0.0, 1.695756406539447E9, 0.0, 2023-09-26 14:26:46.539
24.0, -160072.71082075965, 29110.397888469448, -47932.019583227586, -38748.42539410894, 3054.6564524956293, -13797.374224349765, -187500.02235174447, -581.4806320048133, 7657.014746310085, -36541.36944310301, 945.5458456928546, -20457.009429575137, -23848.86429892353, -22566.388257311377, -25736.08913851847, -40445.705109322684, 0.048, 1.008, -0.028, 192.0, 0.0, 0.0, 0.0, 0.0, 0.0, 0.0, 0.0, 0.0, 0.0, 1.695756406539456E9, 0.0, 2023-09-26 14:26:46.539
26.0, -160094.12379194782, 29102.485370932267, -47930.142036693345, -38745.47496384084, 3052.0860018832686, -13794.244980126023, -187500.02235174447, -589.035521630707, 7652.767914863577, -36565.06229222564, 935.308746732324, -20474.644955950374, -23843.701045954353, -22560.04036188607, -25742.10175777695, -40449.706071580185, 0.048, 1.008, -0.028, 192.0, 0.0, 0.0, 0.0, 0.0, 0.0, 0.0, 0.0, 0.0, 0.0, 1.695756406539465E9, 0.0, 2023-09-26 14:26:46.539
28.0, -160075.8847684723, 29104.877007588984, -47926.90103374732, -38741.63046379453, 3056.154019374135, -13795.451974326608, -187500.02235174447, -586.0850913626065, 7653.885502086342, -36546.018605949714, 947.0657643158155, -20463.46908372272, -23845.10920585504, -22557.067579873514, -25738.391368197368, -40449.46020239117, 0.048, 1.008, -0.028, 192.0, 0.0, 0.0, 0.0, 0.0, 0.0, 0.0, 0.0, 0.0, 0.0, 1.695756406539474E9, 0.0, 2023-09-26 14:26:46.539
30.0, -160126.17619349674, 29105.27933898918, -47914.02642894106, -38727.50416129878, 3068.6486445246514, -13785.706613744094, -187500.02235174447, -588.1191001080394, 7685.468517001691, -36552.18768741938, 945.9481770930502, -20487.206636334256, -23832.905153382442, -22550.116187347914, -25728.55660063703, -40436.987928985116, 0.048, 1.008, -0.028, 192.0, 0.0, 0.0, 0.0, 0.0, 0.0, 0.0, 0.0, 0.0, 0.0, 1.695756406599264E9, 0.0, 2023-09-26 14:26:46.599
32.0, -160081.15978016375, 29108.96737682431, -47931.43843787175, -38746.637254552516, 3046.3192518137994, -13804.191506408633, -187500.02235174447, -578.4631465033468, 7664.6590429138005, -36527.712527240816, 953.3466045077569, -20467.76061865814, -23838.046054607163, -22558.386332796377, -25737.452594930244, -40443.51463836606, 0.048, 1.01, -0.03, 192.0, 0.5, 64.0, 15.5, 72.0, 127.5, 8.0, 0.0, 0.0, 0.0, 1.695756406599286E9, 0.0, 2023-09-26 14:26:46.599
34.0, -160119.4930219046, 29102.15009476544, -47917.06626618699, -38731.728641000824, 3060.1549816316347, -13787.830029467348, -187500.02235174447, -588.1191001080394, 7658.579368421957, -36551.763004274726, 941.0531450573379, -20473.34855477197, -23840.43769126388, -22560.576803752996, -25741.34179846547, -40443.78285929953, 0.048, 1.01, -0.03, 192.0, 0.0, 0.0, 0.0, 0.0, 0.0, 0.0, 0.0, 0.0, 0.0, 1.695756406599297E9, 0.0, 2023-09-26 14:26:46.599
36.0, -160083.75258252057, 29111.359013481026, -47936.10995246291, -38750.88408599902, 3047.280376825378, -13807.83484075485, -187500.02235174447, -572.6293412005116, 7660.099287044917, -36545.48216408279, 950.6643951731199, -20470.04049659258, -23838.20251681835, -22556.888765917873, -25734.23394372868, -40439.08899296391, 0.048, 1.01, -0.03, 192.0, 0.0, 0.0, 0.0, 0.0, 0.0, 0.0, 0.0, 0.0, 0.0, 1.695756406599306E9, 0.0, 2023-09-26 14:26:46.599
38.0, -160091.15100993527, 29101.010155798216, -47936.46758037419, -38749.81120226517, 3041.200702333534, -13806.337273876343, -187500.02235174447, -592.1424141099947, 7638.41809492327, -36554.89224849847, 930.8831013301732, -20468.721743669717, -23869.76317998924, -22579.84400747347, -25758.083255062495, -40461.999531030604, 0.048, 1.01, -0.03, 192.0, 0.0, 0.0, 0.0, 0.0, 0.0, 0.0, 0.0, 0.0, 0.0, 1.695756406599315E9, 0.0, 2023-09-26 14:26:46.599
40.0, -160084.89252148778, 29115.33762399407, -47919.83788249944, -38735.55078930269, 3053.136533872668, -13795.094346415324, -187500.02235174447, -577.5020214917686, 7660.635728911845, -36561.128385201504, 942.1707322801033, -20475.20374956176, -23853.71462747033, -22564.644821243863, -25745.163946767327, -40448.25320819059, 0.048, 1.01, -0.03, 192.0, 0.0, 0.0, 0.0, 0.0, 0.0, 0.0, 0.0, 0.0, 0.0, 1.695756406599324E9, 0.0, 2023-09-26 14:26:46.599
42.0, -160106.37254790933, 29108.7215076353, -47917.71446677619, -38732.26508286775, 3054.4105833066205, -13794.222628381567, -187500.02235174447, -577.6361319585004, 7677.935979120252, -36548.99138796227, 954.5312469638881, -20472.655650693854, -23835.65441795044, -22557.201690340244, -25733.51868790611, -40436.16091444027, 0.058, 1.012, -0.034, 192.0, 0.5, 104.0, 15.5, 80.0, 127.0, 120.0, 0.0, 0.0, 0.0, 1.695756406599332E9, 0.0, 2023-09-26 14:26:46.599
44.0, -160112.51927763454, 29122.15490605294, -47903.074074157965, -38720.508065284266, 3064.1559438891345, -13782.286796842433, -187500.02235174447, -565.7673556527324, 7669.174095293773, -36560.32372240111, 958.308691776835, -20471.582766959997, -23836.012045861728, -22551.256126315133, -25732.758728594632, -40433.07637370544, 0.058, 1.012, -0.034, 192.0, 0.0, 0.0, 0.0, 0.0, 0.0, 0.0, 0.0, 0.0, 0.0, 1.695756406659388E9, 0.0, 2023-09-26 14:26:46.659
46.0, -160120.3423881939, 29119.38328974048, -47905.68922825924, -38725.76072523126, 3062.211342121523, -13785.796020721917, -187500.02235174447, -570.5506289661681, 7682.115755333395, -36541.078870425095, 970.0433576158712, -20464.161987800835, -23833.19572606036, -22548.70802744723, -25725.583818624476, -40426.66142304676, 0.058, 1.012, -0.034, 192.0, 0.0, 0.0, 0.0, 0.0, 0.0, 0.0, 0.0, 0.0, 0.0, 1.695756406659432E9, 0.0, 2023-09-26 14:26:46.659
48.0, -160111.0887659894, 29128.569856711612, -47902.47057705767, -38724.57608277513, 3063.619502022207, -13784.521971287963, -187500.02235174447, -561.4087654839475, 7677.913627375798, -36546.13036467199, 972.3902907836784, -20467.492397724676, -23840.43769126388, -22560.554452008542, -25726.23201921368, -40429.47774284813, 0.058, 1.012, -0.034, 192.0, 0.0, 0.0, 0.0, 0.0, 0.0, 0.0, 0.0, 0.0, 0.0, 1.695756406659442E9, 0.0, 2023-09-26 14:26:46.659
50.0, -160120.72236784964, 29132.749632924755, -47894.826280453955, -38711.52266401323, 3066.301711356844, -13772.183808348635, -187500.02235174447, -568.650730687467, 7678.226551798171, -36535.49093431127, 979.4534420315555, -20453.4778539512, -23836.66024645093, -22545.243507056657, -25722.275760445093, -40422.81692300045, 0.058, 1.012, -0.034, 192.0, 0.0, 0.0, 0.0, 0.0, 0.0, 0.0, 0.0, 0.0, 0.0, 1.695756406659483E9, 0.0, 2023-09-26 14:26:46.659
52.0, -160109.45708864418, 29138.58343822759, -47906.00215268161, -38723.88317869701, 3057.070440896802, -13787.830029467348, -187500.02235174447, -561.9005038619642, 7700.622999742389, -36539.91657971342, 981.8674304327286, -20465.078409323505, -23832.905153382442, -22541.644876199352, -25719.70530983273, -40415.172626396736, 0.058, 1.008, -0.032, 192.0, 0.5, 104.0, 15.5, 64.0, 127.5, 0.0, 0.0, 0.0, 0.0, 1.695756406659492E9, 0.0, 2023-09-26 14:26:46.659
54.0, -160118.8895248043, 29123.38425199798, -47903.18583288024, -38722.22914960732, 3061.697251999051, -13792.92622720316, -187500.02235174447, -584.5428209951903, 7679.142973320839, -36524.918559183905, 980.436918787589, -20447.934621326283, -23839.789490674673, -22554.854757172438, -25733.65279837284, -40428.47191434764, 0.058, 1.008, -0.032, 192.0, 0.0, 0.0, 0.0, 0.0, 0.0, 0.0, 0.0, 0.0, 0.0, 1.695756406659502E9, 0.0, 2023-09-26 14:26:46.659
56.0, -160124.9915510406, 29122.557237453133, -47907.56677479348, -38729.06878341064, 3056.131667629679, -13798.804735994905, -187500.02235174447, -577.6584837029558, 7683.90389488982, -36555.78631827668, 970.4680407605221, -20472.208615804746, -23845.489185510778, -22559.727437463695, -25736.58087689649, -40432.31641439396, 0.058, 1.008, -0.032, 192.0, 0.0, 0.0, 0.0, 0.0, 0.0, 0.0, 0.0, 0.0, 0.0, 1.695756406659517E9, 0.0, 2023-09-26 14:26:46.659
58.0, -160111.82637355643, 29117.014004828216, -47915.54634756403, -38740.199952149385, 3049.8284756932826, -13810.82997451186, -187500.02235174447, -590.711902464855, 7688.016615869596, -36544.85631523804, 974.2231338290136, -20455.154234785346, -23842.561106987134, -22567.103513133945, -25738.279609475092, -40439.20075168619, 0.058, 1.008, -0.032, 192.0, 0.0, 0.0, 0.0, 0.0, 0.0, 0.0, 0.0, 0.0, 0.0, 1.695756406659527E9, 0.0, 2023-09-26 14:26:46.659
60.0, -160105.1432019643, 29114.75647863823, -47925.40346686882, -38752.359301133074, 3044.0617256238133, -13824.643352585239, -187500.02235174447, -593.7964431996875, 7671.610435439401, -36566.872783526516, 958.7557266659411, -20475.561377473045, -23854.00520014825, -22582.101533663455, -25751.355379981447, -40458.13267923983, 0.058, 1.008, -0.032, 192.0, 0.0, 0.0, 0.0, 0.0, 0.0, 0.0, 0.0, 0.0, 0.0, 1.695756406719673E9, 0.0, 2023-09-26 14:26:46.719
62.0, -160089.2287599121, 29124.054804331638, -47906.56094629299, -38728.28647235471, 3053.6506239951404, -13800.30230287341, -187500.02235174447, -586.9344576519081, 7661.462743456691, -36536.09443141156, 968.5234389929103, -20452.404970217343, -23858.162624616936, -22572.669097503316, -25748.00261831315, -40451.181286714236, 0.058, 1.008, -0.034, 192.0, 0.5, 104.0, 15.5, 64.0, 127.0, 120.0, 0.0, 0.0, 0.0, 1.695756406719694E9, 0.0, 2023-09-26 14:26:46.719
64.0, -160109.07710898842, 29130.402699756945, -47900.48127180115, -38719.591643761596, 3059.663243253618, -13792.501544058508, -187500.02235174447, -581.9947221272853, 7680.171153565783, -36550.287789140675, 968.0093488704383, -20470.688697181788, -23845.5785924886, -22562.879033431895, -25738.43607168628, -40435.8926935068, 0.058, 1.008, -0.034, 192.0, 0.0, 0.0, 0.0, 0.0, 0.0, 0.0, 0.0, 0.0, 0.0, 1.695756406719705E9, 0.0, 2023-09-26 14:26:46.719
66.0, -160100.71755656213, 29144.640760974977, -47885.259733827086, -38697.88809989549, 3073.3201591158104, -13771.96029090408, -187500.02235174447, -567.2202190423274, 7693.04575837204, -36522.34810857155, 989.2211543585247, -20443.218403246214, -23831.228772548293, -22540.147309320844, -25724.890914546362, -40417.29604211999, 0.058, 1.008, -0.034, 192.0, 0.0, 0.0, 0.0, 0.0, 0.0, 0.0, 0.0, 0.0, 0.0, 1.695756406719714E9, 0.0, 2023-09-26 14:26:46.719
68.0, -160114.77680382453, 29143.76904294122, -47892.032312397045, -38702.7831319312, 3064.1559438891345, -13781.258616597488, -187500.02235174447, -560.6488061724671, 7686.7872699245545, -36530.05946040863, 990.6516660036643, -20452.650839406353, -23835.788528417175, -22533.55354470653, -25719.012405754616, -40408.35534433786, 0.058, 1.008, -0.034, 192.0, 0.0, 0.0, 0.0, 0.0, 0.0, 0.0, 0.0, 0.0, 0.0, 1.695756406719723E9, 0.0, 2023-09-26 14:26:46.719
70.0, -160074.67777427172, 29153.357941312548, -47890.13241411834, -38697.82104466212, 3061.116106643213, -13779.984567163536, -187500.02235174447, -559.8888468609866, 7678.762993665099, -36501.73980018375, 993.2221166160247, -20417.156269211326, -23846.71853145582, -22535.78871915206, -25728.869525059406, -40417.31839386444, 0.058, 1.008, -0.034, 192.0, 0.0, 0.0, 0.0, 0.0, 0.0, 0.0, 0.0, 0.0, 0.0, 1.695756406719732E9, 0.0, 2023-09-26 14:26:46.719
72.0, -160100.5387426065, 29153.045016890173, -47884.276257071055, -38689.12621606901, 3067.531057301886, -13770.887407170227, -187500.02235174447, -559.7547363942548, 7681.244037299638, -36508.199454331334, 994.3620555832453, -20430.097929250947, -23840.035359863683, -22524.07640505748, -25724.019196512607, -40406.366039081346, 0.064, 1.008, -0.04, 192.0, 1.0, 0.0, 15.5, 64.0, 127.0, 96.0, 0.0, 0.0, 0.0, 1.69575640671977E9, 0.0, 2023-09-26 14:26:46.719
74.0, -160076.39885859477, 29165.807862974154, -47878.57656223495, -38681.25840202074, 3072.3590341042323, -13759.353907031287, -187500.02235174447, -550.2775967452046, 7681.869886144386, -36487.14411105443, 1008.1977854010804, -20408.953178996228, -23843.410473276435, -22518.13084103237, -25721.918132533807, -40401.56041402345, 0.064, 1.008, -0.04, 192.0, 0.0, 0.0, 0.0, 0.0, 0.0, 0.0, 0.0, 0.0, 0.0, 1.695756406779915E9, 0.0, 2023-09-26 14:26:46.779
76.0, -160092.0897832024, 29163.840909462084, -47878.77772793505, -38682.040713076676, 3070.4814875699867, -13760.15856983168, -187500.02235174447, -552.9151025909308, 7687.658987958311, -36499.88460539396, 1006.9907912004937, -20425.404062915335, -23841.86820290902, -22512.74407061864, -25716.352548164436, -40394.966649409136, 0.064, 1.008, -0.04, 192.0, 0.0, 0.0, 0.0, 0.0, 0.0, 0.0, 0.0, 0.0, 0.0, 1.695756406779941E9, 0.0, 2023-09-26 14:26:46.779
78.0, -160061.82552120992, 29175.06148517865, -47877.59308547892, -38684.38764624449, 3076.0917754282686, -13760.069162853857, -187500.02235174447, -544.2873292311823, 7682.51808673359, -36483.254907519215, 1011.1482156691809, -20407.723833051186, -23838.358979029534, -22508.89957057233, -25712.061013229017, -40397.827672699415, 0.064, 1.008, -0.04, 192.0, 0.0, 0.0, 0.0, 0.0, 0.0, 0.0, 0.0, 0.0, 0.0, 1.695756406779951E9, 0.0, 2023-09-26 14:26:46.779
80.0, -160090.36869887935, 29164.131482140005, -47871.58046622044, -38679.00087583076, 3078.0587289403356, -13754.05654359538, -187500.02235174447, -547.8189048551208, 7687.122546091384, -36494.76605591369, 1002.6322010317089, -20420.71019657972, -23834.04509234966, -22499.556541390008, -25705.109620703417, -40394.050227886466, 0.064, 1.008, -0.04, 192.0, 0.0, 0.0, 0.0, 0.0, 0.0, 0.0, 0.0, 0.0, 0.0, 1.695756406779961E9, 0.0, 2023-09-26 14:26:46.779
82.0, -160071.86145447035, 29178.615412547042, -47865.880771384334, -38674.195250772864, 3082.7078917870394, -13748.133331314724, -187500.02235174447, -535.8830733159868, 7691.257618815615, -36478.02459931667, 1017.4514076055775, -20410.294283663545, -23833.061615593626, -22496.96373903319, -25700.527513090077, -40387.38940803878, 0.06, 1.014, -0.048, 192.0, 0.5, 112.0, 15.5, 88.0, 127.0, 64.0, 0.0, 0.0, 0.0, 1.69575640677997E9, 0.0, 2023-09-26 14:26:46.779
84.0, -160082.36677436435, 29170.501729309766, -47872.80981216548, -38679.313800253134, 3076.002368450447, -13749.72030517105, -187500.02235174447, -547.0142420547297, 7683.14393557834, -36474.91770683738, 1014.791550015396, -20410.60720808592, -23844.393950032467, -22505.6138641374, -25704.439068369757, -40387.50116676107, 0.06, 1.014, -0.048, 192.0, 0.0, 0.0, 0.0, 0.0, 0.0, 0.0, 0.0, 0.0, 0.0, 1.69575640677998E9, 0.0, 2023-09-26 14:26:46.779
86.0, -160086.0771639439, 29191.378258631023, -47859.57757944794, -38661.65592213344, 3094.5766680928077, -13727.167395015646, -187500.02235174447, -531.3233174471042, 7690.7211769486885, -36477.801081872116, 1019.2618989064574, -20410.450745874732, -23835.944990628363, -22489.699422085218, -25699.81225726751, -40380.75093993556, 0.06, 1.014, -0.048, 192.0, 0.0, 0.0, 0.0, 0.0, 0.0, 0.0, 0.0, 0.0, 0.0, 1.695756406779989E9, 0.0, 2023-09-26 14:26:46.779
88.0, -160102.25982692957, 29188.137255685004, -47865.27727428404, -38667.55678266964, 3089.949856990559, -13729.804900861373, -187500.02235174447, -533.2902709591712, 7688.1954298252385, -36463.38420669844, 1018.7031052950747, -20408.528495851577, -23827.116051568515, -22474.880215511348, -25693.330251375468, -40372.61490495383, 0.06, 1.014, -0.048, 192.0, 0.0, 0.0, 0.0, 0.0, 0.0, 0.0, 0.0, 0.0, 0.0, 1.695756406779998E9, 0.0, 2023-09-26 14:26:46.779
90.0, -160084.24432089858, 29191.95940398686, -47873.5474197325, -38674.485823450785, 3079.9586272190368, -13735.549299186385, -187500.02235174447, -528.0599627566294, 7674.8737901298755, -36465.86525033299, 1016.400875616178, -20408.550847596034, -23812.386251972468, -22477.383610890345, -25700.259292156614, -40378.78398642349, 0.06, 1.014, -0.048, 192.0, 0.0, 0.0, 0.0, 0.0, 0.0, 0.0, 0.0, 0.0, 0.0, 1.695756406839333E9, 0.0, 2023-09-26 14:26:46.839
92.0, -160081.69622203067, 29176.715514268344, -47886.75730070559, -38684.25353577775, 3069.3191968583105, -13741.42780797813, -187500.02235174447, -540.3534222070482, 7666.737755148144, -36456.54457289512, 1005.8508522332731, -20402.828801015476, -23807.53592342567, -22487.754820317605, -25715.592588852953, -40391.41272204074, 0.054, 1.018, -0.04, 192.0, 0.5, 88.0, 15.5, 104.0, 127.0, 96.0, 0.0, 0.0, 0.0, 1.695756406839358E9, 0.0, 2023-09-26 14:26:46.839
94.0, -160088.40174536727, 29181.811712004153, -47879.26946631306, -38673.36823622802, 3083.0208162094136, -13723.345246713789, -187500.02235174447, -531.0327447691852, 7663.675566157766, -36463.78653809864, 1005.2697068774352, -20411.61303658641, -23801.880932078475, -22483.128009215357, -25708.216513182702, -40385.3330475489, 0.054, 1.018, -0.04, 192.0, 0.0, 0.0, 0.0, 0.0, 0.0, 0.0, 0.0, 0.0, 0.0, 1.69575640683941E9, 0.0, 2023-09-26 14:26:46.839
96.0, -160106.797231054, 29180.738828270296, -47873.88269589934, -38670.574268171105, 3083.9372377320815, -13714.605714631763, -187500.02235174447, -539.6158146400231, 7686.563752480001, -36441.21127619878, 1011.3493813692787, -20402.068841703993, -23790.749763339732, -22468.062933452482, -25700.460457856712, -40377.66639920073, 0.054, 1.018, -0.04, 192.0, 0.0, 0.0, 0.0, 0.0, 0.0, 0.0, 0.0, 0.0, 0.0, 1.69575640683942E9, 0.0, 2023-09-26 14:26:46.839
98.0, -160097.45420187167, 29184.76214227225, -47882.242248325616, -38677.83858511908, 3079.4221853521094, -13722.898211824682, -187500.02235174447, -524.5507388771462, 7687.435470513758, -36442.59708435501, 1017.563166327854, -20410.47309761919, -23778.74687656723, -22463.950212472704, -25683.853111726417, -40368.05514908495, 0.054, 1.018, -0.04, 192.0, 0.0, 0.0, 0.0, 0.0, 0.0, 0.0, 0.0, 0.0, 0.0, 1.695756406839445E9, 0.0, 2023-09-26 14:26:46.839
100.0, -160101.45516412918, 29178.034267191204, -47882.82339368146, -38672.20594551635, 3079.2210196520114, -13713.823403575827, -187500.02235174447, -535.3242797046041, 7679.388842509848, -36421.16176142237, 1016.5796895718205, -20385.61795778489, -23783.731315580764, -22470.476921853653, -25679.65098376882, -40372.57020146492, 0.054, 1.018, -0.04, 192.0, 0.0, 0.0, 0.0, 0.0, 0.0, 0.0, 0.0, 0.0, 0.0, 1.695756406839454E9, 0.0, 2023-09-26 14:26:46.839
102.0, -160092.3803558803, 29179.710648025353, -47890.11006237389, -38673.010608316734, 3075.3541678612432, -13718.964304800547, -187500.02235174447, -522.4720266428026, 7680.752298921621, -36434.5504563511, 1006.8566807337619, -20400.548923081034, -23787.352298182526, -22470.92395674276, -25672.27490809857, -40380.639181213286, 0.06, 1.01, -0.036000000000000004, 192.0, 0.5, 112.0, 15.5, 72.0, 127.0, 112.0, 0.0, 0.0, 0.0, 1.695756406839464E9, 0.0, 2023-09-26 14:26:46.839
104.0, -160085.20544591016, 29184.426866105423, -47878.107175601384, -38654.03397727418, 3087.066481955824, -13700.457060391553, -187500.02235174447, -519.7451138192552, 7683.5015634896245, -36410.25411012818, 1027.7108583105635, -20371.22343435567, -23787.151132482428, -22446.96288668667, -25652.02422762206, -40369.08332932989, 0.06, 1.01, -0.036000000000000004, 192.0, 0.0, 0.0, 0.0, 0.0, 0.0, 0.0, 0.0, 0.0, 0.0, 1.695756406899869E9, 0.0, 2023-09-26 14:26:46.899
106.0, -160079.2822336295, 29192.518197598245, -47887.58431525044, -38654.905695307934, 3074.2365806384782, -13703.228676704011, -187500.02235174447, -513.3748666494926, 7686.9660838801965, -36426.548531836095, 1034.6398990917087, -20377.92895769226, -23778.724524822777, -22452.997857689603, -25644.044654851517, -40368.546887462966, 0.06, 1.01, -0.036000000000000004, 192.0, 0.0, 0.0, 0.0, 0.0, 0.0, 0.0, 0.0, 0.0, 0.0, 1.695756406899907E9, 0.0, 2023-09-26 14:26:46.899
108.0, -160088.75937327856, 29201.01186049126, -47867.46774524066, -38627.54716009464, 3091.7379965469836, -13677.188894413579, -187500.02235174447, -514.6712678279005, 7709.898973691342, -36406.09668565949, 1045.2569777079796, -20354.571384736468, -23774.544748609635, -22437.597505759895, -25638.3002565265, -40364.85884962784, 0.06, 1.01, -0.036000000000000004, 192.0, 0.0, 0.0, 0.0, 0.0, 0.0, 0.0, 0.0, 0.0, 0.0, 1.695756406899917E9, 0.0, 2023-09-26 14:26:46.899
110.0, -160111.71461483414, 29211.897160040997, -47865.321977772954, -38622.80859027011, 3099.0917204727793, -13676.540693824374, -187500.02235174447, -496.2087269078168, 7697.851383429931, -36407.460142071264, 1051.2025417330913, -20372.341021578435, -23757.73623677924, -22420.565476484953, -25617.35667197188, -40347.200971508144, 0.06, 1.01, -0.036000000000000004, 192.0, 0.0, 0.0, 0.0, 0.0, 0.0, 0.0, 0.0, 0.0, 0.0, 1.695756406899926E9, 0.0, 2023-09-26 14:26:46.899
112.0, -160095.21902742615, 29221.955445045885, -47865.07610858394, -38617.60063381203, 3098.532926861397, -13675.601920557252, -187500.02235174447, -493.86179374000955, 7694.9456566507415, -36374.334856788504, 1068.6145506637754, -20339.59571595141, -23761.29016414764, -22415.469278749144, -25610.606445146375, -40343.89291332876, 0.066, 1.008, -0.036000000000000004, 192.0, 1.0, 8.0, 15.5, 64.0, 127.0, 112.0, 0.0, 0.0, 0.0, 1.695756406899943E9, 0.0, 2023-09-26 14:26:46.899
114.0, -160104.4502978862, 29221.866038068063, -47862.57271320495, -38611.87858723147, 3102.1539094631567, -13673.18793215608, -187500.02235174447, -487.0668634255962, 7703.372264310392, -36386.67301972783, 1062.8701523387615, -20347.150605577302, -23770.94611775233, -22418.464412506153, -25613.4451166922, -40345.01050055152, 0.066, 1.008, -0.036000000000000004, 192.0, 0.0, 0.0, 0.0, 0.0, 0.0, 0.0, 0.0, 0.0, 0.0, 1.695756406899953E9, 0.0, 2023-09-26 14:26:46.899
116.0, -160063.99364042206, 29226.49284917031, -47873.7485854326, -38621.82511351408, 3084.6524935546513, -13684.90024625066, -187500.02235174447, -484.4964128132359, 7691.794060682543, -36356.54286820208, 1073.9566175885936, -20316.819288351453, -23786.6146906155, -22416.25158980508, -25615.97086381565, -40345.72575637409, 0.066, 1.008, -0.036000000000000004, 192.0, 0.0, 0.0, 0.0, 0.0, 0.0, 0.0, 0.0, 0.0, 0.0, 1.69575640690003E9, 0.0, 2023-09-26 14:26:46.900
118.0, -160073.22491088213, 29223.11773575756, -47870.12760283084, -38622.13803793646, 3091.2015546800562, -13687.940083496582, -187500.02235174447, -496.5216513301911, 7691.928171149275, -36377.17352833432, 1055.6505388796973, -20335.41593973827, -23788.581644127567, -22422.10774685237, -25622.966959830163, -40351.268988999014, 0.066, 1.008, -0.036000000000000004, 192.0, 0.0, 0.0, 0.0, 0.0, 0.0, 0.0, 0.0, 0.0, 0.0, 1.695756406900043E9, 0.0, 2023-09-26 14:26:46.900
120.0, -160040.5690122329, 29236.72994813084, -47861.209256793176, -38619.03114545717, 3097.9070780166485, -13682.41920261612, -187500.02235174447, -492.18541290586154, 7696.644389229345, -36366.3329322735, 1060.5008674264989, -20319.59090466391, -23791.04033601765, -22421.43719451871, -25621.379985973836, -40349.92788433169, 0.066, 1.008, -0.036000000000000004, 192.0, 0.0, 0.0, 0.0, 0.0, 0.0, 0.0, 0.0, 0.0, 0.0, 1.695756406960032E9, 0.0, 2023-09-26 14:26:46.960
122.0, -160063.63601251077, 29229.197410249402, -47851.88857935531, -38616.393639611444, 3105.4843193869974, -13677.144190924668, -187500.02235174447, -497.01338970820785, 7697.873735174387, -36386.360095305456, 1056.723422613552, -20337.807576394986, -23798.304652965624, -22418.732633439617, -25616.954340571683, -40342.68591912817, 0.064, 1.008, -0.03, 192.0, 1.0, 0.0, 15.5, 64.0, 127.5, 8.0, 0.0, 0.0, 0.0, 1.695756406960062E9, 0.0, 2023-09-26 14:26:46.960
124.0, -160027.49324172657, 29229.465631182866, -47856.157762546274, -38627.59186358355, 3101.818633296327, -13686.75544104045, -187500.02235174447, -489.03381693766323, 7697.1808310962715, -36368.36694101893, 1067.1616872741804, -20325.558820433478, -23791.71088835131, -22424.20881083117, -25610.651148635287, -40342.529456916986, 0.064, 1.008, -0.03, 192.0, 0.0, 0.0, 0.0, 0.0, 0.0, 0.0, 0.0, 0.0, 0.0, 1.695756406960079E9, 0.0, 2023-09-26 14:26:46.960
126.0, -160091.7321552911, 29224.525895658244, -47832.12963725682, -38605.24011912824, 3128.171340009134, -13662.392039584165, -187500.02235174447, -494.84527049604304, 7697.493755518646, -36391.52334827463, 1057.0586987803815, -20349.564593978477, -23788.98397552776, -22419.693758451198, -25607.70071836719, -40339.0202330375, 0.064, 1.008, -0.03, 192.0, 0.0, 0.0, 0.0, 0.0, 0.0, 0.0, 0.0, 0.0, 0.0, 1.695756406960094E9, 0.0, 2023-09-26 14:26:46.960
128.0, -160054.91883217322, 29225.88935207002, -47859.82344863695, -38630.251721173736, 3105.9313542761033, -13686.733089295994, -187500.02235174447, -483.0882529125515, 7714.726950493688, -36373.4854904992, 1069.4862686975323, -20344.06606484247, -23784.915958036898, -22413.30115953698, -25605.39848868829, -40336.427430680684, 0.064, 1.008, -0.03, 192.0, 0.0, 0.0, 0.0, 0.0, 0.0, 0.0, 0.0, 0.0, 0.0, 1.695756406960109E9, 0.0, 2023-09-26 14:26:46.960
130.0, -160077.35998360635, 29213.886465297517, -47855.688375912716, -38625.15552343792, 3114.9167555471367, -13678.954682225549, -187500.02235174447, -499.1815089203726, 7691.905819404819, -36388.952897662275, 1051.1578382441805, -20349.251669556103, -23803.311443723615, -22428.187421344213, -25631.93000935674, -40355.64993091225, 0.064, 1.008, -0.03, 192.0, 0.0, 0.0, 0.0, 0.0, 0.0, 0.0, 0.0, 0.0, 0.0, 1.695756406960125E9, 0.0, 2023-09-26 14:26:46.960
132.0, -160068.12871314632, 29225.64348288101, -47854.88371311232, -38622.80859027011, 3116.011991025447, -13676.719507780017, -187500.02235174447, -486.0610349251074, 7702.925229421286, -36388.08117962851, 1062.8478005943061, -20352.73854169113, -23799.6681093774, -22413.748194426084, -25621.469392951658, -40343.781154606484, 0.058, 1.012, -0.034, 192.0, 0.5, 104.0, 15.5, 80.0, 127.0, 120.0, 0.0, 0.0, 0.0, 1.695756406960139E9, 0.0, 2023-09-26 14:26:46.960
134.0, -160077.40468709526, 29217.149819987993, -47863.48913472761, -38629.961148495815, 3100.142252462179, -13682.061574704836, -187500.02235174447, -501.0367037101631, 7692.375206038381, -36388.75173196218, 1048.1403527427142, -20353.78907368053, -23816.208400274325, -22431.070796378946, -25640.17780306075, -40355.806393123436, 0.058, 1.012, -0.034, 192.0, 0.0, 0.0, 0.0, 0.0, 0.0, 0.0, 0.0, 0.0, 0.0, 1.69575640701899E9, 0.0, 2023-09-26 14:26:47.018
136.0, -160071.72734400362, 29227.386918948523, -47853.81082937847, -38621.62394781398, 3109.0605984998465, -13677.971205469514, -187500.02235174447, -492.6771512838783, 7694.342159550448, -36394.02674365363, 1054.5553034013872, -20353.87848065835, -23807.13359202547, -22419.00085437308, -25637.31677977047, -40348.58677966437, 0.058, 1.012, -0.034, 192.0, 0.0, 0.0, 0.0, 0.0, 0.0, 0.0, 0.0, 0.0, 0.0, 1.695756407019032E9, 0.0, 2023-09-26 14:26:47.019
138.0, -160101.9916059961, 29220.79315433421, -47844.15487577378, -38615.477218088774, 3119.7000288605727, -13674.03729844538, -187500.02235174447, -506.490529357258, 7688.016615869596, -36386.87418542793, 1057.0363470359264, -20352.537375991033, -23800.405716944424, -22410.663653691252, -25629.963055844673, -40344.45170694014, 0.058, 1.012, -0.034, 192.0, 0.0, 0.0, 0.0, 0.0, 0.0, 0.0, 0.0, 0.0, 0.0, 1.695756407019086E9, 0.0, 2023-09-26 14:26:47.019
140.0, -160077.13646616178, 29228.63861663802, -47857.96825384715, -38631.59282584105, 3110.468758400531, -13697.797202801372, -187500.02235174447, -500.7014275433335, 7709.206069613228, -36390.5398715186, 1059.3832802037336, -20353.78907368053, -23804.18316175737, -22415.134002582312, -25628.376081988346, -40348.40796570873, 0.058, 1.012, -0.034, 192.0, 0.0, 0.0, 0.0, 0.0, 0.0, 0.0, 0.0, 0.0, 0.0, 1.695756407019101E9, 0.0, 2023-09-26 14:26:47.019
142.0, -160074.6330707828, 29221.486058412323, -47847.12765778633, -38622.29450014764, 3111.51929038993, -13689.772926541917, -187500.02235174447, -509.5303666031798, 7696.7114444627105, -36381.35330454747, 1058.4445069366107, -20336.22060253866, -23811.291016494157, -22430.869630678848, -25634.20988729118, -40354.10766054483, 0.058, 1.012, -0.032, 192.0, 0.5, 104.0, 15.5, 80.0, 127.5, 0.0, 0.0, 0.0, 0.0, 1.695756407019118E9, 0.0, 2023-09-26 14:26:47.019
144.0, -160062.98781192157, 29227.252808481793, -47848.826390364935, -38621.89216874745, 3113.106264246257, -13690.912865509137, -187500.02235174447, -496.1640234189062, 7694.09629036144, -36396.418380310344, 1056.0081667909822, -20345.02718985405, -23805.010176302218, -22418.933799139715, -25623.07871855244, -40343.781154606484, 0.058, 1.012, -0.032, 192.0, 0.0, 0.0, 0.0, 0.0, 0.0, 0.0, 0.0, 0.0, 0.0, 1.695756407019135E9, 0.0, 2023-09-26 14:26:47.019
146.0, -160084.26667264305, 29233.712462629377, -47833.82836983542, -38604.368401094485, 3122.270479472933, -13669.656356532141, -187500.02235174447, -496.61105830801233, 7691.525839749079, -36379.654571968866, 1059.2938732259124, -20333.22546878165, -23802.6185396455, -22409.724880424128, -25622.989311574616, -40337.16503824771, 0.058, 1.012, -0.032, 192.0, 0.0, 0.0, 0.0, 0.0, 0.0, 0.0, 0.0, 0.0, 0.0, 1.695756407019151E9, 0.0, 2023-09-26 14:26:47.019
148.0, -160092.60387332487, 29248.30815175869, -47834.342459957894, -38601.32856384857, 3124.215081240545, -13665.36482159672, -187500.02235174447, -479.64608426643423, 7697.694921218744, -36385.15310110487, 1065.7982308624066, -20340.042750840516, -23799.623405888487, -22400.985348342103, -25615.45677369318, -40326.525607886986, 0.058, 1.012, -0.032, 192.0, 0.0, 0.0, 0.0, 0.0, 0.0, 0.0, 0.0, 0.0, 0.0, 1.695756407019168E9, 0.0, 2023-09-26 14:26:47.019
150.0, -160079.32693711843, 29241.826145866653, -47851.66506191076, -38617.48887508975, 3105.037284497891, -13676.585397313285, -187500.02235174447, -487.75976750371075, 7696.085595617962, -36367.36111251845, 1066.2005622626023, -20318.83094535243, -23809.94991182684, -22403.80166814347, -25627.683177910232, -40331.51004690052, 0.058, 1.012, -0.032, 192.0, 0.0, 0.0, 0.0, 0.0, 0.0, 0.0, 0.0, 0.0, 0.0, 1.695756407079376E9, 0.0, 2023-09-26 14:26:47.079
152.0, -160071.01208818104, 29236.104099286094, -47853.56496018946, -38617.89120648995, 3107.4289211546093, -13681.122801437712, -187500.02235174447, -485.0999099135292, 7693.291627561049, -36389.4893395292, 1047.760373086974, -20337.02526533905, -23815.068461307106, -22411.714185680652, -25642.23416355064, -40343.088250528366, 0.06, 1.014, -0.032, 192.0, 0.5, 112.0, 15.5, 88.0, 127.5, 0.0, 0.0, 0.0, 0.0, 1.695756407079399E9, 0.0, 2023-09-26 14:26:47.079
154.0, -160081.11507667485, 29236.30526498619, -47841.42796295023, -38604.569566794584, 3119.0294765269136, -13670.125743165701, -187500.02235174447, -491.7383780167554, 7692.308150805015, -36372.27849629861, 1055.851704579795, -20323.480108199135, -23810.57576067159, -22409.277845535024, -25638.814346648975, -40337.79088709246, 0.06, 1.014, -0.032, 192.0, 0.0, 0.0, 0.0, 0.0, 0.0, 0.0, 0.0, 0.0, 0.0, 1.695756407079412E9, 0.0, 2023-09-26 14:26:47.079
156.0, -160083.66317554275, 29234.383014963034, -47851.195675277195, -38614.091409932546, 3111.8992700456706, -13676.853618246749, -187500.02235174447, -486.5527733031241, 7679.56765646549, -36379.96749639124, 1051.7389836000186, -20337.4499484837, -23809.23465600427, -22413.591732214896, -25636.109785569883, -40336.248616725046, 0.06, 1.014, -0.032, 192.0, 0.0, 0.0, 0.0, 0.0, 0.0, 0.0, 0.0, 0.0, 0.0, 1.695756407079422E9, 0.0, 2023-09-26 14:26:47.079
158.0, -160071.86145447035, 29230.806735850187, -47849.89927409879, -38616.55010182263, 3111.51929038993, -13679.424068859109, -187500.02235174447, -498.93563973136423, 7688.6648164588, -36366.020007851126, 1054.175323745647, -20318.674483141243, -23816.722490396798, -22410.775412413528, -25637.182669303736, -40339.08728827087, 0.06, 1.014, -0.032, 192.0, 0.0, 0.0, 0.0, 0.0, 0.0, 0.0, 0.0, 0.0, 0.0, 1.695756407079431E9, 0.0, 2023-09-26 14:26:47.079
160.0, -160070.47564631412, 29223.20714273538, -47858.50469571408, -38629.51411360671, 3104.679656586606, -13692.253970176456, -187500.02235174447, -504.4565206118251, 7683.836839656454, -36384.6390109824, 1042.8653410512616, -20336.108843816382, -23816.074289807595, -22417.547990983487, -25646.436291508235, -40353.571218677906, 0.06, 1.014, -0.032, 192.0, 0.0, 0.0, 0.0, 0.0, 0.0, 0.0, 0.0, 0.0, 0.0, 1.695756407079473E9, 0.0, 2023-09-26 14:26:47.079
162.0, -160063.12192238832, 29240.350930732602, -47843.931358329224, -38619.187607668355, 3118.5824416378073, -13679.178199670101, -187500.02235174447, -495.5828780630682, 7689.827107170476, -36370.64681895338, 1050.822562077351, -20320.864954097862, -23808.85467634853, -22420.72193869614, -25635.796861147508, -40346.373956963296, 0.056, 1.014, -0.034, 192.0, 0.5, 96.0, 15.5, 88.0, 127.0, 120.0, 0.0, 0.0, 0.0, 1.695756407079483E9, 0.0, 2023-09-26 14:26:47.079
164.0, -160084.22196915414, 29239.948599332405, -47845.27246299654, -38622.78623852566, 3117.6436683706843, -13683.46973460552, -187500.02235174447, -491.60426755002356, 7701.606476498423, -36385.86835692744, 1054.622358634753, -20338.634590939833, -23799.154019254926, -22403.533447210008, -25626.565590687467, -40337.500314414545, 0.056, 1.014, -0.034, 192.0, 0.0, 0.0, 0.0, 0.0, 0.0, 0.0, 0.0, 0.0, 0.0, 1.695756407140949E9, 0.0, 2023-09-26 14:26:47.140
166.0, -160060.46206479814, 29244.463651712376, -47851.486247955116, -38627.97184323929, 3111.184014223101, -13687.448345118564, -187500.02235174447, -493.3253518730822, 7683.6803774452665, -36361.2814380266, 1057.1034022692922, -20317.40043370729, -23806.351280969535, -22423.2923893085, -25645.83279440794, -40356.6781111572, 0.056, 1.014, -0.034, 192.0, 0.0, 0.0, 0.0, 0.0, 0.0, 0.0, 0.0, 0.0, 0.0, 1.695756407140973E9, 0.0, 2023-09-26 14:26:47.140
168.0, -160087.79824826698, 29236.79700336421, -47852.08974505541, -38627.21188392781, 3111.7428078344833, -13680.631063059696, -187500.02235174447, -496.00756120771905, 7687.279008302571, -36381.37565629192, 1048.788553331918, -20342.702608430696, -23803.892589079453, -22419.20202007318, -25646.145718830314, -40348.94440757566, 0.056, 1.014, -0.034, 192.0, 0.0, 0.0, 0.0, 0.0, 0.0, 0.0, 0.0, 0.0, 0.0, 1.695756407140991E9, 0.0, 2023-09-26 14:26:47.140
170.0, -160057.19871010765, 29241.55792493319, -47861.075146326446, -38629.2682444177, 3097.4823948719973, -13687.3812898852, -187500.02235174447, -496.4545960968252, 7691.0117496266075, -36367.3834642629, 1057.4833819250325, -20323.480108199135, -23805.65837689142, -22422.28656080801, -25651.666599710778, -40351.85013435485, 0.056, 1.014, -0.034, 192.0, 0.0, 0.0, 0.0, 0.0, 0.0, 0.0, 0.0, 0.0, 0.0, 1.695756407141001E9, 0.0, 2023-09-26 14:26:47.141
172.0, -160068.55339629095, 29231.432584694932, -47866.28310278453, -38629.13413395097, 3093.66024657014, -13690.421127131121, -187500.02235174447, -507.20578517982784, 7678.964159365197, -36379.363999290945, 1041.8148090618622, -20339.394550251312, -23812.587417672567, -22421.97363638564, -25658.66269572529, -40354.688805900674, 0.058, 1.016, -0.032, 192.0, 0.5, 104.0, 15.5, 96.0, 127.5, 0.0, 0.0, 0.0, 0.0, 1.695756407141011E9, 0.0, 2023-09-26 14:26:47.141
174.0, -160043.8323669234, 29243.234305767335, -47859.15289630329, -38622.3168518921, 3098.0635402278353, -13689.392946886177, -187500.02235174447, -500.85788975452067, 7675.700804674721, -36366.712911929244, 1049.369698687756, -20324.17301227725, -23826.825478890598, -22421.839525918906, -25658.349771302914, -40355.78404137898, 0.058, 1.016, -0.032, 192.0, 0.0, 0.0, 0.0, 0.0, 0.0, 0.0, 0.0, 0.0, 0.0, 1.69575640714102E9, 0.0, 2023-09-26 14:26:47.141
176.0, -160072.80022773746, 29240.820317366164, -47849.742811887605, -38613.57731981007, 3108.9711915220255, -13682.016871215925, -187500.02235174447, -507.4293026243809, 7684.485040245658, -36376.30181030057, 1052.8342190783285, -20335.572401949456, -23815.33668224057, -22407.78027865652, -25642.949419373206, -40342.01536679451, 0.058, 1.016, -0.032, 192.0, 0.0, 0.0, 0.0, 0.0, 0.0, 0.0, 0.0, 0.0, 0.0, 1.695756407141029E9, 0.0, 2023-09-26 14:26:47.141
178.0, -160063.6807159997, 29246.542363946723, -47843.88665484031, -38608.88345347446, 3119.0294765269136, -13675.04312694587, -187500.02235174447, -498.95799147581954, 7683.479211745169, -36368.72456893022, 1063.8089256058843, -20322.764852376564, -23808.608807159522, -22421.86187766336, -25635.349826258403, -40339.40021269324, 0.058, 1.016, -0.032, 192.0, 0.0, 0.0, 0.0, 0.0, 0.0, 0.0, 0.0, 0.0, 0.0, 1.695756407141038E9, 0.0, 2023-09-26 14:26:47.141
180.0, -160105.61258859787, 29245.469480212865, -47834.72243961364, -38599.272203358676, 3123.3880666956984, -13668.248196631455, -187500.02235174447, -502.3554566330262, 7702.209973598716, -36373.86547015494, 1061.819620349362, -20332.152585047792, -23798.729336110275, -22403.95813035466, -25619.904770839785, -40323.17284621869, 0.058, 1.016, -0.032, 192.0, 0.0, 0.0, 0.0, 0.0, 0.0, 0.0, 0.0, 0.0, 0.0, 1.695756407199853E9, 0.0, 2023-09-26 14:26:47.199
182.0, -160073.29196611547, 29255.348951262113, -47842.5902536619, -38610.090447675044, 3112.6145258682404, -13674.931368223593, -187500.02235174447, -488.45267158182526, 7693.515145005602, -36357.03460658009, 1068.8604198527837, -20318.92035233025, -23797.43293493187, -22402.57232219843, -25623.525753441543, -40326.88323579827, 0.064, 1.01, -0.036000000000000004, 192.0, 1.0, 0.0, 15.5, 72.0, 127.0, 112.0, 0.0, 0.0, 0.0, 1.695756407199941E9, 0.0, 2023-09-26 14:26:47.199
184.0, -160087.6864895447, 29246.520012202265, -47841.15974201677, -38609.68811627485, 3114.9167555471367, -13671.310385621833, -187500.02235174447, -500.6790757988782, 7704.288685833059, -36358.50982171414, 1059.7632598594737, -20315.32172147295, -23803.84788559054, -22413.14469732579, -25634.54516345801, -40334.214607979615, 0.064, 1.01, -0.036000000000000004, 192.0, 0.0, 0.0, 0.0, 0.0, 0.0, 0.0, 0.0, 0.0, 0.0, 1.695756407199965E9, 0.0, 2023-09-26 14:26:47.199
186.0, -160037.46211975362, 29245.89416335752, -47858.45999222517, -38629.402354884434, 3092.274438413911, -13695.852601033761, -187500.02235174447, -496.1640234189062, 7677.131316319861, -36362.667246182835, 1056.2763877244458, -20310.851372581885, -23818.532981697677, -22428.25447657758, -25639.775471660552, -40342.1718290057, 0.064, 1.01, -0.036000000000000004, 192.0, 0.0, 0.0, 0.0, 0.0, 0.0, 0.0, 0.0, 0.0, 0.0, 1.695756407199982E9, 0.0, 2023-09-26 14:26:47.199
188.0, -160066.36292533434, 29250.275105270757, -47844.11017228487, -38616.863026245, 3102.109205974246, -13685.526095095409, -187500.02235174447, -513.0619422271183, 7683.345101278437, -36375.877127155916, 1050.4872859105212, -20314.67352088374, -23823.51742071121, -22418.48676425061, -25645.430463007746, -40345.63634939627, 0.064, 1.01, -0.036000000000000004, 192.0, 0.0, 0.0, 0.0, 0.0, 0.0, 0.0, 0.0, 0.0, 0.0, 1.695756407199999E9, 0.0, 2023-09-26 14:26:47.199
190.0, -160066.89936720126, 29245.514183701776, -47843.70784088467, -38616.30423263362, 3109.529985133408, -13685.995481728969, -187500.02235174447, -495.8734507409872, 7692.978703138674, -36382.60500223697, 1064.8371058508285, -20327.16814603426, -23810.933388582875, -22416.922142138737, -25633.807555890984, -40335.73452660257, 0.064, 1.01, -0.036000000000000004, 192.0, 0.0, 0.0, 0.0, 0.0, 0.0, 0.0, 0.0, 0.0, 0.0, 1.695756407200017E9, 0.0, 2023-09-26 14:26:47.200
192.0, -160087.3288616334, 29235.724119630355, -47836.84585533689, -38606.08948541754, 3114.715589847039, -13676.205417657546, -187500.02235174447, -507.8539857690318, 7690.207086826216, -36380.10160685797, 1057.1481057582027, -20318.987407563618, -23816.610731674522, -22426.421633532245, -25644.826965907454, -40343.80350635094, 0.062, 1.016, -0.032, 192.0, 0.5, 120.0, 15.5, 96.0, 127.5, 0.0, 0.0, 0.0, 0.0, 1.695756407200034E9, 0.0, 2023-09-26 14:26:47.200
194.0, -160081.3832976083, 29238.585142920634, -47850.18984677671, -38618.47235184578, 3105.886650787193, -13690.555237597853, -187500.02235174447, -489.36909310449283, 7704.400444555336, -36396.91011868836, 1069.2627512529793, -20328.553954190487, -23805.121935024494, -22412.67531069223, -25632.846430879406, -40328.35845093232, 0.062, 1.016, -0.032, 192.0, 0.0, 0.0, 0.0, 0.0, 0.0, 0.0, 0.0, 0.0, 0.0, 1.695756407259989E9, 0.0, 2023-09-26 14:26:47.259
196.0, -160074.94599520517, 29225.621131136555, -47852.15680028877, -38620.90869199141, 3097.169470449623, -13685.190818928579, -187500.02235174447, -502.2884013996603, 7698.566639252501, -36387.32122031703, 1059.4726871815549, -20310.35963420387, -23825.75259515674, -22437.865726693362, -25654.88525091234, -40347.93857907517, 0.062, 1.016, -0.032, 192.0, 0.0, 0.0, 0.0, 0.0, 0.0, 0.0, 0.0, 0.0, 0.0, 1.695756407260026E9, 0.0, 2023-09-26 14:26:47.260
198.0, -160080.17630340773, 29221.77663109024, -47852.76029738907, -38628.70945080632, 3102.109205974246, -13691.963397498537, -187500.02235174447, -499.6061920650235, 7683.814487911998, -36406.25314787068, 1051.5154661554654, -20332.756082148087, -23818.28711250867, -22435.787014459016, -25652.69477995572, -40344.78698310697, 0.062, 1.016, -0.032, 192.0, 0.0, 0.0, 0.0, 0.0, 0.0, 0.0, 0.0, 0.0, 0.0, 1.695756407260044E9, 0.0, 2023-09-26 14:26:47.260
200.0, -160088.1335244338, 29207.96325301686, -47850.05573630998, -38630.60934908502, 3102.9362205190923, -13696.61256034524, -187500.02235174447, -518.0687329851071, 7669.889351116342, -36402.27453735763, 1051.8954458112057, -20326.07291055595, -23821.46106022132, -22446.02411341955, -25654.08058811195, -40350.486677943074, 0.062, 1.016, -0.032, 192.0, 0.0, 0.0, 0.0, 0.0, 0.0, 0.0, 0.0, 0.0, 0.0, 1.695756407260061E9, 0.0, 2023-09-26 14:26:47.260
202.0, -160090.8380855129, 29200.63188083552, -47862.90798937178, -38645.9202940369, 3094.4872611149863, -13715.812708832349, -187500.02235174447, -515.0959509725512, 7686.630807713367, -36433.321110406054, 1048.274463209446, -20353.900832402807, -23810.66516764941, -22450.762683244073, -25650.057274109993, -40347.71506163062, 0.058, 1.012, -0.032, 192.0, 0.5, 104.0, 15.5, 80.0, 127.5, 0.0, 0.0, 0.0, 0.0, 1.695756407260078E9, 0.0, 2023-09-26 14:26:47.260
204.0, -160075.54949230546, 29195.267462166248, -47861.85745738238, -38643.57336086909, 3093.8390605257823, -13715.298618709878, -187500.02235174447, -528.618756368012, 7677.488944231146, -36417.58548230952, 1046.0392887639152, -20332.17493679225, -23828.211287046826, -22464.93368922874, -25668.31864932998, -40365.21647753912, 0.058, 1.012, -0.032, 192.0, 0.0, 0.0, 0.0, 0.0, 0.0, 0.0, 0.0, 0.0, 0.0, 1.695756407260134E9, 0.0, 2023-09-26 14:26:47.260
206.0, -160082.32207087544, 29188.5395870852, -47868.22770455214, -38650.167125483415, 3088.4746418565087, -13719.657208878662, -187500.02235174447, -529.6692883574115, 7663.921435346775, -36442.64178784392, 1032.3153176683568, -20358.058256871493, -23826.71372016832, -22458.317572869968, -25667.782207463053, -40362.578971693394, 0.058, 1.012, -0.032, 192.0, 0.0, 0.0, 0.0, 0.0, 0.0, 0.0, 0.0, 0.0, 0.0, 1.69575640726015E9, 0.0, 2023-09-26 14:26:47.260
208.0, -160068.46398931314, 29191.221796419835, -47864.070280083455, -38645.42855565889, 3093.6825983145955, -13712.884630308705, -187500.02235174447, -530.7421720912662, 7668.6600051713, -36425.430944613334, 1037.500922381988, -20343.663733442278, -23827.160755057426, -22458.54109031452, -25670.240899353135, -40364.38946299427, 0.058, 1.012, -0.032, 192.0, 0.0, 0.0, 0.0, 0.0, 0.0, 0.0, 0.0, 0.0, 0.0, 1.695756407260167E9, 0.0, 2023-09-26 14:26:47.260
210.0, -160086.2336261551, 29194.574558088134, -47864.78553590603, -38647.41786091541, 3092.94499074757, -13715.812708832349, -187500.02235174447, -529.7586953352327, 7675.656101185811, -36441.524200621156, 1024.0004687309824, -20366.171940108772, -23825.931409112385, -22457.647020536308, -25670.687934242244, -40362.91424786022, 0.058, 1.012, -0.032, 192.0, 0.0, 0.0, 0.0, 0.0, 0.0, 0.0, 0.0, 0.0, 0.0, 1.695756407319323E9, 0.0, 2023-09-26 14:26:47.319
212.0, -160062.6301840103, 29193.25580516527, -47868.16064931878, -38651.12825049499, 3089.1675459346234, -13719.411339689654, -187500.02235174447, -524.4613318993249, 7684.172115823283, -36431.532970849636, 1039.11024798277, -20350.816291667976, -23822.15396429944, -22460.329229870946, -25668.206890607704, -40361.528439703994, 0.062, 1.01, -0.038, 192.0, 0.5, 120.0, 15.5, 72.0, 127.0, 104.0, 0.0, 0.0, 0.0, 1.695756407319356E9, 0.0, 2023-09-26 14:26:47.319
214.0, -160073.49313181557, 29173.787435744696, -47871.267541798064, -38651.95526503983, 3088.1617174341345, -13721.490051923998, -187500.02235174447, -530.4739511578025, 7666.357775492404, -36455.24817171671, 1022.7264192970299, -20367.69185873173, -23842.136423842483, -22487.777172062062, -25684.14368440434, -40374.60421021035, 0.062, 1.01, -0.038, 192.0, 0.0, 0.0, 0.0, 0.0, 0.0, 0.0, 0.0, 0.0, 0.0, 1.695756407319374E9, 0.0, 2023-09-26 14:26:47.319
216.0, -160043.4300355232, 29166.836043219097, -47878.8000796795, -38660.69479712186, 3083.8925342431708, -13732.889441596204, -187500.02235174447, -526.3388784335707, 7667.698880159722, -36455.04700601661, 1030.5048263674769, -20358.661753971788, -23838.493089496267, -22476.82481727896, -25679.98625993565, -40372.458442742645, 0.062, 1.01, -0.038, 192.0, 0.0, 0.0, 0.0, 0.0, 0.0, 0.0, 0.0, 0.0, 0.0, 1.695756407319396E9, 0.0, 2023-09-26 14:26:47.319
218.0, -160085.36190812135, 29159.839947204586, -47869.56880921946, -38651.08354700608, 3095.1578134486454, -13720.037188534403, -187500.02235174447, -533.8267128260986, 7661.976833579163, -36478.04695106113, 1017.8984424946836, -20385.260329873603, -23828.591266702566, -22479.194102191224, -25686.289451872046, -40373.352512520854, 0.062, 1.01, -0.038, 192.0, 0.0, 0.0, 0.0, 0.0, 0.0, 0.0, 0.0, 0.0, 0.0, 1.695756407319413E9, 0.0, 2023-09-26 14:26:47.319
220.0, -160068.46398931314, 29165.941973440884, -47874.70971044418, -38659.77837559919, 3091.5144791024304, -13723.099377524779, -187500.02235174447, -529.490474401769, 7675.276121530071, -36458.91385780738, 1026.2356431765131, -20376.207873369203, -23825.32791201209, -22479.93170975825, -25682.914338459297, -40369.64212294127, 0.062, 1.01, -0.038, 192.0, 0.0, 0.0, 0.0, 0.0, 0.0, 0.0, 0.0, 0.0, 0.0, 1.695756407319428E9, 0.0, 2023-09-26 14:26:47.319
222.0, -160101.96925425163, 29154.96726691333, -47874.061509854975, -38661.052425033144, 3091.693293058073, -13726.541546170896, -187500.02235174447, -538.4758756728024, 7675.656101185811, -36476.750549882716, 1016.982020972016, -20396.88323699036, -23827.22781029079, -22488.045392995526, -25685.261271627103, -40372.90547763175, 0.06, 1.014, -0.036000000000000004, 192.0, 0.5, 112.0, 15.5, 88.0, 127.0, 112.0, 0.0, 0.0, 0.0, 1.695756407319445E9, 0.0, 2023-09-26 14:26:47.319
224.0, -160079.70691677416, 29161.29281059418, -47874.75441393309, -38661.924143066906, 3092.497955858464, -13728.597906660785, -187500.02235174447, -531.2562622137383, 7676.058432586006, -36463.473613676266, 1029.9013292671834, -20383.472190317178, -23829.597095203055, -22480.557558603, -25683.428428581767, -40374.62656195481, 0.06, 1.014, -0.036000000000000004, 192.0, 0.0, 0.0, 0.0, 0.0, 0.0, 0.0, 0.0, 0.0, 0.0, 1.695756407379127E9, 0.0, 2023-09-26 14:26:47.379
226.0, -160107.26661768754, 29150.92160116692, -47874.843820910915, -38666.439195446874, 3098.3094094168437, -13730.3413427283, -187500.02235174447, -537.5594541501349, 7688.307188547515, -36474.13539578145, 1025.2074629315691, -20395.51978057859, -23824.970284100807, -22482.658622581795, -25682.601414036923, -40374.403044510254, 0.06, 1.014, -0.036000000000000004, 192.0, 0.0, 0.0, 0.0, 0.0, 0.0, 0.0, 0.0, 0.0, 0.0, 1.695756407379278E9, 0.0, 2023-09-26 14:26:47.379
228.0, -160105.97021650913, 29168.758293242252, -47860.53870445952, -38655.10686100803, 3111.876918301215, -13714.628066376217, -187500.02235174447, -528.5740528791014, 7674.09147907394, -36472.481366691754, 1027.241471677002, -20392.882274732863, -23826.84783063505, -22489.319442429478, -25682.55671054801, -40376.21353581113, 0.06, 1.014, -0.036000000000000004, 192.0, 0.0, 0.0, 0.0, 0.0, 0.0, 0.0, 0.0, 0.0, 0.0, 1.695756407379297E9, 0.0, 2023-09-26 14:26:47.379
230.0, -160121.1023475054, 29166.67958100791, -47874.5979517219, -38669.00964605923, 3098.6446855836734, -13732.867089851748, -187500.02235174447, -531.6585936139338, 7679.835877398954, -36469.01684630118, 1027.0403059769042, -20396.994995712637, -23819.315292753614, -22477.048334723513, -25669.50329178611, -40361.43903272617, 0.06, 1.014, -0.036000000000000004, 192.0, 0.0, 0.0, 0.0, 0.0, 0.0, 0.0, 0.0, 0.0, 0.0, 1.695756407379314E9, 0.0, 2023-09-26 14:26:47.379
232.0, -160083.41730635375, 29169.54060429819, -47885.01386463808, -38674.84345136207, 3088.049958711858, -13741.271345766943, -187500.02235174447, -526.9647272783193, 7668.011804582096, -36473.01780855868, 1015.9985442159825, -20389.909492720308, -23836.5261359842, -22501.344680946433, -25692.972623464182, -40382.96376263664, 0.056, 1.008, -0.034, 192.0, 0.5, 96.0, 15.5, 64.0, 127.0, 120.0, 0.0, 0.0, 0.0, 1.695756407379331E9, 0.0, 2023-09-26 14:26:47.379
234.0, -160096.56013209347, 29166.165490885436, -47880.789384936026, -38667.489727436274, 3089.3240081458102, -13736.756293386972, -187500.02235174447, -540.6439948849672, 7679.120621576384, -36473.822471359075, 1014.3221633818345, -20389.596568297933, -23838.470737751813, -22490.906416285805, -25697.062992699506, -40380.30390504646, 0.056, 1.008, -0.034, 192.0, 0.0, 0.0, 0.0, 0.0, 0.0, 0.0, 0.0, 0.0, 0.0, 1.69575640737935E9, 0.0, 2023-09-26 14:26:47.379
236.0, -160081.04802144147, 29178.727171269322, -47877.414271523274, -38668.45085244785, 3087.6029238227516, -13735.996334075491, -187500.02235174447, -536.330108205093, 7679.031214598563, -36472.8613463475, 1020.9606314850607, -20395.363318367403, -23840.57180173061, -22497.522532644576, -25700.66162355681, -40381.600306224864, 0.056, 1.008, -0.034, 192.0, 0.0, 0.0, 0.0, 0.0, 0.0, 0.0, 0.0, 0.0, 0.0, 1.695756407379369E9, 0.0, 2023-09-26 14:26:47.379
238.0, -160121.90701030576, 29184.426866105423, -47860.20342829268, -38652.91639005142, 3102.4891856299864, -13718.025531533425, -187500.02235174447, -536.844198327565, 7685.893200146342, -36473.12956728096, 1028.113189710759, -20399.856019002917, -23824.679711422887, -22482.457456881697, -25691.22918739667, -40370.22326829711, 0.056, 1.008, -0.034, 192.0, 0.0, 0.0, 0.0, 0.0, 0.0, 0.0, 0.0, 0.0, 0.0, 1.695756407379386E9, 0.0, 2023-09-26 14:26:47.379
240.0, -160115.4473561582, 29196.362697644556, -47867.80302140749, -38656.47031741981, 3096.722435560517, -13719.545450156385, -187500.02235174447, -515.3194684171043, 7684.28387454556, -36472.07903529156, 1039.1325997272254, -20405.51101035011, -23820.164659042915, -22472.73444804364, -25677.281698856557, -40358.62271292481, 0.056, 1.008, -0.034, 192.0, 0.0, 0.0, 0.0, 0.0, 0.0, 0.0, 0.0, 0.0, 0.0, 1.6957564074404E9, 0.0, 2023-09-26 14:26:47.440
242.0, -160093.69910880318, 29184.985659716807, -47883.650408226305, -38670.06017804863, 3074.1695254051124, -13741.114883555758, -187500.02235174447, -543.102686775051, 7672.929188362264, -36455.002302527704, 1030.3930676452003, -20377.906605947806, -23842.29288605367, -22497.611939622395, -25702.382707879868, -40382.1814515807, 0.052000000000000005, 1.012, -0.032, 192.0, 0.5, 80.0, 15.5, 80.0, 127.5, 0.0, 0.0, 0.0, 0.0, 1.695756407440435E9, 0.0, 2023-09-26 14:26:47.440
244.0, -160106.9313415207, 29191.087685953105, -47874.352082532896, -38663.377006456496, 3082.082042942291, -13742.701857412083, -187500.02235174447, -548.1318292774951, 7684.038005356551, -36477.33169523856, 1024.5816140868205, -20397.37497536838, -23834.693292938864, -22480.93753825874, -25700.97454797918, -40375.54298347748, 0.052000000000000005, 1.012, -0.032, 192.0, 0.0, 0.0, 0.0, 0.0, 0.0, 0.0, 0.0, 0.0, 0.0, 1.695756407440456E9, 0.0, 2023-09-26 14:26:47.440
246.0, -160109.01005375508, 29179.665944536442, -47871.6475214538, -38664.360483212535, 3083.043167953869, -13741.897194611693, -187500.02235174447, -554.9044078474532, 7684.552095479024, -36456.0081310282, 1026.2803466654238, -20383.539245550543, -23839.498917996756, -22494.102715742913, -25708.775306794087, -40383.65666671475, 0.052000000000000005, 1.012, -0.032, 192.0, 0.0, 0.0, 0.0, 0.0, 0.0, 0.0, 0.0, 0.0, 0.0, 1.695756407440475E9, 0.0, 2023-09-26 14:26:47.440
