%OpenBCI Raw EXG Data
%Number of channels = 16
%Sample Rate = 125 Hz
%Board = OpenBCI_GUI$BoardCytonSerialDaisy
Sample Index, EXG Channel 0, EXG Channel 1, EXG Channel 2, EXG Channel 3, EXG Channel 4, EXG Channel 5, EXG Channel 6, EXG Channel 7, EXG Channel 8, EXG Channel 9, EXG Channel 10, EXG Channel 11, EXG Channel 12, EXG Channel 13, EXG Channel 14, EXG Channel 15, Accel Channel 0, Accel Channel 1, Accel Channel 2, Other, Other, Other, Other, Other, Other, Other, Analog Channel 0, Analog Channel 1, Analog Channel 2, Timestamp, Other, Timestamp (Formatted)
0.0, -159232.62050540693, 29316.905655492028, -48026.23218610671, -38786.02102828277, 3030.6506789506293, -13768.182846091135, -187500.02235174447, -650.9275020274523, 0.0, 0.0, 0.0, 0.0, 0.0, 0.0, 0.0, 0.0, 0.0, 0.0, 0.0, 192.0, 0.0, 0.0, 0.0, 0.0, 0.0, 0.0, 0.0, 0.0, 0.0, 1.695756389755266E9, 0.0, 2023-09-26 14:26:29.755
194.0, -159198.89172302387, 29324.885228262574, -48033.5859100325, -38792.994772552825, 3024.7498184144283, -13773.256692082488, -187500.02235174447, -642.0538594786954, 7717.118587150406, -36586.07293201362, 760.2498841583591, -20443.732493368687, -23795.220112230792, -22395.06213606145, -25771.606060457954, -40488.62045867687, 0.0, 0.0, 0.0, 192.0, 0.0, 0.0, 0.0, 0.0, 0.0, 0.0, 0.0, 0.0, 0.0, 1.695756389755284E9, 0.0, 2023-09-26 14:26:29.755
196.0, -159226.56318265953, 29316.65978630302, -48023.50527328316, -38783.0035427813, 3036.305670297822, -13763.265462310967, -187500.02235174447, -652.7379933283321, 7698.410177041314, -36598.09817053058, 746.0118229403286, -20457.232947019693, -23802.6185396455, -22394.458638961154, -25782.15608384086, -40494.74483665763, 0.06, 1.018, -0.02, 192.0, 0.5, 112.0, 15.5, 104.0, 127.5, 48.0, 0.0, 0.0, 0.0, 1.695756389755318E9, 0.0, 2023-09-26 14:26:29.755
198.0, -159211.8333830635, 29325.33226315168, -48017.17972960231, -38781.19305148042, 3040.530149999875, -13765.38887803422, -187500.02235174447, -646.8371327921311, 7708.9154969353085, -36591.34794370508, 758.7299655353983, -20455.42245571881, -23795.510684908713, -22390.390621470287, -25774.95882212625, -40490.0062668331, 0.06, 1.018, -0.02, 192.0, 0.0, 0.0, 0.0, 0.0, 0.0, 0.0, 0.0, 0.0, 0.0, 1.695756389755329E9, 0.0, 2023-09-26 14:26:29.755
200.0, -159232.0393600511, 29320.973672982895, -48021.65007849337, -38789.59730739562, 3033.3552400297217, -13778.129372373745, -187500.02235174447, -653.3191386841702, 7709.966028924708, -36600.91449033195, 758.5064480908452, -20469.325240770013, -23784.312460936602, -22392.111705793348, -25770.421418001824, -40485.78178713105, 0.06, 1.018, -0.02, 192.0, 0.0, 0.0, 0.0, 0.0, 0.0, 0.0, 0.0, 0.0, 0.0, 1.695756389755339E9, 0.0, 2023-09-26 14:26:29.755
202.0, -159199.80814454655, 29326.80747828573, -48024.9357849283, -38790.67019112947, 3035.4786557529756, -13779.314014829877, -187500.02235174447, -644.7360688133322, 7700.220668342194, -36599.998068809284, 757.1206399346162, -20458.685810409286, -23795.287167464157, -22400.538313453, -25779.138598339392, -40495.81772039148, 0.06, 1.018, -0.02, 192.0, 0.0, 0.0, 0.0, 0.0, 0.0, 0.0, 0.0, 0.0, 0.0, 1.695756389755348E9, 0.0, 2023-09-26 14:26:29.755
204.0, -159231.4805664397, 29317.687966547965, -48015.52570051262, -38780.36603693558, 3039.0549348658246, -13769.05456412489, -187500.02235174447, -648.93819677093, 7713.363494081914, -36602.54616767719, 753.6561195440436, -20465.81601689053, -23788.335774938558, -22391.73172613761, -25773.841234903484, -40483.948944085714, 0.06, 1.018, -0.02, 192.0, 0.0, 0.0, 0.0, 0.0, 0.0, 0.0, 0.0, 0.0, 0.0, 1.695756389755358E9, 0.0, 2023-09-26 14:26:29.755
206.0, -159210.04524350708, 29328.349748653145, -48011.41297953284, -38777.21444096738, 3037.0656296093025, -13767.333479801831, -187500.02235174447, -636.1529989424943, 7697.136127607361, -36591.99614429428, 748.8504944861526, -20460.272784265613, -23795.354222697526, -22388.691888891684, -25776.366982026935, -40487.81579587648, 0.056, 1.018, -0.02, 192.0, 0.5, 96.0, 15.5, 104.0, 127.5, 48.0, 0.0, 0.0, 0.0, 1.695756389755367E9, 0.0, 2023-09-26 14:26:29.755
208.0, -159237.51553744264, 29333.37889115559, -47999.49949973816, -38765.52447861725, 3046.408658791621, -13757.275194796945, -187500.02235174447, -636.8459030206088, 7716.805662728031, -36587.25757446975, 757.9700062239178, -20456.025952819105, -23780.42325740138, -22373.47035091762, -25761.547775453066, -40467.587467144425, 0.056, 1.018, -0.02, 192.0, 0.0, 0.0, 0.0, 0.0, 0.0, 0.0, 0.0, 0.0, 0.0, 1.695756389755381E9, 0.0, 2023-09-26 14:26:29.755
0.0, -79643.53467745002, 14604.003978252886, -24002.51019030931, -19393.759297580636, 1517.9069659599027, -6903.492737232774, -93750.01117587223, -331.0740388720082, 3852.0549359387087, -18291.259502322617, 382.7065685637675, -10218.54701263273, -11895.553695625507, -11192.747794717288, -12886.473582562636, -20237.470595535113, 0.058, 1.016, -0.028, 192.0, 0.5, 104.0, 15.5, 96.0, 127.5, 16.0, 0.0, 0.0, 0.0, 1.695756389895304E9, 0.0, 2023-09-26 14:26:29.895
2.0, -159312.37152962346, 29200.87775002453, -48003.00872361764, -38785.7528073493, 3039.0325831213695, -13806.516087831986, -187500.02235174447, -665.4784876678572, 7659.115810288884, -36674.094101678624, 753.6561195440436, -20480.881092653406, -23829.507688225232, -22479.954061502704, -25804.083145151515, -40483.47955745215, 0.058, 1.016, -0.028, 192.0, 0.0, 0.0, 0.0, 0.0, 0.0, 0.0, 0.0, 0.0, 0.0, 1.69575638989535E9, 0.0, 2023-09-26 14:26:29.895
4.0, -159287.6952037448, 29209.01378500626, -48007.63553471989, -38789.66436262898, 3033.690516196551, -13809.891201244736, -187500.02235174447, -655.3307956851478, 7670.403441238814, -36670.27195337677, 760.7416225363759, -20474.466141994733, -23829.61944694751, -22481.49633187012, -25802.76439222865, -40482.697246396216, 0.058, 1.016, -0.028, 192.0, 0.0, 0.0, 0.0, 0.0, 0.0, 0.0, 0.0, 0.0, 0.0, 1.695756389895361E9, 0.0, 2023-09-26 14:26:29.895
6.0, -159288.92454968984, 29192.697011553886, -48024.444046550285, -38806.606984926104, 3016.8596526217048, -13828.018465997991, -187500.02235174447, -670.3288162146588, 7659.406382966803, -36682.431302360455, 750.124543920105, -20481.708107198254, -23835.609714461534, -22489.945291274227, -25813.91791271185, -40492.46495872318, 0.058, 1.016, -0.028, 192.0, 0.0, 0.0, 0.0, 0.0, 0.0, 0.0, 0.0, 0.0, 0.0, 1.69575638989537E9, 0.0, 2023-09-26 14:26:29.895
8.0, -159268.8973866579, 29199.894273268495, -48013.335229555996, -38794.447635942415, 3030.8071411618166, -13818.697788560128, -187500.02235174447, -671.804031348709, 7650.912720073787, -36689.85208151962, 745.967119451418, -20475.494322239676, -23848.685484967886, -22497.74605008913, -25827.708939040775, -40507.17240657478, 0.06, 1.016, -0.03, 192.0, 0.5, 112.0, 15.5, 96.0, 127.5, 8.0, 0.0, 0.0, 0.0, 1.695756389895429E9, 0.0, 2023-09-26 14:26:29.895
10.0, -159314.13731743544, 29206.57744486063, -48000.99706661666, -38784.27759221525, 3043.2570628234225, -13807.2089919101, -187500.02235174447, -675.223848250371, 7681.311092533004, -36690.03089547526, 757.9253027350072, -20492.68281372581, -23819.069423564604, -22470.409866620288, -25803.63611026241, -40482.004342318105, 0.06, 1.016, -0.03, 192.0, 0.0, 0.0, 0.0, 0.0, 0.0, 0.0, 0.0, 0.0, 0.0, 1.695756389895441E9, 0.0, 2023-09-26 14:26:29.895
12.0, -159270.05967736957, 29207.136238472016, -48024.33228782801, -38807.165778537485, 3019.4748067229757, -13826.364436908298, -187500.02235174447, -666.3725574460694, 7653.907853830798, -36683.615944816585, 760.1604771805379, -20484.077392110514, -23834.84975515005, -22484.983204005148, -25816.86834297995, -40496.57767970296, 0.06, 1.016, -0.03, 192.0, 0.0, 0.0, 0.0, 0.0, 0.0, 0.0, 0.0, 0.0, 0.0, 1.695756389895456E9, 0.0, 2023-09-26 14:26:29.895
14.0, -159304.7048812753, 29202.844703536597, -48004.77451142961, -38784.97049629337, 3036.1715598310902, -13804.504430831008, -187500.02235174447, -675.0897377836392, 7653.013784052585, -36681.13490118205, 746.0341746847838, -20486.133752600403, -23833.732167927286, -22487.173674961767, -25819.77406975914, -40493.85076687941, 0.06, 1.016, -0.03, 192.0, 0.0, 0.0, 0.0, 0.0, 0.0, 0.0, 0.0, 0.0, 0.0, 1.695756389895466E9, 0.0, 2023-09-26 14:26:29.895
16.0, -159297.3958608384, 29219.340290944612, -48007.27790680861, -38788.39031319503, 3035.948042386537, -13802.381015107754, -187500.02235174447, -656.4707346523684, 7665.284891758549, -36680.5090523373, 749.6328055420882, -20493.442773037288, -23828.591266702566, -22469.49344509762, -25806.027746919128, -40478.45041494971, 0.06, 1.016, -0.03, 192.0, 0.0, 0.0, 0.0, 0.0, 0.0, 0.0, 0.0, 0.0, 0.0, 1.695756389955566E9, 0.0, 2023-09-26 14:26:29.955
18.0, -159304.36960510846, 29209.5949303621, -48007.97081088672, -38789.23967948433, 3025.554481214819, -13802.246904641022, -187500.02235174447, -665.679653367955, 7664.480228958158, -36675.502261579306, 750.8174479982196, -20485.23968282219, -23836.324970284102, -22476.958927745694, -25813.850857478483, -40483.54661268552, 0.062, 1.014, -0.036000000000000004, 192.0, 0.5, 120.0, 15.5, 88.0, 127.0, 112.0, 0.0, 0.0, 0.0, 1.695756389955588E9, 0.0, 2023-09-26 14:26:29.955
20.0, -159282.50959903118, 29215.898122298495, -48014.60927898995, -38795.364057465085, 3020.972373601481, -13806.91841923218, -187500.02235174447, -652.5591793726896, 7655.673641642767, -36690.29911640872, 751.6444625430659, -20493.845104437485, -23837.800185418153, -22471.281584654043, -25811.72744175523, -40480.01503706158, 0.062, 1.014, -0.036000000000000004, 192.0, 0.0, 0.0, 0.0, 0.0, 0.0, 0.0, 0.0, 0.0, 0.0, 1.695756389955599E9, 0.0, 2023-09-26 14:26:29.955
22.0, -159273.88182567141, 29208.946729772895, -48014.31870631203, -38793.53121441975, 3016.9267078550706, -13806.963122721092, -187500.02235174447, -667.6242551355666, 7652.477342185658, -36675.368151112576, 750.5045235758453, -20477.595386218476, -23847.456139022845, -22488.090096484437, -25822.098651182492, -40487.59227843193, 0.062, 1.014, -0.036000000000000004, 192.0, 0.0, 0.0, 0.0, 0.0, 0.0, 0.0, 0.0, 0.0, 0.0, 1.695756389955608E9, 0.0, 2023-09-26 14:26:29.955
24.0, -159280.6991077303, 29211.472476896346, -48005.22154631872, -38783.29411545922, 3026.6497166931294, -13801.866924985281, -187500.02235174447, -656.3142724411813, 7645.525949660057, -36694.0095059883, 744.8271804841972, -20495.34267131599, -23836.503784239743, -22472.846206765917, -25815.43783133481, -40480.70794113969, 0.062, 1.014, -0.036000000000000004, 192.0, 0.0, 0.0, 0.0, 0.0, 0.0, 0.0, 0.0, 0.0, 0.0, 1.695756389955616E9, 0.0, 2023-09-26 14:26:29.955
26.0, -159263.06358135506, 29209.46081989537, -48013.961078400745, -38789.32908646215, 3018.0666468222917, -13809.511221588997, -187500.02235174447, -665.5678946456784, 7649.996298551118, -36664.37109284056, 752.2032561544486, -20475.76254317314, -23830.826441148096, -22471.370991631866, -25816.91304646886, -40483.16663302978, 0.062, 1.014, -0.036000000000000004, 192.0, 0.0, 0.0, 0.0, 0.0, 0.0, 0.0, 0.0, 0.0, 0.0, 1.695756389955625E9, 0.0, 2023-09-26 14:26:29.955
28.0, -159265.65638371187, 29213.908817041975, -48016.062142379546, -38790.267859729276, 3024.4592457365093, -13807.499564588019, -187500.02235174447, -660.6728626099662, 7641.502635658102, -36684.06297970569, 751.4209450985128, -20493.800400948574, -23814.487315951268, -22472.220357921167, -25818.991758703203, -40482.54078418503, 0.058, 1.018, -0.032, 192.0, 0.5, 104.0, 15.5, 104.0, 127.5, 0.0, 0.0, 0.0, 0.0, 1.695756389955634E9, 0.0, 2023-09-26 14:26:29.955
30.0, -159268.2491860687, 29216.68043335443, -48010.6306684769, -38785.32812420465, 3026.113274826202, -13796.413099338186, -187500.02235174447, -675.0450342947286, 7636.138216988828, -36665.77925274125, 756.5618463232335, -20475.3825635174, -23805.99365305825, -22471.3039363985, -25820.131697670426, -40486.02765632006, 0.058, 1.018, -0.032, 192.0, 0.0, 0.0, 0.0, 0.0, 0.0, 0.0, 0.0, 0.0, 0.0, 1.695756390015876E9, 0.0, 2023-09-26 14:26:30.015
32.0, -159303.56494230806, 29222.670700868453, -48005.847395163466, -38782.80237708121, 3032.036487106858, -13788.455878312097, -187500.02235174447, -660.3152346986813, 7669.509371460602, -36681.13490118205, 766.8212970282194, -20503.881037697916, -23783.731315580764, -22449.66744776576, -25798.606967759966, -40470.0014555456, 0.058, 1.018, -0.032, 192.0, 0.0, 0.0, 0.0, 0.0, 0.0, 0.0, 0.0, 0.0, 0.0, 1.695756390015902E9, 0.0, 2023-09-26 14:26:30.015
34.0, -159285.840008955, 29221.419003178955, -48012.57527024452, -38786.28924921623, 3024.526300969875, -13787.181828878145, -187500.02235174447, -660.4269934209577, 7663.56380743549, -36644.00865364178, 771.0234249858171, -20471.582766959997, -23790.749763339732, -22459.837491492926, -25799.791610216096, -40482.071397551466, 0.058, 1.018, -0.032, 192.0, 0.0, 0.0, 0.0, 0.0, 0.0, 0.0, 0.0, 0.0, 0.0, 1.695756390015912E9, 0.0, 2023-09-26 14:26:30.015
36.0, -159301.73209926274, 29212.411250163466, -48024.60050876147, -38788.993810295324, 3016.747893899428, -13789.126430645756, -187500.02235174447, -662.3045399552036, 7665.217836525183, -36652.27879909024, 762.3956516260686, -20489.262996824145, -23785.742972581742, -22459.837491492926, -25786.46997052073, -40480.663237650784, 0.058, 1.018, -0.032, 192.0, 0.0, 0.0, 0.0, 0.0, 0.0, 0.0, 0.0, 0.0, 0.0, 1.695756390015921E9, 0.0, 2023-09-26 14:26:30.015
38.0, -159274.30650881608, 29212.523008885746, -48033.07181991003, -38791.13957776303, 3012.210489775001, -13790.10990740179, -187500.02235174447, -666.998406290818, 7658.691127144233, -36625.948444121896, 769.481154618401, -20463.178511044804, -23789.60982437251, -22450.092130910412, -25781.172607084824, -40489.3580662439, 0.062, 1.02, -0.028, 192.0, 0.5, 120.0, 15.5, 112.0, 127.5, 16.0, 0.0, 0.0, 0.0, 1.69575639001593E9, 0.0, 2023-09-26 14:26:30.015
40.0, -159272.22779658172, 29200.788343046708, -48035.55286354457, -38788.0550370282, 3012.3669519861883, -13791.898046958215, -187500.02235174447, -668.6300836360555, 7649.504560173102, -36647.048490887704, 763.2003144264596, -20476.991889118184, -23794.773077341688, -22462.050314194003, -25779.853854161964, -40501.20449080521, 0.062, 1.02, -0.028, 192.0, 0.0, 0.0, 0.0, 0.0, 0.0, 0.0, 0.0, 0.0, 0.0, 1.69575639001594E9, 0.0, 2023-09-26 14:26:30.015
42.0, -159246.67975266933, 29206.465686138356, -48034.927014699824, -38780.678961357946, 3011.6740479080736, -13788.657044012196, -187500.02235174447, -666.9760545463628, 7659.048755055518, -36633.771554681254, 774.1526692095601, -20458.328182498, -23782.613728358, -22450.15918614378, -25763.984115598694, -40496.48827272514, 0.062, 1.02, -0.028, 192.0, 0.0, 0.0, 0.0, 0.0, 0.0, 0.0, 0.0, 0.0, 0.0, 1.695756390015949E9, 0.0, 2023-09-26 14:26:30.015
44.0, -159294.1548578924, 29203.045869236696, -48020.82306394853, -38762.350530904594, 3032.058838851314, -13768.495770513508, -187500.02235174447, -663.3327202001477, 7664.9496155917195, -36658.2020113709, 766.0166342278284, -20485.396145033377, -23772.98012649776, -22443.766587229562, -25747.309714235034, -40482.58548767394, 0.062, 1.02, -0.028, 192.0, 0.0, 0.0, 0.0, 0.0, 0.0, 0.0, 0.0, 0.0, 0.0, 1.695756390015958E9, 0.0, 2023-09-26 14:26:30.015
46.0, -159280.96732866377, 29210.980738518327, -48018.923165669825, -38756.60613257958, 3035.210434819512, -13761.589081476819, -187500.02235174447, -650.0781357381506, 7682.51808673359, -36633.01159536977, 777.7736518113198, -20466.665383179832, -23769.493254362733, -22441.844337206407, -25738.681940875285, -40477.802214360505, 0.062, 1.02, -0.028, 192.0, 0.0, 0.0, 0.0, 0.0, 0.0, 0.0, 0.0, 0.0, 0.0, 1.695756390076204E9, 0.0, 2023-09-26 14:26:30.076
48.0, -159305.7554132647, 29197.25676742277, -48030.90370069787, -38767.267914684766, 3025.7332951704616, -13771.356793803787, -187500.02235174447, -653.5873596176339, 7671.073993572473, -36642.44403152991, 773.4597651314456, -20482.423363020822, -23767.526300850666, -22436.5469737705, -25740.023045542606, -40474.56121141448, 0.062, 1.016, -0.032, 192.0, 0.5, 120.0, 15.5, 96.0, 127.5, 0.0, 0.0, 0.0, 0.0, 1.695756390076225E9, 0.0, 2023-09-26 14:26:30.076
50.0, -159272.42896228182, 29203.35879365907, -48042.86188398146, -38778.46613865688, 3018.5136817113976, -13776.900026428704, -187500.02235174447, -648.7370310708321, 7666.536589448046, -36638.91245590597, 773.705634320454, -20469.369944258924, -23772.913071264396, -22440.68204649473, -25749.969571825215, -40481.69141789573, 0.062, 1.016, -0.032, 192.0, 0.0, 0.0, 0.0, 0.0, 0.0, 0.0, 0.0, 0.0, 0.0, 1.695756390076236E9, 0.0, 2023-09-26 14:26:30.076
52.0, -159299.02753818364, 29191.02063071974, -48031.84247396499, -38772.4535193984, 3027.186158560057, -13767.713459457573, -187500.02235174447, -663.2880167112371, 7662.625034168367, -36647.607284499085, 758.0817649461943, -20479.025897863616, -23785.027716759174, -22452.036732678025, -25762.598307442466, -40491.61559243388, 0.062, 1.016, -0.032, 192.0, 0.0, 0.0, 0.0, 0.0, 0.0, 0.0, 0.0, 0.0, 0.0, 1.695756390076275E9, 0.0, 2023-09-26 14:26:30.076
54.0, -159280.43088679682, 29202.129447714025, -48032.55772978756, -38779.136690990534, 3026.403847504121, -13778.419945051664, -187500.02235174447, -652.3803654170472, 7687.480174002669, -36638.934807650425, 771.2916459192808, -20475.76254317314, -23771.460207874803, -22434.49061328061, -25746.549754923555, -40481.33378998444, 0.062, 1.016, -0.032, 192.0, 0.0, 0.0, 0.0, 0.0, 0.0, 0.0, 0.0, 0.0, 0.0, 1.695756390076285E9, 0.0, 2023-09-26 14:26:30.076
56.0, -159302.93909346333, 29188.181959173915, -48026.522758784624, -38777.97440027886, 3030.3601062727103, -13782.957349176091, -187500.02235174447, -665.8584673235974, 7659.428734711259, -36644.7015577199, 757.2100469124374, -20479.651746708365, -23788.894568549942, -22451.67910476674, -25757.658571917844, -40496.71179016969, 0.062, 1.016, -0.032, 192.0, 0.0, 0.0, 0.0, 0.0, 0.0, 0.0, 0.0, 0.0, 0.0, 1.695756390076293E9, 0.0, 2023-09-26 14:26:30.076
58.0, -159274.01593613817, 29194.663965065953, -48034.301165855075, -38787.56329865018, 3024.213376547501, -13797.664797027684, -187500.02235174447, -661.5669323881784, 7677.354833764414, -36642.980473396834, 763.5802940821999, -20477.215406562736, -23786.32411793758, -22446.78407273103, -25750.550717181053, -40494.6107261909, 0.06, 1.014, -0.032, 192.0, 0.5, 112.0, 15.5, 88.0, 127.5, 0.0, 0.0, 0.0, 0.0, 1.695756390076302E9, 0.0, 2023-09-26 14:26:30.076
60.0, -159275.7370204612, 29182.437560848903, -48032.7365437432, -38788.63618238404, 3022.179367802068, -13798.983549950546, -187500.02235174447, -681.9740750758738, 7655.830103853954, -36646.713214720876, 755.0866311891832, -20467.71591516923, -23808.295882737148, -22467.72765728565, -25772.678944191808, -40513.60970897791, 0.06, 1.014, -0.032, 192.0, 0.0, 0.0, 0.0, 0.0, 0.0, 0.0, 0.0, 0.0, 0.0, 1.695756390135771E9, 0.0, 2023-09-26 14:26:30.135
62.0, -159274.0829913715, 29198.441409878902, -48021.135988370894, -38777.90734504549, 3034.249309807934, -13781.750354975506, -187500.02235174447, -666.774888846265, 7667.497714459624, -36660.41483407198, 762.8873900040853, -20480.56816823103, -23797.47763842078, -22460.73156127114, -25761.503071964155, -40499.03637159304, 0.06, 1.014, -0.032, 192.0, 0.0, 0.0, 0.0, 0.0, 0.0, 0.0, 0.0, 0.0, 0.0, 1.695756390135795E9, 0.0, 2023-09-26 14:26:30.135
64.0, -159301.64269228492, 29195.91566275545, -48002.293467795076, -38762.75286230479, 3050.007289648925, -13768.071087368857, -187500.02235174447, -664.4056039340024, 7680.0370430990515, -36651.518839778764, 766.1060412056496, -20475.941357128784, -23789.833341817062, -22449.175709387746, -25751.80241487055, -40484.865365608384, 0.06, 1.014, -0.032, 192.0, 0.0, 0.0, 0.0, 0.0, 0.0, 0.0, 0.0, 0.0, 0.0, 1.695756390135805E9, 0.0, 2023-09-26 14:26:30.135
66.0, -159289.48334330122, 29200.497770368787, -48012.97760164471, -38774.331065932645, 3042.1618273451127, -13776.765915961972, -187500.02235174447, -648.1111822260835, 7679.053566343018, -36656.52563053675, 772.0963087196718, -20481.81986592053, -23779.55153936762, -22441.73257848413, -25740.604190898444, -40474.56121141448, 0.06, 1.014, -0.032, 192.0, 0.0, 0.0, 0.0, 0.0, 0.0, 0.0, 0.0, 0.0, 0.0, 1.695756390135815E9, 0.0, 2023-09-26 14:26:30.135
68.0, -159292.0984974025, 29196.11682845555, -48010.92124115482, -38772.855850798594, 3041.535978500364, -13776.765915961972, -187500.02235174447, -660.9187317989746, 7665.575464436468, -36644.813316442174, 761.7474510368647, -20464.005525589648, -23787.262891204704, -22459.055180436993, -25748.226135757704, -40483.63601966334, 0.064, 1.018, -0.034, 192.0, 1.0, 0.0, 15.5, 104.0, 127.0, 120.0, 0.0, 0.0, 0.0, 1.695756390135824E9, 0.0, 2023-09-26 14:26:30.135
70.0, -159293.17138113634, 29197.659098822965, -48010.384799287895, -38770.620676353064, 3043.6817459680733, -13787.405346322697, -187500.02235174447, -651.5757026166561, 7681.8028309110205, -36654.78219446924, 768.3859191400909, -20475.494322239676, -23790.4144871729, -22456.30591586899, -25743.867545588917, -40478.562173671984, 0.064, 1.018, -0.034, 192.0, 0.0, 0.0, 0.0, 0.0, 0.0, 0.0, 0.0, 0.0, 0.0, 1.695756390135833E9, 0.0, 2023-09-26 14:26:30.135
72.0, -159309.04111969963, 29192.428790620423, -48004.95332538526, -38766.17267920646, 3045.8945686691486, -13774.933072916636, -187500.02235174447, -658.2365224643377, 7679.813525654498, -36642.019348385256, 774.1079657206495, -20461.6809441663, -23788.514588894202, -22461.089189182425, -25741.05122578755, -40478.226897505156, 0.064, 1.018, -0.034, 192.0, 0.0, 0.0, 0.0, 0.0, 0.0, 0.0, 0.0, 0.0, 0.0, 1.695756390135842E9, 0.0, 2023-09-26 14:26:30.135
74.0, -159315.07609070255, 29202.01768899175, -48011.94942139977, -38772.498222887305, 3041.401868033632, -13778.621110751763, -187500.02235174447, -648.4911618818238, 7677.37718550887, -36662.225325372856, 776.1643262105378, -20478.7353251857, -23780.222091701282, -22446.806424475482, -25740.134804264882, -40471.67783637975, 0.064, 1.018, -0.034, 192.0, 0.0, 0.0, 0.0, 0.0, 0.0, 0.0, 0.0, 0.0, 0.0, 1.695756390135884E9, 0.0, 2023-09-26 14:26:30.135
76.0, -159281.12379087493, 29195.625090077534, -48025.80750296206, -38784.92579280446, 3026.627364948674, -13787.807677722893, -187500.02235174447, -656.5601416301896, 7661.999185323619, -36639.985339639825, 773.638579087088, -20447.28642073708, -23801.255083233726, -22470.02988696455, -25762.777121398107, -40495.4600924802, 0.064, 1.018, -0.034, 192.0, 0.0, 0.0, 0.0, 0.0, 0.0, 0.0, 0.0, 0.0, 0.0, 1.695756390196067E9, 0.0, 2023-09-26 14:26:30.196
78.0, -159284.0071659097, 29194.77572378823, -48029.964927430745, -38784.814034082185, 3022.2240712909784, -13786.265407355477, -187500.02235174447, -655.8448858076198, 7664.100249302417, -36669.623752787564, 765.0331574717949, -20467.71591516923, -23802.685594878865, -22457.44585483621, -25767.448635989265, -40493.62724943486, 0.06, 1.018, -0.034, 192.0, 0.5, 112.0, 15.5, 104.0, 127.0, 120.0, 0.0, 0.0, 0.0, 1.69575639019609E9, 0.0, 2023-09-26 14:26:30.196
80.0, -159287.0470031556, 29205.10222972658, -48015.59275574598, -38770.21834495287, 3036.5068359979196, -13772.094401370812, -187500.02235174447, -657.163638730483, 7681.601665210923, -36652.68113049044, 772.3645296531356, -20453.56726092902, -23802.66324313441, -22453.221375134155, -25764.27468827661, -40490.27448776657, 0.06, 1.018, -0.034, 192.0, 0.0, 0.0, 0.0, 0.0, 0.0, 0.0, 0.0, 0.0, 0.0, 1.695756390196101E9, 0.0, 2023-09-26 14:26:30.196
82.0, -159304.68252953084, 29206.59979660509, -48013.29052606708, -38771.11241473108, 3037.959699387515, -13772.854360682293, -187500.02235174447, -652.4697723948684, 7682.5627902225015, -36663.611133529084, 767.0448144727725, -20468.721743669717, -23807.558275170122, -22453.10961641188, -25761.972458597716, -40490.319191255476, 0.06, 1.018, -0.034, 192.0, 0.0, 0.0, 0.0, 0.0, 0.0, 0.0, 0.0, 0.0, 0.0, 1.69575639019611E9, 0.0, 2023-09-26 14:26:30.196
84.0, -159286.21998861074, 29211.003090262784, -48017.69381972478, -38778.75671133479, 3030.8294929062718, -13786.377166077753, -187500.02235174447, -650.7486880718099, 7683.14393557834, -36640.87940941804, 777.6618930890434, -20449.231022504693, -23804.317272224103, -22453.288430367524, -25755.602211427955, -40486.45233946471, 0.06, 1.018, -0.034, 192.0, 0.0, 0.0, 0.0, 0.0, 0.0, 0.0, 0.0, 0.0, 0.0, 1.695756390196119E9, 0.0, 2023-09-26 14:26:30.196
86.0, -159292.56788403605, 29205.146933215492, -48022.52179652713, -38783.763502092785, 3025.6438881926406, -13801.06226218489, -187500.02235174447, -654.3696706735695, 7660.032231811551, -36660.77246198326, 759.3558143801469, -20462.083275566492, -23820.365824743014, -22462.96673571667, -25768.454464489754, -40500.377476260364, 0.06, 1.018, -0.034, 192.0, 0.0, 0.0, 0.0, 0.0, 0.0, 0.0, 0.0, 0.0, 0.0, 1.695756390196128E9, 0.0, 2023-09-26 14:26:30.196
88.0, -159272.40661053738, 29211.472476896346, -48015.480997023704, -38778.644952612514, 3028.9295946275706, -13794.580256292851, -187500.02235174447, -653.9002840400082, 7659.764010878088, -36648.21078159938, 765.3460818941692, -20442.70431312374, -23827.71954866881, -22468.10763694139, -25775.159987826348, -40503.5067204841, 0.062, 1.016, -0.032, 192.0, 0.5, 120.0, 15.5, 96.0, 127.5, 0.0, 0.0, 0.0, 0.0, 1.695756390196136E9, 0.0, 2023-09-26 14:26:30.196
90.0, -159312.59504706803, 29210.801924562686, -48003.12048233992, -38772.27470544275, 3042.273586067389, -13784.521971287963, -187500.02235174447, -652.2239032058601, 7689.7153484482, -36671.47894757735, 765.4578406164457, -20468.073543080514, -23807.75944087022, -22450.405055332787, -25761.57012719752, -40484.41833071927, 0.062, 1.016, -0.032, 192.0, 0.0, 0.0, 0.0, 0.0, 0.0, 0.0, 0.0, 0.0, 0.0, 1.695756390256448E9, 0.0, 2023-09-26 14:26:30.256
92.0, -159278.93331991832, 29213.573540875142, -48013.178767344805, -38783.8529090706, 3035.590414475252, -13791.987453936035, -187500.02235174447, -648.1782374594495, 7679.590008209945, -36648.45665078839, 777.7736518113198, -20444.738321869176, -23813.548542684144, -22462.720866527663, -25767.20276680026, -40492.286144767546, 0.062, 1.016, -0.032, 192.0, 0.0, 0.0, 0.0, 0.0, 0.0, 0.0, 0.0, 0.0, 0.0, 1.695756390256472E9, 0.0, 2023-09-26 14:26:30.256
94.0, -159306.64948304291, 29204.5434361152, -48012.95524990025, -38783.607039881594, 3038.9878796324588, -13787.852381211804, -187500.02235174447, -655.1072782405947, 7667.251845270615, -36669.66845627647, 761.4121748700351, -20464.586670945486, -23811.62629266099, -22459.658677537285, -25767.873319133916, -40493.739008157136, 0.062, 1.016, -0.032, 192.0, 0.0, 0.0, 0.0, 0.0, 0.0, 0.0, 0.0, 0.0, 0.0, 1.695756390256512E9, 0.0, 2023-09-26 14:26:30.256
96.0, -159280.52029377467, 29205.862189038064, -48022.09711338248, -38791.13957776303, 3026.7167719264953, -13785.81837246637, -187500.02235174447, -642.8138187901758, 7671.208104039205, -36659.38665382703, 766.2625034168367, -20456.249470263658, -23810.016967060204, -22455.545956557507, -25768.499167978665, -40490.6097639334, 0.062, 1.016, -0.032, 192.0, 0.0, 0.0, 0.0, 0.0, 0.0, 0.0, 0.0, 0.0, 0.0, 1.695756390256521E9, 0.0, 2023-09-26 14:26:30.256
98.0, -159316.64071281443, 29196.7426773003, -48013.178767344805, -38780.43309216894, 3033.891681896649, -13764.830084422838, -187500.02235174447, -648.2229409483601, 7663.206179524205, -36670.2048981434, 754.6395963000771, -20473.505016983156, -23820.701100909842, -22461.916203727273, -25776.970479127227, -40490.185080788746, 0.064, 1.012, -0.032, 192.0, 1.0, 0.0, 15.5, 80.0, 127.5, 0.0, 0.0, 0.0, 0.0, 1.69575639025653E9, 0.0, 2023-09-26 14:26:30.256
100.0, -159288.87984620093, 29203.984642503816, -48018.67729648081, -38784.0540747707, 3026.850882393227, -13772.29556707091, -187500.02235174447, -635.6389088200223, 7662.513275446091, -36658.8502119601, 766.8436487726747, -20465.14546455687, -23813.95087408434, -22444.68300875223, -25770.779045913107, -40479.34448472792, 0.064, 1.012, -0.032, 192.0, 0.0, 0.0, 0.0, 0.0, 0.0, 0.0, 0.0, 0.0, 0.0, 1.69575639025654E9, 0.0, 2023-09-26 14:26:30.256
102.0, -159313.28795114614, 29193.032287720718, -48018.721999969726, -38783.74115034832, 3027.9461178715374, -13779.939863674625, -187500.02235174447, -651.1733712164606, 7668.257673771104, -36669.93667720994, 753.9243404775073, -20471.76158091564, -23814.487315951268, -22455.21068039068, -25776.746961682675, -40486.541746442526, 0.064, 1.012, -0.032, 192.0, 0.0, 0.0, 0.0, 0.0, 0.0, 0.0, 0.0, 0.0, 0.0, 1.695756390256549E9, 0.0, 2023-09-26 14:26:30.256
104.0, -159305.64365454242, 29206.465686138356, -48009.87070916542, -38774.308714188184, 3039.0102313769144, -13777.525875273452, -187500.02235174447, -646.7253740698545, 7676.1031360749175, -36661.91240095048, 757.76884052382, -20468.878205880905, -23816.655435163433, -22452.81904373396, -25776.121112837925, -40488.17342378777, 0.064, 1.012, -0.032, 192.0, 0.0, 0.0, 0.0, 0.0, 0.0, 0.0, 0.0, 0.0, 0.0, 1.695756390256558E9, 0.0, 2023-09-26 14:26:30.256
106.0, -159337.4054834134, 29205.34809891559, -48002.204060817254, -38767.8490600406, 3049.2249785929894, -13773.860189182782, -187500.02235174447, -650.3016531827037, 7678.718290176188, -36650.334197322634, 763.2897214042808, -20474.980232117206, -23799.243426232748, -22439.497404038597, -25762.44184523128, -40478.4057114608, 0.064, 1.012, -0.032, 192.0, 0.0, 0.0, 0.0, 0.0, 0.0, 0.0, 0.0, 0.0, 0.0, 1.695756390316574E9, 0.0, 2023-09-26 14:26:30.316
108.0, -159304.39195685292, 29207.136238472016, -48013.335229555996, -38782.02006602527, 3033.1317225851685, -13789.953445190604, -187500.02235174447, -643.774943801754, 7669.598778438423, -36649.01544439977, 770.8446110301746, -20464.787836645584, -23805.412507702415, -22455.545956557507, -25765.839310388485, -40489.24630752162, 0.062, 1.012, -0.034, 192.0, 0.5, 120.0, 15.5, 80.0, 127.0, 120.0, 0.0, 0.0, 0.0, 1.695756390316597E9, 0.0, 2023-09-26 14:26:30.316
110.0, -159325.17907919636, 29206.53274137172, -48007.79199693108, -38774.82280431066, 3037.5126644984084, -13779.626939252252, -187500.02235174447, -654.6378916070332, 7660.188694022739, -36650.133031622536, 766.2177999279261, -20460.071618565515, -23808.675862392887, -22450.270944866057, -25766.040476088583, -40488.91103135479, 0.062, 1.012, -0.034, 192.0, 0.0, 0.0, 0.0, 0.0, 0.0, 0.0, 0.0, 0.0, 0.0, 1.695756390316618E9, 0.0, 2023-09-26 14:26:30.316
112.0, -159314.60670406898, 29220.92726480094, -48003.947496884764, -38769.5477926192, 3040.7760191888833, -13775.782439205937, -187500.02235174447, -639.6175193330669, 7663.317938246481, -36646.95908390988, 771.1128319636383, -20460.965688343727, -23813.19091477286, -22442.514889540063, -25763.358266753945, -40487.59227843193, 0.062, 1.012, -0.034, 192.0, 0.0, 0.0, 0.0, 0.0, 0.0, 0.0, 0.0, 0.0, 0.0, 1.695756390316627E9, 0.0, 2023-09-26 14:26:30.316
114.0, -159340.1100444925, 29215.227569964838, -47998.96305787123, -38764.876278028045, 3045.5592925023193, -13769.076915869346, -187500.02235174447, -645.9654147583741, 7690.788232182054, -36637.3478337941, 777.0807477332054, -20455.48951095218, -23801.009214044716, -22430.10967136737, -25753.411740471332, -40477.46693819368, 0.062, 1.012, -0.034, 192.0, 0.0, 0.0, 0.0, 0.0, 0.0, 0.0, 0.0, 0.0, 0.0, 1.695756390316637E9, 0.0, 2023-09-26 14:26:30.316
116.0, -159311.41040461187, 29208.25382569478, -48015.145720856875, -38781.036589269235, 3033.019963862892, -13783.851418954304, -187500.02235174447, -640.2433681778155, 7671.56573195049, -36648.32254032166, 772.0069017418506, -20455.780083630096, -23813.347376984046, -22447.946363442705, -25761.324258008513, -40488.46399646569, 0.062, 1.012, -0.034, 192.0, 0.0, 0.0, 0.0, 0.0, 0.0, 0.0, 0.0, 0.0, 0.0, 1.69575639031669E9, 0.0, 2023-09-26 14:26:30.316
118.0, -159332.8457275445, 29199.335479657115, -48002.762854428634, -38768.653722840994, 3043.8382081792606, -13773.122581615757, -187500.02235174447, -649.228769448849, 7669.732888905155, -36649.82010720016, 768.251808673359, -20447.778159115096, -23814.062632806617, -22451.880270466838, -25763.179452798304, -40483.54661268552, 0.06, 1.014, -0.03, 192.0, 0.5, 112.0, 15.5, 88.0, 127.5, 8.0, 0.0, 0.0, 0.0, 1.695756390316699E9, 0.0, 2023-09-26 14:26:30.316
120.0, -159322.67568381736, 29198.620223834543, -48018.02909589161, -38784.165833492974, 3027.275565537878, -13790.668701013174, -187500.02235174447, -635.3706878865586, 7670.291682516538, -36663.54407829572, 761.836858014686, -20465.883072123896, -23810.911036838417, -22447.991066931616, -25760.273726019113, -40475.23176374815, 0.06, 1.014, -0.03, 192.0, 0.0, 0.0, 0.0, 0.0, 0.0, 0.0, 0.0, 0.0, 0.0, 1.695756390375606E9, 0.0, 2023-09-26 14:26:30.375
122.0, -159307.43179409884, 29195.91566275545, -48019.37020055893, -38783.964667792876, 3022.469940479987, -13787.24888411151, -187500.02235174447, -651.3968886610137, 7661.954481834708, -36650.401252555996, 758.7970207687641, -20443.553679413042, -23825.305560267636, -22464.44195085072, -25782.62547047442, -40494.96835410218, 0.06, 1.014, -0.03, 192.0, 0.0, 0.0, 0.0, 0.0, 0.0, 0.0, 0.0, 0.0, 0.0, 1.695756390375633E9, 0.0, 2023-09-26 14:26:30.375
124.0, -159320.48521286075, 29206.085706482616, -48010.47420626572, -38776.09685374461, 3033.377591774177, -13786.645387011218, -187500.02235174447, -643.0820397236395, 7672.6609674288, -36662.2029736284, 757.5006195903563, -20463.826711634007, -23824.94793235635, -22462.83262524994, -25777.261051805148, -40487.41346447629, 0.06, 1.014, -0.03, 192.0, 0.0, 0.0, 0.0, 0.0, 0.0, 0.0, 0.0, 0.0, 0.0, 1.695756390375642E9, 0.0, 2023-09-26 14:26:30.375
126.0, -159314.60670406898, 29212.88063679703, -48011.07770336601, -38773.92873453245, 3033.7352196854617, -13781.459782297587, -187500.02235174447, -645.8760077805529, 7679.075918087473, -36637.9960343833, 770.2634656743367, -20447.554641670544, -23814.28615025117, -22447.409921575778, -25769.52734822361, -40481.60201091791, 0.06, 1.014, -0.03, 192.0, 0.0, 0.0, 0.0, 0.0, 0.0, 0.0, 0.0, 0.0, 0.0, 1.695756390375651E9, 0.0, 2023-09-26 14:26:30.375
128.0, -159333.78450081166, 29219.474401411346, -48000.88530789439, -38761.12118495956, 3041.692440711551, -13768.719287958062, -187500.02235174447, -641.807990289687, 7667.698880159722, -36658.939618937926, 759.9369597359848, -20457.612926675432, -23822.51159221072, -22450.986200688625, -25775.83054016001, -40482.138452784835, 0.054, 1.018, -0.028, 192.0, 0.5, 88.0, 15.5, 104.0, 127.5, 16.0, 0.0, 0.0, 0.0, 1.69575639037566E9, 0.0, 2023-09-26 14:26:30.375
130.0, -159332.3986926554, 29224.88352356953, -47997.82311890401, -38754.43801336742, 3043.748801201439, -13760.136218087224, -187500.02235174447, -637.6729175654552, 7678.248903542627, -36630.77642092424, 776.7901750552863, -20437.250487476646, -23807.6700338924, -22431.093148123404, -25763.04534233157, -40463.51944965356, 0.054, 1.018, -0.028, 192.0, 0.0, 0.0, 0.0, 0.0, 0.0, 0.0, 0.0, 0.0, 0.0, 1.69575639037567E9, 0.0, 2023-09-26 14:26:30.375
132.0, -159341.607611371, 29217.842724066108, -48008.909584153844, -38768.944295518915, 3032.103542340224, -13774.150761860701, -187500.02235174447, -635.4153913754692, 7674.13618256285, -36645.662682731476, 771.4704598749232, -20453.254336506645, -23815.13551654047, -22437.262229593067, -25768.655630189853, -40467.98979854462, 0.054, 1.018, -0.028, 192.0, 0.0, 0.0, 0.0, 0.0, 0.0, 0.0, 0.0, 0.0, 0.0, 1.695756390375679E9, 0.0, 2023-09-26 14:26:30.375
134.0, -159319.52408784916, 29217.552151388187, -48013.178767344805, -38779.18139447944, 3029.086056838758, -13779.202256107601, -187500.02235174447, -642.0091559897847, 7667.743583648633, -36632.45280175839, 771.1575354525489, -20437.04932177655, -23825.66318817892, -22447.991066931616, -25776.299926793567, -40479.36683647238, 0.054, 1.018, -0.028, 192.0, 0.0, 0.0, 0.0, 0.0, 0.0, 0.0, 0.0, 0.0, 0.0, 1.695756390375688E9, 0.0, 2023-09-26 14:26:30.375
136.0, -159337.27137294668, 29207.292700683203, -48010.58596498799, -38780.92483054696, 3030.2259958059785, -13784.67843349915, -187500.02235174447, -651.4862956388349, 7656.99239456563, -36660.28072360525, 758.0594132017391, -20458.462292964734, -23829.32887426959, -22465.716000284672, -25782.647822218874, -40485.40180747531, 0.054, 1.018, -0.028, 192.0, 0.0, 0.0, 0.0, 0.0, 0.0, 0.0, 0.0, 0.0, 0.0, 1.695756390436291E9, 0.0, 2023-09-26 14:26:30.436
138.0, -159310.44927960032, 29215.62990136503, -48007.21085157524, -38777.259144456286, 3033.332888285266, -13781.370375319764, -187500.02235174447, -646.7253740698545, 7658.445257955224, -36645.81914494266, 771.448108130468, -20442.078464278995, -23827.965417857817, -22454.115444912368, -25781.82080767403, -40485.066531308476, 0.056, 1.012, -0.03, 192.0, 0.5, 96.0, 15.5, 80.0, 127.5, 8.0, 0.0, 0.0, 0.0, 1.695756390436342E9, 0.0, 2023-09-26 14:26:30.436
140.0, -159316.08191920305, 29210.623110607045, -48007.8814039089, -38779.76253983528, 3031.8576731512157, -13785.796020721917, -187500.02235174447, -646.5689118586674, 7676.438412241747, -36656.279761347745, 769.9058377630517, -20454.841310362972, -23822.645702677455, -22452.573174544952, -25775.29409829308, -40476.5058131821, 0.056, 1.012, -0.03, 192.0, 0.0, 0.0, 0.0, 0.0, 0.0, 0.0, 0.0, 0.0, 0.0, 1.695756390436353E9, 0.0, 2023-09-26 14:26:30.436
142.0, -159301.19565739582, 29214.02057576425, -47997.19727005927, -38770.93360077543, 3042.9888418899586, -13776.073011883856, -187500.02235174447, -650.1004874826059, 7669.218798782683, -36644.187467597425, 770.1740586965154, -20441.005580545137, -23827.18310680188, -22464.10667468389, -25775.271746548624, -40480.28325799504, 0.056, 1.012, -0.03, 192.0, 0.0, 0.0, 0.0, 0.0, 0.0, 0.0, 0.0, 0.0, 0.0, 1.695756390436362E9, 0.0, 2023-09-26 14:26:30.436
144.0, -159317.62418957046, 29206.510389627267, -48007.45672076425, -38781.43892066943, 3033.5787574742744, -13791.562770791385, -187500.02235174447, -654.4367259069355, 7664.681394658255, -36658.06790090417, 771.0457767302725, -20459.065790065026, -23818.37651948649, -22452.3496571004, -25770.846101146475, -40474.13652826983, 0.056, 1.012, -0.03, 192.0, 0.0, 0.0, 0.0, 0.0, 0.0, 0.0, 0.0, 0.0, 0.0, 1.695756390436371E9, 0.0, 2023-09-26 14:26:30.436
146.0, -159301.41917484035, 29216.300453698692, -48002.36052302844, -38775.38159792204, 3041.491275011453, -13787.96413993408, -187500.02235174447, -654.3696706735695, 7661.976833579163, -36660.86186896108, 777.4607273889455, -20448.26989749311, -23824.702063167344, -22459.12223567036, -25780.166778584335, -40479.63505740584, 0.056, 1.012, -0.03, 192.0, 0.0, 0.0, 0.0, 0.0, 0.0, 0.0, 0.0, 0.0, 0.0, 1.695756390436382E9, 0.0, 2023-09-26 14:26:30.436
148.0, -159316.52895409215, 29202.531779114222, -48012.061180122044, -38786.08808351614, 3033.0646673518027, -13806.091404687335, -187500.02235174447, -664.0479760227175, 7667.1847900372495, -36664.75107249631, 773.3927098980797, -20458.551699942553, -23821.46106022132, -22460.73156127114, -25783.407781530357, -40481.19967951771, 0.056, 1.012, -0.03, 192.0, 0.5, 96.0, 15.5, 80.0, 127.5, 8.0, 0.0, 0.0, 0.0, 1.695756390436392E9, 0.0, 2023-09-26 14:26:30.436
150.0, -159295.42890732634, 29207.695032083397, -48008.708418453745, -38783.830557326146, 3033.5117022409086, -13804.258561642, -187500.02235174447, -660.8963800545192, 7665.843685369931, -36663.67818876245, 774.1526692095601, -20450.080388793995, -23825.484374223277, -22467.235918907634, -25791.25324383417, -40492.59906918992, 0.056, 1.012, -0.03, 192.0, 0.0, 0.0, 0.0, 0.0, 0.0, 0.0, 0.0, 0.0, 0.0, 1.695756390496071E9, 0.0, 2023-09-26 14:26:30.496
152.0, -159349.74364635273, 29212.075973996638, -47985.39554898686, -38760.271818670255, 3054.3211763287995, -13778.844628196315, -187500.02235174447, -663.5338859002454, 7678.941807620741, -36669.89197372102, 776.8795820331076, -20466.307755268546, -23815.850772363043, -22455.233032135133, -25780.52440649562, -40480.90910683979, 0.056, 1.012, -0.03, 192.0, 0.0, 0.0, 0.0, 0.0, 0.0, 0.0, 0.0, 0.0, 0.0, 1.695756390496097E9, 0.0, 2023-09-26 14:26:30.496
154.0, -159344.8039108281, 29227.16340150397, -47992.74927291266, -38765.90445827299, 3053.4494582950424, -13778.375241562753, -187500.02235174447, -645.0936967246172, 7703.126395121383, -36652.74818572381, 799.1195677661381, -20467.537101213587, -23799.71281286631, -22434.803537702985, -25766.263993533135, -40467.00632178859, 0.056, 1.012, -0.03, 192.0, 0.0, 0.0, 0.0, 0.0, 0.0, 0.0, 0.0, 0.0, 0.0, 1.695756390496107E9, 0.0, 2023-09-26 14:26:30.496
156.0, -159360.1595592689, 29213.21591296386, -48005.75798818564, -38780.20957472439, 3039.524321499386, -13784.320805587866, -187500.02235174447, -656.2919206967259, 7676.058432586006, -36645.68503447593, 785.7532245818645, -20461.725647655207, -23814.10733629553, -22452.52847105604, -25782.24549081868, -40478.47276669416, 0.056, 1.012, -0.03, 192.0, 0.0, 0.0, 0.0, 0.0, 0.0, 0.0, 0.0, 0.0, 0.0, 1.695756390496117E9, 0.0, 2023-09-26 14:26:30.496
158.0, -159350.63771613094, 29221.55311364569, -48004.238069562685, -38779.67313285746, 3039.4125627771095, -13783.15851487619, -187500.02235174447, -650.7933915607205, 7662.245054512627, -36662.76176723978, 781.2381722018924, -20469.034668092092, -23821.885743365972, -22454.070741423457, -25792.01320314565, -40483.613667918886, 0.06, 1.018, -0.024, 192.0, 0.5, 112.0, 15.5, 104.0, 127.5, 32.0, 0.0, 0.0, 0.0, 1.695756390496126E9, 0.0, 2023-09-26 14:26:30.496
160.0, -159355.9127278224, 29213.55118913069, -48007.21085157524, -38784.322295704165, 3033.5117022409086, -13784.074936398858, -187500.02235174447, -662.7292230998544, 7667.989452837641, -36659.23019161585, 774.5997040986663, -20465.301926768057, -23828.501859724744, -22461.938555471726, -25794.784819458106, -40484.01599931908, 0.06, 1.018, -0.024, 192.0, 0.0, 0.0, 0.0, 0.0, 0.0, 0.0, 0.0, 0.0, 0.0, 1.69575639049617E9, 0.0, 2023-09-26 14:26:30.496
162.0, -159350.63771613094, 29221.910741556974, -48003.99220037368, -38781.729493347346, 3038.3843825321655, -13787.427698067153, -187500.02235174447, -655.6660718519773, 7664.0108423245965, -36666.98624694184, 771.5375151082892, -20473.639127449886, -23823.15979279993, -22460.038657193025, -25790.493284522687, -40480.41736846178, 0.06, 1.018, -0.024, 192.0, 0.0, 0.0, 0.0, 0.0, 0.0, 0.0, 0.0, 0.0, 0.0, 1.69575639049618E9, 0.0, 2023-09-26 14:26:30.496
164.0, -159370.03903031815, 29220.72609910084, -47997.06315959253, -38775.42630141095, 3042.8994349121376, -13788.344119589821, -187500.02235174447, -663.1986097334159, 7664.435525469247, -36659.31959859367, 769.2129336849373, -20468.833502391997, -23820.254066020738, -22458.831662992437, -25785.06181062005, -40474.04712129201, 0.06, 1.018, -0.024, 192.0, 0.0, 0.0, 0.0, 0.0, 0.0, 0.0, 0.0, 0.0, 0.0, 1.695756390496189E9, 0.0, 2023-09-26 14:26:30.496
166.0, -159347.64258237393, 29222.20131423489, -48007.54612774207, -38783.0035427813, 3032.818798162794, -13799.92232321767, -187500.02235174447, -656.2695689522707, 7662.937958590742, -36668.75203475381, 766.3742621391133, -20471.023973348616, -23830.51351672572, -22466.431256107244, -25792.549645012576, -40482.898412096314, 0.06, 1.018, -0.024, 192.0, 0.0, 0.0, 0.0, 0.0, 0.0, 0.0, 0.0, 0.0, 0.0, 1.695756390556415E9, 0.0, 2023-09-26 14:26:30.556
168.0, -159367.0662483056, 29219.764974089263, -47994.91739212482, -38769.43603389693, 3044.017022134903, -13784.343157332321, -187500.02235174447, -661.8128015771869, 7668.503542960113, -36660.07955790515, 766.9777592394065, -20462.597365688966, -23825.082042823084, -22462.49734908311, -25789.219235088734, -40475.991723059626, 0.056, 1.016, -0.028, 192.0, 0.5, 96.0, 15.5, 96.0, 127.5, 16.0, 0.0, 0.0, 0.0, 1.695756390556456E9, 0.0, 2023-09-26 14:26:30.556
170.0, -159367.93796633935, 29227.36456720407, -47996.88434563689, -38774.19695546591, 3042.854731423227, -13786.846552711315, -187500.02235174447, -642.5232461122569, 7675.767859908088, -36674.36232261209, 768.0059394843506, -20475.449618750765, -23819.4717549648, -22457.66937228076, -25786.268804820636, -40472.37074045787, 0.056, 1.016, -0.028, 192.0, 0.0, 0.0, 0.0, 0.0, 0.0, 0.0, 0.0, 0.0, 0.0, 1.695756390556488E9, 0.0, 2023-09-26 14:26:30.556
172.0, -159372.9224053529, 29224.347081702603, -47991.76579615662, -38771.023007753254, 3043.748801201439, -13782.040927653425, -187500.02235174447, -653.6767665954551, 7681.713423933199, -36660.28072360525, 773.8173930427305, -20457.456464464245, -23817.638911919465, -22456.68589552473, -25786.224101331725, -40473.555382914, 0.056, 1.016, -0.028, 192.0, 0.0, 0.0, 0.0, 0.0, 0.0, 0.0, 0.0, 0.0, 0.0, 1.695756390556502E9, 0.0, 2023-09-26 14:26:30.556
174.0, -159370.64252741844, 29217.283930454723, -48003.27694455111, -38783.98701953734, 3029.2648707944004, -13797.128355160756, -187500.02235174447, -652.0674409946729, 7667.341252248437, -36669.53434580974, 762.1944859259709, -20473.974403616718, -23818.845906120052, -22454.048389679003, -25788.14635135488, -40474.74002537013, 0.056, 1.016, -0.028, 192.0, 0.0, 0.0, 0.0, 0.0, 0.0, 0.0, 0.0, 0.0, 0.0, 1.695756390556516E9, 0.0, 2023-09-26 14:26:30.556
176.0, -159339.93123053687, 29204.476380881835, -48019.683124981304, -38803.67890640246, 3010.601164174219, -13820.620038583284, -187500.02235174447, -677.5931331626336, 7664.212008024694, -36655.13982238052, 758.4617446019346, -20453.61196441793, -23832.56987721561, -22479.663488824786, -25813.090898167004, -40499.41635124879, 0.056, 1.016, -0.028, 192.0, 0.0, 0.0, 0.0, 0.0, 0.0, 0.0, 0.0, 0.0, 0.0, 1.695756390556531E9, 0.0, 2023-09-26 14:26:30.556
178.0, -159369.21201577332, 29207.11388672756, -48006.540299241584, -38790.401970196006, 3030.5836237172634, -13806.761957020994, -187500.02235174447, -673.838040094142, 7662.3121097459925, -36692.73545655435, 741.4744188159012, -20487.698374712276, -23832.18989755987, -22483.73150631565, -25811.302758610578, -40496.77884540306, 0.056, 1.012, -0.03, 192.0, 0.5, 96.0, 15.5, 80.0, 127.5, 8.0, 0.0, 0.0, 0.0, 1.695756390556545E9, 0.0, 2023-09-26 14:26:30.556
180.0, -159361.9700505698, 29215.40638392048, -48006.16031958584, -38785.17166199347, 3028.1919870605457, -13807.477212843563, -187500.02235174447, -672.4075284490024, 7661.909778345797, -36670.71898826587, 757.7017852904542, -20470.91221462634, -23831.854621393042, -22479.663488824786, -25805.178380629826, -40486.92172609827, 0.056, 1.012, -0.03, 192.0, 0.0, 0.0, 0.0, 0.0, 0.0, 0.0, 0.0, 0.0, 0.0, 1.695756390616755E9, 0.0, 2023-09-26 14:26:30.616
182.0, -159369.7708093847, 29210.623110607045, -48016.486825524196, -38795.498167931815, 3019.7653794008947, -13814.629771069262, -187500.02235174447, -670.9099615704968, 7665.419002225281, -36691.19318618694, 753.834933499686, -20492.280482325612, -23835.877935394998, -22470.141645686825, -25804.463124807255, -40485.8041388755, 0.056, 1.012, -0.03, 192.0, 0.0, 0.0, 0.0, 0.0, 0.0, 0.0, 0.0, 0.0, 0.0, 1.695756390616923E9, 0.0, 2023-09-26 14:26:30.616
184.0, -159360.7630563692, 29218.222703721847, -47995.61029620294, -38774.755749077296, 3034.1822545745677, -13790.847514968815, -187500.02235174447, -674.7321098723543, 7648.632842139345, -36667.52268880876, 753.9466922219625, -20464.921947112318, -23847.99258088977, -22477.45066612371, -25812.733270255718, -40496.465920980685, 0.056, 1.012, -0.03, 192.0, 0.0, 0.0, 0.0, 0.0, 0.0, 0.0, 0.0, 0.0, 0.0, 1.695756390616935E9, 0.0, 2023-09-26 14:26:30.616
186.0, -159397.03993762017, 29218.200351977393, -47994.33624676899, -38772.2523536983, 3036.663298209107, -13782.577369520352, -187500.02235174447, -662.4833539108461, 7670.984586594652, -36677.245697646824, 760.1157736916273, -20487.452505523266, -23822.89157186646, -22450.472110566156, -25788.839255432995, -40466.31341771047, 0.056, 1.012, -0.03, 192.0, 0.0, 0.0, 0.0, 0.0, 0.0, 0.0, 0.0, 0.0, 0.0, 1.695756390616945E9, 0.0, 2023-09-26 14:26:30.616
188.0, -159373.59295768655, 29220.569636889653, -47999.767720671625, -38775.158080477486, 3033.757571429917, -13778.174075862657, -187500.02235174447, -655.0625747516841, 7669.643481927334, -36650.58006651164, 765.7931167832753, -20462.977345344705, -23837.10728134004, -22459.703381026196, -25799.098706137982, -40472.7507201136, 0.062, 1.008, -0.028, 192.0, 0.5, 120.0, 15.5, 64.0, 127.5, 16.0, 0.0, 0.0, 0.0, 1.695756390616955E9, 0.0, 2023-09-26 14:26:30.616
190.0, -159379.20324554484, 29206.01865124925, -48013.379933044904, -38789.709066117895, 3023.654582936118, -13790.288721357432, -187500.02235174447, -660.8516765656086, 7658.020574810574, -36669.10966266509, 748.2469973858592, -20480.32229904202, -23844.192784332372, -22469.761666031085, -25811.5933312885, -40478.87509809436, 0.062, 1.008, -0.028, 192.0, 0.0, 0.0, 0.0, 0.0, 0.0, 0.0, 0.0, 0.0, 0.0, 1.695756390616965E9, 0.0, 2023-09-26 14:26:30.616
192.0, -159361.1206842805, 29212.97004377485, -48008.17197658682, -38788.658534128495, 3028.147283571635, -13795.407270837697, -187500.02235174447, -654.6602433514886, 7657.841760854932, -36667.65679927549, 755.4219073560128, -20473.32620302751, -23838.627199963, -22473.002668977104, -25808.598197531486, -40479.411539961286, 0.062, 1.008, -0.028, 192.0, 0.0, 0.0, 0.0, 0.0, 0.0, 0.0, 0.0, 0.0, 0.0, 1.695756390616975E9, 0.0, 2023-09-26 14:26:30.616
194.0, -159378.17506529987, 29203.4929041258, -48010.76477894364, -38793.330048719654, 3022.0005538464256, -13810.964084978592, -187500.02235174447, -670.0605952811951, 7646.576481649457, -36683.72770353886, 742.547302549756, -20487.698374712276, -23845.019798877216, -22479.775247547062, -25817.91887496935, -40492.01792383408, 0.062, 1.008, -0.028, 192.0, 0.0, 0.0, 0.0, 0.0, 0.0, 0.0, 0.0, 0.0, 0.0, 1.695756390616984E9, 0.0, 2023-09-26 14:26:30.616
196.0, -159364.1158180375, 29216.59102637661, -48005.26624980763, -38788.658534128495, 3024.7498184144283, -13813.489832102041, -187500.02235174447, -667.8477725801197, 7669.487019716146, -36672.88710747804, 759.5569800802446, -20478.511807741143, -23833.173374315906, -22474.34377364442, -25814.141430156404, -40491.32501975597, 0.062, 1.008, -0.028, 192.0, 0.0, 0.0, 0.0, 0.0, 0.0, 0.0, 0.0, 0.0, 0.0, 1.69575639067623E9, 0.0, 2023-09-26 14:26:30.676
198.0, -159403.79016444567, 29212.992395519304, -47995.36442701393, -38780.07546425766, 3033.5564057298193, -13800.34700636232, -187500.02235174447, -675.7155866283878, 7663.407345224303, -36680.77727327076, 756.7630120233313, -20488.10070611247, -23829.127708569493, -22472.220357921167, -25815.571941801543, -40491.436778478244, 0.058, 1.008, -0.032, 192.0, 0.5, 104.0, 15.5, 64.0, 127.5, 0.0, 0.0, 0.0, 0.0, 1.695756390676251E9, 0.0, 2023-09-26 14:26:30.676
200.0, -159365.88160584946, 29224.25767472478, -48008.574307987015, -38794.022952797764, 3023.3640102581994, -13813.042797212935, -187500.02235174447, -667.3336824576477, 7670.358737749903, -36672.06009293319, 764.5190673493228, -20478.064772852038, -23830.37940625899, -22471.236881165136, -25812.6438632779, -40491.01209533359, 0.058, 1.008, -0.032, 192.0, 0.0, 0.0, 0.0, 0.0, 0.0, 0.0, 0.0, 0.0, 0.0, 1.695756390676262E9, 0.0, 2023-09-26 14:26:30.676
202.0, -159390.93791138387, 29217.50744789928, -47999.49949973816, -38787.02685678325, 3030.628327206174, -13803.945637219625, -187500.02235174447, -680.0741767971726, 7660.948653334219, -36680.68786629294, 758.3946893685686, -20478.690621696787, -23841.264705808724, -22484.335003415945, -25818.25415113618, -40497.71761867018, 0.058, 1.008, -0.032, 192.0, 0.0, 0.0, 0.0, 0.0, 0.0, 0.0, 0.0, 0.0, 0.0, 1.695756390676271E9, 0.0, 2023-09-26 14:26:30.676
204.0, -159376.3198705101, 29224.45884042488, -47996.37025551442, -38783.78585383724, 3032.371763273688, -13802.805698252405, -187500.02235174447, -661.969263788374, 7665.843685369931, -36678.94443022543, 774.7114628209428, -20480.456409508755, -23831.608752204032, -22476.131913200847, -25803.63611026241, -40481.13262428434, 0.058, 1.008, -0.032, 192.0, 0.0, 0.0, 0.0, 0.0, 0.0, 0.0, 0.0, 0.0, 0.0, 1.695756390676307E9, 0.0, 2023-09-26 14:26:30.676
206.0, -159411.367405816, 29213.953520530886, -47979.74055763967, -38767.67024608496, 3041.200702333534, -13784.320805587866, -187500.02235174447, -667.5348481577454, 7666.156609792306, -36667.388578342034, 771.7833842972975, -20478.981194374705, -23835.989694117274, -22472.041543965526, -25802.943206184293, -40474.29299048102, 0.058, 1.008, -0.032, 192.0, 0.0, 0.0, 0.0, 0.0, 0.0, 0.0, 0.0, 0.0, 0.0, 1.695756390676316E9, 0.0, 2023-09-26 14:26:30.676
208.0, -159397.30815855364, 29219.2955874557, -47985.68612166478, -38773.39229266552, 3036.216263320001, -13792.054509169402, -187500.02235174447, -650.3687084160696, 7667.6541766708115, -36669.623752787564, 782.2663524468365, -20479.830560664006, -23815.426089218392, -22459.72573277065, -25787.609909487954, -40456.21042921668, 0.054, 1.016, -0.034, 192.0, 0.5, 88.0, 15.5, 96.0, 127.0, 120.0, 0.0, 0.0, 0.0, 1.695756390676325E9, 0.0, 2023-09-26 14:26:30.676
210.0, -159419.61519952002, 29211.83010480763, -47977.34892098295, -38764.29513267221, 3041.0889436112575, -13780.789229963928, -187500.02235174447, -662.1257259995612, 7664.100249302417, -36654.42456655795, 782.5345733803002, -20467.894729124873, -23805.166638513405, -22457.982296703136, -25796.505903781166, -40462.33480719743, 0.054, 1.016, -0.034, 192.0, 0.0, 0.0, 0.0, 0.0, 0.0, 0.0, 0.0, 0.0, 0.0, 1.695756390736104E9, 0.0, 2023-09-26 14:26:30.736
212.0, -159405.35478655755, 29215.808715320676, -47997.42078750382, -38780.92483054696, 3028.080228338269, -13790.82516322436, -187500.02235174447, -654.3920224180249, 7656.366545720881, -36656.48092704784, 781.1487652240712, -20478.3329937855, -23788.22401621628, -22454.070741423457, -25795.075392136026, -40465.62051363236, 0.054, 1.016, -0.034, 192.0, 0.0, 0.0, 0.0, 0.0, 0.0, 0.0, 0.0, 0.0, 0.0, 1.695756390736133E9, 0.0, 2023-09-26 14:26:30.736
214.0, -159421.26922860972, 29209.21495070636, -47997.867822392924, -38776.67799910045, 3026.3814957596655, -13778.86697994077, -187500.02235174447, -670.1052987701057, 7652.5667491634795, -36641.661720473974, 775.3373116656913, -20463.33497325599, -23794.23663547476, -22459.748084515108, -25808.15116264238, -40480.43972020623, 0.054, 1.016, -0.034, 192.0, 0.0, 0.0, 0.0, 0.0, 0.0, 0.0, 0.0, 0.0, 0.0, 1.695756390736143E9, 0.0, 2023-09-26 14:26:30.736
216.0, -159407.2323330918, 29209.72904082883, -48010.72007545472, -38786.401007938504, 3021.888795124149, -13785.326634088355, -187500.02235174447, -665.5678946456784, 7666.514237703591, -36649.216610099866, 776.0525674882612, -20476.81307516254, -23787.955795282818, -22457.11057866938, -25800.708031738763, -40480.39501671732, 0.054, 1.016, -0.034, 192.0, 0.0, 0.0, 0.0, 0.0, 0.0, 0.0, 0.0, 0.0, 0.0, 1.695756390736153E9, 0.0, 2023-09-26 14:26:30.736
218.0, -159406.89705692496, 29201.30243316918, -48012.776435944616, -38778.443786912416, 3024.0569143363136, -13775.715383972572, -187500.02235174447, -674.0839092831504, 7671.498676717124, -36633.65979595897, 782.0428350022835, -20464.13963605638, -23777.65164108892, -22446.471148308654, -25787.5875577435, -40474.87413583686, 0.062, 1.016, -0.028, 192.0, 0.5, 120.0, 15.5, 96.0, 127.5, 16.0, 0.0, 0.0, 0.0, 1.695756390736163E9, 0.0, 2023-09-26 14:26:30.736
220.0, -159406.49472552477, 29193.412267376458, -48017.02326739112, -38777.08033050065, 3023.565175958297, -13778.643462496217, -187500.02235174447, -668.0265865357621, 7666.491885959135, -36644.07570887515, 774.6444075875769, -20475.62843270641, -23782.27845219117, -22443.990104674114, -25778.87037740593, -40478.428063205254, 0.062, 1.016, -0.028, 192.0, 0.0, 0.0, 0.0, 0.0, 0.0, 0.0, 0.0, 0.0, 0.0, 1.695756390736173E9, 0.0, 2023-09-26 14:26:30.736
222.0, -159403.14196385647, 29191.57942433112, -48015.2351278347, -38771.380635664544, 3028.3260975272774, -13775.625976994752, -187500.02235174447, -677.4143192069912, 7661.395688223325, -36629.927054634936, 778.1759832115154, -20457.456464464245, -23775.595280599035, -22450.047427421505, -25766.129883066405, -40482.60783941839, 0.062, 1.016, -0.028, 192.0, 0.0, 0.0, 0.0, 0.0, 0.0, 0.0, 0.0, 0.0, 0.0, 1.695756390736183E9, 0.0, 2023-09-26 14:26:30.736
224.0, -159404.7289377128, 29192.96523248735, -48023.77349421662, -38773.3028856877, 3025.5768329592747, -13778.934035174136, -187500.02235174447, -668.5406766582342, 7671.252807528116, -36648.92603742195, 770.5093348633451, -20476.589557717987, -23768.80035028462, -22442.49253779561, -25753.076464304504, -40480.19385101722, 0.062, 1.016, -0.028, 192.0, 0.0, 0.0, 0.0, 0.0, 0.0, 0.0, 0.0, 0.0, 0.0, 1.695756390736192E9, 0.0, 2023-09-26 14:26:30.736
226.0, -159399.14100159897, 29196.988546489305, -48014.78809294559, -38757.56725759116, 3030.5612719728083, -13762.974889633047, -187500.02235174447, -665.3890806900359, 7674.09147907394, -36622.998013853794, 781.3946344130796, -20455.08717955198, -23769.47090261828, -22441.777281973038, -25743.822842100006, -40475.76820561507, 0.062, 1.016, -0.028, 192.0, 0.0, 0.0, 0.0, 0.0, 0.0, 0.0, 0.0, 0.0, 0.0, 1.695756390796242E9, 0.0, 2023-09-26 14:26:30.796
228.0, -159423.86203096653, 29197.055601722674, -48012.128235355405, -38748.872428998046, 3033.8022749188276, -13750.726133671538, -187500.02235174447, -652.6038828616003, 7683.859191400909, -36637.325482049644, 779.9864745123953, -20471.47100823772, -23763.905318248908, -22426.82396493244, -25732.065824516514, -40462.4018624308, 0.07, 1.018, -0.032, 192.0, 1.0, 24.0, 15.5, 104.0, 127.5, 0.0, 0.0, 0.0, 0.0, 1.695756390796277E9, 0.0, 2023-09-26 14:26:30.796
230.0, -159407.7240714698, 29202.30826166967, -48012.84349117798, -38750.45940285437, 3035.9033388976263, -13747.216909792056, -187500.02235174447, -648.4911618818238, 7683.210990811705, -36613.833798627114, 785.4626519039455, -20447.62169690391, -23769.537957851644, -22423.15827884177, -25732.535211150076, -40462.58067638644, 0.07, 1.018, -0.032, 192.0, 0.0, 0.0, 0.0, 0.0, 0.0, 0.0, 0.0, 0.0, 0.0, 1.695756390796288E9, 0.0, 2023-09-26 14:26:30.796
232.0, -159418.98935067529, 29195.133351699515, -48019.01257264764, -38756.67318781295, 3036.7080016980176, -13751.843720894305, -187500.02235174447, -649.1393624710278, 7669.174095293773, -36636.92315064945, 773.9291517650071, -20467.00065934666, -23771.50491136371, -22426.131060854324, -25734.65862687333, -40463.36298744238, 0.07, 1.018, -0.032, 192.0, 0.0, 0.0, 0.0, 0.0, 0.0, 0.0, 0.0, 0.0, 0.0, 1.695756390796298E9, 0.0, 2023-09-26 14:26:30.796
234.0, -159387.98748111576, 29185.67856379492, -48029.69670649728, -38765.52447861725, 3023.1628445581014, -13752.558976716875, -187500.02235174447, -657.454211408402, 7660.099287044917, -36623.892083632, 769.2576371738479, -20450.370961471912, -23791.04033601765, -22442.581944773432, -25749.008446813637, -40476.617571904375, 0.07, 1.018, -0.032, 192.0, 0.0, 0.0, 0.0, 0.0, 0.0, 0.0, 0.0, 0.0, 0.0, 1.695756390796307E9, 0.0, 2023-09-26 14:26:30.796
236.0, -159420.03988266469, 29181.454084092868, -48030.32255534203, -38766.82087979566, 3025.4874259814533, -13757.565767474864, -187500.02235174447, -661.0304905212511, 7673.532685462557, -36651.652950245494, 754.7960585112642, -20481.86456940944, -23780.020926001183, -22423.314741052956, -25750.5283654366, -40469.44266193422, 0.07, 1.018, -0.032, 192.0, 0.0, 0.0, 0.0, 0.0, 0.0, 0.0, 0.0, 0.0, 0.0, 1.695756390796317E9, 0.0, 2023-09-26 14:26:30.796
238.0, -159386.95930087083, 29185.946784728385, -48038.74916300168, -38779.2037462239, 3016.6137834326964, -13772.317918815366, -187500.02235174447, -666.2384469793376, 7657.461781199191, -36636.11848784906, 750.9515584649514, -20456.47298770821, -23801.500952422735, -22445.57707853044, -25770.91315637984, -40491.28031626705, 0.062, 1.014, -0.032, 192.0, 0.5, 120.0, 15.5, 88.0, 127.5, 0.0, 0.0, 0.0, 0.0, 1.695756390796328E9, 0.0, 2023-09-26 14:26:30.796
240.0, -159399.23040857678, 29179.934165469906, -48040.20202639127, -38787.317429461174, 3013.462187464498, -13786.555980033396, -187500.02235174447, -674.8885720835415, 7658.981699822152, -36649.03779614423, 740.4238868265018, -20471.180435559803, -23802.350318712037, -22449.622744276854, -25775.76348492664, -40499.66222043779, 0.062, 1.014, -0.032, 192.0, 0.0, 0.0, 0.0, 0.0, 0.0, 0.0, 0.0, 0.0, 0.0, 1.695756390856488E9, 0.0, 2023-09-26 14:26:30.856
242.0, -159394.6706527079, 29199.96132850186, -48021.89594768238, -38770.06188274168, 3030.2259958059785, -13775.760087461484, -187500.02235174447, -664.0926795116281, 7669.598778438423, -36639.02421462825, 755.6677765450212, -20461.792702888575, -23789.207492972317, -22440.614991261362, -25762.57595569801, -40488.82162437697, 0.062, 1.014, -0.032, 192.0, 0.0, 0.0, 0.0, 0.0, 0.0, 0.0, 0.0, 0.0, 0.0, 1.695756390856511E9, 0.0, 2023-09-26 14:26:30.856
244.0, -159411.00977790472, 29192.652308064975, -48024.17582561682, -38772.94525777641, 3025.442722492543, -13784.276102098955, -187500.02235174447, -674.7768133612649, 7669.107040060407, -36638.666586716965, 750.8397997426748, -20466.732438413197, -23795.33187095307, -22443.699531996197, -25764.34174350998, -40493.5601942015, 0.062, 1.014, -0.032, 192.0, 0.0, 0.0, 0.0, 0.0, 0.0, 0.0, 0.0, 0.0, 0.0, 1.695756390856521E9, 0.0, 2023-09-26 14:26:30.856
246.0, -159381.52782696817, 29202.040040736207, -48023.72879072771, -38773.45934789888, 3026.0238678483806, -13779.358718318786, -187500.02235174447, -667.7583656022985, 7671.811601139499, -36630.619958713054, 756.5618463232335, -20455.46715920772, -23796.740030853754, -22442.783110473527, -25761.57012719752, -40492.37555174536, 0.062, 1.014, -0.032, 192.0, 0.0, 0.0, 0.0, 0.0, 0.0, 0.0, 0.0, 0.0, 0.0, 1.69575639085653E9, 0.0, 2023-09-26 14:26:30.856
248.0, -159406.3159115691, 29198.933148256918, -48022.85707269396, -38772.855850798594, 3026.403847504121, -13774.866017683271, -187500.02235174447, -672.2510662378152, 7669.0623365714955, -36636.31965354916, 755.9807009673955, -20461.61388893293, -23789.47571390578, -22437.57515401544, -25757.926792851307, -40485.02182781957, 0.054, 1.018, -0.034, 192.0, 0.5, 88.0, 15.5, 104.0, 127.0, 120.0, 0.0, 0.0, 0.0, 1.695756390856569E9, 0.0, 2023-09-26 14:26:30.856
250.0, -159369.99432682924, 29203.939939014905, -48030.590776275494, -38779.76253983528, 3019.6759724230737, -13778.419945051664, -187500.02235174447, -665.4337841789466, 7660.769839378577, -36629.39061276801, 755.5336660782893, -20448.225194004204, -23812.05097580564, -22444.90652619678, -25770.153197068357, -40497.359990758894, 0.054, 1.018, -0.034, 192.0, 0.0, 0.0, 0.0, 0.0, 0.0, 0.0, 0.0, 0.0, 0.0, 1.695756390856579E9, 0.0, 2023-09-26 14:26:30.856
252.0, -159405.623007491, 29197.055601722674, -48018.47613078071, -38770.57597286415, 3028.7731324163833, -13768.428715280143, -187500.02235174447, -669.904133070008, 7665.37429873637, -36635.939673893416, 754.6172445556217, -20459.24460402067, -23800.94215881135, -22443.364255829365, -25760.363132996936, -40486.16176678679, 0.054, 1.018, -0.034, 192.0, 0.0, 0.0, 0.0, 0.0, 0.0, 0.0, 0.0, 0.0, 0.0, 1.695756390856588E9, 0.0, 2023-09-26 14:26:30.856
254.0, -159364.00405931522, 29201.01186049126, -48029.406133819364, -38784.76933059327, 3018.5360334558527, -13785.81837246637, -187500.02235174447, -658.3482811866143, 7670.80577263901, -36631.64813895799, 762.9767969819065, -20452.941412084274, -23808.161772270414, -22445.755892486086, -25760.76546439713, -40491.570888944974, 0.054, 1.018, -0.034, 192.0, 0.0, 0.0, 0.0, 0.0, 0.0, 0.0, 0.0, 0.0, 0.0, 1.695756390856598E9, 0.0, 2023-09-26 14:26:30.856
0.0, -159376.29751876564, 29190.618299319543, -48019.83958719249, -38775.31454268868, 3022.402885246621, -13773.994299649514, -187500.02235174447, -674.4638889388906, 7655.003089309108, -36638.510124505774, 762.060375459239, -20448.024028304106, -23810.79927811614, -22452.483767567133, -25764.922888865818, -40495.19187154673, 0.054, 1.018, -0.034, 192.0, 0.0, 0.0, 0.0, 0.0, 0.0, 0.0, 0.0, 0.0, 0.0, 1.695756390917362E9, 0.0, 2023-09-26 14:26:30.917
2.0, -159380.05261183414, 29200.00603199077, -48015.838624934986, -38764.250429183296, 3034.7410481859506, -13765.835912923327, -187500.02235174447, -656.6942520969214, 7668.5929499379345, -36653.552848524196, 763.0885557041831, -20460.965688343727, -23799.779868099675, -22442.403130817787, -25755.132824794393, -40482.58548767394, 0.056, 1.018, -0.03, 192.0, 0.5, 96.0, 15.5, 104.0, 127.5, 8.0, 0.0, 0.0, 0.0, 1.695756390917385E9, 0.0, 2023-09-26 14:26:30.917
4.0, -159413.133193628, 29196.92149125594, -48006.87557540841, -38749.654740053986, 3047.660356481118, -13742.880671367726, -187500.02235174447, -661.4998771548126, 7668.972929593674, -36641.05822337368, 761.836858014686, -20456.785912130585, -23792.828475574075, -22429.081491122426, -25751.400083470355, -40469.39795844531, 0.056, 1.018, -0.03, 192.0, 0.0, 0.0, 0.0, 0.0, 0.0, 0.0, 0.0, 0.0, 0.0, 1.695756390917395E9, 0.0, 2023-09-26 14:26:30.917
6.0, -159397.97871088728, 29197.92731975643, -48027.41682856284, -38775.04632175521, 3035.925690642082, -13777.570578762363, -187500.02235174447, -651.7545165722986, 7671.18575229475, -36647.897857177006, 764.2955499047697, -20466.75479015765, -23790.45919066181, -22431.562534756966, -25749.813109614028, -40470.91787706827, 0.056, 1.018, -0.03, 192.0, 0.0, 0.0, 0.0, 0.0, 0.0, 0.0, 0.0, 0.0, 0.0, 1.695756390917404E9, 0.0, 2023-09-26 14:26:30.917
8.0, -159387.0710595931, 29188.87486325203, -48029.45083730827, -38787.36213295009, 3027.9461178715374, -13789.72992774605, -187500.02235174447, -674.6203511500778, 7662.9603103351965, -36640.67824371794, 754.8631137446301, -20449.70040913825, -23810.687519393865, -22461.089189182425, -25773.975345370218, -40502.277374539066, 0.056, 1.018, -0.03, 192.0, 0.0, 0.0, 0.0, 0.0, 0.0, 0.0, 0.0, 0.0, 0.0, 1.695756390917413E9, 0.0, 2023-09-26 14:26:30.917
10.0, -159389.8203241611, 29195.44627612189, -48023.14764537187, -38784.99284803782, 3029.3542777722214, -13793.529724303453, -187500.02235174447, -672.3404732156364, 7673.175057551272, -36663.92405795146, 755.2430934003703, -20469.951089614762, -23805.18899025786, -22462.02796244955, -25770.71199067974, -40504.087865839945, 0.056, 1.018, -0.03, 192.0, 0.0, 0.0, 0.0, 0.0, 0.0, 0.0, 0.0, 0.0, 0.0, 1.695756390917423E9, 0.0, 2023-09-26 14:26:30.917
12.0, -159394.33537654107, 29201.414191891457, -48019.325497070015, -38782.55650789219, 3033.377591774177, -13795.899009215715, -187500.02235174447, -679.7389006303431, 7684.440336756747, -36649.59658975561, 763.1779626820044, -20460.071618565515, -23800.226902988783, -22447.991066931616, -25764.85583363245, -40500.71275242719, 0.058, 1.016, -0.032, 192.0, 0.5, 104.0, 15.5, 96.0, 127.5, 0.0, 0.0, 0.0, 0.0, 1.695756390917431E9, 0.0, 2023-09-26 14:26:30.917
14.0, -159378.24212053325, 29196.697973811388, -48031.82012222053, -38794.96172606489, 3018.245460777934, -13810.651160556217, -187500.02235174447, -679.7612523747983, 7665.866037114387, -36661.5547730392, 756.092459689672, -20465.704258168254, -23820.969321843306, -22469.62755556435, -25780.34559253998, -40518.10240961342, 0.058, 1.016, -0.032, 192.0, 0.0, 0.0, 0.0, 0.0, 0.0, 0.0, 0.0, 0.0, 0.0, 1.695756390976208E9, 0.0, 2023-09-26 14:26:30.976
16.0, -159367.78150412816, 29197.904968011975, -48026.478055295716, -38789.03851378423, 3022.045257335336, -13801.39753835172, -187500.02235174447, -684.7680431327872, 7667.095383059429, -36649.95421766689, 761.5909888256775, -20452.069694050515, -23821.46106022132, -22460.97743046015, -25784.570072242033, -40513.78852293355, 0.058, 1.016, -0.032, 192.0, 0.0, 0.0, 0.0, 0.0, 0.0, 0.0, 0.0, 0.0, 0.0, 1.695756390976234E9, 0.0, 2023-09-26 14:26:30.976
18.0, -159382.89128337995, 29194.954537743874, -48019.63842149239, -38783.09294975912, 3037.22209182049, -13791.92039870267, -187500.02235174447, -671.3122929706923, 7665.888388858842, -36672.216555144376, 755.8912939895743, -20472.365078015933, -23822.71275791082, -22458.2505176366, -25776.72460993822, -40504.646659451326, 0.058, 1.016, -0.032, 192.0, 0.0, 0.0, 0.0, 0.0, 0.0, 0.0, 0.0, 0.0, 0.0, 1.695756390976244E9, 0.0, 2023-09-26 14:26:30.976
20.0, -159363.15469302592, 29195.289813910702, -48020.666601737335, -38780.477795657855, 3034.606937719219, -13782.331500331344, -187500.02235174447, -665.7467086013208, 7661.574502178968, -36651.42943280094, 764.8096400272418, -20447.688752137274, -23828.501859724744, -22459.993953704114, -25774.109455836948, -40499.70692392671, 0.058, 1.016, -0.032, 192.0, 0.0, 0.0, 0.0, 0.0, 0.0, 0.0, 0.0, 0.0, 0.0, 1.695756390976253E9, 0.0, 2023-09-26 14:26:30.976
22.0, -159401.55499000015, 29191.91470049795, -48012.619973733425, -38772.11824323157, 3039.2561005659227, -13767.981680391036, -187500.02235174447, -654.5931881181226, 7666.581292936957, -36673.87058423407, 764.6531778160546, -20475.449618750765, -23816.588379930065, -22442.559593028975, -25765.794606899573, -40478.562173671984, 0.058, 1.006, -0.03, 192.0, 0.5, 104.0, 15.5, 56.0, 127.5, 8.0, 0.0, 0.0, 0.0, 1.695756390976262E9, 0.0, 2023-09-26 14:26:30.976
24.0, -159383.07009733559, 29197.97202324534, -48017.29148832458, -38778.19791772341, 3037.043277864847, -13768.607529235785, -187500.02235174447, -652.4250689059578, 7662.893255101831, -36645.17094435346, 772.7668610533311, -20453.05317080655, -23819.024720075693, -22442.0455029065, -25771.181377313304, -40481.378493473356, 0.058, 1.006, -0.03, 192.0, 0.0, 0.0, 0.0, 0.0, 0.0, 0.0, 0.0, 0.0, 0.0, 1.695756390976272E9, 0.0, 2023-09-26 14:26:30.976
26.0, -159403.1643156009, 29191.892348753496, -48023.01353490514, -38783.51763290377, 3030.4495132505317, -13779.381070063242, -187500.02235174447, -657.387156175036, 7662.08859230144, -36656.123299136554, 764.0049772268507, -20469.90638612585, -23822.71275791082, -22448.035770420527, -25774.221214559224, -40482.33961848493, 0.058, 1.006, -0.03, 192.0, 0.0, 0.0, 0.0, 0.0, 0.0, 0.0, 0.0, 0.0, 0.0, 1.695756390976281E9, 0.0, 2023-09-26 14:26:30.976
28.0, -159375.0234693317, 29193.88165401002, -48027.59564251848, -38789.9549353069, 3026.470902737487, -13785.192523621623, -187500.02235174447, -662.0586707661952, 7665.575464436468, -36636.207894826875, 770.4422796299791, -20448.694580637763, -23825.171449800906, -22453.042561178514, -25783.273671063624, -40494.521319213076, 0.058, 1.006, -0.03, 192.0, 0.0, 0.0, 0.0, 0.0, 0.0, 0.0, 0.0, 0.0, 0.0, 1.69575639097629E9, 0.0, 2023-09-26 14:26:30.976
30.0, -159406.0700423801, 29191.221796419835, -48021.80654070456, -38783.78585383724, 3033.019963862892, -13782.666776498172, -187500.02235174447, -667.1772202464605, 7668.190618537738, -36656.45857530339, 764.6531778160546, -20470.06284833704, -23816.90130435244, -22448.88513670983, -25777.372810527424, -40491.32501975597, 0.058, 1.006, -0.03, 192.0, 0.0, 0.0, 0.0, 0.0, 0.0, 0.0, 0.0, 0.0, 0.0, 1.695756391035943E9, 0.0, 2023-09-26 14:26:31.035
32.0, -159393.0166236182, 29193.81459877665, -48023.43821804979, -38785.68575211594, 3029.2201673054897, -13787.606512022796, -187500.02235174447, -666.8642958240862, 7672.325691261971, -36643.18163909693, 769.995244740873, -20457.434112719788, -23816.029586318684, -22456.909412969282, -25777.43986576079, -40495.30363026901, 0.06, 1.008, -0.032, 192.0, 0.5, 112.0, 15.5, 64.0, 127.5, 0.0, 0.0, 0.0, 0.0, 1.695756391035964E9, 0.0, 2023-09-26 14:26:31.035
34.0, -159407.9252371699, 29179.39772360298, -48033.00476467667, -38799.208557511396, 3024.302783525322, -13801.598704051818, -187500.02235174447, -675.7826418617537, 7660.2557492561045, -36649.79775545571, 759.1770004245044, -20469.168778558826, -23821.72928115479, -22456.752950758095, -25786.67113622083, -40506.63596470785, 0.06, 1.008, -0.032, 192.0, 0.0, 0.0, 0.0, 0.0, 0.0, 0.0, 0.0, 0.0, 0.0, 1.695756391035975E9, 0.0, 2023-09-26 14:26:31.035
36.0, -159381.68428917936, 29188.517235340743, -48036.06695366704, -38802.717781390886, 3021.285298023856, -13805.845535498327, -187500.02235174447, -669.6582638809996, 7660.2557492561045, -36644.2992263197, 759.6240353136105, -20457.434112719788, -23823.740938155766, -22464.30784038399, -25791.141485111893, -40516.56013924601, 0.06, 1.008, -0.032, 192.0, 0.0, 0.0, 0.0, 0.0, 0.0, 0.0, 0.0, 0.0, 0.0, 1.695756391036015E9, 0.0, 2023-09-26 14:26:31.036
38.0, -159406.8300016916, 29177.34136311309, -48039.97850894672, -38807.881034360056, 3016.5243764548754, -13810.740567534038, -187500.02235174447, -681.549391931223, 7654.287833486537, -36660.79481372772, 747.5317415632894, -20473.214444305235, -23818.80120263114, -22465.87246249586, -25790.225063589223, -40514.570833989485, 0.06, 1.008, -0.032, 192.0, 0.0, 0.0, 0.0, 0.0, 0.0, 0.0, 0.0, 0.0, 0.0, 1.695756391036024E9, 0.0, 2023-09-26 14:26:31.036
40.0, -159365.5686814271, 29184.560976572157, -48042.28073862562, -38811.0102785838, 3011.919917097082, -13808.2595238995, -187500.02235174447, -673.4580604384018, 7643.55899614799, -36658.649046260005, 751.7115177764318, -20462.48560696669, -23833.86627839402, -22483.329174915456, -25798.24933984868, -40523.0644968825, 0.06, 1.008, -0.032, 192.0, 0.0, 0.0, 0.0, 0.0, 0.0, 0.0, 0.0, 0.0, 0.0, 1.695756391036033E9, 0.0, 2023-09-26 14:26:31.036
42.0, -159383.20420780234, 29168.981810686808, -48033.02711642112, -38800.72847613436, 3015.6750101655734, -13798.938846461637, -187500.02235174447, -683.9410285879408, 7654.019612553074, -36669.489642320834, 746.5706165517112, -20465.90542386835, -23837.062577851128, -22476.78011379005, -25800.328052083023, -40521.075191625976, 0.058, 1.014, -0.028, 192.0, 0.5, 104.0, 15.5, 88.0, 127.5, 16.0, 0.0, 0.0, 0.0, 1.695756391036042E9, 0.0, 2023-09-26 14:26:31.036
44.0, -159366.23923376075, 29179.375371858525, -48032.42361932083, -38793.79943535321, 3017.9995915889253, -13799.765861006483, -187500.02235174447, -666.1713917459717, 7662.46857195718, -36674.27291563427, 760.8533812586525, -20472.789761160584, -23826.80312714614, -22463.45847409469, -25784.592423986487, -40500.69040068274, 0.058, 1.014, -0.028, 192.0, 0.0, 0.0, 0.0, 0.0, 0.0, 0.0, 0.0, 0.0, 0.0, 1.695756391096233E9, 0.0, 2023-09-26 14:26:31.096
46.0, -159383.51713222472, 29173.653325277966, -48025.51693028414, -38786.37865619405, 3025.3980190036323, -13787.092421900323, -187500.02235174447, -674.0168540497845, 7658.355850977404, -36673.1553284115, 759.5569800802446, -20467.67121168032, -23835.05092085015, -22469.78401777554, -25788.459275777255, -40501.02567684957, 0.058, 1.014, -0.028, 192.0, 0.0, 0.0, 0.0, 0.0, 0.0, 0.0, 0.0, 0.0, 0.0, 1.695756391096257E9, 0.0, 2023-09-26 14:26:31.096
48.0, -159369.14496053994, 29186.371467873036, -48022.834720949504, -38783.24941197031, 3032.88585339616, -13785.505448043998, -187500.02235174447, -655.8225340631645, 7658.489961444136, -36669.66845627647, 765.9272272500071, -20462.396199988867, -23834.156851071937, -22471.236881165136, -25781.932566396306, -40496.71179016969, 0.058, 1.014, -0.028, 192.0, 0.0, 0.0, 0.0, 0.0, 0.0, 0.0, 0.0, 0.0, 0.0, 1.695756391096266E9, 0.0, 2023-09-26 14:26:31.096
50.0, -159389.32858578308, 29180.939993970394, -48022.07476163802, -38783.539984648225, 3030.69538243954, -13784.164343376679, -187500.02235174447, -661.7680980882762, 7664.0108423245965, -36661.867697461574, 765.5248958498116, -20457.992906331172, -23825.886705623474, -22456.618840291365, -25772.120150580427, -40485.24534526412, 0.058, 1.014, -0.028, 192.0, 0.0, 0.0, 0.0, 0.0, 0.0, 0.0, 0.0, 0.0, 0.0, 1.695756391096275E9, 0.0, 2023-09-26 14:26:31.096
52.0, -159363.9146523374, 29187.712572540353, -48036.044601922586, -38795.989906309835, 3022.4475887355316, -13795.675491771162, -187500.02235174447, -656.9177695414746, 7635.51236814408, -36668.19324114242, 757.3888608680799, -20462.127979055404, -23839.00717961874, -22470.63338406484, -25787.408743787855, -40499.03637159304, 0.06, 1.016, -0.03, 192.0, 0.5, 112.0, 15.5, 96.0, 127.5, 8.0, 0.0, 0.0, 0.0, 1.695756391096284E9, 0.0, 2023-09-26 14:26:31.096
54.0, -159355.7562656112, 29180.135331170004, -48037.96685194574, -38799.47677844486, 3013.9986293314255, -13800.570523806873, -187500.02235174447, -671.8263830931644, 7650.443333440225, -36662.73941549533, 753.2090846549374, -20451.354438227947, -23844.28219131019, -22473.87438701086, -25792.192017101293, -40500.62334544937, 0.06, 1.016, -0.03, 192.0, 0.0, 0.0, 0.0, 0.0, 0.0, 0.0, 0.0, 0.0, 0.0, 1.695756391096293E9, 0.0, 2023-09-26 14:26:31.096
56.0, -159356.7620941117, 29181.990525959794, -48022.72296222722, -38789.46319692888, 3030.851844650727, -13792.523895802964, -187500.02235174447, -668.160697002494, 7652.298528230015, -36685.80641577321, 752.3373666211804, -20464.76548490113, -23840.95178138635, -22472.06389570998, -25789.91213916685, -40501.18213906076, 0.06, 1.016, -0.03, 192.0, 0.0, 0.0, 0.0, 0.0, 0.0, 0.0, 0.0, 0.0, 0.0, 1.695756391096302E9, 0.0, 2023-09-26 14:26:31.096
58.0, -159359.868986591, 29179.084799180604, -48016.9338604133, -38786.8033393387, 3029.9354231280595, -13793.686186514638, -187500.02235174447, -678.5766099186671, 7651.315051473982, -36673.200031900415, 770.1964104409708, -20451.15327252785, -23829.038301591674, -22466.274793896057, -25781.038496618094, -40496.197700047225, 0.06, 1.016, -0.03, 192.0, 0.0, 0.0, 0.0, 0.0, 0.0, 0.0, 0.0, 0.0, 0.0, 1.695756391096342E9, 0.0, 2023-09-26 14:26:31.096
60.0, -159371.78246638566, 29181.49878758178, -48015.25747957915, -38786.892746316524, 3029.175463816579, -13796.63661678274, -187500.02235174447, -668.0042347913069, 7657.640595154834, -36677.98330521385, 766.0836894611942, -20467.894729124873, -23823.96445560032, -22467.97352647466, -25780.367944284433, -40495.16951980228, 0.06, 1.016, -0.03, 192.0, 0.0, 0.0, 0.0, 0.0, 0.0, 0.0, 0.0, 0.0, 0.0, 1.695756391156523E9, 0.0, 2023-09-26 14:26:31.156
62.0, -159367.49093145024, 29187.086723695604, -48022.45474129376, -38791.452502185406, 3022.8052166468165, -13798.201238894611, -187500.02235174447, -671.4687551818795, 7661.283929501049, -36648.3001885772, 772.185715697493, -20453.522557440112, -23822.690406166366, -22459.904546726295, -25778.91508089484, -40491.92851685626, 0.058, 1.018, -0.03, 192.0, 0.5, 104.0, 15.5, 104.0, 127.5, 8.0, 0.0, 0.0, 0.0, 1.695756391156544E9, 0.0, 2023-09-26 14:26:31.156
64.0, -159358.9078615794, 29181.141159670493, -48030.50136929767, -38801.46608370139, 3017.887832866649, -13806.40432910971, -187500.02235174447, -674.0615575386951, 7638.306336200993, -36667.83561323114, 747.6211485411106, -20468.408819247346, -23845.71270295533, -22483.84326503793, -25804.306662596067, -40514.74964794513, 0.058, 1.018, -0.03, 192.0, 0.0, 0.0, 0.0, 0.0, 0.0, 0.0, 0.0, 0.0, 0.0, 1.695756391156554E9, 0.0, 2023-09-26 14:26:31.156
66.0, -159363.69113489284, 29189.388953374502, -48018.431427291805, -38788.099740517115, 3029.153112072124, -13792.434488825142, -187500.02235174447, -673.2792464827594, 7657.484132943647, -36655.18452586944, 761.4121748700351, -20458.39523773137, -23829.887667880976, -22464.82193050646, -25789.57686300002, -40494.96835410218, 0.058, 1.018, -0.03, 192.0, 0.0, 0.0, 0.0, 0.0, 0.0, 0.0, 0.0, 0.0, 0.0, 1.695756391156563E9, 0.0, 2023-09-26 14:26:31.156
68.0, -159382.06426883512, 29189.321898141137, -48016.084494124, -38782.712970103385, 3029.2872225388555, -13790.422831824164, -187500.02235174447, -664.159734744994, 7650.063353784484, -36668.997903942814, 758.7076137909429, -20473.14738907187, -23834.760348172233, -22472.44387536572, -25792.4378862903, -40492.57671744546, 0.058, 1.018, -0.03, 192.0, 0.0, 0.0, 0.0, 0.0, 0.0, 0.0, 0.0, 0.0, 0.0, 1.695756391156572E9, 0.0, 2023-09-26 14:26:31.156
70.0, -159347.59787888502, 29190.864168508553, -48019.21373834774, -38785.05990327119, 3022.916975369093, -13790.86986671327, -187500.02235174447, -662.5280573997567, 7647.627013638857, -36644.947426908904, 765.1002127051607, -20442.458443934735, -23840.348284286058, -22464.710171784183, -25793.019031646138, -40493.98487734615, 0.058, 1.018, -0.03, 192.0, 0.0, 0.0, 0.0, 0.0, 0.0, 0.0, 0.0, 0.0, 0.0, 1.695756391156582E9, 0.0, 2023-09-26 14:26:31.156
72.0, -159390.35676602804, 29195.714497055353, -48009.84835742097, -38776.94622003391, 3038.1608650876124, -13781.973872420058, -187500.02235174447, -659.5999788761114, 7661.261577756593, -36671.32248536617, 766.0166342278284, -20471.53806347109, -23823.673882922398, -22451.947325700203, -25773.595365714475, -40471.34256021292, 0.06, 1.014, -0.032, 192.0, 0.5, 112.0, 15.5, 88.0, 127.5, 0.0, 0.0, 0.0, 0.0, 1.695756391156592E9, 0.0, 2023-09-26 14:26:31.156
74.0, -159361.38890521394, 29198.642575578997, -48020.26427033714, -38788.32325796167, 3024.3921905031434, -13792.233323125045, -187500.02235174447, -665.7020051124102, 7647.157627005295, -36641.12527860705, 770.5540383522557, -20441.162042756325, -23845.824461677606, -22472.30976489899, -25794.650708991376, -40493.85076687941, 0.06, 1.014, -0.032, 192.0, 0.0, 0.0, 0.0, 0.0, 0.0, 0.0, 0.0, 0.0, 0.0, 1.695756391216723E9, 0.0, 2023-09-26 14:26:31.216
76.0, -159399.6774434659, 29196.094476711092, -48008.50725275365, -38779.58372587964, 3033.5564057298193, -13784.656081754694, -187500.02235174447, -664.6738248674661, 7664.033194069051, -36673.892935978525, 767.3577388951468, -20469.61581344793, -23833.95568537184, -22472.10859919889, -25789.487456022198, -40485.066531308476, 0.06, 1.014, -0.032, 192.0, 0.0, 0.0, 0.0, 0.0, 0.0, 0.0, 0.0, 0.0, 0.0, 1.695756391216756E9, 0.0, 2023-09-26 14:26:31.216
78.0, -159360.98657381375, 29201.123619213537, -48016.9338604133, -38787.27272597227, 3026.470902737487, -13796.97189294957, -187500.02235174447, -659.9576067873963, 7655.293661987026, -36652.41290955697, 780.0982332346717, -20440.983228800684, -23837.934295884883, -22462.519700827565, -25786.201749587268, -40482.49608069612, 0.06, 1.014, -0.032, 192.0, 0.0, 0.0, 0.0, 0.0, 0.0, 0.0, 0.0, 0.0, 0.0, 1.695756391216765E9, 0.0, 2023-09-26 14:26:31.216
80.0, -159385.10410608104, 29191.266499908746, -48013.71520921173, -38789.977287051355, 3027.9908213604476, -13798.44710808362, -187500.02235174447, -675.5367726727453, 7648.543435161524, -36668.88614522054, 770.5316866078003, -20453.768426629118, -23840.05771160814, -22473.203834677202, -25795.857703191963, -40493.13551105685, 0.06, 1.014, -0.032, 192.0, 0.0, 0.0, 0.0, 0.0, 0.0, 0.0, 0.0, 0.0, 0.0, 1.695756391216806E9, 0.0, 2023-09-26 14:26:31.216
82.0, -159341.67466660438, 29196.519159855743, -48024.42169480583, -38800.86258660109, 3019.2512892784225, -13806.471384343075, -187500.02235174447, -671.8263830931644, 7651.94090031873, -36657.73262473734, 776.9689890109288, -20444.17952825779, -23842.85167966505, -22484.849093538418, -25799.568092771544, -40499.63986869334, 0.064, 1.014, -0.026000000000000002, 192.0, 1.0, 0.0, 15.5, 88.0, 127.5, 24.0, 0.0, 0.0, 0.0, 1.695756391216815E9, 0.0, 2023-09-26 14:26:31.216
84.0, -159360.8748150915, 29187.891386495998, -48023.237052349694, -38797.08514178814, 3020.346524756733, -13805.040872697935, -187500.02235174447, -678.4872029408459, 7644.006031037096, -36677.513918580284, 761.3451196366692, -20458.14936854236, -23847.76906344522, -22476.936576001237, -25802.5408747841, -40499.21518554869, 0.064, 1.014, -0.026000000000000002, 192.0, 0.0, 0.0, 0.0, 0.0, 0.0, 0.0, 0.0, 0.0, 0.0, 1.695756391216824E9, 0.0, 2023-09-26 14:26:31.216
86.0, -159337.71840783578, 29199.223720934835, -48019.973697659225, -38788.9044033175, 3023.7663416583946, -13796.413099338186, -187500.02235174447, -664.8973423120192, 7641.279118213549, -36670.71898826587, 763.5802940821999, -20451.399141716855, -23848.61842973452, -22471.572157331964, -25801.624453261433, -40494.856595379904, 0.064, 1.014, -0.026000000000000002, 192.0, 0.0, 0.0, 0.0, 0.0, 0.0, 0.0, 0.0, 0.0, 0.0, 1.695756391216833E9, 0.0, 2023-09-26 14:26:31.216
88.0, -159366.0157163162, 29201.280081424724, -48008.26138356464, -38778.1532142345, 3031.365934773199, -13783.136163131734, -187500.02235174447, -672.4298801934576, 7649.7504293621105, -36673.42354934497, 760.7192707919206, -20461.56918544402, -23845.131557599492, -22470.700439298205, -25799.85866544946, -40487.63698192084, 0.064, 1.014, -0.026000000000000002, 192.0, 0.0, 0.0, 0.0, 0.0, 0.0, 0.0, 0.0, 0.0, 0.0, 1.695756391216842E9, 0.0, 2023-09-26 14:26:31.216
90.0, -159350.2577364752, 29216.03223276523, -48007.34496204197, -38777.79558632321, 3032.595280718241, -13786.980663178047, -187500.02235174447, -666.8195923351756, 7655.874807342864, -36659.74428173832, 774.3538349096578, -20457.72468539771, -23837.174336573404, -22461.044485693514, -25790.605043244967, -40478.58452541644, 0.064, 1.014, -0.026000000000000002, 192.0, 0.0, 0.0, 0.0, 0.0, 0.0, 0.0, 0.0, 0.0, 0.0, 1.695756391276355E9, 0.0, 2023-09-26 14:26:31.276
92.0, -159394.49183875226, 29213.126505986038, -47995.96792411422, -38766.82087979566, 3041.848902922738, -13778.06231714038, -187500.02235174447, -676.7884703622426, 7671.364566250392, -36661.21949687237, 777.6842448334986, -20465.123112812416, -23827.04899633515, -22456.127101913346, -25783.85481641946, -40468.45918517819, 0.062, 1.016, -0.026000000000000002, 192.0, 0.5, 120.0, 15.5, 96.0, 127.5, 24.0, 0.0, 0.0, 0.0, 1.695756391276385E9, 0.0, 2023-09-26 14:26:31.276
94.0, -159354.68338187737, 29216.25575020978, -48016.01743889063, -38789.46319692888, 3028.370801016188, -13803.29743663042, -187500.02235174447, -666.5737231461673, 7658.691127144233, -36656.19035436992, 781.7969658132752, -20454.66249640733, -23842.091720353572, -22473.606166077396, -25792.594348501487, -40486.98878133164, 0.062, 1.016, -0.026000000000000002, 192.0, 0.0, 0.0, 0.0, 0.0, 0.0, 0.0, 0.0, 0.0, 0.0, 1.695756391276399E9, 0.0, 2023-09-26 14:26:31.276
96.0, -159356.49387317823, 29199.290776168204, -48018.721999969726, -38792.92771731946, 3021.2629462794002, -13805.152631420211, -187500.02235174447, -676.386138962047, 7637.524025145058, -36661.59947652811, 765.7484132943647, -20450.683885894287, -23849.780720446197, -22482.12218071487, -25803.122020139937, -40496.22005179168, 0.062, 1.016, -0.026000000000000002, 192.0, 0.0, 0.0, 0.0, 0.0, 0.0, 0.0, 0.0, 0.0, 0.0, 1.695756391276412E9, 0.0, 2023-09-26 14:26:31.276
98.0, -159355.1751202554, 29210.01961350675, -48012.84349117798, -38789.351438206606, 3026.202681804023, -13796.144878404722, -187500.02235174447, -661.2763597102595, 7648.051696783507, -36678.89972673651, 762.0380237147837, -20464.027877334105, -23844.885688410486, -22480.73637255864, -25801.95972942826, -40490.520356955574, 0.062, 1.016, -0.026000000000000002, 192.0, 0.0, 0.0, 0.0, 0.0, 0.0, 0.0, 0.0, 0.0, 0.0, 1.695756391276422E9, 0.0, 2023-09-26 14:26:31.276
100.0, -159362.864120348, 29207.739735572308, -48008.19432833127, -38783.964667792876, 3025.2862602813557, -13791.898046958215, -187500.02235174447, -667.065461524184, 7645.0565630264955, -36665.60043878561, 760.3616428806357, -20462.686772666788, -23844.818633177118, -22486.369012161376, -25803.703165495775, -40487.59227843193, 0.062, 1.016, -0.026000000000000002, 192.0, 0.0, 0.0, 0.0, 0.0, 0.0, 0.0, 0.0, 0.0, 0.0, 1.695756391276431E9, 0.0, 2023-09-26 14:26:31.276
102.0, -159363.53467268165, 29218.669738610955, -47995.38677875838, -38768.944295518915, 3038.920824399093, -13776.721212473061, -187500.02235174447, -645.2948624247149, 7657.79705736602, -36673.44590108942, 768.9223610070183, -20468.565281458534, -23836.682598195388, -22470.00753522009, -25792.25907233466, -40469.66617937877, 0.064, 1.016, -0.026000000000000002, 192.0, 1.0, 0.0, 15.5, 96.0, 127.5, 24.0, 0.0, 0.0, 0.0, 1.695756391276467E9, 0.0, 2023-09-26 14:26:31.276
104.0, -159371.29072800765, 29218.91560779996, -47999.94653462726, -38774.82280431066, 3036.8421121647493, -13778.554055518396, -187500.02235174447, -650.8157433051757, 7666.8942173593305, -36649.551886266694, 778.4665558894344, -20451.846176605963, -23832.547525471156, -22466.274793896057, -25788.59338624399, -40463.34063569792, 0.064, 1.016, -0.026000000000000002, 192.0, 0.0, 0.0, 0.0, 0.0, 0.0, 0.0, 0.0, 0.0, 0.0, 1.695756391336011E9, 0.0, 2023-09-26 14:26:31.336
106.0, -159381.75134441274, 29217.753317088285, -48004.46158700724, -38781.1036445026, 3031.701210940029, -13790.53459054644, -187500.02235174447, -655.0849264961394, 7661.932130090253, -36669.95902895439, 772.8562680311524, -20469.504054725654, -23833.642760949464, -22467.906471241295, -25792.2367205902, -40470.33673171243, 0.064, 1.016, -0.026000000000000002, 192.0, 0.0, 0.0, 0.0, 0.0, 0.0, 0.0, 0.0, 0.0, 0.0, 1.695756391336034E9, 0.0, 2023-09-26 14:26:31.336
108.0, -159388.18864681586, 29209.192598961905, -48007.83670041999, -38785.998676538315, 3028.0355248493584, -13799.251770884011, -187500.02235174447, -669.8817813255527, 7662.289758001538, -36664.01346492928, 771.7163290639317, -20458.90932785384, -23840.348284286058, -22485.65375633881, -25799.791610216096, -40482.22785976266, 0.064, 1.016, -0.026000000000000002, 192.0, 0.0, 0.0, 0.0, 0.0, 0.0, 0.0, 0.0, 0.0, 0.0, 1.695756391336044E9, 0.0, 2023-09-26 14:26:31.336
110.0, -159413.11084188352, 29211.986567018816, -48000.63943870538, -38780.03076076874, 3039.501969754931, -13800.54817206242, -187500.02235174447, -663.0421475222287, 7668.727060404666, -36693.3613053991, 768.7658987958312, -20483.518598499133, -23834.737996427775, -22480.959890003192, -25794.650708991376, -40481.93728708474, 0.064, 1.016, -0.026000000000000002, 192.0, 0.0, 0.0, 0.0, 0.0, 0.0, 0.0, 0.0, 0.0, 0.0, 1.695756391336053E9, 0.0, 2023-09-26 14:26:31.336
112.0, -159399.9233126549, 29212.455953652378, -48006.339133541485, -38785.3057724602, 3034.651641208129, -13807.63367505475, -187500.02235174447, -660.0470137652176, 7665.843685369931, -36664.102871907104, 781.864021046641, -20463.178511044804, -23826.19963004585, -22474.16495968878, -25782.603118729963, -40476.03642654853, 0.062, 1.012, -0.026000000000000002, 192.0, 0.5, 120.0, 15.5, 80.0, 127.5, 24.0, 0.0, 0.0, 0.0, 1.695756391336062E9, 0.0, 2023-09-26 14:26:31.336
114.0, -159395.60942597504, 29205.12458147104, -48012.485863266695, -38791.76542660778, 3030.047181850336, -13810.472346600574, -187500.02235174447, -659.7117375983879, 7651.583272407445, -36685.359380884096, 767.447145872968, -20474.175569316812, -23841.689388953375, -22489.11827672938, -25797.131752625915, -40489.73804589964, 0.062, 1.012, -0.026000000000000002, 192.0, 0.0, 0.0, 0.0, 0.0, 0.0, 0.0, 0.0, 0.0, 0.0, 1.695756391336073E9, 0.0, 2023-09-26 14:26:31.336
116.0, -159391.25083580625, 29211.897160040997, -48000.035941605085, -38776.65564735599, 3037.8032371763275, -13788.72409924556, -187500.02235174447, -663.6009411336114, 7666.111906303395, -36670.09313942112, 773.4597651314456, -20458.864624364927, -23841.935258142385, -22480.758724303094, -25794.047211891084, -40481.89258359582, 0.062, 1.012, -0.026000000000000002, 192.0, 0.0, 0.0, 0.0, 0.0, 0.0, 0.0, 0.0, 0.0, 0.0, 1.695756391336082E9, 0.0, 2023-09-26 14:26:31.336
118.0, -159401.08560336658, 29215.11581124256, -48002.695799195266, -38775.04632175521, 3037.177388331579, -13786.690090500128, -187500.02235174447, -655.7331270853433, 7669.308205760504, -36682.699523293915, 772.9456750089736, -20476.38839201789, -23834.67094119441, -22475.371953889367, -25789.86743567794, -40467.47570842215, 0.062, 1.012, -0.026000000000000002, 192.0, 0.0, 0.0, 0.0, 0.0, 0.0, 0.0, 0.0, 0.0, 0.0, 1.695756391336091E9, 0.0, 2023-09-26 14:26:31.336
120.0, -159373.54825419764, 29217.08276475463, -48002.96402012873, -38777.460310156384, 3035.277490052878, -13790.221666124067, -187500.02235174447, -659.0635370091841, 7661.775667879066, -36657.889086948526, 777.1925064554819, -20443.71014162423, -23846.13738609998, -22472.510930599088, -25796.550607270077, -40472.3036852245, 0.062, 1.012, -0.026000000000000002, 192.0, 0.0, 0.0, 0.0, 0.0, 0.0, 0.0, 0.0, 0.0, 0.0, 1.695756391396261E9, 0.0, 2023-09-26 14:26:31.396
122.0, -159401.80085918916, 29212.7465263303, -47998.65013344886, -38775.4039496665, 3039.9043011551266, -13785.72896548855, -187500.02235174447, -656.8283625636534, 7659.607548666901, -36683.70535179441, 762.574465581711, -20468.989964603184, -23841.42116801991, -22472.533282343542, -25792.68375547931, -40467.36394969987, 0.068, 1.014, -0.022, 192.0, 1.0, 16.0, 15.5, 88.0, 127.5, 40.0, 0.0, 0.0, 0.0, 1.695756391396279E9, 0.0, 2023-09-26 14:26:31.396
124.0, -159397.6657864649, 29218.580331633133, -47989.128290310895, -38766.50795537329, 3046.654527980629, -13772.720250215561, -187500.02235174447, -647.3512229146031, 7662.535627190546, -36665.13105215205, 769.2799889183032, -20453.746074884664, -23838.806013918642, -22470.320459642466, -25785.464142020242, -40464.54762989851, 0.068, 1.014, -0.022, 192.0, 0.0, 0.0, 0.0, 0.0, 0.0, 0.0, 0.0, 0.0, 0.0, 1.69575639139632E9, 0.0, 2023-09-26 14:26:31.396
126.0, -159434.0767781826, 29211.561883874165, -47991.29640952306, -38768.76548156327, 3046.2521965804335, -13775.134238616734, -187500.02235174447, -645.1384002135278, 7669.621130182878, -36679.52557558126, 766.9554074949513, -20472.163912315835, -23831.58640045958, -22465.648945051307, -25779.742095439684, -40457.01509201707, 0.068, 1.014, -0.022, 192.0, 0.0, 0.0, 0.0, 0.0, 0.0, 0.0, 0.0, 0.0, 0.0, 1.695756391396329E9, 0.0, 2023-09-26 14:26:31.396
128.0, -159387.40633575994, 29208.343232672603, -48015.480997023704, -38796.01225805429, 3026.4485509930314, -13798.78238425045, -187500.02235174447, -642.7467635568099, 7664.077897557962, -36662.15827013949, 768.3412156511803, -20455.08717955198, -23842.359941287035, -22477.808294034996, -25791.76733395664, -40473.555382914, 0.068, 1.014, -0.022, 192.0, 0.0, 0.0, 0.0, 0.0, 0.0, 0.0, 0.0, 0.0, 0.0, 1.695756391396338E9, 0.0, 2023-09-26 14:26:31.396
130.0, -159422.45387106584, 29202.665889580952, -47997.800767159555, -38777.884993301035, 3041.2230540779897, -13789.148782390212, -187500.02235174447, -653.1179729840724, 7662.289758001538, -36687.41574137399, 752.5161805768229, -20471.739229171184, -23849.087816368083, -22489.252387196113, -25801.222121861236, -40478.65158064981, 0.068, 1.014, -0.022, 192.0, 0.0, 0.0, 0.0, 0.0, 0.0, 0.0, 0.0, 0.0, 0.0, 1.695756391396347E9, 0.0, 2023-09-26 14:26:31.396
132.0, -159375.33639375406, 29209.483171639822, -48018.20790984725, -38799.58853716714, 3017.59726018873, -13816.68613155915, -187500.02235174447, -653.2520834508042, 7656.075973042963, -36670.07078767667, 768.251808673359, -20460.18337728779, -23845.824461677606, -22488.93946277374, -25802.67498525083, -40486.96642958718, 0.066, 1.01, -0.02, 192.0, 1.0, 8.0, 15.5, 72.0, 127.5, 48.0, 0.0, 0.0, 0.0, 1.695756391396356E9, 0.0, 2023-09-26 14:26:31.396
134.0, -159408.34992031456, 29209.416116406457, -47995.6773514363, -38775.38159792204, 3032.8411499072495, -13797.508334816497, -187500.02235174447, -666.8866475685415, 7660.9039498453085, -36686.52167159577, 766.6201313281216, -20475.896653639873, -23844.48335701029, -22481.697497570218, -25806.20656087477, -40481.646714406816, 0.066, 1.01, -0.02, 192.0, 0.0, 0.0, 0.0, 0.0, 0.0, 0.0, 0.0, 0.0, 0.0, 1.695756391456576E9, 0.0, 2023-09-26 14:26:31.456
136.0, -159364.3169837376, 29218.535628144222, -48003.56751722903, -38782.31063870319, 3026.0685713372914, -13802.224552896567, -187500.02235174447, -657.968301530874, 7654.332536975448, -36669.26612487628, 780.9252477795181, -20458.350534242458, -23848.14904310096, -22479.64113708033, -25803.859627706963, -40481.1549760288, 0.066, 1.01, -0.02, 192.0, 0.0, 0.0, 0.0, 0.0, 0.0, 0.0, 0.0, 0.0, 0.0, 1.695756391456606E9, 0.0, 2023-09-26 14:26:31.456
138.0, -159408.68519648138, 29214.624072864543, -47989.30710426654, -38766.083272228636, 3037.311498798311, -13785.840724210826, -187500.02235174447, -664.5620661451895, 7663.407345224303, -36676.26222089079, 778.7571285673533, -20465.234871534693, -23827.361920757525, -22469.739314286628, -25798.182284615315, -40467.587467144425, 0.066, 1.01, -0.02, 192.0, 0.0, 0.0, 0.0, 0.0, 0.0, 0.0, 0.0, 0.0, 0.0, 1.695756391456615E9, 0.0, 2023-09-26 14:26:31.456
140.0, -159396.05646086414, 29222.625997379542, -47995.74440666967, -38772.74409207632, 3032.729391184973, -13789.461706812586, -187500.02235174447, -655.12962998505, 7666.603644681412, -36667.63444753104, 782.6463321025768, -20467.268880280124, -23811.089850794062, -22467.504139841098, -25793.801342702074, -40463.65356012029, 0.066, 1.01, -0.02, 192.0, 0.0, 0.0, 0.0, 0.0, 0.0, 0.0, 0.0, 0.0, 0.0, 1.695756391456624E9, 0.0, 2023-09-26 14:26:31.456
142.0, -159411.65797849392, 29211.83010480763, -47994.827985147, -38770.821842053156, 3028.795484160839, -13783.113811387278, -187500.02235174447, -667.4007376910135, 7651.359754962892, -36651.652950245494, 775.0020354988618, -20460.295136010067, -23806.686557136367, -22465.023096206558, -25800.260996849658, -40471.27550497955, 0.06, 1.014, -0.018000000000000002, 192.0, 0.5, 112.0, 15.5, 88.0, 127.5, 56.0, 0.0, 0.0, 0.0, 1.695756391456633E9, 0.0, 2023-09-26 14:26:31.456
144.0, -159414.13902212848, 29220.569636889653, -47986.28961876508, -38765.72564431735, 3040.530149999875, -13773.81548569387, -187500.02235174447, -656.0907549966282, 7664.9496155917195, -36646.66851123196, 783.2945326917807, -20466.732438413197, -23791.308556951113, -22461.4021136048, -25785.777066442617, -40460.05492926299, 0.06, 1.014, -0.018000000000000002, 192.0, 0.0, 0.0, 0.0, 0.0, 0.0, 0.0, 0.0, 0.0, 0.0, 1.695756391456672E9, 0.0, 2023-09-26 14:26:31.456
146.0, -159408.372272059, 29207.87384603904, -48004.01455211813, -38779.74018809083, 3025.4874259814533, -13778.039965395925, -187500.02235174447, -651.7992200612092, 7670.179923794261, -36620.78519115272, 791.2964572067806, -20454.975420829705, -23785.810027815107, -22454.651886779295, -25774.15415932586, -40455.2493042051, 0.06, 1.014, -0.018000000000000002, 192.0, 0.0, 0.0, 0.0, 0.0, 0.0, 0.0, 0.0, 0.0, 0.0, 1.695756391456682E9, 0.0, 2023-09-26 14:26:31.456
148.0, -159399.90096091045, 29208.298529183692, -48003.612220717936, -38773.682865343435, 3030.1589405726127, -13767.400535035198, -187500.02235174447, -646.0771734806507, 7660.389859722836, -36626.32842377763, 785.7755763263198, -20451.555603928042, -23793.34256569655, -22457.91524146977, -25772.790702914084, -40461.95482754169, 0.06, 1.014, -0.018000000000000002, 192.0, 0.0, 0.0, 0.0, 0.0, 0.0, 0.0, 0.0, 0.0, 0.0, 1.695756391456691E9, 0.0, 2023-09-26 14:26:31.456
150.0, -159401.39852778896, 29197.16736044495, -48012.64232547788, -38775.80628106669, 3030.5165684838976, -13768.652232724695, -187500.02235174447, -656.5377898857344, 7666.178961536761, -36614.616109683055, 791.475271162423, -20446.19118525877, -23785.251234203726, -22457.02117169156, -25756.540984695075, -40461.86542056387, 0.06, 1.014, -0.018000000000000002, 192.0, 0.0, 0.0, 0.0, 0.0, 0.0, 0.0, 0.0, 0.0, 0.0, 1.695756391516791E9, 0.0, 2023-09-26 14:26:31.516
152.0, -159389.1721235719, 29199.20136919038, -48022.67825873831, -38775.716874088874, 3029.8013126613278, -13766.461761768076, -187500.02235174447, -652.6709380949662, 7662.245054512627, -36626.30607203318, 787.7872333272974, -20456.495339452667, -23785.47475164828, -22451.388532088822, -25749.05315030255, -40471.20844974619, 0.058, 1.008, -0.014, 192.0, 0.5, 104.0, 15.5, 64.0, 127.5, 72.0, 0.0, 0.0, 0.0, 1.695756391516809E9, 0.0, 2023-09-26 14:26:31.516
154.0, -159368.7649808842, 29189.008973718763, -48031.84247396499, -38779.47196715736, 3025.3756672591767, -13770.19450309211, -187500.02235174447, -666.8195923351756, 7652.209121252195, -36614.03496432721, 784.769747825831, -20440.625600889398, -23791.554426140123, -22462.474997338653, -25748.80728111354, -40484.53008944155, 0.058, 1.008, -0.014, 192.0, 0.0, 0.0, 0.0, 0.0, 0.0, 0.0, 0.0, 0.0, 0.0, 1.695756391516819E9, 0.0, 2023-09-26 14:26:31.516
156.0, -159388.09923983805, 29194.48515111031, -48027.05920065155, -38767.469080384864, 3032.8411499072495, -13762.170226832657, -187500.02235174447, -653.0285660062511, 7669.665833671789, -36640.32061580665, 782.2887041912919, -20464.76548490113, -23776.064667232593, -22450.628572777343, -25734.010426284127, -40474.74002537013, 0.058, 1.008, -0.014, 192.0, 0.0, 0.0, 0.0, 0.0, 0.0, 0.0, 0.0, 0.0, 0.0, 1.695756391516827E9, 0.0, 2023-09-26 14:26:31.516
158.0, -159380.00790834523, 29195.91566275545, -48014.69868596777, -38754.48271685633, 3036.976222631481, -13755.48705524052, -187500.02235174447, -654.4367259069355, 7668.168266793284, -36615.95721435037, 789.5306693948114, -20438.345722954957, -23780.42325740138, -22451.142662899812, -25736.156193751838, -40480.61853416187, 0.058, 1.008, -0.014, 192.0, 0.0, 0.0, 0.0, 0.0, 0.0, 0.0, 0.0, 0.0, 0.0, 1.695756391516836E9, 0.0, 2023-09-26 14:26:31.516
160.0, -159385.75230667024, 29199.693107568397, -48023.326459327516, -38759.04247272521, 3029.8460161502385, -13765.567691989863, -187500.02235174447, -645.2948624247149, 7688.955389136719, -36634.48681050382, 794.671570619532, -20457.97055458672, -23759.636135057943, -22432.031921390524, -25717.29132143156, -40460.68077810774, 0.058, 1.008, -0.014, 192.0, 0.0, 0.0, 0.0, 0.0, 0.0, 0.0, 0.0, 0.0, 0.0, 1.695756391516845E9, 0.0, 2023-09-26 14:26:31.516
162.0, -159366.1721785274, 29201.05656398017, -48015.30218306806, -38753.05220521119, 3033.399943518632, -13760.113866342768, -187500.02235174447, -656.4036794190025, 7664.882560358354, -36608.13410379102, 787.1390327380935, -20427.058092005027, -23786.480580148767, -22449.935668699225, -25738.48077517519, -40481.020865562066, 0.06, 1.008, -0.014, 192.0, 0.5, 112.0, 15.5, 64.0, 127.5, 72.0, 0.0, 0.0, 0.0, 1.695756391516854E9, 0.0, 2023-09-26 14:26:31.516
164.0, -159400.7726789442, 29210.846628051597, -48006.964982386235, -38743.17273416194, 3046.6098244917184, -13750.033229593424, -187500.02235174447, -647.4629816368797, 7682.607493711412, -36629.88235114603, 790.737663595398, -20453.4778539512, -23767.146321194927, -22428.276828322036, -25722.18635346727, -40460.948999041204, 0.06, 1.008, -0.014, 192.0, 0.0, 0.0, 0.0, 0.0, 0.0, 0.0, 0.0, 0.0, 0.0, 1.695756391576758E9, 0.0, 2023-09-26 14:26:31.576
166.0, -159365.79219887164, 29208.298529183692, -48020.9348226708, -38760.18241169243, 3035.1880830750565, -13763.757200688982, -187500.02235174447, -646.1665804584719, 7676.907798875309, -36602.85909209956, 792.4587479184567, -20422.453632647233, -23780.959699268307, -22436.703435981686, -25732.870487316908, -40470.69435962372, 0.06, 1.008, -0.014, 192.0, 0.0, 0.0, 0.0, 0.0, 0.0, 0.0, 0.0, 0.0, 0.0, 1.695756391576813E9, 0.0, 2023-09-26 14:26:31.576
168.0, -159369.70375415133, 29194.48515111031, -48022.45474129376, -38769.19016470792, 3034.5845859747633, -13766.998203635003, -187500.02235174447, -650.8827985385417, 7678.450069242725, -36630.619958713054, 778.6006663561662, -20441.989057301173, -23788.536940638656, -22456.842357735917, -25742.258219988136, -40480.86440335088, 0.06, 1.008, -0.014, 192.0, 0.0, 0.0, 0.0, 0.0, 0.0, 0.0, 0.0, 0.0, 0.0, 1.695756391576822E9, 0.0, 2023-09-26 14:26:31.576
170.0, -159340.64648635942, 29200.073087224137, -48025.71809598424, -38775.359246177584, 3032.2600045514114, -13775.313052572377, -187500.02235174447, -646.8371327921311, 7674.672624429778, -36620.96400510836, 791.8776025626186, -20424.46528964821, -23785.98884177075, -22453.914279212273, -25741.922943821308, -40484.1054062969, 0.06, 1.008, -0.014, 192.0, 0.0, 0.0, 0.0, 0.0, 0.0, 0.0, 0.0, 0.0, 0.0, 1.695756391576831E9, 0.0, 2023-09-26 14:26:31.576
172.0, -159373.74941989774, 29189.746581285788, -48020.89011918189, -38773.01231300978, 3047.5262460143863, -13772.988471149025, -187500.02235174447, -653.8779322955528, 7683.993301867641, -36644.880371675536, 778.5559628672556, -20450.214499260725, -23786.19000747085, -22461.804445004993, -25741.610019398933, -40486.117063297876, 0.058, 1.006, -0.014, 192.0, 0.5, 104.0, 15.5, 56.0, 127.5, 72.0, 0.0, 0.0, 0.0, 1.69575639157684E9, 0.0, 2023-09-26 14:26:31.576
174.0, -159342.8146055716, 29190.372430130534, -48030.90370069787, -38784.38935093753, 3041.3348128002663, -13780.096325885812, -187500.02235174447, -652.9168072839747, 7661.060412056496, -36629.68118544593, 778.7347768228981, -20439.530365411087, -23793.208455229815, -22473.226186421656, -25745.81214735653, -40496.35416225841, 0.058, 1.006, -0.014, 192.0, 0.0, 0.0, 0.0, 0.0, 0.0, 0.0, 0.0, 0.0, 0.0, 1.69575639157685E9, 0.0, 2023-09-26 14:26:31.576
176.0, -159393.59776897405, 29187.06437195115, -48014.20694758975, -38768.13963271852, 3054.120010628702, -13763.690145455617, -187500.02235174447, -655.196685218416, 7684.28387454556, -36660.79481372772, 772.6998058199651, -20472.76740941613, -23780.825588801574, -22463.92786072825, -25733.205763483737, -40480.90910683979, 0.058, 1.006, -0.014, 192.0, 0.0, 0.0, 0.0, 0.0, 0.0, 0.0, 0.0, 0.0, 0.0, 1.695756391576859E9, 0.0, 2023-09-26 14:26:31.576
178.0, -159350.32479170858, 29195.11099995506, -48029.45083730827, -38781.55067939171, 3034.4504755080316, -13777.34706131781, -187500.02235174447, -652.2462549503153, 7674.605569196412, -36633.704499447886, 780.5899716126886, -20447.71110388173, -23796.18123724237, -22460.485692082133, -25741.72177812121, -40489.29101101053, 0.058, 1.006, -0.014, 192.0, 0.0, 0.0, 0.0, 0.0, 0.0, 0.0, 0.0, 0.0, 0.0, 1.695756391576868E9, 0.0, 2023-09-26 14:26:31.576
180.0, -159385.70760318133, 29197.457933122867, -48013.02230513362, -38760.964722748366, 3042.765324445406, -13761.2985087989, -187500.02235174447, -650.3687084160696, 7679.053566343018, -36650.02127290026, 774.7338145653981, -20465.927775612807, -23791.241501717748, -22454.517776312565, -25739.821879842508, -40481.87023185137, 0.058, 1.006, -0.014, 192.0, 0.0, 0.0, 0.0, 0.0, 0.0, 0.0, 0.0, 0.0, 0.0, 1.695756391636007E9, 0.0, 2023-09-26 14:26:31.636
182.0, -159340.02063751468, 29214.132334486527, -48018.09615112498, -38764.54100186122, 3030.4495132505317, -13768.115790857768, -187500.02235174447, -636.3988681315027, 7675.723156419177, -36621.85807488657, 790.2682769618365, -20433.964781041715, -23799.578702399576, -22444.034808163025, -25736.200897240746, -40476.326999226454, 0.062, 1.012, -0.022, 192.0, 0.5, 120.0, 15.5, 80.0, 127.5, 40.0, 0.0, 0.0, 0.0, 1.69575639163603E9, 0.0, 2023-09-26 14:26:31.636
184.0, -159356.24800398923, 29208.186770461416, -48008.79782543157, -38758.52838260274, 3032.5058737404197, -13761.633784965728, -187500.02235174447, -646.0995252251059, 7674.717327918688, -36625.81433365516, 777.5277826223115, -20436.602286887442, -23801.880932078475, -22448.147529142803, -25742.057054288038, -40479.94798182821, 0.062, 1.012, -0.022, 192.0, 0.0, 0.0, 0.0, 0.0, 0.0, 0.0, 0.0, 0.0, 0.0, 1.695756391636041E9, 0.0, 2023-09-26 14:26:31.636
186.0, -159343.23928871626, 29215.11581124256, -48003.478110251206, -38753.0969087001, 3043.79350469035, -13755.464703496064, -187500.02235174447, -630.4309523619357, 7684.082708845462, -36628.25067380079, 789.865945561641, -20437.675170621296, -23783.776019069675, -22435.183517358724, -25728.15426923684, -40462.424214175255, 0.062, 1.012, -0.022, 192.0, 0.0, 0.0, 0.0, 0.0, 0.0, 0.0, 0.0, 0.0, 0.0, 1.69575639163605E9, 0.0, 2023-09-26 14:26:31.636
188.0, -159369.8155128736, 29205.862189038064, -47998.02428460411, -38751.733452288325, 3052.264815838911, -13754.749447673494, -187500.02235174447, -647.1500572145054, 7678.450069242725, -36629.792944168206, 784.0768437477165, -20440.826766589496, -23782.65843184691, -22440.994970917105, -25728.55660063703, -40466.2016589882, 0.062, 1.012, -0.022, 192.0, 0.0, 0.0, 0.0, 0.0, 0.0, 0.0, 0.0, 0.0, 0.0, 1.695756391636089E9, 0.0, 2023-09-26 14:26:31.636
190.0, -159328.7106548203, 29204.476380881835, -48016.41977029083, -38774.3534176771, 3041.2901093113555, -13780.431602052642, -187500.02235174447, -646.5689118586674, 7680.528781477068, -36624.16030456547, 790.1788699840153, -20436.982266543182, -23785.94413828184, -22457.28939262502, -25736.33500770748, -40480.171499272765, 0.062, 1.012, -0.022, 192.0, 0.0, 0.0, 0.0, 0.0, 0.0, 0.0, 0.0, 0.0, 0.0, 1.695756391636097E9, 0.0, 2023-09-26 14:26:31.636
192.0, -159346.43558817336, 29191.512369097756, -48012.88819466689, -38773.5040513878, 3053.248292594945, -13779.91751193017, -187500.02235174447, -658.3035776977036, 7672.549208706523, -36639.15832509498, 781.8863727910964, -20441.922002067808, -23782.256100446713, -22456.551785057996, -25736.849097829952, -40484.26186850809, 0.058, 1.014, -0.024, 192.0, 0.5, 104.0, 15.5, 88.0, 127.5, 32.0, 0.0, 0.0, 0.0, 1.695756391636106E9, 0.0, 2023-09-26 14:26:31.636
194.0, -159331.41521589938, 29190.640651063997, -48009.64719172087, -38769.59249610812, 3059.46207755352, -13775.87184618376, -187500.02235174447, -649.8769700380528, 7667.721231904177, -36646.422642042955, 778.6006663561662, -20446.61586840342, -23784.379516169967, -22460.95507871569, -25735.15036525135, -40487.99460983212, 0.058, 1.014, -0.024, 192.0, 0.0, 0.0, 0.0, 0.0, 0.0, 0.0, 0.0, 0.0, 0.0, 1.69575639169624E9, 0.0, 2023-09-26 14:26:31.696
196.0, -159339.3053816921, 29178.973040458328, -48014.27400282312, -38773.548754876705, 3049.962586160015, -13779.24695959651, -187500.02235174447, -661.5669323881784, 7669.5317232050575, -36644.76861295326, 776.9466372664735, -20448.29224923757, -23786.12295223748, -22462.743218272117, -25729.09304250396, -40482.33961848493, 0.058, 1.014, -0.024, 192.0, 0.0, 0.0, 0.0, 0.0, 0.0, 0.0, 0.0, 0.0, 0.0, 1.695756391696265E9, 0.0, 2023-09-26 14:26:31.696
198.0, -159337.91957353588, 29188.07020045164, -48007.90375565336, -38761.92584775994, 3055.1928943625567, -13765.858264667782, -187500.02235174447, -645.1831037024384, 7673.7562029071105, -36655.00571191379, 772.7445093088758, -20461.971516844216, -23789.40865867241, -22448.125177398346, -25728.08721400347, -40474.96354281468, 0.058, 1.014, -0.024, 192.0, 0.0, 0.0, 0.0, 0.0, 0.0, 0.0, 0.0, 0.0, 0.0, 1.695756391696274E9, 0.0, 2023-09-26 14:26:31.696
200.0, -159333.6503903449, 29191.40061037548, -48005.10978759644, -38756.829650024134, 3048.4873710259644, -13757.208139563578, -187500.02235174447, -646.3453944141144, 7678.494772731635, -36635.42558377094, 776.6560645885545, -20441.810243345528, -23801.61271114501, -22444.10186339639, -25731.507030905133, -40468.41448168927, 0.058, 1.014, -0.024, 192.0, 0.0, 0.0, 0.0, 0.0, 0.0, 0.0, 0.0, 0.0, 0.0, 1.695756391696283E9, 0.0, 2023-09-26 14:26:31.696
202.0, -159337.8972217914, 29212.36654667456, -47995.18561305829, -38747.66543479746, 3056.6681094966066, -13748.893290626203, -187500.02235174447, -632.6884785519217, 7675.678452930267, -36645.43916528692, 781.8193175577304, -20448.158138770836, -23802.37267045649, -22436.234049348124, -25731.104699504936, -40459.51848739606, 0.058, 1.01, -0.03, 192.0, 0.5, 104.0, 15.5, 72.0, 127.5, 8.0, 0.0, 0.0, 0.0, 1.695756391696292E9, 0.0, 2023-09-26 14:26:31.696
204.0, -159330.9011257769, 29216.50161939879, -48001.06412185003, -38754.5497720897, 3049.917882671104, -13757.990450619514, -187500.02235174447, -636.8235512761535, 7684.529743734568, -36619.19821729639, 793.9116113080515, -20424.957028026227, -23808.877028092986, -22441.799633717495, -25737.81022284153, -40461.59719963041, 0.058, 1.01, -0.03, 192.0, 0.0, 0.0, 0.0, 0.0, 0.0, 0.0, 0.0, 0.0, 0.0, 1.695756391696302E9, 0.0, 2023-09-26 14:26:31.696
206.0, -159316.57365758106, 29210.91368328496, -48013.536395256095, -38774.599286866105, 3045.9616239025145, -13775.715383972572, -187500.02235174447, -628.9780889723407, 7677.6901099312445, -36643.4498600304, 780.9699512684288, -20441.810243345528, -23816.923656096897, -22448.952191943194, -25742.66055138833, -40468.81681308947, 0.058, 1.01, -0.03, 192.0, 0.0, 0.0, 0.0, 0.0, 0.0, 0.0, 0.0, 0.0, 0.0, 1.695756391696311E9, 0.0, 2023-09-26 14:26:31.696
208.0, -159305.66600628686, 29202.040040736207, -48001.68997069478, -38769.27957168574, 3056.086964140769, -13770.350965303298, -187500.02235174447, -636.7341442983322, 7666.983624337152, -36635.91732214896, 784.9932652703841, -20424.331179181478, -23823.94210385586, -22471.05806720949, -25753.344685237967, -40482.71959814067, 0.058, 1.01, -0.03, 192.0, 0.0, 0.0, 0.0, 0.0, 0.0, 0.0, 0.0, 0.0, 0.0, 1.69575639169632E9, 0.0, 2023-09-26 14:26:31.696
210.0, -159328.53184086466, 29207.672680338943, -47990.42469148931, -38759.95889424788, 3068.469830569009, -13766.931148401636, -187500.02235174447, -627.2793563937374, 7694.610380483911, -36653.39638631301, 795.2974194642806, -20452.404970217343, -23798.32700471008, -22448.236936120622, -25730.81412682702, -40462.424214175255, 0.058, 1.01, -0.03, 192.0, 0.0, 0.0, 0.0, 0.0, 0.0, 0.0, 0.0, 0.0, 0.0, 1.695756391756577E9, 0.0, 2023-09-26 14:26:31.756
212.0, -159305.46484058676, 29208.83497105062, -47994.11272932443, -38762.86462102707, 3068.6933480135617, -13767.981680391036, -187500.02235174447, -638.5669873436675, 7682.987473367152, -36626.26136854427, 798.4266636880236, -20421.716025080208, -23808.76526937071, -22459.055180436993, -25740.04539728706, -40476.57286841546, 0.058, 1.01, -0.026000000000000002, 192.0, 0.5, 104.0, 15.5, 72.0, 127.5, 24.0, 0.0, 0.0, 0.0, 1.695756391756596E9, 0.0, 2023-09-26 14:26:31.756
214.0, -159335.08090199006, 29211.763049574263, -47987.34015075447, -38754.125088945046, 3077.566990562319, -13760.203273320589, -187500.02235174447, -636.0859437091284, 7682.8533629004205, -36649.32836882214, 790.8270705732192, -20443.643086390864, -23795.354222697526, -22451.947325700203, -25731.03764427157, -40465.285237465534, 0.058, 1.01, -0.026000000000000002, 192.0, 0.0, 0.0, 0.0, 0.0, 0.0, 0.0, 0.0, 0.0, 0.0, 1.695756391756613E9, 0.0, 2023-09-26 14:26:31.756
216.0, -159318.98764598224, 29218.088593255117, -47987.92129611031, -38756.40496687948, 3075.711795772528, -13757.833988408327, -187500.02235174447, -635.4824466088351, 7690.296493804038, -36621.36633650855, 800.1924514999929, -20424.979379770684, -23788.939272038853, -22434.647075491797, -25728.71306284822, -40461.59719963041, 0.058, 1.01, -0.026000000000000002, 192.0, 0.0, 0.0, 0.0, 0.0, 0.0, 0.0, 0.0, 0.0, 0.0, 1.695756391756623E9, 0.0, 2023-09-26 14:26:31.756
218.0, -159353.4093324434, 29217.395689177003, -47982.46747046321, -38751.82285926615, 3072.4484410820537, -13749.25091853749, -187500.02235174447, -632.9790512298407, 7690.654121715323, -36640.00769138428, 793.8892595635963, -20446.03472304758, -23788.268719705193, -22435.362331314365, -25727.126088991892, -40456.45629840568, 0.058, 1.01, -0.026000000000000002, 192.0, 0.0, 0.0, 0.0, 0.0, 0.0, 0.0, 0.0, 0.0, 0.0, 1.695756391756632E9, 0.0, 2023-09-26 14:26:31.756
220.0, -159314.71846279126, 29222.82716307964, -48007.859052164444, -38774.599286866105, 3047.7944669478497, -13770.01568913647, -187500.02235174447, -634.4766181083463, 7684.9097233903085, -36616.24778702829, 801.3100387227582, -20425.314655937513, -23802.79735360114, -22442.403130817787, -25733.71985360621, -40465.01701653207, 0.058, 1.01, -0.026000000000000002, 192.0, 0.0, 0.0, 0.0, 0.0, 0.0, 0.0, 0.0, 0.0, 0.0, 1.695756391756641E9, 0.0, 2023-09-26 14:26:31.756
222.0, -159326.09550071904, 29207.247997194292, -48015.36923830143, -38781.68478985844, 3039.3455075437437, -13783.829067209848, -187500.02235174447, -650.6369293495333, 7679.590008209945, -36639.73947045082, 779.1594599675489, -20444.514804424623, -23817.303635752636, -22462.296183383012, -25753.881127104894, -40483.83718536344, 0.062, 1.012, -0.028, 192.0, 0.5, 120.0, 15.5, 80.0, 127.5, 16.0, 0.0, 0.0, 0.0, 1.69575639175665E9, 0.0, 2023-09-26 14:26:31.756
224.0, -159313.51146859067, 29217.999186277295, -48003.478110251206, -38774.44282465492, 3051.7060222275286, -13778.397593307209, -187500.02235174447, -656.9401212859299, 7677.466592486691, -36630.73171743533, 788.4130821720461, -20434.70238860874, -23809.078193793084, -22464.82193050646, -25757.658571917844, -40489.06749356598, 0.062, 1.012, -0.028, 192.0, 0.0, 0.0, 0.0, 0.0, 0.0, 0.0, 0.0, 0.0, 0.0, 1.695756391816856E9, 0.0, 2023-09-26 14:26:31.816
226.0, -159320.46286111628, 29211.226607707336, -48010.11657835443, -38784.0540747707, 3045.179312846579, -13793.149744647711, -187500.02235174447, -670.2617609812929, 7688.307188547515, -36640.25356057329, 785.5073553928561, -20450.370961471912, -23800.293958222148, -22464.24078515062, -25756.38452248389, -40489.93921159973, 0.062, 1.012, -0.028, 192.0, 0.0, 0.0, 0.0, 0.0, 0.0, 0.0, 0.0, 0.0, 0.0, 1.695756391816879E9, 0.0, 2023-09-26 14:26:31.816
228.0, -159300.99449169572, 29221.64252062351, -47995.49853748066, -38769.838365297124, 3059.439725809065, -13780.185732863634, -187500.02235174447, -664.6291213785555, 7686.988435624652, -36633.50333374779, 792.9504862964734, -20434.434167675277, -23800.986862300262, -22464.911337484282, -25754.5293276941, -40492.77788314556, 0.062, 1.012, -0.028, 192.0, 0.0, 0.0, 0.0, 0.0, 0.0, 0.0, 0.0, 0.0, 0.0, 1.695756391816889E9, 0.0, 2023-09-26 14:26:31.816
230.0, -159335.03619850116, 29223.050680524193, -47986.37902574289, -38758.68484481393, 3065.4299933230873, -13770.060392625379, -187500.02235174447, -660.6728626099662, 7697.404348540825, -36636.23024657134, 794.671570619532, -20444.224231746703, -23793.074344763085, -22452.863747222873, -25740.38067345389, -40476.37170271536, 0.062, 1.012, -0.028, 192.0, 0.0, 0.0, 0.0, 0.0, 0.0, 0.0, 0.0, 0.0, 0.0, 1.695756391816897E9, 0.0, 2023-09-26 14:26:31.816
232.0, -159326.78840479715, 29240.30622724369, -47980.16524078432, -38744.960873718366, 3069.2521416249447, -13756.448180252097, -187500.02235174447, -635.907129753486, 7705.9874184116625, -36625.3449470216, 814.7881406293084, -20433.115414752414, -23788.00049877173, -22443.58777327392, -25727.573123881, -40459.2502664626, 0.064, 1.014, -0.032, 192.0, 1.0, 0.0, 15.5, 88.0, 127.5, 0.0, 0.0, 0.0, 0.0, 1.695756391816937E9, 0.0, 2023-09-26 14:26:31.816
234.0, -159318.36179713748, 29224.50354391379, -48000.57238347201, -38764.09396697211, 3049.8731791821933, -13770.596834492308, -187500.02235174447, -650.2569496937931, 7694.85624967292, -36616.00191783928, 804.9310213245179, -20421.872487291395, -23809.100545537538, -22442.805462217984, -25743.3758072109, -40467.43100493324, 0.064, 1.014, -0.032, 192.0, 0.0, 0.0, 0.0, 0.0, 0.0, 0.0, 0.0, 0.0, 0.0, 1.695756391816946E9, 0.0, 2023-09-26 14:26:31.816
236.0, -159300.39099459542, 29232.5501719177, -47994.448005491264, -38757.38844363552, 3052.622443750196, -13763.377221033243, -187500.02235174447, -646.2783391807484, 7697.873735174387, -36620.069935330146, 800.8630038336521, -20419.682016334777, -23811.559237427624, -22449.73450299913, -25749.611943913933, -40471.56607765747, 0.064, 1.014, -0.032, 192.0, 0.0, 0.0, 0.0, 0.0, 0.0, 0.0, 0.0, 0.0, 0.0, 1.695756391816955E9, 0.0, 2023-09-26 14:26:31.816
238.0, -159318.89823900443, 29221.77663109024, -47993.3751217574, -38757.36609189106, 3053.4494582950424, -13759.398610520198, -187500.02235174447, -654.2132084623825, 7692.509316505113, -36623.91443537646, 797.4655386764454, -20424.4205861593, -23808.966435070808, -22436.05523539248, -25752.33885673748, -40471.096691023915, 0.064, 1.014, -0.032, 192.0, 0.0, 0.0, 0.0, 0.0, 0.0, 0.0, 0.0, 0.0, 0.0, 1.695756391816963E9, 0.0, 2023-09-26 14:26:31.816
240.0, -159303.27436963015, 29225.844648581107, -48000.34886602746, -38767.35732166259, 3050.0966966267465, -13771.513256014974, -187500.02235174447, -644.8031240466981, 7687.6142844694, -36632.2963395472, 795.9456200534845, -20430.634371117874, -23807.737089125763, -22440.05619764998, -25751.601249170453, -40471.051987535, 0.064, 1.014, -0.032, 192.0, 0.0, 0.0, 0.0, 0.0, 0.0, 0.0, 0.0, 0.0, 0.0, 1.69575639187727E9, 0.0, 2023-09-26 14:26:31.877
242.0, -159328.3083234201, 29215.11581124256, -47991.20700254524, -38759.80243203669, 3058.6797664975843, -13767.62405247975, -187500.02235174447, -654.6825950959438, 7684.932075134764, -36634.28564480372, 788.7260065944204, -20433.026007774595, -23804.741955368754, -22450.002723932594, -25750.729531136698, -40472.99658930262, 0.058, 1.016, -0.032, 192.0, 0.5, 104.0, 15.5, 96.0, 127.5, 0.0, 0.0, 0.0, 0.0, 1.695756391877309E9, 0.0, 2023-09-26 14:26:31.877
244.0, -159334.52210837867, 29221.910741556974, -47986.91546760982, -38756.427318623944, 3068.402775335643, -13766.059430367879, -187500.02235174447, -639.483408866335, 7684.775612923577, -36649.37307231106, 796.6608758760543, -20443.19605150176, -23798.66228087691, -22443.610125018375, -25741.90059207685, -40462.558324641985, 0.058, 1.016, -0.032, 192.0, 0.0, 0.0, 0.0, 0.0, 0.0, 0.0, 0.0, 0.0, 0.0, 1.695756391877321E9, 0.0, 2023-09-26 14:26:31.877
246.0, -159347.68728586286, 29208.25382569478, -47998.8289474045, -38765.9491617619, 3057.0033856634363, -13770.954462403592, -187500.02235174447, -648.9829002598406, 7682.831011155965, -36640.81235418467, 794.8503845751744, -20439.3739031999, -23802.886760578964, -22448.840433220917, -25748.4273014578, -40466.24636247711, 0.058, 1.016, -0.032, 192.0, 0.0, 0.0, 0.0, 0.0, 0.0, 0.0, 0.0, 0.0, 0.0, 1.695756391877332E9, 0.0, 2023-09-26 14:26:31.877
248.0, -159324.21795418477, 29204.699898326387, -48010.40715103235, -38779.29315320172, 3044.754629701928, -13781.258616597488, -187500.02235174447, -645.3395659136255, 7670.403441238814, -36651.58589501213, 782.1098902356495, -20445.00654280264, -23817.95183634184, -22463.749046772606, -25764.364095254434, -40480.57383067296, 0.058, 1.016, -0.032, 192.0, 0.0, 0.0, 0.0, 0.0, 0.0, 0.0, 0.0, 0.0, 0.0, 1.695756391877341E9, 0.0, 2023-09-26 14:26:31.877
