%OpenBCI Raw EXG Data
%Number of channels = 16
%Sample Rate = 125 Hz
%Board = OpenBCI_GUI$BoardCytonSerialDaisy
Sample Index, EXG Channel 0, EXG Channel 1, EXG Channel 2, EXG Channel 3, EXG Channel 4, EXG Channel 5, EXG Channel 6, EXG Channel 7, EXG Channel 8, EXG Channel 9, EXG Channel 10, EXG Channel 11, EXG Channel 12, EXG Channel 13, EXG Channel 14, EXG Channel 15, Accel Channel 0, Accel Channel 1, Accel Channel 2, Other, Other, Other, Other, Other, Other, Other, Analog Channel 0, Analog Channel 1, Analog Channel 2, Timestamp, Other, Timestamp (Formatted)
208.0, -2217.62832613329, 2631.1803020453817, -81920.12690545642, -84160.21873476729, -29658.59677298031, -25118.91277061853, -187500.02235174447, -65665.35719220128, -6306.254125386969, -52487.729786363816, -81533.73229905752, -81723.45390599417, -52933.602384758284, -73090.13731362073, -85673.23066869148, -71141.31106630697, 0.0, 0.0, 0.0, 192.0, 0.0, 0.0, 0.0, 0.0, 0.0, 0.0, 0.0, 0.0, 0.0, 1.695407053594901E9, 0.0, 2023-09-22 13:24:13.594
210.0, -2256.8556376523543, 2613.9918105592506, -81924.41844039183, -84155.10018528702, -29653.25470605549, -25115.20238103895, -187500.02235174447, -65662.004430533, -6309.383369610712, -52475.0339955132, -81521.21532216255, -81708.72410639812, -52934.04941964739, -73084.68348797363, -85672.98479950248, -71141.40047328478, 0.0, 0.0, 0.0, 192.0, 0.0, 0.0, 0.0, 0.0, 0.0, 0.0, 0.0, 0.0, 0.0, 1.69540705359491E9, 0.0, 2023-09-22 13:24:13.594
212.0, -2230.34646872836, 2629.258052022225, -81929.76050731665, -84155.86014459851, -29656.49570900151, -25114.95651184994, -187500.02235174447, -65653.53311938443, -6310.456253344567, -52484.377024695525, -81526.35622338728, -81714.17793204522, -52937.62569876024, -73095.07704914536, -85680.40557866164, -71145.58024949793, 0.0, 0.0, 0.0, 192.0, 0.0, 0.0, 0.0, 0.0, 0.0, 0.0, 0.0, 0.0, 0.0, 1.695407053594914E9, 0.0, 2023-09-22 13:24:13.594
214.0, -2258.934349886698, 2607.04041803365, -81933.7838213186, -84160.82223186758, -29659.4014357807, -25121.863200886633, -187500.02235174447, -65657.8470060643, -6320.492186604999, -52487.28275147471, -81531.78769728991, -81717.57539720242, -52935.94931792609, -73094.20533111159, -85681.79138681786, -71145.98258089813, 0.08600000000000001, 0.465, 0.189, 192.0, 2.5, 48.0, 14.5, 8.0, 5.5, 104.0, 0.0, 0.0, 0.0, 1.695407053594917E9, 0.0, 2023-09-22 13:24:13.594
216.0, -2247.177332303206, 2625.033572320172, -81932.91210328485, -84162.61037142402, -29658.10503460229, -25126.02062535532, -187500.02235174447, -65662.87614856675, -6317.25118365898, -52497.60925741307, -81535.4980868695, -81725.73378392862, -52939.03385866092, -73101.67081375967, -85683.53482288538, -71148.17305185474, 0.08600000000000001, 0.465, 0.189, 192.0, 0.0, 0.0, 0.0, 0.0, 0.0, 0.0, 0.0, 0.0, 0.0, 1.69540705359492E9, 0.0, 2023-09-22 13:24:13.594
218.0, -2276.8157454509433, 2621.077313551583, -81923.79259154708, -84151.83683059656, -29646.23625829652, -25111.53669494828, -187500.02235174447, -65642.58076460133, -6310.0092184554605, -52478.45381241487, -81519.5389413284, -81707.3382982419, -52925.13107360972, -73084.39291529571, -85671.44252913506, -71136.72895869362, 0.08600000000000001, 0.465, 0.189, 192.0, 0.0, 0.0, 0.0, 0.0, 0.0, 0.0, 0.0, 0.0, 0.0, 1.695407053594924E9, 0.0, 2023-09-22 13:24:13.594
220.0, -2266.243370323583, 2623.670115908398, -81930.74398407269, -84157.93885683286, -29657.881517157737, -25114.95651184994, -187500.02235174447, -65649.26393619346, -6316.066541202848, -52495.99993181228, -81530.4912961115, -81722.11280132685, -52930.85312019028, -73098.78743872493, -85685.61353511972, -71144.75323495308, 0.08600000000000001, 0.465, 0.189, 192.0, 0.0, 0.0, 0.0, 0.0, 0.0, 0.0, 0.0, 0.0, 0.0, 1.695407053594927E9, 0.0, 2023-09-22 13:24:13.594
222.0, -2263.248236566572, 2619.490339695256, -81920.32807115652, -84150.85335384052, -29653.567630477864, -25115.44825022796, -187500.02235174447, -65651.76733157245, -6309.338666121801, -52489.02618754223, -81518.53311282792, -81712.23333027761, -52925.57810849883, -73088.28211883093, -85675.28702918137, -71140.59581048439, 0.08600000000000001, 0.465, 0.189, 192.0, 0.0, 0.0, 0.0, 0.0, 0.0, 0.0, 0.0, 0.0, 0.0, 1.695407053594931E9, 0.0, 2023-09-22 13:24:13.594
224.0, -2283.2083443651613, 2619.2444705062476, -81921.17743744582, -84155.45781319831, -29651.488918243518, -25120.410337497036, -187500.02235174447, -65660.68567761012, -6305.605924797765, -52495.083510289616, -81521.93057798513, -81717.35187975787, -52923.32058230884, -73095.00999391198, -85668.82737503378, -71143.07685411893, 0.131, 0.6985, 0.2855, 192.0, 2.5, 64.0, 14.5, 16.0, 5.5, 120.0, 0.0, 0.0, 0.0, 1.695407053594934E9, 0.0, 2023-09-22 13:24:13.594
0.0, -1251.2059511191787, 1249.1272388848352, -40822.801390028166, -42041.73142215388, -14798.575913736335, -12510.628999546649, -93750.01117587223, -32808.22578766654, -3148.8020001413825, -26248.838156323214, -40761.870534643, -40861.06757653566, -26464.42073159465, -36548.76787051772, -42837.63233871846, -35575.125882044544, 0.15250000000000002, 0.81325, 0.32775, 192.0, 2.5, 56.0, 14.5, 0.0, 5.5, 72.0, 0.0, 0.0, 0.0, 1.695407053736064E9, 0.0, 2023-09-22 13:24:13.736
2.0, -2484.955189818763, 2502.948344105285, -81660.8690215193, -84105.03227770714, -29615.301443970377, -25036.121909156074, -187500.02235174447, -65636.41168313166, -5912.259925873271, -52429.74936124675, -81493.54386252689, -81706.01954531904, -52853.82900879729, -73027.82065007933, -85609.12586559365, -71056.3744373768, 0.15250000000000002, 0.81325, 0.32775, 192.0, 0.0, 0.0, 0.0, 0.0, 0.0, 0.0, 0.0, 0.0, 0.0, 1.695407053736074E9, 0.0, 2023-09-22 13:24:13.736
4.0, -2442.039840464573, 2520.9414983918073, -81647.92736147968, -84089.65427752188, -29611.90397881317, -25024.878981695056, -187500.02235174447, -65622.4418428471, -5906.023789170241, -52425.14490188896, -81489.6323072472, -81702.62208016182, -52856.55592162084, -73027.17244949013, -85614.06560111829, -71062.23059442408, 0.15250000000000002, 0.81325, 0.32775, 192.0, 0.0, 0.0, 0.0, 0.0, 0.0, 0.0, 0.0, 0.0, 0.0, 1.695407053736077E9, 0.0, 2023-09-22 13:24:13.736
6.0, -2491.750120133176, 2506.9046028738744, -81652.42006211521, -84092.11296941197, -29615.927292815126, -25024.610760761592, -187500.02235174447, -65614.39521484319, -5908.191908382405, -52423.557928032635, -81482.92678391062, -81694.48604518009, -52855.55009312035, -73027.46302216804, -85607.8518161597, -71053.24519315305, 0.15250000000000002, 0.81325, 0.32775, 192.0, 0.0, 0.0, 0.0, 0.0, 0.0, 0.0, 0.0, 0.0, 0.0, 1.69540705373608E9, 0.0, 2023-09-22 13:24:13.736
8.0, -2459.228331950704, 2531.178597352338, -81637.28793111896, -84073.85159419199, -29601.599824619276, -25010.685623965936, -187500.02235174447, -65603.33110133781, -5894.110309375562, -52411.57739300459, -81471.25917330495, -81682.12553049631, -52852.46555238552, -73015.21426620655, -85600.16281606708, -71046.0702831829, 0.18, 0.932, 0.37, 192.0, 2.5, 80.0, 14.5, 16.0, 5.5, 72.0, 0.0, 0.0, 0.0, 1.695407053736083E9, 0.0, 2023-09-22 13:24:13.736
10.0, -2499.886155114908, 2507.0163615961505, -81649.44728010266, -84084.26750710816, -29608.886493311704, -25016.117097868577, -187500.02235174447, -65614.66343577665, -5903.855669958076, -52412.20324184933, -81471.70620819405, -81681.76790258502, -52852.1749797076, -73015.72835632901, -85596.29596427632, -71040.63880928025, 0.18, 0.932, 0.37, 192.0, 0.0, 0.0, 0.0, 0.0, 0.0, 0.0, 0.0, 0.0, 0.0, 1.695407053736086E9, 0.0, 2023-09-22 13:24:13.736
12.0, -2440.564625330523, 2529.16694035136, -81637.6679107747, -84065.6932074658, -29600.549292629876, -25006.796420430714, -187500.02235174447, -65609.03079617392, -5892.948018663886, -52414.393712805955, -81477.85293791926, -81681.92436479621, -52856.31005243183, -73012.75557431646, -85597.72647592146, -71039.47651856858, 0.18, 0.932, 0.37, 192.0, 0.0, 0.0, 0.0, 0.0, 0.0, 0.0, 0.0, 0.0, 0.0, 1.69540705373609E9, 0.0, 2023-09-22 13:24:13.736
14.0, -2492.3759689779245, 2503.9541726057737, -81644.1722684112, -84070.7447017127, -29602.42683916412, -25004.158914584987, -187500.02235174447, -65606.23682811699, -5903.207469368872, -52414.08078838358, -81480.13281585369, -81680.1809287287, -52858.61228211073, -73011.86150453825, -85595.71481892047, -71034.64854176623, 0.18, 0.932, 0.37, 192.0, 0.0, 0.0, 0.0, 0.0, 0.0, 0.0, 0.0, 0.0, 0.0, 1.695407053736093E9, 0.0, 2023-09-22 13:24:13.736
16.0, -2445.951395744252, 2533.749047964698, -81626.22381761359, -84056.61839921694, -29586.780618045406, -24988.579748699638, -187500.02235174447, -65589.60713024225, -5887.337730805604, -52403.82133767859, -81471.05800760485, -81671.91078328024, -52850.476247128994, -73003.36784164523, -85586.32708624925, -71025.57373351738, 0.18, 0.932, 0.37, 192.0, 0.0, 0.0, 0.0, 0.0, 0.0, 0.0, 0.0, 0.0, 0.0, 1.695407053796421E9, 0.0, 2023-09-22 13:24:13.796
18.0, -2488.1514892758714, 2501.6966464157877, -81647.72619577959, -84074.9468296703, -29600.4375339076, -25000.157952327485, -187500.02235174447, -65600.89476119218, -5896.792518710198, -52412.4714627828, -81471.21446981603, -81677.14109148277, -52850.81152329583, -73008.88872252569, -85581.27559200235, -71023.94205617215, 0.18, 0.936, 0.37, 192.0, 2.5, 80.0, 14.5, 32.0, 5.5, 72.0, 0.0, 0.0, 0.0, 1.695407053796432E9, 0.0, 2023-09-22 13:24:13.796
20.0, -2438.016526462618, 2529.681030473832, -81644.95457946713, -84069.11302436746, -29596.48127513901, -24998.03453660423, -187500.02235174447, -65603.37580482672, -5890.6681407294445, -52417.411198307425, -81476.71299895203, -81683.08665550788, -52853.85136054175, -73013.5378853724, -85588.91988860606, -71031.16166963121, 0.18, 0.936, 0.37, 192.0, 0.0, 0.0, 0.0, 0.0, 0.0, 0.0, 0.0, 0.0, 0.0, 1.695407053796435E9, 0.0, 2023-09-22 13:24:13.796
22.0, -2494.4770329567236, 2503.976524350229, -81647.56973356841, -84072.62224824695, -29597.017717005936, -24995.844065647612, -187500.02235174447, -65588.86952267522, -5903.83331821362, -52416.15950061793, -81475.03661811788, -81681.85730956284, -52851.43737214057, -73010.67686208211, -85587.198804283, -71029.99937891953, 0.18, 0.936, 0.37, 192.0, 0.0, 0.0, 0.0, 0.0, 0.0, 0.0, 0.0, 0.0, 0.0, 1.695407053796438E9, 0.0, 2023-09-22 13:24:13.796
24.0, -2447.3595556449363, 2528.1164083619606, -81646.29568413446, -84075.3938645594, -29598.1353042287, -25005.075336107653, -187500.02235174447, -65605.72273799453, -5893.104480875073, -52415.17602386189, -81471.7285599385, -81683.13135899679, -52844.620090081706, -73010.40864114865, -85588.89753686161, -71033.55330628793, 0.18, 0.936, 0.37, 192.0, 0.0, 0.0, 0.0, 0.0, 0.0, 0.0, 0.0, 0.0, 0.0, 1.695407053796441E9, 0.0, 2023-09-22 13:24:13.796
26.0, -2472.1252885014164, 2500.7355214042095, -81655.48225110558, -84085.29568735311, -29607.52303689993, -25020.67685373746, -187500.02235174447, -65617.30094162238, -5908.1025014045845, -52423.71439024382, -81479.28344956439, -81690.46273117814, -52852.107924474236, -73021.09277499828, -85595.89363287612, -71043.67864652618, 0.18, 0.936, 0.37, 192.0, 0.0, 0.0, 0.0, 0.0, 0.0, 0.0, 0.0, 0.0, 0.0, 1.695407053796445E9, 0.0, 2023-09-22 13:24:13.796
28.0, -2436.3848491173803, 2528.921071162352, -81640.01484394251, -84070.36472205695, -29601.488065897, -25018.262865336284, -187500.02235174447, -65621.86069749125, -5902.201640868383, -52425.90486120044, -81477.87528966372, -81691.9826498011, -52853.27021518591, -73020.37751917572, -85597.77117941037, -71045.9138209717, 0.18, 0.936, 0.366, 192.0, 2.5, 80.0, 14.5, 32.0, 5.5, 56.0, 0.0, 0.0, 0.0, 1.695407053796448E9, 0.0, 2023-09-22 13:24:13.796
30.0, -2471.4994396566676, 2509.6315156974215, -81646.9215329792, -84078.32194308305, -29602.650356608672, -25017.77112695827, -187500.02235174447, -65605.58862752779, -5904.123890891539, -52413.767863961206, -81463.8830976347, -81680.76207408453, -52847.50346511644, -73012.5320568719, -85589.54573745081, -71034.96146618862, 0.18, 0.936, 0.366, 192.0, 0.0, 0.0, 0.0, 0.0, 0.0, 0.0, 0.0, 0.0, 0.0, 1.695407053857306E9, 0.0, 2023-09-22 13:24:13.857
32.0, -2455.2273696932043, 2536.677126488343, -81641.4677073321, -84073.60572500298, -29601.130437985714, -25012.362004800085, -187500.02235174447, -65607.26500836194, -5897.552478021679, -52412.18089010488, -81459.65861793264, -81678.83982406138, -52840.93205224658, -73012.19678070507, -85593.2561270304, -71032.99451267654, 0.18, 0.936, 0.366, 192.0, 0.0, 0.0, 0.0, 0.0, 0.0, 0.0, 0.0, 0.0, 0.0, 1.695407053857318E9, 0.0, 2023-09-22 13:24:13.857
34.0, -2476.0144920366397, 2520.516815247156, -81646.16157366772, -84075.37151281495, -29604.86317930975, -25008.405746031494, -187500.02235174447, -65604.85101996077, -5898.73712047781, -52411.75620696023, -81460.61974294421, -81678.30338219446, -52850.23037793999, -73016.17539121812, -85600.20751955599, -71040.63880928025, 0.18, 0.936, 0.366, 192.0, 0.0, 0.0, 0.0, 0.0, 0.0, 0.0, 0.0, 0.0, 0.0, 1.695407053857321E9, 0.0, 2023-09-22 13:24:13.857
36.0, -2440.4975700971568, 2535.447780543301, -81658.54444009595, -84082.65818150737, -29612.127496257723, -25005.723536696856, -187500.02235174447, -65602.48173504851, -5894.199716353383, -52405.587125490565, -81462.85491738975, -81677.2304984606, -52849.425715139594, -73010.52039987092, -85595.58070845375, -71028.92649518567, 0.18, 0.936, 0.366, 192.0, 0.0, 0.0, 0.0, 0.0, 0.0, 0.0, 0.0, 0.0, 0.0, 1.695407053857324E9, 0.0, 2023-09-22 13:24:13.857
38.0, -2432.875625237897, 2517.231108812226, -81662.23247793109, -84082.92640244083, -29615.43555443711, -25003.600120973602, -187500.02235174447, -65607.01913917293, -5908.147204893495, -52415.2207273508, -81476.33301929629, -81685.59005088688, -52861.60741586774, -73016.15303947366, -85602.77797016836, -71033.88858245476, 0.182, 0.934, 0.358, 192.0, 2.5, 88.0, 14.5, 24.0, 5.5, 24.0, 0.0, 0.0, 0.0, 1.695407053857327E9, 0.0, 2023-09-22 13:24:13.857
40.0, -2416.469444807702, 2523.713114704265, -81660.98078024159, -84076.4443965488, -29619.10124052778, -25006.41644077497, -187500.02235174447, -65621.07838643531, -5912.192870639905, -52424.49670129975, -81484.93844091159, -81694.88837658029, -52864.64725311366, -73023.90909479966, -85612.27746156185, -71042.02461743649, 0.182, 0.934, 0.358, 192.0, 0.0, 0.0, 0.0, 0.0, 0.0, 0.0, 0.0, 0.0, 0.0, 1.69540705385733E9, 0.0, 2023-09-22 13:24:13.857
42.0, -2434.484950838679, 2524.5401292491115, -81634.20339038414, -84049.2870270356, -29593.82141754883, -24989.965556855866, -187500.02235174447, -65601.43120305911, -5900.458204800869, -52406.928230157886, -81466.78882441387, -81673.78832981447, -52850.45389538454, -73000.7303357995, -85594.79839739781, -71026.49015504005, 0.182, 0.934, 0.358, 192.0, 0.0, 0.0, 0.0, 0.0, 0.0, 0.0, 0.0, 0.0, 0.0, 1.695407053857334E9, 0.0, 2023-09-22 13:24:13.857
44.0, -2447.136038200383, 2527.647021728399, -81645.89335273426, -84059.72529169623, -29600.884568796704, -24991.306661523184, -187500.02235174447, -65592.64696748817, -5886.197791838383, -52398.12164284249, -81454.0259783299, -81664.53470760999, -52831.70078178654, -72986.31346062582, -85572.8936878316, -71009.23460832055, 0.182, 0.934, 0.358, 192.0, 0.0, 0.0, 0.0, 0.0, 0.0, 0.0, 0.0, 0.0, 0.0, 1.695407053857337E9, 0.0, 2023-09-22 13:24:13.857
46.0, -2412.8484622059423, 2522.841396670508, -81652.75533828203, -84066.63198073293, -29606.76307758845, -24998.593330215615, -187500.02235174447, -65601.94529318158, -5898.5359547777125, -52411.532689515676, -81470.8791936492, -81674.90591703725, -52847.905796516636, -73003.70311781205, -85587.3999699831, -71026.11017538431, 0.182, 0.934, 0.358, 192.0, 0.0, 0.0, 0.0, 0.0, 0.0, 0.0, 0.0, 0.0, 0.0, 1.695407053916955E9, 0.0, 2023-09-22 13:24:13.916
48.0, -2439.782314274587, 2521.2097193252707, -81647.16740216821, -84067.61545748895, -29602.180969975114, -24993.586539457625, -187500.02235174447, -65598.90545593566, -5903.5203937912465, -52419.53461403068, -81475.97539138501, -81678.32573393891, -52849.91745351761, -73015.30367318436, -85591.91502236307, -71031.40753882022, 0.186, 0.934, 0.368, 192.0, 2.5, 104.0, 14.5, 24.0, 5.5, 64.0, 0.0, 0.0, 0.0, 1.695407053916967E9, 0.0, 2023-09-22 13:24:13.916
50.0, -2428.1817589022826, 2534.777228209642, -81642.76410851051, -84065.35793129898, -29596.66008909465, -24990.770219656257, -187500.02235174447, -65588.75776395295, -5877.435908011903, -52402.05554986663, -81455.05415857484, -81659.03617847398, -52832.997182964944, -73002.36201314474, -85576.02293205535, -71021.95275091562, 0.186, 0.934, 0.368, 192.0, 0.0, 0.0, 0.0, 0.0, 0.0, 0.0, 0.0, 0.0, 0.0, 1.69540705391697E9, 0.0, 2023-09-22 13:24:13.916
52.0, -2451.069945224517, 2519.756855935676, -81654.38701562728, -84080.17713787284, -29609.04295552289, -25010.81973443267, -187500.02235174447, -65602.70525249306, -5892.657445985967, -52419.10993088603, -81468.19698431456, -81672.3801699138, -52846.0729534713, -73018.65643485266, -85589.36692349517, -71038.02365517899, 0.186, 0.934, 0.368, 192.0, 0.0, 0.0, 0.0, 0.0, 0.0, 0.0, 0.0, 0.0, 0.0, 1.695407053916974E9, 0.0, 2023-09-22 13:24:13.916
54.0, -2404.2206888461938, 2535.3136700765695, -81646.27333239, -84072.15286161339, -29604.974938032025, -25012.13848735553, -187500.02235174447, -65612.91999970913, -5888.052986628174, -52418.03704715217, -81466.00651335795, -81670.524975124, -52847.07878197179, -73018.92465578612, -85594.86545263117, -71046.7184837721, 0.186, 0.934, 0.368, 192.0, 0.0, 0.0, 0.0, 0.0, 0.0, 0.0, 0.0, 0.0, 0.0, 1.695407053916977E9, 0.0, 2023-09-22 13:24:13.916
56.0, -2457.261378438637, 2524.8754054159413, -81646.9215329792, -84071.10232962399, -29606.785429332907, -25006.9528826419, -187500.02235174447, -65603.35345308227, -5886.9130476609525, -52410.30334357063, -81456.64113243118, -81660.01965523, -52843.144874947655, -73011.54858011586, -85587.7575978944, -71034.73794874406, 0.186, 0.934, 0.368, 192.0, 0.0, 0.0, 0.0, 0.0, 0.0, 0.0, 0.0, 0.0, 0.0, 1.69540705391698E9, 0.0, 2023-09-22 13:24:13.916
58.0, -2405.0253516465846, 2545.2154928702707, -81646.13922192327, -84061.40167253038, -29603.455019409066, -25007.578731486647, -187500.02235174447, -65605.16394438314, -5875.245437055282, -52409.923363914895, -81458.8763068767, -81664.11002446534, -52847.905796516636, -73012.39794640517, -85594.3066590198, -71039.74473950204, 0.182, 0.9380000000000001, 0.368, 192.0, 2.5, 88.0, 14.5, 40.0, 5.5, 64.0, 0.0, 0.0, 0.0, 1.695407053916983E9, 0.0, 2023-09-22 13:24:13.916
60.0, -2474.0698902690283, 2526.2165100832594, -81645.66983528971, -84055.54551548309, -29597.464751895044, -24997.43103950394, -187500.02235174447, -65593.09400237727, -5885.549591249179, -52399.507450998724, -81451.20965852853, -81651.48128884808, -52843.18957843657, -72996.39409737517, -85583.08608330323, -71024.52320152798, 0.182, 0.9380000000000001, 0.368, 192.0, 0.0, 0.0, 0.0, 0.0, 0.0, 0.0, 0.0, 0.0, 0.0, 1.695407053977301E9, 0.0, 2023-09-22 13:24:13.977
62.0, -2419.7775029870872, 2547.204798126793, -81647.61443705732, -84054.36087302696, -29599.81168506285, -24999.956786627386, -187500.02235174447, -65597.43024080161, -5871.624454453523, -52397.22757306428, -81450.85203061724, -81650.05077720294, -52844.41892438161, -72993.53307408489, -85583.33195249224, -71022.39978580472, 0.182, 0.9380000000000001, 0.368, 192.0, 0.0, 0.0, 0.0, 0.0, 0.0, 0.0, 0.0, 0.0, 0.0, 1.695407053977312E9, 0.0, 2023-09-22 13:24:13.977
64.0, -2475.9250850588187, 2523.400190281891, -81653.35883538233, -84057.87009690644, -29601.219844963533, -25000.984966872333, -187500.02235174447, -65603.24169435998, -5886.108384860562, -52403.73193070077, -81455.79176614188, -81653.62705631579, -52845.49180811546, -72996.30469039734, -85581.63321991364, -71024.63496025026, 0.182, 0.9380000000000001, 0.368, 192.0, 0.0, 0.0, 0.0, 0.0, 0.0, 0.0, 0.0, 0.0, 0.0, 1.695407053977315E9, 0.0, 2023-09-22 13:24:13.977
66.0, -2392.9554096407187, 2546.2436731152147, -81659.21499242962, -84060.68641670782, -29608.61827237824, -25002.638995962025, -187500.02235174447, -65600.71594723653, -5873.457297498858, -52405.69888421284, -81462.96667611202, -81655.5716580834, -52852.51025587443, -73001.60205383325, -85587.06469381627, -71027.07130039588, 0.182, 0.9380000000000001, 0.368, 192.0, 0.0, 0.0, 0.0, 0.0, 0.0, 0.0, 0.0, 0.0, 0.0, 1.695407053977319E9, 0.0, 2023-09-22 13:24:13.977
68.0, -2444.1632561878273, 2511.7772831651314, -81657.29274240647, -84065.46969002124, -29601.24219670799, -25001.834333161634, -187500.02235174447, -65594.27864483341, -5894.490289031302, -52418.84170995256, -81474.27665880641, -81665.4287773882, -52858.43346815508, -73015.8848185402, -85588.62931592815, -71033.41919582119, 0.184, 0.9460000000000001, 0.37, 192.0, 2.5, 96.0, 14.5, 72.0, 5.5, 72.0, 0.0, 0.0, 0.0, 1.695407053977322E9, 0.0, 2023-09-22 13:24:13.977
70.0, -2383.1876973137496, 2535.2689665876587, -81654.36466388282, -84065.5367452546, -29598.917615284638, -25006.885827408532, -187500.02235174447, -65604.80631647186, -5875.848934155576, -52414.48311978378, -81469.1804610706, -81664.80292854345, -52850.69976457355, -73017.76236507445, -85583.33195249224, -71037.44250982314, 0.184, 0.9460000000000001, 0.37, 192.0, 0.0, 0.0, 0.0, 0.0, 0.0, 0.0, 0.0, 0.0, 0.0, 1.695407053977325E9, 0.0, 2023-09-22 13:24:13.977
72.0, -2450.7123173132322, 2517.432274512324, -81649.55903882493, -84062.20633533077, -29592.14503671468, -25002.974272128853, -187500.02235174447, -65604.38163332721, -5881.615684225045, -52402.48023301128, -81458.11634756523, -81646.56390506792, -52842.653136569636, -73008.44168763659, -85573.00544655389, -71032.52512604298, 0.184, 0.9460000000000001, 0.37, 192.0, 0.0, 0.0, 0.0, 0.0, 0.0, 0.0, 0.0, 0.0, 0.0, 1.695407053977328E9, 0.0, 2023-09-22 13:24:13.977
74.0, -2426.7065437682327, 2550.110524905983, -81632.68347176116, -84045.35312001147, -29581.14797844267, -24991.261958034273, -187500.02235174447, -65591.39526979867, -5869.568093963635, -52399.932134143375, -81455.00945508594, -81642.87586723278, -52835.54528183285, -73000.0821352103, -85575.44178669952, -71033.97798943258, 0.184, 0.9460000000000001, 0.37, 192.0, 0.0, 0.0, 0.0, 0.0, 0.0, 0.0, 0.0, 0.0, 0.0, 1.695407053977331E9, 0.0, 2023-09-22 13:24:13.977
76.0, -2476.7073961147544, 2521.8355681700195, -81642.83116374387, -84060.77582368563, -29591.496836125476, -24997.43103950394, -187500.02235174447, -65603.06288040434, -5865.634186939501, -52386.856363637016, -81441.08431829028, -81629.57657928189, -52820.79313049235, -72988.21335890453, -85564.28826621632, -71022.019806149, 0.184, 0.9460000000000001, 0.37, 192.0, 0.0, 0.0, 0.0, 0.0, 0.0, 0.0, 0.0, 0.0, 0.0, 1.695407054036731E9, 0.0, 2023-09-22 13:24:14.036
78.0, -2414.927174440286, 2539.1805218673376, -81652.42006211521, -84070.40942554586, -29607.724202600028, -25007.355214042094, -187500.02235174447, -65608.49435430698, -5874.753698677266, -52420.38398031998, -81460.7762051554, -81659.68437906318, -52842.40726738063, -73015.30367318436, -85587.44467347201, -71044.84093723785, 0.178, 0.9380000000000001, 0.37, 192.0, 2.5, 72.0, 14.5, 40.0, 5.5, 72.0, 0.0, 0.0, 0.0, 1.695407054036745E9, 0.0, 2023-09-22 13:24:14.036
80.0, -2451.204055691249, 2526.8870624169185, -81647.1226986793, -84063.1898120868, -29604.751420587472, -25003.778934929247, -187500.02235174447, -65600.06774664733, -5874.396070765981, -52410.90684067093, -81449.22035327202, -81650.56486732542, -52841.28968015787, -73011.8838562827, -85581.36499898016, -71041.39876859174, 0.178, 0.9380000000000001, 0.37, 192.0, 0.0, 0.0, 0.0, 0.0, 0.0, 0.0, 0.0, 0.0, 0.0, 1.695407054036748E9, 0.0, 2023-09-22 13:24:14.036
82.0, -2411.2838400940705, 2551.5633882955776, -81658.70090230714, -84065.20146908778, -29616.41903119314, -25008.47280126486, -187500.02235174447, -65615.64691253268, -5861.029727581707, -52410.90684067093, -81448.79567012737, -81650.67662604769, -52844.91066275963, -73008.46403938104, -85586.5059002049, -71044.05862618193, 0.178, 0.9380000000000001, 0.37, 192.0, 0.0, 0.0, 0.0, 0.0, 0.0, 0.0, 0.0, 0.0, 0.0, 1.695407054036751E9, 0.0, 2023-09-22 13:24:14.036
84.0, -2427.6229652909, 2536.6324229994325, -81662.94773375365, -84061.24521031919, -29617.24604573799, -25001.879036650545, -187500.02235174447, -65600.38067106971, -5866.170628806428, -52403.620171978495, -81448.72861489399, -81641.37830035428, -52849.11279071722, -73004.59718759028, -85584.38248448164, -71034.44737606613, 0.178, 0.9380000000000001, 0.37, 192.0, 0.0, 0.0, 0.0, 0.0, 0.0, 0.0, 0.0, 0.0, 0.0, 1.695407054036755E9, 0.0, 2023-09-22 13:24:14.036
86.0, -2416.603555274434, 2543.9861469252287, -81664.5794110989, -84059.36766378494, -29617.223693993536, -25000.359118027583, -187500.02235174447, -65601.81118271485, -5870.573922464124, -52411.30917207112, -81455.65765567514, -81648.08382369087, -52854.477209386496, -73010.25217893746, -85592.04913282981, -71034.15680338822, 0.178, 0.9380000000000001, 0.37, 192.0, 0.0, 0.0, 0.0, 0.0, 0.0, 0.0, 0.0, 0.0, 0.0, 1.695407054036758E9, 0.0, 2023-09-22 13:24:14.036
88.0, -2430.7075060257325, 2529.233995584726, -81660.4219866302, -84061.13345159692, -29609.86997006774, -25003.398955273504, -187500.02235174447, -65599.21838035803, -5869.813963152643, -52407.30820981362, -81447.7227863935, -81642.31707362141, -52848.06225872783, -73005.71477481304, -85584.47189145946, -71030.11113764181, 0.176, 0.934, 0.366, 192.0, 2.5, 64.0, 14.5, 24.0, 5.5, 56.0, 0.0, 0.0, 0.0, 1.695407054036761E9, 0.0, 2023-09-22 13:24:14.036
90.0, -2426.684192023777, 2530.2845275741256, -81660.64550407475, -84065.6932074658, -29602.493894397485, -25009.34451929862, -187500.02235174447, -65601.69942399257, -5870.909198630953, -52421.63567800947, -81454.65182717465, -81654.521126094, -52844.53068310388, -73017.67295809662, -85582.68375190304, -71039.18594589067, 0.176, 0.934, 0.366, 192.0, 0.0, 0.0, 0.0, 0.0, 0.0, 0.0, 0.0, 0.0, 0.0, 1.695407054097884E9, 0.0, 2023-09-22 13:24:14.097
92.0, -2405.6512004913334, 2522.461417014768, -81668.69213207866, -84074.27627733664, -29607.99242353349, -25016.56413275768, -187500.02235174447, -65611.69065376409, -5871.222123053328, -52422.23917510977, -81457.53520220939, -81655.79517552795, -52838.74158128996, -73016.0859842403, -85579.44274895701, -71042.38224534778, 0.176, 0.934, 0.366, 192.0, 0.0, 0.0, 0.0, 0.0, 0.0, 0.0, 0.0, 0.0, 0.0, 1.695407054097899E9, 0.0, 2023-09-22 13:24:14.097
94.0, -2404.5783167574787, 2523.9589838932734, -81676.76111182703, -84077.092597138, -29613.178028247123, -25015.71476646838, -187500.02235174447, -65609.29901710738, -5880.654559213467, -52432.83390198158, -81471.86267040523, -81667.75335881155, -52853.158456463636, -73029.40762393567, -85592.63027818565, -71055.41331236521, 0.176, 0.934, 0.366, 192.0, 0.0, 0.0, 0.0, 0.0, 0.0, 0.0, 0.0, 0.0, 0.0, 1.695407054097903E9, 0.0, 2023-09-22 13:24:14.097
96.0, -2386.719272937688, 2535.3360218210246, -81660.64550407475, -84057.42306201733, -29598.671746095628, -25004.717708196367, -187500.02235174447, -65598.59253151328, -5874.932512632909, -52418.39467506346, -81467.05704534735, -81653.98468422708, -52853.71725007502, -73017.91882728563, -85590.32804850675, -71048.08194018388, 0.176, 0.934, 0.366, 192.0, 0.0, 0.0, 0.0, 0.0, 0.0, 0.0, 0.0, 0.0, 0.0, 1.695407054097906E9, 0.0, 2023-09-22 13:24:14.097
98.0, -2441.950433486752, 2527.1552833503824, -81658.14210869577, -84057.46776550624, -29589.306365168857, -24999.75562092729, -187500.02235174447, -65595.79856345637, -5874.284312043705, -52405.25184932374, -81456.84229813126, -81642.60764629932, -52835.43352311057, -73002.1831991891, -85571.06084478628, -71034.84970746633, 0.188, 0.928, 0.368, 192.0, 2.5, 112.0, 14.5, 0.0, 5.5, 64.0, 0.0, 0.0, 0.0, 1.695407054097909E9, 0.0, 2023-09-22 13:24:14.097
100.0, -2411.529709283079, 2539.426391056346, -81662.05366397544, -84060.14997484088, -29590.28984192489, -25000.359118027583, -187500.02235174447, -65602.34762458177, -5859.77802989221, -52398.30045679813, -81453.78010914089, -81639.9254369647, -52832.14781667564, -72999.16571368763, -85568.02100754036, -71035.766128989, 0.188, 0.928, 0.368, 192.0, 0.0, 0.0, 0.0, 0.0, 0.0, 0.0, 0.0, 0.0, 0.0, 1.695407054097912E9, 0.0, 2023-09-22 13:24:14.097
102.0, -2451.9863667471845, 2522.707286203776, -81677.00698101605, -84077.71844598275, -29607.321871199834, -25009.880961165545, -187500.02235174447, -65620.09490967929, -5874.753698677266, -52410.191584848355, -81464.68776043509, -81652.8223935154, -52838.29454640085, -73010.14042021519, -85580.53798443533, -71045.62324829379, 0.188, 0.928, 0.368, 192.0, 0.0, 0.0, 0.0, 0.0, 0.0, 0.0, 0.0, 0.0, 0.0, 1.695407054097916E9, 0.0, 2023-09-22 13:24:14.097
104.0, -2383.344159524937, 2539.8734259454523, -81675.5764693709, -84072.06345463556, -29613.915635814148, -25008.495153009317, -187500.02235174447, -65612.54002005339, -5873.077317843118, -52419.69107624186, -81475.32719079581, -81665.89816402175, -52851.41502039612, -73021.76332733195, -85597.54766196581, -71053.96044897562, 0.188, 0.928, 0.368, 192.0, 0.0, 0.0, 0.0, 0.0, 0.0, 0.0, 0.0, 0.0, 0.0, 1.695407054097919E9, 0.0, 2023-09-22 13:24:14.097
106.0, -2452.075773725006, 2519.3321727910247, -81674.74945482606, -84071.03527439061, -29609.400583434177, -25007.04228961972, -187500.02235174447, -65612.42826133112, -5880.49809700228, -52413.79021570566, -81469.02399885941, -81659.773786041, -52845.04477322636, -73012.55440861636, -85589.12105430616, -71039.70003601314, 0.188, 0.928, 0.368, 192.0, 0.0, 0.0, 0.0, 0.0, 0.0, 0.0, 0.0, 0.0, 0.0, 1.695407054156655E9, 0.0, 2023-09-22 13:24:14.156
108.0, -2384.7746711700765, 2534.8889869319187, -81682.59491712987, -84071.41525404635, -29613.13332475821, -25016.027690890754, -187500.02235174447, -65619.0890811788, -5868.003471851764, -52422.97678267679, -81473.31553379483, -81667.23926868907, -52847.72698256099, -73020.66809185363, -85598.46408348848, -71051.05472219644, 0.18, 0.93, 0.368, 192.0, 2.5, 80.0, 14.5, 8.0, 5.5, 64.0, 0.0, 0.0, 0.0, 1.695407054156665E9, 0.0, 2023-09-22 13:24:14.156
110.0, -2444.140904443372, 2512.3807802654246, -81683.60074563036, -84068.15189935589, -29613.78152534742, -25011.155010599497, -187500.02235174447, -65606.30388335037, -5885.393129037992, -52423.4238175659, -81474.36606578423, -81663.10419596484, -52853.627843097194, -73018.23175170801, -85592.38440899663, -71046.13733841626, 0.18, 0.93, 0.368, 192.0, 0.0, 0.0, 0.0, 0.0, 0.0, 0.0, 0.0, 0.0, 0.0, 1.695407054156669E9, 0.0, 2023-09-22 13:24:14.156
112.0, -2370.4472029742246, 2543.7402777362204, -81683.93602179718, -84069.5377075121, -29620.040013794904, -25015.89358042402, -187500.02235174447, -65624.81112775936, -5868.204637551861, -52414.34900931705, -81467.63819070318, -81656.2198586726, -52851.191502951566, -73010.229827193, -85590.66332467357, -71048.12664367279, 0.18, 0.93, 0.368, 192.0, 0.0, 0.0, 0.0, 0.0, 0.0, 0.0, 0.0, 0.0, 0.0, 1.695407054156673E9, 0.0, 2023-09-22 13:24:14.156
114.0, -2422.1914913882606, 2518.192233823804, -81683.01960027452, -84068.35306505598, -29616.329624215323, -25013.501943767304, -187500.02235174447, -65606.95208393957, -5881.168649335939, -52417.5229570297, -81469.29221979287, -81655.5716580834, -52855.01365125342, -73017.18121971861, -85595.06661833127, -71059.9730682341, 0.18, 0.93, 0.368, 192.0, 0.0, 0.0, 0.0, 0.0, 0.0, 0.0, 0.0, 0.0, 0.0, 1.695407054156676E9, 0.0, 2023-09-22 13:24:14.156
116.0, -2371.1177553078837, 2554.26794937467, -81669.51914662351, -84047.92357062383, -29606.38309793271, -25006.729365197345, -187500.02235174447, -65595.97737741201, -5860.068602570129, -52405.56477374611, -81455.56824869731, -81641.19948639865, -52847.190540694064, -73005.62536783521, -85583.64487691461, -71048.6183820508, 0.18, 0.93, 0.368, 192.0, 0.0, 0.0, 0.0, 0.0, 0.0, 0.0, 0.0, 0.0, 0.0, 1.695407054156679E9, 0.0, 2023-09-22 13:24:14.156
118.0, -2426.5053780681346, 2530.619803740955, -81676.44818740466, -84047.83416364601, -29608.685327611605, -25000.13560058303, -187500.02235174447, -65592.3340430658, -5863.644881682978, -52400.93796264386, -81452.72957715149, -81631.23060837158, -52846.60939533823, -73001.60205383325, -85579.46510070148, -71041.68934126965, 0.182, 0.932, 0.368, 192.0, 2.5, 88.0, 14.5, 16.0, 5.5, 64.0, 0.0, 0.0, 0.0, 1.695407054156682E9, 0.0, 2023-09-22 13:24:14.156
120.0, -2374.8728483763753, 2559.565312810578, -81664.8252802879, -84037.84293387449, -29598.38117341771, -24990.144370811508, -187500.02235174447, -65587.0813831188, -5858.012242080241, -52398.41221552041, -81454.11538530773, -81627.20729436963, -52845.0224214819, -73000.55152184385, -85574.48066168794, -71033.70976849912, 0.182, 0.932, 0.368, 192.0, 0.0, 0.0, 0.0, 0.0, 0.0, 0.0, 0.0, 0.0, 0.0, 1.695407054217046E9, 0.0, 2023-09-22 13:24:14.217
122.0, -2434.6637647943217, 2527.579966495033, -81664.19943144315, -84044.01201534415, -29589.775751802415, -24992.692469679412, -187500.02235174447, -65586.8802174187, -5863.533122960702, -52396.646427708445, -81447.9239520936, -81621.19467511114, -52837.10990394472, -72995.54473108587, -85559.1473649916, -71019.80698344791, 0.182, 0.932, 0.368, 192.0, 0.0, 0.0, 0.0, 0.0, 0.0, 0.0, 0.0, 0.0, 0.0, 1.695407054217059E9, 0.0, 2023-09-22 13:24:14.217
124.0, -2374.582275698456, 2545.237844614726, -81681.11970199582, -84062.31809405304, -29602.136266486203, -25008.986891387332, -187500.02235174447, -65599.66541524713, -5859.465105469836, -52408.49285226975, -81457.73636790949, -81636.5726752964, -52844.329517403785, -73003.34548990078, -85566.56814415076, -71033.88858245476, 0.182, 0.932, 0.368, 192.0, 0.0, 0.0, 0.0, 0.0, 0.0, 0.0, 0.0, 0.0, 0.0, 1.695407054217063E9, 0.0, 2023-09-22 13:24:14.217
126.0, -2399.4150637883026, 2513.8112919105643, -81690.39567594478, -84068.4871755227, -29606.76307758845, -25010.506810010294, -187500.02235174447, -65603.06288040434, -5885.102556360073, -52423.11089314352, -81475.75187394046, -81654.20820167163, -52859.03696525538, -73018.8352488083, -85581.34264723571, -71047.88077448378, 0.182, 0.932, 0.368, 192.0, 0.0, 0.0, 0.0, 0.0, 0.0, 0.0, 0.0, 0.0, 0.0, 1.695407054217066E9, 0.0, 2023-09-22 13:24:14.217
128.0, -2358.5113714350905, 2535.760704965676, -81687.42289393222, -84061.6922452083, -29607.210112477558, -25010.864437921577, -187500.02235174447, -65605.18629612759, -5873.725518432322, -52421.83684370957, -81476.24361231847, -81657.71742555112, -52851.325613418296, -73012.06267023835, -85580.71679839096, -71044.46095758212, 0.184, 0.932, 0.37, 192.0, 2.5, 96.0, 14.5, 16.0, 5.5, 72.0, 0.0, 0.0, 0.0, 1.69540705421707E9, 0.0, 2023-09-22 13:24:14.217
130.0, -2405.0924068799504, 2518.147530334894, -81689.4792544221, -84061.04404461909, -29609.758211345463, -25009.478629765348, -187500.02235174447, -65609.85781071875, -5869.322224774626, -52414.23725059477, -81465.26890579092, -81647.50267833503, -52850.140970962166, -73006.4300306356, -85581.0520745578, -71044.013922693, 0.184, 0.932, 0.37, 192.0, 0.0, 0.0, 0.0, 0.0, 0.0, 0.0, 0.0, 0.0, 0.0, 1.695407054217073E9, 0.0, 2023-09-22 13:24:14.217
132.0, -2380.751357168121, 2539.1805218673376, -81695.55892891395, -84062.7427771977, -29617.33545271581, -25014.23955133433, -187500.02235174447, -65610.08132816332, -5863.108439816051, -52419.10993088603, -81468.7334261815, -81654.43171911618, -52850.02921223989, -73014.00727200595, -85594.84310088672, -71053.33460013087, 0.184, 0.932, 0.37, 192.0, 0.0, 0.0, 0.0, 0.0, 0.0, 0.0, 0.0, 0.0, 0.0, 1.695407054217076E9, 0.0, 2023-09-22 13:24:14.217
134.0, -2399.3480085549368, 2530.2845275741256, -81686.7299898541, -84048.6388264464, -29610.09348751229, -25002.214312817374, -187500.02235174447, -65598.19020011308, -5861.141486303984, -52401.250887066235, -81459.1221760657, -81637.75731775252, -52846.11765696021, -72997.19876017557, -85588.15992929459, -71043.47748082608, 0.184, 0.932, 0.37, 192.0, 0.0, 0.0, 0.0, 0.0, 0.0, 0.0, 0.0, 0.0, 0.0, 1.695407054217079E9, 0.0, 2023-09-22 13:24:14.217
136.0, -2388.7532816831213, 2537.5488445221004, -81691.96029805664, -84057.84774516198, -29614.295615469888, -25004.538894240726, -187500.02235174447, -65601.43120305911, -5853.854817611554, -52402.591991733556, -81459.6809696771, -81635.47743981809, -52844.08364821478, -72996.61761481973, -85581.700275147, -71036.74960574503, 0.184, 0.932, 0.37, 192.0, 0.0, 0.0, 0.0, 0.0, 0.0, 0.0, 0.0, 0.0, 0.0, 1.695407054278681E9, 0.0, 2023-09-22 13:24:14.278
138.0, -2379.3879007563473, 2530.172768851849, -81685.07596076441, -84050.96340786976, -29607.56774038884, -25006.394089030517, -187500.02235174447, -65599.44189780258, -5861.297948515171, -52410.839785437565, -81467.12410058071, -81640.99832069855, -52853.359622163734, -73010.14042021519, -85587.5564321943, -71049.82537625139, 0.182, 0.926, 0.37, 192.0, 2.5, 88.0, 14.0, 120.0, 5.5, 72.0, 0.0, 0.0, 0.0, 1.695407054278694E9, 0.0, 2023-09-22 13:24:14.278
140.0, -2396.7105027092102, 2538.1523416223936, -81682.52786189651, -84049.84582064698, -29607.500685155475, -24994.860588891577, -187500.02235174447, -65590.21062734255, -5855.151218789962, -52403.03902662266, -81461.1785365556, -81630.73886999355, -52844.73184880398, -72999.72450729902, -85576.4923186889, -71040.79527149144, 0.182, 0.926, 0.37, 192.0, 0.0, 0.0, 0.0, 0.0, 0.0, 0.0, 0.0, 0.0, 0.0, 1.695407054278698E9, 0.0, 2023-09-22 13:24:14.278
142.0, -2390.116738094895, 2539.672260245354, -81679.06334150593, -84049.26467529115, -29603.09739149778, -24995.173513313952, -187500.02235174447, -65584.35447029525, -5847.663384397434, -52392.377244517476, -81452.01432132893, -81619.07125938789, -52839.90387200164, -73007.72643181401, -85567.52926916233, -71035.87788771128, 0.182, 0.926, 0.37, 192.0, 0.0, 0.0, 0.0, 0.0, 0.0, 0.0, 0.0, 0.0, 0.0, 1.695407054278702E9, 0.0, 2023-09-22 13:24:14.278
144.0, -2402.0972731229394, 2527.915242661863, -81683.73485609709, -84059.52412599613, -29605.91371129915, -25004.360080285085, -187500.02235174447, -65591.55173200986, -5854.838294367587, -52410.70567497083, -81464.03955984587, -81634.1139834063, -52846.87761627169, -73010.54275161539, -85575.26297274388, -71045.48913782705, 0.182, 0.926, 0.37, 192.0, 0.0, 0.0, 0.0, 0.0, 0.0, 0.0, 0.0, 0.0, 0.0, 1.695407054278705E9, 0.0, 2023-09-22 13:24:14.278
146.0, -2359.0254615575627, 2531.558577008078, -81674.0341990035, -84068.17425110034, -29604.885531054206, -25019.067528136675, -187500.02235174447, -65602.83936295978, -5852.334898988593, -52417.388846562964, -81465.02303660191, -81640.26071313152, -52850.58800585127, -73031.62044663673, -85578.48162394544, -71051.43470185217, 0.182, 0.926, 0.37, 192.0, 0.0, 0.0, 0.0, 0.0, 0.0, 0.0, 0.0, 0.0, 0.0, 1.695407054278709E9, 0.0, 2023-09-22 13:24:14.278
148.0, -2387.5462874825344, 2521.388533280913, -81669.25092569005, -84057.57952422852, -29607.299519455377, -25006.371737286063, -187500.02235174447, -65602.0347001594, -5855.285329256693, -52414.7736924617, -81463.0337313454, -81640.90891372072, -52843.54720634785, -73019.52815288641, -85573.96657156547, -71046.22674539409, 0.186, 0.932, 0.372, 192.0, 2.5, 104.0, 14.5, 16.0, 5.5, 80.0, 0.0, 0.0, 0.0, 1.695407054278712E9, 0.0, 2023-09-22 13:24:14.278
150.0, -2349.1906939972278, 2540.8345509570304, -81656.04104471697, -84049.75641366917, -29597.57651061732, -25001.297891294707, -187500.02235174447, -65596.5808745123, -5842.142503516973, -52405.453015023835, -81454.65182717465, -81636.88559971876, -52841.28968015787, -73015.59424586227, -85578.12399603415, -71046.80789074993, 0.186, 0.932, 0.372, 192.0, 0.0, 0.0, 0.0, 0.0, 0.0, 0.0, 0.0, 0.0, 0.0, 1.695407054336493E9, 0.0, 2023-09-22 13:24:14.336
152.0, -2406.433511547269, 2528.876367673441, -81653.71646329362, -84044.6378641889, -29590.625118091717, -24986.23281553183, -187500.02235174447, -65583.5274557504, -5848.915082086931, -52402.45788126682, -81447.85689686023, -81633.48813456156, -52833.913604487614, -72991.72258278402, -85568.60215289619, -71029.84291670835, 0.186, 0.932, 0.372, 192.0, 0.0, 0.0, 0.0, 0.0, 0.0, 0.0, 0.0, 0.0, 0.0, 1.695407054336508E9, 0.0, 2023-09-22 13:24:14.336
154.0, -2380.0361013455513, 2553.5079900631895, -81638.98666369756, -84029.63984365939, -29578.935155741594, -24971.257146746775, -187500.02235174447, -65578.96769988153, -5830.609003378035, -52388.041006093146, -81435.54108566536, -81624.68154724617, -52817.26155486841, -72986.53697807038, -85558.20859172447, -71012.1626868442, 0.186, 0.932, 0.372, 192.0, 0.0, 0.0, 0.0, 0.0, 0.0, 0.0, 0.0, 0.0, 0.0, 1.695407054336512E9, 0.0, 2023-09-22 13:24:14.336
156.0, -2426.952412957241, 2531.0891903745164, -81657.13628019528, -84049.57759971352, -29597.397696661676, -24982.723591652346, -187500.02235174447, -65593.54103726638, -5837.1357127589845, -52391.37141601699, -81440.10084153424, -81632.25878861651, -52825.19642415005, -72987.40869610413, -85563.21538248246, -71009.34636704283, 0.186, 0.932, 0.372, 192.0, 0.0, 0.0, 0.0, 0.0, 0.0, 0.0, 0.0, 0.0, 0.0, 1.695407054336516E9, 0.0, 2023-09-22 13:24:14.336
158.0, -2355.9409208227303, 2552.4798098182455, -81654.87875400529, -84051.67866369232, -29599.878740296215, -24985.830484131635, -187500.02235174447, -65596.64792974567, -5841.740172116777, -52404.73775920126, -81453.8248126298, -81652.68828304867, -52840.19444467955, -73001.71381255554, -85580.4038739686, -71021.88569568226, 0.188, 0.93, 0.376, 192.0, 2.5, 112.0, 14.5, 8.0, 5.5, 96.0, 0.0, 0.0, 0.0, 1.69540705433652E9, 0.0, 2023-09-22 13:24:14.336
160.0, -2425.8348257344755, 2532.6985159752985, -81645.78159401198, -84050.9410561253, -29589.731048313508, -24975.66044040447, -187500.02235174447, -65582.83455167229, -5843.77418086221, -52389.3150555271, -81440.41376595662, -81641.08772767636, -52825.17407240559, -72991.07438219481, -85562.14249874861, -71002.68554719514, 0.188, 0.93, 0.376, 192.0, 0.0, 0.0, 0.0, 0.0, 0.0, 0.0, 0.0, 0.0, 0.0, 1.695407054336523E9, 0.0, 2023-09-22 13:24:14.336
162.0, -2357.4831911901465, 2550.3787458394463, -81642.98762595507, -84052.32686428152, -29598.604690862263, -24980.778989884733, -187500.02235174447, -65599.21838035803, -5841.874282583509, -52405.07303536809, -81454.58477194128, -81662.74656805355, -52835.03119171038, -73006.2288649355, -85580.38152222414, -71016.4095182907, 0.188, 0.93, 0.376, 192.0, 0.0, 0.0, 0.0, 0.0, 0.0, 0.0, 0.0, 0.0, 0.0, 1.695407054336527E9, 0.0, 2023-09-22 13:24:14.336
164.0, -2432.942680471263, 2529.2786990736367, -81634.94099795115, -84051.09751833648, -29594.134341971203, -24975.83925436011, -187500.02235174447, -65587.43901103009, -5845.338802974082, -52389.49386948274, -81439.00560605593, -81649.22376265809, -52825.2187758945, -72983.72065826901, -85566.81401333977, -71002.41732626168, 0.188, 0.93, 0.376, 192.0, 0.0, 0.0, 0.0, 0.0, 0.0, 0.0, 0.0, 0.0, 0.0, 1.69540705433653E9, 0.0, 2023-09-22 13:24:14.336
166.0, -2362.825258114965, 2556.681937775843, -81635.7233090071, -84055.54551548309, -29605.131400243212, -24989.876149878044, -187500.02235174447, -65608.20378162907, -5839.504997671247, -52400.066244610105, -81446.62755091519, -81660.08671046338, -52838.7192295455, -73000.10448695475, -85580.67209490205, -71015.80602119041, 0.188, 0.93, 0.376, 192.0, 0.0, 0.0, 0.0, 0.0, 0.0, 0.0, 0.0, 0.0, 0.0, 1.695407054396453E9, 0.0, 2023-09-22 13:24:14.396
168.0, -2418.7269709976877, 2532.810274697575, -81626.5143902915, -84052.68449219281, -29594.581376860308, -24976.196882271397, -187500.02235174447, -65577.02309811392, -5842.6565936394445, -52390.99143636125, -81442.17955376858, -81652.44241385967, -52832.34898237574, -72992.66135605113, -85573.47483318744, -71008.65346296472, 0.184, 0.924, 0.382, 192.0, 2.5, 96.0, 14.0, 112.0, 5.5, 120.0, 0.0, 0.0, 0.0, 1.695407054396463E9, 0.0, 2023-09-22 13:24:14.396
170.0, -2351.55997890949, 2557.17367615386, -81626.55909378041, -84057.91480039535, -29603.365612431244, -24984.243510275308, -187500.02235174447, -65590.99293839847, -5827.77033183221, -52392.08667183956, -81440.70433863453, -81655.68341680568, -52835.679392299586, -72995.32121364132, -85570.88203083063, -71003.28904429544, 0.184, 0.924, 0.382, 192.0, 0.0, 0.0, 0.0, 0.0, 0.0, 0.0, 0.0, 0.0, 0.0, 1.695407054396467E9, 0.0, 2023-09-22 13:24:14.396
172.0, -2413.854290706431, 2533.3467165645025, -81618.46776228759, -84047.32007352353, -29589.32871691331, -24978.365001483562, -187500.02235174447, -65584.55563599535, -5840.622584894012, -52390.70086368333, -81442.58188516878, -81654.18584992718, -52837.26636615591, -72996.03646946388, -85572.49135643142, -71009.39107053174, 0.184, 0.924, 0.382, 192.0, 0.0, 0.0, 0.0, 0.0, 0.0, 0.0, 0.0, 0.0, 0.0, 1.69540705439647E9, 0.0, 2023-09-22 13:24:14.396
174.0, -2403.0807498789727, 2554.0891354190276, -81625.62032051329, -84045.8895618784, -29590.066324480336, -24975.9957165713, -187500.02235174447, -65584.75680169545, -5820.3495526730485, -52382.00603509021, -81429.70728036252, -81645.8710009898, -52820.569613047795, -72981.5748908013, -85562.58953363771, -70996.58352095885, 0.184, 0.924, 0.382, 192.0, 0.0, 0.0, 0.0, 0.0, 0.0, 0.0, 0.0, 0.0, 0.0, 1.695407054396474E9, 0.0, 2023-09-22 13:24:14.396
176.0, -2430.7969130035535, 2525.1659780938603, -81642.0712044324, -84060.50760275217, -29596.794199561384, -24978.07442880564, -187500.02235174447, -65585.91909240713, -5833.648840623956, -52397.42873876438, -81438.58092291128, -81659.25969591853, -52831.83489225327, -72989.46505659402, -85572.96074306498, -71003.82548616237, 0.184, 0.924, 0.382, 192.0, 0.0, 0.0, 0.0, 0.0, 0.0, 0.0, 0.0, 0.0, 0.0, 1.695407054396477E9, 0.0, 2023-09-22 13:24:14.396
178.0, -2400.175023099783, 2540.611033512477, -81642.65234978823, -84056.79721317258, -29593.709658826552, -24972.687658391915, -187500.02235174447, -65577.96187138103, -5832.710067356833, -52408.29168656965, -81446.40403347064, -81668.53566986749, -52832.25957539792, -72995.76824853042, -85577.83342335623, -71009.81575367639, 0.188, 0.918, 0.378, 192.0, 2.5, 112.0, 14.0, 88.0, 5.5, 104.0, 0.0, 0.0, 0.0, 1.695407054396481E9, 0.0, 2023-09-22 13:24:14.396
180.0, -2427.95824145773, 2519.2204140687486, -81655.10227144984, -84065.51439351015, -29597.95649027306, -24990.27848127824, -187500.02235174447, -65595.06095588935, -5837.068657525619, -52406.704712713334, -81449.39916722765, -81665.38407389929, -52832.48309284247, -72993.84599850727, -85574.21244075448, -71011.53683799945, 0.188, 0.918, 0.378, 192.0, 0.0, 0.0, 0.0, 0.0, 0.0, 0.0, 0.0, 0.0, 0.0, 1.695407054456602E9, 0.0, 2023-09-22 13:24:14.456
182.0, -2390.6084764729117, 2523.4448937708016, -81674.79415831497, -84082.03233266262, -29613.58035964732, -25001.364946528072, -187500.02235174447, -65605.96860718353, -5841.270785483216, -52422.932079187885, -81465.96180986904, -81682.17023398522, -52844.41892438161, -73008.57579810331, -85589.72455140646, -71027.80890796291, 0.188, 0.918, 0.378, 192.0, 0.0, 0.0, 0.0, 0.0, 0.0, 0.0, 0.0, 0.0, 0.0, 1.695407054456616E9, 0.0, 2023-09-22 13:24:14.456
184.0, -2383.8582496474087, 2507.709265674265, -81673.69892283666, -84083.08286465202, -29613.915635814148, -25004.963577385377, -187500.02235174447, -65608.91903745163, -5858.593387436079, -52427.44713156785, -81474.20960357304, -81684.94185029768, -52852.77847680789, -73013.9402167726, -85597.61471719918, -71036.92841970068, 0.188, 0.918, 0.378, 192.0, 0.0, 0.0, 0.0, 0.0, 0.0, 0.0, 0.0, 0.0, 0.0, 1.695407054456619E9, 0.0, 2023-09-22 13:24:14.456
186.0, -2390.0720346059843, 2513.677181443832, -81665.33937041038, -84076.93613492681, -29607.590092133298, -25002.77310642876, -187500.02235174447, -65606.81797347283, -5855.195922278872, -52424.34023908857, -81471.25917330495, -81684.94185029768, -52844.754200548436, -73009.983958004, -85593.41258924158, -71034.17915513268, 0.188, 0.918, 0.378, 192.0, 0.0, 0.0, 0.0, 0.0, 0.0, 0.0, 0.0, 0.0, 0.0, 1.695407054456623E9, 0.0, 2023-09-22 13:24:14.456
188.0, -2396.5540404980234, 2515.040637855606, -81653.0235592155, -84069.60476274548, -29605.220807221034, -25003.71187969588, -187500.02235174447, -65609.16490664064, -5847.931605330898, -52412.69498022735, -81460.15035631065, -81671.75432106905, -52839.90387200164, -73001.3785363887, -85584.31542924826, -71027.02659690697, 0.19, 0.922, 0.378, 192.0, 2.5, 120.0, 14.0, 104.0, 5.5, 104.0, 0.0, 0.0, 0.0, 1.695407054456626E9, 0.0, 2023-09-22 13:24:14.456
190.0, -2391.4801945066683, 2522.819044926053, -81650.31899813641, -84071.23644009071, -29610.205246234567, -24997.65455694849, -187500.02235174447, -65608.82963047382, -5841.829579094599, -52415.645410495454, -81458.00458884294, -81675.39765541526, -52841.60260458024, -73017.02475750742, -85584.42718797055, -71030.58052427537, 0.19, 0.922, 0.378, 192.0, 0.0, 0.0, 0.0, 0.0, 0.0, 0.0, 0.0, 0.0, 0.0, 1.69540705445663E9, 0.0, 2023-09-22 13:24:14.456
192.0, -2385.311113037004, 2530.7315624632315, -81630.0683176599, -84050.91870438083, -29592.346202414778, -24975.28046074873, -187500.02235174447, -65590.32238606481, -5835.638145880479, -52410.59391624855, -81454.33890275228, -81667.68630357819, -52844.50833135943, -72992.05785895084, -85579.5992111682, -71021.6621782377, 0.19, 0.922, 0.378, 192.0, 0.0, 0.0, 0.0, 0.0, 0.0, 0.0, 0.0, 0.0, 0.0, 1.695407054456633E9, 0.0, 2023-09-22 13:24:14.456
194.0, -2406.0311801470734, 2523.8695769154524, -81639.05371893093, -84069.20243134529, -29597.844731550784, -24985.741077153813, -187500.02235174447, -65599.91128443615, -5834.989945291275, -52400.73679694376, -81448.59450442727, -81661.69603606415, -52840.5744243353, -72987.07341993731, -85570.63616164163, -71008.51935249798, 0.19, 0.922, 0.378, 192.0, 0.0, 0.0, 0.0, 0.0, 0.0, 0.0, 0.0, 0.0, 0.0, 1.695407054456637E9, 0.0, 2023-09-22 13:24:14.456
196.0, -2360.880656347353, 2526.0600478720726, -81630.515352549, -84067.9954371447, -29593.86612103774, -24986.813960887666, -187500.02235174447, -65600.06774664733, -5840.957861060841, -52418.305268085634, -81464.978333113, -81685.8806235648, -52855.25952044243, -73025.69723435608, -85591.7585601519, -71035.45320456663, 0.19, 0.922, 0.378, 192.0, 0.0, 0.0, 0.0, 0.0, 0.0, 0.0, 0.0, 0.0, 0.0, 1.695407054518448E9, 0.0, 2023-09-22 13:24:14.518
198.0, -2420.9844971876737, 2519.555690235578, -81627.72138449209, -84059.41236727386, -29586.221824434022, -24967.077370533632, -187500.02235174447, -65577.55953998084, -5831.704238856344, -52398.30045679813, -81441.44194620156, -81661.94190525316, -52833.019534709405, -72987.78867575988, -85568.15511800708, -71003.40080301772, 0.188, 0.93, 0.386, 192.0, 2.5, 112.0, 14.5, 8.0, 6.0, 8.0, 0.0, 0.0, 0.0, 1.695407054518458E9, 0.0, 2023-09-22 13:24:14.518
200.0, -2383.008883358107, 2530.2845275741256, -81632.45995431661, -84057.51246899516, -29595.408391405155, -24976.733324138324, -187500.02235174447, -65599.39719431367, -5819.075503239096, -52393.919514884896, -81440.05613804533, -81658.90206800724, -52836.707572544525, -72995.74589678597, -85574.27949598784, -71012.1626868442, 0.188, 0.93, 0.386, 192.0, 0.0, 0.0, 0.0, 0.0, 0.0, 0.0, 0.0, 0.0, 0.0, 1.695407054518462E9, 0.0, 2023-09-22 13:24:14.518
202.0, -2448.9912329901736, 2513.006629110173, -81631.78940198295, -84044.95078861127, -29588.85933027975, -24965.490396677305, -187500.02235174447, -65584.68974646209, -5830.050209766652, -52397.42873876438, -81441.55370492383, -81654.23055341608, -52835.1205986882, -72977.59628028826, -85573.87716458764, -71008.0052623755, 0.188, 0.93, 0.386, 192.0, 0.0, 0.0, 0.0, 0.0, 0.0, 0.0, 0.0, 0.0, 0.0, 1.69540705451847E9, 0.0, 2023-09-22 13:24:14.518
204.0, -2386.339293281948, 2525.1883298383154, -81646.54155332346, -84061.66989346384, -29599.14113272919, -24982.522425952247, -187500.02235174447, -65587.90839766365, -5820.550718373146, -52400.11094809901, -81443.96769332502, -81656.26456216152, -52835.1205986882, -72987.14047517067, -85574.57006866575, -71013.97317814508, 0.188, 0.93, 0.386, 192.0, 0.0, 0.0, 0.0, 0.0, 0.0, 0.0, 0.0, 0.0, 0.0, 1.695407054518475E9, 0.0, 2023-09-22 13:24:14.518
206.0, -2443.3138898985258, 2497.002780080173, -81652.84474525986, -84068.39776854489, -29595.766019316437, -24994.793533658212, -187500.02235174447, -65596.1338396232, -5837.828616837099, -52416.785349462676, -81457.06581557583, -81669.16151871224, -52842.54137784736, -73003.2337311785, -85575.17356576605, -71020.18696310365, 0.188, 0.93, 0.386, 192.0, 0.0, 0.0, 0.0, 0.0, 0.0, 0.0, 0.0, 0.0, 0.0, 1.695407054518478E9, 0.0, 2023-09-22 13:24:14.518
208.0, -2369.6201884293782, 2517.5440332346, -81660.77961454149, -84076.75732097117, -29605.75724908796, -25008.986891387332, -187500.02235174447, -65617.52445906693, -5834.63231737999, -52424.98843967777, -81466.20767905805, -81677.85634730535, -52846.564691849315, -73013.22496095001, -85583.57782168125, -71034.35796908832, 0.182, 0.93, 0.378, 192.0, 2.5, 88.0, 14.5, 8.0, 5.5, 104.0, 0.0, 0.0, 0.0, 1.695407054518481E9, 0.0, 2023-09-22 13:24:14.518
210.0, -2427.690020524266, 2499.4838237147123, -81645.35691086733, -84061.44637601929, -29589.66399308014, -24985.51755970926, -187500.02235174447, -65580.28645280439, -5848.266881497727, -52420.048704153145, -81465.35831276875, -81671.9778385136, -52843.61426158122, -73006.47473412451, -85574.39125471012, -71021.14808811522, 0.182, 0.93, 0.378, 192.0, 0.0, 0.0, 0.0, 0.0, 0.0, 0.0, 0.0, 0.0, 0.0, 1.695407054577285E9, 0.0, 2023-09-22 13:24:14.577
212.0, -2365.9097988497974, 2531.871501430452, -81633.89046596175, -84049.39878575788, -29589.015792490936, -24984.04234457521, -187500.02235174447, -65584.55563599535, -5834.140579001973, -52414.550175017146, -81460.66444643313, -81663.30536166494, -52842.18374993608, -73007.12293471371, -85572.53605992033, -71017.88473342475, 0.182, 0.93, 0.378, 192.0, 0.0, 0.0, 0.0, 0.0, 0.0, 0.0, 0.0, 0.0, 0.0, 1.695407054577296E9, 0.0, 2023-09-22 13:24:14.577
214.0, -2420.760979743121, 2503.618896438944, -81630.64946301574, -84042.24622753217, -29589.14990295767, -24977.202710771886, -187500.02235174447, -65586.14260985168, -5836.353401703049, -52407.77759644719, -81450.82967887279, -81651.30247489244, -52834.11477018771, -73008.57579810331, -85568.24452498491, -71011.1568583437, 0.182, 0.93, 0.378, 192.0, 0.0, 0.0, 0.0, 0.0, 0.0, 0.0, 0.0, 0.0, 0.0, 1.6954070545773E9, 0.0, 2023-09-22 13:24:14.577
216.0, -2390.206145072716, 2536.3418503215134, -81617.23841634254, -84034.49017220619, -29584.031353477403, -24973.089989792108, -187500.02235174447, -65588.04250813038, -5816.348590415549, -52394.90299164093, -81437.53039092188, -81641.44535558765, -52827.7221712735, -72973.30474535284, -85566.09875751719, -71005.59127397434, 0.182, 0.93, 0.378, 192.0, 0.0, 0.0, 0.0, 0.0, 0.0, 0.0, 0.0, 0.0, 0.0, 1.695407054577303E9, 0.0, 2023-09-22 13:24:14.577
218.0, -2432.3615351154253, 2503.976524350229, -81633.53283805047, -84058.78651842911, -29592.592071603787, -24981.203673029384, -187500.02235174447, -65585.00267088445, -5827.971497532309, -52398.255753309226, -81433.26120773092, -81646.04981494544, -52820.94959270354, -72986.64873679266, -85563.95299004948, -71004.71955594058, 0.17200000000000001, 0.934, 0.378, 192.0, 2.5, 48.0, 14.5, 24.0, 5.5, 104.0, 0.0, 0.0, 0.0, 1.695407054577317E9, 0.0, 2023-09-22 13:24:14.577
220.0, -2369.03904307354, 2527.0211728836507, -81642.7194050216, -84070.3423703125, -29603.186798475603, -24994.882940636035, -187500.02235174447, -65610.19308688559, -5831.100741756051, -52414.75134071724, -81446.98517882648, -81667.66395183372, -52841.58025283578, -73009.7827923039, -85582.37082748066, -71024.5679050169, 0.17200000000000001, 0.934, 0.378, 192.0, 0.0, 0.0, 0.0, 0.0, 0.0, 0.0, 0.0, 0.0, 0.0, 1.69540705457732E9, 0.0, 2023-09-22 13:24:14.577
222.0, -2418.9281366977857, 2507.463396485257, -81643.47936433308, -84069.22478308974, -29605.15375198767, -24992.536007468225, -187500.02235174447, -65610.55071479687, -5837.046305781163, -52412.20324184933, -81449.1756497831, -81667.88746927828, -52840.26149991292, -73008.79931554786, -85588.96459209497, -71035.43085282217, 0.17200000000000001, 0.934, 0.378, 192.0, 0.0, 0.0, 0.0, 0.0, 0.0, 0.0, 0.0, 0.0, 0.0, 1.695407054577324E9, 0.0, 2023-09-22 13:24:14.577
224.0, -2383.791194414043, 2532.564405508567, -81642.62999804378, -84063.61449523145, -29608.260644466955, -24995.19586505841, -187500.02235174447, -65607.48852580649, -5828.619698121513, -52406.05651212412, -81445.30879799233, -81664.66881807671, -52840.55207259084, -73005.44655387958, -85591.69150491852, -71035.36379758881, 0.17200000000000001, 0.934, 0.378, 192.0, 0.0, 0.0, 0.0, 0.0, 0.0, 0.0, 0.0, 0.0, 0.0, 1.695407054577327E9, 0.0, 2023-09-22 13:24:14.577
226.0, -2420.5821657874785, 2514.3477337774916, -81646.38509111227, -84060.59700972999, -29604.393792676186, -24996.738135425825, -187500.02235174447, -65608.67316826263, -5828.172663232406, -52395.305323041124, -81439.67615838959, -81653.80587027143, -52835.47822659949, -72994.27068165192, -85582.32612399175, -71024.54555327244, 0.17200000000000001, 0.934, 0.378, 192.0, 0.0, 0.0, 0.0, 0.0, 0.0, 0.0, 0.0, 0.0, 0.0, 1.695407054636701E9, 0.0, 2023-09-22 13:24:14.636
228.0, -2371.654197174811, 2527.714076961765, -81652.21889641511, -84061.15580334137, -29610.317004956843, -24998.83919940462, -187500.02235174447, -65619.1337846677, -5836.800436592154, -52415.24307909526, -81460.48563247749, -81672.24605944706, -52849.60452909524, -73008.50874286995, -85595.87128113167, -71034.53678304396, 0.17400000000000002, 0.926, 0.374, 192.0, 2.5, 56.0, 14.0, 120.0, 5.5, 88.0, 0.0, 0.0, 0.0, 1.695407054636711E9, 0.0, 2023-09-22 13:24:14.636
230.0, -2409.9203836822967, 2513.7665884216535, -81635.38803284026, -84047.05185259007, -29596.794199561384, -24979.92962359543, -187500.02235174447, -65603.97930192701, -5837.940375559375, -52400.87090741049, -81449.48857420548, -81657.42685287319, -52837.6686975561, -72994.31538514083, -85576.78289136683, -71019.87403868127, 0.17400000000000002, 0.926, 0.374, 192.0, 0.0, 0.0, 0.0, 0.0, 0.0, 0.0, 0.0, 0.0, 0.0, 1.695407054636714E9, 0.0, 2023-09-22 13:24:14.636
232.0, -2388.887392149853, 2527.267042072659, -81634.60572178432, -84050.82929740302, -29601.063382752345, -24973.13469328102, -187500.02235174447, -65595.731508223, -5833.045343523663, -52406.011808635216, -81453.84716437425, -81665.89816402175, -52838.16043593412, -72998.94219624308, -85572.8936878316, -71011.78270718845, 0.17400000000000002, 0.926, 0.374, 192.0, 0.0, 0.0, 0.0, 0.0, 0.0, 0.0, 0.0, 0.0, 0.0, 1.695407054636717E9, 0.0, 2023-09-22 13:24:14.636
234.0, -2393.0001131296294, 2516.0688181005503, -81626.24616935804, -84044.21318104425, -29591.206263447555, -24965.445693188394, -187500.02235174447, -65584.04154587288, -5834.922890057908, -52405.721235957295, -81455.74706265295, -81668.13333846729, -52840.23914816847, -72986.31346062582, -85567.52926916233, -71004.83131466285, 0.17400000000000002, 0.926, 0.374, 192.0, 0.0, 0.0, 0.0, 0.0, 0.0, 0.0, 0.0, 0.0, 0.0, 1.695407054636721E9, 0.0, 2023-09-22 13:24:14.636
236.0, -2397.112834109406, 2520.2709460581477, -81630.09066940435, -84052.57273347053, -29598.00119376197, -24978.454408461384, -187500.02235174447, -65595.95502566756, -5833.335916201582, -52409.498680770244, -81455.56824869731, -81672.06724549142, -52838.20513942304, -72995.54473108587, -85566.70225461748, -71004.29487279593, 0.17400000000000002, 0.926, 0.374, 192.0, 0.0, 0.0, 0.0, 0.0, 0.0, 0.0, 0.0, 0.0, 0.0, 1.695407054636724E9, 0.0, 2023-09-22 13:24:14.636
238.0, -2380.460784490202, 2520.494463502701, -81622.66989024519, -84047.29772177908, -29594.42491464912, -24984.914062608965, -187500.02235174447, -65589.80829594235, -5828.597346377057, -52404.536593501165, -81450.2708852614, -81666.59106809986, -52833.48892134296, -72995.20945491904, -85569.29505697431, -71008.2064280756, 0.178, 0.934, 0.372, 192.0, 2.5, 72.0, 14.5, 24.0, 5.5, 80.0, 0.0, 0.0, 0.0, 1.695407054636727E9, 0.0, 2023-09-22 13:24:14.636
240.0, -2392.195450329238, 2518.751027435187, -81628.52604729249, -84060.57465798553, -29600.90692054116, -25003.600120973602, -187500.02235174447, -65620.25137189048, -5838.096837770562, -52407.867003425, -81451.88021086219, -81668.66978033421, -52833.64538355415, -73002.74199280048, -85577.65460940059, -71019.94109391465, 0.178, 0.934, 0.372, 192.0, 0.0, 0.0, 0.0, 0.0, 0.0, 0.0, 0.0, 0.0, 0.0, 1.695407054696518E9, 0.0, 2023-09-22 13:24:14.696
242.0, -2375.8116216434983, 2522.2378995702147, -81632.63876827226, -84060.6417132189, -29596.078943738812, -24997.60985345958, -187500.02235174447, -65596.40206055666, -5832.82182607911, -52403.88839291196, -81450.60616142824, -81666.38990239977, -52835.00883996592, -73000.48446661049, -85583.93544959254, -71025.6631404952, 0.178, 0.934, 0.372, 192.0, 0.0, 0.0, 0.0, 0.0, 0.0, 0.0, 0.0, 0.0, 0.0, 1.695407054696531E9, 0.0, 2023-09-22 13:24:14.696
244.0, -2406.5452702695457, 2512.78311166562, -81652.12948943728, -84075.86325119296, -29607.05365026637, -25005.0529843632, -187500.02235174447, -65602.05705190386, -5831.748942345255, -52405.67653246839, -81451.38847248418, -81668.64742858976, -52837.98162197848, -73007.81583879184, -85588.67401941706, -71027.89831494073, 0.178, 0.934, 0.372, 192.0, 0.0, 0.0, 0.0, 0.0, 0.0, 0.0, 0.0, 0.0, 0.0, 1.695407054696535E9, 0.0, 2023-09-22 13:24:14.696
246.0, -2357.1479150233167, 2514.1912715663043, -81660.69020756368, -84081.58529777352, -29618.207170749567, -25013.99368214532, -187500.02235174447, -65618.12795616723, -5839.035611037685, -52413.67845698338, -81462.54199296737, -81677.6328298608, -52851.79500005186, -73011.92855977161, -85608.0082783709, -71050.54063207396, 0.178, 0.934, 0.372, 192.0, 0.0, 0.0, 0.0, 0.0, 0.0, 0.0, 0.0, 0.0, 0.0, 1.695407054696539E9, 0.0, 2023-09-22 13:24:14.696
248.0, -2397.38105504287, 2499.7967481370865, -81659.8184895299, -84076.66791399335, -29605.15375198767, -25000.157952327485, -187500.02235174447, -65606.54975253937, -5845.24939599626, -52417.120625629505, -81464.06191159034, -81676.55994612693, -52846.09530521576, -73014.25314119496, -85595.26778403137, -71039.02948367948, 0.178, 0.928, 0.366, 192.0, 2.5, 72.0, 14.5, 0.0, 5.5, 56.0, 0.0, 0.0, 0.0, 1.695407054696546E9, 0.0, 2023-09-22 13:24:14.696
250.0, -2348.9001213193087, 2518.8627861574637, -81659.08088196289, -84067.97308540024, -29604.259682209457, -24998.526274982247, -187500.02235174447, -65611.3330258528, -5832.017163278719, -52412.94084941636, -81458.60808594324, -81670.3238094239, -52841.2226249245, -73004.06074572334, -85585.2989060043, -71033.84387896584, 0.178, 0.928, 0.366, 192.0, 0.0, 0.0, 0.0, 0.0, 0.0, 0.0, 0.0, 0.0, 0.0, 1.69540705469655E9, 0.0, 2023-09-22 13:24:14.696
252.0, -2394.765900941599, 2495.5946201794886, -81662.00896048654, -84067.48134702223, -29604.170275231634, -24999.509751738282, -187500.02235174447, -65608.62846477372, -5852.089029799585, -52422.46269255432, -81467.36996976972, -81676.35878042685, -52849.73863956197, -73013.29201618339, -85586.52825194935, -71031.69811149813, 0.178, 0.928, 0.366, 192.0, 0.0, 0.0, 0.0, 0.0, 0.0, 0.0, 0.0, 0.0, 0.0, 1.695407054696553E9, 0.0, 2023-09-22 13:24:14.696
254.0, -2343.312185205482, 2516.78407392312, -81653.33648363788, -84056.84191666149, -29597.263586194946, -24996.46991449236, -187500.02235174447, -65603.26404610444, -5842.544834917168, -52418.729951230285, -81464.82187090181, -81671.50845188004, -52845.17888369309, -73012.97909176101, -85580.73915013543, -71028.88179169677, 0.178, 0.928, 0.366, 192.0, 0.0, 0.0, 0.0, 0.0, 0.0, 0.0, 0.0, 0.0, 0.0, 1.695407054696557E9, 0.0, 2023-09-22 13:24:14.696
0.0, -2404.1536336128274, 2494.879364356919, -81643.41230909972, -84048.37060551293, -29594.536673371396, -24987.886844621524, -187500.02235174447, -65592.736374466, -5850.591462921079, -52417.5229570297, -81459.30099002135, -81665.24996343255, -52841.78141853588, -73003.65841432314, -85570.25618198588, -71015.89542816824, 0.178, 0.928, 0.366, 192.0, 0.0, 0.0, 0.0, 0.0, 0.0, 0.0, 0.0, 0.0, 0.0, 1.695407054758093E9, 0.0, 2023-09-22 13:24:14.758
2.0, -2348.922473063764, 2521.522643747645, -81642.16061141022, -84045.66604443385, -29598.112952484247, -24994.90529238049, -187500.02235174447, -65604.24752286047, -5831.637183622978, -52413.03025639418, -81453.1766120406, -81661.29370466396, -52832.371334120195, -72996.03646946388, -85567.79749009579, -71013.92847465616, 0.182, 0.93, 0.37, 192.0, 2.5, 88.0, 14.5, 8.0, 5.5, 72.0, 0.0, 0.0, 0.0, 1.695407054758104E9, 0.0, 2023-09-22 13:24:14.758
4.0, -2402.633714989867, 2494.9017161013744, -81640.35012010935, -84049.26467529115, -29596.32481292782, -24996.872245892555, -187500.02235174447, -65605.47686880552, -5842.924814572909, -52416.204204106834, -81458.31751326531, -81663.84180353186, -52837.333421389274, -72999.43393462109, -85570.01031279688, -71015.1131171123, 0.182, 0.93, 0.37, 192.0, 0.0, 0.0, 0.0, 0.0, 0.0, 0.0, 0.0, 0.0, 0.0, 1.695407054758107E9, 0.0, 2023-09-22 13:24:14.758
6.0, -2339.1324089923396, 2527.3788007949356, -81633.4657828171, -84045.86721013395, -29599.476408896022, -25001.744926183812, -187500.02235174447, -65618.8879154787, -5830.407837677937, -52415.734817473276, -81455.9705800975, -81663.73004480959, -52834.80767426582, -73002.76434454494, -85572.20078375349, -71021.0139776485, 0.182, 0.93, 0.37, 192.0, 0.0, 0.0, 0.0, 0.0, 0.0, 0.0, 0.0, 0.0, 0.0, 1.695407054758111E9, 0.0, 2023-09-22 13:24:14.758
8.0, -2385.400520014825, 2507.9104313743633, -81634.94099795115, -84046.22483804522, -29600.01285076295, -24995.41938250296, -187500.02235174447, -65600.31361583633, -5839.884977326987, -52409.27516332569, -81447.70043464904, -81655.25873366103, -52836.88638650017, -73006.67589982461, -85575.75471112189, -71021.43866079315, 0.182, 0.93, 0.37, 192.0, 0.0, 0.0, 0.0, 0.0, 0.0, 0.0, 0.0, 0.0, 0.0, 1.695407054758114E9, 0.0, 2023-09-22 13:24:14.758
10.0, -2348.9448248082194, 2538.3758590669468, -81633.15285839474, -84037.30649200756, -29589.127551213212, -24985.0481730757, -187500.02235174447, -65599.9336361806, -5813.554622358635, -52394.52301198519, -81431.45071643004, -81638.62903578627, -52826.582232306275, -72985.82172224781, -85572.15608026458, -71012.63207347775, 0.182, 0.93, 0.37, 192.0, 0.0, 0.0, 0.0, 0.0, 0.0, 0.0, 0.0, 0.0, 0.0, 1.695407054758117E9, 0.0, 2023-09-22 13:24:14.758
12.0, -2399.884450421864, 2505.518794717645, -81660.1761174412, -84056.66310270586, -29599.632871107206, -24990.47964697834, -187500.02235174447, -65601.36414782573, -5826.004544020241, -52398.3675120315, -81438.69268163356, -81642.58529455487, -52833.421866109595, -72995.92471074162, -85576.31350473328, -71016.87890492426, 0.178, 0.928, 0.368, 192.0, 2.5, 72.0, 14.5, 0.0, 5.5, 64.0, 0.0, 0.0, 0.0, 1.695407054758121E9, 0.0, 2023-09-22 13:24:14.758
14.0, -2345.5473596510124, 2526.551786250089, -81666.88164077779, -84060.21703007424, -29603.209150220056, -24994.9499958694, -187500.02235174447, -65607.22030487303, -5828.306773699138, -52415.06426513961, -81461.35735051124, -81661.38311164179, -52845.6259185822, -73009.24635043697, -85592.71968516347, -71032.14514638724, 0.178, 0.928, 0.368, 192.0, 0.0, 0.0, 0.0, 0.0, 0.0, 0.0, 0.0, 0.0, 0.0, 1.695407054817126E9, 0.0, 2023-09-22 13:24:14.817
16.0, -2376.6162844438895, 2504.6023731949776, -81667.66395183372, -84065.78261444363, -29607.56774038884, -24993.18420805743, -187500.02235174447, -65607.19795312858, -5828.262070210228, -52405.654180723934, -81457.80342314285, -81653.0235592155, -52840.32855514629, -73002.49612361148, -85578.36986522315, -71022.04215789345, 0.178, 0.928, 0.368, 192.0, 0.0, 0.0, 0.0, 0.0, 0.0, 0.0, 0.0, 0.0, 0.0, 1.69540705481714E9, 0.0, 2023-09-22 13:24:14.817
18.0, -2327.017763497563, 2525.88123391643, -81658.58914358488, -84057.62422771743, -29605.734897343507, -24985.56226319817, -187500.02235174447, -65599.0842698913, -5829.402009177448, -52415.55600351763, -81463.6819319346, -81660.19846918565, -52843.07781971429, -73008.88872252569, -85579.46510070148, -71024.65731199471, 0.178, 0.928, 0.368, 192.0, 0.0, 0.0, 0.0, 0.0, 0.0, 0.0, 0.0, 0.0, 0.0, 1.695407054817144E9, 0.0, 2023-09-22 13:24:14.817
20.0, -2350.3529847089035, 2501.0484458265837, -81648.10617543533, -84048.14708806838, -29599.81168506285, -24985.897539365, -187500.02235174447, -65593.47398203301, -5839.147369759961, -52411.04095113766, -81460.01624584392, -81653.93998073817, -52837.623994067195, -73002.4290683781, -85567.39515869561, -71015.62720723476, 0.178, 0.928, 0.368, 192.0, 0.0, 0.0, 0.0, 0.0, 0.0, 0.0, 0.0, 0.0, 0.0, 1.695407054817147E9, 0.0, 2023-09-22 13:24:14.817
22.0, -2336.696068846711, 2513.0289808546286, -81645.24515214506, -84046.64952118987, -29598.51528388444, -24994.055926091187, -187500.02235174447, -65608.986092685, -5833.246509223761, -52416.60653550703, -81459.97154235501, -81659.48321336308, -52833.66773529861, -73007.4358591361, -85561.42724292603, -71013.43673627815, 0.188, 0.924, 0.372, 192.0, 2.5, 112.0, 14.0, 112.0, 5.5, 80.0, 0.0, 0.0, 0.0, 1.69540705481715E9, 0.0, 2023-09-22 13:24:14.817
24.0, -2360.6571389028, 2502.657771427366, -81643.14408816626, -84040.99452984269, -29591.3850774032, -24992.536007468225, -187500.02235174447, -65602.34762458177, -5835.481683669292, -52415.868927940006, -81461.04442608886, -81658.00799822903, -52834.85237775474, -72995.07534445231, -85560.80139408128, -71015.9624834016, 0.188, 0.924, 0.372, 192.0, 0.0, 0.0, 0.0, 0.0, 0.0, 0.0, 0.0, 0.0, 0.0, 1.695407054817153E9, 0.0, 2023-09-22 13:24:14.817
26.0, -2342.976909038652, 2513.4089605103686, -81648.70967253562, -84046.7389281677, -29593.86612103774, -24994.301795280197, -187500.02235174447, -65602.34762458177, -5832.4418464233695, -52418.864061697015, -81464.3748360127, -81661.74073955308, -52835.90290974414, -73007.90524576965, -85563.52830690483, -71018.80115494742, 0.188, 0.924, 0.372, 192.0, 0.0, 0.0, 0.0, 0.0, 0.0, 0.0, 0.0, 0.0, 0.0, 1.695407054817157E9, 0.0, 2023-09-22 13:24:14.817
28.0, -2349.9730050531634, 2508.6703906858434, -81643.83699224437, -84039.60872168645, -29588.836978535295, -24976.442751460407, -187500.02235174447, -65586.41083078514, -5826.96566903182, -52409.632791236974, -81453.8248126298, -81649.04494870246, -52831.27609864189, -73000.50681835494, -85557.51568764636, -71014.44256477864, 0.188, 0.924, 0.372, 192.0, 0.0, 0.0, 0.0, 0.0, 0.0, 0.0, 0.0, 0.0, 0.0, 1.69540705481716E9, 0.0, 2023-09-22 13:24:14.817
30.0, -2353.5939876549232, 2511.553765720578, -81658.67855056269, -84055.05377710507, -29599.543464129387, -24990.971385356355, -187500.02235174447, -65601.1853338701, -5826.6303928649895, -52415.19837560635, -81454.94239985257, -81652.64357955976, -52830.22556665249, -72997.10935319774, -85563.17067899356, -71018.48823052505, 0.188, 0.924, 0.372, 192.0, 0.0, 0.0, 0.0, 0.0, 0.0, 0.0, 0.0, 0.0, 0.0, 1.695407054871222E9, 0.0, 2023-09-22 13:24:14.871
32.0, -2345.279138717549, 2512.1125593319607, -81656.77865228399, -84052.75154742617, -29596.414219905644, -24996.80519065919, -187500.02235174447, -65611.31067410835, -5827.077427754096, -52409.9680674038, -81458.00458884294, -81653.13531793778, -52835.72409578849, -73003.9266352566, -85571.91021107558, -71031.56400103141, 0.188, 0.924, 0.37, 192.0, 2.5, 112.0, 14.0, 112.0, 5.5, 72.0, 0.0, 0.0, 0.0, 1.695407054871231E9, 0.0, 2023-09-22 13:24:14.871
34.0, -2364.479287204658, 2512.1125593319607, -81661.04783547495, -84053.28798929311, -29604.19262697609, -24983.908234108476, -187500.02235174447, -65597.00555765696, -5823.992887019263, -52414.14784361695, -81452.9754463405, -81650.36370162532, -52827.74452301795, -73005.40185039066, -85573.20661225398, -71025.6631404952, 0.188, 0.924, 0.37, 192.0, 0.0, 0.0, 0.0, 0.0, 0.0, 0.0, 0.0, 0.0, 0.0, 1.695407054871234E9, 0.0, 2023-09-22 13:24:14.871
36.0, -2325.766065808066, 2520.3827047804243, -81660.55609709694, -84049.13056482442, -29601.085734496803, -24980.51076895127, -187500.02235174447, -65592.69167097707, -5819.321372428104, -52410.30334357063, -81451.3214172508, -81645.96040796762, -52832.036057953366, -72994.87417875222, -85573.47483318744, -71019.47170728109, 0.188, 0.924, 0.37, 192.0, 0.0, 0.0, 0.0, 0.0, 0.0, 0.0, 0.0, 0.0, 0.0, 1.695407054871238E9, 0.0, 2023-09-22 13:24:14.871
38.0, -2337.3219176914595, 2508.759797663665, -81675.5764693709, -84064.57562024303, -29612.28395846891, -24998.213350559876, -187500.02235174447, -65606.63915951719, -5829.960802788831, -52418.931116930384, -81459.30099002135, -81653.91762899372, -52837.914566745116, -73001.19972243306, -85577.56520242277, -71024.09851838333, 0.188, 0.924, 0.37, 192.0, 0.0, 0.0, 0.0, 0.0, 0.0, 0.0, 0.0, 0.0, 0.0, 1.695407054871241E9, 0.0, 2023-09-22 13:24:14.871
40.0, -2294.205402637172, 2523.646059470899, -81666.65812333324, -84054.49498349369, -29601.108086241256, -24997.073411592653, -187500.02235174447, -65604.24752286047, -5826.406875420436, -52414.48311978378, -81463.77133891241, -81652.8223935154, -52840.97675573549, -73009.71573707054, -85580.4038739686, -71030.93815218666, 0.188, 0.924, 0.37, 192.0, 0.0, 0.0, 0.0, 0.0, 0.0, 0.0, 0.0, 0.0, 0.0, 1.695407054920682E9, 0.0, 2023-09-22 13:24:14.920
42.0, -2355.985624311641, 2504.1553383058713, -81662.70186456465, -84052.21510555925, -29592.61442334824, -24985.76342889827, -187500.02235174447, -65590.65766223165, -5829.849044066554, -52404.15661384542, -81459.1221760657, -81646.20627715663, -52835.29941264384, -72997.75755378694, -85563.17067899356, -71019.3599485588, 0.184, 0.924, 0.37, 192.0, 2.5, 96.0, 14.0, 112.0, 5.5, 72.0, 0.0, 0.0, 0.0, 1.695407054920691E9, 0.0, 2023-09-22 13:24:14.920
44.0, -2316.3783331368368, 2520.8297396695307, -81656.6221900728, -84050.04698634708, -29588.0323157349, -24989.116190566565, -187500.02235174447, -65589.29420581987, -5816.147424715451, -52401.116776599505, -81456.93170510909, -81645.08868993387, -52833.60068006524, -73003.52430385641, -85555.43697541201, -71017.25888458, 0.184, 0.924, 0.37, 192.0, 0.0, 0.0, 0.0, 0.0, 0.0, 0.0, 0.0, 0.0, 0.0, 1.695407054920694E9, 0.0, 2023-09-22 13:24:14.920
46.0, -2346.3967259403144, 2495.1252335459276, -81670.30145767945, -84058.11596609544, -29602.829170564317, -24986.76925739876, -187500.02235174447, -65596.42441230112, -5838.812093593132, -52412.31500057161, -81471.59444947177, -81658.54444009595, -52839.859168512725, -72996.63996656418, -85561.13667024812, -71022.9138759272, 0.184, 0.924, 0.37, 192.0, 0.0, 0.0, 0.0, 0.0, 0.0, 0.0, 0.0, 0.0, 0.0, 1.695407054920697E9, 0.0, 2023-09-22 13:24:14.920
48.0, -2287.7904519784993, 2516.493501245201, -81665.16055645474, -84050.67283519183, -29605.734897343507, -24991.105495823085, -187500.02235174447, -65605.18629612759, -5825.959840531331, -52420.18281461988, -81470.45451050455, -81657.6727220622, -52842.13904644717, -72995.79060027488, -85562.7459958489, -71027.25011435153, 0.184, 0.924, 0.37, 192.0, 0.0, 0.0, 0.0, 0.0, 0.0, 0.0, 0.0, 0.0, 0.0, 1.6954070549207E9, 0.0, 2023-09-22 13:24:14.920
50.0, -2332.851568800398, 2494.812309123553, -81674.25771644805, -84054.20441081577, -29612.172199746634, -24998.325109282152, -187500.02235174447, -65608.40494732917, -5836.800436592154, -52420.85336695354, -81472.73438843898, -81656.28691390598, -52847.50346511644, -73001.89262651118, -85569.60798139668, -71032.21220162061, 0.184, 0.924, 0.37, 192.0, 0.0, 0.0, 0.0, 0.0, 0.0, 0.0, 0.0, 0.0, 0.0, 1.695407054920704E9, 0.0, 2023-09-22 13:24:14.920
52.0, -2273.4853355271025, 2524.987164138218, -81668.24509718956, -84044.86138163345, -29612.32866195782, -24998.168647070965, -187500.02235174447, -65614.6857875211, -5824.618735864012, -52417.63471575198, -81467.21350755852, -81651.12366093679, -52841.64730806915, -73002.69728931157, -85577.0958157892, -71036.6154952783, 0.184, 0.918, 0.372, 192.0, 2.5, 96.0, 14.0, 88.0, 5.5, 80.0, 0.0, 0.0, 0.0, 1.695407054920708E9, 0.0, 2023-09-22 13:24:14.920
54.0, -2337.6124903693785, 2500.6684661708437, -81669.04975998995, -84046.38130025641, -29608.01477527795, -24995.598196458603, -187500.02235174447, -65609.94721769658, -5828.083256254585, -52410.23628833727, -81459.43510048809, -81639.50075382004, -52839.859168512725, -72997.84696076477, -85573.18426050953, -71030.60287601982, 0.184, 0.918, 0.372, 192.0, 0.0, 0.0, 0.0, 0.0, 0.0, 0.0, 0.0, 0.0, 0.0, 1.695407054975126E9, 0.0, 2023-09-22 13:24:14.975
56.0, -2275.541696016991, 2529.0328298846284, -81664.15472795424, -84045.10725082246, -29599.94579552958, -24993.18420805743, -187500.02235174447, -65598.57017976882, -5812.682904324878, -52412.024427893695, -81457.35638825374, -81640.93126546517, -52840.75323829094, -73001.06561196633, -85572.15608026458, -71029.64175100825, 0.184, 0.918, 0.372, 192.0, 0.0, 0.0, 0.0, 0.0, 0.0, 0.0, 0.0, 0.0, 0.0, 1.695407054975139E9, 0.0, 2023-09-22 13:24:14.975
58.0, -2355.6503481448112, 2505.362332506458, -81659.86319301883, -84042.00035834317, -29589.75340005796, -24989.630280689038, -187500.02235174447, -65592.62461574371, -5812.168814202406, -52404.73775920126, -81447.25339975994, -81628.43664031466, -52825.68816252806, -72987.96748971552, -85554.07351900025, -71015.80602119041, 0.184, 0.918, 0.372, 192.0, 0.0, 0.0, 0.0, 0.0, 0.0, 0.0, 0.0, 0.0, 0.0, 1.695407054975142E9, 0.0, 2023-09-22 13:24:14.975
60.0, -2300.7991672514877, 2534.911338676374, -81662.99243724256, -84040.1898670423, -29591.47448438102, -24986.36692599856, -187500.02235174447, -65587.1260866077, -5799.428319862881, -52407.28585806917, -81446.82871661529, -81631.63293977176, -52827.25278463993, -72991.36495487273, -85559.05795801377, -71021.23749509305, 0.184, 0.918, 0.372, 192.0, 0.0, 0.0, 0.0, 0.0, 0.0, 0.0, 0.0, 0.0, 0.0, 1.695407054975146E9, 0.0, 2023-09-22 13:24:14.975
62.0, -2356.857342345398, 2511.956097120774, -81662.54540235345, -84039.29579726409, -29585.305402911355, -24985.674021920448, -187500.02235174447, -65586.0755546183, -5803.764558287211, -52400.17800333238, -81440.972559568, -81620.90410243323, -52824.23529913847, -72986.64873679266, -85547.85973404166, -71010.97804438806, 0.182, 0.924, 0.368, 192.0, 2.5, 88.0, 14.0, 112.0, 5.5, 64.0, 0.0, 0.0, 0.0, 1.695407054975149E9, 0.0, 2023-09-22 13:24:14.975
64.0, -2309.493995844602, 2536.364202065969, -81661.4725186196, -84038.35702399696, -29589.440475635587, -24987.238644032317, -187500.02235174447, -65588.9365779086, -5797.059034950618, -52405.92240165739, -81446.15816428163, -81627.14023913625, -52825.28583112787, -72989.9791467165, -85554.40879516707, -71019.5611142589, 0.182, 0.924, 0.368, 192.0, 0.0, 0.0, 0.0, 0.0, 0.0, 0.0, 0.0, 0.0, 0.0, 1.695407054975152E9, 0.0, 2023-09-22 13:24:14.975
66.0, -2341.077010759951, 2506.9493063627847, -81665.38407389929, -84039.92164610884, -29591.407429147654, -24985.249338775797, -187500.02235174447, -65581.64990921615, -5802.222287919794, -52403.910744656416, -81445.75583288143, -81626.49203854705, -52825.799921250335, -72990.44853335006, -85548.08325148621, -71011.71565195509, 0.182, 0.924, 0.368, 192.0, 0.0, 0.0, 0.0, 0.0, 0.0, 0.0, 0.0, 0.0, 0.0, 1.695407054975155E9, 0.0, 2023-09-22 13:24:14.975
68.0, -2302.5202515745464, 2519.9580216357735, -81670.61438210182, -84044.30258802207, -29596.637737350196, -24990.05496383369, -187500.02235174447, -65592.71402272154, -5803.876317009487, -52420.272221597705, -81458.94336211006, -81642.87586723278, -52837.8698632562, -72998.36105088724, -85556.28634170131, -71020.34342531484, 0.182, 0.924, 0.368, 192.0, 0.0, 0.0, 0.0, 0.0, 0.0, 0.0, 0.0, 0.0, 0.0, 1.695407054975159E9, 0.0, 2023-09-22 13:24:14.975
70.0, -2318.591155837912, 2497.427463224824, -81678.75041708356, -84050.31520728055, -29599.878740296215, -24984.46702771986, -187500.02235174447, -65589.36126105324, -5812.906421769431, -52418.34997157454, -81463.34665576776, -81645.37926261178, -52837.53458708937, -73003.39019338969, -85555.48167890092, -71019.60581774781, 0.182, 0.924, 0.368, 192.0, 0.0, 0.0, 0.0, 0.0, 0.0, 0.0, 0.0, 0.0, 0.0, 1.695407055035382E9, 0.0, 2023-09-22 13:24:15.035
72.0, -2306.2976963874935, 2508.692742430299, -81683.75720784154, -84051.41044275886, -29600.79516181888, -24980.533120695727, -187500.02235174447, -65591.41762154312, -5814.5380991146685, -52422.70856174333, -81468.26403954792, -81652.08478594838, -52839.03215396788, -72997.26581540893, -85560.26495221436, -71024.41144280571, 0.186, 0.924, 0.364, 192.0, 2.5, 104.0, 14.0, 112.0, 5.5, 48.0, 0.0, 0.0, 0.0, 1.695407055035392E9, 0.0, 2023-09-22 13:24:15.035
74.0, -2326.011934997074, 2500.243783026193, -81680.71737059562, -84043.85555313296, -29594.29080418239, -24968.619640901048, -187500.02235174447, -65580.88994990468, -5813.778139803188, -52418.77465471919, -81466.69941743606, -81648.93318998018, -52840.99910747995, -72988.41452460462, -85559.97437953645, -71018.3094165694, 0.186, 0.924, 0.364, 192.0, 0.0, 0.0, 0.0, 0.0, 0.0, 0.0, 0.0, 0.0, 0.0, 1.695407055035396E9, 0.0, 2023-09-22 13:24:15.035
76.0, -2313.1596819352726, 2508.424521496835, -81688.07109452142, -84053.24328580419, -29603.455019409066, -24990.122019067054, -187500.02235174447, -65597.34083382378, -5809.799529290143, -52424.36259083302, -81467.61583895872, -81651.14601268126, -52838.85334001224, -73001.44559162208, -85565.45055692799, -71024.27733233897, 0.186, 0.924, 0.364, 192.0, 0.0, 0.0, 0.0, 0.0, 0.0, 0.0, 0.0, 0.0, 0.0, 1.6954070550354E9, 0.0, 2023-09-22 13:24:15.035
78.0, -2319.217004682661, 2506.390512751402, -81676.6270013603, -84046.7389281677, -29589.351068657765, -24986.925719609942, -187500.02235174447, -65588.69070871959, -5808.391369389459, -52421.747436731755, -81460.88796387769, -81645.62513180079, -52836.59581382225, -72994.87417875222, -85563.9976935384, -71031.87692545378, 0.186, 0.924, 0.364, 192.0, 0.0, 0.0, 0.0, 0.0, 0.0, 0.0, 0.0, 0.0, 0.0, 1.695407055035404E9, 0.0, 2023-09-22 13:24:15.035
80.0, -2326.056638485985, 2504.535317961612, -81689.79217884448, -84065.00030338769, -29602.47154265303, -24996.782838914736, -187500.02235174447, -65603.06288040434, -5807.430244377881, -52425.81545422262, -81457.84812663175, -81646.0721666899, -52832.036057953366, -72999.45628636554, -85565.80818483928, -71037.62132377879, 0.186, 0.924, 0.364, 192.0, 0.0, 0.0, 0.0, 0.0, 0.0, 0.0, 0.0, 0.0, 0.0, 1.695407055035408E9, 0.0, 2023-09-22 13:24:15.035
82.0, -2307.482338843625, 2512.7607599211647, -81677.6328298608, -84055.76903292764, -29591.80976054785, -24990.099667322596, -187500.02235174447, -65594.14453436667, -5806.4914711107585, -52426.73187574529, -81457.35638825374, -81644.08286143337, -52838.83098826778, -73012.80027780536, -85566.85871682868, -71044.2150883931, 0.186, 0.924, 0.368, 192.0, 2.5, 104.0, 14.0, 112.0, 5.5, 64.0, 0.0, 0.0, 0.0, 1.695407055035411E9, 0.0, 2023-09-22 13:24:15.035
84.0, -2332.7174583336664, 2507.552803463078, -81687.37819044331, -84059.14414634039, -29600.37047867423, -24989.80909464468, -187500.02235174447, -65594.61392100024, -5806.022084477197, -52423.28970709917, -81455.5235452084, -81640.6183410428, -52830.44908409704, -72995.6788415526, -85557.22511496845, -71031.31813184239, 0.186, 0.924, 0.368, 192.0, 0.0, 0.0, 0.0, 0.0, 0.0, 0.0, 0.0, 0.0, 0.0, 1.695407055097073E9, 0.0, 2023-09-22 13:24:15.097
86.0, -2281.017873408541, 2508.849204641486, -81696.1847777587, -84066.92255341084, -29610.607577634764, -25001.230836061342, -187500.02235174447, -65609.6342932742, -5806.312657155116, -52430.64343102496, -81465.24655404646, -81647.39091961276, -52838.31689814531, -73005.60301609075, -85565.31644646126, -71039.23064937958, 0.186, 0.924, 0.368, 192.0, 0.0, 0.0, 0.0, 0.0, 0.0, 0.0, 0.0, 0.0, 0.0, 1.695407055097087E9, 0.0, 2023-09-22 13:24:15.097
88.0, -2326.1236937193507, 2503.529489461123, -81675.3306001819, -84045.6883961783, -29591.698001825574, -24972.732361880826, -187500.02235174447, -65573.98326086799, -5815.633334592979, -52431.33633510308, -81472.1308913387, -81651.92832373719, -52840.1720929351, -73008.03935623639, -85566.72460636194, -71036.6154952783, 0.186, 0.924, 0.368, 192.0, 0.0, 0.0, 0.0, 0.0, 0.0, 0.0, 0.0, 0.0, 0.0, 1.695407055097091E9, 0.0, 2023-09-22 13:24:15.097
90.0, -2278.3356640739044, 2518.0581233570724, -81674.25771644805, -84047.63299794591, -29593.95552801556, -24982.209501529873, -187500.02235174447, -65588.19897034156, -5786.710177267812, -52411.19741334885, -81453.3777777407, -81635.65625377372, -52822.69302877105, -72994.47184735202, -85551.43601315451, -71017.12477411327, 0.186, 0.924, 0.368, 192.0, 0.0, 0.0, 0.0, 0.0, 0.0, 0.0, 0.0, 0.0, 0.0, 1.695407055097094E9, 0.0, 2023-09-22 13:24:15.097
92.0, -2340.27234795956, 2499.975562092729, -81668.20039370065, -84044.99549210018, -29588.501702368463, -24975.906309593476, -187500.02235174447, -65584.08624936179, -5799.785947774166, -52416.80770120713, -81460.19505979956, -81643.47936433308, -52831.41020910862, -72994.89653049667, -85553.76059457786, -71019.22583809207, 0.188, 0.936, 0.368, 192.0, 2.5, 112.0, 14.5, 32.0, 5.5, 64.0, 0.0, 0.0, 0.0, 1.695407055097098E9, 0.0, 2023-09-22 13:24:15.097
94.0, -2274.3570535608596, 2525.233033327226, -81669.69796057916, -84046.62716944542, -29596.593033861285, -24977.18035902743, -187500.02235174447, -65594.2339413445, -5785.547886556135, -52410.817433693104, -81457.13287080919, -81643.27819863298, -52831.343153875256, -72992.75076302896, -85550.9442747765, -71012.65442522221, 0.188, 0.936, 0.368, 192.0, 0.0, 0.0, 0.0, 0.0, 0.0, 0.0, 0.0, 0.0, 0.0, 1.695407055097101E9, 0.0, 2023-09-22 13:24:15.097
96.0, -2339.825313070454, 2510.816158153553, -81654.7222917941, -84041.4415647318, -29584.38898138869, -24962.495262920293, -187500.02235174447, -65577.06780160283, -5801.261162908217, -52407.66583772491, -81458.6751411766, -81643.45701258862, -52836.148778933144, -72993.39896361816, -85553.91705678905, -71011.98387288855, 0.188, 0.936, 0.368, 192.0, 0.0, 0.0, 0.0, 0.0, 0.0, 0.0, 0.0, 0.0, 0.0, 1.695407055097104E9, 0.0, 2023-09-22 13:24:15.097
98.0, -2284.5270972880244, 2538.8899491894185, -81654.27525690499, -84049.86817239143, -29593.352030915266, -24974.051114803686, -187500.02235174447, -65589.29420581987, -5777.434203318859, -52402.83786092256, -81446.42638521509, -81640.9759689541, -52828.12450267369, -72993.04133570688, -85555.3475684342, -71007.98291063105, 0.188, 0.936, 0.368, 192.0, 0.0, 0.0, 0.0, 0.0, 0.0, 0.0, 0.0, 0.0, 0.0, 1.695407055097107E9, 0.0, 2023-09-22 13:24:15.097
100.0, -2354.599816155412, 2512.8948703878964, -81658.16446044022, -84060.46289926325, -29600.325775185323, -24979.594347428603, -187500.02235174447, -65593.22811284401, -5782.932732454865, -52398.43456726486, -81442.17955376858, -81643.07703293288, -52824.54822356084, -73000.48446661049, -85561.82957432623, -71013.4143845337, 0.188, 0.936, 0.368, 192.0, 0.0, 0.0, 0.0, 0.0, 0.0, 0.0, 0.0, 0.0, 0.0, 1.695407055156076E9, 0.0, 2023-09-22 13:24:15.156
102.0, -2299.1004346728846, 2538.64408000041, -81658.23151567359, -84061.33461729702, -29606.696022355085, -24978.543815439203, -187500.02235174447, -65600.09009839178, -5773.321482339083, -52404.91657315691, -81446.56049568183, -81653.98468422708, -52828.83975849626, -72986.58168155928, -85579.04041755683, -71023.09268988285, 0.18, 0.93, 0.364, 192.0, 2.5, 80.0, 14.5, 8.0, 5.5, 48.0, 0.0, 0.0, 0.0, 1.695407055156085E9, 0.0, 2023-09-22 13:24:15.156
104.0, -2383.500621736124, 2517.074646601039, -81645.28985563396, -84050.9410561253, -29592.882644281704, -24967.16677751145, -187500.02235174447, -65584.04154587288, -5786.441956334348, -52396.82524166408, -81440.16789676761, -81650.60957081433, -52827.431598595576, -72991.85669325074, -85569.11624301867, -71011.20156183263, 0.18, 0.93, 0.364, 192.0, 0.0, 0.0, 0.0, 0.0, 0.0, 0.0, 0.0, 0.0, 0.0, 1.695407055156089E9, 0.0, 2023-09-22 13:24:15.156
106.0, -2312.109149945873, 2537.817065455564, -81652.17419292619, -84063.9944748872, -29607.14305724419, -24973.961707825867, -187500.02235174447, -65590.8811796762, -5777.881238207965, -52400.13329984347, -81441.41959445711, -81658.74560579605, -52828.99622070745, -72985.15116991416, -85565.00352203888, -71003.98194837355, 0.18, 0.93, 0.364, 192.0, 0.0, 0.0, 0.0, 0.0, 0.0, 0.0, 0.0, 0.0, 0.0, 1.695407055156092E9, 0.0, 2023-09-22 13:24:15.156
108.0, -2367.697938406222, 2510.1903093088044, -81642.54059106596, -84059.21120157377, -29595.073115238323, -24965.400989699483, -187500.02235174447, -65584.7791534399, -5799.7188925408, -52404.827166179086, -81446.96282708202, -81667.44043438917, -52829.75618001893, -72989.80033276086, -85563.1483272491, -71001.54560822793, 0.18, 0.93, 0.364, 192.0, 0.0, 0.0, 0.0, 0.0, 0.0, 0.0, 0.0, 0.0, 0.0, 1.695407055156096E9, 0.0, 2023-09-22 13:24:15.156
110.0, -2317.8088447819764, 2532.2514810861926, -81641.93709396567, -84059.56882948504, -29595.162522216146, -24955.476815161328, -187500.02235174447, -65574.22913005699, -5782.999787688231, -52405.92240165739, -81441.62076015721, -81671.06141699094, -52823.60945029372, -72981.91016696813, -85559.30382720278, -70992.26963427897, 0.18, 0.93, 0.364, 192.0, 0.0, 0.0, 0.0, 0.0, 0.0, 0.0, 0.0, 0.0, 0.0, 1.695407055156099E9, 0.0, 2023-09-22 13:24:15.156
112.0, -2376.817450143987, 2505.16116680636, -81635.87977121827, -84056.61839921694, -29588.233481435, -24953.778082582725, -187500.02235174447, -65569.42350499911, -5790.867601736499, -52406.59295399105, -81448.05806256033, -81676.85051880486, -52825.55405206133, -72982.13368441268, -85560.24260046991, -70990.63795693373, 0.18, 0.926, 0.368, 192.0, 2.5, 80.0, 14.0, 120.0, 5.5, 64.0, 0.0, 0.0, 0.0, 1.695407055156103E9, 0.0, 2023-09-22 13:24:15.156
114.0, -2332.248071700105, 2523.4448937708016, -81645.17809691168, -84062.9886463867, -29600.728106585517, -24966.719742622347, -187500.02235174447, -65587.8860459192, -5788.1853924018615, -52408.314038314114, -81451.88021086219, -81683.01960027452, -52827.83392999577, -72988.19100716007, -85562.63423712662, -70991.86730287877, 0.18, 0.926, 0.368, 192.0, 0.0, 0.0, 0.0, 0.0, 0.0, 0.0, 0.0, 0.0, 0.0, 1.695407055214858E9, 0.0, 2023-09-22 13:24:15.214
116.0, -2380.1255083233727, 2507.6645621853545, -81634.20339038414, -84043.22970428821, -29592.39090590369, -24959.589536141102, -187500.02235174447, -65579.81706617083, -5790.420566847392, -52399.4180440209, -81448.41569047162, -81675.15178622626, -52824.749389260935, -72981.70900126803, -85560.66728361456, -70986.94991909861, 0.18, 0.926, 0.368, 192.0, 0.0, 0.0, 0.0, 0.0, 0.0, 0.0, 0.0, 0.0, 0.0, 1.695407055214868E9, 0.0, 2023-09-22 13:24:15.214
118.0, -2328.895310031809, 2519.0863036020164, -81652.33065513738, -84061.46872776374, -29607.835961322304, -24984.22115853085, -187500.02235174447, -65596.42441230112, -5780.272874864683, -52409.83395693707, -81458.4739754765, -81685.27712646451, -52831.678430042084, -72990.42618160561, -85569.71974011896, -70991.68848892313, 0.18, 0.926, 0.368, 192.0, 0.0, 0.0, 0.0, 0.0, 0.0, 0.0, 0.0, 0.0, 0.0, 1.695407055214872E9, 0.0, 2023-09-22 13:24:15.214
120.0, -2358.5113714350905, 2504.490614472701, -81644.61930330031, -84062.27339056414, -29595.67661233862, -24984.109399808574, -187500.02235174447, -65597.85492394626, -5788.028930190674, -52409.74454995925, -81460.7762051554, -81686.86410032083, -52834.60650856573, -72991.87904499519, -85570.61380989717, -71000.27155879397, 0.18, 0.926, 0.368, 192.0, 0.0, 0.0, 0.0, 0.0, 0.0, 0.0, 0.0, 0.0, 0.0, 1.695407055214875E9, 0.0, 2023-09-22 13:24:15.214
122.0, -2330.281118188038, 2508.3798180079243, -81659.1702889407, -84083.7981204746, -29614.20620849207, -25001.968443628364, -187500.02235174447, -65615.24458113249, -5778.574142286079, -52415.26543083971, -81459.14452781016, -81693.81549284644, -52828.07979918478, -73001.95968174454, -85576.26880124435, -71016.05189037941, 0.186, 0.928, 0.374, 192.0, 2.5, 104.0, 14.5, 0.0, 5.5, 88.0, 0.0, 0.0, 0.0, 1.695407055214878E9, 0.0, 2023-09-22 13:24:15.214
124.0, -2330.281118188038, 2498.746216147687, -81651.72715803709, -84075.86325119296, -29612.507475913466, -24997.18517031493, -187500.02235174447, -65606.19212462808, -5787.626598790479, -52422.775616976694, -81464.7771674129, -81697.41412370374, -52840.283851657376, -73015.01310050645, -85587.48937696092, -71030.53582078646, 0.186, 0.928, 0.374, 192.0, 0.0, 0.0, 0.0, 0.0, 0.0, 0.0, 0.0, 0.0, 0.0, 1.695407055214881E9, 0.0, 2023-09-22 13:24:15.214
126.0, -2336.561958379979, 2511.553765720578, -81656.89041100627, -84074.52214652565, -29616.91076957116, -24999.88973139402, -187500.02235174447, -65612.5847235423, -5779.1999911308285, -52409.65514298143, -81451.14260329517, -81681.36557118483, -52834.31593588781, -72993.98010897399, -85581.02972281334, -71023.36091081631, 0.186, 0.928, 0.374, 192.0, 0.0, 0.0, 0.0, 0.0, 0.0, 0.0, 0.0, 0.0, 0.0, 1.695407055214885E9, 0.0, 2023-09-22 13:24:15.214
128.0, -2314.210213924672, 2510.8385098980084, -81656.75630053954, -84064.35210279848, -29612.48512416901, -24993.31831852416, -187500.02235174447, -65606.8850287062, -5787.872467979488, -52412.51616627171, -81451.54493469535, -81676.69405659367, -52838.33924988977, -72998.51751309843, -85585.43301647104, -71027.36187307381, 0.186, 0.928, 0.374, 192.0, 0.0, 0.0, 0.0, 0.0, 0.0, 0.0, 0.0, 0.0, 0.0, 1.695407055214888E9, 0.0, 2023-09-22 13:24:15.214
130.0, -2322.525062862046, 2505.205870295271, -81667.95452451165, -84071.30349532409, -29619.57062716134, -24998.079240093142, -187500.02235174447, -65619.06672943434, -5797.059034950618, -52419.73577973078, -81457.75871965394, -81680.47150140662, -52843.07781971429, -73001.8255712778, -85587.1541007941, -71024.83612595036, 0.186, 0.928, 0.374, 192.0, 0.0, 0.0, 0.0, 0.0, 0.0, 0.0, 0.0, 0.0, 0.0, 1.695407055276485E9, 0.0, 2023-09-22 13:24:15.276
132.0, -2313.629068568834, 2515.532376233623, -81649.22376265809, -84050.58342821401, -29602.024507763927, -24981.024859073743, -187500.02235174447, -65595.75385996746, -5794.4662325938025, -52411.06330288212, -81459.30099002135, -81672.35781816934, -52845.82708428229, -72999.45628636554, -85582.46023445849, -71018.35412005831, 0.184, 0.928, 0.38, 192.0, 2.5, 96.0, 14.5, 0.0, 5.5, 112.0, 0.0, 0.0, 0.0, 1.695407055276498E9, 0.0, 2023-09-22 13:24:15.276
134.0, -2354.5774644109565, 2513.0513325990837, -81651.03425395898, -84048.46001249076, -29605.310214198857, -24978.07442880564, -187500.02235174447, -65595.66445298964, -5790.264104636205, -52400.89325915495, -81448.54980093834, -81658.5220883515, -52835.27706089939, -72985.93348097008, -85568.73626336292, -71001.56795997238, 0.184, 0.928, 0.38, 192.0, 0.0, 0.0, 0.0, 0.0, 0.0, 0.0, 0.0, 0.0, 0.0, 1.695407055276501E9, 0.0, 2023-09-22 13:24:15.276
136.0, -2308.018780710552, 2526.551786250089, -81640.28306487597, -84038.82641063051, -29598.247062950977, -24970.60894615757, -187500.02235174447, -65590.50120002046, -5786.352549356527, -52397.49579399775, -81449.6226846722, -81657.09157670637, -52836.59581382225, -72987.56515831532, -85568.78096685183, -70998.30460528191, 0.184, 0.928, 0.38, 192.0, 0.0, 0.0, 0.0, 0.0, 0.0, 0.0, 0.0, 0.0, 0.0, 1.695407055276505E9, 0.0, 2023-09-22 13:24:15.276
138.0, -2345.4579526731914, 2508.9162598748517, -81641.64652128775, -84037.66411991885, -29598.58233911781, -24962.003524542277, -187500.02235174447, -65581.1805225826, -5792.275761637183, -52391.77374741719, -81446.13581253718, -81655.16932668322, -52833.46656959851, -72975.40580933164, -85557.31452194626, -70982.21134927409, 0.184, 0.928, 0.38, 192.0, 0.0, 0.0, 0.0, 0.0, 0.0, 0.0, 0.0, 0.0, 0.0, 1.695407055276508E9, 0.0, 2023-09-22 13:24:15.276
140.0, -2308.152891177284, 2521.9696786367513, -81633.33167235037, -84032.76908788313, -29588.255833179457, -24957.98021054032, -187500.02235174447, -65580.3311562933, -5787.939523212854, -52392.444299750845, -81453.13190855169, -81661.96425699763, -52837.04284871136, -72974.95877444254, -85563.39419643811, -70987.93339585465, 0.184, 0.928, 0.38, 192.0, 0.0, 0.0, 0.0, 0.0, 0.0, 0.0, 0.0, 0.0, 0.0, 1.695407055276511E9, 0.0, 2023-09-22 13:24:15.276
142.0, -2355.270368489071, 2498.299181258581, -81637.57850379687, -84048.95175086877, -29586.221824434022, -24958.337838451607, -187500.02235174447, -65578.2300923145, -5795.539116327657, -52389.47151773829, -81451.5225829509, -81662.88067852029, -52825.97873520598, -72967.09096039426, -85554.63231261162, -70982.72543939656, 0.182, 0.93, 0.372, 192.0, 2.5, 88.0, 14.5, 8.0, 5.5, 80.0, 0.0, 0.0, 0.0, 1.695407055276514E9, 0.0, 2023-09-22 13:24:15.276
144.0, -2309.2481266555938, 2517.588736723511, -81635.00805318452, -84055.34434978299, -29582.824359276816, -24964.350457710083, -187500.02235174447, -65586.65669997415, -5785.078499922574, -52399.48509925426, -81452.79663238485, -81669.54149836797, -52823.83296773827, -72978.89268146666, -85561.58370513722, -70999.73511692704, 0.182, 0.93, 0.372, 192.0, 0.0, 0.0, 0.0, 0.0, 0.0, 0.0, 0.0, 0.0, 0.0, 1.695407055335817E9, 0.0, 2023-09-22 13:24:15.335
146.0, -2364.1887145267387, 2488.9561520762627, -81652.84474525986, -84078.67957099433, -29595.877778038717, -24981.628356174035, -187500.02235174447, -65601.74412748148, -5789.504145324725, -52410.348047059546, -81454.0259783299, -81677.4316641607, -52827.81157825131, -72995.09769619677, -85566.05405402828, -71013.39203278924, 0.182, 0.93, 0.372, 192.0, 0.0, 0.0, 0.0, 0.0, 0.0, 0.0, 0.0, 0.0, 0.0, 1.69540705533583E9, 0.0, 2023-09-22 13:24:15.335
148.0, -2303.6825422862225, 2517.1864053233153, -81651.81656501492, -84068.06249237806, -29603.075039753323, -24982.745943396803, -187500.02235174447, -65611.0871566638, -5781.591627787546, -52420.00400066424, -81461.11148132224, -81686.35001019837, -52836.79697952235, -73000.90914975514, -85583.86839435916, -71030.60287601982, 0.182, 0.93, 0.372, 192.0, 0.0, 0.0, 0.0, 0.0, 0.0, 0.0, 0.0, 0.0, 0.0, 1.695407055335834E9, 0.0, 2023-09-22 13:24:15.335
150.0, -2385.1322990813615, 2494.6334951679105, -81653.6717598047, -84061.84870741949, -29605.53373164341, -24975.436922959918, -187500.02235174447, -65604.42633681612, -5790.934656969865, -52403.26254406721, -81451.16495503963, -81667.08280647789, -52831.16433991961, -72986.80519900385, -85576.53702217783, -71018.95761715861, 0.182, 0.93, 0.372, 192.0, 0.0, 0.0, 0.0, 0.0, 0.0, 0.0, 0.0, 0.0, 0.0, 1.695407055335837E9, 0.0, 2023-09-22 13:24:15.335
152.0, -2332.2257199556493, 2526.0823996165277, -81649.08965219137, -84054.33852128251, -29604.796124076383, -24978.9461468394, -187500.02235174447, -65602.52643853742, -5780.786964987155, -52401.809680677616, -81452.03667307338, -81666.16638495521, -52835.85820625522, -72993.08603919578, -85583.01902806986, -71021.6174747488, 0.182, 0.926, 0.37, 192.0, 2.5, 88.0, 14.0, 120.0, 5.5, 72.0, 0.0, 0.0, 0.0, 1.695407055335841E9, 0.0, 2023-09-22 13:24:15.335
154.0, -2372.1682872972833, 2498.388588236402, -81658.3209226514, -84064.8885446654, -29613.848580580783, -24989.56322545567, -187500.02235174447, -65611.48948806399, -5791.985188959264, -52403.95544814533, -81458.38456849869, -81665.51818436601, -52837.35577313373, -72985.82172224781, -85579.71096989048, -71018.15295435821, 0.182, 0.926, 0.37, 192.0, 0.0, 0.0, 0.0, 0.0, 0.0, 0.0, 0.0, 0.0, 0.0, 1.695407055335844E9, 0.0, 2023-09-22 13:24:15.335
156.0, -2307.50469058808, 2524.8083501825754, -81648.88848649127, -84052.90800963737, -29609.37823168972, -24990.43494348943, -187500.02235174447, -65608.89668570718, -5790.2417528917495, -52412.292648827155, -81467.01234185843, -81671.88843153577, -52839.7697615349, -73001.71381255554, -85584.29307750381, -71019.53876251445, 0.182, 0.926, 0.37, 192.0, 0.0, 0.0, 0.0, 0.0, 0.0, 0.0, 0.0, 0.0, 0.0, 1.695407055335848E9, 0.0, 2023-09-22 13:24:15.335
158.0, -2354.666871388778, 2497.4498149692795, -81648.77672776899, -84046.69422467878, -29603.969109531536, -24979.594347428603, -187500.02235174447, -65595.06095588935, -5797.86369775101, -52405.587125490565, -81461.29029527787, -81665.09350122136, -52840.93205224658, -72990.67205079462, -85574.7488826214, -71006.93237864165, 0.182, 0.926, 0.37, 192.0, 0.0, 0.0, 0.0, 0.0, 0.0, 0.0, 0.0, 0.0, 0.0, 1.695407055335852E9, 0.0, 2023-09-22 13:24:15.335
160.0, -2314.7466557915996, 2524.4954257602008, -81638.74079450856, -84033.26082626115, -29597.688269339596, -24964.12694026553, -187500.02235174447, -65591.39526979867, -5786.084328423063, -52404.91657315691, -81459.01041734344, -81666.97104775561, -52839.18861617907, -72986.26875713692, -85573.43012969854, -70996.20354130311, 0.182, 0.926, 0.37, 192.0, 0.0, 0.0, 0.0, 0.0, 0.0, 0.0, 0.0, 0.0, 0.0, 1.695407055395681E9, 0.0, 2023-09-22 13:24:15.395
162.0, -2360.7465458806214, 2499.1932510367933, -81645.53572482297, -84043.05089033257, -29597.263586194946, -24966.764446111258, -187500.02235174447, -65589.65183373116, -5785.458479578314, -52393.785404418166, -81449.08624280528, -81660.64550407475, -52832.393685864656, -72967.35918132773, -85565.94229530601, -70986.88286386525, 0.184, 0.9380000000000001, 0.366, 192.0, 2.5, 96.0, 14.5, 40.0, 5.5, 56.0, 0.0, 0.0, 0.0, 1.695407055395691E9, 0.0, 2023-09-22 13:24:15.395
164.0, -2326.79424605301, 2519.2874693021145, -81642.36177711032, -84047.94592236828, -29599.834036807304, -24975.012239815267, -187500.02235174447, -65588.1766185971, -5778.350624841527, -52401.675570210886, -81453.2213155295, -81670.16734721271, -52829.68912478556, -72986.24640539246, -85571.99961805339, -70997.58934945933, 0.184, 0.9380000000000001, 0.366, 192.0, 0.0, 0.0, 0.0, 0.0, 0.0, 0.0, 0.0, 0.0, 0.0, 1.695407055395694E9, 0.0, 2023-09-22 13:24:15.395
166.0, -2380.2596187901045, 2509.810329653064, -81632.86228571681, -84041.30745426506, -29588.747571557473, -24964.216347243353, -187500.02235174447, -65575.16790332412, -5779.088232408551, -52392.13137532847, -81442.62658865769, -81657.18098368419, -52825.84462473925, -72982.1783879016, -85562.38836793762, -70998.52812272646, 0.184, 0.9380000000000001, 0.366, 192.0, 0.0, 0.0, 0.0, 0.0, 0.0, 0.0, 0.0, 0.0, 0.0, 1.695407055395697E9, 0.0, 2023-09-22 13:24:15.395
168.0, -2344.563882894979, 2528.004649639684, -81648.91083823572, -84059.27825680713, -29607.81360957785, -24984.33291725313, -187500.02235174447, -65600.89476119218, -5769.901665437421, -52390.43264274987, -81439.40793745613, -81656.06339646142, -52821.08370317027, -72994.74006828548, -85564.80235633878, -71006.9100268972, 0.184, 0.9380000000000001, 0.366, 192.0, 0.0, 0.0, 0.0, 0.0, 0.0, 0.0, 0.0, 0.0, 0.0, 1.6954070553957E9, 0.0, 2023-09-22 13:24:15.395
170.0, -2348.207217241194, 2512.0902075875056, -81649.08965219137, -84057.95950388427, -29607.47833341102, -24992.826580146146, -187500.02235174447, -65610.50601130797, -5784.0726714220855, -52400.490927754756, -81444.59354216976, -81661.0254837305, -52828.43742709606, -72998.74103054298, -85576.8946500891, -71026.60191376232, 0.184, 0.9380000000000001, 0.366, 192.0, 0.0, 0.0, 0.0, 0.0, 0.0, 0.0, 0.0, 0.0, 0.0, 1.695407055395704E9, 0.0, 2023-09-22 13:24:15.395
172.0, -2340.6523276153002, 2519.9580216357735, -81650.85544000333, -84059.72529169623, -29609.937025301104, -24994.19003655792, -187500.02235174447, -65614.99871194348, -5777.970645185786, -52399.46274750981, -81441.50900143493, -81659.79613778545, -52827.54335731785, -72995.03064096339, -85577.47579544495, -71030.98285567557, 0.182, 0.9400000000000001, 0.37, 192.0, 2.5, 88.0, 14.5, 48.0, 5.5, 72.0, 0.0, 0.0, 0.0, 1.695407055395707E9, 0.0, 2023-09-22 13:24:15.395
174.0, -2324.335554162926, 2506.2564022846705, -81650.02842545848, -84058.94298064029, -29608.282996211412, -24988.04330683271, -187500.02235174447, -65606.08036590581, -5780.451688820325, -52404.64835222344, -81445.35350148124, -81665.0711494769, -52835.50057834394, -72996.99759447547, -85576.76053962238, -71029.48528879706, 0.182, 0.9400000000000001, 0.37, 192.0, 0.0, 0.0, 0.0, 0.0, 0.0, 0.0, 0.0, 0.0, 0.0, 1.695407055455928E9, 0.0, 2023-09-22 13:24:15.455
176.0, -2332.8068653114874, 2507.9327831188184, -81649.67079754721, -84054.38322477142, -29600.728106585517, -24979.639050917514, -187500.02235174447, -65601.09592689227, -5785.503183067225, -52407.129395857984, -81451.05319631734, -81668.15569021174, -52832.48309284247, -72991.29789963936, -85572.49135643142, -71016.67773922416, 0.182, 0.9400000000000001, 0.37, 192.0, 0.0, 0.0, 0.0, 0.0, 0.0, 0.0, 0.0, 0.0, 0.0, 1.695407055455939E9, 0.0, 2023-09-22 13:24:15.455
178.0, -2324.7155338186662, 2507.6422104408994, -81638.58433229737, -84042.02271008762, -29590.401600647165, -24973.872300848045, -187500.02235174447, -65595.15036286716, -5780.205819631317, -52395.95352363033, -81450.80732712834, -81661.04783547495, -52827.3198398733, -72982.60307104625, -85564.8470598277, -71004.89836989623, 0.182, 0.9400000000000001, 0.37, 192.0, 0.0, 0.0, 0.0, 0.0, 0.0, 0.0, 0.0, 0.0, 0.0, 1.695407055455942E9, 0.0, 2023-09-22 13:24:15.455
180.0, -2336.7184205911663, 2504.490614472701, -81651.83891675937, -84055.12083233843, -29603.119743242234, -24986.679850420936, -187500.02235174447, -65607.64498801768, -5782.284531865661, -52398.3675120315, -81449.86855386122, -81663.61828608731, -52824.771741005396, -72980.5243588119, -85564.86941157216, -70995.13065756926, 0.182, 0.9400000000000001, 0.37, 192.0, 0.0, 0.0, 0.0, 0.0, 0.0, 0.0, 0.0, 0.0, 0.0, 1.695407055455945E9, 0.0, 2023-09-22 13:24:15.455
182.0, -2319.7087430606775, 2524.4060187823798, -81630.7165182491, -84032.38910822739, -29594.737839071495, -24971.212443257864, -187500.02235174447, -65587.729583708, -5773.500296294725, -52390.85732589452, -81441.71016713502, -81655.5716580834, -52825.59875555024, -72979.18325414459, -85566.16581275057, -70993.09664882382, 0.184, 0.936, 0.37, 192.0, 2.5, 96.0, 14.5, 32.0, 5.5, 72.0, 0.0, 0.0, 0.0, 1.695407055455949E9, 0.0, 2023-09-22 13:24:15.455
184.0, -2333.1644932227723, 2513.520719232645, -81643.05468118843, -84047.36477701245, -29609.020603778437, -24991.21725454536, -187500.02235174447, -65605.87920020572, -5769.365223570493, -52395.52884048568, -81438.73738512247, -81652.80004177094, -52823.3188776158, -72978.53505355539, -85567.61867614016, -70997.99168085953, 0.184, 0.936, 0.37, 192.0, 0.0, 0.0, 0.0, 0.0, 0.0, 0.0, 0.0, 0.0, 0.0, 1.695407055455952E9, 0.0, 2023-09-22 13:24:15.455
186.0, -2318.568804093457, 2529.256347329181, -81622.46872454509, -84020.22975924371, -29592.592071603787, -24974.051114803686, -187500.02235174447, -65584.5779877398, -5762.905569422909, -52390.58910496105, -81433.70824262002, -81644.99928295605, -52820.68137177007, -72976.5233965544, -85565.51761216136, -71000.47272449407, 0.184, 0.936, 0.37, 192.0, 0.0, 0.0, 0.0, 0.0, 0.0, 0.0, 0.0, 0.0, 0.0, 1.695407055455955E9, 0.0, 2023-09-22 13:24:15.455
188.0, -2373.464688475691, 2512.2466697986924, -81631.38707058276, -84032.21029427175, -29598.51528388444, -24976.956841582876, -187500.02235174447, -65594.45745878905, -5761.8103339446, -52381.536648456655, -81428.54498965085, -81636.34915785184, -52817.909755457615, -72969.66141100663, -85556.82278356825, -70997.43288724816, 0.184, 0.936, 0.37, 192.0, 0.0, 0.0, 0.0, 0.0, 0.0, 0.0, 0.0, 0.0, 0.0, 1.695407055455958E9, 0.0, 2023-09-22 13:24:15.455
190.0, -2307.527042332535, 2528.518739762156, -81638.15964915272, -84046.18013455631, -29605.220807221034, -24989.317356266663, -187500.02235174447, -65611.60124678627, -5764.984281657253, -52393.15955557342, -81441.39724271266, -81652.35300688184, -52828.1692061626, -72990.26971939442, -85576.33585647773, -71025.6631404952, 0.184, 0.936, 0.37, 192.0, 0.0, 0.0, 0.0, 0.0, 0.0, 0.0, 0.0, 0.0, 0.0, 1.695407055514911E9, 0.0, 2023-09-22 13:24:15.514
192.0, -2356.5891214119342, 2511.1290825759274, -81640.99832069855, -84056.19371607229, -29600.035202507403, -24982.61183293007, -187500.02235174447, -65594.54686576687, -5769.678147992868, -52387.10223282602, -81435.40697519862, -81644.41813760021, -52825.241127638954, -72981.21726289002, -85568.40098719609, -71022.13156487126, 0.178, 0.93, 0.368, 192.0, 2.5, 72.0, 14.5, 8.0, 5.5, 64.0, 0.0, 0.0, 0.0, 1.695407055514921E9, 0.0, 2023-09-22 13:24:15.514
194.0, -2293.8701264703427, 2530.2174723407593, -81637.69026251916, -84060.26173356317, -29595.05076349387, -24991.351365012095, -187500.02235174447, -65606.25917986146, -5763.464363034292, -52393.24896255124, -81441.46429794602, -81653.42589061569, -52832.90777598713, -72988.79450426037, -85573.8995163321, -71034.29091385496, 0.178, 0.93, 0.368, 192.0, 0.0, 0.0, 0.0, 0.0, 0.0, 0.0, 0.0, 0.0, 0.0, 1.695407055514924E9, 0.0, 2023-09-22 13:24:15.514
196.0, -2357.013804556585, 2506.390512751402, -81644.3734341113, -84062.45220451978, -29592.547368114876, -24988.646803933003, -187500.02235174447, -65604.67220600513, -5764.000804901219, -52390.65616019442, -81436.34574846576, -81648.84378300236, -52818.35679034672, -72987.76632401542, -85563.03656852682, -71027.69714924063, 0.178, 0.93, 0.368, 192.0, 0.0, 0.0, 0.0, 0.0, 0.0, 0.0, 0.0, 0.0, 0.0, 1.695407055514928E9, 0.0, 2023-09-22 13:24:15.514
198.0, -2257.3920795192817, 2528.1611118508713, -81655.3704923833, -84063.52508825363, -29607.701850855574, -24998.90625463799, -187500.02235174447, -65620.63135154621, -5766.794772958133, -52406.12356735749, -81450.89673410615, -81662.99243724256, -52836.97579347799, -73001.87027476673, -85578.97336232345, -71038.9177249572, 0.178, 0.93, 0.368, 192.0, 0.0, 0.0, 0.0, 0.0, 0.0, 0.0, 0.0, 0.0, 0.0, 1.695407055514931E9, 0.0, 2023-09-22 13:24:15.514
200.0, -2333.4550659006914, 2508.4468732412906, -81640.9759689541, -84039.85459087546, -29593.843769293282, -24978.56616718366, -187500.02235174447, -65590.97058665402, -5776.04839516263, -52397.071110853096, -81442.24660900196, -81644.73106202258, -52834.36063937672, -72985.17352165861, -85564.91411506107, -71017.68356772466, 0.178, 0.93, 0.368, 192.0, 0.0, 0.0, 0.0, 0.0, 0.0, 0.0, 0.0, 0.0, 0.0, 1.695407055514935E9, 0.0, 2023-09-22 13:24:15.514
202.0, -2276.3463588173818, 2538.062934644572, -81636.84089622986, -84030.3327477375, -29593.41908614863, -24976.979193327334, -187500.02235174447, -65593.04929888836, -5756.937653653343, -52388.64450319344, -81437.03865254387, -81639.5231055645, -52826.76104626191, -72974.46703606451, -85558.4991644024, -71004.18311407365, 0.184, 0.934, 0.372, 192.0, 2.5, 96.0, 14.5, 24.0, 5.5, 80.0, 0.0, 0.0, 0.0, 1.695407055514938E9, 0.0, 2023-09-22 13:24:15.514
204.0, -2328.1800542092387, 2509.586812208511, -81639.9254369647, -84033.2384745167, -29592.077981481314, -24975.302812493184, -187500.02235174447, -65589.20479884205, -5771.466287549292, -52385.40350024742, -81440.70433863453, -81635.45508807362, -52825.68816252806, -72971.4719023075, -85550.83251605422, -70996.44941049212, 0.184, 0.934, 0.372, 192.0, 0.0, 0.0, 0.0, 0.0, 0.0, 0.0, 0.0, 0.0, 0.0, 1.695407055576583E9, 0.0, 2023-09-22 13:24:15.576
206.0, -2273.865315182843, 2536.677126488343, -81636.43856482966, -84028.2316837587, -29588.27818492391, -24969.156082767975, -187500.02235174447, -65590.478848276, -5762.972624656275, -52386.90106712593, -81444.30296949184, -81636.86324797431, -52819.60848803622, -72967.89562319465, -85546.87625728564, -70996.00237560301, 0.184, 0.934, 0.372, 192.0, 0.0, 0.0, 0.0, 0.0, 0.0, 0.0, 0.0, 0.0, 0.0, 1.695407055576594E9, 0.0, 2023-09-22 13:24:15.576
208.0, -2319.6863913162224, 2509.9220883753405, -81630.24713161554, -84026.71176513574, -29583.226690677013, -24967.390294956007, -187500.02235174447, -65583.0804208613, -5774.3273108395715, -52388.15276481542, -81450.53910619488, -81638.56198055291, -52825.77756950588, -72968.81204471733, -85547.16682996355, -70995.60004420282, 0.184, 0.934, 0.372, 192.0, 0.0, 0.0, 0.0, 0.0, 0.0, 0.0, 0.0, 0.0, 0.0, 1.695407055576598E9, 0.0, 2023-09-22 13:24:15.576
210.0, -2278.469774540636, 2529.0775333735387, -81639.00901544202, -84039.72048040874, -29590.848635536273, -24977.023896816245, -187500.02235174447, -65599.71011873605, -5755.820066430577, -52387.30339852612, -81444.81705961432, -81637.71261426361, -52817.440368824056, -72967.716809239, -85545.78102180733, -70996.56116921439, 0.184, 0.934, 0.372, 192.0, 0.0, 0.0, 0.0, 0.0, 0.0, 0.0, 0.0, 0.0, 0.0, 1.695407055576602E9, 0.0, 2023-09-22 13:24:15.576
212.0, -2317.2947546595046, 2506.5916784515, -81641.60181779883, -84047.00714910116, -29586.355934900756, -24977.001545071787, -187500.02235174447, -65594.65862448915, -5766.973586913775, -52392.60076196203, -81450.40499572814, -81644.39578585576, -52819.45202582503, -72977.19394888806, -85555.83930681221, -71008.67581470918, 0.178, 0.932, 0.364, 192.0, 2.5, 72.0, 14.5, 16.0, 5.5, 48.0, 0.0, 0.0, 0.0, 1.695407055576613E9, 0.0, 2023-09-22 13:24:15.576
214.0, -2287.611638022857, 2523.623707726444, -81647.32386437939, -84051.23162880322, -29591.876815781216, -24981.56130094067, -187500.02235174447, -65594.41275530015, -5759.731621710256, -52398.47927075378, -81453.2213155295, -81651.43658535917, -52821.73190375947, -72991.27554789491, -85564.44472842751, -71021.23749509305, 0.178, 0.932, 0.364, 192.0, 0.0, 0.0, 0.0, 0.0, 0.0, 0.0, 0.0, 0.0, 0.0, 1.695407055576616E9, 0.0, 2023-09-22 13:24:15.576
216.0, -2319.6863913162224, 2501.942515604796, -81654.02938771599, -84054.60674221597, -29594.156693715657, -24982.27655676324, -187500.02235174447, -65594.05512738886, -5754.881293163454, -52394.94769512984, -81451.63434167318, -81647.65914054622, -52818.71441825801, -72988.01219320443, -85561.31548420376, -71018.17530610267, 0.178, 0.932, 0.364, 192.0, 0.0, 0.0, 0.0, 0.0, 0.0, 0.0, 0.0, 0.0, 0.0, 1.69540705557662E9, 0.0, 2023-09-22 13:24:15.576
218.0, -2303.2578591415718, 2515.554727978078, -81655.34814063885, -84054.51733523814, -29599.14113272919, -24986.27751902074, -187500.02235174447, -65599.91128443615, -5753.830761174055, -52406.12356735749, -81459.2786382769, -81659.1255854518, -52822.58127004877, -72991.32025138382, -85569.60798139668, -71027.56303877391, 0.178, 0.932, 0.364, 192.0, 0.0, 0.0, 0.0, 0.0, 0.0, 0.0, 0.0, 0.0, 0.0, 1.695407055576623E9, 0.0, 2023-09-22 13:24:15.576
220.0, -2319.082894215929, 2507.329286018525, -81660.31022790793, -84052.52802998162, -29603.34326068679, -24989.295004522206, -187500.02235174447, -65605.81214497234, -5757.742316453733, -52400.91561089941, -81454.473013219, -81650.87779174779, -52826.448121839545, -72985.28528038088, -85568.49039417392, -71024.47849803907, 0.178, 0.932, 0.364, 192.0, 0.0, 0.0, 0.0, 0.0, 0.0, 0.0, 0.0, 0.0, 0.0, 1.695407055635457E9, 0.0, 2023-09-22 13:24:15.635
222.0, -2302.855527741376, 2521.9920303812064, -81661.29370466396, -84050.85164914747, -29613.245083480488, -24983.260033519273, -187500.02235174447, -65593.60809249975, -5758.055240876108, -52404.31307605661, -81456.88700162018, -81653.69411154916, -52835.70174404404, -72993.30955664034, -85573.13955702062, -71027.94301842965, 0.176, 0.93, 0.362, 192.0, 2.5, 64.0, 14.5, 8.0, 5.5, 40.0, 0.0, 0.0, 0.0, 1.695407055635467E9, 0.0, 2023-09-22 13:24:15.635
224.0, -2294.5183270595467, 2515.3759140224356, -81654.67758830519, -84044.41434674435, -29606.852484566272, -24985.070524820152, -187500.02235174447, -65600.96181642555, -5753.719002451779, -52395.14886082993, -81451.99196958447, -81645.80394575643, -52834.58415682127, -72986.29110888137, -85571.84315584222, -71025.19375386165, 0.176, 0.93, 0.362, 192.0, 0.0, 0.0, 0.0, 0.0, 0.0, 0.0, 0.0, 0.0, 0.0, 1.695407055635471E9, 0.0, 2023-09-22 13:24:15.635
226.0, -2320.0216674830517, 2518.7063239462764, -81649.71550103612, -84041.0839368205, -29597.062420494847, -24979.616699173057, -187500.02235174447, -65597.22907510151, -5746.99112737073, -52389.22564854928, -81438.91619907811, -81636.28210261847, -52816.993333934945, -72978.24448087746, -85557.18041147952, -71016.43187003516, 0.176, 0.93, 0.362, 192.0, 0.0, 0.0, 0.0, 0.0, 0.0, 0.0, 0.0, 0.0, 0.0, 1.695407055635474E9, 0.0, 2023-09-22 13:24:15.635
228.0, -2301.8496992408873, 2519.6450972133994, -81645.75924226752, -84035.47364896223, -29591.42978089211, -24980.153141039988, -187500.02235174447, -65598.57017976882, -5740.464417989781, -52392.24313405075, -81442.51482993542, -81638.3161113639, -52826.49282532845, -72980.01026868942, -85556.26398995686, -71020.79046020395, 0.176, 0.93, 0.362, 192.0, 0.0, 0.0, 0.0, 0.0, 0.0, 0.0, 0.0, 0.0, 0.0, 1.695407055635478E9, 0.0, 2023-09-22 13:24:15.635
230.0, -2350.9341300647416, 2517.2758123011367, -81651.52599233699, -84042.11211706545, -29589.373420402222, -24979.214367772864, -187500.02235174447, -65598.16784836863, -5737.893967377421, -52385.582314203064, -81433.10474551973, -81628.50369554803, -52808.65613325312, -72978.46799832201, -85542.40590839458, -71013.63790197825, 0.176, 0.93, 0.362, 192.0, 0.0, 0.0, 0.0, 0.0, 0.0, 0.0, 0.0, 0.0, 0.0, 1.695407055635481E9, 0.0, 2023-09-22 13:24:15.635
232.0, -2312.6455918128004, 2521.9920303812064, -81662.83597503138, -84049.55524796907, -29596.52597862792, -24986.054001576187, -187500.02235174447, -65601.67707224812, -5742.811351157588, -52395.439433507854, -81444.48178344748, -81638.96431195311, -52820.94959270354, -72981.91016696813, -85555.50403064537, -71023.3162073274, 0.18, 0.928, 0.366, 192.0, 2.5, 80.0, 14.5, 0.0, 5.5, 56.0, 0.0, 0.0, 0.0, 1.695407055635484E9, 0.0, 2023-09-22 13:24:15.635
234.0, -2362.489981948135, 2510.8608616424635, -81666.34519891086, -84052.21510555925, -29592.122684970225, -24986.255167276286, -187500.02235174447, -65594.97154891152, -5756.490618764236, -52399.37334053199, -81448.03571081588, -81642.9205707217, -52823.34122936025, -72987.54280657087, -85554.78877482281, -71020.03050089246, 0.18, 0.928, 0.366, 192.0, 0.0, 0.0, 0.0, 0.0, 0.0, 0.0, 0.0, 0.0, 0.0, 1.695407055696156E9, 0.0, 2023-09-22 13:24:15.696
236.0, -2324.98375475213, 2527.065876372561, -81666.41225414423, -84050.04698634708, -29594.24610069348, -24983.438847474918, -187500.02235174447, -65596.7820402124, -5740.531473223147, -52402.34612254454, -81445.15233578114, -81641.35594860982, -52819.519081058395, -72990.67205079462, -85555.68284460102, -71022.9138759272, 0.18, 0.928, 0.366, 192.0, 0.0, 0.0, 0.0, 0.0, 0.0, 0.0, 0.0, 0.0, 0.0, 1.695407055696179E9, 0.0, 2023-09-22 13:24:15.696
238.0, -2359.1148685353837, 2503.7306551612205, -81682.55021364096, -84066.341408055, -29610.317004956843, -24989.56322545567, -187500.02235174447, -65598.83840070228, -5753.249615818217, -52410.90684067093, -81454.83064113029, -81651.68245454818, -52831.27609864189, -72998.76338228743, -85565.15998425007, -71029.68645449716, 0.18, 0.928, 0.366, 192.0, 0.0, 0.0, 0.0, 0.0, 0.0, 0.0, 0.0, 0.0, 0.0, 1.695407055696183E9, 0.0, 2023-09-22 13:24:15.696
240.0, -2307.5493940769907, 2525.4341990273238, -81670.01088500154, -84055.29964629408, -29605.77960083242, -24980.98015558483, -187500.02235174447, -65597.6314065017, -5754.322499552071, -52415.98068666228, -81461.40205400015, -81658.74560579605, -52838.16043593412, -73001.08796371079, -85572.46900468695, -71032.97216093208, 0.18, 0.928, 0.366, 192.0, 0.0, 0.0, 0.0, 0.0, 0.0, 0.0, 0.0, 0.0, 0.0, 1.695407055696186E9, 0.0, 2023-09-22 13:24:15.696
242.0, -2371.587141941445, 2499.7967481370865, -81671.86607979132, -84058.65240796238, -29604.10321999827, -24980.488417206816, -187500.02235174447, -65596.37970881221, -5754.970700141275, -52410.07982612608, -81454.4283097301, -81649.87196324731, -52826.090493928255, -72994.04716420737, -85558.3427021912, -71021.32690207087, 0.178, 0.922, 0.37, 192.0, 2.5, 72.0, 14.0, 104.0, 5.5, 72.0, 0.0, 0.0, 0.0, 1.69540705569619E9, 0.0, 2023-09-22 13:24:15.696
244.0, -2323.2179669401607, 2525.9929926387063, -81657.78448078448, -84040.8380676315, -29595.989536760993, -24974.56520492616, -187500.02235174447, -65595.485639034, -5748.309880293594, -52414.72898897278, -81455.43413823059, -81649.67079754721, -52834.09241844326, -72998.0257747204, -85560.8460975702, -71026.7136724846, 0.178, 0.922, 0.37, 192.0, 0.0, 0.0, 0.0, 0.0, 0.0, 0.0, 0.0, 0.0, 0.0, 1.695407055696193E9, 0.0, 2023-09-22 13:24:15.696
246.0, -2377.3762437553696, 2501.0484458265837, -81662.74656805355, -84044.99549210018, -29602.650356608672, -24974.520501437248, -187500.02235174447, -65590.8811796762, -5749.136894838441, -52399.8203754211, -81443.34184448027, -81633.73400375056, -52821.50838631492, -72979.25030937795, -85548.01619625285, -71012.83323917785, 0.178, 0.922, 0.37, 192.0, 0.0, 0.0, 0.0, 0.0, 0.0, 0.0, 0.0, 0.0, 0.0, 1.695407055696196E9, 0.0, 2023-09-22 13:24:15.696
248.0, -2302.5202515745464, 2531.268004330159, -81657.69507380665, -84037.7311751522, -29604.28203395391, -24976.17453052694, -187500.02235174447, -65592.28933957689, -5739.726810422756, -52406.03416037967, -81452.7742806404, -81641.17713465418, -52829.15268291863, -72990.87321649471, -85558.38740568011, -71020.70105322612, 0.178, 0.922, 0.37, 192.0, 0.0, 0.0, 0.0, 0.0, 0.0, 0.0, 0.0, 0.0, 0.0, 1.695407055696199E9, 0.0, 2023-09-22 13:24:15.696
250.0, -2367.630883172856, 2510.033847097617, -81657.38214938428, -84037.95469259676, -29598.425876906622, -24977.247414260797, -187500.02235174447, -65595.01625240043, -5747.61697621548, -52392.0643200951, -81444.39237646967, -81628.10136414783, -52820.05552292532, -72980.21143438952, -85542.62942583913, -71007.91585539769, 0.178, 0.922, 0.37, 192.0, 0.0, 0.0, 0.0, 0.0, 0.0, 0.0, 0.0, 0.0, 0.0, 1.695407055755941E9, 0.0, 2023-09-22 13:24:15.755
