%OpenBCI Raw EXG Data
%Number of channels = 16
%Sample Rate = 125 Hz
%Board = OpenBCI_GUI$BoardCytonSerialDaisy
Sample Index, EXG Channel 0, EXG Channel 1, EXG Channel 2, EXG Channel 3, EXG Channel 4, EXG Channel 5, EXG Channel 6, EXG Channel 7, EXG Channel 8, EXG Channel 9, EXG Channel 10, EXG Channel 11, EXG Channel 12, EXG Channel 13, EXG Channel 14, EXG Channel 15, Accel Channel 0, Accel Channel 1, Accel Channel 2, Other, Other, Other, Other, Other, Other, Other, Analog Channel 0, Analog Channel 1, Analog Channel 2, Timestamp, Other, Timestamp (Formatted)
0.0, 21817.940094225418, 42046.40293674504, -42621.13334192435, -43166.18063046702, -21182.70351680559, -22624.48044115072, -187500.02235174447, -4795.656179863951, 0.0, 0.0, 0.0, 0.0, 0.0, 0.0, 0.0, 0.0, 0.0, 0.0, 0.0, 192.0, 0.0, 0.0, 0.0, 0.0, 0.0, 0.0, 0.0, 0.0, 0.0, 1.695761206537361E9, 0.0, 2023-09-26 15:46:46.537
184.0, 21838.481347379846, 42076.75660571535, -42616.61828954438, -43159.69862457498, -21181.831798771836, -22633.957580799768, -187500.02235174447, -4750.751525253239, -8198.955142373461, -29119.495048462755, -41821.43262880238, -31321.320691266144, -18788.317595519733, -22935.63907571305, -45694.31939057343, -23193.712317194026, 0.0, 0.0, 0.0, 192.0, 0.0, 0.0, 0.0, 0.0, 0.0, 0.0, 0.0, 0.0, 0.0, 1.69576120653738E9, 0.0, 2023-09-26 15:46:46.537
186.0, 21816.084899435627, 42043.11723031011, -42629.24702516163, -43175.76952883834, -21188.62672908625, -22640.283124480622, -187500.02235174447, -4810.833014349105, -8159.727830854396, -29139.09752835006, -41818.54925376764, -31322.751202911284, -18769.00568831035, -22907.565284677185, -45692.33008531691, -23196.998023628956, 0.0, 0.0, 0.0, 192.0, 0.0, 0.0, 0.0, 0.0, 0.0, 0.0, 0.0, 0.0, 0.0, 1.695761206537391E9, 0.0, 2023-09-26 15:46:46.537
188.0, 21849.254888207306, 42090.59233553318, -42607.8564057179, -43160.503287375366, -21186.905644763192, -22638.919668068847, -187500.02235174447, -4754.081935177081, -8162.879426822595, -29131.319121279616, -41817.18579735587, -31320.2925110212, -18784.406040240054, -22958.951945179935, -45702.63423951081, -23200.73076495299, 0.258, 0.982, -0.006, 192.0, 4.0, 8.0, 15.0, 88.0, 127.5, 104.0, 0.0, 0.0, 0.0, 1.6957612065374E9, 0.0, 2023-09-26 15:46:46.537
190.0, 21831.21703043187, 42073.31443706923, -42619.121684923375, -43162.02320599833, -21185.51983660696, -22630.783633087118, -187500.02235174447, -4809.335447470599, -8157.783229086785, -29111.895455347953, -41806.009925128215, -31309.96600508285, -18787.87056063063, -22924.44085174094, -45699.125015631325, -23192.7735439269, 0.258, 0.982, -0.006, 192.0, 0.0, 0.0, 0.0, 0.0, 0.0, 0.0, 0.0, 0.0, 0.0, 1.695761206537411E9, 0.0, 2023-09-26 15:46:46.537
192.0, 21841.051797992208, 42089.27358261032, -42613.06436217599, -43155.40708963956, -21178.680202803636, -22631.878868565425, -187500.02235174447, -4783.273313435711, -8163.5946826451645, -29115.829362372086, -41802.76892218219, -31306.277967247723, -18778.549883192765, -22913.756717891305, -45696.19693710768, -23189.666651447613, 0.258, 0.982, -0.006, 192.0, 0.0, 0.0, 0.0, 0.0, 0.0, 0.0, 0.0, 0.0, 0.0, 1.69576120653742E9, 0.0, 2023-09-26 15:46:46.537
194.0, 21831.641713576522, 42080.42229180602, -42617.89233897833, -43149.39447038108, -21184.178731939643, -22627.140298740902, -187500.02235174447, -4791.431700161898, -8169.629653648098, -29125.19474329886, -41809.80972168562, -31303.14872302398, -18770.458551699943, -22936.48844200235, -45698.45446329766, -23186.33624152377, 0.258, 0.982, -0.006, 192.0, 0.0, 0.0, 0.0, 0.0, 0.0, 0.0, 0.0, 0.0, 0.0, 1.695761206537451E9, 0.0, 2023-09-26 15:46:46.537
196.0, 21840.113024725084, 42091.173480889025, -42604.07896090495, -43154.06598497224, -21174.567481823862, -22636.080996523026, -187500.02235174447, -4779.2723511782115, -8154.3857639295775, -29109.637929157965, -41804.55706173862, -31303.260481746256, -18790.016328098336, -22928.888848887545, -45685.53515500249, -23182.536444966372, 0.258, 0.982, -0.006, 192.0, 0.0, 0.0, 0.0, 0.0, 0.0, 0.0, 0.0, 0.0, 0.0, 1.69576120653746E9, 0.0, 2023-09-26 15:46:46.537
198.0, 21844.404559660503, 42093.45335882346, -42603.96720218268, -43151.763755293345, -21179.551920837395, -22631.1412609984, -187500.02235174447, -4799.299514210166, -8171.082517037692, -29121.05967057463, -41810.50262576373, -31300.779438111716, -18783.75783965085, -22925.625494197073, -45686.250410825065, -23185.799799656845, 0.254, 0.986, -0.006, 192.0, 3.5, 120.0, 15.0, 104.0, 127.5, 104.0, 0.0, 0.0, 0.0, 1.69576120653747E9, 0.0, 2023-09-26 15:46:46.537
0.0, 10854.610604597403, 21022.419157316584, -21321.060814983943, -21397.61553974337, -10393.71763392897, -11300.460851247413, -93750.01117587223, -1945.6075961122033, -4086.6811974860666, -14566.520102801336, -20903.32906285871, -15653.127807751634, -9390.705453241522, -11479.207751656504, -22846.455615336374, -11592.106412900259, 0.187, 0.993, -0.003, 192.0, 1.5, 96.0, 15.5, 32.0, 0.0, 0.0, 0.0, 0.0, 0.0, 1.695761206677836E9, 0.0, 2023-09-26 15:46:46.677
2.0, 21694.223188665295, 42014.752866596325, -42632.756249041115, -42797.28743997663, -20787.03293645775, -22598.775935027115, -187500.02235174447, -3935.9633846239312, -8209.013427378348, -29243.614285423075, -41776.304456747115, -31674.344143193262, -18590.370546623533, -22981.92953847999, -45636.31661371191, -23016.105355752155, 0.187, 0.993, -0.003, 192.0, 0.0, 0.0, 0.0, 0.0, 0.0, 0.0, 0.0, 0.0, 0.0, 1.695761206677858E9, 0.0, 2023-09-26 15:46:46.677
4.0, 21707.00838649373, 42045.240646033366, -42646.41316490331, -42805.356419724994, -20797.895884263027, -22603.872132762925, -187500.02235174447, -3855.7876772627446, -8207.404101777567, -29267.97768687936, -41780.618343426984, -31673.964163537523, -18590.459953601356, -22985.774038526302, -45639.334099213374, -23016.440631918984, 0.187, 0.993, -0.003, 192.0, 0.0, 0.0, 0.0, 0.0, 0.0, 0.0, 0.0, 0.0, 0.0, 1.695761206677868E9, 0.0, 2023-09-26 15:46:46.677
6.0, 21693.999671220743, 42016.63041313057, -42629.269376906086, -42790.470157917756, -20789.201055669913, -22592.830371002005, -187500.02235174447, -3917.523195448303, -8205.526555243321, -29257.137090818538, -41773.35402647901, -31681.094370018767, -18578.524122062223, -22977.25802388883, -45633.58970088836, -23010.8303440607, 0.187, 0.993, -0.003, 192.0, 0.0, 0.0, 0.0, 0.0, 0.0, 0.0, 0.0, 0.0, 0.0, 1.695761206677877E9, 0.0, 2023-09-26 15:46:46.677
8.0, 21721.24644771176, 42058.316416539725, -42631.8621792629, -42788.14557649441, -20787.055288202202, -22598.418307115833, -187500.02235174447, -3839.1132758990857, -8205.90653489906, -29246.765881391275, -41768.79427061013, -31655.903954017635, -18580.267558129737, -22977.705058777938, -45631.75685784303, -23001.822591045213, 0.05, 1.002, 0.002, 192.0, 0.5, 72.0, 15.5, 40.0, 0.0, 8.0, 0.0, 0.0, 0.0, 1.695761206677886E9, 0.0, 2023-09-26 15:46:46.677
10.0, 21696.324252644095, 42014.08231426267, -42644.26739743559, -42799.65672488889, -20794.2078464279, -22604.60974032995, -187500.02235174447, -3920.8983088610544, -8212.813223935751, -29248.59872443661, -41776.61738116949, -31671.997210025456, -18575.39487783848, -22981.147227424055, -45639.64702363575, -23012.394966172575, 0.05, 1.002, 0.002, 192.0, 0.0, 0.0, 0.0, 0.0, 0.0, 0.0, 0.0, 0.0, 0.0, 1.695761206677895E9, 0.0, 2023-09-26 15:46:46.677
12.0, 21721.961703534333, 42049.73334666889, -42629.71641179519, -42806.63046915895, -20795.01250922829, -22607.023728731125, -187500.02235174447, -3846.5787585471585, -8213.10379661367, -29240.5520964327, -41767.207296753804, -31663.682361088082, -18575.238415627293, -22960.181291124976, -45637.85888407932, -23014.764251084835, 0.05, 1.002, 0.002, 192.0, 0.0, 0.0, 0.0, 0.0, 0.0, 0.0, 0.0, 0.0, 0.0, 1.695761206677904E9, 0.0, 2023-09-26 15:46:46.677
14.0, 21699.833476523578, 42007.39914267053, -42629.24702516163, -42793.062960274576, -20788.88813124754, -22595.534932081096, -187500.02235174447, -3915.3103727472276, -8221.664514740052, -29262.903840888008, -41777.22087826978, -31679.485044417987, -18596.986662982305, -22976.810988999725, -45643.71504112662, -23022.27443722182, 0.05, 1.002, 0.002, 192.0, 0.0, 0.0, 0.0, 0.0, 0.0, 0.0, 0.0, 0.0, 0.0, 1.695761206677913E9, 0.0, 2023-09-26 15:46:46.677
16.0, 21720.419433166913, 42037.84221861866, -42633.42680137477, -42798.76265511068, -20796.5100761068, -22601.726365295217, -187500.02235174447, -3851.9655289608872, -8209.57222098973, -29234.047738796206, -41762.20050599581, -31658.139128463168, -18588.850628000575, -22974.754628509836, -45634.729639855585, -23004.147172468565, 0.05, 1.002, 0.002, 192.0, 0.0, 0.0, 0.0, 0.0, 0.0, 0.0, 0.0, 0.0, 0.0, 1.695761206737271E9, 0.0, 2023-09-26 15:46:46.737
18.0, 21710.227037695295, 42017.14450325305, -42641.1158014674, -42793.398236441404, -20800.466334875386, -22597.144257681877, -187500.02235174447, -3890.1870119794626, -8215.786005948306, -29248.151689547503, -41775.72331139127, -31671.393712925164, -18592.49396234679, -22979.64966054555, -45651.73931738607, -23018.966379042435, 0.016, 1.008, 0.006, 192.0, 0.0, 64.0, 15.5, 64.0, 0.0, 24.0, 0.0, 0.0, 0.0, 1.695761206737296E9, 0.0, 2023-09-26 15:46:46.737
20.0, 21729.985979793786, 42041.48555296488, -42634.20911243071, -42796.79570159861, -20794.856047017103, -22603.80507752956, -187500.02235174447, -3851.8761219830662, -8205.14657558758, -29241.893201100018, -41765.396805452925, -31663.525898876895, -18583.642671542486, -22976.632175044084, -45645.570235916406, -23013.93723653999, 0.016, 1.008, 0.006, 192.0, 0.0, 0.0, 0.0, 0.0, 0.0, 0.0, 0.0, 0.0, 0.0, 1.695761206737307E9, 0.0, 2023-09-26 15:46:46.737
22.0, 21720.084157000085, 42022.6206806446, -42638.47829562167, -42797.55566091009, -20802.92502676547, -22609.281254921112, -187500.02235174447, -3894.612657381613, -8206.465328510443, -29244.106023801094, -41770.85063110002, -31667.079826245288, -18574.321994104623, -22977.705058777938, -45649.772363874006, -23021.827402332714, 0.016, 1.008, 0.006, 192.0, 0.0, 0.0, 0.0, 0.0, 0.0, 0.0, 0.0, 0.0, 0.0, 1.695761206737316E9, 0.0, 2023-09-26 15:46:46.737
24.0, 21730.589476894078, 42040.14444829756, -42626.85538850491, -42784.01050377018, -20800.198113941922, -22603.983891485204, -187500.02235174447, -3863.3425668886384, -8207.784081433307, -29250.16334654848, -41764.14510776343, -31668.59974486825, -18599.467706616844, -22983.762381525325, -45652.58868367537, -23017.64762611957, 0.016, 1.008, 0.006, 192.0, 0.0, 0.0, 0.0, 0.0, 0.0, 0.0, 0.0, 0.0, 0.0, 1.695761206737326E9, 0.0, 2023-09-26 15:46:46.737
26.0, 21721.894648300964, 42021.92777656648, -42620.12751342387, -42780.121300234954, -20791.50328534881, -22594.529103580608, -187500.02235174447, -3903.9333348194764, -8203.201973819969, -29225.419965436457, -41753.88565705844, -31649.69016905906, -18571.86330221454, -22941.49523276034, -45640.675203880695, -23007.41052715904, 0.016, 1.008, 0.006, 192.0, 0.0, 0.0, 0.0, 0.0, 0.0, 0.0, 0.0, 0.0, 0.0, 1.695761206737335E9, 0.0, 2023-09-26 15:46:46.737
28.0, 21721.224095967307, 42024.98996555686, -42629.22467341717, -42784.524593892645, -20796.82300052917, -22601.61460657294, -187500.02235174447, -3877.044186239742, -8236.081389913725, -29243.256657511793, -41774.73983463524, -31664.46467214402, -18570.18692138039, -22992.45721011844, -45649.615901662815, -23011.746765583368, -0.008, 1.008, 0.01, 192.0, 127.5, 96.0, 15.5, 64.0, 0.0, 40.0, 0.0, 0.0, 0.0, 1.695761206737345E9, 0.0, 2023-09-26 15:46:46.737
30.0, 21720.35237793355, 42018.84323583165, -42631.8621792629, -42784.390483425916, -20794.96780573938, -22604.85560951896, -187500.02235174447, -3887.3483404336384, -8178.592703174675, -29228.79507884921, -41756.83608732654, -31650.78540453737, -18593.142162935994, -22968.607898784627, -45646.12902952779, -23011.947931283466, -0.008, 1.008, 0.01, 192.0, 0.0, 0.0, 0.0, 0.0, 0.0, 0.0, 0.0, 0.0, 0.0, 1.695761206796096E9, 0.0, 2023-09-26 15:46:46.796
32.0, 21709.847058039555, 42002.2135379569, -42635.0137752311, -42788.68201836134, -20790.028070214757, -22598.842990260484, -187500.02235174447, -3898.211288238918, -8214.646066981086, -29236.84170685312, -41768.59310491003, -31669.918497791114, -18574.90313946046, -22938.410692025507, -45647.40307896174, -23018.27347496432, -0.008, 1.008, 0.01, 192.0, 0.0, 0.0, 0.0, 0.0, 0.0, 0.0, 0.0, 0.0, 0.0, 1.695761206796123E9, 0.0, 2023-09-26 15:46:46.796
34.0, 21712.685729585377, 41998.30198267722, -42631.88453100736, -42792.28064921864, -20789.648090559018, -22605.168533941334, -187500.02235174447, -3877.647683340035, -8207.24763956638, -29240.328578988145, -41771.56588692259, -31667.50450938994, -18587.509523333254, -22988.88093100559, -45643.26800623751, -23015.814783074235, -0.008, 1.008, 0.01, 192.0, 0.0, 0.0, 0.0, 0.0, 0.0, 0.0, 0.0, 0.0, 0.0, 1.695761206796133E9, 0.0, 2023-09-26 15:46:46.796
36.0, 21709.645892339457, 41993.07167447468, -42619.8592924904, -42786.73741659372, -20787.569378324675, -22606.822563031026, -187500.02235174447, -3889.427052667982, -8209.974552389927, -29247.592895936123, -41765.93324731985, -31675.193509482568, -18578.926453462416, -22981.25898614633, -45639.691727124664, -23017.044129019276, -0.008, 1.008, 0.01, 192.0, 0.0, 0.0, 0.0, 0.0, 0.0, 0.0, 0.0, 0.0, 0.0, 1.695761206796176E9, 0.0, 2023-09-26 15:46:46.796
38.0, 21714.183296463885, 42004.918099036, -42632.17510368527, -42788.36909393896, -20792.754983038307, -22608.722461309728, -187500.02235174447, -3859.162790675496, -8209.326351800722, -29235.455898696888, -41766.62615139796, -31658.02736974089, -18576.44540982788, -22976.274547132798, -45644.13972427127, -23020.68746336549, -0.01, 1.008, 0.01, 192.0, 127.5, 88.0, 15.5, 64.0, 0.0, 40.0, 0.0, 0.0, 0.0, 1.695761206796185E9, 0.0, 2023-09-26 15:46:46.796
40.0, 21703.923845758898, 41990.25535467331, -42622.74266752513, -42789.44197767282, -20791.615044071084, -22607.94015025379, -187500.02235174447, -3881.983921764365, -8232.549814289787, -29242.228477266846, -41770.31418923309, -31669.493814646463, -18572.44444757038, -22981.303689635242, -45646.956044072635, -23019.50282090936, -0.01, 1.008, 0.01, 192.0, 0.0, 0.0, 0.0, 0.0, 0.0, 0.0, 0.0, 0.0, 0.0, 1.695761206796195E9, 0.0, 2023-09-26 15:46:46.796
42.0, 21723.168697734916, 42017.479779419875, -42618.004097700614, -42789.598439884, -20791.995023726824, -22602.508676351154, -187500.02235174447, -3822.7741507022565, -8199.513935984844, -29238.808660365186, -41755.71850010377, -31663.794119810358, -18574.254938871258, -22983.471808847407, -45648.74418362906, -23019.994559287377, -0.01, 1.008, 0.01, 192.0, 0.0, 0.0, 0.0, 0.0, 0.0, 0.0, 0.0, 0.0, 0.0, 1.695761206796205E9, 0.0, 2023-09-26 15:46:46.796
44.0, 21699.67701431239, 41973.04451144273, -42614.31605986549, -42790.246640473204, -20789.379869625554, -22601.838124017493, -187500.02235174447, -3895.0596922707196, -8220.278706583824, -29258.4558437414, -41761.77582285116, -31677.719256606015, -18585.520218076734, -22980.275509390296, -45640.40698294723, -23012.88670455059, -0.01, 1.008, 0.01, 192.0, 0.0, 0.0, 0.0, 0.0, 0.0, 0.0, 0.0, 0.0, 0.0, 1.695761206796214E9, 0.0, 2023-09-26 15:46:46.796
46.0, 21729.985979793786, 42009.07552350468, -42607.0070394286, -42780.389521168414, -20785.892997490526, -22595.020841958623, -187500.02235174447, -3853.641909795035, -8205.414796521043, -29246.117680802072, -41757.23841872674, -31661.246020942453, -18589.565883823143, -22976.49806457735, -45639.73643061357, -23011.098564994165, -0.01, 1.008, 0.01, 192.0, 0.0, 0.0, 0.0, 0.0, 0.0, 0.0, 0.0, 0.0, 0.0, 1.695761206856949E9, 0.0, 2023-09-26 15:46:46.856
48.0, 21706.717813815812, 41970.921095719474, -42608.19168188473, -42779.31663743456, -20788.172875424967, -22597.166609426335, -187500.02235174447, -3921.0547710722417, -8213.975514647427, -29242.854326111596, -41756.61256988199, -31670.544346635863, -18574.791380738185, -22972.139474408566, -45637.9706428016, -23009.399832415562, -0.012, 1.01, 0.004, 192.0, 127.5, 80.0, 15.5, 72.0, 0.0, 16.0, 0.0, 0.0, 0.0, 1.695761206856983E9, 0.0, 2023-09-26 15:46:46.856
50.0, 21730.00833153824, 42012.69650610644, -42612.93025170926, -42792.347704452004, -20795.63835807304, -22613.773955556626, -187500.02235174447, -3840.7002497554126, -8202.866697653139, -29248.241096525326, -41753.81860182507, -31660.150785464146, -18577.048906928172, -22943.73040720587, -45641.770439359, -23015.099527251667, -0.012, 1.01, 0.004, 192.0, 0.0, 0.0, 0.0, 0.0, 0.0, 0.0, 0.0, 0.0, 0.0, 1.695761206856993E9, 0.0, 2023-09-26 15:46:46.856
52.0, 21708.170677205406, 41975.92788647746, -42608.75047549611, -42771.4935268752, -20793.514942349786, -22599.602949571963, -187500.02235174447, -3926.7097624194344, -8238.763599248363, -29244.21778252337, -41761.41819493988, -31670.164366980123, -18578.85939822905, -22965.7692272388, -45645.436125449676, -23019.41341393154, -0.012, 1.01, 0.004, 192.0, 0.0, 0.0, 0.0, 0.0, 0.0, 0.0, 0.0, 0.0, 0.0, 1.695761206857003E9, 0.0, 2023-09-26 15:46:46.857
54.0, 21737.227944997307, 42020.02787828778, -42606.82822547296, -42773.75105306519, -20792.911445249494, -22602.396917628877, -187500.02235174447, -3861.8673517545885, -8205.548906987775, -29239.568619676666, -41750.66700585688, -31649.332541147774, -18565.604813767055, -22997.486352620883, -45646.3748987168, -23008.617521359625, -0.012, 1.01, 0.004, 192.0, 0.0, 0.0, 0.0, 0.0, 0.0, 0.0, 0.0, 0.0, 0.0, 1.695761206857011E9, 0.0, 2023-09-26 15:46:46.857
56.0, 21714.965607519818, 41980.286476646244, -42598.71454223568, -42775.718006577255, -20790.631567315053, -22594.95378672526, -187500.02235174447, -3932.811788655733, -8202.442014508488, -29248.73283490334, -41749.05768025609, -31665.35874192223, -18571.460970814343, -22981.16957916851, -45641.74808761455, -23010.137439982587, -0.012, 1.01, 0.004, 192.0, 0.0, 0.0, 0.0, 0.0, 0.0, 0.0, 0.0, 0.0, 0.0, 1.69576120685702E9, 0.0, 2023-09-26 15:46:46.857
58.0, 21731.796471094665, 42001.11830247859, -42597.82047245747, -42776.053282744084, -20787.099991691113, -22597.323071637522, -187500.02235174447, -3869.0646134691974, -8198.955142373461, -29254.07490182816, -41745.12377323196, -31667.325695434298, -18586.30252913267, -22985.237596659375, -45638.19416024616, -23007.812858559235, -0.01, 1.012, 0.004, 192.0, 127.5, 88.0, 15.5, 80.0, 0.0, 16.0, 0.0, 0.0, 0.0, 1.695761206857061E9, 0.0, 2023-09-26 15:46:46.857
60.0, 21705.01908123721, 41956.951255434906, -42606.98468768415, -42777.46144264477, -20791.570340582173, -22595.154952425357, -187500.02235174447, -3920.3171635052163, -8215.093101870192, -29239.725081887853, -41751.4046134239, -31668.80091056835, -18583.01682269774, -22972.49710231985, -45638.149456757244, -23002.761364312337, -0.01, 1.012, 0.004, 192.0, 0.0, 0.0, 0.0, 0.0, 0.0, 0.0, 0.0, 0.0, 0.0, 1.6957612069175E9, 0.0, 2023-09-26 15:46:46.917
62.0, 21728.734282104288, 41990.03183722876, -42612.14794065332, -42778.06493974506, -20795.705413306405, -22592.09276343498, -187500.02235174447, -3855.273587140273, -8203.112566842146, -29248.017579080773, -41752.47749715776, -31669.806739068837, -18596.606683326565, -22974.128779665087, -45645.3243667274, -23006.13647772509, -0.01, 1.012, 0.004, 192.0, 0.0, 0.0, 0.0, 0.0, 0.0, 0.0, 0.0, 0.0, 0.0, 1.695761206917528E9, 0.0, 2023-09-26 15:46:46.917
64.0, 21710.003520250742, 41950.78217396524, -42614.40546684331, -42761.099965703484, -20781.69086953293, -22577.631184772395, -187500.02235174447, -3934.2199485564174, -8216.367151304144, -29220.882561312028, -41755.65144487041, -31658.899087774647, -18582.748601764277, -22954.97333466689, -45638.3729742018, -23001.21909394492, -0.01, 1.012, 0.004, 192.0, 0.0, 0.0, 0.0, 0.0, 0.0, 0.0, 0.0, 0.0, 0.0, 1.695761206917538E9, 0.0, 2023-09-26 15:46:46.917
66.0, 21732.511726917237, 41981.58287782465, -42617.60176630042, -42777.394387411405, -20786.697660290916, -22585.36488835393, -187500.02235174447, -3870.293959414239, -8207.761729688851, -29220.994320034304, -41752.49984890221, -31647.07501495779, -18584.939072720896, -22952.760511965815, -45624.380782172775, -22993.083058963188, -0.01, 1.012, 0.004, 192.0, 0.0, 0.0, 0.0, 0.0, 0.0, 0.0, 0.0, 0.0, 0.0, 1.695761206917547E9, 0.0, 2023-09-26 15:46:46.917
68.0, 21714.987959264276, 41962.606246782096, -42642.188685201254, -42792.61592538547, -20791.033898715246, -22596.80898151505, -187500.02235174447, -3916.0926838031633, -8190.61794169163, -29237.489907442323, -41762.26756122918, -31660.866041286714, -18596.29375890419, -22943.305724061218, -45639.132933513276, -23013.333739439695, -0.018000000000000002, 1.008, 0.008, 192.0, 127.5, 56.0, 15.5, 64.0, 0.0, 32.0, 0.0, 0.0, 0.0, 1.695761206917556E9, 0.0, 2023-09-26 15:46:46.917
70.0, 21725.001540780253, 41992.44582562993, -42651.4646591502, -42794.62758238645, -20788.575206825164, -22592.76331576864, -187500.02235174447, -3866.136534945552, -8200.34095052969, -29251.79502389372, -41774.42691021287, -31662.520070376406, -18598.506581605267, -22949.519509019796, -45634.61788113331, -23018.8322685757, -0.018000000000000002, 1.008, 0.008, 192.0, 0.0, 0.0, 0.0, 0.0, 0.0, 0.0, 0.0, 0.0, 0.0, 1.695761206917565E9, 0.0, 2023-09-26 15:46:46.917
72.0, 21720.844116311564, 41987.72960754986, -42647.30723468152, -42775.06980598805, -20782.87551198906, -22576.781818483094, -187500.02235174447, -3907.397855210049, -8208.633447722608, -29224.92822705844, -41772.01292181169, -31655.1216429617, -18612.20820095637, -22989.372669383607, -45633.76851484401, -23010.629178360603, -0.018000000000000002, 1.008, 0.008, 192.0, 0.0, 0.0, 0.0, 0.0, 0.0, 0.0, 0.0, 0.0, 0.0, 1.695761206917575E9, 0.0, 2023-09-26 15:46:46.917
74.0, 21734.679846129402, 42016.09397126365, -42642.255740434615, -42771.2923611751, -20769.17389263796, -22571.305641091545, -187500.02235174447, -3884.8225933101885, -8181.140802042581, -29205.370450660044, -41758.3560059495, -31640.68241604357, -18591.085802446105, -22950.614744498103, -45615.4177326462, -22994.893550264067, -0.018000000000000002, 1.008, 0.008, 192.0, 0.0, 0.0, 0.0, 0.0, 0.0, 0.0, 0.0, 0.0, 0.0, 1.695761206917584E9, 0.0, 2023-09-26 15:46:46.917
76.0, 21720.084157000085, 42020.74313411035, -42662.953455800234, -42789.486681161725, -20783.858988745094, -22579.84400747347, -187500.02235174447, -3875.9042472725214, -8192.897819626072, -29225.35291020309, -41767.67668338736, -31646.248000412943, -18600.473535117333, -22953.565174766205, -45626.45949440712, -23005.734146324892, -0.018000000000000002, 1.008, 0.008, 192.0, 0.0, 0.0, 0.0, 0.0, 0.0, 0.0, 0.0, 0.0, 0.0, 1.695761206976341E9, 0.0, 2023-09-26 15:46:46.976
78.0, 21718.273665699206, 42032.83542786067, -42663.46754592271, -42795.633410886934, -20780.841503243628, -22577.161798138834, -187500.02235174447, -3859.9003982425215, -8214.690770469997, -29236.193506263913, -41782.33942775005, -31658.94379126356, -18610.151840466482, -22957.40967481252, -45630.54986364244, -23010.249198704863, -0.024, 1.006, 0.008, 192.0, 127.5, 32.0, 15.5, 56.0, 0.0, 32.0, 0.0, 0.0, 0.0, 1.695761206976366E9, 0.0, 2023-09-26 15:46:46.976
80.0, 21720.464136655824, 42042.49138146536, -42659.13130749838, -42797.1533295099, -20774.784180496237, -22571.79737946956, -187500.02235174447, -3859.1851424199517, -8213.304962313767, -29247.615247680576, -41777.80202362562, -31655.1216429617, -18603.15574445197, -22962.50587254833, -45623.956099028124, -23008.192838214974, -0.024, 1.006, 0.008, 192.0, 0.0, 0.0, 0.0, 0.0, 0.0, 0.0, 0.0, 0.0, 0.0, 1.695761206976421E9, 0.0, 2023-09-26 15:46:46.976
82.0, 21729.784814093688, 42052.46025949243, -42644.088583479956, -42777.059111244576, -20767.408104825987, -22562.52140552061, -187500.02235174447, -3896.624314382591, -8177.318653740723, -29213.17120947495, -41760.34531120602, -31647.522049846895, -18596.29375890419, -22941.383474038063, -45613.3166686674, -22997.620463087616, -0.024, 1.006, 0.008, 192.0, 0.0, 0.0, 0.0, 0.0, 0.0, 0.0, 0.0, 0.0, 0.0, 1.695761206976433E9, 0.0, 2023-09-26 15:46:46.976
84.0, 21730.410662938437, 42079.72938772791, -42666.21681049071, -42795.4545969313, -20786.63060505755, -22579.732248751196, -187500.02235174447, -3864.5048576003146, -8181.6772439095075, -29214.19938971989, -41761.41819493988, -31631.07116592779, -18585.25199714327, -22941.29406706024, -45623.687878094664, -22997.732221809893, -0.024, 1.006, 0.008, 192.0, 0.0, 0.0, 0.0, 0.0, 0.0, 0.0, 0.0, 0.0, 0.0, 1.695761206976442E9, 0.0, 2023-09-26 15:46:46.976
86.0, 21726.38734893648, 42076.46603303743, -42648.000138759635, -42779.87543104594, -20776.080581674647, -22567.75171372315, -187500.02235174447, -3874.585494349658, -8198.172831317524, -29228.325692215647, -41774.5610206796, -31652.685302816073, -18595.91377924845, -22933.58271522316, -45637.255386979035, -23007.164657970032, -0.024, 1.006, 0.008, 192.0, 0.0, 0.0, 0.0, 0.0, 0.0, 0.0, 0.0, 0.0, 0.0, 1.695761206976451E9, 0.0, 2023-09-26 15:46:46.976
88.0, 21737.49616593077, 42102.93049847252, -42644.53561836906, -42776.67913158883, -20777.555796808698, -22560.576803752996, -187500.02235174447, -3837.9956886763202, -8201.48088949691, -29217.954482788384, -41764.413328696886, -31629.59595079374, -18610.26359918876, -22960.807139969726, -45626.43714266267, -22994.31240490823, -0.016, 1.006, 0.01, 192.0, 127.5, 64.0, 15.5, 56.0, 0.0, 40.0, 0.0, 0.0, 0.0, 1.69576120697646E9, 0.0, 2023-09-26 15:46:46.976
90.0, 21717.20078196535, 42082.366893573635, -42654.25862720712, -42788.12322474995, -20784.820113756672, -22568.64578350136, -187500.02235174447, -3876.5971513506356, -8201.033854607804, -29236.148802775006, -41765.57561940856, -31646.627980068683, -18603.11104096306, -22951.26294508731, -45627.532378140975, -22996.704041564946, -0.016, 1.006, 0.01, 192.0, 0.0, 0.0, 0.0, 0.0, 0.0, 0.0, 0.0, 0.0, 0.0, 1.695761207036674E9, 0.0, 2023-09-26 15:46:47.036
92.0, 21736.847965341567, 42114.508702100364, -42665.21098199022, -42791.36422769597, -20785.96005272389, -22573.40670507034, -187500.02235174447, -3846.846979480622, -8218.781139705317, -29232.103137028593, -41779.83603237105, -31632.524029317385, -18604.385090397012, -22959.801311469237, -45635.62370963379, -23004.750669568857, -0.016, 1.006, 0.01, 192.0, 0.0, 0.0, 0.0, 0.0, 0.0, 0.0, 0.0, 0.0, 0.0, 1.695761207036698E9, 0.0, 2023-09-26 15:46:47.036
94.0, 21723.079290757098, 42087.66425700954, -42649.00596726012, -42789.66549511737, -20771.565529294676, -22565.78476021108, -187500.02235174447, -3918.417265226515, -8191.109680069648, -29236.998169064307, -41766.73791012024, -31645.286875401365, -18596.763145537752, -22943.57394499468, -45631.60039563184, -23006.002367258356, -0.016, 1.006, 0.01, 192.0, 0.0, 0.0, 0.0, 0.0, 0.0, 0.0, 0.0, 0.0, 0.0, 1.695761207036709E9, 0.0, 2023-09-26 15:46:47.036
96.0, 21739.820747354122, 42133.23946395391, -42655.55502838553, -42782.80350956959, -20777.220520641866, -22567.28232708959, -187500.02235174447, -3836.5651770311806, -8199.491584240388, -29210.198427462394, -41762.02169204017, -31625.237360624953, -18590.683471045908, -22934.63324721256, -45623.77728507248, -22997.46400087643, -0.016, 1.006, 0.01, 192.0, 0.0, 0.0, 0.0, 0.0, 0.0, 0.0, 0.0, 0.0, 0.0, 1.695761207036718E9, 0.0, 2023-09-26 15:46:47.036
98.0, 21726.744976847767, 42105.94798397398, -42644.11093522441, -42770.57710535254, -20771.230253127844, -22559.056885130034, -187500.02235174447, -3906.660247643024, -8195.937656871994, -29219.72027060035, -41760.59118039503, -31635.809735752315, -18596.405517626466, -22961.67885800348, -45628.38174443028, -22994.267701419318, -0.01, 1.012, 0.008, 192.0, 127.5, 88.0, 15.5, 80.0, 0.0, 32.0, 0.0, 0.0, 0.0, 1.695761207036728E9, 0.0, 2023-09-26 15:46:47.036
100.0, 21745.363979979036, 42142.8507140697, -42650.525885883086, -42789.75490209519, -20777.95812820889, -22572.98202192569, -187500.02235174447, -3833.748857229812, -8197.85990689515, -29222.111907257073, -41751.471668657265, -31623.270407112886, -18606.284988675714, -22952.291125332253, -45626.14656998475, -22993.9771287414, -0.01, 1.012, 0.008, 192.0, 0.0, 0.0, 0.0, 0.0, 0.0, 0.0, 0.0, 0.0, 0.0, 1.695761207036738E9, 0.0, 2023-09-26 15:46:47.036
102.0, 21713.53509587468, 42108.026696208326, -42658.281941209076, -42792.3030009631, -20780.908558476993, -22570.031591657593, -187500.02235174447, -3904.134500519574, -8200.787985418796, -29231.63375039503, -41763.02752054066, -31641.375320121686, -18595.24322691479, -22940.087072859656, -45635.2213782336, -23001.73318406739, -0.01, 1.012, 0.008, 192.0, 0.0, 0.0, 0.0, 0.0, 0.0, 0.0, 0.0, 0.0, 0.0, 1.695761207036787E9, 0.0, 2023-09-26 15:46:47.036
104.0, 21739.68663688739, 42160.12861253365, -42648.96126377121, -42791.40893118488, -20774.985346196336, -22568.869300945917, -187500.02235174447, -3827.2221478488623, -8212.05326462427, -29223.810639835676, -41766.089709531036, -31636.703805530527, -18615.62801785803, -22947.396093296542, -45636.13779975627, -23004.974187013413, -0.01, 1.012, 0.008, 192.0, 0.0, 0.0, 0.0, 0.0, 0.0, 0.0, 0.0, 0.0, 0.0, 1.695761207036797E9, 0.0, 2023-09-26 15:46:47.036
106.0, 21718.76540407722, 42127.71858307345, -42656.56085688601, -42790.55956489558, -20778.96395670938, -22568.444617801266, -187500.02235174447, -3890.72345384639, -8219.027008894325, -29222.15661074598, -41763.161631007395, -31645.577448079282, -18599.981796739317, -22962.50587254833, -45630.41575317571, -22996.79344854277, -0.01, 1.012, 0.008, 192.0, 0.0, 0.0, 0.0, 0.0, 0.0, 0.0, 0.0, 0.0, 0.0, 1.695761207097436E9, 0.0, 2023-09-26 15:46:47.097
108.0, 21751.77893063771, 42168.912848104585, -42642.38985090135, -42783.22819271424, -20778.092238675625, -22565.56124276653, -187500.02235174447, -3805.406845260483, -8192.987226603893, -29201.190674446905, -41751.24815121271, -31628.143087404143, -18590.750526279277, -22953.587526510662, -45631.510988654016, -22995.318233408718, -0.014, 1.012, 0.01, 192.0, 127.5, 72.0, 15.5, 80.0, 0.0, 40.0, 0.0, 0.0, 0.0, 1.695761207097461E9, 0.0, 2023-09-26 15:46:47.097
110.0, 21725.046244269164, 42124.9916702499, -42642.14398171234, -42771.51587861966, -20770.559700794187, -22556.307620562035, -187500.02235174447, -3891.081081757675, -8199.938619129494, -29209.349061173092, -41756.433755926344, -31631.697014772537, -18606.01676774225, -22949.810081697713, -45627.51002639652, -22988.83622751668, -0.014, 1.012, 0.01, 192.0, 0.0, 0.0, 0.0, 0.0, 0.0, 0.0, 0.0, 0.0, 0.0, 1.695761207097471E9, 0.0, 2023-09-26 15:46:47.097
112.0, 21743.86641310053, 42158.563990421775, -42648.402470159825, -42782.46823340276, -20774.06892467367, -22565.18126311079, -187500.02235174447, -3822.1930053464184, -8199.692749940485, -29199.246072679292, -41755.807907081595, -31621.25875011191, -18601.591122340098, -22943.104558361123, -45623.59847111684, -22983.49416059186, -0.014, 1.012, 0.01, 192.0, 0.0, 0.0, 0.0, 0.0, 0.0, 0.0, 0.0, 0.0, 0.0, 1.695761207097481E9, 0.0, 2023-09-26 15:46:47.097
114.0, 21720.62059886701, 42126.891568528605, -42660.47241216569, -42786.13391949343, -20778.494570075818, -22563.862510187926, -187500.02235174447, -3868.9305030024652, -8214.71312221445, -29227.006939292783, -41774.3598549795, -31643.54343933385, -18612.856401545574, -22956.515605034307, -45634.14849449974, -22996.525227609305, -0.014, 1.012, 0.01, 192.0, 0.0, 0.0, 0.0, 0.0, 0.0, 0.0, 0.0, 0.0, 0.0, 1.695761207097489E9, 0.0, 2023-09-26 15:46:47.097
116.0, 21742.279439244205, 42148.706871116985, -42640.95933925621, -42774.68982633232, -20765.150578636003, -22556.531138006587, -187500.02235174447, -3833.8606159520887, -8187.622807934619, -29199.469590123845, -41752.186924479836, -31624.700918758026, -18584.96142446535, -22943.68570371696, -45617.60820360282, -22981.437800101972, -0.014, 1.012, 0.01, 192.0, 0.0, 0.0, 0.0, 0.0, 0.0, 0.0, 0.0, 0.0, 0.0, 1.695761207097499E9, 0.0, 2023-09-26 15:46:47.097
118.0, 21716.68669184288, 42116.900338757085, -42664.62983663438, -42782.73645433622, -20774.135979907034, -22559.772140952606, -187500.02235174447, -3887.4377474114594, -8218.021180393836, -29223.005977035282, -41764.055700785604, -31629.618302538194, -18579.30643311816, -22950.435930542462, -45629.7228490976, -22992.926596752, -0.014, 1.008, 0.01, 192.0, 127.5, 72.0, 15.5, 64.0, 0.0, 40.0, 0.0, 0.0, 0.0, 1.695761207097507E9, 0.0, 2023-09-26 15:46:47.097
120.0, 21742.502956688757, 42148.63981588362, -42644.02152824659, -42780.255410701684, -20767.58691878163, -22561.806149698037, -187500.02235174447, -3841.2143398778844, -8192.696653925974, -29186.416171361947, -41757.908971060395, -31619.06827915529, -18604.094517719095, -22934.901468146025, -45624.537244383966, -22987.517474593817, -0.014, 1.008, 0.01, 192.0, 0.0, 0.0, 0.0, 0.0, 0.0, 0.0, 0.0, 0.0, 0.0, 1.695761207157275E9, 0.0, 2023-09-26 15:46:47.157
122.0, 21720.732357589288, 42127.740934817906, -42665.14392675686, -42791.47598641825, -20779.16512240948, -22568.89165269037, -187500.02235174447, -3866.918846001488, -8203.425491264521, -29211.137200729514, -41765.5085641752, -31628.567770548794, -18598.752450794276, -22936.846069913634, -45634.103791010835, -23000.41443114453, -0.014, 1.008, 0.01, 192.0, 0.0, 0.0, 0.0, 0.0, 0.0, 0.0, 0.0, 0.0, 0.0, 1.6957612071573E9, 0.0, 2023-09-26 15:46:47.157
124.0, 21722.49814540126, 42132.85948429817, -42659.62304587639, -42801.82484410106, -20775.812360741184, -22576.982984183192, -187500.02235174447, -3843.42716257896, -8222.15625311807, -29226.135221259025, -41781.57946843856, -31650.45012837054, -18605.30151191968, -22964.83045397168, -45644.63146264928, -23008.952797526457, -0.014, 1.008, 0.01, 192.0, 0.0, 0.0, 0.0, 0.0, 0.0, 0.0, 0.0, 0.0, 0.0, 1.695761207157345E9, 0.0, 2023-09-26 15:46:47.157
126.0, 21718.832459310586, 42126.28807142831, -42661.23237147718, -42794.873451575455, -20777.891072975526, -22570.053943402047, -187500.02235174447, -3859.3863081200493, -8197.904610384061, -29221.26254096777, -41771.945866578324, -31644.996302723444, -18606.128526464527, -22958.437855057462, -45648.632424906784, -23010.584474871695, -0.014, 1.008, 0.01, 192.0, 0.0, 0.0, 0.0, 0.0, 0.0, 0.0, 0.0, 0.0, 0.0, 1.695761207157356E9, 0.0, 2023-09-26 15:46:47.157
128.0, 21720.5758953781, 42133.53003663183, -42661.99233078866, -42801.22134700076, -20783.21078815589, -22579.464027817732, -187500.02235174447, -3855.9888429628427, -8221.664514740052, -29222.02250027925, -41773.66695090139, -31651.92534350459, -18609.548343366187, -22976.69923027745, -45649.14651502926, -23008.259893448343, -0.01, 1.006, 0.004, 192.0, 127.5, 88.0, 15.5, 56.0, 0.0, 16.0, 0.0, 0.0, 0.0, 1.695761207157372E9, 0.0, 2023-09-26 15:46:47.157
130.0, 21720.039453511174, 42144.28122571483, -42660.718281354704, -42787.83265207204, -20780.39446835452, -22569.785722468583, -187500.02235174447, -3854.4018691065157, -8221.843328695695, -29219.87673281154, -41778.65138991492, -31645.845669012746, -18604.5415526082, -22966.573890039195, -45656.679052910695, -23015.255989462854, -0.01, 1.006, 0.004, 192.0, 0.0, 0.0, 0.0, 0.0, 0.0, 0.0, 0.0, 0.0, 0.0, 1.695761207157382E9, 0.0, 2023-09-26 15:46:47.157
132.0, 21719.57006687761, 42139.18502797902, -42644.40150790233, -42786.58095438254, -20775.767657252272, -22566.4776642892, -187500.02235174447, -3876.5747996061805, -8226.760712475862, -29227.4986776708, -41778.09259630353, -31650.98657023747, -18604.608607841565, -22955.643887000548, -45645.5255324275, -23004.817724802226, -0.01, 1.006, 0.004, 192.0, 0.0, 0.0, 0.0, 0.0, 0.0, 0.0, 0.0, 0.0, 0.0, 1.695761207157391E9, 0.0, 2023-09-26 15:46:47.157
134.0, 21725.090947758075, 42156.97701656545, -42649.944740527244, -42782.44588165831, -20775.521788063263, -22559.302754319044, -187500.02235174447, -3861.0850406986524, -8189.187430046491, -29211.83010480763, -41760.300607717116, -31631.518200816896, -18601.032328728717, -22959.421331813497, -45641.52457017, -23001.464963133927, -0.01, 1.006, 0.004, 192.0, 0.0, 0.0, 0.0, 0.0, 0.0, 0.0, 0.0, 0.0, 0.0, 1.6957612071574E9, 0.0, 2023-09-26 15:46:47.157
136.0, 21703.58856959207, 42139.36384193467, -42663.512249411615, -42798.49443417721, -20784.68600328994, -22572.534987036586, -187500.02235174447, -3876.6418548395463, -8250.095933687202, -29240.395634221513, -41787.43562548586, -31655.926305762092, -18593.388032125, -22965.903337705535, -45648.34185222886, -23003.968358512924, -0.01, 1.006, 0.004, 192.0, 0.0, 0.0, 0.0, 0.0, 0.0, 0.0, 0.0, 0.0, 0.0, 1.695761207216252E9, 0.0, 2023-09-26 15:46:47.216
138.0, 21735.462157185335, 42180.46869998798, -42638.8135717885, -42778.17669846734, -20777.82401774216, -22567.483492789688, -187500.02235174447, -3816.873290166055, -8204.520726742832, -29239.389805721024, -41777.131471291956, -31644.057529456324, -18617.25969520327, -22973.055895931233, -45644.56440741592, -23011.813820816737, -0.01, 1.014, 0.008, 192.0, 127.5, 88.0, 15.5, 88.0, 0.0, 32.0, 0.0, 0.0, 0.0, 1.695761207216296E9, 0.0, 2023-09-26 15:46:47.216
140.0, 21717.603113365545, 42156.597036909705, -42644.82619104698, -42780.32246593505, -20771.856101972593, -22567.84112070097, -187500.02235174447, -3868.9305030024652, -8199.29041854029, -29207.270348938746, -41765.68737813084, -31635.966197963502, -18605.256808430768, -22934.566191979193, -45633.74616309955, -23001.956701511946, -0.01, 1.014, 0.008, 192.0, 0.0, 0.0, 0.0, 0.0, 0.0, 0.0, 0.0, 0.0, 0.0, 1.695761207216312E9, 0.0, 2023-09-26 15:46:47.216
142.0, 21732.265857728227, 42182.122729077666, -42650.77175507209, -42779.56250662357, -20777.77931425325, -22560.912079919824, -187500.02235174447, -3821.2318803348403, -8221.843328695695, -29223.140087502015, -41776.55032593612, -31632.63578803966, -18602.39578514049, -22954.660410244516, -45639.915244569216, -23003.387213157086, -0.01, 1.014, 0.008, 192.0, 0.0, 0.0, 0.0, 0.0, 0.0, 0.0, 0.0, 0.0, 0.0, 1.695761207216324E9, 0.0, 2023-09-26 15:46:47.216
144.0, 21710.53996211767, 42150.53971416232, -42647.26253119261, -42781.55181188009, -20776.907596219495, -22566.924699178304, -187500.02235174447, -3882.72152933139, -8212.43324428001, -29225.01763403626, -41772.05762530061, -31644.683378301073, -18610.956503266872, -22938.611857725606, -45636.56248290092, -22999.94504451097, -0.01, 1.014, 0.008, 192.0, 0.0, 0.0, 0.0, 0.0, 0.0, 0.0, 0.0, 0.0, 0.0, 1.695761207216374E9, 0.0, 2023-09-26 15:46:47.216
146.0, 21738.077311286608, 42187.978886124954, -42634.29851940853, -42775.87446878845, -20772.504302561796, -22560.174472352803, -187500.02235174447, -3811.0841883521307, -8219.652857739075, -29234.964160318872, -41773.93517183485, -31632.38991885065, -18609.30247417718, -22966.417427828008, -45634.01438403301, -23002.15786721204, -0.01, 1.014, 0.008, 192.0, 0.0, 0.0, 0.0, 0.0, 0.0, 0.0, 0.0, 0.0, 0.0, 1.695761207216383E9, 0.0, 2023-09-26 15:46:47.216
148.0, 21711.54579061816, 42142.202513480486, -42644.96030151371, -42782.490585147214, -20774.001869440304, -22565.04715264406, -187500.02235174447, -3888.845907312144, -8228.146520632092, -29215.65225310949, -41769.084843288045, -31634.669796785096, -18596.71844204884, -22968.943174951455, -45632.31565145441, -23001.532018367296, -0.008, 1.014, 0.014, 192.0, 127.5, 96.0, 15.5, 88.0, 0.0, 56.0, 0.0, 0.0, 0.0, 1.695761207216393E9, 0.0, 2023-09-26 15:46:47.216
150.0, 21743.68759914489, 42178.479394731454, -42641.3169671675, -42787.58678288302, -20774.650070029507, -22568.578728267996, -187500.02235174447, -3805.3174382826614, -8200.564467974242, -29220.748450845298, -41763.921590318874, -31628.657177526617, -18599.19948568338, -22963.891680704557, -45638.10475326834, -23005.041242246778, -0.008, 1.014, 0.014, 192.0, 0.0, 0.0, 0.0, 0.0, 0.0, 0.0, 0.0, 0.0, 0.0, 1.695761207276307E9, 0.0, 2023-09-26 15:46:47.276
152.0, 21714.49622088626, 42133.328870931735, -42642.43455439026, -42771.33706466402, -20769.17389263796, -22559.436864785777, -187500.02235174447, -3883.906171787521, -8208.231116322413, -29231.45493643939, -41764.59214265253, -31638.626055553683, -18577.920624961927, -22968.585547040173, -45637.724773612594, -23001.889646278578, -0.008, 1.014, 0.014, 192.0, 0.0, 0.0, 0.0, 0.0, 0.0, 0.0, 0.0, 0.0, 0.0, 1.695761207276331E9, 0.0, 2023-09-26 15:46:47.276
154.0, 21739.418415953925, 42172.06444407278, -42634.96907174219, -42768.587800096015, -20770.984383938838, -22561.046190386558, -187500.02235174447, -3821.9694879018653, -8205.414796521043, -29205.079877982127, -41765.48621243075, -31618.30831984381, -18608.58721835461, -22954.369837566595, -45631.242767720556, -22993.463038618927, -0.008, 1.014, 0.014, 192.0, 0.0, 0.0, 0.0, 0.0, 0.0, 0.0, 0.0, 0.0, 0.0, 1.695761207276341E9, 0.0, 2023-09-26 15:46:47.276
156.0, 21715.122069731005, 42131.63013835313, -42632.44332461874, -42775.76271006617, -20766.312869347676, -22563.527234021098, -187500.02235174447, -3890.72345384639, -8210.041607623292, -29226.78342184823, -41761.52995366215, -31635.25094214093, -18606.664968331454, -22958.795482968748, -45631.17571248719, -22998.73805031038, -0.008, 1.014, 0.014, 192.0, 0.0, 0.0, 0.0, 0.0, 0.0, 0.0, 0.0, 0.0, 0.0, 1.695761207276351E9, 0.0, 2023-09-26 15:46:47.276
158.0, 21732.71289261733, 42166.96824633697, -42634.566740341994, -42778.35551242298, -20767.11753214807, -22564.778931710593, -187500.02235174447, -3816.13568259903, -8199.737453429396, -29228.258636982282, -41761.77582285116, -31631.898180472635, -18590.39289836799, -22966.238613872363, -45626.615956618305, -22994.424163630505, -0.014, 1.012, 0.014, 192.0, 127.5, 72.0, 15.5, 80.0, 0.0, 56.0, 0.0, 0.0, 0.0, 1.69576120727636E9, 0.0, 2023-09-26 15:46:47.276
160.0, 21710.808183051133, 42129.394963907595, -42639.327661910975, -42777.327332178036, -20771.319660105666, -22560.822672942006, -187500.02235174447, -3887.616561367102, -8215.696598970486, -29220.72609910084, -41768.391939209934, -31636.25677064142, -18596.047889715184, -22946.770244451793, -45634.21554973311, -22996.704041564946, -0.014, 1.012, 0.014, 192.0, 0.0, 0.0, 0.0, 0.0, 0.0, 0.0, 0.0, 0.0, 0.0, 1.69576120727637E9, 0.0, 2023-09-26 15:46:47.276
162.0, 21730.00833153824, 42159.1004322887, -42634.432629875264, -42768.11841346245, -20769.755037993793, -22551.27847805959, -187500.02235174447, -3828.563252516181, -8223.184433363012, -29225.44231718091, -41767.207296753804, -31633.753375262426, -18592.181037924416, -22939.707093203913, -45637.255386979035, -22992.010175229334, -0.014, 1.012, 0.014, 192.0, 0.0, 0.0, 0.0, 0.0, 0.0, 0.0, 0.0, 0.0, 0.0, 1.69576120727638E9, 0.0, 2023-09-26 15:46:47.276
164.0, 21702.6721480694, 42128.09856272919, -42654.23627546267, -42775.449785643796, -20780.617985799076, -22564.51071077713, -187500.02235174447, -3864.9295407449654, -8226.045456653292, -29228.660968382475, -41776.75149163622, -31637.441413097553, -18584.760258765255, -22971.267756374808, -45638.931767813185, -22989.529131594794, -0.014, 1.012, 0.014, 192.0, 0.0, 0.0, 0.0, 0.0, 0.0, 0.0, 0.0, 0.0, 0.0, 1.695761207276389E9, 0.0, 2023-09-26 15:46:47.276
166.0, 21727.34847394806, 42157.021720054356, -42629.38113562836, -42772.767576309154, -20769.620927527063, -22563.862510187926, -187500.02235174447, -3818.795540189212, -8230.67226775554, -29248.464613969878, -41783.72523590628, -31650.293666159352, -18604.385090397012, -22978.844997745156, -45640.98812830307, -22994.670032819515, -0.014, 1.012, 0.014, 192.0, 0.0, 0.0, 0.0, 0.0, 0.0, 0.0, 0.0, 0.0, 0.0, 1.695761207338141E9, 0.0, 2023-09-26 15:46:47.338
168.0, 21713.24452319676, 42135.7428593329, -42638.72416481068, -42774.33219842103, -20769.01743042677, -22564.98009741069, -187500.02235174447, -3874.6078460941135, -8200.139784829591, -29235.701767885897, -41772.75052937872, -31643.610494567216, -18595.846724015086, -22973.569986053706, -45638.88706432427, -22996.12289620911, -0.02, 1.012, 0.006, 192.0, 127.5, 48.0, 15.5, 80.0, 0.0, 24.0, 0.0, 0.0, 0.0, 1.695761207338166E9, 0.0, 2023-09-26 15:46:47.338
170.0, 21724.7780233357, 42149.22096123946, -42623.748496025626, -42777.953181022785, -20760.881395445038, -22566.879995689393, -187500.02235174447, -3867.2094186794066, -8201.369130774634, -29244.88833485703, -41768.660160143394, -31647.365587635708, -18593.477439102822, -22972.49710231985, -45629.275814208486, -22991.540788595772, -0.02, 1.012, 0.006, 192.0, 0.0, 0.0, 0.0, 0.0, 0.0, 0.0, 0.0, 0.0, 0.0, 1.695761207338176E9, 0.0, 2023-09-26 15:46:47.338
172.0, 21712.730433074288, 42139.0956210012, -42641.62989158987, -42788.45850091678, -20778.941604964926, -22578.391144083875, -187500.02235174447, -3872.327968159672, -8220.658686239563, -29234.338311474123, -41780.50658470471, -31649.041968469857, -18599.601817083578, -22963.288183604265, -45644.296186482454, -23008.662224848536, -0.02, 1.012, 0.006, 192.0, 0.0, 0.0, 0.0, 0.0, 0.0, 0.0, 0.0, 0.0, 0.0, 1.695761207338185E9, 0.0, 2023-09-26 15:46:47.338
174.0, 21714.876200542, 42139.78852507932, -42634.34322289744, -42771.717044319754, -20765.284689102733, -22564.868338688415, -187500.02235174447, -3882.632122353569, -8230.87343345564, -29239.009826065285, -41781.80298588312, -31653.668779572105, -18584.737907020797, -22989.439724616972, -45643.670337637705, -22998.670995077016, -0.02, 1.012, 0.006, 192.0, 0.0, 0.0, 0.0, 0.0, 0.0, 0.0, 0.0, 0.0, 0.0, 1.695761207338194E9, 0.0, 2023-09-26 15:46:47.338
176.0, 21719.234790710783, 42146.181123993534, -42627.235368160655, -42767.60432333998, -20769.59857578261, -22560.241527586168, -187500.02235174447, -3866.784735534756, -8213.39436929159, -29242.40729122249, -41776.997360825226, -31640.861229999213, -18591.465782101845, -22983.11418093612, -45640.22816899159, -22993.284224663286, -0.02, 1.012, 0.006, 192.0, 0.0, 0.0, 0.0, 0.0, 0.0, 0.0, 0.0, 0.0, 0.0, 1.695761207338203E9, 0.0, 2023-09-26 15:46:47.338
178.0, 21717.58076162109, 42143.14128674761, -42626.63187106036, -42765.74912855019, -20770.291479860723, -22564.868338688415, -187500.02235174447, -3868.4834681133593, -8217.015351893348, -29229.867962583063, -41768.92838107686, -31639.810698009816, -18595.712613548352, -22964.74104699386, -45633.56734914391, -22986.77986702679, -0.024, 1.01, 0.012, 192.0, 127.5, 32.0, 15.5, 72.0, 0.0, 48.0, 0.0, 0.0, 0.0, 1.695761207338212E9, 0.0, 2023-09-26 15:46:47.338
180.0, 21719.57006687761, 42152.10433627419, -42623.27910939206, -42769.9959599967, -20766.044648414212, -22563.683696232285, -187500.02235174447, -3855.877084240566, -8218.803491449773, -29237.489907442323, -41774.40455846841, -31636.323825874788, -18594.885599003508, -22974.01702094281, -45636.204854989635, -22992.568968840715, -0.024, 1.01, 0.012, 192.0, 0.0, 0.0, 0.0, 0.0, 0.0, 0.0, 0.0, 0.0, 0.0, 1.695761207396826E9, 0.0, 2023-09-26 15:46:47.396
182.0, 21706.38253764898, 42136.94985353349, -42633.873836263876, -42785.75393983769, -20778.315756120177, -22575.41836207132, -187500.02235174447, -3870.0927937141414, -8220.234003094913, -29249.78336689274, -41776.81854686958, -31652.640599327162, -18592.96334898035, -22976.29689887725, -45639.04352653546, -22998.31336716573, -0.024, 1.01, 0.012, 192.0, 0.0, 0.0, 0.0, 0.0, 0.0, 0.0, 0.0, 0.0, 0.0, 1.695761207396852E9, 0.0, 2023-09-26 15:46:47.396
184.0, 21716.083194742587, 42151.88081882964, -42627.034202460556, -42774.13103272093, -20767.609270526085, -22565.404780555342, -187500.02235174447, -3850.691479526935, -8244.686811529018, -29248.777538392253, -41786.18392779636, -31648.661988814118, -18594.125639692025, -22980.58843381267, -45642.79861960395, -23001.84494278967, -0.024, 1.01, 0.012, 192.0, 0.0, 0.0, 0.0, 0.0, 0.0, 0.0, 0.0, 0.0, 0.0, 1.695761207396861E9, 0.0, 2023-09-26 15:46:47.396
186.0, 21707.231903938282, 42129.77494356334, -42619.56871981248, -42767.58197159552, -20765.754075736295, -22564.533062521587, -187500.02235174447, -3909.744788377856, -8203.425491264521, -29251.97383784936, -41767.07318628707, -31654.965180750514, -18588.314186133648, -22933.806232667714, -45629.16405548621, -22992.188989184975, -0.024, 1.01, 0.012, 192.0, 0.0, 0.0, 0.0, 0.0, 0.0, 0.0, 0.0, 0.0, 0.0, 1.695761207396871E9, 0.0, 2023-09-26 15:46:47.396
188.0, 21716.53022963169, 42162.98963582393, -42635.08083046447, -42774.823936799046, -20780.372116610066, -22567.952879423246, -187500.02235174447, -3841.1249329000634, -8217.48473852691, -29236.59583766411, -41773.59989566802, -31639.967160221004, -18591.041098957194, -22981.951890224445, -45639.71407886912, -22990.780829284293, -0.02, 1.014, 0.01, 192.0, 127.5, 48.0, 15.5, 88.0, 0.0, 40.0, 0.0, 0.0, 0.0, 1.695761207396915E9, 0.0, 2023-09-26 15:46:47.396
190.0, 21704.750860303746, 42133.038298253814, -42618.94287096773, -42765.74912855019, -20773.532482806742, -22567.23762360068, -187500.02235174447, -3899.7088551174234, -8232.505110800876, -29246.944695346916, -41780.84186087154, -31657.245058684955, -18593.63390131401, -22984.008250714334, -45644.83262834938, -22996.391117142575, -0.02, 1.014, 0.01, 192.0, 0.0, 0.0, 0.0, 0.0, 0.0, 0.0, 0.0, 0.0, 0.0, 1.695761207396926E9, 0.0, 2023-09-26 15:46:47.396
192.0, 21722.43109016789, 42163.168449779565, -42619.8592924904, -42775.40508215488, -20775.141808407523, -22570.76919922462, -187500.02235174447, -3842.3766305895606, -8214.802529192273, -29244.709520901386, -41769.48717468824, -31638.089613686756, -18595.466744359346, -22988.746820538858, -45641.36810795881, -22993.328928152197, -0.02, 1.014, 0.01, 192.0, 0.0, 0.0, 0.0, 0.0, 0.0, 0.0, 0.0, 0.0, 0.0, 1.695761207396935E9, 0.0, 2023-09-26 15:46:47.396
194.0, 21699.922883501396, 42128.076210984735, -42620.39573435733, -42768.83366928502, -20768.235119370835, -22566.85764394494, -187500.02235174447, -3904.3133144752164, -8222.133901373614, -29257.07003558517, -41777.60085792552, -31656.373340651196, -18594.662081558952, -22976.31925062171, -45640.22816899159, -22996.569931098216, -0.02, 1.014, 0.01, 192.0, 0.0, 0.0, 0.0, 0.0, 0.0, 0.0, 0.0, 0.0, 0.0, 1.695761207396945E9, 0.0, 2023-09-26 15:46:47.396
196.0, 21728.82368908211, 42170.99156033892, -42619.16638841229, -42770.80062279709, -20774.717125262872, -22572.75850448114, -187500.02235174447, -3820.1813483454407, -8236.237852124912, -29233.421889951456, -41783.25584927271, -31642.51525908891, -18594.6397298145, -22982.980070469388, -45641.926901570194, -22998.045146232267, -0.02, 1.014, 0.01, 192.0, 0.0, 0.0, 0.0, 0.0, 0.0, 0.0, 0.0, 0.0, 0.0, 1.695761207455837E9, 0.0, 2023-09-26 15:46:47.455
198.0, 21700.146400945952, 42128.232673195926, -42623.99436521463, -42774.01927399865, -20778.807494498193, -22574.546644037564, -187500.02235174447, -3889.6282183680796, -8218.53527051631, -29243.904858100996, -41780.68539866035, -31656.775672051393, -18578.47941857331, -22973.435875586973, -45641.25634923653, -22995.0276607308, -0.022, 1.018, 0.014, 192.0, 127.5, 40.0, 15.5, 104.0, 0.0, 56.0, 0.0, 0.0, 0.0, 1.695761207455859E9, 0.0, 2023-09-26 15:46:47.455
200.0, 21731.237677483285, 42175.23839178543, -42608.370495840376, -42770.532401863624, -20772.705468261895, -22572.333821336488, -187500.02235174447, -3805.9432871274103, -8216.255392581868, -29240.373282477056, -41778.182003281356, -31652.484137115975, -18588.71651753384, -22981.750724524347, -45647.716003384114, -23000.682652077994, -0.022, 1.018, 0.014, 192.0, 0.0, 0.0, 0.0, 0.0, 0.0, 0.0, 0.0, 0.0, 0.0, 1.695761207455869E9, 0.0, 2023-09-26 15:46:47.455
202.0, 21704.996729492752, 42131.853655797684, -42610.22569063016, -42770.73356756372, -20768.995078682314, -22573.026725414602, -187500.02235174447, -3895.663189371013, -8217.52944201582, -29245.78240463524, -41771.29766598912, -31658.653218585638, -18597.277235660225, -22964.83045397168, -45634.103791010835, -22992.725431051902, -0.022, 1.018, 0.014, 192.0, 0.0, 0.0, 0.0, 0.0, 0.0, 0.0, 0.0, 0.0, 0.0, 1.695761207455878E9, 0.0, 2023-09-26 15:46:47.455
204.0, 21729.226020482307, 42174.836060385234, -42611.365629597385, -42774.242791443205, -20774.69477351842, -22572.75850448114, -187500.02235174447, -3827.9597554158877, -8237.95893644797, -29240.485041199332, -41774.203392768315, -31648.952561492035, -18587.10719193306, -22947.753721207824, -45638.12710501279, -22997.061669476232, -0.022, 1.018, 0.014, 192.0, 0.0, 0.0, 0.0, 0.0, 0.0, 0.0, 0.0, 0.0, 0.0, 1.695761207455887E9, 0.0, 2023-09-26 15:46:47.455
206.0, 21710.607017351034, 42141.46490591346, -42605.12949289435, -42755.377919122926, -20763.608308268584, -22554.69829496125, -187500.02235174447, -3899.552392906236, -8196.094119083182, -29230.35970096108, -41768.190773509836, -31650.13720394817, -18582.189808152893, -22989.797352528258, -45635.80252358944, -22986.77986702679, -0.022, 1.018, 0.014, 192.0, 0.0, 0.0, 0.0, 0.0, 0.0, 0.0, 0.0, 0.0, 0.0, 1.695761207455896E9, 0.0, 2023-09-26 15:46:47.455
208.0, 21723.325159946104, 42170.2539527719, -42607.454074317706, -42758.41775636885, -20764.703543746895, -22559.392161296866, -187500.02235174447, -3848.0539736812084, -8208.119357600137, -29241.870849355564, -41768.92838107686, -31651.54536384885, -18577.183017394902, -22974.06172443172, -45631.242767720556, -22981.147227424055, -0.024, 1.01, 0.014, 192.0, 127.5, 32.0, 15.5, 72.0, 0.0, 56.0, 0.0, 0.0, 0.0, 1.695761207455905E9, 0.0, 2023-09-26 15:46:47.455
210.0, 21698.648834067444, 42144.41533618156, -42621.82624600247, -42769.437166385316, -20781.377945110555, -22573.138484136878, -187500.02235174447, -3893.9197533034985, -8238.741247503907, -29224.950578802895, -41785.91570686289, -31655.63573308417, -18578.39001159549, -22972.094770919655, -45647.06780279491, -22994.714736308426, -0.024, 1.01, 0.014, 192.0, 0.0, 0.0, 0.0, 0.0, 0.0, 0.0, 0.0, 0.0, 0.0, 1.695761207515936E9, 0.0, 2023-09-26 15:46:47.515
212.0, 21728.220191981818, 42182.41330175559, -42597.68636199074, -42764.22920992723, -20766.312869347676, -22568.13169337889, -187500.02235174447, -3836.364011331083, -8215.160157103557, -29237.4005004645, -41779.232535270756, -31655.971009251003, -18587.844799500086, -22978.420314600506, -45642.217474248115, -22996.614634587128, -0.024, 1.01, 0.014, 192.0, 0.0, 0.0, 0.0, 0.0, 0.0, 0.0, 0.0, 0.0, 0.0, 1.695761207515967E9, 0.0, 2023-09-26 15:46:47.515
214.0, 21705.466116126314, 42148.349243205696, -42609.37632434086, -42763.87158201594, -20762.82599721265, -22565.293021833066, -187500.02235174447, -3899.4182824395043, -8218.423511794033, -29231.052605039193, -41776.6620846584, -31654.2722766724, -18592.80688676916, -22970.68661101897, -45638.39532594625, -22994.826495030702, -0.024, 1.01, 0.014, 192.0, 0.0, 0.0, 0.0, 0.0, 0.0, 0.0, 0.0, 0.0, 0.0, 1.695761207515977E9, 0.0, 2023-09-26 15:46:47.515
216.0, 21716.28436044268, 42162.22967651244, -42604.436588816236, -42776.969704266754, -20764.81530246917, -22571.104475391447, -187500.02235174447, -3862.202627921418, -8228.168872376547, -29246.87764011355, -41785.04398882914, -31663.972933766003, -18579.708764518353, -22979.224977400896, -45638.909416068724, -22990.89258800657, -0.024, 1.01, 0.014, 192.0, 0.0, 0.0, 0.0, 0.0, 0.0, 0.0, 0.0, 0.0, 0.0, 1.695761207515986E9, 0.0, 2023-09-26 15:46:47.515
218.0, 21713.53509587468, 42148.840981583715, -42599.60861201389, -42759.66945405835, -20766.29051760322, -22567.28232708959, -187500.02235174447, -3891.5728201356915, -8234.270898612845, -29259.327561775157, -41782.40648298341, -31671.170195480612, -18589.25295940077, -22982.980070469388, -45644.05031729345, -22995.98878574238, -0.024, 1.012, 0.018000000000000002, 192.0, 127.5, 32.0, 15.5, 80.0, 0.0, 72.0, 0.0, 0.0, 0.0, 1.695761207515995E9, 0.0, 2023-09-26 15:46:47.515
220.0, 21724.330988446593, 42155.32298747575, -42587.2033938412, -42750.16996266484, -20764.21180536888, -22560.241527586168, -187500.02235174447, -3877.2230001953844, -8210.667456468042, -29232.796041106707, -41763.67572112986, -31651.36654989321, -18581.228683141315, -22966.84211097266, -45632.919148554705, -22983.203587913944, -0.024, 1.012, 0.018000000000000002, 192.0, 0.0, 0.0, 0.0, 0.0, 0.0, 0.0, 0.0, 0.0, 0.0, 1.695761207516005E9, 0.0, 2023-09-26 15:46:47.516
222.0, 21721.782889578688, 42153.95953106398, -42594.66887648927, -42767.470212873246, -20770.380886838542, -22574.41253357083, -187500.02235174447, -3878.00531125132, -8220.502224028376, -29219.206180477882, -41761.686415873344, -31640.861229999213, -18579.798171496175, -22946.189099095955, -45636.629538134286, -22989.350317639153, -0.024, 1.012, 0.018000000000000002, 192.0, 0.0, 0.0, 0.0, 0.0, 0.0, 0.0, 0.0, 0.0, 0.0, 1.695761207516014E9, 0.0, 2023-09-26 15:46:47.516
224.0, 21722.364034934526, 42156.06059504278, -42598.40161781331, -42764.385672138415, -20767.20693912589, -22571.19388236927, -187500.02235174447, -3863.5660843331916, -8223.832633952217, -29237.065224297672, -41779.590163182045, -31663.70471283254, -18580.781648252207, -22980.811951257223, -45647.246616750555, -23001.464963133927, -0.024, 1.012, 0.018000000000000002, 192.0, 0.0, 0.0, 0.0, 0.0, 0.0, 0.0, 0.0, 0.0, 0.0, 1.695761207516023E9, 0.0, 2023-09-26 15:46:47.516
226.0, 21725.58268613609, 42151.45613568499, -42595.33942882293, -42757.65779705737, -20761.753113478793, -22564.242489843666, -187500.02235174447, -3873.914942015999, -8226.313677586755, -29229.108003271584, -41770.44829969982, -31649.667817314607, -18586.6378052995, -22973.54763430925, -45635.2213782336, -22985.438762359474, -0.024, 1.012, 0.018000000000000002, 192.0, 0.0, 0.0, 0.0, 0.0, 0.0, 0.0, 0.0, 0.0, 0.0, 1.695761207577802E9, 0.0, 2023-09-26 15:46:47.577
228.0, 21721.268799456215, 42144.95177804849, -42600.949716681214, -42767.80548904008, -20775.63354678554, -22575.619527771418, -187500.02235174447, -3863.3202151441833, -8222.379770562622, -29240.30622724369, -41776.304456747115, -31663.056512243333, -18579.01586044024, -22977.72741052239, -45644.60911090483, -22991.719602551413, -0.018000000000000002, 1.014, 0.018000000000000002, 192.0, 127.5, 56.0, 15.5, 88.0, 0.0, 72.0, 0.0, 0.0, 0.0, 1.695761207577825E9, 0.0, 2023-09-26 15:46:47.577
230.0, 21737.25029674176, 42158.005196810394, -42589.86325143138, -42756.60726506797, -20769.48681706033, -22566.41060905583, -187500.02235174447, -3850.624424293569, -8202.19614531948, -29235.92528533045, -41759.875924572465, -31651.187735937565, -18565.53775853369, -22973.346468609154, -45650.26410225202, -22994.826495030702, -0.018000000000000002, 1.014, 0.018000000000000002, 192.0, 0.0, 0.0, 0.0, 0.0, 0.0, 0.0, 0.0, 0.0, 0.0, 1.695761207577875E9, 0.0, 2023-09-26 15:46:47.577
232.0, 21715.457345897838, 42136.83809481122, -42600.167405625274, -42772.499355375694, -20779.366288109577, -22579.329917351, -187500.02235174447, -3878.9217327739875, -8230.180529377523, -29227.431622437434, -41767.341407220534, -31660.083730230777, -18596.405517626466, -22968.54084355126, -45651.918131341714, -22994.446515374962, -0.018000000000000002, 1.014, 0.018000000000000002, 192.0, 0.0, 0.0, 0.0, 0.0, 0.0, 0.0, 0.0, 0.0, 0.0, 1.695761207577885E9, 0.0, 2023-09-26 15:46:47.577
234.0, 21731.371787950015, 42158.563990421775, -42597.48519629064, -42770.97943675273, -20774.560663051685, -22584.113190664433, -187500.02235174447, -3831.75955197329, -8218.579974005219, -29238.339273731624, -41766.62615139796, -31657.110948218222, -18584.693203531886, -22980.476675090395, -45654.19800927616, -23000.101506722156, -0.018000000000000002, 1.014, 0.018000000000000002, 192.0, 0.0, 0.0, 0.0, 0.0, 0.0, 0.0, 0.0, 0.0, 0.0, 1.6957612075779E9, 0.0, 2023-09-26 15:46:47.577
236.0, 21722.565200634624, 42135.60874886617, -42587.873946174856, -42756.070823201044, -20770.514997305276, -22566.097684633456, -187500.02235174447, -3874.0490524827305, -8236.617831780653, -29234.204201007393, -41776.55032593612, -31669.516166390917, -18578.501770317765, -22976.609823299626, -45655.002672076545, -22997.821628787715, -0.018000000000000002, 1.014, 0.018000000000000002, 192.0, 0.0, 0.0, 0.0, 0.0, 0.0, 0.0, 0.0, 0.0, 0.0, 1.695761207577919E9, 0.0, 2023-09-26 15:46:47.577
238.0, 21734.076349029106, 42158.139307277124, -42591.38317005434, -42763.60336108248, -20776.885244475037, -22573.65257425935, -187500.02235174447, -3823.779979202745, -8195.915305127539, -29229.957369560885, -41757.12666000446, -31648.25965741392, -18583.262691886746, -22974.665221532014, -45650.241750507565, -22989.21620717242, -0.014, 1.014, 0.02, 192.0, 127.5, 72.0, 15.5, 88.0, 0.0, 80.0, 0.0, 0.0, 0.0, 1.695761207577928E9, 0.0, 2023-09-26 15:46:47.577
240.0, 21709.265912683717, 42119.984879491916, -42595.87587068986, -42764.22920992723, -20776.1029334191, -22574.256071359643, -187500.02235174447, -3883.928523531976, -8220.613982750652, -29244.463651712376, -41771.968218322785, -31670.32082919131, -18578.367659851036, -22975.626346543595, -45654.64504416526, -22996.391117142575, -0.014, 1.014, 0.02, 192.0, 0.0, 0.0, 0.0, 0.0, 0.0, 0.0, 0.0, 0.0, 0.0, 1.695761207636605E9, 0.0, 2023-09-26 15:46:47.636
242.0, 21731.05886352764, 42150.383251951134, -42591.226707843154, -42772.298189675595, -20776.214692141377, -22581.4309813298, -187500.02235174447, -3813.8111011756782, -8228.370038076644, -29216.523971143244, -41770.09067178854, -31649.93603824807, -18581.72042151933, -22958.504910290827, -45651.784020874984, -22995.139419453077, -0.014, 1.014, 0.02, 192.0, 0.0, 0.0, 0.0, 0.0, 0.0, 0.0, 0.0, 0.0, 0.0, 1.695761207636644E9, 0.0, 2023-09-26 15:46:47.636
244.0, 21707.88010452749, 42111.04418170979, -42591.96431541018, -42757.478983101726, -20770.559700794187, -22572.445580058764, -187500.02235174447, -3897.29486671625, -8215.406026292567, -29237.78048012024, -41769.59893341052, -31671.974858281003, -18578.39001159549, -22962.952907437433, -45654.153305787244, -23006.047070747267, -0.014, 1.014, 0.02, 192.0, 0.0, 0.0, 0.0, 0.0, 0.0, 0.0, 0.0, 0.0, 0.0, 1.695761207636661E9, 0.0, 2023-09-26 15:46:47.636
246.0, 21729.963628049332, 42149.62329263965, -42586.44343452972, -42752.82982025502, -20771.58788103913, -22570.232757357688, -187500.02235174447, -3834.106485141097, -8225.129035130625, -29241.803794122196, -41767.78844210964, -31651.947695249048, -18569.33755509109, -22984.32117513671, -45649.99588131856, -22988.83622751668, -0.014, 1.014, 0.02, 192.0, 0.0, 0.0, 0.0, 0.0, 0.0, 0.0, 0.0, 0.0, 0.0, 1.695761207636678E9, 0.0, 2023-09-26 15:46:47.636
248.0, 21698.425316622892, 42106.260908396354, -42593.01484739958, -42759.11066044696, -20770.000907182803, -22575.23954811568, -187500.02235174447, -3898.837137083666, -8234.203843379479, -29225.86700032556, -41774.493965446236, -31660.93309652008, -18572.019764425728, -22970.284279618776, -45650.48761969658, -22992.770134540813, -0.016, 1.014, 0.014, 192.0, 127.5, 64.0, 15.5, 88.0, 0.0, 56.0, 0.0, 0.0, 0.0, 1.695761207636691E9, 0.0, 2023-09-26 15:46:47.636
250.0, 21734.34456996257, 42151.47848742944, -42578.68737920372, -42759.13301219142, -20770.693811260917, -22577.541777794573, -187500.02235174447, -3810.1677668294633, -8236.573128291742, -29236.41702370847, -41776.08093930256, -31662.162442465124, -18592.87394200253, -22975.000497698846, -45648.02892780649, -22993.887721763578, -0.016, 1.014, 0.014, 192.0, 0.0, 0.0, 0.0, 0.0, 0.0, 0.0, 0.0, 0.0, 0.0, 1.695761207636704E9, 0.0, 2023-09-26 15:46:47.636
252.0, 21710.852886540044, 42109.680725298014, -42586.66695197427, -42761.03291047012, -20773.39837234001, -22567.595251511964, -187500.02235174447, -3867.678805312968, -8225.82193920874, -29247.659951169488, -41773.97987532376, -31676.109931005234, -18584.290872131693, -22978.085038433677, -45652.40986971973, -22995.36293689763, -0.016, 1.014, 0.014, 192.0, 0.0, 0.0, 0.0, 0.0, 0.0, 0.0, 0.0, 0.0, 0.0, 1.695761207636749E9, 0.0, 2023-09-26 15:46:47.636
254.0, 21734.568087407126, 42146.69521411601, -42578.73208269264, -42746.16900040734, -20769.620927527063, -22562.94608866526, -187500.02235174447, -3819.4437407784158, -8200.609171463153, -29234.204201007393, -41761.97698855126, -31657.35681740723, -18576.91479646144, -22970.10546566313, -45650.28645399648, -22990.22203567291, -0.016, 1.014, 0.014, 192.0, 0.0, 0.0, 0.0, 0.0, 0.0, 0.0, 0.0, 0.0, 0.0, 1.695761207636761E9, 0.0, 2023-09-26 15:46:47.636
0.0, 21708.707119072333, 42110.70890554296, -42583.738873450624, -42753.634483055415, -20768.637450771028, -22568.22110035671, -187500.02235174447, -3896.691369615957, -8223.072674640736, -29226.31403521467, -41772.102328789515, -31659.256715685933, -18574.76902899373, -22968.87611971809, -45654.712099398625, -22997.709870065435, -0.016, 1.014, 0.014, 192.0, 0.0, 0.0, 0.0, 0.0, 0.0, 0.0, 0.0, 0.0, 0.0, 1.695761207697781E9, 0.0, 2023-09-26 15:46:47.697
2.0, 21727.415529181424, 42136.81574306676, -42583.895335661815, -42762.26225641516, -20770.671459516463, -22574.90427194885, -187500.02235174447, -3833.8382642076335, -8221.329238573222, -29224.280026469234, -41761.99934029572, -31653.713483061016, -18566.67769750091, -22959.376628324586, -45646.79958186145, -22995.094715964166, -0.012, 1.014, 0.012, 192.0, 127.5, 80.0, 15.5, 88.0, 0.0, 48.0, 0.0, 0.0, 0.0, 1.69576120769782E9, 0.0, 2023-09-26 15:46:47.697
4.0, 21705.332005659584, 42108.361972375154, -42583.470652517164, -42760.98820698121, -20776.125285163558, -22570.61273701343, -187500.02235174447, -3878.586456607158, -8227.520671787343, -29249.582201192643, -41776.75149163622, -31673.159500737132, -18581.139276163492, -22976.49806457735, -45652.99101507557, -22999.408602644042, -0.012, 1.014, 0.012, 192.0, 0.0, 0.0, 0.0, 0.0, 0.0, 0.0, 0.0, 0.0, 0.0, 1.695761207697837E9, 0.0, 2023-09-26 15:46:47.697
6.0, 21722.699311101354, 42130.601958108185, -42574.48525124613, -42754.103869688974, -20775.700602018907, -22565.00244915515, -187500.02235174447, -3826.32807807065, -8256.53323609033, -29232.59487540661, -41774.78453812415, -31668.42093091261, -18585.319052376635, -22977.660355289026, -45655.136782543275, -22992.0772304627, -0.012, 1.014, 0.012, 192.0, 0.0, 0.0, 0.0, 0.0, 0.0, 0.0, 0.0, 0.0, 0.0, 1.695761207697851E9, 0.0, 2023-09-26 15:46:47.697
8.0, 21715.81497380912, 42109.278393897825, -42577.56979198096, -42755.087346445005, -20773.286613617733, -22566.075332889002, -187500.02235174447, -3874.6749013274793, -8205.660665710053, -29239.45686095439, -41759.853572828004, -31660.12843371969, -18573.897310959972, -22948.40192179703, -45646.08432603888, -22986.35518388214, -0.012, 1.014, 0.012, 192.0, 0.0, 0.0, 0.0, 0.0, 0.0, 0.0, 0.0, 0.0, 0.0, 1.695761207697864E9, 0.0, 2023-09-26 15:46:47.697
10.0, 21725.78385183619, 42127.96445226246, -42584.051797873, -42759.6918058028, -20781.69086953293, -22577.675888261307, -187500.02235174447, -3839.694421254924, -8223.05032289628, -29245.22361102386, -41772.50466018971, -31670.74551233596, -18570.72336324732, -22952.939325921456, -45658.53424770049, -23005.1306492246, -0.012, 1.014, 0.012, 192.0, 0.0, 0.0, 0.0, 0.0, 0.0, 0.0, 0.0, 0.0, 0.0, 1.69576120769788E9, 0.0, 2023-09-26 15:46:47.697
12.0, 21717.826630810097, 42116.31919340124, -42579.6485042153, -42760.69763430329, -20774.337145607133, -22574.189016126278, -187500.02235174447, -3861.5097238433036, -8242.898671972594, -29231.298474228202, -41778.58433468155, -31664.64348609966, -18586.25782564376, -22983.44945710295, -45660.54590470147, -23005.89060853608, -0.012, 1.01, 0.01, 192.0, 127.5, 80.0, 15.5, 72.0, 0.0, 40.0, 0.0, 0.0, 0.0, 1.695761207697897E9, 0.0, 2023-09-26 15:46:47.697
14.0, 21728.734282104288, 42126.19866445049, -42563.979931352136, -42753.52272433314, -20773.756000251295, -22567.37173406741, -187500.02235174447, -3851.4067353495047, -8209.773386689829, -29243.860154612084, -41763.586314152046, -31678.926250806602, -18565.068371900128, -22975.73810526587, -45650.241750507565, -22993.284224663286, -0.012, 1.01, 0.01, 192.0, 0.0, 0.0, 0.0, 0.0, 0.0, 0.0, 0.0, 0.0, 0.0, 1.695761207757234E9, 0.0, 2023-09-26 15:46:47.757
16.0, 21724.95683729134, 42121.81772253725, -42563.890524374314, -42740.67047127133, -20775.275918874257, -22568.154045123345, -187500.02235174447, -3866.3824041345606, -8215.584840248208, -29233.89127658502, -41761.619360639976, -31662.140090720666, -18579.798171496175, -22969.367858096106, -45649.03475630698, -22987.763343782826, -0.012, 1.01, 0.01, 192.0, 0.0, 0.0, 0.0, 0.0, 0.0, 0.0, 0.0, 0.0, 0.0, 1.69576120775727E9, 0.0, 2023-09-26 15:46:47.757
18.0, 21728.82368908211, 42121.25892892587, -42555.26275101456, -42734.12141014593, -20766.312869347676, -22560.88972817537, -187500.02235174447, -3878.5417531182475, -8218.423511794033, -29221.77663109024, -41755.36087219249, -31658.899087774647, -18568.219967868325, -22958.370799824097, -45637.680070123686, -22979.336736123176, -0.012, 1.01, 0.01, 192.0, 0.0, 0.0, 0.0, 0.0, 0.0, 0.0, 0.0, 0.0, 0.0, 1.695761207757325E9, 0.0, 2023-09-26 15:46:47.757
20.0, 21725.33681694708, 42125.95279526148, -42577.92741989224, -42750.72875627622, -20775.410029340987, -22566.4776642892, -187500.02235174447, -3849.8421132376334, -8252.77814302184, -29223.296549713203, -41768.391939209934, -31651.567715593308, -18585.229645398813, -22967.043276672757, -45652.007538319536, -22985.774038526302, -0.012, 1.01, 0.01, 192.0, 0.0, 0.0, 0.0, 0.0, 0.0, 0.0, 0.0, 0.0, 0.0, 1.695761207757341E9, 0.0, 2023-09-26 15:46:47.757
22.0, 21713.8256685526, 42101.94702171648, -42571.177193066746, -42757.52368659063, -20774.515959562774, -22565.695353233263, -187500.02235174447, -3873.3561484046163, -8230.359343333166, -29239.07688129865, -41769.80009911062, -31678.814492084326, -18575.640747027486, -22962.75174173734, -45658.24367502257, -22990.93729149548, -0.02, 1.014, 0.008, 192.0, 127.5, 48.0, 15.5, 88.0, 0.0, 32.0, 0.0, 0.0, 0.0, 1.695761207757357E9, 0.0, 2023-09-26 15:46:47.757
24.0, 21725.605037880545, 42117.101504457176, -42570.64075119981, -42753.835648755514, -20772.19137813942, -22565.024800899602, -187500.02235174447, -3841.57196778917, -8234.382657335122, -29244.664817412475, -41769.59893341052, -31672.287782703377, -18598.618340327543, -22979.135570423077, -45659.4283174787, -22996.815800287226, -0.02, 1.014, 0.008, 192.0, 0.0, 0.0, 0.0, 0.0, 0.0, 0.0, 0.0, 0.0, 0.0, 1.695761207757375E9, 0.0, 2023-09-26 15:46:47.757
26.0, 21715.837325553577, 42090.122948899625, -42568.85261164339, -42747.21953239674, -20766.06700015867, -22564.3766003104, -187500.02235174447, -3890.9916747798534, -8218.714084471952, -29214.668776353454, -41760.18884899484, -31668.018599512412, -18580.66988952993, -22954.63805850006, -45645.41377370522, -22988.053916460743, -0.02, 1.014, 0.008, 192.0, 0.0, 0.0, 0.0, 0.0, 0.0, 0.0, 0.0, 0.0, 0.0, 1.695761207757392E9, 0.0, 2023-09-26 15:46:47.757
28.0, 21728.130785003996, 42107.55730957476, -42570.90897213328, -42762.776346537634, -20764.77059898026, -22568.51167303463, -187500.02235174447, -3840.677898010957, -8232.10277940068, -29238.316921987167, -41769.68834038834, -31664.844651799758, -18599.311244405657, -22957.677895745983, -45634.595529388855, -22990.780829284293, -0.02, 1.014, 0.008, 192.0, 0.0, 0.0, 0.0, 0.0, 0.0, 0.0, 0.0, 0.0, 0.0, 1.695761207757404E9, 0.0, 2023-09-26 15:46:47.757
30.0, 21713.982130763787, 42076.60014350416, -42573.79234716801, -42746.52662831863, -20756.72397097635, -22547.545736735552, -187500.02235174447, -3893.651532370035, -8209.281648311811, -29228.30334047119, -41765.821488597576, -31675.50643390494, -18581.854531986064, -22959.153110880034, -45624.738410084065, -22983.471808847407, -0.02, 1.014, 0.008, 192.0, 0.0, 0.0, 0.0, 0.0, 0.0, 0.0, 0.0, 0.0, 0.0, 1.695761207817423E9, 0.0, 2023-09-26 15:46:47.817
32.0, 21735.238639740783, 42102.25994613885, -42588.008056641585, -42751.93575047681, -20755.20405235339, -22543.74594017815, -187500.02235174447, -3824.0258483917537, -8199.871563896128, -29242.250829011304, -41765.15093626391, -31662.095387231755, -18596.3384623931, -22974.285241876274, -45619.73161932607, -22974.151131409544, -0.02, 1.012, 0.006, 192.0, 127.5, 48.0, 15.5, 80.0, 0.0, 24.0, 0.0, 0.0, 0.0, 1.695761207817457E9, 0.0, 2023-09-26 15:46:47.817
34.0, 21707.88010452749, 42060.529239240794, -42606.71646675068, -42756.85313425698, -20758.936793677425, -22545.779948923584, -187500.02235174447, -3886.5660293777028, -8218.065883882748, -29234.181849262935, -41774.51631719069, -31670.0749600023, -18594.997357725784, -22964.182253382478, -45621.60916586032, -22979.560253567728, -0.02, 1.012, 0.006, 192.0, 0.0, 0.0, 0.0, 0.0, 0.0, 0.0, 0.0, 0.0, 0.0, 1.69576120781748E9, 0.0, 2023-09-26 15:46:47.817
36.0, 21733.271686228716, 42100.49415832689, -42610.806835986004, -42761.815221526056, -20757.953316921394, -22549.467986758707, -187500.02235174447, -3819.846072178611, -8230.068770655247, -29233.623055651555, -41784.86517487349, -31656.060416228822, -18594.975005981327, -22940.601162982126, -45625.140741484254, -22984.25411990334, -0.02, 1.012, 0.006, 192.0, 0.0, 0.0, 0.0, 0.0, 0.0, 0.0, 0.0, 0.0, 0.0, 1.695761207817496E9, 0.0, 2023-09-26 15:46:47.817
38.0, 21712.35045341855, 42071.79451844627, -42607.87875746236, -42760.071785458545, -20756.500453531797, -22543.142443077857, -187500.02235174447, -3883.906171787521, -8197.971665617426, -29216.233398465327, -41773.66695090139, -31658.630866841184, -18606.620264842542, -22956.850881201135, -45627.44297116315, -22990.51260835083, -0.02, 1.012, 0.006, 192.0, 0.0, 0.0, 0.0, 0.0, 0.0, 0.0, 0.0, 0.0, 0.0, 1.695761207817513E9, 0.0, 2023-09-26 15:46:47.817
40.0, 21736.669151385922, 42106.417370607545, -42606.93998419523, -42764.385672138415, -20756.858081443082, -22545.69054194576, -187500.02235174447, -3831.111351384086, -8199.62569470712, -29222.78245959073, -41764.03334904115, -31649.198430681045, -18598.283064160714, -22965.25513711633, -45619.73161932607, -22981.057820446233, -0.02, 1.012, 0.006, 192.0, 0.0, 0.0, 0.0, 0.0, 0.0, 0.0, 0.0, 0.0, 0.0, 1.695761207817583E9, 0.0, 2023-09-26 15:46:47.817
42.0, 21713.937427274876, 42069.31347481173, -42620.14986516832, -42762.46342211526, -20761.931927434438, -22550.250297814644, -187500.02235174447, -3913.969268079909, -8215.786005948306, -29231.790212606218, -41771.74470087823, -31658.250887185444, -18595.131468192514, -22955.330962578173, -45625.1183897398, -22990.89258800657, -0.02, 1.008, 0.006, 192.0, 127.5, 48.0, 15.5, 64.0, 0.0, 24.0, 0.0, 0.0, 0.0, 1.695761207817599E9, 0.0, 2023-09-26 15:46:47.817
44.0, 21744.849889856567, 42111.91589974355, -42614.6066325434, -42767.42550938434, -20758.310944832676, -22542.516594233108, -187500.02235174447, -3843.941252701432, -8221.418645551044, -29228.884485827028, -41773.08580554555, -31649.041968469857, -18595.086764703603, -22954.168671866497, -45631.75685784303, -22994.78179154179, -0.02, 1.008, 0.006, 192.0, 0.0, 0.0, 0.0, 0.0, 0.0, 0.0, 0.0, 0.0, 0.0, 1.695761207876209E9, 0.0, 2023-09-26 15:46:47.876
46.0, 21723.749843090754, 42079.88584993909, -42619.23344364565, -42766.71025356177, -20758.48975878832, -22545.958762879225, -187500.02235174447, -3908.627201155091, -8194.551848715764, -29215.138162987016, -41762.64754088492, -31653.15468944963, -18583.419154097934, -22953.185195110465, -45624.7160583396, -22994.513570608327, -0.02, 1.008, 0.006, 192.0, 0.0, 0.0, 0.0, 0.0, 0.0, 0.0, 0.0, 0.0, 0.0, 1.695761207876246E9, 0.0, 2023-09-26 15:46:47.876
48.0, 21743.59819216707, 42110.97712647643, -42613.9584319542, -42779.80837581258, -20764.234157113333, -22550.674980959295, -187500.02235174447, -3838.7332962433456, -8207.67232271103, -29223.20714273538, -41765.665026386385, -31650.763052792914, -18590.16938092344, -22940.757625193313, -45628.918186297204, -23001.710832322937, -0.02, 1.008, 0.006, 192.0, 0.0, 0.0, 0.0, 0.0, 0.0, 0.0, 0.0, 0.0, 0.0, 1.695761207876264E9, 0.0, 2023-09-26 15:46:47.876
50.0, 21723.123994246005, 42078.56709701623, -42617.1100279224, -42762.731643048726, -20761.30607858969, -22535.02875984058, -187500.02235174447, -3906.6378958985683, -8225.48666304191, -29236.41702370847, -41770.560058422096, -31659.033198241377, -18613.571657368142, -22953.028732899278, -45628.60526187483, -22998.715698565924, -0.02, 1.008, 0.006, 192.0, 0.0, 0.0, 0.0, 0.0, 0.0, 0.0, 0.0, 0.0, 0.0, 1.695761207876276E9, 0.0, 2023-09-26 15:46:47.876
52.0, 21742.81588111113, 42111.222995665434, -42607.945812695725, -42759.96002673626, -20756.053418642692, -22540.95197212124, -187500.02235174447, -3844.4106393349934, -8215.316619314744, -29215.607549620578, -41763.4075001964, -31643.74460503395, -18593.25392165827, -22954.414541055507, -45619.66456409271, -22986.131666437588, -0.016, 1.01, 0.01, 192.0, 127.5, 64.0, 15.5, 72.0, 0.0, 40.0, 0.0, 0.0, 0.0, 1.695761207876292E9, 0.0, 2023-09-26 15:46:47.876
54.0, 21722.85577331254, 42080.75756797285, -42610.47155981917, -42762.79869828209, -20757.528633776743, -22538.783852909073, -187500.02235174447, -3886.946009033443, -8196.76467141684, -29218.91560779996, -41760.52412516167, -31648.43847136956, -18599.937093250406, -22954.34748582214, -45619.06106699241, -22992.188989184975, -0.016, 1.01, 0.01, 192.0, 0.0, 0.0, 0.0, 0.0, 0.0, 0.0, 0.0, 0.0, 0.0, 1.695761207876309E9, 0.0, 2023-09-26 15:46:47.876
56.0, 21731.05886352764, 42096.336733858196, -42611.14211215283, -42761.725814548234, -20757.908613432483, -22539.096777331448, -187500.02235174447, -3858.6487005530244, -8214.2884390698, -29221.3966514345, -41766.67085488688, -31654.942829006057, -18590.616415812543, -22947.954886907923, -45617.83172104737, -22988.12097169411, -0.016, 1.01, 0.01, 192.0, 0.0, 0.0, 0.0, 0.0, 0.0, 0.0, 0.0, 0.0, 0.0, 1.695761207876325E9, 0.0, 2023-09-26 15:46:47.876
58.0, 21720.531191889193, 42084.04327440778, -42622.3626878694, -42757.32252089054, -20770.693811260917, -22536.503974974632, -187500.02235174447, -3883.302674687228, -8235.030857924326, -29224.414136935968, -41777.73496839225, -31654.45109062804, -18596.24905541528, -22956.58266026767, -45633.90262531074, -22988.947986238956, -0.016, 1.01, 0.01, 192.0, 0.0, 0.0, 0.0, 0.0, 0.0, 0.0, 0.0, 0.0, 0.0, 1.695761207876341E9, 0.0, 2023-09-26 15:46:47.876
60.0, 21739.284305487196, 42104.62923105112, -42605.57652778346, -42757.344872634996, -20758.087427388124, -22534.380559251378, -187500.02235174447, -3860.1239156870743, -8220.412817050556, -29222.35777644608, -41764.30156997461, -31651.54536384885, -18602.842820029597, -22953.67693348848, -45625.9677560291, -22981.303689635242, -0.016, 1.01, 0.01, 192.0, 0.0, 0.0, 0.0, 0.0, 0.0, 0.0, 0.0, 0.0, 0.0, 1.695761207936591E9, 0.0, 2023-09-26 15:46:47.936
62.0, 21731.237677483285, 42099.73419901541, -42612.50556856461, -42774.1980879543, -20755.092293631114, -22542.002504110635, -187500.02235174447, -3873.5349623602588, -8218.267049582846, -29224.861171825072, -41769.75539562171, -31653.065282471813, -18592.96334898035, -22948.44662528594, -45630.393401431254, -22992.054878718245, -0.016, 1.016, 0.004, 192.0, 127.5, 64.0, 15.5, 96.0, 0.0, 16.0, 0.0, 0.0, 0.0, 1.695761207936679E9, 0.0, 2023-09-26 15:46:47.936
64.0, 21737.29500023067, 42099.91301297105, -42597.23932710163, -42763.60336108248, -20750.890165673514, -22542.36013202192, -187500.02235174447, -3873.132630960063, -8190.282665524801, -29221.3966514345, -41756.12083150397, -31654.920477261603, -18580.938110463394, -22943.529241505774, -45622.68204959417, -22991.719602551413, -0.016, 1.016, 0.004, 192.0, 0.0, 0.0, 0.0, 0.0, 0.0, 0.0, 0.0, 0.0, 0.0, 1.695761207936697E9, 0.0, 2023-09-26 15:46:47.936
66.0, 21731.505898416748, 42102.17053916104, -42614.11489416539, -42764.117451204955, -20761.440189056422, -22541.868393643905, -187500.02235174447, -3855.854732496111, -8208.968723889438, -29213.55118913069, -41760.36766295048, -31644.638674812162, -18594.773840281232, -22951.240593342853, -45631.086305509365, -22997.285186920784, -0.016, 1.016, 0.004, 192.0, 0.0, 0.0, 0.0, 0.0, 0.0, 0.0, 0.0, 0.0, 0.0, 1.695761207936712E9, 0.0, 2023-09-26 15:46:47.936
68.0, 21721.268799456215, 42087.887774454095, -42606.64941151731, -42763.80452678258, -20759.093255888612, -22541.153137821333, -187500.02235174447, -3870.9645117478985, -8220.859851939662, -29217.73096534383, -41769.04013979914, -31661.760111064927, -18601.792288040197, -22970.619555785604, -45637.3224422124, -22995.20647468644, -0.016, 1.016, 0.004, 192.0, 0.0, 0.0, 0.0, 0.0, 0.0, 0.0, 0.0, 0.0, 0.0, 1.695761207936726E9, 0.0, 2023-09-26 15:46:47.936
70.0, 21741.720645632824, 42110.4406846095, -42597.99928641311, -42756.58491332352, -20753.86294768607, -22537.576858708486, -187500.02235174447, -3865.108354700608, -8193.367206259634, -29210.578407118133, -41749.97410177876, -31645.912724246115, -18599.847686272584, -22963.288183604265, -45628.40409617473, -22990.64671881756, -0.016, 1.016, 0.004, 192.0, 0.0, 0.0, 0.0, 0.0, 0.0, 0.0, 0.0, 0.0, 0.0, 1.695761207936741E9, 0.0, 2023-09-26 15:46:47.936
72.0, 21728.957799548843, 42092.31341985624, -42612.17029239777, -42772.7452245647, -20758.310944832676, -22552.574879237996, -187500.02235174447, -3897.004294038331, -8207.00177037737, -29206.10805822707, -41757.774860593665, -31652.282971415876, -18592.784535024708, -22952.738160221357, -45631.28747120946, -22995.36293689763, -0.018000000000000002, 1.008, 0.002, 192.0, 127.5, 56.0, 15.5, 64.0, 0.0, 8.0, 0.0, 0.0, 0.0, 1.695761207936756E9, 0.0, 2023-09-26 15:46:47.936
74.0, 21735.864488585532, 42106.059742696256, -42614.47252207667, -42770.532401863624, -20753.93000291944, -22541.711931432717, -187500.02235174447, -3859.453363353415, -8223.318543829744, -29225.93405555893, -41780.4618812158, -31660.709579075527, -18599.512410105755, -22973.83820698717, -45642.66450913722, -23006.762326569835, -0.018000000000000002, 1.008, 0.002, 192.0, 0.0, 0.0, 0.0, 0.0, 0.0, 0.0, 0.0, 0.0, 0.0, 1.695761207997392E9, 0.0, 2023-09-26 15:46:47.997
76.0, 21717.379595920993, 42078.030655149305, -42618.38407735635, -42766.911419261865, -20754.82407269765, -22543.321257033498, -187500.02235174447, -3902.2122504964177, -8224.614945008152, -29229.510334671777, -41771.945866578324, -31671.75134083645, -18587.151895421972, -22966.126855150087, -45627.26415720751, -22989.752649039347, -0.018000000000000002, 1.008, 0.002, 192.0, 0.0, 0.0, 0.0, 0.0, 0.0, 0.0, 0.0, 0.0, 0.0, 1.695761207997425E9, 0.0, 2023-09-26 15:46:47.997
78.0, 21738.25612524225, 42117.99557423539, -42630.8116472735, -42780.478928146236, -20768.12336064856, -22555.07827461699, -187500.02235174447, -3834.084133396642, -8241.87049172765, -29240.194468521415, -41793.02356159968, -31668.867965801714, -18596.472572859835, -22975.24636688785, -45647.69365163966, -23006.181181213997, -0.018000000000000002, 1.008, 0.002, 192.0, 0.0, 0.0, 0.0, 0.0, 0.0, 0.0, 0.0, 0.0, 0.0, 1.695761207997444E9, 0.0, 2023-09-26 15:46:47.997
80.0, 21734.72454961831, 42102.93049847252, -42611.27622261956, -42758.70832904677, -20761.127264634048, -22545.46702450121, -187500.02235174447, -3893.2492009698394, -8217.19416584899, -29235.388843463523, -41774.762186379696, -31671.349009436253, -18591.711651290854, -22970.10546566313, -45642.061012036924, -23004.63891084658, -0.018000000000000002, 1.008, 0.002, 192.0, 0.0, 0.0, 0.0, 0.0, 0.0, 0.0, 0.0, 0.0, 0.0, 1.695761207997458E9, 0.0, 2023-09-26 15:46:47.997
82.0, 21755.891651617487, 42140.50378090188, -42604.72716149416, -42762.48577385971, -20759.2497180998, -22552.1725478378, -187500.02235174447, -3824.2493658363064, -8201.212668563447, -29200.296604668692, -41762.62518914046, -31639.65423579863, -18597.76897403824, -22941.249363571333, -45638.68589862417, -23002.85077129016, -0.02, 1.004, 0.004, 192.0, 127.5, 48.0, 15.5, 48.0, 0.0, 16.0, 0.0, 0.0, 0.0, 1.695761207997508E9, 0.0, 2023-09-26 15:46:47.997
84.0, 21736.82561359711, 42101.90231822757, -42603.14018763783, -42758.41775636885, -20762.423665812454, -22539.99084710966, -187500.02235174447, -3902.905154574532, -8218.065883882748, -29206.063354738162, -41765.106232775004, -31656.485099373473, -18595.82437227063, -22930.67698844397, -45635.73546835607, -22999.810934044235, -0.02, 1.004, 0.004, 192.0, 0.0, 0.0, 0.0, 0.0, 0.0, 0.0, 0.0, 0.0, 0.0, 1.695761207997526E9, 0.0, 2023-09-26 15:46:47.997
86.0, 21762.239547042795, 42139.31913844575, -42607.0070394286, -42757.590741824, -20767.229290870346, -22545.802300668038, -187500.02235174447, -3839.649717766013, -8201.257372052356, -29207.06918323865, -41757.32782570455, -31644.258695156423, -18590.214084412346, -22964.472826060395, -45648.721831884606, -23002.694309078972, -0.02, 1.004, 0.004, 192.0, 0.0, 0.0, 0.0, 0.0, 0.0, 0.0, 0.0, 0.0, 0.0, 1.695761207997542E9, 0.0, 2023-09-26 15:46:47.997
88.0, 21739.12784327601, 42104.00338220637, -42607.14114989533, -42755.62378831194, -20762.289555345724, -22537.487451730663, -187500.02235174447, -3906.1238057760966, -8228.414741565555, -29214.177037975438, -41764.2568664857, -31651.612419082216, -18598.95361649437, -22965.59041328316, -45649.50414294054, -23004.303634679753, -0.02, 1.004, 0.004, 192.0, 0.0, 0.0, 0.0, 0.0, 0.0, 0.0, 0.0, 0.0, 0.0, 1.695761207997557E9, 0.0, 2023-09-26 15:46:47.997
90.0, 21763.424189498925, 42144.90707455958, -42602.827263215455, -42758.28364590212, -20761.30607858969, -22537.286286030565, -187500.02235174447, -3818.5943744891138, -8216.233040837413, -29189.992450474794, -41752.72336634676, -31636.1673636636, -18597.746622293787, -22960.24834635834, -45640.876369580794, -22996.949910753956, -0.02, 1.004, 0.004, 192.0, 0.0, 0.0, 0.0, 0.0, 0.0, 0.0, 0.0, 0.0, 0.0, 1.695761208055864E9, 0.0, 2023-09-26 15:46:48.055
92.0, 21735.752729863256, 42103.98103046192, -42609.823359229966, -42758.864791257954, -20762.758941979282, -22537.487451730663, -187500.02235174447, -3885.3590351771163, -8217.998828649383, -29216.233398465327, -41771.25296250021, -31658.40734939663, -18590.325843134626, -22959.39898006904, -45647.246616750555, -23005.354166669153, -0.018000000000000002, 1.0, 0.01, 192.0, 127.5, 56.0, 15.5, 32.0, 0.0, 40.0, 0.0, 0.0, 0.0, 1.695761208055892E9, 0.0, 2023-09-26 15:46:48.055
94.0, 21758.484453974303, 42142.78365883633, -42602.402580070804, -42758.238942413205, -20764.792950724717, -22542.628352955384, -187500.02235174447, -3813.9005081534992, -8218.848194938684, -29212.16538097446, -41758.467764671776, -31645.55509633483, -18593.566846080645, -22962.997610926344, -45640.384631202774, -23003.16369571253, -0.018000000000000002, 1.0, 0.01, 192.0, 0.0, 0.0, 0.0, 0.0, 0.0, 0.0, 0.0, 0.0, 0.0, 1.695761208055909E9, 0.0, 2023-09-26 15:46:48.055
96.0, 21740.670113643424, 42111.781789276814, -42608.68342026275, -42751.51106733216, -20765.26233735828, -22539.007370353625, -187500.02235174447, -3883.0568054982195, -8232.505110800876, -29216.859247310073, -41763.69807287432, -31646.292703901854, -18586.123715177026, -22962.72938999288, -45645.212608005124, -23006.248236447365, -0.018000000000000002, 1.0, 0.01, 192.0, 0.0, 0.0, 0.0, 0.0, 0.0, 0.0, 0.0, 0.0, 0.0, 1.695761208055924E9, 0.0, 2023-09-26 15:46:48.055
98.0, 21773.326012292626, 42154.54067641982, -42592.32194332146, -42751.399308609885, -20762.133093134536, -22534.60407669593, -187500.02235174447, -3820.0919413676193, -8183.644197421575, -29197.390877889502, -41746.39782266591, -31631.54055256135, -18600.853514773073, -22953.20754685492, -45635.55665440043, -22998.246311932366, -0.018000000000000002, 1.0, 0.01, 192.0, 0.0, 0.0, 0.0, 0.0, 0.0, 0.0, 0.0, 0.0, 0.0, 1.695761208055939E9, 0.0, 2023-09-26 15:46:48.055
100.0, 21745.363979979036, 42130.64666159709, -42608.30344060701, -42764.13980294941, -20768.235119370835, -22547.5233849911, -187500.02235174447, -3879.7934508077446, -8206.487680254899, -29203.962290759362, -41757.21606698228, -31645.041006212356, -18607.000244498282, -22936.846069913634, -45647.89481733976, -23009.31042543774, -0.018000000000000002, 1.0, 0.01, 192.0, 0.0, 0.0, 0.0, 0.0, 0.0, 0.0, 0.0, 0.0, 0.0, 1.695761208055955E9, 0.0, 2023-09-26 15:46:48.055
102.0, 21753.231794027306, 42152.685481630026, -42604.168367882776, -42758.97654998023, -20763.720066990863, -22540.035550598568, -187500.02235174447, -3837.593357276125, -8221.463349039954, -29200.00603199077, -41764.860363586, -31651.523012104397, -18595.91377924845, -22947.68666597446, -45649.817067362914, -23012.03733826129, -0.018000000000000002, 1.006, 0.01, 192.0, 127.5, 56.0, 15.5, 56.0, 0.0, 40.0, 0.0, 0.0, 0.0, 1.69576120805597E9, 0.0, 2023-09-26 15:46:48.055
104.0, 21733.674017628913, 42135.89932154409, -42606.91763245078, -42759.781212780625, -20763.58595652413, -22547.165757079812, -187500.02235174447, -3872.3503199041274, -8221.239831595401, -29211.24895945179, -41771.78940436714, -31655.322808661796, -18599.467706616844, -22975.224015143398, -45651.94048308617, -23014.74189934038, -0.018000000000000002, 1.006, 0.01, 192.0, 0.0, 0.0, 0.0, 0.0, 0.0, 0.0, 0.0, 0.0, 0.0, 1.695761208116165E9, 0.0, 2023-09-26 15:46:48.116
106.0, 21742.41354971094, 42150.85263858469, -42603.05078066001, -42770.42064314135, -20760.836691956127, -22550.004428625638, -187500.02235174447, -3836.788694475734, -8245.424419096043, -29202.844703536597, -41771.92351483387, -31652.84176502726, -18596.807849026663, -22964.517529549306, -45643.469171937606, -23008.55046612626, -0.018000000000000002, 1.006, 0.01, 192.0, 0.0, 0.0, 0.0, 0.0, 0.0, 0.0, 0.0, 0.0, 0.0, 1.695761208116198E9, 0.0, 2023-09-26 15:46:48.116
108.0, 21723.191049479374, 42127.53976911781, -42622.899129736325, -42780.478928146236, -20771.051439172203, -22556.3746757954, -187500.02235174447, -3868.1928954354403, -8225.441959553, -29239.009826065285, -41774.60572416851, -31673.450073415053, -18591.06345070165, -22981.817779757712, -45654.42152672071, -23021.06744302123, -0.018000000000000002, 1.006, 0.01, 192.0, 0.0, 0.0, 0.0, 0.0, 0.0, 0.0, 0.0, 0.0, 0.0, 1.695761208116208E9, 0.0, 2023-09-26 15:46:48.116
110.0, 21744.24639275627, 42144.41533618156, -42602.53669053754, -42762.999863982186, -20764.457674557885, -22548.439806513765, -187500.02235174447, -3852.613729550091, -8230.426398566533, -29216.367508932057, -41777.57850618107, -31669.136186735177, -18593.030404213718, -22963.891680704557, -45655.58381743239, -23016.619445874625, -0.018000000000000002, 1.006, 0.01, 192.0, 0.0, 0.0, 0.0, 0.0, 0.0, 0.0, 0.0, 0.0, 0.0, 1.695761208116217E9, 0.0, 2023-09-26 15:46:48.116
112.0, 21744.335799734094, 42149.91386531757, -42607.454074317706, -42760.7423377922, -20768.659802515485, -22551.74786469315, -187500.02235174447, -3851.4961423273257, -8195.870601638628, -29216.233398465327, -41758.57952339405, -31648.21495392501, -18607.335520665114, -22961.54474753675, -45646.196084761155, -23013.847829562168, -0.016, 1.01, 0.006, 192.0, 127.5, 64.0, 15.5, 72.0, 0.0, 24.0, 0.0, 0.0, 0.0, 1.695761208116226E9, 0.0, 2023-09-26 15:46:48.116
114.0, 21741.430072954903, 42147.83515308323, -42604.39188532733, -42772.67816933134, -20765.30704084719, -22556.08410311748, -187500.02235174447, -3852.725488272368, -8231.923965445038, -29203.31409017016, -41772.21408751179, -31652.908820260625, -18602.284026418212, -22978.755590767338, -45649.25827375153, -23017.737033097394, -0.016, 1.01, 0.006, 192.0, 0.0, 0.0, 0.0, 0.0, 0.0, 0.0, 0.0, 0.0, 0.0, 1.695761208116235E9, 0.0, 2023-09-26 15:46:48.116
116.0, 21743.06175030014, 42153.6466066416, -42610.82918773046, -42768.56544835156, -20769.3527065936, -22552.351361793444, -187500.02235174447, -3840.5437875442253, -8220.524575772832, -29229.26446548277, -41770.38124446646, -31659.301419174844, -18601.278197917723, -22979.001459956344, -45652.56633193092, -23021.425070932517, -0.016, 1.01, 0.006, 192.0, 0.0, 0.0, 0.0, 0.0, 0.0, 0.0, 0.0, 0.0, 0.0, 1.695761208116245E9, 0.0, 2023-09-26 15:46:48.116
118.0, 21741.050093299164, 42143.00717628088, -42605.844748716925, -42772.87933503143, -20766.335221092133, -22551.323181548498, -187500.02235174447, -3857.754630774812, -8232.05807591177, -29217.663910110467, -41775.99153232474, -31670.477291402494, -18600.048851972682, -22963.645811515547, -45654.868561609816, -23020.441594176486, -0.016, 1.01, 0.006, 192.0, 0.0, 0.0, 0.0, 0.0, 0.0, 0.0, 0.0, 0.0, 0.0, 1.695761208116254E9, 0.0, 2023-09-26 15:46:48.116
120.0, 21748.806148625154, 42154.31715897527, -42609.756303996604, -42764.49743086069, -20768.90567170449, -22547.009294868625, -187500.02235174447, -3839.649717766013, -8218.758787960862, -29214.333500186625, -41768.86132584349, -31656.01571273991, -18600.719404306343, -22970.35133485214, -45654.39917497626, -23017.737033097394, -0.016, 1.01, 0.006, 192.0, 0.0, 0.0, 0.0, 0.0, 0.0, 0.0, 0.0, 0.0, 0.0, 1.695761208176473E9, 0.0, 2023-09-26 15:46:48.176
122.0, 21742.77117762222, 42139.05091751229, -42599.38509456934, -42754.21562841125, -20760.0990843891, -22545.981114623683, -187500.02235174447, -3889.9858462793645, -8208.186412833502, -29205.97394776034, -41759.74181410573, -31653.802890038838, -18591.86811350204, -22970.708962763427, -45649.16886677371, -23009.712756837936, -0.022, 1.012, 0.004, 192.0, 127.5, 40.0, 15.5, 80.0, 0.0, 16.0, 0.0, 0.0, 0.0, 1.695761208176496E9, 0.0, 2023-09-26 15:46:48.176
124.0, 21755.824596384122, 42168.8010893823, -42607.83405397345, -42761.70346280378, -20765.64231701402, -22548.909193147327, -187500.02235174447, -3829.9937641613205, -8235.634355024618, -29220.100250256095, -41772.236439256245, -31649.109023703222, -18590.370546623533, -22985.30465189274, -45652.23105576409, -23012.305559194752, -0.022, 1.012, 0.004, 192.0, 0.0, 0.0, 0.0, 0.0, 0.0, 0.0, 0.0, 0.0, 0.0, 1.695761208176506E9, 0.0, 2023-09-26 15:46:48.176
126.0, 21740.15602352095, 42143.185990236525, -42596.36760906787, -42751.46636384325, -20760.05438090019, -22542.80716691103, -187500.02235174447, -3891.751634091334, -8213.461424524954, -29213.55118913069, -41764.74860486372, -31654.58520109477, -18585.83314249911, -22976.54276806626, -45649.75001212955, -23008.483410892895, -0.022, 1.012, 0.004, 192.0, 0.0, 0.0, 0.0, 0.0, 0.0, 0.0, 0.0, 0.0, 0.0, 1.695761208176548E9, 0.0, 2023-09-26 15:46:48.176
128.0, 21760.987849353296, 42175.64072318563, -42587.62807698585, -42747.197180652285, -20754.399389553, -22532.92769586178, -187500.02235174447, -3844.5671015461808, -8221.083369384214, -29208.723212328343, -41759.2053722388, -31638.424889853584, -18594.282101903213, -22947.843128185646, -45645.68199463868, -23002.694309078972, -0.022, 1.012, 0.004, 192.0, 0.0, 0.0, 0.0, 0.0, 0.0, 0.0, 0.0, 0.0, 0.0, 1.695761208176557E9, 0.0, 2023-09-26 15:46:48.176
130.0, 21734.523383918215, 42147.14224900511, -42592.277239832554, -42753.03098595512, -20760.859043700584, -22544.394140767356, -187500.02235174447, -3896.0208172822977, -8213.170851847035, -29212.143029230003, -41760.74764260622, -31648.88550625867, -18578.05473542866, -22964.9198609495, -45647.112506283825, -23002.806067801248, -0.022, 1.012, 0.004, 192.0, 0.0, 0.0, 0.0, 0.0, 0.0, 0.0, 0.0, 0.0, 0.0, 1.695761208176566E9, 0.0, 2023-09-26 15:46:48.176
132.0, 21759.40087549697, 42190.2587640594, -42596.34525732342, -42758.32834939103, -20765.977593180847, -22542.158966321822, -187500.02235174447, -3815.398075032005, -8218.937601916505, -29211.025442007238, -41761.328787962055, -31642.716424789003, -18598.081898460616, -22975.089904676664, -45650.12999178529, -23007.969320770422, -0.02, 1.014, 0.01, 192.0, 127.5, 48.0, 15.5, 88.0, 0.0, 40.0, 0.0, 0.0, 0.0, 1.695761208176575E9, 0.0, 2023-09-26 15:46:48.176
134.0, 21739.172546764916, 42164.28603700233, -42590.28793457603, -42753.25450339967, -20763.92123269096, -22547.45632975773, -187500.02235174447, -3865.980072734365, -8232.549814289787, -29241.26735225527, -41772.77288112317, -31666.051646000345, -18592.82923851362, -22983.672974547502, -45654.66739590972, -23012.819649317225, -0.02, 1.014, 0.01, 192.0, 0.0, 0.0, 0.0, 0.0, 0.0, 0.0, 0.0, 0.0, 0.0, 1.695761208238035E9, 0.0, 2023-09-26 15:46:48.238
136.0, 21756.74101790679, 42202.70868572101, -42588.03040838605, -42754.394442366895, -20762.78129372374, -22543.075387844492, -187500.02235174447, -3799.170708557452, -8192.227267292414, -29206.063354738162, -41752.63395936894, -31640.280084643375, -18583.15093316447, -22969.345506351652, -45645.279663238485, -23007.209361458943, -0.02, 1.014, 0.01, 192.0, 0.0, 0.0, 0.0, 0.0, 0.0, 0.0, 0.0, 0.0, 0.0, 1.695761208238073E9, 0.0, 2023-09-26 15:46:48.238
138.0, 21726.677921614402, 42163.25785675739, -42598.1557486243, -42759.580047080526, -20760.12143613356, -22546.51755649061, -187500.02235174447, -3889.3376456901606, -8235.589651535709, -29234.36066321858, -41776.23740151375, -31667.079826245288, -18588.314186133648, -22945.473843273383, -45655.24854126556, -23014.048995262267, -0.02, 1.014, 0.01, 192.0, 0.0, 0.0, 0.0, 0.0, 0.0, 0.0, 0.0, 0.0, 0.0, 1.695761208238083E9, 0.0, 2023-09-26 15:46:48.238
140.0, 21756.5845556956, 42210.464741047, -42587.6504287303, -42747.17482890783, -20758.467407043863, -22532.79358539505, -187500.02235174447, -3822.394171046516, -8226.96187817596, -29223.922398557952, -41764.32392171907, -31646.58327657977, -18568.376430079512, -22979.672012290004, -45645.88316033878, -23003.431916645994, -0.02, 1.014, 0.01, 192.0, 0.0, 0.0, 0.0, 0.0, 0.0, 0.0, 0.0, 0.0, 0.0, 1.695761208238092E9, 0.0, 2023-09-26 15:46:48.238
142.0, 21742.145328777475, 42181.206307555, -42585.7505304516, -42749.25354114217, -20765.351744336098, -22537.710969175216, -187500.02235174447, -3883.168564220496, -8213.975514647427, -29222.670700868453, -41760.702939117306, -31652.573544093793, -18590.81758151264, -22971.200701141443, -45649.95117782965, -23004.79537305777, -0.020999999999999998, 1.016, 0.012, 192.0, 127.5, 40.0, 15.5, 104.0, 0.0, 56.0, 0.0, 0.0, 0.0, 1.695761208238101E9, 0.0, 2023-09-26 15:46:48.238
144.0, 21763.267727287737, 42217.59494752824, -42577.27921930304, -42750.66170104286, -20761.015505911768, -22543.678884944784, -187500.02235174447, -3805.786824916223, -8207.560563988753, -29223.922398557952, -41753.88565705844, -31646.82914576878, -18599.423003127933, -22968.0714569177, -45645.302014982946, -23002.291977678775, -0.020999999999999998, 1.016, 0.012, 192.0, 0.0, 0.0, 0.0, 0.0, 0.0, 0.0, 0.0, 0.0, 0.0, 1.69576120823811E9, 0.0, 2023-09-26 15:46:48.238
146.0, 21743.665247400433, 42189.521156492374, -42580.43081527124, -42741.31867186054, -20758.042723899212, -22538.31446627551, -187500.02235174447, -3863.4990290998257, -8232.125131145136, -29217.127468243536, -41762.84870658502, -31648.416119625108, -18587.397764610978, -22962.34941033714, -45641.27870098099, -23005.756498069346, -0.020999999999999998, 1.016, 0.012, 192.0, 0.0, 0.0, 0.0, 0.0, 0.0, 0.0, 0.0, 0.0, 0.0, 1.695761208238119E9, 0.0, 2023-09-26 15:46:48.238
148.0, 21762.574823209623, 42216.87969170567, -42576.76512918057, -42750.16996266484, -20758.62386925505, -22543.902402389336, -187500.02235174447, -3802.881098137033, -8205.548906987775, -29219.206180477882, -41747.53776163313, -31644.21399166751, -18580.893406974486, -22974.866387232112, -45640.183465502676, -23002.582550356692, -0.020999999999999998, 1.016, 0.012, 192.0, 0.0, 0.0, 0.0, 0.0, 0.0, 0.0, 0.0, 0.0, 0.0, 1.695761208238164E9, 0.0, 2023-09-26 15:46:48.238
150.0, 21745.520442190224, 42185.900173890615, -42577.18981232522, -42746.59368355199, -20760.948450678403, -22539.677922687286, -187500.02235174447, -3868.7069855579125, -8242.339878361212, -29223.564770646666, -41763.49690717422, -31646.22564866849, -18580.267558129737, -22974.88873897657, -45649.973529574105, -23010.517419638327, -0.020999999999999998, 1.016, 0.012, 192.0, 0.0, 0.0, 0.0, 0.0, 0.0, 0.0, 0.0, 0.0, 0.0, 1.695761208296882E9, 0.0, 2023-09-26 15:46:48.296
152.0, 21766.240509300293, 42211.44821780303, -42564.874001130345, -42744.87259922893, -20756.858081443082, -22539.99084710966, -187500.02235174447, -3833.4135810629823, -8191.690825425485, -29223.475363668844, -41739.871113284964, -31644.079881200778, -18572.019764425728, -22972.273584875296, -45641.099887025346, -23003.58837885718, -0.0195, 1.014, 0.017, 192.0, 127.5, 56.0, 15.5, 80.0, 0.0, 88.0, 0.0, 0.0, 0.0, 1.695761208296922E9, 0.0, 2023-09-26 15:46:48.296
154.0, 21750.907212603954, 42196.76312169589, -42567.735024420625, -42740.0893259155, -20760.993154167314, -22543.678884944784, -187500.02235174447, -3856.614691807591, -8197.301113283767, -29226.11286951457, -41742.88859878643, -31639.676587543083, -18576.490113316788, -22964.875157460592, -45638.23886373507, -23001.464963133927, -0.0195, 1.014, 0.017, 192.0, 0.0, 0.0, 0.0, 0.0, 0.0, 0.0, 0.0, 0.0, 0.0, 1.695761208296939E9, 0.0, 2023-09-26 15:46:48.296
156.0, 21762.194843553883, 42213.54928178183, -42561.52123946205, -42736.24482586919, -20756.455750042885, -22534.425262740286, -187500.02235174447, -3821.433046034938, -8214.53430825881, -29209.72904082883, -41746.107249987996, -31638.067261942302, -18584.804962254162, -22959.287221346764, -45642.99978530405, -22998.64864333256, -0.0195, 1.014, 0.017, 192.0, 0.0, 0.0, 0.0, 0.0, 0.0, 0.0, 0.0, 0.0, 0.0, 1.695761208296956E9, 0.0, 2023-09-26 15:46:48.296
158.0, 21744.313447989636, 42199.89236591964, -42576.09457684691, -42739.307014859565, -20757.886261688025, -22536.973361608194, -187500.02235174447, -3845.774095746767, -8235.120264902147, -29220.636692123022, -41755.182058236845, -31636.435584597064, -18574.411401082445, -22938.58950598115, -45642.284529481476, -23000.41443114453, -0.0195, 1.014, 0.017, 192.0, 0.0, 0.0, 0.0, 0.0, 0.0, 0.0, 0.0, 0.0, 0.0, 1.695761208296972E9, 0.0, 2023-09-26 15:46:48.296
160.0, 21749.58845968109, 42200.38410429766, -42562.32590226244, -42734.45668631276, -20755.069941886657, -22534.425262740286, -187500.02235174447, -3827.199796104407, -8207.3370465442, -29204.476380881835, -41751.762241335186, -31637.12848867518, -18566.565938778633, -22952.20171835443, -45636.51777941201, -22991.205512428944, -0.0195, 1.014, 0.017, 192.0, 0.0, 0.0, 0.0, 0.0, 0.0, 0.0, 0.0, 0.0, 0.0, 1.695761208296988E9, 0.0, 2023-09-26 15:46:48.296
162.0, 21740.15602352095, 42193.14213909413, -42571.98185586713, -42745.520799818136, -20759.517939033263, -22539.186184309267, -187500.02235174447, -3832.072476395664, -8224.346724074689, -29232.393709706514, -41766.581447909055, -31650.2713144149, -18589.141200678492, -22954.213375355408, -45648.25244525104, -23003.40956490154, -0.01975, 1.012, 0.0175, 192.0, 127.5, 48.0, 15.5, 72.0, 0.0, 72.0, 0.0, 0.0, 0.0, 1.695761208297003E9, 0.0, 2023-09-26 15:46:48.297
164.0, 21733.517555417726, 42185.140214579136, -42567.310341275974, -42740.78222999361, -20752.387732552022, -22532.95004760624, -187500.02235174447, -3849.015098692787, -8221.619811251141, -29223.430660179933, -41762.33461646255, -31658.31794241881, -18575.39487783848, -22981.16957916851, -45637.814180590416, -22993.93242525249, -0.01975, 1.012, 0.0175, 192.0, 0.0, 0.0, 0.0, 0.0, 0.0, 0.0, 0.0, 0.0, 0.0, 1.695761208355735E9, 0.0, 2023-09-26 15:46:48.355
166.0, 21743.86641310053, 42203.20042409902, -42560.58246619493, -42731.23803511119, -20752.54419476321, -22533.12886156188, -187500.02235174447, -3820.3825140455383, -8208.521689000332, -29207.180941960927, -41750.59995062351, -31639.922456732093, -18575.663098771944, -22969.792541240757, -45637.657718379225, -22991.45138161795, -0.01975, 1.012, 0.0175, 192.0, 0.0, 0.0, 0.0, 0.0, 0.0, 0.0, 0.0, 0.0, 0.0, 1.695761208355764E9, 0.0, 2023-09-26 15:46:48.355
168.0, 21732.668189128424, 42181.96626686648, -42567.28798953152, -42744.89495097339, -20753.3488575636, -22542.002504110635, -187500.02235174447, -3846.489351569337, -8236.193148636003, -29224.525895658244, -41763.161631007395, -31655.859250528727, -18573.874959215518, -22967.06562841721, -45640.42933469169, -22998.112201465632, -0.01975, 1.012, 0.0175, 192.0, 0.0, 0.0, 0.0, 0.0, 0.0, 0.0, 0.0, 0.0, 0.0, 1.695761208355814E9, 0.0, 2023-09-26 15:46:48.355
170.0, 21744.469910200824, 42196.74076995144, -42561.52123946205, -42735.238997368695, -20747.33623830512, -22530.02196908259, -187500.02235174447, -3813.788749431223, -8206.510031999354, -29210.6454623515, -41757.08195651555, -31644.34810213424, -18570.67865975841, -22957.9684684239, -45634.997860789044, -22993.105410707645, -0.01975, 1.012, 0.0175, 192.0, 0.0, 0.0, 0.0, 0.0, 0.0, 0.0, 0.0, 0.0, 0.0, 1.695761208355829E9, 0.0, 2023-09-26 15:46:48.355
172.0, 21728.354302448548, 42172.22090628397, -42566.349216264396, -42741.69865151628, -20751.314848818165, -22534.760538907118, -187500.02235174447, -3844.6118050350915, -8228.548852032287, -29231.4996399283, -41768.72721537676, -31666.342218678263, -18579.52995056271, -22963.0199626708, -45638.84236083536, -22995.65350957555, -0.021875, 1.0150000000000001, 0.01575, 192.0, 127.5, 32.0, 15.5, 104.0, 0.0, 56.0, 0.0, 0.0, 0.0, 1.695761208355845E9, 0.0, 2023-09-26 15:46:48.355
174.0, 21747.643857913477, 42202.194595598536, -42567.82443139845, -42742.41390733885, -20755.11464537557, -22535.676960429784, -187500.02235174447, -3803.7081126818794, -8250.58767206522, -29218.513276399768, -41774.1586892794, -31653.713483061016, -18577.473590072823, -22969.189044140465, -45647.537189428476, -23000.861466033635, -0.021875, 1.0150000000000001, 0.01575, 192.0, 0.0, 0.0, 0.0, 0.0, 0.0, 0.0, 0.0, 0.0, 0.0, 1.695761208355861E9, 0.0, 2023-09-26 15:46:48.355
176.0, 21737.652628141957, 42174.09845281821, -42547.685509644216, -42747.621863796936, -20750.219613339857, -22542.78481516657, -187500.02235174447, -3857.195837163429, -8207.940543644494, -29215.96517753186, -41751.181095979344, -31659.83786104177, -18569.717534746833, -22934.409729768005, -45637.18833174567, -22998.961567754934, -0.021875, 1.0150000000000001, 0.01575, 192.0, 0.0, 0.0, 0.0, 0.0, 0.0, 0.0, 0.0, 0.0, 0.0, 1.695761208355875E9, 0.0, 2023-09-26 15:46:48.355
178.0, 21752.427131226916, 42201.479339775964, -42562.9964545961, -42744.805543995564, -20758.467407043863, -22539.07442558699, -187500.02235174447, -3788.9336095969215, -8209.236944822902, -29213.97587227534, -41752.00811052419, -31648.393767880654, -18584.40263085397, -22970.26192787432, -45640.98812830307, -22999.8779892776, -0.021875, 1.0150000000000001, 0.01575, 192.0, 0.0, 0.0, 0.0, 0.0, 0.0, 0.0, 0.0, 0.0, 0.0, 1.695761208355888E9, 0.0, 2023-09-26 15:46:48.355
180.0, 21737.093834530573, 42168.44346147102, -42556.961483593164, -42744.202046895276, -20756.299287831698, -22540.3708267654, -187500.02235174447, -3847.159903902996, -8234.203843379479, -29232.12548877305, -41766.06735778658, -31672.846576314758, -18581.005165696763, -22979.806122756734, -45647.872465595305, -23000.660300333537, -0.021875, 1.0150000000000001, 0.01575, 192.0, 0.0, 0.0, 0.0, 0.0, 0.0, 0.0, 0.0, 0.0, 0.0, 1.695761208416066E9, 0.0, 2023-09-26 15:46:48.416
182.0, 21754.885823116998, 42195.66788621758, -42551.70882364617, -42735.30605260206, -20746.73274120483, -22530.759576649616, -187500.02235174447, -3796.644961434002, -8203.872526153627, -29204.96811925985, -41743.98383426474, -31651.098328959746, -18571.796246981175, -22963.422294070995, -45636.78600034547, -22990.08792520618, -0.0219375, 1.0155, 0.014875, 192.0, 127.5, 40.0, 15.5, 96.0, 0.0, 56.0, 0.0, 0.0, 0.0, 1.695761208416099E9, 0.0, 2023-09-26 15:46:48.416
184.0, 21738.032607797697, 42155.0994700312, -42553.89929460279, -42733.27204385663, -20754.757017464282, -22540.817861654505, -187500.02235174447, -3868.1928954354403, -8243.211596394967, -29230.091480027615, -41762.9604653073, -31666.94571577856, -18563.727267232807, -22964.003439426833, -45646.1737330167, -22996.480524120394, -0.0219375, 1.0155, 0.014875, 192.0, 0.0, 0.0, 0.0, 0.0, 0.0, 0.0, 0.0, 0.0, 0.0, 1.695761208416117E9, 0.0, 2023-09-26 15:46:48.416
186.0, 21767.69337268989, 42190.236412314945, -42538.83421883991, -42734.07670665702, -20753.639430241517, -22536.503974974632, -187500.02235174447, -3806.1891563164186, -8189.299188768768, -29201.369488402546, -41726.90710150088, -31638.58135206477, -18571.10334290306, -22956.9179364345, -45636.94246255666, -22989.059744961232, -0.0219375, 1.0155, 0.014875, 192.0, 0.0, 0.0, 0.0, 0.0, 0.0, 0.0, 0.0, 0.0, 0.0, 1.695761208416134E9, 0.0, 2023-09-26 15:46:48.416
188.0, 21740.133671776497, 42140.10144950169, -42550.70299514568, -42740.31284336005, -20757.662744243473, -22541.51076573262, -187500.02235174447, -3881.7380525753565, -8214.646066981086, -29224.145916002504, -41742.463915641776, -31658.295590674355, -18577.29477611718, -22969.92665170749, -45646.21843650561, -22998.603939843648, -0.0219375, 1.0155, 0.014875, 192.0, 0.0, 0.0, 0.0, 0.0, 0.0, 0.0, 0.0, 0.0, 0.0, 1.69576120841615E9, 0.0, 2023-09-26 15:46:48.416
190.0, 21760.406703997458, 42173.517307462374, -42548.4901724446, -42749.90174173138, -20757.998020410305, -22548.97624838069, -187500.02235174447, -3798.1872318014184, -8219.809319950262, -29218.31211069967, -41750.59995062351, -31651.1206807042, -18575.81956098313, -22966.328020850186, -45649.72766038509, -23001.107335222645, -0.0219375, 1.0155, 0.014875, 192.0, 0.0, 0.0, 0.0, 0.0, 0.0, 0.0, 0.0, 0.0, 0.0, 1.695761208416203E9, 0.0, 2023-09-26 15:46:48.416
192.0, 21741.027741554706, 42135.2958244438, -42548.22195151114, -42742.12333466093, -20755.15934886448, -22548.663323958317, -187500.02235174447, -3868.52817160227, -8224.905517686071, -29230.87379108355, -41752.05281401311, -31663.235326198977, -18556.373543307014, -22974.508759320826, -45645.23495974958, -23006.51645738083, -0.01996875, 1.01475, 0.010437499999999999, 192.0, 127.5, 56.0, 15.5, 88.0, 0.0, 24.0, 0.0, 0.0, 0.0, 1.695761208416237E9, 0.0, 2023-09-26 15:46:48.416
194.0, 21759.333820263604, 42157.98284506593, -42546.03148055452, -42746.12429691843, -20754.600555253095, -22549.289172803066, -187500.02235174447, -3800.7800341582342, -8221.10572112867, -29208.142066972505, -41751.80694482409, -31650.78540453737, -18578.971156951327, -22976.475712832897, -45645.95021557215, -23003.856599790648, -0.01996875, 1.01475, 0.010437499999999999, 192.0, 0.0, 0.0, 0.0, 0.0, 0.0, 0.0, 0.0, 0.0, 0.0, 1.695761208477814E9, 0.0, 2023-09-26 15:46:48.477
196.0, 21738.30082873116, 42117.749705046386, -42548.8925038448, -42745.3419858625, -20751.58306975163, -22549.400931525342, -187500.02235174447, -3864.974244233876, -8222.066846140247, -29227.92336081545, -41752.678662857856, -31663.391788410165, -18579.217026140337, -22952.179366609977, -45653.90743659824, -23011.36678592763, -0.01996875, 1.01475, 0.010437499999999999, 192.0, 0.0, 0.0, 0.0, 0.0, 0.0, 0.0, 0.0, 0.0, 0.0, 1.695761208477853E9, 0.0, 2023-09-26 15:46:48.477
198.0, 21754.97523009482, 42137.08396400022, -42544.71272763166, -42741.519837560634, -20753.1476918635, -22546.048169857047, -187500.02235174447, -3823.8693861805664, -8204.163098831546, -29204.20815994837, -41743.425040653354, -31653.624076083193, -18562.073238143115, -22957.387323068062, -45644.586759160375, -23002.202570700952, -0.01996875, 1.01475, 0.010437499999999999, 192.0, 0.0, 0.0, 0.0, 0.0, 0.0, 0.0, 0.0, 0.0, 0.0, 1.695761208477869E9, 0.0, 2023-09-26 15:46:48.477
200.0, 21734.97041880732, 42107.043219452295, -42557.0955940599, -42741.9892241942, -20761.708409989886, -22553.71481820522, -187500.02235174447, -3863.1861046774516, -8245.513826073864, -29214.311148442168, -41763.09457577403, -31662.095387231755, -18576.87009297253, -22973.190006397966, -45659.473020967605, -23010.472716149416, -0.01996875, 1.01475, 0.010437499999999999, 192.0, 0.0, 0.0, 0.0, 0.0, 0.0, 0.0, 0.0, 0.0, 0.0, 1.695761208477885E9, 0.0, 2023-09-26 15:46:48.477
202.0, 21750.616639926033, 42121.437742881506, -42538.61070139536, -42741.743355005194, -20758.06507564367, -22550.295001303555, -187500.02235174447, -3822.729447213346, -8221.150424617581, -29221.240189223314, -41751.35990993499, -31661.581297109286, -18578.278252873213, -22977.101561677642, -45653.97449183161, -23007.276416692308, -0.022984375, 1.016375, 0.0072187499999999995, 192.0, 127.5, 24.0, 15.5, 104.0, 0.0, 16.0, 0.0, 0.0, 0.0, 1.6957612084779E9, 0.0, 2023-09-26 15:46:48.477
204.0, 21736.982075808297, 42095.777940246815, -42548.95955907817, -42732.243863611686, -20753.39356105251, -22536.325161018987, -187500.02235174447, -3854.044241195231, -8211.24860182388, -29217.663910110467, -41752.20927622429, -31658.608515096726, -18567.57176727912, -22961.611802770116, -45648.31950048441, -23000.906169522546, -0.022984375, 1.016375, 0.0072187499999999995, 192.0, 0.0, 0.0, 0.0, 0.0, 0.0, 0.0, 0.0, 0.0, 0.0, 1.695761208477917E9, 0.0, 2023-09-26 15:46:48.477
206.0, 21740.021913054217, 42094.4368355795, -42535.90614031627, -42728.15349437636, -20750.44313078441, -22535.18522205177, -187500.02235174447, -3837.7051159984017, -8221.038665895303, -29214.802886820187, -41753.729194847256, -31665.381093666685, -18558.47460728581, -22951.19588985394, -45642.061012036924, -22993.73125955239, -0.022984375, 1.016375, 0.0072187499999999995, 192.0, 0.0, 0.0, 0.0, 0.0, 0.0, 0.0, 0.0, 0.0, 0.0, 1.695761208477932E9, 0.0, 2023-09-26 15:46:48.477
208.0, 21736.333875219094, 42086.14433838658, -42539.79534385149, -42726.45476179776, -20748.878508672537, -22533.218268539702, -187500.02235174447, -3829.4126188054825, -8229.19705262149, -29214.624072864543, -41760.077090272556, -31657.222706940498, -18585.229645398813, -22960.382456825075, -45640.20581724714, -22994.535922352785, -0.022984375, 1.016375, 0.0072187499999999995, 192.0, 0.0, 0.0, 0.0, 0.0, 0.0, 0.0, 0.0, 0.0, 0.0, 1.695761208477947E9, 0.0, 2023-09-26 15:46:48.477
210.0, 21741.184203765893, 42083.35037032967, -42533.067468770445, -42721.49267452868, -20746.419816782454, -22533.88882087336, -187500.02235174447, -3823.690572224924, -8223.430302552022, -29217.127468243536, -41752.58925588003, -31664.799948310847, -18575.059601671648, -22952.313477076706, -45634.57317764439, -22988.098619949655, -0.022984375, 1.016375, 0.0072187499999999995, 192.0, 0.0, 0.0, 0.0, 0.0, 0.0, 0.0, 0.0, 0.0, 0.0, 1.695761208536777E9, 0.0, 2023-09-26 15:46:48.536
212.0, 21735.43980544088, 42077.874192938114, -42547.61845441085, -42730.58983452199, -20755.38286630903, -22532.011274339115, -187500.02235174447, -3814.816929676167, -8233.980325934926, -29209.952558273384, -41756.098479759516, -31654.74166330596, -18574.120828404528, -22958.035523657265, -45639.781134102486, -22991.160808940032, -0.0224921875, 1.0191875000000001, 0.004609375, 192.0, 127.5, 40.0, 15.5, 120.0, 0.0, 8.0, 0.0, 0.0, 0.0, 1.695761208536846E9, 0.0, 2023-09-26 15:46:48.536
214.0, 21727.281418714694, 42062.89852415306, -42540.35413746288, -42737.407116580864, -20752.141863363013, -22540.594344209952, -187500.02235174447, -3821.5448047572145, -8229.509977043865, -29230.87379108355, -41762.46872692928, -31676.914593805624, -18570.946880691874, -22941.897564160536, -45643.13389577078, -22999.92269276651, -0.0224921875, 1.0191875000000001, 0.004609375, 192.0, 0.0, 0.0, 0.0, 0.0, 0.0, 0.0, 0.0, 0.0, 0.0, 1.695761208536865E9, 0.0, 2023-09-26 15:46:48.536
216.0, 21746.570974179624, 42078.90237318306, -42521.55632037596, -42720.39743905037, -20739.401369023486, -22526.17746903628, -187500.02235174447, -3788.173650285441, -8218.445863538487, -29201.68241282492, -41750.443488412326, -31658.74262556346, -18573.070296415128, -22953.67693348848, -45634.21554973311, -22991.94311999597, -0.0224921875, 1.0191875000000001, 0.004609375, 192.0, 0.0, 0.0, 0.0, 0.0, 0.0, 0.0, 0.0, 0.0, 0.0, 1.695761208536882E9, 0.0, 2023-09-26 15:46:48.536
218.0, 21724.040415768675, 42053.823715904204, -42537.113134516854, -42735.998956680174, -20750.756055206784, -22537.822727897495, -187500.02235174447, -3815.8004064322004, -8220.703389728475, -29215.518142642755, -41745.7049185878, -31667.303343689844, -18570.29868010267, -22958.236689357364, -45628.873482808296, -22987.875102505102, -0.0224921875, 1.0191875000000001, 0.004609375, 192.0, 0.0, 0.0, 0.0, 0.0, 0.0, 0.0, 0.0, 0.0, 0.0, 1.695761208536898E9, 0.0, 2023-09-26 15:46:48.536
220.0, 21739.798395609665, 42078.14241387158, -42540.84587584089, -42737.831799725514, -20756.925136676447, -22538.336818019965, -187500.02235174447, -3781.1775542709297, -8226.134863631114, -29233.01955855126, -41753.013939024684, -31669.717332091015, -18562.699086987865, -22961.432988814475, -45642.5751021594, -22998.291015421273, -0.0224921875, 1.0191875000000001, 0.004609375, 192.0, 0.0, 0.0, 0.0, 0.0, 0.0, 0.0, 0.0, 0.0, 0.0, 1.695761208536915E9, 0.0, 2023-09-26 15:46:48.536
222.0, 21730.142442004973, 42061.378605530095, -42530.00527978007, -42724.9348431748, -20758.981497166336, -22534.537021462565, -187500.02235174447, -3823.2882408247283, -8243.144541161602, -29226.336386959123, -41756.76903209317, -31677.741608350472, -18573.383220837502, -22962.774093481792, -45647.89481733976, -23002.35903291214, -0.01824609375, 1.01859375, 0.0053046875, 192.0, 127.5, 72.0, 15.5, 104.0, 0.0, 24.0, 0.0, 0.0, 0.0, 1.695761208536931E9, 0.0, 2023-09-26 15:46:48.536
224.0, 21751.153081792963, 42100.96354496045, -42527.01014602306, -42726.09713388648, -20755.852252942594, -22535.118166818404, -187500.02235174447, -3768.7052808648687, -8211.606229735164, -29210.26548269576, -41741.748659819204, -31647.946732991546, -18575.19371213838, -22962.48352080387, -45639.691727124664, -22994.670032819515, -0.01824609375, 1.01859375, 0.0053046875, 192.0, 0.0, 0.0, 0.0, 0.0, 0.0, 0.0, 0.0, 0.0, 0.0, 1.695761208596056E9, 0.0, 2023-09-26 15:46:48.596
226.0, 21728.19784023736, 42077.78478596029, -42531.77106759204, -42737.205950880765, -20762.893052446016, -22541.242544799155, -187500.02235174447, -3823.4447030359156, -8228.146520632092, -29223.542418902212, -41752.321034946566, -31674.813529826824, -18559.94982241986, -22949.653619486526, -45644.00561380453, -22999.833285788693, -0.01824609375, 1.01859375, 0.0053046875, 192.0, 0.0, 0.0, 0.0, 0.0, 0.0, 0.0, 0.0, 0.0, 0.0, 1.695761208596098E9, 0.0, 2023-09-26 15:46:48.596
228.0, 21757.97036385183, 42118.2414434244, -42521.31045118695, -42717.469360526724, -20759.808511711184, -22531.586591194464, -187500.02235174447, -3760.07750750512, -8226.403084564578, -29205.951596015882, -41742.955654019795, -31654.518145861406, -18572.06446791464, -22964.49517780485, -45649.45943945163, -22998.581588099194, -0.01824609375, 1.01859375, 0.0053046875, 192.0, 0.0, 0.0, 0.0, 0.0, 0.0, 0.0, 0.0, 0.0, 0.0, 1.695761208596113E9, 0.0, 2023-09-26 15:46:48.596
230.0, 21728.376654193005, 42069.93932365648, -42530.29585245799, -42726.3877065644, -20761.417837311965, -22537.26393428611, -187500.02235174447, -3839.1356276435413, -8221.061017639759, -29218.982663033326, -41742.64272959742, -31665.850480300247, -18572.802075481664, -22965.16573013851, -45648.83359060688, -22998.26866367682, -0.01824609375, 1.01859375, 0.0053046875, 192.0, 0.0, 0.0, 0.0, 0.0, 0.0, 0.0, 0.0, 0.0, 0.0, 1.695761208596128E9, 0.0, 2023-09-26 15:46:48.596
232.0, 21763.804169154664, 42112.72056254394, -42510.51455861504, -42716.083552370495, -20751.314848818165, -22535.051111585035, -187500.02235174447, -3763.072641262131, -8204.788947676296, -29215.696956598396, -41732.87501727045, -31651.008921981924, -18566.990621923283, -22961.790616725757, -45638.79765734645, -22993.17246594101, -0.019123046875, 1.016296875, 0.00465234375, 192.0, 127.5, 48.0, 15.5, 88.0, 0.0, 16.0, 0.0, 0.0, 0.0, 1.695761208596143E9, 0.0, 2023-09-26 15:46:48.596
234.0, 21729.851869327053, 42067.59239048867, -42524.90908204426, -42728.64523275438, -20758.802683210695, -22536.526326719086, -187500.02235174447, -3837.7945229762227, -8217.417683293545, -29192.272328409235, -41736.04896498311, -31656.59685809575, -18565.24718585577, -22931.749872177825, -45644.40794520473, -22994.80414328625, -0.019123046875, 1.016296875, 0.00465234375, 192.0, 0.0, 0.0, 0.0, 0.0, 0.0, 0.0, 0.0, 0.0, 0.0, 1.695761208596209E9, 0.0, 2023-09-26 15:46:48.596
236.0, 21754.438788227893, 42106.21620490745, -42517.10832322935, -42728.26525309864, -20754.309982575178, -22540.728454676682, -187500.02235174447, -3757.663519103947, -8224.950221174982, -29216.322805443146, -41746.59898836601, -31667.683323345584, -18573.09264815958, -22948.78190145277, -45653.885084853784, -23003.20839920144, -0.019123046875, 1.016296875, 0.00465234375, 192.0, 0.0, 0.0, 0.0, 0.0, 0.0, 0.0, 0.0, 0.0, 0.0, 1.695761208596223E9, 0.0, 2023-09-26 15:46:48.596
238.0, 21722.811069823634, 42064.887829409585, -42531.54755014748, -42723.41492455184, -20751.560718007175, -22530.69252141625, -187500.02235174447, -3825.9928019038207, -8232.616869523152, -29200.229549435324, -41746.21900871027, -31665.470500644507, -18574.00906968225, -22962.662334759516, -45645.79375336096, -22995.83232353119, -0.019123046875, 1.016296875, 0.00465234375, 192.0, 0.0, 0.0, 0.0, 0.0, 0.0, 0.0, 0.0, 0.0, 0.0, 1.695761208596242E9, 0.0, 2023-09-26 15:46:48.596
240.0, 21742.860584600043, 42092.201661133964, -42530.899349558276, -42733.38380257891, -20748.923212161448, -22535.431091240775, -187500.02235174447, -3752.0308795012093, -8232.952145689982, -29211.852456552086, -41756.165534992884, -31669.382055924187, -18589.208255911857, -22965.657468516525, -45640.20581724714, -22996.324061909207, -0.019123046875, 1.016296875, 0.00465234375, 192.0, 0.0, 0.0, 0.0, 0.0, 0.0, 0.0, 0.0, 0.0, 0.0, 1.695761208656824E9, 0.0, 2023-09-26 15:46:48.656
242.0, 21725.29211345817, 42064.55255324275, -42543.46102994216, -42725.314822830536, -20754.28763083072, -22524.814012624505, -187500.02235174447, -3812.8723279085552, -8232.48275905642, -29213.707651341876, -41762.379319951455, -31675.260564715933, -18594.147991436483, -22960.82949171418, -45643.93855857117, -22999.27449217731, -0.0215615234375, 1.0161484375, 0.005326171875000001, 192.0, 127.5, 32.0, 15.5, 96.0, 0.0, 24.0, 0.0, 0.0, 0.0, 1.695761208656859E9, 0.0, 2023-09-26 15:46:48.656
