%OpenBCI Raw EXG Data
%Number of channels = 16
%Sample Rate = 125 Hz
%Board = OpenBCI_GUI$BoardCytonSerialDaisy
Sample Index, EXG Channel 0, EXG Channel 1, EXG Channel 2, EXG Channel 3, EXG Channel 4, EXG Channel 5, EXG Channel 6, EXG Channel 7, EXG Channel 8, EXG Channel 9, EXG Channel 10, EXG Channel 11, EXG Channel 12, EXG Channel 13, EXG Channel 14, EXG Channel 15, Accel Channel 0, Accel Channel 1, Accel Channel 2, Other, Other, Other, Other, Other, Other, Other, Analog Channel 0, Analog Channel 1, Analog Channel 2, Timestamp, Other, Timestamp (Formatted)
0.0, 20704.085612784103, 31264.591963838575, -47461.02362406536, -45975.03494918763, -31159.806985832096, -18540.704970443843, -187500.02235174447, -13923.773339244526, 0.0, 0.0, 0.0, 0.0, 0.0, 0.0, 0.0, 0.0, 0.0, 0.0, 0.0, 192.0, 0.0, 0.0, 0.0, 0.0, 0.0, 0.0, 0.0, 0.0, 0.0, 1.695420352450083E9, 0.0, 2023-09-22 17:05:52.450
224.0, 20699.4364499374, 31252.85729799954, -47456.24035075192, -45977.27012363316, -31146.820622303563, -18544.884746656986, -187500.02235174447, -13924.04156017799, -7758.625776603911, 16671.070953735227, -43948.0222997692, -39381.762073250065, -15399.14493550598, -36720.36221270111, -44424.3379741118, -41400.392818497756, 0.0, 0.0, 0.0, 192.0, 0.0, 0.0, 0.0, 0.0, 0.0, 0.0, 0.0, 0.0, 0.0, 1.695420352450092E9, 0.0, 2023-09-22 17:05:52.450
226.0, 20711.77461287673, 31266.693027817375, -47444.617443635165, -45959.098155391, -31141.83618329003, -18526.28809527017, -187500.02235174447, -13912.597467016873, -7749.550968355056, 16676.636538104598, -43940.6685758434, -39377.17996563673, -15389.913665045939, -36715.31071845421, -44417.40893333065, -41394.69312366166, 0.0, 0.0, 0.0, 192.0, 0.0, 0.0, 0.0, 0.0, 0.0, 0.0, 0.0, 0.0, 0.0, 1.695420352450096E9, 0.0, 2023-09-22 17:05:52.450
228.0, 20704.510295928754, 31254.80189976715, -47447.18789424752, -45967.41300432837, -31132.35904364098, -18536.882822141986, -187500.02235174447, -13917.783071730504, -7739.492683350169, 16683.29735795228, -43930.58793909406, -39367.7922329655, -15380.414173652433, -36704.514825882296, -44406.568337269826, -41385.12657703478, 0.0, 0.0, 0.0, 192.0, 0.0, 0.0, 15.5, 64.0, 1.5, 88.0, 0.0, 0.0, 0.0, 1.695420352450099E9, 0.0, 2023-09-22 17:05:52.450
230.0, 20705.963159318348, 31261.350960892556, -47460.10720254269, -45972.06216717508, -31148.876982793452, -18540.43674951038, -187500.02235174447, -13927.439025335196, -7755.652994591355, 16672.8367415472, -43947.35174743554, -39381.762073250065, -15395.18867673739, -36718.574073144686, -44421.8345787328, -41400.92926036468, 0.0, 0.0, 0.0, 192.0, 0.0, 0.0, 0.0, 0.0, 0.0, 0.0, 0.0, 0.0, 0.0, 1.695420352450103E9, 0.0, 2023-09-22 17:05:52.450
232.0, 20698.25180748127, 31253.99723696676, -47454.38515596213, -45973.53738230913, -31141.567962356567, -18541.956668133338, -187500.02235174447, -13925.628534034317, -7753.306061423548, 16670.936843268497, -43943.50724738923, -39377.93992494821, -15391.94767379137, -36713.85785506461, -44417.74420949748, -41397.37533299629, 0.0, 0.0, 0.0, 192.0, 0.0, 0.0, 0.0, 0.0, 0.0, 0.0, 0.0, 0.0, 0.0, 1.695420352450106E9, 0.0, 2023-09-22 17:05:52.450
234.0, 20708.265388997246, 31263.384969637988, -47450.205379748986, -45963.99318742671, -31142.886715279426, -18528.389159248967, -187500.02235174447, -13915.95022868517, -7749.685078821788, 16673.574349114224, -43940.10978223202, -39376.576468536434, -15386.158571977447, -36710.16981722949, -44412.24568036148, -41392.61441142731, 0.0, 0.0, 0.0, 192.0, 0.0, 0.0, 0.0, 0.0, 0.0, 0.0, 0.0, 0.0, 0.0, 1.695420352450109E9, 0.0, 2023-09-22 17:05:52.450
236.0, 20697.648310380973, 31256.09830094556, -47451.43472569403, -45965.62486477195, -31137.276427421148, -18529.70791217183, -187500.02235174447, -13915.726711240615, -7749.662727077333, 16675.787171815296, -43939.439229898366, -39374.83303246892, -15386.04681325517, -36700.75973281381, -44410.25637510495, -41385.99829506854, 0.0, 0.0, 0.0, 192.0, 0.0, 0.0, 0.0, 0.0, 0.0, 0.0, 0.0, 0.0, 0.0, 1.695420352450112E9, 0.0, 2023-09-22 17:05:52.450
238.0, 20707.0360430522, 31260.23337366979, -47458.453173452996, -45969.91639970737, -31146.530049625642, -18533.015970351218, -187500.02235174447, -13919.191231631188, -7749.729782310699, 16675.518950881833, -43943.753116578235, -39377.850517970386, -15388.818429567627, -36706.88411079456, -44414.77142748492, -41391.04978931544, 0.001, 0.501, 0.058, 192.0, 0.0, 8.0, 15.5, 40.0, 1.5, 80.0, 0.0, 0.0, 0.0, 1.695420352450115E9, 0.0, 2023-09-22 17:05:52.450
0.0, 10384.285197768831, 15608.08904267419, -23692.312680758558, -22972.139474408566, -15513.339997928144, -9259.388954566593, -93750.01117587223, -6917.373170539519, -3874.9207705164877, 8333.378533527677, -21971.653040844565, -19688.288234268217, -7694.453918272725, -18351.519805374122, -22206.234598903015, -20692.574464389618, 0.001, 0.501, 0.058, 192.0, 0.0, 0.0, 15.5, 56.0, 1.5, 88.0, 0.0, 0.0, 0.0, 1.695420352602853E9, 0.0, 2023-09-22 17:05:52.602
2.0, 20771.185549638933, 31221.18487610637, -47394.25896337735, -45947.162323851866, -31045.678978643296, -18518.777909133187, -187500.02235174447, -13837.74147483605, -7734.418837358813, 15997.903465974745, -43932.30902341712, -39334.3316715159, -15394.76399359274, -36723.33499471367, -44353.080612788275, -41358.170373221685, 0.001, 0.501, 0.058, 192.0, 0.0, 0.0, 0.0, 0.0, 0.0, 0.0, 0.0, 0.0, 0.0, 1.695420352602866E9, 0.0, 2023-09-22 17:05:52.602
4.0, 20765.575261780654, 31218.592073749554, -47382.52429753832, -45935.829989413025, -31032.04441452556, -18507.847906094543, -187500.02235174447, -13827.347913664331, -7731.133130923883, 15994.170724650709, -43926.18464543637, -39330.28600576949, -15392.61822612503, -36715.6683463655, -44348.99024355296, -41349.69906207312, 0.001, 0.501, 0.058, 192.0, 0.0, 0.0, 0.0, 0.0, 0.0, 0.0, 0.0, 0.0, 0.0, 1.69542035260287E9, 0.0, 2023-09-22 17:05:52.602
6.0, 20774.650070029507, 31224.42587905239, -47383.574829527715, -45937.595777225, -31042.795603608563, -18511.84886835204, -187500.02235174447, -13827.437320642153, -7727.042761688562, 15999.177515408697, -43921.7142965453, -39327.20146503466, -15389.891313301483, -36715.780105087775, -44345.59277839575, -41347.1062597163, 0.001, 0.501, 0.058, 192.0, 0.0, 0.0, 0.0, 0.0, 0.0, 0.0, 0.0, 0.0, 0.0, 1.695420352602873E9, 0.0, 2023-09-22 17:05:52.602
8.0, 20773.890110718028, 31229.477373299287, -47366.520448508316, -45924.56471020755, -31032.334987203478, -18500.740051357752, -187500.02235174447, -13820.105948460812, -7719.845499973953, 16001.658559043237, -43911.03016269567, -39320.56299693144, -15387.074993500113, -36710.12511374058, -44341.3682986937, -41341.56302709139, -0.002, 1.008, 0.122, 192.0, 127.5, 120.0, 15.5, 64.0, 1.5, 104.0, 0.0, 0.0, 0.0, 1.695420352602876E9, 0.0, 2023-09-22 17:05:52.602
10.0, 20785.177741667958, 31234.52886754619, -47369.13560260959, -45925.95051836378, -31035.486583171678, -18504.338682215057, -187500.02235174447, -13823.92809676267, -7716.157462138827, 16010.398091125262, -43907.54329056064, -39317.8807875968, -15383.185789964891, -36710.2145207184, -44336.29445270234, -41339.55137009041, -0.002, 1.008, 0.122, 192.0, 0.0, 0.0, 0.0, 0.0, 0.0, 0.0, 0.0, 0.0, 0.0, 1.695420352602879E9, 0.0, 2023-09-22 17:05:52.602
12.0, 20776.326450863657, 31232.941893689862, -47365.84989617466, -45923.00008809568, -31032.513801159123, -18502.37172870299, -187500.02235174447, -13820.709445561106, -7711.687113247766, 16013.437928371184, -43901.888299213446, -39311.01880204902, -15379.363641663032, -36700.603270602616, -44331.10884798871, -41332.935253731644, -0.002, 1.008, 0.122, 192.0, 0.0, 0.0, 0.0, 0.0, 0.0, 0.0, 0.0, 0.0, 0.0, 1.695420352602883E9, 0.0, 2023-09-22 17:05:52.602
14.0, 20778.606328798098, 31228.046861654148, -47381.65257950456, -45938.95923363677, -31040.761594863132, -18516.833307365574, -187500.02235174447, -13835.863928301804, -7722.550061053045, 16003.223181155108, -43917.17689242088, -39323.08874405488, -15388.863133056539, -36714.6178143761, -44340.45187717103, -41346.56981784938, -0.002, 1.008, 0.122, 192.0, 0.0, 0.0, 0.0, 0.0, 0.0, 0.0, 0.0, 0.0, 0.0, 1.695420352602886E9, 0.0, 2023-09-22 17:05:52.602
16.0, 20770.78321823874, 31227.957454676325, -47378.65744574755, -45929.392687009895, -31038.638179139874, -18507.311464227612, -187500.02235174447, -13828.130224720268, -7728.585032055978, 16002.664387543726, -43921.64724131194, -39327.29087201248, -15394.898104059472, -36713.85785506461, -44347.000938296434, -41347.5085911165, -0.002, 1.008, 0.122, 192.0, 0.0, 0.0, 0.0, 0.0, 0.0, 0.0, 0.0, 0.0, 0.0, 1.695420352663087E9, 0.0, 2023-09-22 17:05:52.663
18.0, 20786.898825991015, 31232.159582633925, -47363.94999789596, -45917.233338026206, -31020.734431831173, -18498.08019376757, -187500.02235174447, -13818.966009493592, -7717.297401106049, 16010.509849847538, -43907.38682834945, -39312.426961949706, -15381.107077730547, -36699.4633316354, -44332.40524916712, -41333.22582640956, 0.002, 1.004, 0.128, 192.0, 0.0, 8.0, 15.5, 48.0, 2.0, 0.0, 0.0, 0.0, 0.0, 1.695420352663097E9, 0.0, 2023-09-22 17:05:52.663
20.0, 20770.02325892726, 31228.33743433207, -47370.56611425473, -45921.68133517281, -31032.826725581497, -18503.6681298814, -187500.02235174447, -13823.704579318117, -7716.000999927641, 16016.813041783935, -43902.42474108037, -39308.984793303585, -15380.905912030448, -36698.010468245804, -44331.48882764445, -41331.527093830955, 0.002, 1.004, 0.128, 192.0, 0.0, 0.0, 0.0, 0.0, 0.0, 0.0, 0.0, 0.0, 0.0, 1.695420352663101E9, 0.0, 2023-09-22 17:05:52.663
22.0, 20767.989250181825, 31219.687309227862, -47376.19875385747, -45935.13708533491, -31032.200876736748, -18515.536906187168, -187500.02235174447, -13834.567527123396, -7728.450921589247, 16004.318416633418, -43915.992249964744, -39321.859398109846, -15388.90783654545, -36712.29323295275, -44338.77549633688, -41342.77002129197, 0.002, 1.004, 0.128, 192.0, 0.0, 0.0, 0.0, 0.0, 0.0, 0.0, 0.0, 0.0, 0.0, 1.695420352663105E9, 0.0, 2023-09-22 17:05:52.663
24.0, 20758.601517510597, 31222.503629029234, -47378.56803876973, -45935.62882371293, -31042.393272208366, -18513.86052535302, -187500.02235174447, -13833.539346878451, -7728.987363456174, 16003.156125921741, -43919.300308144135, -39326.597967934365, -15390.04777551267, -36714.03666902026, -44340.80950508231, -41345.04989922642, 0.002, 1.004, 0.128, 192.0, 0.0, 0.0, 0.0, 0.0, 0.0, 0.0, 0.0, 0.0, 0.0, 1.695420352663108E9, 0.0, 2023-09-22 17:05:52.663
26.0, 20761.5519477787, 31217.206265593326, -47375.77407071282, -45936.63465221342, -31037.85586808394, -18516.073348054095, -187500.02235174447, -13834.142843978745, -7735.536424581579, 15997.791707252469, -43929.11272396001, -39334.532837216, -15395.345138948578, -36720.42926793447, -44346.30803421832, -41349.52024811748, 0.002, 1.004, 0.128, 192.0, 0.0, 0.0, 0.0, 0.0, 0.0, 0.0, 0.0, 0.0, 0.0, 1.695420352663111E9, 0.0, 2023-09-22 17:05:52.663
28.0, 20769.509168804787, 31231.936065189373, -47365.15699209655, -45914.148797291375, -31043.220286753214, -18494.392155932448, -187500.02235174447, -13815.501489103019, -7726.685133777277, 16005.59246606737, -43917.266299398696, -39323.15579928825, -15390.181885979402, -36706.481779394366, -44343.983452794964, -41337.56206483389, 0.002, 1.004, 0.128, 192.0, 0.0, 0.0, 15.5, 72.0, 2.0, 16.0, 0.0, 0.0, 0.0, 1.695420352663115E9, 0.0, 2023-09-22 17:05:52.663
30.0, 20775.141808407523, 31229.387966321465, -47364.95582639645, -45919.71438166075, -31035.91126631633, -18504.00340604823, -187500.02235174447, -13818.518974604485, -7715.3751510828915, 16014.376701638306, -43906.62686903797, -39311.555243915944, -15382.068202742124, -36696.15527345601, -44333.43342941206, -41326.02856469495, 0.002, 1.004, 0.128, 192.0, 0.0, 0.0, 0.0, 0.0, 0.0, 0.0, 0.0, 0.0, 0.0, 1.695420352722512E9, 0.0, 2023-09-22 17:05:52.722
32.0, 20780.282709632243, 31244.006007195236, -47358.6749862045, -45902.95057331927, -31039.44284194027, -18486.971376773283, -187500.02235174447, -13811.791099523438, -7720.2478313741485, 16011.873306259313, -43908.07973242757, -39311.44348519367, -15387.812601067139, -36696.5129013673, -44338.37316493668, -41328.599015307314, 0.002, 1.004, 0.128, 192.0, 0.0, 0.0, 0.0, 0.0, 0.0, 0.0, 0.0, 0.0, 0.0, 1.695420352722525E9, 0.0, 2023-09-22 17:05:52.722
34.0, 20780.34976486561, 31234.41710882391, -47357.579750726196, -45911.04190481209, -31025.070670255504, -18495.308577455115, -187500.02235174447, -13812.931038490658, -7710.256601602627, 16018.914105762733, -43898.110854400504, -39302.30162171145, -15375.18386544989, -36685.33702913964, -44325.610318852705, -41317.490198313026, 0.002, 1.004, 0.128, 192.0, 0.0, 0.0, 0.0, 0.0, 0.0, 0.0, 0.0, 0.0, 0.0, 1.695420352722529E9, 0.0, 2023-09-22 17:05:52.722
36.0, 20776.840540986126, 31237.591056536563, -47362.385375784084, -45912.24889901267, -31036.872391327906, -18492.358147187013, -187500.02235174447, -13812.931038490658, -7721.968915697207, 16009.347559135862, -43913.10887493001, -39318.9313195862, -15384.772763821216, -36696.468197878385, -44334.77453407938, -41327.503779829, 0.002, 1.004, 0.128, 192.0, 0.0, 0.0, 0.0, 0.0, 0.0, 0.0, 0.0, 0.0, 0.0, 1.695420352722532E9, 0.0, 2023-09-22 17:05:52.722
38.0, 20770.135017649536, 31221.60955925102, -47367.302759564256, -45929.59385270999, -31030.56919939151, -18509.099603784038, -187500.02235174447, -13821.871736272782, -7721.410122085825, 15997.769355508013, -43916.10400868702, -39325.05569756695, -15383.096382987069, -36701.49734038083, -44334.908644546114, -41331.392983364225, 0.002, 1.008, 0.124, 192.0, 0.0, 8.0, 15.5, 64.0, 1.5, 112.0, 0.0, 0.0, 0.0, 1.695420352722535E9, 0.0, 2023-09-22 17:05:52.722
40.0, 20782.383773611044, 31235.534696046678, -47359.926683894, -45914.34996299147, -31032.491449414665, -18494.079231510073, -187500.02235174447, -13813.40042512422, -7722.5947645419565, 15999.35632936434, -43917.623927309985, -39329.14606680228, -15384.862170799039, -36706.90646253902, -44340.16130449311, -41335.97509097756, 0.002, 1.008, 0.124, 192.0, 0.0, 0.0, 0.0, 0.0, 0.0, 0.0, 0.0, 0.0, 0.0, 1.695420352722538E9, 0.0, 2023-09-22 17:05:52.722
42.0, 20782.24966314431, 31229.455021554833, -47356.663329203526, -45918.50738746016, -31019.192161463758, -18501.544714158146, -187500.02235174447, -13816.529669347963, -7707.619095756901, 16006.687701545681, -43902.804720736116, -39314.88565383979, -15370.288833414179, -36692.08725596515, -44326.05735374181, -41322.18406464864, 0.002, 1.008, 0.124, 192.0, 0.0, 0.0, 0.0, 0.0, 0.0, 0.0, 0.0, 0.0, 0.0, 1.695420352722542E9, 0.0, 2023-09-22 17:05:52.722
44.0, 20785.513017834786, 31235.735861746773, -47375.37173931262, -45931.225530055235, -31043.309693731037, -18516.587438176568, -187500.02235174447, -13836.914460291204, -7722.617116286411, 16001.16682066522, -43919.926156988884, -39328.52021795753, -15383.2304934538, -36709.92394804048, -44342.37412719418, -41342.010061980494, 0.002, 1.008, 0.124, 192.0, 0.0, 0.0, 0.0, 0.0, 0.0, 0.0, 0.0, 0.0, 0.0, 1.695420352722545E9, 0.0, 2023-09-22 17:05:52.722
46.0, 20785.44596260142, 31233.366576834513, -47358.85380016015, -45921.10018981698, -31025.65181561134, -18510.99950206274, -187500.02235174447, -13833.516995133996, -7717.05153191704, 16001.099765431854, -43911.96893596279, -39322.17232253222, -15378.111943973536, -36703.2631281928, -44341.122429504685, -41340.15486719071, 0.002, 1.008, 0.124, 192.0, 0.0, 0.0, 0.0, 0.0, 0.0, 0.0, 0.0, 0.0, 0.0, 1.6954203527824E9, 0.0, 2023-09-22 17:05:52.782
48.0, 20785.96005272389, 31238.060443170125, -47371.86251543314, -45928.92330037634, -31045.61192340993, -18518.86731611101, -187500.02235174447, -13843.709390605616, -7722.326543608492, 16002.150297421254, -43916.34987787603, -39324.3851452333, -15382.202313208856, -36709.74513408484, -44345.79394409584, -41347.396832394224, -0.002, 1.006, 0.122, 192.0, 127.5, 120.0, 15.5, 56.0, 1.5, 104.0, 0.0, 0.0, 0.0, 1.695420352782414E9, 0.0, 2023-09-22 17:05:52.782
50.0, 20778.561625309187, 31229.99146342176, -47362.810058928735, -45925.838759641505, -31036.425356438802, -18514.307560242123, -187500.02235174447, -13835.64041085725, -7721.8348052304755, 15996.852933985345, -43914.3158691306, -39322.485246954595, -15386.33738593309, -36705.09597123814, -44345.033984784364, -41343.23940792554, -0.002, 1.006, 0.122, 192.0, 0.0, 0.0, 0.0, 0.0, 0.0, 0.0, 0.0, 0.0, 0.0, 1.695420352782418E9, 0.0, 2023-09-22 17:05:52.782
52.0, 20791.30211964871, 31239.937989704373, -47361.31249205023, -45920.22847178322, -31040.783946607586, -18508.3172927281, -187500.02235174447, -13827.862003786804, -7718.504395306635, 16002.239704399075, -43912.84065399655, -39321.59117717638, -15384.884522543494, -36706.83940730565, -44343.82699058378, -41342.591207336336, -0.002, 1.006, 0.122, 192.0, 0.0, 0.0, 0.0, 0.0, 0.0, 0.0, 0.0, 0.0, 0.0, 1.695420352782421E9, 0.0, 2023-09-22 17:05:52.782
54.0, 20778.516921820275, 31232.42780356739, -47369.247361331865, -45929.48209398772, -31044.76255712063, -18517.928542843885, -187500.02235174447, -13832.35470442232, -7718.638505773367, 16002.507925332538, -43908.325601616576, -39316.20440676265, -15388.483153400799, -36705.02891600477, -44344.47519117298, -41340.04310846843, -0.002, 1.006, 0.122, 192.0, 0.0, 0.0, 0.0, 0.0, 0.0, 0.0, 0.0, 0.0, 0.0, 1.695420352782424E9, 0.0, 2023-09-22 17:05:52.782
56.0, 20789.804552770205, 31240.541486804665, -47365.51462000783, -45923.111846817956, -31042.169754763814, -18510.887743340463, -187500.02235174447, -13827.929059020169, -7726.036933188073, 16001.390338109773, -43913.24298539674, -39320.183017275696, -15393.042909269681, -36711.913253297, -44346.30803421832, -41343.95466374811, -0.002, 1.006, 0.122, 192.0, 0.0, 0.0, 0.0, 0.0, 0.0, 0.0, 0.0, 0.0, 0.0, 1.695420352782428E9, 0.0, 2023-09-22 17:05:52.782
58.0, 20785.133038179047, 31240.116803660014, -47350.13661982258, -45909.387875722394, -31025.405946422336, -18498.683690867867, -187500.02235174447, -13815.613247825295, -7714.816357471509, 16005.950093978656, -43897.66381951139, -39306.66021188023, -15378.782496307194, -36694.16596819949, -44329.47717064347, -41323.97220420506, 0.002, 1.006, 0.126, 192.0, 0.0, 8.0, 15.5, 56.0, 1.5, 120.0, 0.0, 0.0, 0.0, 1.695420352782431E9, 0.0, 2023-09-22 17:05:52.782
60.0, 20782.182607910945, 31231.287864600166, -47365.067585118726, -45926.263442786156, -31036.984150050183, -18516.14040328746, -187500.02235174447, -13830.477157888075, -7727.57920355549, 15999.73630902008, -43909.6667062839, -39317.523159685516, -15386.33738593309, -36707.44290440594, -44332.78522882286, -41333.4046403652, 0.002, 1.006, 0.126, 192.0, 0.0, 0.0, 0.0, 0.0, 0.0, 0.0, 0.0, 0.0, 0.0, 1.695420352842717E9, 0.0, 2023-09-22 17:05:52.842
62.0, 20776.97465145286, 31234.193591379357, -47354.629320458094, -45913.90292810237, -31031.060937769525, -18501.94704555834, -187500.02235174447, -13819.055416471412, -7727.668610533311, 15994.058965928432, -43908.459712083306, -39318.283118996995, -15387.097345244569, -36702.59257585914, -44331.421772411086, -41328.93429147414, 0.002, 1.006, 0.126, 192.0, 0.0, 0.0, 0.0, 0.0, 0.0, 0.0, 0.0, 0.0, 0.0, 1.695420352842732E9, 0.0, 2023-09-22 17:05:52.842
64.0, 20787.39056436903, 31237.859277470026, -47351.45537274544, -45911.9359745903, -31020.51091438662, -18499.51070541271, -187500.02235174447, -13814.719178047084, -7719.66668601831, 16000.742137520569, -43906.1127789155, -39315.422095706715, -15378.536627118187, -36696.758770556306, -44324.58213860776, -41322.34052685983, 0.002, 1.006, 0.126, 192.0, 0.0, 0.0, 0.0, 0.0, 0.0, 0.0, 0.0, 0.0, 0.0, 1.695420352842735E9, 0.0, 2023-09-22 17:05:52.842
66.0, 20776.795837497215, 31237.255780369735, -47356.19394256997, -45912.695933901785, -31026.27766445609, -18499.577760646076, -187500.02235174447, -13813.936866991147, -7715.95629643873, 16005.056024200443, -43905.01754343719, -39313.96923231712, -15378.983662007293, -36694.14361645503, -44327.01847875339, -41321.98289894854, 0.002, 1.006, 0.126, 192.0, 0.0, 0.0, 0.0, 0.0, 0.0, 0.0, 0.0, 0.0, 0.0, 1.695420352842739E9, 0.0, 2023-09-22 17:05:52.842
68.0, 20775.566491552174, 31225.69992848634, -47372.868343933624, -45933.438352756304, -31030.36803369141, -18519.917848100406, -187500.02235174447, -13830.298343932433, -7722.371247097403, 16003.98314046659, -43913.2653371412, -39323.602834177356, -15384.303377187656, -36704.04543924874, -44332.58406312276, -41331.92942523115, 0.002, 1.01, 0.13, 192.0, 0.0, 8.0, 15.5, 72.0, 2.0, 8.0, 0.0, 0.0, 0.0, 1.695420352842742E9, 0.0, 2023-09-22 17:05:52.842
70.0, 20776.035878185736, 31237.345187347557, -47363.6817769625, -45918.75325664917, -31031.709138358732, -18504.338682215057, -187500.02235174447, -13820.284762416455, -7724.695828520755, 15999.132811919788, -43913.555909819115, -39326.888540612286, -15390.539513890686, -36706.70529683892, -44339.15547599262, -41337.71852704508, 0.002, 1.01, 0.13, 192.0, 0.0, 0.0, 0.0, 0.0, 0.0, 0.0, 0.0, 0.0, 0.0, 1.695420352842745E9, 0.0, 2023-09-22 17:05:52.842
72.0, 20780.617985799076, 31232.56191403412, -47363.167686840025, -45924.83293114101, -31023.506048143634, -18511.982978818774, -187500.02235174447, -13823.838689784849, -7718.884374962375, 16003.066718943921, -43908.12443591648, -39322.35113648786, -15380.861208541539, -36704.29130843774, -44327.62197585368, -41332.24234965353, 0.002, 1.01, 0.13, 192.0, 0.0, 0.0, 0.0, 0.0, 0.0, 0.0, 0.0, 0.0, 0.0, 1.695420352842748E9, 0.0, 2023-09-22 17:05:52.842
74.0, 20783.188436411434, 31242.28492287218, -47357.53504723729, -45912.673582157324, -31029.71983310221, -18500.605940891022, -187500.02235174447, -13816.283800158955, -7716.157462138827, 16002.01618695452, -43904.4140463369, -39320.20536902015, -15379.788324807683, -36703.57605261517, -44325.69972583053, -41330.14128567473, 0.002, 1.01, 0.13, 192.0, 0.0, 0.0, 0.0, 0.0, 0.0, 0.0, 0.0, 0.0, 0.0, 1.695420352842751E9, 0.0, 2023-09-22 17:05:52.842
76.0, 20785.714183534885, 31235.71351000232, -47359.83727691618, -45918.95442234927, -31027.261141212126, -18508.719624128298, -187500.02235174447, -13820.754149050015, -7713.005866170629, 16002.9773119661, -43901.64243002444, -39315.95853757364, -15381.28589168619, -36701.40793340301, -44326.39262990864, -41326.96733796207, 0.002, 1.01, 0.13, 192.0, 0.0, 0.0, 0.0, 0.0, 0.0, 0.0, 0.0, 0.0, 0.0, 1.695420352902945E9, 0.0, 2023-09-22 17:05:52.902
78.0, 20782.45082884441, 31241.167335649414, -47366.2298758304, -45917.34509674849, -31044.896667587363, -18504.495144426244, -187500.02235174447, -13817.960180993103, -7719.711389507222, 16003.223181155108, -43904.03406668116, -39316.15970327374, -15388.393746422977, -36699.88801478005, -44335.28862420185, -41327.9061112292, 0.006, 1.008, 0.13, 192.0, 0.0, 24.0, 15.5, 64.0, 2.0, 8.0, 0.0, 0.0, 0.0, 1.695420352902956E9, 0.0, 2023-09-22 17:05:52.902
80.0, 20781.132075921545, 31228.51624828771, -47366.69926246396, -45923.26830902914, -31037.498240172656, -18512.05003405214, -187500.02235174447, -13824.553945607418, -7726.975706455196, 15998.506963075039, -43911.03016269567, -39322.35113648786, -15393.668758114429, -36704.62658460457, -44341.614167882704, -41333.11406768728, 0.006, 1.008, 0.13, 192.0, 0.0, 0.0, 0.0, 0.0, 0.0, 0.0, 0.0, 0.0, 0.0, 1.69542035290296E9, 0.0, 2023-09-22 17:05:52.902
82.0, 20784.97657596786, 31237.70281525884, -47359.256131560345, -45910.68427690081, -31043.600266408954, -18500.13655425746, -187500.02235174447, -13816.730835048062, -7727.378037855392, 15998.238742141575, -43909.845520239534, -39323.42402022172, -15392.729984847307, -36702.86079679261, -44342.15060974963, -41330.54361707492, 0.006, 1.008, 0.13, 192.0, 0.0, 0.0, 0.0, 0.0, 0.0, 0.0, 0.0, 0.0, 0.0, 1.695420352902963E9, 0.0, 2023-09-22 17:05:52.902
84.0, 20787.278805646754, 31231.80195472264, -47350.2260268004, -45913.99233508019, -31023.19312372126, -18504.293978726146, -187500.02235174447, -13815.456785614108, -7712.491776048158, 16006.486535845583, -43895.7639212327, -39312.31520322743, -15378.1789992069, -36690.09795070862, -44327.48786538695, -41317.333736101835, 0.006, 1.008, 0.13, 192.0, 0.0, 0.0, 0.0, 0.0, 0.0, 0.0, 0.0, 0.0, 0.0, 1.695420352902966E9, 0.0, 2023-09-22 17:05:52.902
86.0, 20790.408049870497, 31240.18385889338, -47356.886846648085, -45916.00399208117, -31035.08425177148, -18506.260932238216, -187500.02235174447, -13819.815375782893, -7713.743473737654, 16005.9277422342, -43901.44126432434, -39315.913834084735, -15382.939920775882, -36694.27772692177, -44330.706516588514, -41322.295823370914, 0.006, 1.008, 0.13, 192.0, 0.0, 0.0, 0.0, 0.0, 0.0, 0.0, 0.0, 0.0, 0.0, 1.695420352902969E9, 0.0, 2023-09-22 17:05:52.902
88.0, 20779.545102065218, 31225.811687208618, -47360.999567627856, -45928.364506764956, -31022.835495809974, -18517.39210097696, -187500.02235174447, -13826.051512485923, -7721.521880808102, 15997.389375852274, -43910.292555128646, -39320.04890680897, -15386.85147605556, -36698.94924151293, -44333.522836389886, -41329.224864152064, 0.004, 1.006, 0.134, 192.0, 0.0, 16.0, 15.5, 56.0, 2.0, 24.0, 0.0, 0.0, 0.0, 1.695420352902972E9, 0.0, 2023-09-22 17:05:52.902
90.0, 20789.11164869209, 31240.09445191556, -47355.344576280666, -45916.09339905899, -31027.48465865668, -18501.99174904725, -187500.02235174447, -13817.647256570728, -7729.769674512109, 15992.092012416366, -43921.75900003422, -39326.62031967883, -15392.752336591762, -36705.40889566051, -44342.08355451626, -41338.63494856774, 0.004, 1.006, 0.134, 192.0, 0.0, 0.0, 0.0, 0.0, 0.0, 0.0, 0.0, 0.0, 0.0, 1.695420352963289E9, 0.0, 2023-09-22 17:05:52.963
92.0, 20785.691831790427, 31232.450155311843, -47347.63322444358, -45920.49669271668, -31012.933673016272, -18506.551504916133, -187500.02235174447, -13810.628808811762, -7705.227459100182, 16007.246495157064, -43899.988400934744, -39305.632031635294, -15368.925377002404, -36683.57124132768, -44322.14579846213, -41318.8536547248, 0.004, 1.006, 0.134, 192.0, 0.0, 0.0, 0.0, 0.0, 0.0, 0.0, 0.0, 0.0, 0.0, 1.695420352963303E9, 0.0, 2023-09-22 17:05:52.963
94.0, 20790.87743650406, 31240.720300760306, -47360.46312576093, -45927.917471875844, -31034.301940715548, -18512.988807319263, -187500.02235174447, -13821.245887428033, -7719.353761595937, 15995.31066361793, -43918.16036917691, -39319.73598238659, -15386.180923721902, -36706.057096249715, -44340.89891206013, -41341.83124802486, 0.004, 1.006, 0.134, 192.0, 0.0, 0.0, 0.0, 0.0, 0.0, 0.0, 0.0, 0.0, 0.0, 1.695420352963307E9, 0.0, 2023-09-22 17:05:52.963
96.0, 20785.11068643459, 31234.03712916817, -47358.38441352659, -45926.62107069744, -31022.74608883215, -18509.658397395422, -187500.02235174447, -13816.2614484145, -7714.950467938241, 15991.01912868251, -43914.91936623089, -39309.118903770315, -15384.705708587851, -36702.279651436766, -44337.859074814216, -41340.51249510199, 0.004, 1.006, 0.134, 192.0, 0.0, 0.0, 0.0, 0.0, 0.0, 0.0, 0.0, 0.0, 0.0, 1.69542035296331E9, 0.0, 2023-09-22 17:05:52.963
98.0, 20793.313776649687, 31245.771795007207, -47363.50296300685, -45921.3907624949, -31031.642083125364, -18502.639949636454, -187500.02235174447, -13814.83093676936, -7718.169119139805, 15995.35536710684, -43918.76386627721, -39304.514444412525, -15387.723194089318, -36707.800532317226, -44336.517970146895, -41344.78167829295, 0.002, 1.01, 0.138, 192.0, 0.0, 8.0, 15.5, 72.0, 2.0, 40.0, 0.0, 0.0, 0.0, 1.695420352963313E9, 0.0, 2023-09-22 17:05:52.963
100.0, 20786.58590156864, 31241.860239727528, -47367.41451828653, -45917.14393104839, -31028.13285924588, -18501.27649322468, -187500.02235174447, -13812.97574197957, -7714.9057644493305, 15998.574018308404, -43907.87856672747, -39288.354133171335, -15388.170228978424, -36699.23981419084, -44331.28766194435, -41338.120858445276, 0.002, 1.01, 0.138, 192.0, 0.0, 0.0, 0.0, 0.0, 0.0, 0.0, 0.0, 0.0, 0.0, 1.695420352963317E9, 0.0, 2023-09-22 17:05:52.963
102.0, 20800.443983130932, 31254.75719627824, -47369.71674796543, -45910.170186778334, -31031.932655803284, -18496.359109444515, -187500.02235174447, -13813.44512861313, -7720.136072651872, 16000.630378798292, -43905.64339228194, -39284.59904010285, -15394.495772659277, -36705.20772996041, -44335.24392071294, -41344.3569951483, 0.002, 1.01, 0.138, 192.0, 0.0, 0.0, 0.0, 0.0, 0.0, 0.0, 0.0, 0.0, 0.0, 1.69542035296332E9, 0.0, 2023-09-22 17:05:52.963
104.0, 20802.232122687357, 31256.880612001492, -47352.34944252366, -45889.15954699034, -31008.865655525406, -18477.024850490674, -187500.02235174447, -13798.49181157253, -7700.980627653674, 16010.800422525457, -43877.10021461251, -39260.10152817983, -15376.636728839485, -36683.683000049954, -44317.25076642642, -41325.91680597267, 0.002, 1.01, 0.138, 192.0, 0.0, 0.0, 0.0, 0.0, 0.0, 0.0, 0.0, 0.0, 0.0, 1.695420352963323E9, 0.0, 2023-09-22 17:05:52.963
106.0, 20807.954169267916, 31257.305295146147, -47360.79840192776, -45890.56770689103, -31009.17857994778, -18477.673051079877, -187500.02235174447, -13801.308131373899, -7697.471403774191, 16019.897582518768, -43867.48896449673, -39252.926618209676, -15367.472513612809, -36680.06201744819, -44307.88538549965, -41319.25598612499, 0.002, 1.01, 0.138, 192.0, 0.0, 0.0, 0.0, 0.0, 0.0, 0.0, 0.0, 0.0, 0.0, 1.695420353022555E9, 0.0, 2023-09-22 17:05:53.022
108.0, 20793.336128394145, 31246.129422918493, -47374.52237302332, -45897.116768016436, -31019.48273414168, -18484.669147094388, -187500.02235174447, -13809.645332055728, -7708.267296346105, 16012.722672548614, -43871.02054012067, -39260.95089446913, -15375.049754983158, -36682.74422678283, -44315.328516403264, -41324.396887349714, 0.002, 1.01, 0.136, 192.0, 0.0, 8.0, 15.5, 72.0, 2.0, 32.0, 0.0, 0.0, 0.0, 1.695420353022565E9, 0.0, 2023-09-22 17:05:53.022
110.0, 20802.58975059864, 31245.79414675166, -47375.79642245727, -45895.44038718229, -31017.873408540894, -18483.976243016274, -187500.02235174447, -13809.667683800184, -7716.112758649917, 16006.084204445388, -43877.36843554598, -39271.9703044856, -15381.464705641833, -36694.07656122167, -44323.665717085096, -41335.52805608846, 0.002, 1.01, 0.136, 192.0, 0.0, 0.0, 0.0, 0.0, 0.0, 0.0, 0.0, 0.0, 0.0, 1.695420353022569E9, 0.0, 2023-09-22 17:05:53.022
112.0, 20792.17383768247, 31244.587152551074, -47374.72353872342, -45894.07693077051, -31020.488562642167, -18485.585568617054, -187500.02235174447, -13806.694901787629, -7707.060302145518, 16011.40391962575, -43863.800926661606, -39263.83426950387, -15373.507484615742, -36684.733532039354, -44316.53551060385, -41326.67676528416, 0.002, 1.01, 0.136, 192.0, 0.0, 0.0, 0.0, 0.0, 0.0, 0.0, 0.0, 0.0, 0.0, 1.695420353022572E9, 0.0, 2023-09-22 17:05:53.022
114.0, 20796.73359355135, 31240.832059482585, -47380.04325390378, -45905.476320442714, -31022.209646965224, -18497.141420500448, -187500.02235174447, -13816.462614114596, -7716.157462138827, 15994.573056050904, -43874.32859830005, -39278.83229003338, -15383.632824853996, -36702.346706670134, -44324.89506303013, -41339.97605323506, 0.002, 1.01, 0.136, 192.0, 0.0, 0.0, 0.0, 0.0, 0.0, 0.0, 0.0, 0.0, 0.0, 1.695420353022575E9, 0.0, 2023-09-22 17:05:53.022
116.0, 20793.02320397177, 31243.022530439204, -47372.66717823353, -45893.89811681487, -31019.46038239722, -18482.90335928242, -187500.02235174447, -13804.705596531106, -7706.881488189875, 15995.69064327367, -43865.72317668476, -39274.00431323103, -15377.46374338433, -36697.29521242323, -44320.961156006, -41335.997442722015, 0.002, 1.01, 0.136, 192.0, 0.0, 0.0, 0.0, 0.0, 0.0, 0.0, 0.0, 0.0, 0.0, 1.695420353022578E9, 0.0, 2023-09-22 17:05:53.022
118.0, 20800.01929998628, 31236.89815245845, -47372.35425381116, -45896.58032614951, -31008.686841569765, -18483.618615104988, -187500.02235174447, -13805.085576186846, -7702.232325343171, 16007.224143412608, -43864.91851388437, -39270.22686841808, -15372.166379948423, -36693.40600888801, -44314.47915011396, -41330.633024052746, 0.004, 1.004, 0.132, 192.0, 0.0, 16.0, 15.5, 48.0, 2.0, 16.0, 0.0, 0.0, 0.0, 1.695420353022582E9, 0.0, 2023-09-22 17:05:53.022
120.0, 20792.330299893656, 31235.51234430222, -47377.919838180525, -45897.89907907237, -31017.314614929513, -18485.876141294975, -187500.02235174447, -13806.247866898522, -7704.9815899111745, 16007.090032945876, -43869.21004881979, -39272.998484730546, -15377.016708495226, -36694.2106716884, -44318.59187109374, -41332.734088031546, 0.004, 1.004, 0.132, 192.0, 0.0, 0.0, 0.0, 0.0, 0.0, 0.0, 0.0, 0.0, 0.0, 1.69542035308238E9, 0.0, 2023-09-22 17:05:53.082
122.0, 20797.337090651643, 31230.61731226651, -47374.835297445694, -45899.88838432889, -31006.205797935225, -18492.55931288711, -187500.02235174447, -13810.561753578397, -7709.273124846593, 15995.176553151197, -43874.32859830005, -39277.55824059943, -15380.123600974513, -36701.83261654766, -44322.52577811787, -41338.61259682329, 0.004, 1.004, 0.132, 192.0, 0.0, 0.0, 0.0, 0.0, 0.0, 0.0, 0.0, 0.0, 0.0, 1.695420353082393E9, 0.0, 2023-09-22 17:05:53.082
124.0, 20791.883265004548, 31236.294655358157, -47378.70214923646, -45898.904907572854, -31021.539094631567, -18492.291091953648, -187500.02235174447, -13813.422776868676, -7708.960200424219, 15994.59540779536, -43872.0040168767, -39275.59128708736, -15380.525932374709, -36700.26799443579, -44323.442199640536, -41338.34437588983, 0.004, 1.004, 0.132, 192.0, 0.0, 0.0, 0.0, 0.0, 0.0, 0.0, 0.0, 0.0, 0.0, 1.695420353082397E9, 0.0, 2023-09-22 17:05:53.082
126.0, 20791.50328534881, 31225.945797675347, -47380.84791670417, -45910.25959375616, -31018.05222249654, -18501.209437991314, -187500.02235174447, -13816.909649003703, -7715.24104061616, 15991.130887404786, -43879.40244429141, -39280.039284233964, -15386.940883033381, -36704.04543924874, -44327.219644453486, -41341.115992202285, 0.004, 1.004, 0.132, 192.0, 0.0, 0.0, 0.0, 0.0, 0.0, 0.0, 0.0, 0.0, 0.0, 1.6954203530824E9, 0.0, 2023-09-22 17:05:53.082
128.0, 20792.911445249494, 31233.768908234706, -47374.27650383431, -45895.350980204465, -31025.696519100253, -18487.19489421784, -187500.02235174447, -13809.533573333452, -7720.672514518799, 15991.64497752726, -43885.75033971672, -39283.99554300255, -15393.400537180965, -36704.00073575982, -44333.18756022305, -41342.300634658415, 0.002, 1.002, 0.134, 192.0, 0.0, 8.0, 15.5, 40.0, 2.0, 24.0, 0.0, 0.0, 0.0, 1.695420353082403E9, 0.0, 2023-09-22 17:05:53.082
130.0, 20797.582959840653, 31228.024509909694, -47364.79936418526, -45893.27226797012, -31007.055164224526, -18487.060783751105, -187500.02235174447, -13804.504430831008, -7707.462633545713, 15998.953997964145, -43873.233362821746, -39271.1209381963, -15377.351984662055, -36689.58386058615, -44319.82121703878, -41328.867236240774, 0.002, 1.002, 0.134, 192.0, 0.0, 0.0, 0.0, 0.0, 0.0, 0.0, 0.0, 0.0, 0.0, 1.695420353082406E9, 0.0, 2023-09-22 17:05:53.082
132.0, 20793.87257026107, 31232.494858800754, -47372.91304742254, -45894.41220693734, -31025.964740033716, -18488.156019229416, -187500.02235174447, -13807.365454121287, -7710.346008580448, 15998.64107354177, -43877.10021461251, -39273.8702027643, -15377.70961257334, -36690.88026176456, -44324.24686244093, -41332.734088031546, 0.002, 1.002, 0.134, 192.0, 0.0, 0.0, 0.0, 0.0, 0.0, 0.0, 0.0, 0.0, 0.0, 1.69542035308241E9, 0.0, 2023-09-22 17:05:53.082
134.0, 20792.375003382567, 31224.04589939665, -47367.95096015346, -45899.79897735107, -31011.346699159945, -18496.98495828926, -187500.02235174447, -13811.187602423144, -7711.284781847571, 15992.181419394186, -43878.3072088131, -39276.753577799034, -15378.938958518382, -36693.42836063247, -44326.61614735319, -41336.44447761113, 0.002, 1.002, 0.134, 192.0, 0.0, 0.0, 0.0, 0.0, 0.0, 0.0, 0.0, 0.0, 0.0, 1.695420353082413E9, 0.0, 2023-09-22 17:05:53.082
136.0, 20788.754020780805, 31226.258722097722, -47375.57290501272, -45906.86212859895, -31030.211571480224, -18503.62342639249, -187500.02235174447, -13818.83189902686, -7718.169119139805, 15984.000680923544, -43887.896107184424, -39287.99650526005, -15386.42679291091, -36707.375849172575, -44334.43925791255, -41349.22967543956, 0.002, 1.002, 0.134, 192.0, 0.0, 0.0, 0.0, 0.0, 0.0, 0.0, 0.0, 0.0, 0.0, 1.695420353142587E9, 0.0, 2023-09-22 17:05:53.142
138.0, 20786.518846335275, 31219.70966097232, -47366.76631769733, -45904.96223032025, -31013.291300927558, -18503.958702559317, -187500.02235174447, -13817.468442615085, -7714.279915604582, 15975.439962797162, -43883.04577863762, -39286.78951105947, -15381.28589168619, -36705.34184042714, -44327.39845840913, -41344.736974804044, 0.002, 1.008, 0.134, 192.0, 0.0, 8.0, 15.5, 64.0, 2.0, 24.0, 0.0, 0.0, 0.0, 1.695420353142599E9, 0.0, 2023-09-22 17:05:53.142
140.0, 20794.63252957255, 31230.483201799776, -47365.64873047456, -45895.909773815845, -31016.733469573675, -18493.341623943048, -187500.02235174447, -13810.897029745225, -7709.027255657585, 15981.385526822272, -43879.82712743606, -39283.48145288008, -15375.362679405533, -36704.13484622656, -44323.86688278519, -41343.03824222544, 0.002, 1.008, 0.134, 192.0, 0.0, 0.0, 0.0, 0.0, 0.0, 0.0, 0.0, 0.0, 0.0, 1.695420353142603E9, 0.0, 2023-09-22 17:05:53.142
142.0, 20788.195227169424, 31224.671748241395, -47366.162820597034, -45903.33055297501, -31003.545940345044, -18500.963568802308, -187500.02235174447, -13812.34989313482, -7699.483060775168, 15987.956939692134, -43872.27223781017, -39274.49605160905, -15366.198464178857, -36695.708238566905, -44315.596737336724, -41335.9080357442, 0.002, 1.008, 0.134, 192.0, 0.0, 0.0, 0.0, 0.0, 0.0, 0.0, 0.0, 0.0, 0.0, 1.695420353142606E9, 0.0, 2023-09-22 17:05:53.142
144.0, 20796.26420691779, 31237.65811176993, -47371.32607356621, -45895.060407526544, -31011.32434741549, -18490.94998728633, -187500.02235174447, -13812.215782668089, -7709.42958705778, 15978.748020976547, -43883.69397922683, -39281.31333366792, -15376.681432328396, -36705.18537821596, -44329.07483924328, -41345.653396326714, 0.002, 1.008, 0.134, 192.0, 0.0, 0.0, 0.0, 0.0, 0.0, 0.0, 0.0, 0.0, 0.0, 1.695420353142609E9, 0.0, 2023-09-22 17:05:53.142
146.0, 20790.72097429287, 31233.3218733456, -47374.25415208985, -45900.60364015146, -31010.5196846151, -18498.974263545784, -187500.02235174447, -13817.468442615085, -7704.646313744344, 15991.533218804983, -43873.9039151554, -39269.31044689542, -15373.507484615742, -36693.40600888801, -44324.71624907449, -41339.73018404606, 0.002, 1.008, 0.134, 192.0, 0.0, 0.0, 0.0, 0.0, 0.0, 0.0, 0.0, 0.0, 0.0, 1.695420353142612E9, 0.0, 2023-09-22 17:05:53.142
148.0, 20800.15341045301, 31243.76013800623, -47373.293027078274, -45898.480224428204, -31021.76261207612, -18496.739089100254, -187500.02235174447, -13819.904782760714, -7707.440281801258, 15989.633320526282, -43875.69205471183, -39276.127728954285, -15380.369470163521, -36701.49734038083, -44331.31001368881, -41348.82734403937, 0.006, 0.996, 0.132, 192.0, 0.0, 24.0, 15.5, 16.0, 2.0, 16.0, 0.0, 0.0, 0.0, 1.695420353142615E9, 0.0, 2023-09-22 17:05:53.142
150.0, 20788.128171936056, 31232.4725070563, -47370.99079739938, -45904.582250664505, -31014.632405594875, -18499.913036812908, -187500.02235174447, -13817.49079435954, -7698.253714830126, 15986.124096646798, -43867.131336585444, -39271.657380063225, -15372.702821815352, -36691.84138677614, -44322.54812986233, -41339.149038690215, 0.006, 0.996, 0.132, 192.0, 0.0, 0.0, 0.0, 0.0, 0.0, 0.0, 0.0, 0.0, 0.0, 1.695420353202923E9, 0.0, 2023-09-22 17:05:53.202
152.0, 20792.576169082662, 31233.008948923227, -47380.020902159325, -45909.209061766756, -31023.081364998983, -18502.79641184764, -187500.02235174447, -13821.625867083772, -7713.7881772265655, 15973.338898818363, -43887.65023799542, -39293.40562741824, -15384.482191143297, -36708.80636081772, -44334.93099629057, -41351.531905118456, 0.006, 0.996, 0.132, 192.0, 0.0, 0.0, 0.0, 0.0, 0.0, 0.0, 0.0, 0.0, 0.0, 1.695420353202938E9, 0.0, 2023-09-22 17:05:53.202
154.0, 20781.668517788472, 31227.68923374286, -47385.43002431751, -45909.969021078236, -31026.679995856288, -18504.383385703968, -187500.02235174447, -13823.324599662375, -7715.978648183185, 15972.78010520698, -43891.29357234163, -39294.43380766318, -15389.980720279304, -36705.47595089387, -44337.97083353649, -41350.79429755143, 0.006, 0.996, 0.132, 192.0, 0.0, 0.0, 0.0, 0.0, 0.0, 0.0, 0.0, 0.0, 0.0, 1.695420353202942E9, 0.0, 2023-09-22 17:05:53.202
156.0, 20794.565474339186, 31236.026434424693, -47381.25024810437, -45905.67748614281, -31023.841324310462, -18501.27649322468, -187500.02235174447, -13824.218669440588, -7715.755130738632, 15973.227140096085, -43894.758092732205, -39293.24916520705, -15389.466630156832, -36705.25243344932, -44340.16130449311, -41352.42597489667, 0.006, 0.996, 0.132, 192.0, 0.0, 0.0, 0.0, 0.0, 0.0, 0.0, 0.0, 0.0, 0.0, 1.695420353202945E9, 0.0, 2023-09-22 17:05:53.202
158.0, 20791.458581859897, 31237.23342862528, -47371.773108455316, -45901.721227374226, -31022.880199298885, -18500.047147279638, -187500.02235174447, -13821.804681039415, -7708.960200424219, 15982.883093700779, -43889.28191534065, -39288.711761082624, -15383.454010898355, -36696.5129013673, -44337.412039925104, -41347.66505332769, 0.004, 1.002, 0.126, 192.0, 0.0, 16.0, 15.5, 40.0, 1.5, 120.0, 0.0, 0.0, 0.0, 1.695420353202948E9, 0.0, 2023-09-22 17:05:53.202
160.0, 20803.819096543684, 31237.009911180725, -47370.163782854535, -45909.85726235596, -31023.528399888088, -18509.61369390651, -187500.02235174447, -13825.380960152264, -7706.546212023046, 15981.027898910988, -43890.46655779679, -39292.53390938448, -15380.749449819263, -36703.91132878201, -44338.328461447774, -41352.20245745211, 0.004, 1.002, 0.126, 192.0, 0.0, 0.0, 0.0, 0.0, 0.0, 0.0, 0.0, 0.0, 0.0, 1.695420353202952E9, 0.0, 2023-09-22 17:05:53.202
162.0, 20801.1592389535, 31241.212039138325, -47358.58557922669, -45899.553108162065, -31016.19702770675, -18499.175429245883, -187500.02235174447, -13816.127337947768, -7699.840688686453, 15982.771334978503, -43886.68911298384, -39293.09270299586, -15377.351984662055, -36700.98325025836, -44336.40621142462, -41350.056689984405, 0.004, 1.002, 0.126, 192.0, 0.0, 0.0, 0.0, 0.0, 0.0, 0.0, 0.0, 0.0, 0.0, 1.695420353202955E9, 0.0, 2023-09-22 17:05:53.202
164.0, 20803.997910499325, 31237.81457398112, -47364.08410836269, -45906.258631498655, -31012.643100338355, -18503.131688014473, -187500.02235174447, -13818.138994948746, -7698.298418319037, 15983.68775650117, -43889.84070895204, -39292.39979891775, -15373.306318915646, -36701.81026480321, -44332.51700788939, -41350.056689984405, 0.004, 1.002, 0.126, 192.0, 0.0, 0.0, 0.0, 0.0, 0.0, 0.0, 0.0, 0.0, 0.0, 1.695420353202958E9, 0.0, 2023-09-22 17:05:53.202
166.0, 20797.672366818475, 31238.775698992697, -47365.98400664139, -45900.380122706905, -31020.37680391989, -18494.883894310464, -187500.02235174447, -13813.467480357585, -7698.276066574582, 15986.884055958279, -43891.83001420856, -39290.67871459469, -15375.653252083452, -36695.39531414453, -44334.416906168095, -41346.703928316114, 0.004, 1.002, 0.126, 192.0, 0.0, 0.0, 0.0, 0.0, 0.0, 0.0, 0.0, 0.0, 0.0, 1.695420353263196E9, 0.0, 2023-09-22 17:05:53.263
168.0, 20798.208808685402, 31230.527905288687, -47374.58942825669, -45909.477282700216, -31021.852019053942, -18503.735185114765, -187500.02235174447, -13821.581163594863, -7702.902877676831, 15984.715936746114, -43897.95439218931, -39291.59513611736, -15380.861208541539, -36696.60230834512, -44339.021365525885, -41350.347262662326, 0.004, 1.002, 0.126, 192.0, 0.0, 0.0, 15.5, 64.0, 1.5, 112.0, 0.0, 0.0, 0.0, 1.695420353263208E9, 0.0, 2023-09-22 17:05:53.263
170.0, 20796.554779595706, 31237.121669903, -47370.20848634344, -45895.59684939347, -31030.837420324973, -18488.915978540896, -187500.02235174447, -13813.512183846497, -7708.1555376238275, 15981.810209966925, -43899.161386389904, -39292.422150662205, -15386.00210976626, -36692.78016004326, -44343.73758360596, -41349.497896373025, 0.004, 1.002, 0.126, 192.0, 0.0, 0.0, 0.0, 0.0, 0.0, 0.0, 0.0, 0.0, 0.0, 1.695420353263212E9, 0.0, 2023-09-22 17:05:53.263
172.0, 20801.516866864786, 31230.594960522052, -47364.218218829425, -45898.72609361722, -31015.79469630655, -18492.916940798397, -187500.02235174447, -13814.696826302628, -7701.986456154163, 15986.392317580263, -43889.371322318475, -39284.91196452522, -15377.419039895422, -36686.07463670667, -44332.15937997811, -41340.24427416853, 0.004, 1.002, 0.126, 192.0, 0.0, 0.0, 0.0, 0.0, 0.0, 0.0, 0.0, 0.0, 0.0, 1.695420353263215E9, 0.0, 2023-09-22 17:05:53.263
174.0, 20800.466334875386, 31238.865105970515, -47367.59333224218, -45895.32862846001, -31025.04831851105, -18487.306652940115, -187500.02235174447, -13809.600628566817, -7705.585087011467, 15992.650806027748, -43887.67258973987, -39282.073292979396, -15379.765973063228, -36685.20291867291, -44331.421772411086, -41338.56789333438, 0.004, 1.002, 0.126, 192.0, 0.0, 0.0, 0.0, 0.0, 0.0, 0.0, 0.0, 0.0, 0.0, 1.695420353263218E9, 0.0, 2023-09-22 17:05:53.263
176.0, 20799.661672074995, 31228.628007009986, -47373.516544522834, -45908.58321292201, -31020.063879497517, -18500.114202513007, -187500.02235174447, -13816.507317603508, -7711.821223714498, 15985.811172224425, -43893.93107818736, -39288.39883666025, -15386.650310355462, -36694.43418913295, -44335.13216199067, -41343.507628859, 0.004, 1.002, 0.126, 192.0, 0.0, 0.0, 0.0, 0.0, 0.0, 0.0, 0.0, 0.0, 0.0, 1.695420353263222E9, 0.0, 2023-09-22 17:05:53.263
178.0, 20791.77150628227, 31227.68923374286, -47376.04229164628, -45906.0351140541, -31032.08911801447, -18496.582626889067, -187500.02235174447, -13814.40625362471, -7717.498566806146, 15980.133829132776, -43897.753226489214, -39295.48433965258, -15389.71249934584, -36702.413761903495, -44339.513103903904, -41347.687405072145, -0.002, 1.01, 0.126, 192.0, 127.5, 120.0, 15.5, 72.0, 1.5, 120.0, 0.0, 0.0, 0.0, 1.695420353263225E9, 0.0, 2023-09-22 17:05:53.263
180.0, 20787.703488791405, 31214.12172485849, -47376.9810649134, -45913.16532053534, -31022.723737087697, -18504.070461281593, -187500.02235174447, -13819.904782760714, -7717.0738836614955, 15969.896730172246, -43897.70852300031, -39297.56305188692, -15388.125525489513, -36706.057096249715, -44336.13799049115, -41344.535809103945, -0.002, 1.01, 0.126, 192.0, 0.0, 0.0, 0.0, 0.0, 0.0, 0.0, 0.0, 0.0, 0.0, 1.695420353322654E9, 0.0, 2023-09-22 17:05:53.322
182.0, 20785.378907368053, 31221.3189865731, -47380.26677134833, -45906.817425110035, -31033.921961059805, -18493.542789643143, -187500.02235174447, -13814.1603844357, -7721.544232552556, 15969.248529583041, -43906.291592871145, -39306.50374966905, -15393.579351136608, -36710.34863118513, -44342.82116208329, -41348.581474850354, -0.002, 1.01, 0.126, 192.0, 0.0, 0.0, 0.0, 0.0, 0.0, 0.0, 0.0, 0.0, 0.0, 1.695420353322668E9, 0.0, 2023-09-22 17:05:53.322
184.0, 20788.418744613977, 31219.75436446123, -47367.97331189791, -45905.45396869826, -31012.441934638256, -18489.40771691891, -187500.02235174447, -13808.192468666133, -7713.76582548211, 15972.10955287332, -43898.177909633865, -39298.859453065335, -15384.169266720924, -36700.93854676945, -44333.72400208998, -41340.17721893516, -0.002, 1.01, 0.126, 192.0, 0.0, 0.0, 0.0, 0.0, 0.0, 0.0, 0.0, 0.0, 0.0, 1.695420353322672E9, 0.0, 2023-09-22 17:05:53.322
186.0, 20794.923102250472, 31230.41614656641, -47375.058814890246, -45906.66096289885, -31026.210609222726, -18487.731336084766, -187500.02235174447, -13810.49469834503, -7712.402369070336, 15976.222273853098, -43897.77557823367, -39300.44642692166, -15384.772763821216, -36703.2631281928, -44334.08163000127, -41344.826381781866, -0.002, 1.01, 0.126, 192.0, 0.0, 0.0, 0.0, 0.0, 0.0, 0.0, 0.0, 0.0, 0.0, 1.695420353322675E9, 0.0, 2023-09-22 17:05:53.322
188.0, 20790.765677781783, 31220.22375109479, -47373.40478580055, -45911.9359745903, -31015.258254439625, -18495.59915013303, -187500.02235174447, -13814.11568094679, -7707.060302145518, 15976.35638431983, -43892.232345608754, -39295.66315360822, -15378.938958518382, -36695.52942461126, -44330.39359216614, -41340.87012301327, 0.004, 1.012, 0.126, 192.0, 0.0, 16.0, 15.5, 80.0, 1.5, 120.0, 0.0, 0.0, 0.0, 1.695420353322678E9, 0.0, 2023-09-22 17:05:53.322
190.0, 20797.29238716273, 31226.370480820002, -47380.5349922818, -45913.14296879089, -31029.58572263548, -18496.157943744416, -187500.02235174447, -13819.189526938144, -7714.212860371216, 15974.121209874298, -43899.96604919029, -39303.598022889855, -15386.113868488535, -36706.79470381674, -44341.5694643938, -41352.716547574586, 0.004, 1.012, 0.126, 192.0, 0.0, 0.0, 0.0, 0.0, 0.0, 0.0, 0.0, 0.0, 0.0, 1.695420353322682E9, 0.0, 2023-09-22 17:05:53.322
192.0, 20792.620872571573, 31221.453097039834, -47374.45531778995, -45911.06425655654, -31017.493428885155, -18496.403812933422, -187500.02235174447, -13815.456785614108, -7708.647276001844, 15971.573111006393, -43892.6123252645, -39297.89832805376, -15380.883560285994, -36698.05517173471, -44335.2662724574, -41346.0557277269, 0.004, 1.012, 0.126, 192.0, 0.0, 0.0, 0.0, 0.0, 0.0, 0.0, 0.0, 0.0, 0.0, 1.695420353322685E9, 0.0, 2023-09-22 17:05:53.322
194.0, 20803.729689565862, 31232.360748334024, -47370.90139042156, -45903.688180886296, -31022.701385343244, -18489.139495985448, -187500.02235174447, -13812.841631512838, -7709.38488356887, 15978.21157910962, -43893.573450276075, -39299.328839698894, -15380.66004284144, -36699.03864849075, -44334.68512710156, -41345.13930620424, 0.004, 1.012, 0.126, 192.0, 0.0, 0.0, 0.0, 0.0, 0.0, 0.0, 0.0, 0.0, 0.0, 1.695420353322688E9, 0.0, 2023-09-22 17:05:53.322
196.0, 20789.93866323694, 31219.396736549945, -47375.59525675717, -45914.19350078029, -31022.410812665323, -18502.75170835873, -187500.02235174447, -13821.424701383676, -7706.345046322947, 15975.551721519438, -43891.00299966372, -39297.36188618683, -15379.14012421848, -36694.858872277604, -44332.36054567821, -41339.68548055714, 0.004, 1.012, 0.126, 192.0, 0.0, 0.0, 0.0, 0.0, 0.0, 0.0, 0.0, 0.0, 0.0, 1.695420353382387E9, 0.0, 2023-09-22 17:05:53.382
198.0, 20801.427459886963, 31228.33743433207, -47375.192925356976, -45911.37718097892, -31026.47883015619, -18501.075327524584, -187500.02235174447, -13821.245887428033, -7718.727912751188, 15966.298099314941, -43904.2128806368, -39306.68256362469, -15391.545342391175, -36711.2650527078, -44343.24584522794, -41352.80595455241, 0.002, 1.008, 0.124, 192.0, 0.0, 8.0, 15.5, 64.0, 1.5, 112.0, 0.0, 0.0, 0.0, 1.695420353382398E9, 0.0, 2023-09-22 17:05:53.382
200.0, 20793.02320397177, 31225.588169764065, -47369.00149214286, -45910.25959375616, -31021.740260331662, -18502.505839169724, -187500.02235174447, -13820.195355438633, -7711.284781847571, 15970.902558672735, -43894.266354354186, -39294.59026987437, -15385.175095221413, -36703.01725900379, -44335.2662724574, -41343.44057362564, 0.002, 1.008, 0.124, 192.0, 0.0, 0.0, 0.0, 0.0, 0.0, 0.0, 0.0, 0.0, 0.0, 1.695420353382402E9, 0.0, 2023-09-22 17:05:53.382
202.0, 20807.35067216762, 31233.3218733456, -47370.87903867711, -45910.63957341189, -31024.154248732837, -18502.550542658635, -187500.02235174447, -13820.038893227445, -7712.111796392417, 15968.555625504927, -43897.19443287783, -39293.13740648478, -15386.493848144275, -36707.44290440594, -44337.993185280946, -41345.295768415424, 0.002, 1.008, 0.124, 192.0, 0.0, 0.0, 0.0, 0.0, 0.0, 0.0, 0.0, 0.0, 0.0, 1.695420353382405E9, 0.0, 2023-09-22 17:05:53.382
204.0, 20793.134962694046, 31222.61538775151, -47377.003416657855, -45917.434503726305, -31032.37969069239, -18511.066557296104, -187500.02235174447, -13826.45384388612, -7717.453863317235, 15969.047363882944, -43901.79889223562, -39295.12671174129, -15390.33834819059, -36708.5157881398, -44342.12825800518, -41347.08390797185, 0.002, 1.008, 0.124, 192.0, 0.0, 0.0, 0.0, 0.0, 0.0, 0.0, 0.0, 0.0, 0.0, 1.695420353382408E9, 0.0, 2023-09-22 17:05:53.382
206.0, 20810.92695128047, 31232.740727989763, -47363.4806112624, -45903.9340500753, -31018.94629227475, -18495.822667577588, -187500.02235174447, -13810.986436723048, -7714.9057644493305, 15964.174683591687, -43900.54719454613, -39295.30552569694, -15385.532723132697, -36705.47595089387, -44339.043717270346, -41342.41239338069, 0.002, 1.008, 0.124, 192.0, 0.0, 0.0, 0.0, 0.0, 0.0, 0.0, 0.0, 0.0, 0.0, 1.695420353382412E9, 0.0, 2023-09-22 17:05:53.382
208.0, 20800.39927964202, 31233.65714951243, -47361.46895426142, -45906.28098324311, -31018.566312619012, -18493.051051265127, -187500.02235174447, -13806.381977365254, -7703.9310579217745, 15977.339861075863, -43889.796005463126, -39286.767159315015, -15376.65908058394, -36692.489587365344, -44329.54422587684, -41331.79531476442, 0.002, 1.008, 0.124, 192.0, 0.0, 0.0, 15.5, 80.0, 2.0, 0.0, 0.0, 0.0, 0.0, 1.695420353382415E9, 0.0, 2023-09-22 17:05:53.382
210.0, 20798.29821566322, 31226.03520465317, -47375.14822186807, -45923.76004740716, -31028.266969712615, -18507.579685161076, -187500.02235174447, -13820.329465905364, -7719.57727904049, 15966.700430715136, -43907.58799404955, -39303.08393276739, -15388.505505145253, -36705.65476484952, -44339.937787048555, -41346.23454168255, 0.002, 1.008, 0.124, 192.0, 0.0, 0.0, 0.0, 0.0, 0.0, 0.0, 0.0, 0.0, 0.0, 1.695420353443334E9, 0.0, 2023-09-22 17:05:53.443
212.0, 20795.2583784173, 31232.941893689862, -47366.98983514188, -45910.661925156346, -31023.461344654723, -18492.581664631565, -187500.02235174447, -13809.06418669989, -7714.749302238143, 15965.336974303364, -43901.50831955771, -39296.043133263964, -15386.583255122097, -36698.50220662382, -44340.00484228192, -41342.74766954752, 0.002, 1.008, 0.124, 192.0, 0.0, 0.0, 0.0, 0.0, 0.0, 0.0, 0.0, 0.0, 0.0, 1.695420353443364E9, 0.0, 2023-09-22 17:05:53.443
214.0, 20793.60434932761, 31226.146963375446, -47377.070471891224, -45922.86597762895, -31024.60128362194, -18503.444612436844, -187500.02235174447, -13817.669608315184, -7718.035008673073, 15967.214520837608, -43907.29742137163, -39298.7253425986, -15386.896179544472, -36701.34087816964, -44338.77549633688, -41344.89343701523, 0.002, 1.008, 0.124, 192.0, 0.0, 0.0, 0.0, 0.0, 0.0, 0.0, 0.0, 0.0, 0.0, 1.695420353443368E9, 0.0, 2023-09-22 17:05:53.443
216.0, 20788.977538225357, 31230.84082971106, -47371.974274155415, -45910.170186778334, -31027.14938248985, -18489.720641341286, -187500.02235174447, -13807.58897156584, -7720.516052307613, 15962.654764968725, -43911.03016269567, -39302.59219438937, -15391.299473202167, -36699.552738613216, -44343.782287094866, -41345.49693411552, 0.002, 1.008, 0.124, 192.0, 0.0, 0.0, 0.0, 0.0, 0.0, 0.0, 0.0, 0.0, 0.0, 1.695420353443372E9, 0.0, 2023-09-22 17:05:53.443
218.0, 20793.671404560973, 31225.45405929733, -47370.56611425473, -45909.387875722394, -31016.264082940113, -18491.32996694207, -187500.02235174447, -13805.622018053773, -7714.346970837948, 15966.25339582603, -43906.04572368214, -39298.9265082987, -15383.655176598451, -36691.237889675846, -44334.0145747679, -41335.170428177174, 0.002, 1.008, 0.124, 192.0, 0.0, 0.0, 15.5, 56.0, 1.5, 120.0, 0.0, 0.0, 0.0, 1.695420353443375E9, 0.0, 2023-09-22 17:05:53.443
220.0, 20792.889093505037, 31232.18193437838, -47371.482535777395, -45906.973887321226, -31030.591551135967, -18491.88876055345, -187500.02235174447, -13805.130279675757, -7715.24104061616, 15966.476913270584, -43902.447092824834, -39297.71951409811, -15387.52202838922, -36690.23206117535, -44333.56753987879, -41333.96343397658, 0.002, 1.008, 0.124, 192.0, 0.0, 0.0, 0.0, 0.0, 0.0, 0.0, 0.0, 0.0, 0.0, 1.695420353443378E9, 0.0, 2023-09-22 17:05:53.443
222.0, 20794.677233061462, 31226.817515709106, -47371.57194275522, -45913.813521124546, -31026.165905733815, -18503.154039758927, -187500.02235174447, -13814.49566060253, -7717.185642383772, 15961.648936468237, -43905.77750274867, -39302.99452578957, -15393.467592414332, -36700.75973281381, -44339.08842075925, -41342.23357942505, 0.002, 1.008, 0.124, 192.0, 0.0, 0.0, 0.0, 0.0, 0.0, 0.0, 0.0, 0.0, 0.0, 1.695420353443382E9, 0.0, 2023-09-22 17:05:53.443
224.0, 20793.492590605332, 31236.13819314697, -47373.33773056719, -45904.38108496441, -31037.632350639386, -18495.84501932204, -187500.02235174447, -13813.243962913033, -7723.131206408883, 15959.905500400722, -43910.471369084284, -39305.833197335385, -15398.876714572516, -36706.347668927636, -44344.92222606209, -41346.212189938095, 0.002, 1.008, 0.124, 192.0, 0.0, 0.0, 0.0, 0.0, 0.0, 0.0, 0.0, 0.0, 0.0, 1.695420353443385E9, 0.0, 2023-09-22 17:05:53.443
226.0, 20796.93475925145, 31228.717413987808, -47370.364948554634, -45906.28098324311, -31019.728603330685, -18495.688557110854, -187500.02235174447, -13811.58993382334, -7712.558831281523, 15965.962823148111, -43900.12251140148, -39292.265688451014, -15386.605606866553, -36693.42836063247, -44331.15355147762, -41332.577625820355, 0.002, 1.008, 0.124, 192.0, 0.0, 0.0, 0.0, 0.0, 0.0, 0.0, 0.0, 0.0, 0.0, 1.695420353502925E9, 0.0, 2023-09-22 17:05:53.502
228.0, 20797.31473890719, 31235.489992557767, -47373.11421312264, -45905.3869134649, -31027.685824356777, -18491.620539619988, -187500.02235174447, -13810.204125667111, -7717.09623540595, 15963.660593469214, -43905.21870913729, -39299.39589493226, -15389.444278412377, -36694.92592751097, -44335.2662724574, -41335.34924213281, 0.002, 1.008, 0.124, 192.0, 0.0, 0.0, 15.5, 48.0, 2.0, 0.0, 0.0, 0.0, 0.0, 1.695420353502941E9, 0.0, 2023-09-22 17:05:53.502
230.0, 20798.141753452033, 31226.32577733109, -47367.12394560861, -45911.82421586802, -31013.626577094386, -18499.75657460172, -187500.02235174447, -13812.148727434724, -7716.1351103943725, 15955.926889887678, -43905.12930215947, -39301.18403448869, -15388.95254003436, -36697.13875021205, -44333.43342941206, -41335.88568399974, 0.002, 1.008, 0.124, 192.0, 0.0, 0.0, 0.0, 0.0, 0.0, 0.0, 0.0, 0.0, 0.0, 1.695420353502947E9, 0.0, 2023-09-22 17:05:53.502
232.0, 20800.60044534212, 31235.26647511321, -47372.08603287769, -45910.01372456714, -31029.049280768548, -18496.940254800353, -187500.02235174447, -13813.243962913033, -7717.386808083869, 15956.262166054508, -43906.850386482525, -39302.703953111646, -15390.070127257124, -36700.536215369255, -44338.03788876985, -41341.76419279149, 0.002, 1.008, 0.124, 192.0, 0.0, 0.0, 0.0, 0.0, 0.0, 0.0, 0.0, 0.0, 0.0, 1.695420353502951E9, 0.0, 2023-09-22 17:05:53.502
234.0, 20795.861875517592, 31227.28690234267, -47366.69926246396, -45909.23141351121, -31016.979338762685, -18498.169600745394, -187500.02235174447, -13813.378073379765, -7715.0845784049725, 15959.391410278251, -43904.50345331472, -39301.2734414665, -15390.830086568605, -36696.08821822265, -44336.093287002244, -41338.254968912006, 0.002, 1.008, 0.124, 192.0, 0.0, 0.0, 0.0, 0.0, 0.0, 0.0, 0.0, 0.0, 0.0, 1.695420353502956E9, 0.0, 2023-09-22 17:05:53.502
236.0, 20799.527561608265, 31238.149850147947, -47370.74492821037, -45906.817425110035, -31028.356376690434, -18493.967472787797, -187500.02235174447, -13810.40529136721, -7708.33435157947, 15970.835503439368, -43898.35672358951, -39292.623316362304, -15385.264502199234, -36687.97453498537, -44331.80175206682, -41331.683556042146, 0.002, 1.008, 0.124, 192.0, 0.0, 0.0, 0.0, 0.0, 0.0, 0.0, 0.0, 0.0, 0.0, 1.69542035350296E9, 0.0, 2023-09-22 17:05:53.502
238.0, 20791.995023726824, 31223.911788929916, -47374.6788352345, -45916.92041360383, -31023.014309765615, -18501.23178973577, -187500.02235174447, -13814.585067580352, -7719.24200287366, 15959.838445167357, -43908.660877783404, -39303.24039497857, -15394.071089514626, -36695.75294205582, -44339.20017948153, -41337.85263751181, 0.002, 1.008, 0.124, 192.0, 0.0, 0.0, 15.5, 56.0, 1.5, 120.0, 0.0, 0.0, 0.0, 1.695420353502964E9, 0.0, 2023-09-22 17:05:53.502
240.0, 20797.560608096195, 31231.824306467093, -47380.222067859424, -45919.17793979382, -31036.96179830573, -18500.069499024095, -187500.02235174447, -13812.886335001747, -7725.187566898771, 15954.339916031351, -43913.779427263675, -39308.716572370126, -15394.942807548381, -36700.02212524678, -44340.92126380459, -41340.17721893516, 0.002, 1.008, 0.124, 192.0, 0.0, 0.0, 0.0, 0.0, 0.0, 0.0, 0.0, 0.0, 0.0, 1.695420353562567E9, 0.0, 2023-09-22 17:05:53.562
242.0, 20789.849256259116, 31222.213056351313, -47377.80807945825, -45924.69882067428, -31030.703309858243, -18507.266760738705, -187500.02235174447, -13814.562715835897, -7728.249755889149, 15945.689790927148, -43913.913537730405, -39307.62133689181, -15400.441336684387, -36700.93854676945, -44343.156438250124, -41341.540675346936, 0.002, 1.008, 0.124, 192.0, 0.0, 0.0, 0.0, 0.0, 0.0, 0.0, 0.0, 0.0, 0.0, 1.695420353562579E9, 0.0, 2023-09-22 17:05:53.562
244.0, 20796.152448195513, 31228.69506224335, -47377.293989335776, -45921.12254156143, -31039.19697275126, -18507.646740394444, -187500.02235174447, -13815.63559956975, -7731.0437239460625, 15941.733532158558, -43915.858139498014, -39308.53775841448, -15401.871848329527, -36707.39820091703, -44345.34690920674, -41344.692271315136, 0.002, 1.008, 0.124, 192.0, 0.0, 0.0, 0.0, 0.0, 0.0, 0.0, 0.0, 0.0, 0.0, 1.695420353562583E9, 0.0, 2023-09-22 17:05:53.562
246.0, 20786.764715524285, 31220.916655172907, -47372.890695678085, -45918.775608393626, -31032.17852499229, -18508.56316191711, -187500.02235174447, -13813.623942568773, -7731.267241390615, 15938.716046657091, -43915.098180186535, -39308.40364794775, -15406.252790242766, -36707.800532317226, -44344.564598150806, -41344.33464340385, 0.002, 1.008, 0.124, 192.0, 0.0, 0.0, 0.0, 0.0, 0.0, 0.0, 0.0, 0.0, 0.0, 1.695420353562586E9, 0.0, 2023-09-22 17:05:53.562
248.0, 20804.623759344075, 31234.126536145992, -47359.83727691618, -45904.85047159797, -31020.935597531272, -18497.05201352263, -187500.02235174447, -13802.917456974681, -7717.990305184163, 15945.600383949326, -43904.056418425615, -39296.043133263964, -15390.09247900158, -36698.703372323915, -44329.655984599114, -41331.92942523115, -0.004, 1.014, 0.13, 192.0, 127.5, 112.0, 15.5, 88.0, 2.0, 8.0, 0.0, 0.0, 0.0, 1.695420353562589E9, 0.0, 2023-09-22 17:05:53.562
250.0, 20791.235064415345, 31225.83403895307, -47362.92181765102, -45911.913622845845, -31019.28156844158, -18503.444612436844, -187500.02235174447, -13804.660893042195, -7713.832880715476, 15948.77433166198, -43899.31784860109, -39293.24916520705, -15385.71153708834, -36695.149444955525, -44326.28087118636, -41326.81087575089, -0.004, 1.014, 0.13, 192.0, 0.0, 0.0, 0.0, 0.0, 0.0, 0.0, 0.0, 0.0, 0.0, 1.695420353562593E9, 0.0, 2023-09-22 17:05:53.562
252.0, 20793.939625494437, 31227.309254087122, -47364.777012440805, -45912.36065773495, -31022.500219643145, -18503.690481625854, -187500.02235174447, -13806.78430876545, -7724.6734767763, 15939.833633879858, -43911.96893596279, -39305.699086868655, -15391.746508091273, -36706.39237241654, -44332.91933928959, -41336.623291566764, -0.004, 1.014, 0.13, 192.0, 0.0, 0.0, 0.0, 0.0, 0.0, 0.0, 0.0, 0.0, 0.0, 1.695420353562596E9, 0.0, 2023-09-22 17:05:53.562
254.0, 20788.44109635843, 31227.622178509497, -47356.57392222571, -45903.88934658639, -31014.788867806063, -18493.31927219859, -187500.02235174447, -13797.463631327586, -7716.760959239121, 15944.549851959928, -43903.139996902944, -39296.959554786634, -15385.80094406616, -36696.37879090056, -44325.94559501953, -41325.6038815503, -0.004, 1.014, 0.13, 192.0, 0.0, 0.0, 0.0, 0.0, 0.0, 0.0, 0.0, 0.0, 0.0, 1.695420353562599E9, 0.0, 2023-09-22 17:05:53.562
0.0, 20800.64514883103, 31233.344225090055, -47361.357195539145, -45908.04677105508, -31018.789830063564, -18496.649682122432, -187500.02235174447, -13800.950503462615, -7718.90672670683, 15943.611078692804, -43908.102084172024, -39300.804054832945, -15388.974891778815, -36701.05030549173, -44329.49952238793, -41330.767134519476, -0.004, 1.014, 0.13, 192.0, 0.0, 0.0, 0.0, 0.0, 0.0, 0.0, 0.0, 0.0, 0.0, 1.695420353622847E9, 0.0, 2023-09-22 17:05:53.622
2.0, 20797.091221462637, 31240.340321104566, -47354.20463731344, -45896.401512193865, -31015.3700131619, -18483.797429060633, -187500.02235174447, -13790.44518356862, -7706.076825389484, 15953.937584631156, -43894.37811307646, -39288.39883666025, -15379.90008352996, -36686.11934019558, -44321.564653106296, -41318.69719251361, -0.002, 1.018, 0.134, 192.0, 127.5, 120.0, 15.5, 104.0, 2.0, 24.0, 0.0, 0.0, 0.0, 1.695420353622858E9, 0.0, 2023-09-22 17:05:53.622
4.0, 20806.031919244757, 31241.860239727528, -47353.310567535234, -45898.94961106177, -31009.066821225504, -18486.859618051007, -187500.02235174447, -13793.663834770185, -7705.518031778101, 15954.272860797986, -43894.758092732205, -39289.18114771618, -15379.90008352996, -36686.52167159577, -44319.28477517185, -41318.13839890223, -0.002, 1.018, 0.134, 192.0, 0.0, 0.0, 0.0, 0.0, 0.0, 0.0, 0.0, 0.0, 0.0, 1.695420353622862E9, 0.0, 2023-09-22 17:05:53.622
6.0, 20796.197151684424, 31241.5249635607, -47358.965558882424, -45903.21879425273, -31020.354452175434, -18490.972339030784, -187500.02235174447, -13798.424756339164, -7704.109871877417, 15957.402105021729, -43891.07005489708, -39287.84004304887, -15380.391821907977, -36683.21361341639, -44321.408190895105, -41318.71954425806, -0.002, 1.018, 0.134, 192.0, 0.0, 0.0, 0.0, 0.0, 0.0, 0.0, 0.0, 0.0, 0.0, 1.695420353622865E9, 0.0, 2023-09-22 17:05:53.622
8.0, 20797.404145885008, 31231.690196000363, -47365.894599663574, -45915.199329280775, -31021.784963820573, -18506.08211828257, -187500.02235174447, -13812.439300112641, -7719.845499973953, 15942.381732747763, -43906.3139446156, -39303.21804323412, -15392.014729024737, -36701.81026480321, -44334.416906168095, -41333.8069717654, -0.002, 1.018, 0.134, 192.0, 0.0, 0.0, 0.0, 0.0, 0.0, 0.0, 0.0, 0.0, 0.0, 1.695420353622868E9, 0.0, 2023-09-22 17:05:53.622
10.0, 20788.754020780805, 31234.215943123814, -47365.067585118726, -45910.55016643407, -31027.14938248985, -18500.538885657657, -187500.02235174447, -13805.73377677605, -7721.343066852459, 15941.0629798249, -43906.1127789155, -39302.547490900455, -15392.90879880295, -36701.18441595846, -44334.416906168095, -41333.11406768728, -0.002, 1.018, 0.134, 192.0, 0.0, 0.0, 0.0, 0.0, 0.0, 0.0, 0.0, 0.0, 0.0, 1.695420353622872E9, 0.0, 2023-09-22 17:05:53.622
12.0, 20790.519808592773, 31229.14209713246, -47364.82171592971, -45914.8864048584, -31018.05222249654, -18505.322158971092, -187500.02235174447, -13808.550096577419, -7721.253659874637, 15933.798662876925, -43908.72793301677, -39304.73796185708, -15391.679452857907, -36703.464293892896, -44329.92420553258, -41332.62232930927, 0.002, 1.008, 0.138, 192.0, 0.0, 8.0, 15.5, 64.0, 2.0, 40.0, 0.0, 0.0, 0.0, 1.695420353622875E9, 0.0, 2023-09-22 17:05:53.622
14.0, 20795.236026672846, 31241.770832749706, -47357.020957114815, -45899.03901803959, -31021.33792893147, -18492.26874020919, -187500.02235174447, -13799.184715650645, -7714.794005727054, 15938.313715256896, -43902.13416840246, -39297.40658967574, -15387.410269666943, -36696.065866478195, -44327.26434794239, -41326.922634473165, 0.002, 1.008, 0.138, 192.0, 0.0, 0.0, 0.0, 0.0, 0.0, 0.0, 0.0, 0.0, 0.0, 1.695420353683084E9, 0.0, 2023-09-22 17:05:53.683
16.0, 20795.68306156195, 31230.818477966604, -47363.65942521804, -45915.31108800305, -31017.649891096342, -18508.786679361663, -187500.02235174447, -13809.913552989192, -7712.044741159051, 15945.712142671604, -43897.909688700405, -39294.83613906338, -15383.722231831818, -36695.52942461126, -44322.950461262524, -41324.77686700546, 0.002, 1.008, 0.138, 192.0, 0.0, 0.0, 0.0, 0.0, 0.0, 0.0, 0.0, 0.0, 0.0, 1.6954203536831E9, 0.0, 2023-09-22 17:05:53.683
18.0, 20800.265169175287, 31240.586190293576, -47364.55349499625, -45911.13131178991, -31031.127993002894, -18501.298844969137, -187500.02235174447, -13809.44416635563, -7721.410122085825, 15942.024104836477, -43906.62686903797, -39306.883729324785, -15394.115793003535, -36706.23591020536, -44335.5121416464, -41336.80210552241, 0.002, 1.008, 0.138, 192.0, 0.0, 0.0, 0.0, 0.0, 0.0, 0.0, 0.0, 0.0, 0.0, 1.695420353683104E9, 0.0, 2023-09-22 17:05:53.683
20.0, 20803.528523865763, 31231.399623322442, -47355.45633500294, -45911.712457145746, -31013.76068756112, -18500.47183042429, -187500.02235174447, -13804.035044197446, -7710.52482253609, 15937.196128034131, -43898.49083405624, -39298.367714687316, -15382.71640333133, -36697.78695080125, -44325.14093221914, -41327.056744939895, 0.002, 1.008, 0.138, 192.0, 0.0, 0.0, 0.0, 0.0, 0.0, 0.0, 0.0, 0.0, 0.0, 1.695420353683107E9, 0.0, 2023-09-22 17:05:53.683
22.0, 20793.984328983348, 31234.50651580173, -47367.03453863079, -45916.7863031371, -31034.301940715548, -18504.00340604823, -187500.02235174447, -13809.913552989192, -7717.453863317235, 15934.692732655138, -43908.035028938655, -39308.694220625664, -15390.00307202376, -36704.55952937121, -44334.05927825681, -41333.96343397658, 0.006, 1.008, 0.136, 192.0, 0.0, 24.0, 15.5, 64.0, 2.0, 32.0, 0.0, 0.0, 0.0, 1.69542035368311E9, 0.0, 2023-09-22 17:05:53.683
24.0, 20793.000852227313, 31230.55025703314, -47357.89267514857, -45911.04190481209, -31015.012385250615, -18503.221094992292, -187500.02235174447, -13805.174983164667, -7714.548136538046, 15929.685941897147, -43905.77750274867, -39304.514444412525, -15385.845647555072, -36698.68102057946, -44329.25365319892, -41328.50960832949, 0.006, 1.008, 0.136, 192.0, 0.0, 0.0, 0.0, 0.0, 0.0, 0.0, 0.0, 0.0, 0.0, 1.695420353683113E9, 0.0, 2023-09-22 17:05:53.683
26.0, 20797.404145885008, 31242.41903333891, -47363.57001824022, -45908.784378622106, -31030.99388253616, -18504.85277233753, -187500.02235174447, -13808.170116921678, -7717.118587150406, 15936.212651278098, -43906.850386482525, -39302.838063578376, -15388.90783654545, -36700.603270602616, -44334.77453407938, -41333.67286129867, 0.006, 1.008, 0.136, 192.0, 0.0, 0.0, 0.0, 0.0, 0.0, 0.0, 0.0, 0.0, 0.0, 1.695420353683117E9, 0.0, 2023-09-22 17:05:53.683
28.0, 20794.140791194535, 31234.126536145992, -47353.243512301866, -45907.13034953241, -31011.637271837866, -18503.17639150338, -187500.02235174447, -13803.520954074975, -7714.190508626761, 15935.519747199984, -43902.111816658, -39299.66411586572, -15384.124563232013, -36695.95410775591, -44331.51117938891, -41328.88958798523, 0.006, 1.008, 0.136, 192.0, 0.0, 0.0, 0.0, 0.0, 0.0, 0.0, 0.0, 0.0, 0.0, 1.69542035368312E9, 0.0, 2023-09-22 17:05:53.683
30.0, 20794.49841910582, 31236.674635013896, -47362.966521139926, -45918.2391665267, -31024.824801066497, -18511.17831601838, -187500.02235174447, -13810.964084978592, -7711.687113247766, 15939.364247246296, -43903.139996902944, -39305.05088627945, -15379.989490507782, -36699.53038686876, -44331.98056602247, -41332.48821884253, 0.006, 1.008, 0.136, 192.0, 0.0, 0.0, 0.0, 0.0, 0.0, 0.0, 0.0, 0.0, 0.0, 1.695420353743274E9, 0.0, 2023-09-22 17:05:53.743
32.0, 20784.998927712313, 31226.169315119903, -47365.067585118726, -45926.464608486254, -31020.980301020183, -18518.464984710812, -187500.02235174447, -13816.462614114596, -7719.599630784945, 15924.276819738963, -43913.80177900813, -39318.99837481957, -15389.936016790392, -36708.64989860653, -44342.06120277181, -41344.5581608484, 0.002, 1.008, 0.132, 192.0, 0.0, 8.0, 15.5, 64.0, 2.0, 16.0, 0.0, 0.0, 0.0, 1.695420353743288E9, 0.0, 2023-09-22 17:05:53.743
34.0, 20787.97170972487, 31229.164448876913, -47374.45531778995, -45928.342155020495, -31034.19018199327, -18520.409586478425, -187500.02235174447, -13821.603515339319, -7723.24296513116, 15918.688883625136, -43919.74734303324, -39322.23937776558, -15391.612397624542, -36714.237834720356, -44342.64234812765, -41347.73210856105, 0.002, 1.008, 0.132, 192.0, 0.0, 0.0, 0.0, 0.0, 0.0, 0.0, 0.0, 0.0, 0.0, 1.695420353743292E9, 0.0, 2023-09-22 17:05:53.743
36.0, 20776.460561330387, 31223.4200505519, -47368.86738167613, -45927.53749222011, -31025.71887084471, -18520.878973111987, -187500.02235174447, -13818.027236226468, -7726.3498576104475, 15910.463441665584, -43918.56270057711, -39318.841912608375, -15394.249903470267, -36711.62268061908, -44343.82699058378, -41345.295768415424, 0.002, 1.008, 0.132, 192.0, 0.0, 0.0, 0.0, 0.0, 0.0, 0.0, 0.0, 0.0, 0.0, 1.695420353743295E9, 0.0, 2023-09-22 17:05:53.743
38.0, 20793.939625494437, 31236.339358847068, -47357.356233281644, -45911.645401912385, -31022.969606276707, -18503.310501970114, -187500.02235174447, -13805.554962820408, -7727.668610533311, 15912.206877733099, -43918.92032848839, -39318.86426435283, -15395.278083715211, -36712.36028818611, -44341.68122311607, -41343.52998060346, 0.002, 1.008, 0.132, 192.0, 0.0, 0.0, 0.0, 0.0, 0.0, 0.0, 0.0, 0.0, 0.0, 1.6954203537433E9, 0.0, 2023-09-22 17:05:53.743
40.0, 20787.88230274705, 31232.42780356739, -47357.8256199152, -45917.6356694264, -31020.46621089771, -18508.3172927281, -187500.02235174447, -13804.057395941902, -7711.262430103116, 15926.511994184495, -43904.36934284799, -39306.43669443568, -15385.197446965867, -36697.47402637888, -44329.43246715456, -41328.5543118184, 0.002, 1.008, 0.132, 192.0, 0.0, 0.0, 0.0, 0.0, 0.0, 0.0, 0.0, 0.0, 0.0, 1.695420353743304E9, 0.0, 2023-09-22 17:05:53.743
42.0, 20800.064003475192, 31242.53079206119, -47355.03165185829, -45910.863090856445, -31021.829667309485, -18500.225961235283, -187500.02235174447, -13802.470422085575, -7724.271145376104, 15922.600438904816, -43915.88049124247, -39316.36086897384, -15396.172153493424, -36704.78304681576, -44336.1156387467, -41336.489181100034, 0.002, 1.008, 0.132, 192.0, 0.0, 0.0, 15.5, 64.0, 2.0, 8.0, 0.0, 0.0, 0.0, 1.695420353743309E9, 0.0, 2023-09-22 17:05:53.743
44.0, 20795.347785395123, 31240.765004249217, -47348.66140468853, -45907.62208791043, -31016.577007362488, -18500.605940891022, -187500.02235174447, -13805.242038398033, -7709.586049268967, 15937.084369311855, -43899.74253174574, -39303.26274672303, -15383.275196942712, -36687.48279660735, -44325.09622873023, -41325.08979142783, 0.002, 1.008, 0.132, 192.0, 0.0, 0.0, 0.0, 0.0, 0.0, 0.0, 0.0, 0.0, 0.0, 1.695420353802726E9, 0.0, 2023-09-22 17:05:53.802
46.0, 20807.462430889896, 31244.94478046236, -47350.583654711685, -45910.37135247843, -31019.259216697126, -18507.13265027197, -187500.02235174447, -13814.11568094679, -7706.635619000866, 15938.961915846101, -43901.754188746716, -39304.1791682457, -15379.296586429668, -36690.522633853274, -44328.605452609714, -41332.734088031546, 0.002, 1.008, 0.132, 192.0, 0.0, 0.0, 0.0, 0.0, 0.0, 0.0, 0.0, 0.0, 0.0, 1.69542035380274E9, 0.0, 2023-09-22 17:05:53.802
48.0, 20788.44109635843, 31234.640626268465, -47356.462163503435, -45915.64636416988, -31026.121202244904, -18512.072385796593, -187500.02235174447, -13814.763881535993, -7711.441244058758, 15931.764654131492, -43904.07877017007, -39305.96730780212, -15383.185789964891, -36692.46723562089, -44333.58989162325, -41334.07519269886, 0.002, 1.008, 0.132, 192.0, 0.0, 0.0, 0.0, 0.0, 0.0, 0.0, 0.0, 0.0, 0.0, 1.695420353802744E9, 0.0, 2023-09-22 17:05:53.802
50.0, 20793.380831883052, 31229.79029772166, -47362.810058928735, -45925.27996603012, -31025.629463866888, -18520.588400434066, -187500.02235174447, -13819.457747871607, -7720.38194184088, 15922.332217971352, -43914.1147034305, -39316.69614514067, -15387.276159200212, -36705.94533752744, -44336.58502538026, -41339.81959102388, 0.002, 1.008, 0.132, 192.0, 0.0, 0.0, 0.0, 0.0, 0.0, 0.0, 0.0, 0.0, 0.0, 1.695420353802747E9, 0.0, 2023-09-22 17:05:53.802
52.0, 20789.31281439219, 31232.89719020095, -47356.50686699234, -45912.47241645723, -31023.75191733264, -18505.635083393467, -187500.02235174447, -13808.572448321875, -7720.024313929595, 15914.48675566754, -43914.49468308624, -39319.31129924194, -15390.472458657321, -36707.33114568367, -44340.3177667043, -41340.557198590905, -0.002, 1.006, 0.132, 192.0, 127.5, 120.0, 15.5, 56.0, 2.0, 16.0, 0.0, 0.0, 0.0, 1.69542035380275E9, 0.0, 2023-09-22 17:05:53.802
54.0, 20792.084430704646, 31227.488068042767, -47361.31249205023, -45920.76491365015, -31020.600321364444, -18511.826516607587, -187500.02235174447, -13807.92424773267, -7710.793043469554, 15921.795776104425, -43906.93979346035, -39311.73405787159, -15381.911740530937, -36697.89870952353, -44327.979603764965, -41329.13545717424, -0.002, 1.006, 0.132, 192.0, 0.0, 0.0, 0.0, 0.0, 0.0, 0.0, 0.0, 0.0, 0.0, 1.695420353802753E9, 0.0, 2023-09-22 17:05:53.802
56.0, 20783.54606432272, 31233.65714951243, -47362.76535543983, -45914.774646136124, -31030.85977206943, -18505.52332467119, -187500.02235174447, -13806.650198298717, -7723.310020364526, 15915.447880679118, -43915.031124953166, -39319.44540970867, -15394.965159292837, -36702.704334581416, -44338.887255059155, -41335.505704344, -0.002, 1.006, 0.132, 192.0, 0.0, 0.0, 0.0, 0.0, 0.0, 0.0, 0.0, 0.0, 0.0, 1.695420353802757E9, 0.0, 2023-09-22 17:05:53.802
58.0, 20789.290462647732, 31231.243161111255, -47364.57584674071, -45920.317878761045, -31028.37872843489, -18513.65935965292, -187500.02235174447, -13811.724044290071, -7725.187566898771, 15909.122336998265, -43916.30517438712, -39319.24424400857, -15396.686243615895, -36706.43707590545, -44338.06024051431, -41336.779753777955, -0.002, 1.006, 0.132, 192.0, 0.0, 0.0, 0.0, 0.0, 0.0, 0.0, 0.0, 0.0, 0.0, 1.69542035380276E9, 0.0, 2023-09-22 17:05:53.802
60.0, 20793.045555716224, 31245.592981051563, -47350.94128262297, -45901.07302678502, -31026.635292367377, -18495.55444664412, -187500.02235174447, -13797.173058649667, -7717.655029017334, 15915.827860334857, -43907.54329056064, -39310.9293950712, -15392.037080769192, -36699.28451767976, -44333.83576081226, -41330.92359673067, -0.002, 1.006, 0.132, 192.0, 0.0, 0.0, 0.0, 0.0, 0.0, 0.0, 0.0, 0.0, 0.0, 1.695420353862515E9, 0.0, 2023-09-22 17:05:53.862
62.0, 20794.990157483837, 31237.635760025474, -47357.3785850261, -45915.89223335889, -31023.304882443535, -18512.072385796593, -187500.02235174447, -13807.857192499303, -7710.994209169652, 15923.159232516198, -43900.72600850177, -39304.91677581272, -15386.04681325517, -36693.49541586583, -44327.89019678714, -41324.530997816444, -0.002, 1.006, 0.132, 192.0, 0.0, 0.0, 15.5, 48.0, 1.5, 120.0, 0.0, 0.0, 0.0, 1.695420353862526E9, 0.0, 2023-09-22 17:05:53.862
64.0, 20793.917273749983, 31248.722225275305, -47359.14437283807, -45912.31595424604, -31037.252370983646, -18509.94897007334, -187500.02235174447, -13811.411119867698, -7717.275049361593, 15916.967799302078, -43907.342124860545, -39314.505674184045, -15396.015691282237, -36702.36905841459, -44341.86003707171, -41336.44447761113, -0.002, 1.006, 0.132, 192.0, 0.0, 0.0, 0.0, 0.0, 0.0, 0.0, 0.0, 0.0, 0.0, 1.69542035386253E9, 0.0, 2023-09-22 17:05:53.862
66.0, 20797.717070307383, 31243.246047883757, -47355.38927976957, -45913.03121006861, -31022.299053943047, -18513.502897441733, -187500.02235174447, -13813.914515246692, -7710.6812847472775, 15918.286552224941, -43898.669648011884, -39304.91677581272, -15388.036118511693, -36695.775293800274, -44334.34985093473, -41330.70007928611, -0.002, 1.006, 0.132, 192.0, 0.0, 0.0, 0.0, 0.0, 0.0, 0.0, 0.0, 0.0, 0.0, 1.695420353862533E9, 0.0, 2023-09-22 17:05:53.862
68.0, 20797.135924951544, 31253.684312544385, -47359.63611121608, -45908.203233266264, -31035.28541747158, -18508.630217150476, -187500.02235174447, -13812.931038490658, -7714.369322582403, 15913.570334144872, -43901.55302304662, -39305.699086868655, -15393.80286858116, -36699.59744210213, -44338.93195854807, -41334.254006654504, -0.002, 1.006, 0.132, 192.0, 0.0, 0.0, 0.0, 0.0, 0.0, 0.0, 0.0, 0.0, 0.0, 1.695420353862536E9, 0.0, 2023-09-22 17:05:53.862
70.0, 20797.851180774116, 31239.80387923764, -47356.21629431442, -45913.16532053534, -31020.108582986428, -18512.29590324115, -187500.02235174447, -13810.606457067306, -7711.597706269945, 15913.52563065596, -43897.68617125585, -39301.60871763334, -15389.846609812572, -36696.40114264502, -44331.33236543326, -41329.13545717424, -0.002, 1.006, 0.132, 192.0, 0.0, 0.0, 0.0, 0.0, 0.0, 0.0, 0.0, 0.0, 0.0, 1.69542035386254E9, 0.0, 2023-09-22 17:05:53.862
72.0, 20799.035823230246, 31243.223696139303, -47364.7323089519, -45916.16045429235, -31034.816030838017, -18511.37948171848, -187500.02235174447, -13811.2099541676, -7713.229383615182, 15912.698616111114, -43902.84942422502, -39306.39199094677, -15392.439412169388, -36703.30783168171, -44336.74148759145, -41334.678689799155, -0.002, 1.006, 0.132, 192.0, 0.0, 0.0, 15.5, 40.0, 2.0, 0.0, 0.0, 0.0, 0.0, 1.695420353862543E9, 0.0, 2023-09-22 17:05:53.862
74.0, 20793.336128394145, 31231.310216344624, -47358.071489104215, -45920.63080318342, -31019.214513208215, -18517.23563876577, -187500.02235174447, -13810.82997451186, -7708.356703323925, 15909.52466839846, -43902.78236899166, -39310.41530494873, -15387.47732490031, -36703.28547993726, -44331.60058636672, -41331.77296301997, -0.002, 1.006, 0.132, 192.0, 0.0, 0.0, 0.0, 0.0, 0.0, 0.0, 0.0, 0.0, 0.0, 1.695420353922848E9, 0.0, 2023-09-22 17:05:53.922
76.0, 20798.54408485223, 31243.067233928115, -47349.5778262112, -45907.018590810134, -31023.684862099275, -18505.120993270993, -187500.02235174447, -13803.409195352699, -7714.302267349037, 15902.930903784145, -43910.113741173, -39320.27242425352, -15390.405403423954, -36708.53813988425, -44336.24974921343, -41336.31036714439, -0.002, 1.006, 0.132, 192.0, 0.0, 0.0, 0.0, 0.0, 0.0, 0.0, 0.0, 0.0, 0.0, 1.695420353922863E9, 0.0, 2023-09-22 17:05:53.922
78.0, 20788.597558569618, 31231.869009956004, -47349.08608783318, -45915.46755021424, -31015.459420139723, -18515.782775376174, -187500.02235174447, -13806.06905294288, -7704.936886422263, 15913.749148100515, -43898.42377882288, -39306.43669443568, -15376.413211394933, -36691.997848987325, -44322.257557184406, -41321.58056754834, -0.002, 1.006, 0.132, 192.0, 0.0, 0.0, 0.0, 0.0, 0.0, 0.0, 0.0, 0.0, 0.0, 1.695420353922866E9, 0.0, 2023-09-22 17:05:53.922
80.0, 20798.58878834114, 31249.5268880757, -47346.13565756508, -45902.66000064135, -31024.914208044316, -18505.70213862683, -187500.02235174447, -13805.174983164667, -7717.856194717431, 15910.306979454397, -43908.54911906113, -39312.71753462762, -15390.025423768215, -36700.73738106935, -44335.48978990195, -41333.09171594283, -0.002, 1.006, 0.132, 192.0, 0.0, 0.0, 0.0, 0.0, 0.0, 0.0, 0.0, 0.0, 0.0, 1.69542035392287E9, 0.0, 2023-09-22 17:05:53.922
82.0, 20790.653919059507, 31241.122632160503, -47348.773163410806, -45913.36648623544, -31023.304882443535, -18518.44263296636, -187500.02235174447, -13810.204125667111, -7713.676418504288, 15913.123299255765, -43900.68130501286, -39305.073238023906, -15388.125525489513, -36696.64701183403, -44332.00291776692, -41328.71077402959, -0.002, 1.006, 0.132, 192.0, 0.0, 0.0, 15.5, 48.0, 2.0, 16.0, 0.0, 0.0, 0.0, 1.695420353922873E9, 0.0, 2023-09-22 17:05:53.922
84.0, 20797.91823600748, 31250.13038517599, -47353.176457068505, -45912.1371402904, -31030.591551135967, -18518.554391688634, -187500.02235174447, -13813.154555935213, -7716.895069705853, 15908.563543386883, -43907.58799404955, -39313.812770105935, -15391.634749368997, -36707.532311383766, -44339.043717270346, -41336.82445726686, -0.002, 1.006, 0.132, 192.0, 0.0, 0.0, 0.0, 0.0, 0.0, 0.0, 0.0, 0.0, 0.0, 1.695420353922876E9, 0.0, 2023-09-22 17:05:53.922
86.0, 20797.560608096195, 31251.493841587766, -47338.80428538374, -45901.497709929674, -31012.91132127182, -18508.09377528355, -187500.02235174447, -13799.452936584108, -7710.52482253609, 15911.312807954886, -43902.46944456929, -39307.375467702805, -15386.51619988873, -36699.79860780223, -44335.55684513532, -41331.92942523115, -0.002, 1.006, 0.132, 192.0, 0.0, 0.0, 0.0, 0.0, 0.0, 0.0, 0.0, 0.0, 0.0, 1.695420353922879E9, 0.0, 2023-09-22 17:05:53.922
88.0, 20801.673329075973, 31250.219792153814, -47339.407782484035, -45909.387875722394, -31018.834533552475, -18515.693368398355, -187500.02235174447, -13802.40336685221, -7701.360607309414, 15921.125223770765, -43893.864022953996, -39300.044095521465, -15373.70865031584, -36695.03768623325, -44321.98933625095, -41324.59805304981, -0.002, 1.006, 0.132, 192.0, 0.0, 0.0, 0.0, 0.0, 0.0, 0.0, 0.0, 0.0, 0.0, 1.695420353922882E9, 0.0, 2023-09-22 17:05:53.922
90.0, 20791.145657437522, 31240.18385889338, -47339.98892783987, -45913.36648623544, -31014.498295128145, -18520.342531245056, -187500.02235174447, -13805.86788724278, -7710.055435902529, 15907.24479046402, -43902.20122363582, -39310.325897970906, -15384.728060332307, -36703.15136947052, -44331.555882877816, -41335.21513166608, -0.002, 1.006, 0.132, 192.0, 0.0, 0.0, 0.0, 0.0, 0.0, 0.0, 0.0, 0.0, 0.0, 1.695420353983013E9, 0.0, 2023-09-22 17:05:53.983
92.0, 20792.464410360386, 31238.641588525963, -47352.058869845736, -45924.54235846309, -31026.18825747827, -18530.95960986133, -187500.02235174447, -13818.40721588221, -7715.95629643873, 15901.09806073881, -43912.81830225209, -39318.10430504135, -15390.740679590785, -36714.26018646481, -44338.99901378143, -41348.82734403937, -0.002, 1.008, 0.129, 192.0, 127.5, 120.0, 15.5, 72.0, 1.5, 120.0, 0.0, 0.0, 0.0, 1.695420353983023E9, 0.0, 2023-09-22 17:05:53.983
94.0, 20788.463448102888, 31238.75334724824, -47340.95005285145, -45913.21002402425, -31012.129010215882, -18517.056824810126, -187500.02235174447, -13808.415986110687, -7709.943677180252, 15897.298264181409, -43908.25854638321, -39309.968270059624, -15386.538551633186, -36705.20772996041, -44336.49561840244, -41344.669919570675, -0.002, 1.008, 0.129, 192.0, 0.0, 0.0, 0.0, 0.0, 0.0, 0.0, 0.0, 0.0, 0.0, 1.695420353983027E9, 0.0, 2023-09-22 17:05:53.983
96.0, 20797.87353251857, 31239.334492604077, -47342.78289589678, -45914.0370385691, -31007.39044039136, -18513.48054569728, -187500.02235174447, -13805.107927931302, -7700.846517186942, 15903.24382820652, -43904.23523238125, -39301.564014144424, -15376.390859650477, -36704.04543924874, -44330.840627055244, -41343.10529745881, -0.002, 1.008, 0.129, 192.0, 0.0, 0.0, 0.0, 0.0, 0.0, 0.0, 0.0, 0.0, 0.0, 1.69542035398303E9, 0.0, 2023-09-22 17:05:53.983
98.0, 20791.078602204158, 31241.055576927138, -47348.30377677725, -45912.29360250159, -31008.686841569765, -18506.484449682768, -187500.02235174447, -13800.995206951524, -7698.723101463688, 15899.421679904663, -43903.1623486474, -39295.50669139704, -15374.960348005337, -36700.44680839143, -44330.55005437733, -41342.68061431416, -0.002, 1.008, 0.129, 192.0, 0.0, 0.0, 0.0, 0.0, 0.0, 0.0, 0.0, 0.0, 0.0, 1.695420353983033E9, 0.0, 2023-09-22 17:05:53.983
100.0, 20798.92406450797, 31237.054614669636, -47357.95973038194, -45913.746465891185, -31005.065858968006, -18506.216228749305, -187500.02235174447, -13803.2080296526, -7698.544287508045, 15901.72390958356, -43902.62590678047, -39287.05773199293, -15373.731002060296, -36699.485683379855, -44325.76678106389, -41343.08294571435, -0.002, 1.008, 0.129, 192.0, 0.0, 0.0, 0.0, 0.0, 0.0, 0.0, 0.0, 0.0, 0.0, 1.695420353983037E9, 0.0, 2023-09-22 17:05:53.983
102.0, 20788.68696554744, 31235.08766115757, -47363.74883219586, -45911.04190481209, -31013.76068756112, -18503.399908947937, -187500.02235174447, -13800.056433684402, -7699.3489503084365, 15904.048491006912, -43898.110854400504, -39277.91586851071, -15379.251882940756, -36696.08821822265, -44324.87271128568, -41341.16069569119, 0.0, 1.006, 0.1285, 192.0, 0.0, 8.0, 15.5, 48.0, 2.0, 0.0, 0.0, 0.0, 0.0, 1.69542035398304E9, 0.0, 2023-09-22 17:05:53.983
104.0, 20795.168971439478, 31230.79612622215, -47367.83920143118, -45912.964154835245, -31007.725716558187, -18506.484449682768, -187500.02235174447, -13806.627846554262, -7707.417930056803, 15899.488735138028, -43899.384903834456, -39280.28515342297, -15386.04681325517, -36706.16885497199, -44327.219644453486, -41349.56495160639, 0.0, 1.006, 0.1285, 192.0, 0.0, 0.0, 0.0, 0.0, 0.0, 0.0, 0.0, 0.0, 0.0, 1.695420354043471E9, 0.0, 2023-09-22 17:05:54.043
106.0, 20790.989195226335, 31233.053652412138, -47368.397995042564, -45906.72801813221, -31012.777210805085, -18499.063670523607, -187500.02235174447, -13797.843610983326, -7704.8698311888975, 15907.222438719564, -43887.53847927314, -39274.09372020885, -15383.454010898355, -36702.19024445894, -44321.274080428375, -41344.33464340385, 0.0, 1.006, 0.1285, 192.0, 0.0, 0.0, 0.0, 0.0, 0.0, 0.0, 0.0, 0.0, 0.0, 1.695420354043485E9, 0.0, 2023-09-22 17:05:54.043
108.0, 20793.06790746068, 31222.660091240417, -47373.36008231164, -45916.875710114924, -31009.75972530362, -18509.61369390651, -187500.02235174447, -13809.488869844541, -7710.100139391439, 15898.773479315458, -43885.88445018345, -39278.720531311104, -15387.499676644764, -36711.60032887463, -44323.643365340635, -41350.391966151234, 0.0, 1.006, 0.1285, 192.0, 0.0, 0.0, 0.0, 0.0, 0.0, 0.0, 0.0, 0.0, 0.0, 1.695420354043489E9, 0.0, 2023-09-22 17:05:54.043
110.0, 20792.77733478276, 31231.60078902254, -47371.773108455316, -45904.04580879758, -31014.006556750126, -18499.577760646076, -187500.02235174447, -13804.01269245299, -7705.473328289191, 15900.449860149607, -43876.362607045485, -39275.635990576266, -15382.135257975491, -36707.867587550594, -44323.017516495886, -41347.57564634987, 0.0, 1.006, 0.1285, 192.0, 0.0, 0.0, 0.0, 0.0, 0.0, 0.0, 0.0, 0.0, 0.0, 1.695420354043492E9, 0.0, 2023-09-22 17:05:54.043
112.0, 20801.338052909145, 31224.917617430405, -47365.067585118726, -45901.07302678502, -30997.019230964095, -18501.052975780127, -187500.02235174447, -13805.35379712031, -7702.0535113875285, 15901.9027235392, -43871.64638896542, -39273.93725799766, -15375.60854859454, -36705.23008170487, -44319.88827227215, -41345.63104458225, 0.003, 1.005, 0.12625, 192.0, 0.0, 24.0, 15.5, 48.0, 1.5, 112.0, 0.0, 0.0, 0.0, 1.695420354043495E9, 0.0, 2023-09-22 17:05:54.043
114.0, 20797.06886971818, 31230.5726087776, -47374.52237302332, -45902.548241919074, -31016.66641434031, -18503.265798481203, -187500.02235174447, -13811.746396034527, -7703.461671288213, 15902.752089828504, -43872.71927269927, -39278.69817956664, -15377.977833506804, -36708.09110499515, -44326.660850842105, -41351.9118847742, 0.003, 1.005, 0.12625, 192.0, 0.0, 0.0, 0.0, 0.0, 0.0, 0.0, 0.0, 0.0, 0.0, 1.695420354043499E9, 0.0, 2023-09-22 17:05:54.043
116.0, 20805.74134656684, 31229.678538999386, -47357.780916426294, -45891.305314458055, -30989.91137622731, -18492.3134436981, -187500.02235174447, -13797.217762138578, -7686.049662357529, 15907.177735230654, -43857.855362636496, -39266.22590616059, -15363.13627518848, -36691.48375886485, -44313.60743208021, -41337.38325087825, 0.003, 1.005, 0.12625, 192.0, 0.0, 0.0, 0.0, 0.0, 0.0, 0.0, 0.0, 0.0, 0.0, 1.695420354043502E9, 0.0, 2023-09-22 17:05:54.043
118.0, 20799.54991335272, 31232.60661752303, -47371.907218922046, -45897.720265116724, -31016.442896895755, -18501.32119671359, -187500.02235174447, -13806.761957020994, -7698.924267163786, 15905.143726485221, -43872.2051825768, -39277.84881327734, -15377.150818961958, -36702.99490725934, -44326.59379560874, -41349.96728300658, 0.003, 1.005, 0.12625, 192.0, 0.0, 0.0, 0.0, 0.0, 0.0, 0.0, 0.0, 0.0, 0.0, 1.695420354043505E9, 0.0, 2023-09-22 17:05:54.043
120.0, 20798.991119741335, 31228.31508258761, -47365.46991651892, -45899.86603258444, -31002.89773975584, -18504.450440937333, -187500.02235174447, -13807.276047143467, -7696.510278762613, 15903.199124717608, -43871.467575009774, -39274.16077544222, -15373.529836360198, -36702.011430503306, -44326.57144386428, -41347.37448064977, 0.003, 1.005, 0.12625, 192.0, 0.0, 0.0, 0.0, 0.0, 0.0, 0.0, 0.0, 0.0, 0.0, 1.695420354102875E9, 0.0, 2023-09-22 17:05:54.102
122.0, 20800.622797086573, 31235.422937324398, -47365.93930315248, -45896.043884282575, -31012.061954982517, -18497.253179222727, -187500.02235174447, -13802.604532552306, -7695.660912473311, 15907.065976508376, -43873.83685992204, -39278.58642084437, -15371.741696803772, -36703.35253517062, -44326.39262990864, -41347.41918413868, 0.0045000000000000005, 1.0065, 0.125125, 192.0, 0.0, 24.0, 15.5, 64.0, 1.5, 112.0, 0.0, 0.0, 0.0, 1.695420354102886E9, 0.0, 2023-09-22 17:05:54.102
124.0, 20794.051384216713, 31223.710623229817, -47364.1288118516, -45902.72705587472, -31005.33407990147, -18505.992711304752, -187500.02235174447, -13805.219686653578, -7694.722139206188, 15900.516915382972, -43874.32859830005, -39279.59224934486, -15372.412249137433, -36703.061962492706, -44324.87271128568, -41345.98867249354, 0.0045000000000000005, 1.0065, 0.125125, 192.0, 0.0, 0.0, 0.0, 0.0, 0.0, 0.0, 0.0, 0.0, 0.0, 1.695420354102889E9, 0.0, 2023-09-22 17:05:54.102
126.0, 20799.59461684163, 31234.551219290643, -47365.71578570793, -45898.569631406026, -31016.286434684567, -18500.427126935378, -187500.02235174447, -13804.213858153089, -7695.437395028758, 15898.013520003979, -43876.988455890234, -39282.699141824145, -15378.447220140366, -36709.83454106266, -44332.51700788939, -41351.84482954083, 0.0045000000000000005, 1.0065, 0.125125, 192.0, 0.0, 0.0, 0.0, 0.0, 0.0, 0.0, 0.0, 0.0, 0.0, 1.695420354102893E9, 0.0, 2023-09-22 17:05:54.102
128.0, 20793.11261094959, 31221.922483673396, -47363.54766649576, -45906.2362797542, -31004.66352756781, -18505.813897349108, -187500.02235174447, -13805.644369798229, -7690.944694393242, 15897.655892092693, -43871.691092454326, -39276.887688265764, -15375.09445847207, -36704.33601192666, -44328.18076946506, -41345.98867249354, 0.0045000000000000005, 1.0065, 0.125125, 192.0, 0.0, 0.0, 0.0, 0.0, 0.0, 0.0, 0.0, 0.0, 0.0, 1.695420354102896E9, 0.0, 2023-09-22 17:05:54.102
130.0, 20796.64418657353, 31229.902056443938, -47370.722576465916, -45906.37039022093, -31022.097888242948, -18506.775022360685, -187500.02235174447, -13809.421814611176, -7704.825127699987, 15892.403232145696, -43883.69397922683, -39284.84490929185, -15388.326691189612, -36716.98709928836, -44339.043717270346, -41356.963379021094, 0.0045000000000000005, 1.0065, 0.125125, 192.0, 0.0, 0.0, 0.0, 0.0, 0.0, 0.0, 0.0, 0.0, 0.0, 1.695420354102899E9, 0.0, 2023-09-22 17:05:54.102
132.0, 20791.033898715246, 31224.090602885557, -47362.050099617256, -45895.88742207139, -31007.681013069276, -18494.928597799375, -187500.02235174447, -13798.312997616888, -7698.588990996956, 15894.012557746479, -43874.82033667807, -39273.04318821945, -15382.71640333133, -36703.68781133745, -44330.81827531079, -41343.08294571435, 0.0032500000000000003, 1.00725, 0.1275625, 192.0, 0.0, 8.0, 15.5, 64.0, 2.0, 8.0, 0.0, 0.0, 0.0, 1.695420354102902E9, 0.0, 2023-09-22 17:05:54.102
134.0, 20801.606273842608, 31231.824306467093, -47362.89946590656, -45889.964209790734, -31013.671280583298, -18487.57487387358, -187500.02235174447, -13792.21097138059, -7699.57246775299, 15896.471249636561, -43875.82616517856, -39271.63502831877, -15381.554112619653, -36698.435151390455, -44327.37610666468, -41336.355070633304, 0.0032500000000000003, 1.00725, 0.1275625, 192.0, 0.0, 0.0, 0.0, 0.0, 0.0, 0.0, 0.0, 0.0, 0.0, 1.695420354162359E9, 0.0, 2023-09-22 17:05:54.162
136.0, 20799.080526719157, 31228.113916887512, -47360.21725657192, -45887.2820004561, -31006.3175566575, -18487.731336084766, -187500.02235174447, -13786.801849222406, -7697.471403774191, 15900.449860149607, -43869.88060115345, -39263.43193810367, -15380.011842252237, -36689.1591774415, -44322.54812986233, -41326.31913737287, 0.0032500000000000003, 1.00725, 0.1275625, 192.0, 0.0, 0.0, 0.0, 0.0, 0.0, 0.0, 0.0, 0.0, 0.0, 1.695420354162372E9, 0.0, 2023-09-22 17:05:54.162
138.0, 20812.26805594779, 31237.009911180725, -47360.35136703865, -45885.20328822175, -31012.95602476073, -18490.726469841775, -187500.02235174447, -13793.01563418098, -7704.176927110783, 15901.38863341673, -43878.01663613518, -39270.69625505165, -15387.14204873348, -36698.16693045699, -44327.33140317576, -41334.186951421136, 0.0032500000000000003, 1.00725, 0.1275625, 192.0, 0.0, 0.0, 0.0, 0.0, 0.0, 0.0, 0.0, 0.0, 0.0, 1.695420354162376E9, 0.0, 2023-09-22 17:05:54.162
140.0, 20807.373023912078, 31236.875800713995, -47352.14827682356, -45882.65518935385, -31002.718925800196, -18491.598187875534, -187500.02235174447, -13793.507372558997, -7688.508354247613, 15907.96004628659, -43862.54922897211, -39257.57578105638, -15375.340327661077, -36686.49931985132, -44316.177882692566, -41325.08979142783, 0.0032500000000000003, 1.00725, 0.1275625, 192.0, 0.0, 0.0, 0.0, 0.0, 0.0, 0.0, 0.0, 0.0, 0.0, 1.69542035416238E9, 0.0, 2023-09-22 17:05:54.162
142.0, 20809.943474524436, 31234.193591379357, -47366.36398629713, -45898.05554128355, -31009.6703183258, -18506.149173515936, -187500.02235174447, -13806.203163409611, -7695.347988050937, 15906.52953464145, -43875.602647734006, -39268.215211417104, -15378.402516651455, -36699.485683379855, -44323.57631010727, -41340.065460212885, 0.002625, 1.006625, 0.13178125000000002, 192.0, 0.0, 8.0, 15.5, 56.0, 2.0, 32.0, 0.0, 0.0, 0.0, 1.695420354162383E9, 0.0, 2023-09-22 17:05:54.162
144.0, 20799.482858119354, 31232.02547216719, -47368.71091946494, -45897.85437558346, -31006.09403921295, -18502.975225803286, -187500.02235174447, -13806.024349453968, -7698.521935763591, 15900.651025849704, -43878.79894719111, -39272.3726358858, -15380.928263774904, -36699.97742175787, -44328.51604563189, -41344.28993991494, 0.002625, 1.006625, 0.13178125000000002, 192.0, 0.0, 0.0, 0.0, 0.0, 0.0, 0.0, 0.0, 0.0, 0.0, 1.695420354162386E9, 0.0, 2023-09-22 17:05:54.162
146.0, 20798.611140085595, 31227.398661064944, -47379.79738471477, -45909.56668967804, -31012.732507316174, -18510.127784028984, -187500.02235174447, -13812.081672201357, -7706.054473645029, 15884.401307630696, -43886.80087170612, -39282.60973484632, -15388.371394678521, -36711.37681143008, -44335.78036257987, -41351.48720162955, 0.002625, 1.006625, 0.13178125000000002, 192.0, 0.0, 0.0, 0.0, 0.0, 0.0, 0.0, 0.0, 0.0, 0.0, 1.69542035416239E9, 0.0, 2023-09-22 17:05:54.162
148.0, 20792.21854117138, 31228.359786076522, -47371.37077705512, -45900.29071572909, -31008.351565402936, -18496.068536766594, -187500.02235174447, -13801.039910440435, -7698.231363085672, 15884.066031463866, -43877.413139034885, -39281.20157494564, -15382.269368442223, -36703.061962492706, -44331.01944101089, -41342.32298640287, 0.002625, 1.006625, 0.13178125000000002, 192.0, 0.0, 0.0, 0.0, 0.0, 0.0, 0.0, 0.0, 0.0, 0.0, 1.695420354162394E9, 0.0, 2023-09-22 17:05:54.162
150.0, 20788.44109635843, 31215.865160926005, -47386.659370262554, -45920.63080318342, -31015.638234095364, -18516.296865498647, -187500.02235174447, -13817.043759470434, -7701.293552076048, 15884.222493675054, -43885.169194360875, -39292.913889040225, -15383.811638809639, -36711.35445968562, -44335.7133073465, -41350.43666964015, 0.002625, 1.006625, 0.13178125000000002, 192.0, 0.0, 0.0, 0.0, 0.0, 0.0, 0.0, 0.0, 0.0, 0.0, 1.695420354222834E9, 0.0, 2023-09-22 17:05:54.222
152.0, 20778.092238675625, 31213.093544613548, -47383.2842568498, -45914.95346009177, -31021.740260331662, -18511.6700543964, -187500.02235174447, -13816.932000748158, -7713.877584204386, 15869.403287101184, -43897.127377644465, -39306.10141826885, -15394.920455803927, -36723.13382901357, -44350.711327876015, -41364.02653026897, 0.0043125, 1.0033125, 0.130890625, 192.0, 0.0, 24.0, 15.5, 32.0, 2.0, 8.0, 0.0, 0.0, 0.0, 1.695420354222847E9, 0.0, 2023-09-22 17:05:54.222
154.0, 20779.187474153936, 31202.342355530545, -47380.06560564823, -45920.65315492787, -31011.681975326777, -18518.979074833285, -187500.02235174447, -13816.395558881231, -7705.026293400085, 15876.734659282525, -43891.49473804173, -39299.70881935464, -15384.303377187656, -36718.574073144686, -44340.295414959844, -41358.19272496614, 0.0043125, 1.0033125, 0.130890625, 192.0, 0.0, 0.0, 0.0, 0.0, 0.0, 0.0, 0.0, 0.0, 0.0, 1.69542035422285E9, 0.0, 2023-09-22 17:05:54.222
156.0, 20755.58403200913, 31188.372515245977, -47382.546649282776, -45918.79796013808, -31023.86367605492, -18517.99559807725, -187500.02235174447, -13813.959218735603, -7722.460654075224, 15866.072877177345, -43904.39169459244, -39312.71753462762, -15396.596836638075, -36727.00068080434, -44345.05633652882, -41361.99252152354, 0.0043125, 1.0033125, 0.130890625, 192.0, 0.0, 0.0, 0.0, 0.0, 0.0, 0.0, 0.0, 0.0, 0.0, 1.695420354222853E9, 0.0, 2023-09-22 17:05:54.222
158.0, 20750.82311044015, 31175.4085034619, -47372.398957300065, -45913.254727513166, -31007.99393749165, -18515.55925793162, -187500.02235174447, -13807.901895988214, -7727.847424488953, 15856.752199739482, -43906.38099984897, -39313.16456951673, -15394.562827892642, -36722.30681446872, -44338.52962714787, -41353.43180339716, 0.0043125, 1.0033125, 0.130890625, 192.0, 0.0, 0.0, 0.0, 0.0, 0.0, 0.0, 0.0, 0.0, 0.0, 1.695420354222857E9, 0.0, 2023-09-22 17:05:54.222
160.0, 20729.00780785177, 31165.21610799028, -47374.54472476777, -45910.57251817853, -31016.912283529316, -18508.76432761721, -187500.02235174447, -13803.54330581943, -7734.821168759009, 15857.869786962247, -43908.30324987212, -39312.426961949706, -15394.629883126008, -36715.04249752075, -44335.0651067573, -41347.24037018304, 0.0043125, 1.0033125, 0.130890625, 192.0, 0.0, 0.0, 0.0, 0.0, 0.0, 0.0, 0.0, 0.0, 0.0, 1.69542035422286E9, 0.0, 2023-09-22 17:05:54.222
162.0, 20708.444202952887, 31140.383319900433, -47384.73712023939, -45927.42573349783, -31013.425411394288, -18521.90715335693, -187500.02235174447, -13813.959218735603, -7750.15446545535, 15844.65990598916, -43921.28961340065, -39322.44054346568, -15400.62015064003, -36720.98806154586, -44340.3177667043, -41353.208285952605, 0.00315625, 1.00465625, 0.12944531250000002, 192.0, 0.0, 8.0, 15.5, 56.0, 2.0, 0.0, 0.0, 0.0, 0.0, 1.695420354222863E9, 0.0, 2023-09-22 17:05:54.222
164.0, 20694.362603946043, 31130.86147676247, -47393.230783132414, -45928.38685850941, -31024.84715281095, -18518.84496436655, -187500.02235174447, -13815.434433869654, -7762.135000483394, 15838.51317626395, -43934.119514718004, -39333.21408429314, -15408.018578054736, -36727.246549993346, -44349.30316797533, -41361.23256221206, 0.00315625, 1.00465625, 0.12944531250000002, 192.0, 0.0, 0.0, 0.0, 0.0, 0.0, 0.0, 0.0, 0.0, 0.0, 1.695420354283058E9, 0.0, 2023-09-22 17:05:54.283
166.0, 20685.3324991861, 31115.528180066132, -47394.12485291062, -45936.7911144246, -31014.677109083786, -18526.355150503536, -187500.02235174447, -13818.764843793493, -7771.008643032151, 15829.840699415292, -43943.775468322696, -39337.14799131727, -15412.086595545603, -36734.153239030034, -44352.63357789917, -41365.38998668075, 0.00315625, 1.00465625, 0.12944531250000002, 192.0, 0.0, 0.0, 0.0, 0.0, 0.0, 0.0, 0.0, 0.0, 0.0, 1.695420354283072E9, 0.0, 2023-09-22 17:05:54.283
168.0, 20688.215874220834, 31124.53593308162, -47387.95577144096, -45924.25178578518, -31019.03569925257, -18514.53107768668, -187500.02235174447, -13810.897029745225, -7767.186494730294, 15833.79695818388, -43944.043689256156, -39332.320014514924, -15408.71148213285, -36730.04051805026, -44348.72202261949, -41363.3112744464, 0.00315625, 1.00465625, 0.12944531250000002, 192.0, 0.0, 0.0, 0.0, 0.0, 0.0, 0.0, 0.0, 0.0, 0.0, 1.695420354283075E9, 0.0, 2023-09-22 17:05:54.283
170.0, 20694.85434232406, 31121.406688857878, -47377.919838180525, -45920.96607935025, -31000.148475187838, -18513.03351080817, -187500.02235174447, -13804.63854129774, -7754.781276557598, 15839.94368790909, -43935.21475019631, -39320.451238209156, -15395.434545926399, -36721.144523757044, -44340.228359726476, -41356.27047494298, 0.00315625, 1.00465625, 0.12944531250000002, 192.0, 0.0, 0.0, 0.0, 0.0, 0.0, 0.0, 0.0, 0.0, 0.0, 1.695420354283079E9, 0.0, 2023-09-22 17:05:54.283
172.0, 20691.367470189034, 31124.580636570532, -47396.9858762009, -45933.95244287878, -31028.08815575697, -18527.740958659764, -187500.02235174447, -13818.563678093396, -7757.843465547975, 15846.023362400934, -43939.34982292054, -39323.602834177356, -15397.066223271637, -36725.145486014546, -44345.14574350664, -41361.43372791216, 0.003578125, 1.006328125, 0.12972265625, 192.0, 0.0, 16.0, 15.5, 64.0, 2.0, 8.0, 0.0, 0.0, 0.0, 1.695420354283082E9, 0.0, 2023-09-22 17:05:54.283
174.0, 20686.561845131142, 31117.048098689094, -47391.688512764995, -45933.70657368977, -31018.208684707726, -18530.71374067232, -187500.02235174447, -13820.396521138731, -7767.521770897123, 15828.052559858867, -43949.430459669886, -39336.09745932787, -15407.616246654541, -36735.963730330914, -44354.8687523447, -41371.82728908388, 0.003578125, 1.006328125, 0.12972265625, 192.0, 0.0, 0.0, 0.0, 0.0, 0.0, 0.0, 0.0, 0.0, 0.0, 1.695420354283085E9, 0.0, 2023-09-22 17:05:54.283
176.0, 20693.08855451209, 31126.30172089359, -47395.77888200032, -45934.4441812568, -31034.883086071386, -18533.306543029135, -187500.02235174447, -13826.230326441566, -7765.398355173869, 15831.718245949538, -43946.3235671906, -39336.522142472524, -15406.923342576427, -36737.03661406477, -44355.33813897826, -41373.07898677338, 0.003578125, 1.006328125, 0.12972265625, 192.0, 0.0, 0.0, 0.0, 0.0, 0.0, 0.0, 0.0, 0.0, 0.0, 1.695420354283088E9, 0.0, 2023-09-22 17:05:54.283
178.0, 20686.450086408866, 31114.656462032377, -47394.19190814399, -45939.674489459336, -31028.04345226806, -18539.58738322108, -187500.02235174447, -13831.617096855296, -7766.024204018618, 15825.638571457694, -43943.52959913368, -39338.89142738479, -15411.326636234122, -36739.472954210396, -44358.44503145755, -41375.87295483029, 0.003578125, 1.006328125, 0.12972265625, 192.0, 0.0, 0.0, 0.0, 0.0, 0.0, 0.0, 0.0, 0.0, 0.0, 1.695420354283091E9, 0.0, 2023-09-22 17:05:54.283
180.0, 20694.653176623964, 31123.44069760331, -47404.38430361561, -45941.17205633784, -31041.789775108075, -18538.33568553158, -187500.02235174447, -13835.729817835072, -7768.773468586621, 15827.51611799194, -43946.904712546435, -39342.624168708826, -15416.936924092404, -36746.69256766946, -44364.278836760386, -41383.271382244995, 0.003578125, 1.006328125, 0.12972265625, 192.0, 0.0, 0.0, 0.0, 0.0, 0.0, 0.0, 0.0, 0.0, 0.0, 1.695420354343319E9, 0.0, 2023-09-22 17:05:54.343
182.0, 20694.630824879507, 31123.73127028123, -47394.99657094438, -45932.94661437829, -31029.00457727964, -18529.90907787193, -187500.02235174447, -13826.945582264136, -7762.984366772696, 15826.040902857889, -43937.74049731976, -39332.342366259385, -15414.902915346971, -36736.92485534249, -44361.1719442811, -41375.582382152366, 0.0037890625, 1.0091640625, 0.130861328125, 192.0, 0.0, 16.0, 15.5, 80.0, 2.0, 16.0, 0.0, 0.0, 0.0, 1.695420354343345E9, 0.0, 2023-09-22 17:05:54.343
184.0, 20713.87567685553, 31140.58448560053, -47386.70407375146, -45920.384933994406, -31022.85784755443, -18515.782775376174, -187500.02235174447, -13814.518012346985, -7759.6316051044, 15830.46654826004, -43935.795895552146, -39331.87297962582, -15412.71244439035, -36737.41659372051, -44358.802659368834, -41374.531850162966, 0.0037890625, 1.0091640625, 0.130861328125, 192.0, 0.0, 0.0, 0.0, 0.0, 0.0, 0.0, 0.0, 0.0, 0.0, 1.69542035434335E9, 0.0, 2023-09-22 17:05:54.343
186.0, 20712.042833810192, 31137.008206487684, -47385.541783039786, -45923.98356485171, -31016.129972473384, -18519.62727542249, -187500.02235174447, -13811.433471612154, -7741.370229884414, 15842.13415886571, -43916.66280229841, -39314.90800558424, -15398.51908666123, -36719.13286675607, -44339.78132483737, -41355.28699818695, 0.0037890625, 1.0091640625, 0.130861328125, 192.0, 0.0, 0.0, 0.0, 0.0, 0.0, 0.0, 0.0, 0.0, 0.0, 1.695420354343355E9, 0.0, 2023-09-22 17:05:54.343
188.0, 20722.77167114874, 31146.50769788119, -47388.76043424135, -45923.15655030686, -31020.600321364444, -18516.43097596538, -187500.02235174447, -13814.383901880254, -7755.496532380168, 15835.31687680684, -43932.152561205934, -39327.35792724585, -15411.28193274521, -36734.779087874784, -44350.711327876015, -41369.99444603854, 0.0037890625, 1.0091640625, 0.130861328125, 192.0, 0.0, 0.0, 0.0, 0.0, 0.0, 0.0, 0.0, 0.0, 0.0, 1.695420354343359E9, 0.0, 2023-09-22 17:05:54.343
190.0, 20719.038929824703, 31150.754529327696, -47375.86347769064, -45911.33247749001, -31005.445838623746, -18504.5174961707, -187500.02235174447, -13802.179849407656, -7741.727857795699, 15844.726961222526, -43916.72985753177, -39308.67186888121, -15395.658063370951, -36714.95309054293, -44334.461609657, -41351.28603592945, 0.0037890625, 1.0091640625, 0.130861328125, 192.0, 0.0, 0.0, 0.0, 0.0, 0.0, 0.0, 0.0, 0.0, 0.0, 1.695420354343364E9, 0.0, 2023-09-22 17:05:54.343
192.0, 20730.415967752455, 31156.342465441525, -47384.223030116926, -45918.283870015606, -31012.196065449247, -18511.580647418577, -187500.02235174447, -13810.449994856119, -7745.81822703102, 15844.302278077876, -43925.40233438043, -39314.863302095335, -15397.647368627475, -36724.83256159217, -44339.98249053747, -41357.969207521586, 0.0037890625, 1.0091640625, 0.130861328125, 192.0, 0.0, 0.0, 15.5, 64.0, 2.0, 8.0, 0.0, 0.0, 0.0, 1.695420354343368E9, 0.0, 2023-09-22 17:05:54.343
194.0, 20729.566601463153, 31159.941096298826, -47374.835297445694, -45911.913622845845, -31007.256329924625, -18504.85277233753, -187500.02235174447, -13802.537477318941, -7731.669572790811, 15848.392647313196, -43912.438322596354, -39304.581499645894, -15387.633787111496, -36710.84036956315, -44333.12050498969, -41347.553294605415, 0.0037890625, 1.0091640625, 0.130861328125, 192.0, 0.0, 0.0, 0.0, 0.0, 0.0, 0.0, 0.0, 0.0, 0.0, 1.695420354402797E9, 0.0, 2023-09-22 17:05:54.402
196.0, 20740.563659735162, 31163.249154478213, -47384.982989428405, -45924.60941369646, -31021.13676323137, -18520.23077252278, -187500.02235174447, -13819.122471704779, -7740.923194995308, 15840.547185009384, -43923.52478784619, -39314.95270907316, -15398.541438405686, -36727.35830871562, -44348.118525519196, -41362.774832579475, 0.0037890625, 1.0091640625, 0.130861328125, 192.0, 0.0, 0.0, 0.0, 0.0, 0.0, 0.0, 0.0, 0.0, 0.0, 1.695420354402812E9, 0.0, 2023-09-22 17:05:54.402
198.0, 20746.017485382257, 31177.241346507235, -47367.772146197814, -45903.9340500753, -31009.960891003717, -18501.209437991314, -187500.02235174447, -13798.760032505994, -7729.412046600824, 15843.251746088476, -43909.867871983995, -39300.89346181077, -15393.445240669877, -36715.556587643216, -44342.664699872104, -41351.21898069608, 0.0037890625, 1.0091640625, 0.130861328125, 192.0, 0.0, 0.0, 0.0, 0.0, 0.0, 0.0, 0.0, 0.0, 0.0, 1.695420354402815E9, 0.0, 2023-09-22 17:05:54.402
200.0, 20758.601517510597, 31180.370590730978, -47368.86738167613, -45910.63957341189, -31003.724754300685, -18509.703100884333, -187500.02235174447, -13801.576352307362, -7721.588936041468, 15851.879519448225, -43902.938831202846, -39291.371618672805, -15384.750412076763, -36710.68390735196, -44331.17590322207, -41342.47944861406, 0.0037890625, 1.0091640625, 0.130861328125, 192.0, 0.0, 0.0, 0.0, 0.0, 0.0, 0.0, 0.0, 0.0, 0.0, 1.695420354402818E9, 0.0, 2023-09-22 17:05:54.402
202.0, 20755.986363409327, 31183.633945421454, -47370.14143111008, -45911.53364319011, -31014.431239894777, -18513.23467650827, -187500.02235174447, -13806.247866898522, -7722.952392453241, 15851.56659502585, -43907.364476605, -39295.149063485755, -15389.198409223369, -36715.08720100966, -44336.093287002244, -41347.73210856105, 8.945312499999999E-4, 1.00858203125, 0.1294306640625, 192.0, 127.5, 120.0, 15.5, 64.0, 2.0, 0.0, 0.0, 0.0, 0.0, 1.695420354402822E9, 0.0, 2023-09-22 17:05:54.402
204.0, 20764.39061932452, 31182.73987564324, -47364.486439762884, -45912.673582157324, -31004.261196167612, -18517.280342254682, -187500.02235174447, -13811.388768123243, -7725.567546554512, 15851.611298514761, -43910.15844466191, -39297.56305188692, -15389.71249934584, -36718.23879697786, -44335.2662724574, -41351.33073941836, 8.945312499999999E-4, 1.00858203125, 0.1294306640625, 192.0, 0.0, 0.0, 0.0, 0.0, 0.0, 0.0, 0.0, 0.0, 0.0, 1.695420354402825E9, 0.0, 2023-09-22 17:05:54.402
206.0, 20759.339125077622, 31188.238404779248, -47367.638035731085, -45911.04190481209, -31017.113449229415, -18516.878010854485, -187500.02235174447, -13813.981570480059, -7729.210880900727, 15847.498577534983, -43914.09235168605, -39303.82154033441, -15393.311130203145, -36720.20575048992, -44340.65304287113, -41354.28116968646, 8.945312499999999E-4, 1.00858203125, 0.1294306640625, 192.0, 0.0, 0.0, 0.0, 0.0, 0.0, 0.0, 0.0, 0.0, 0.0, 1.695420354402828E9, 0.0, 2023-09-22 17:05:54.402
208.0, 20759.406180310987, 31178.850672108016, -47366.27457931931, -45919.75908514966, -31005.982280490673, -18528.389159248967, -187500.02235174447, -13818.876602515771, -7720.605459285433, 15850.180786869621, -43907.364476605, -39298.32301119841, -15384.213970209834, -36713.54493064224, -44330.81827531079, -41346.79333529393, 8.945312499999999E-4, 1.00858203125, 0.1294306640625, 192.0, 0.0, 0.0, 0.0, 0.0, 0.0, 0.0, 0.0, 0.0, 0.0, 1.695420354402831E9, 0.0, 2023-09-22 17:05:54.402
210.0, 20756.902784931994, 31185.265622766692, -47364.86641941863, -45911.287774001095, -31019.438030652767, -18520.320179500603, -187500.02235174447, -13816.395558881231, -7736.7434187821655, 15840.234260587009, -43920.44024711135, -39313.253976494554, -15398.04970002767, -36726.665404637504, -44345.168095251094, -41359.46677440009, 8.945312499999999E-4, 1.00858203125, 0.1294306640625, 192.0, 0.0, 0.0, 0.0, 0.0, 0.0, 0.0, 0.0, 0.0, 0.0, 1.695420354462541E9, 0.0, 2023-09-22 17:05:54.462
212.0, 20762.289555345724, 31182.87398610997, -47355.836314658685, -45908.337343732994, -31003.99297523415, -18517.772080632698, -187500.02235174447, -13811.12054718978, -7723.108854664428, 15841.061275131855, -43908.0126771942, -39302.01104903353, -15383.029327753704, -36715.37777368758, -44330.371240421686, -41344.80403003741, -0.001552734375, 1.008291015625, 0.13071533203125002, 192.0, 127.5, 112.0, 15.5, 64.0, 2.0, 16.0, 0.0, 0.0, 0.0, 1.695420354462552E9, 0.0, 2023-09-22 17:05:54.462
214.0, 20764.860005958082, 31193.289899026146, -47360.35136703865, -45902.347076218975, -31018.61101610792, -18510.28424624017, -187500.02235174447, -13805.35379712031, -7719.934906951775, 15845.106940878266, -43905.375171348474, -39299.909985054735, -15382.895217286972, -36711.62268061908, -44331.10884798871, -41343.01589048099, -0.001552734375, 1.008291015625, 0.13071533203125002, 192.0, 0.0, 0.0, 0.0, 0.0, 0.0, 0.0, 0.0, 0.0, 0.0, 1.695420354462556E9, 0.0, 2023-09-22 17:05:54.462
216.0, 20769.084485660136, 31193.98280310426, -47360.35136703865, -45907.95736407726, -31011.99489974915, -18518.017949821708, -187500.02235174447, -13809.243000655533, -7719.6219825294, 15838.915507664145, -43905.866909726494, -39300.49113041057, -15386.00210976626, -36714.84133182065, -44335.7133073465, -41346.23454168255, -0.001552734375, 1.008291015625, 0.13071533203125002, 192.0, 0.0, 0.0, 0.0, 0.0, 0.0, 0.0, 0.0, 0.0, 0.0, 1.695420354462559E9, 0.0, 2023-09-22 17:05:54.462
218.0, 20782.182607910945, 31216.35689930402, -47349.466067488924, -45889.338360945985, -31012.486638127168, -18500.09185076855, -187500.02235174447, -13798.000073194513, -7710.055435902529, 15849.845510702791, -43896.74739798873, -39291.662191350726, -15379.341289918577, -36707.82288406168, -44332.1146764892, -41339.17139043467, -0.001552734375, 1.008291015625, 0.13071533203125002, 192.0, 0.0, 0.0, 0.0, 0.0, 0.0, 0.0, 0.0, 0.0, 0.0, 1.695420354462562E9, 0.0, 2023-09-22 17:05:54.462
220.0, 20785.088334690136, 31212.110067857513, -47343.31933776371, -45891.61823888043, -30995.454608852222, -18504.249275237238, -187500.02235174447, -13798.335349361343, -7698.231363085672, 15859.814388729857, -43882.799909448615, -39279.547545855945, -15368.903025257949, -36696.40114264502, -44318.92714726057, -41328.44255309612, -0.001552734375, 1.008291015625, 0.13071533203125002, 192.0, 0.0, 0.0, 0.0, 0.0, 0.0, 0.0, 0.0, 0.0, 0.0, 1.695420354462566E9, 0.0, 2023-09-22 17:05:54.462
222.0, 20789.715145792383, 31218.972053405294, -47351.74594542336, -45889.94185804628, -31012.397231149345, -18500.650644379934, -187500.02235174447, -13799.49764007302, -7704.176927110783, 15863.122446909243, -43887.67258973987, -39283.83908079137, -15375.921473016915, -36699.88801478005, -44323.643365340635, -41333.337585131834, -0.0017763671875, 1.0071455078125, 0.129357666015625, 192.0, 127.5, 120.0, 15.5, 56.0, 2.0, 0.0, 0.0, 0.0, 0.0, 1.69542035446257E9, 0.0, 2023-09-22 17:05:54.462
224.0, 20785.892997490526, 31212.445344024345, -47341.5759016962, -45882.58813412048, -30991.65481229482, -18492.067574509096, -187500.02235174447, -13787.718270745072, -7701.159441609317, 15860.864920719257, -43882.934019915345, -39278.38525514427, -15371.205254936845, -36689.58386058615, -44315.708496059, -41322.92167221566, -0.0017763671875, 1.0071455078125, 0.129357666015625, 192.0, 0.0, 0.0, 0.0, 0.0, 0.0, 0.0, 0.0, 0.0, 0.0, 1.69542035452281E9, 0.0, 2023-09-22 17:05:54.522
226.0, 20772.906633961993, 31203.124666586482, -47356.93155013699, -45894.63572438189, -31012.933673016272, -18501.343548458048, -187500.02235174447, -13799.54234356193, -7710.368360324903, 15863.792999242904, -43893.2605258537, -39284.48728138057, -15377.843723040072, -36694.74711355533, -44321.29643217283, -41327.74964901801, -0.0017763671875, 1.0071455078125, 0.129357666015625, 192.0, 0.0, 0.0, 0.0, 0.0, 0.0, 0.0, 0.0, 0.0, 0.0, 1.695420354522825E9, 0.0, 2023-09-22 17:05:54.522
228.0, 20739.244906812302, 31170.580526659553, -47357.3785850261, -45902.816462852534, -31004.08238221197, -18506.551504916133, -187500.02235174447, -13800.34700636232, -7717.364456339415, 15848.571461268839, -43897.70852300031, -39289.80699656093, -15376.904949772948, -36693.42836063247, -44320.69293507253, -41327.816704251374, -0.0017763671875, 1.0071455078125, 0.129357666015625, 192.0, 0.0, 0.0, 0.0, 0.0, 0.0, 0.0, 0.0, 0.0, 0.0, 1.695420354522828E9, 0.0, 2023-09-22 17:05:54.522
230.0, 20713.04866231068, 31147.938209526328, -47370.52141076582, -45911.153663534365, -31023.28253069908, -18510.57481891809, -187500.02235174447, -13807.790137265938, -7746.265261920126, 15828.857222659259, -43924.10593320202, -39316.539682929484, -15393.244074969778, -36711.62268061908, -44334.19338872354, -41345.11695445979, -0.0017763671875, 1.0071455078125, 0.129357666015625, 192.0, 0.0, 0.0, 0.0, 0.0, 0.0, 0.0, 0.0, 0.0, 0.0, 1.695420354522832E9, 0.0, 2023-09-22 17:05:54.522
232.0, 20684.773705574717, 31125.228837159735, -47364.57584674071, -45907.19740476578, -31011.95019626024, -18506.193877004847, -187500.02235174447, -13800.883448229248, -7753.864855034931, 15821.682312689105, -43926.005831480725, -39318.61839516382, -15395.121621504024, -36705.02891600477, -44331.28766194435, -41338.27732065646, -0.0017763671875, 1.0071455078125, 0.129357666015625, 192.0, 0.0, 0.0, 15.5, 56.0, 2.0, 0.0, 0.0, 0.0, 0.0, 1.695420354522835E9, 0.0, 2023-09-22 17:05:54.522
234.0, 20678.694031082872, 31116.265787633158, -47380.289123092785, -45923.00008809568, -31030.636254624875, -18520.923676600894, -187500.02235174447, -13815.099157702824, -7768.371137186425, 15821.0341120999, -43936.779372308185, -39327.46968596813, -15404.487002430798, -36717.590596388654, -44339.87073181519, -41347.955626005605, -0.0017763671875, 1.0071455078125, 0.129357666015625, 192.0, 0.0, 0.0, 0.0, 0.0, 0.0, 0.0, 0.0, 0.0, 0.0, 1.695420354522838E9, 0.0, 2023-09-22 17:05:54.522
236.0, 20659.829158762594, 31098.02676415763, -47377.80807945825, -45923.82710264053, -31027.32819644549, -18520.990731834263, -187500.02235174447, -13814.674474558173, -7769.689890109288, 15804.98555958099, -43937.31581417511, -39329.749563902566, -15406.565714665141, -36717.255320221826, -44341.122429504685, -41346.4580591271, -0.0017763671875, 1.0071455078125, 0.129357666015625, 192.0, 0.0, 0.0, 0.0, 0.0, 0.0, 0.0, 0.0, 0.0, 0.0, 1.695420354522841E9, 0.0, 2023-09-22 17:05:54.522
238.0, 20662.354905886044, 31093.601118755476, -47381.339655082185, -45929.01270735416, -31029.630426124386, -18523.94116210236, -187500.02235174447, -13815.680303058662, -7778.92116056933, 15798.168277522122, -43948.89401780296, -39341.73009893061, -15410.074938544625, -36729.70524188343, -44345.90570281812, -41353.58826560835, -0.0017763671875, 1.0071455078125, 0.129357666015625, 192.0, 0.0, 0.0, 0.0, 0.0, 0.0, 0.0, 0.0, 0.0, 0.0, 1.695420354522844E9, 0.0, 2023-09-22 17:05:54.522
240.0, 20647.66980977891, 31083.900461661873, -47378.210410858446, -45929.43739049881, -31024.71304234422, -18520.990731834263, -187500.02235174447, -13811.075843700868, -7776.864800079442, 15793.183838508588, -43947.61996836901, -39342.22183730863, -15406.47630768732, -36726.0172040483, -44341.07772601578, -41345.13930620424, -0.0017763671875, 1.0071455078125, 0.129357666015625, 192.0, 0.0, 0.0, 0.0, 0.0, 0.0, 0.0, 0.0, 0.0, 0.0, 1.695420354583937E9, 0.0, 2023-09-22 17:05:54.583
242.0, 20646.574574300597, 31076.166758080337, -47393.633114532604, -45948.078745374536, -31034.771327349106, -18536.994580864262, -187500.02235174447, -13823.615172340295, -7788.443003707291, 15780.666861613616, -43965.21079125533, -39359.946770661685, -15415.238191513801, -36743.876247868095, -44350.17488600909, -41359.62323661128, -0.0017763671875, 1.0071455078125, 0.129357666015625, 192.0, 0.0, 0.0, 15.5, 64.0, 2.0, 0.0, 0.0, 0.0, 0.0, 1.695420354583951E9, 0.0, 2023-09-22 17:05:54.583
