%OpenBCI Raw EXG Data
%Number of channels = 16
%Sample Rate = 125 Hz
%Board = OpenBCI_GUI$BoardCytonSerialDaisy
Sample Index, EXG Channel 0, EXG Channel 1, EXG Channel 2, EXG Channel 3, EXG Channel 4, EXG Channel 5, EXG Channel 6, EXG Channel 7, EXG Channel 8, EXG Channel 9, EXG Channel 10, EXG Channel 11, EXG Channel 12, EXG Channel 13, EXG Channel 14, EXG Channel 15, Accel Channel 0, Accel Channel 1, Accel Channel 2, Other, Other, Other, Other, Other, Other, Other, Analog Channel 0, Analog Channel 1, Analog Channel 2, Timestamp, Other, Timestamp (Formatted)
0.0, 15026.384893224824, 19269.707115853682, 29989.670811852317, 13860.02616405799, 32126.58698875749, 6552.056259161981, -187500.02235174447, 32643.292265330827, 0.0, 0.0, 0.0, 0.0, 0.0, 0.0, 0.0, 0.0, 0.0, 0.0, 0.0, 192.0, 0.0, 0.0, 0.0, 0.0, 0.0, 0.0, 0.0, 0.0, 0.0, 1.695929813012153E9, 0.0, 2023-09-28 14:36:53.012
224.0, 15165.85977862594, 19277.1502467573, 29979.2772506806, 13854.304117477432, 32114.137067095886, 6542.892043935304, -187500.02235174447, 32620.202913308494, 16990.99147212404, -25245.691865169036, -187500.02235174447, 53090.064595945434, 26225.368824645142, -2796.292638336735, 65300.710833157405, 29088.47082715879, 0.115, 0.47700000000000004, 0.125, 192.0, 3.5, 24.0, 14.5, 104.0, 3.5, 104.0, 0.0, 0.0, 0.0, 1.6959298130121875E9, 0.0, 2023-09-28 14:36:53.012
226.0, 15023.725035634643, 19273.417505433263, 29969.35307614244, 13867.290481005964, 32125.245884090175, 6553.352660340388, -187500.02235174447, 32646.22034385447, 16996.60175998232, -25219.13799275613, -187500.02235174447, 53060.64970024225, 26236.701159083983, -2776.6231032160645, 65210.454489046875, 29064.196832680325, 0.115, 0.47700000000000004, 0.125, 192.0, 0.0, 0.0, 0.0, 0.0, 0.0, 0.0, 0.0, 0.0, 0.0, 1.6959298130122116E9, 0.0, 2023-09-28 14:36:53.012
228.0, 15168.541987960576, 19282.44761019321, 29981.110093725933, 13856.181664011678, 32116.573407241514, 6548.167055626757, -187500.02235174447, 32637.79373619482, 16992.243169813537, -25240.260391266394, -187500.02235174447, 53083.09085167538, 26224.09477521119, -2785.899077165017, 65303.437745980955, 29090.728353348775, 0.115, 0.47700000000000004, 0.125, 192.0, 0.0, 0.0, 0.0, 0.0, 0.0, 0.0, 0.0, 0.0, 0.0, 1.6959298130122347E9, 0.0, 2023-09-28 14:36:53.012
230.0, 15033.917431106262, 19259.58177561543, 29956.523174825095, 13849.587899397362, 32104.79403791357, 6531.403247285277, -187500.02235174447, 32623.98035812144, 16995.998262882025, -25235.99120807543, -187500.02235174447, 53058.9733194081, 26232.56608635975, -2778.701815450408, 65219.417538573456, 29065.493233858735, 0.115, 0.47700000000000004, 0.125, 192.0, 0.0, 0.0, 0.0, 0.0, 0.0, 0.0, 0.0, 0.0, 0.0, 1.695929813012258E9, 0.0, 2023-09-28 14:36:53.012
232.0, 15201.086127887504, 19266.913147796768, 29979.321954169507, 13843.68703886116, 32103.29647103506, 6527.3128780499555, -187500.02235174447, 32616.067840584263, 16965.152855533703, -25262.679190955067, -187500.02235174447, 53065.43297355568, 26196.892702209083, -2809.1001879096257, 65315.91001938701, 29069.002457738217, 0.115, 0.47700000000000004, 0.125, 192.0, 0.0, 0.0, 0.0, 0.0, 0.0, 0.0, 0.0, 0.0, 0.0, 1.6959298130122836E9, 0.0, 2023-09-28 14:36:53.012
234.0, 15040.35473350939, 19268.991860031114, 29944.49793630814, 13863.490684448563, 32118.182732842295, 6544.0990381358915, -187500.02235174447, 32636.430279783046, 16989.873884901273, -25230.202106261506, -187500.02235174447, 53054.59237749486, 26233.214286948954, -2782.2110393298913, 65244.94323074142, 29065.60499258101, 0.17450000000000002, 0.7185, 0.1915, 192.0, 3.5, 40.0, 15.0, 0.0, 4.0, 8.0, 0.0, 0.0, 0.0, 1.6959298130123065E9, 0.0, 2023-09-28 14:36:53.012
236.0, 15198.135697619404, 19266.264947207565, 29995.303451455053, 13845.296364461943, 32101.798904156556, 6518.014552356548, -187500.02235174447, 32612.603320193688, 16981.894312130727, -25245.982437846953, -187500.02235174447, 53077.189991139174, 26216.003443718368, -2808.340228598145, 65301.58255119116, 29086.637984113455, 0.17450000000000002, 0.7185, 0.1915, 192.0, 0.0, 0.0, 0.0, 0.0, 0.0, 0.0, 0.0, 0.0, 0.0, 1.6959298130123296E9, 0.0, 2023-09-28 14:36:53.012
238.0, 15024.082663545927, 19286.09094453942, 29940.228753117175, 13884.903655636748, 32140.959160442253, 6566.674300035751, -187500.02235174447, 32662.782986495855, 16988.666890700686, -25234.404234219102, -187500.02235174447, 53057.40869729623, 26230.308560169764, -2783.4627370193884, 65256.2532134358, 29063.548632091122, 0.17450000000000002, 0.7185, 0.1915, 192.0, 0.0, 0.0, 0.0, 0.0, 0.0, 0.0, 0.0, 0.0, 0.0, 1.6959298130123532E9, 0.0, 2023-09-28 14:36:53.012
240.0, 15156.494397699165, 19276.703211868193, 30021.298530256576, 13866.93285309468, 32120.753183454657, 6541.908567179271, -187500.02235174447, 32651.56241077929, 17001.005053640016, -25226.22349574846, -187500.02235174447, 53092.90326749126, 26239.182202718523, -2777.383062527545, 65270.49127465383, 29113.124801292994, 0.17450000000000002, 0.7185, 0.1915, 192.0, 0.0, 0.0, 0.0, 0.0, 0.0, 0.0, 0.0, 0.0, 0.0, 1.6959298130123763E9, 0.0, 2023-09-28 14:36:53.012
242.0, 15027.435425214224, 19270.131798998333, 29944.609695030416, 13867.916329850714, 32125.424698045816, 6547.787075971017, -187500.02235174447, 32646.957951421497, 16988.577483722864, -25233.644274907623, -187500.02235174447, 53071.534999791984, 26236.768214317348, -2774.4996874928106, 65269.12781824206, 29081.675896844376, 0.17450000000000002, 0.7185, 0.1915, 192.0, 0.0, 0.0, 0.0, 0.0, 0.0, 0.0, 0.0, 0.0, 0.0, 1.695929813012399E9, 0.0, 2023-09-28 14:36:53.012
244.0, 15132.712141598719, 19279.631290391837, 30018.795134877582, 13861.188454769666, 32117.892160164378, 6535.381857798321, -187500.02235174447, 32628.36130003468, 16988.868056400785, -25227.363434715684, -187500.02235174447, 53080.94508420767, 26228.47571712443, -2783.798013186218, 65270.91595779848, 29094.70696386182, 0.20025, 0.84325, 0.22375, 192.0, 3.5, 8.0, 15.0, 32.0, 4.0, 0.0, 0.0, 0.0, 0.0, 1.6959298130124223E9, 0.0, 2023-09-28 14:36:53.012
246.0, 15036.934916607728, 19285.509799183583, 29935.44547980374, 13870.978518841091, 32119.50148576516, 6548.278814349033, -187500.02235174447, 32650.51187878989, 16990.6114924683, -25222.84838233571, -187500.02235174447, 53072.76434573703, 26228.81099329126, -2781.1828590849473, 65286.159847517, 29071.394094394935, 0.20025, 0.84325, 0.22375, 192.0, 0.0, 0.0, 0.0, 0.0, 0.0, 0.0, 0.0, 0.0, 0.0, 1.695929813012447E9, 0.0, 2023-09-28 14:36:53.012
248.0, 15131.527499142589, 19267.315479196965, 30021.253826767665, 13857.232196001078, 32109.778476927102, 6520.71911343564, -187500.02235174447, 32634.239808826427, 16984.82239065437, -25225.776460859357, -187500.02235174447, 53078.106412661844, 26225.94997000098, -2779.350016039612, 65257.840187292124, 29094.483446417267, 0.20025, 0.84325, 0.22375, 192.0, 0.0, 0.0, 0.0, 0.0, 0.0, 0.0, 0.0, 0.0, 0.0, 1.6959298130124695E9, 0.0, 2023-09-28 14:36:53.012
250.0, 15054.034001116039, 19287.38734571783, 29937.233619360166, 13875.27005377651, 32131.54907602657, 6546.669488748252, -187500.02235174447, 32634.70919545999, 16976.35107950581, -25227.631655649147, -187500.02235174447, 53075.89358996077, 26221.770193787837, -2785.541449253732, 65307.79633614974, 29068.08603621555, 0.20025, 0.84325, 0.22375, 192.0, 0.0, 0.0, 0.0, 0.0, 0.0, 0.0, 0.0, 0.0, 0.0, 1.6959298130124924E9, 0.0, 2023-09-28 14:36:53.012
252.0, 15105.107737196415, 19274.602147889396, 30018.83983836649, 13859.355611724332, 32100.524854722604, 6524.809482670961, -187500.02235174447, 32637.5031635169, 16994.74656519253, -25216.232265976938, -187500.02235174447, 53083.5825900534, 26234.220115449443, -2772.532733980743, 65245.16674818597, 29078.211376453804, 0.20025, 0.84325, 0.22375, 192.0, 0.0, 0.0, 0.0, 0.0, 0.0, 0.0, 0.0, 0.0, 0.0, 1.695929813012515E9, 0.0, 2023-09-28 14:36:53.012
254.0, 15069.03202164555, 19289.309595740986, 29937.25597110462, 13874.040707831467, 32128.084555635996, 6552.927977195737, -187500.02235174447, 32641.03473914084, 16971.612509681287, -25224.167135258573, -187500.02235174447, 53084.186087153685, 26213.410641361552, -2792.4704900348775, 65317.56404847671, 29051.679855785354, 0.216125, 0.908625, 0.234875, 192.0, 3.5, 32.0, 15.0, 56.0, 3.5, 88.0, 0.0, 0.0, 0.0, 1.6959298130125446E9, 0.0, 2023-09-28 14:36:53.012
0.0, 15079.090306650438, 19271.227034476644, 30013.408364463852, 13862.283690247976, 32102.53651172358, 6526.932898394215, -187500.02235174447, 32636.229114082947, 16992.310225046902, -25197.65796633458, -187500.02235174447, 53089.03641570049, 26237.975208517935, -2767.034204844738, 65229.744044511805, 29078.300783431627, 0.216125, 0.908625, 0.234875, 192.0, 0.0, 0.0, 0.0, 0.0, 0.0, 0.0, 0.0, 0.0, 0.0, 1.695929813012567E9, 0.0, 2023-09-28 14:36:53.012
2.0, 15094.982396958161, 19290.49423819712, 29939.938180439258, 13875.426515987698, 32119.97087239872, 6550.20106437219, -187500.02235174447, 32645.952122921008, 16973.959442849093, -25234.62775166366, -187500.02235174447, 53097.03834021549, 26217.791583274793, -2788.5812864996537, 65329.05284512673, 29076.89262353094, 0.216125, 0.908625, 0.234875, 192.0, 0.0, 0.0, 0.0, 0.0, 0.0, 0.0, 0.0, 0.0, 0.0, 1.6959298130125916E9, 0.0, 2023-09-28 14:36:53.012
4.0, 15080.945501440228, 19294.33873824343, 30007.194579505278, 13880.008623601036, 32092.344116251963, 6542.512064279565, -187500.02235174447, 32643.046396141817, 16992.109059346803, -25212.36541418617, -187500.02235174447, 53091.13747967929, 26230.152097958577, -2768.26355078978, 65241.2998963952, 29099.222016241794, 0.216125, 0.908625, 0.234875, 192.0, 0.0, 0.0, 0.0, 0.0, 0.0, 0.0, 0.0, 0.0, 0.0, 1.6959298130126152E9, 0.0, 2023-09-28 14:36:53.012
6.0, 15132.712141598719, 19316.19874432072, 29949.772947999594, 13892.726766196105, 32096.54624420956, 6560.7734394995505, -187500.02235174447, 32637.41375653908, 16990.209161068102, -25204.765821071367, -187500.02235174447, 53116.52906138052, 26215.556408829263, -2762.11682106457, 65343.26855460031, 29100.250196486737, 0.216125, 0.908625, 0.234875, 192.0, 0.0, 0.0, 0.0, 0.0, 0.0, 0.0, 0.0, 0.0, 0.0, 1.6959298130126376E9, 0.0, 2023-09-28 14:36:53.012
8.0, 15056.090361605928, 19307.146287816322, 30005.227625993208, 13899.968731399624, 32102.335346023483, 6554.045564418503, -187500.02235174447, 32650.064843900782, 17011.93505667866, -25165.292640363296, -187500.02235174447, 53109.86824153284, 26237.304656184275, -2738.6921928754086, 65231.82275674615, 29102.530074421178, 0.2220625, 0.9463125, 0.2384375, 192.0, 3.5, 16.0, 15.0, 96.0, 3.5, 72.0, 0.0, 0.0, 0.0, 1.6959298130126603E9, 0.0, 2023-09-28 14:36:53.012
10.0, 15135.550813144544, 19301.983034847144, 29960.591192315962, 13885.1271730813, 32113.622976973413, 6550.782209728028, -187500.02235174447, 32642.197029852516, 17005.02836764197, -25186.683259807025, -187500.02235174447, 53136.84679709039, 26228.699234568983, -2763.726146665352, 65342.75446447784, 29108.788562868664, 0.2220625, 0.9463125, 0.2384375, 192.0, 0.0, 0.0, 0.0, 0.0, 0.0, 0.0, 0.0, 0.0, 0.0, 1.6959298130126836E9, 0.0, 2023-09-28 14:36:53.012
12.0, 15037.650172430298, 19278.379592702342, 29978.494939624663, 13869.369193240309, 32100.68131693379, 6524.876537904327, -187500.02235174447, 32634.5527332488, 16998.680472216663, -25201.055431491786, -187500.02235174447, 53097.954761738154, 26235.20359220548, -2764.1731815544586, 65233.25326839129, 29095.645737128943, 0.2220625, 0.9463125, 0.2384375, 192.0, 0.0, 0.0, 0.0, 0.0, 0.0, 0.0, 0.0, 0.0, 0.0, 1.6959298130127065E9, 0.0, 2023-09-28 14:36:53.012
14.0, 15152.269917997113, 19292.952930087202, 29960.16650917131, 13872.587844441874, 32103.698802435258, 6536.052410131981, -187500.02235174447, 32628.383651779135, 16978.474495229068, -25223.94361781402, -187500.02235174447, 53110.60584909986, 26210.080231437714, -2795.577382514165, 65347.49303430236, 29093.94700455034, 0.2220625, 0.9463125, 0.2384375, 192.0, 0.0, 0.0, 0.0, 0.0, 0.0, 0.0, 0.0, 0.0, 0.0, 1.6959298130127308E9, 0.0, 2023-09-28 14:36:53.012
16.0, 15020.416977455257, 19282.984052060136, 29972.124692454898, 13881.774411413004, 32112.7289071952, 6537.840549688405, -187500.02235174447, 32657.105643404204, 16993.673681458677, -25199.311995424272, -187500.02235174447, 53085.57189530991, 26231.269685181345, -2774.7232049373633, 65237.52245158225, 29086.593280624544, 0.2220625, 0.9463125, 0.2384375, 192.0, 0.0, 0.0, 0.0, 0.0, 0.0, 0.0, 0.0, 0.0, 0.0, 1.6959298130127535E9, 0.0, 2023-09-28 14:36:53.012
18.0, 15153.611022664432, 19306.25221803811, 29978.561994858028, 13890.960978384135, 32128.55394226956, 6544.300203835989, -187500.02235174447, 32644.611018253687, 16990.54443723493, -25207.51508563937, -187500.02235174447, 53119.568898626436, 26223.133650199612, -2797.7231499818745, 65342.8215197112, 29107.313347734613, 0.22303125000000001, 0.9611562499999999, 0.23921874999999998, 192.0, 3.5, 0.0, 15.0, 64.0, 3.5, 64.0, 0.0, 0.0, 0.0, 1.6959298130127764E9, 0.0, 2023-09-28 14:36:53.012
20.0, 14996.008872510061, 19300.753688902103, 29968.59311683096, 13893.017338874024, 32122.898950922365, 6545.596605014397, -187500.02235174447, 32648.947256678017, 17021.41219632771, -25169.517120065346, -187500.02235174447, 53106.984866498104, 26252.43678718052, -2767.056556589193, 65237.96948647136, 29096.673917373886, 0.22303125000000001, 0.9611562499999999, 0.23921874999999998, 192.0, 0.0, 0.0, 0.0, 0.0, 0.0, 0.0, 0.0, 0.0, 0.0, 1.695929813012799E9, 0.0, 2023-09-28 14:36:53.012
22.0, 15158.66251691133, 19300.619578435373, 29985.133407727888, 13878.332242766886, 32114.44999151826, 6531.291488563, -187500.02235174447, 32627.08725060073, 16989.270387800978, -25213.773574086856, -187500.02235174447, 53123.25693646156, 26220.76436528735, -2799.198365115925, 65336.83125219718, 29106.754554123232, 0.22303125000000001, 0.9611562499999999, 0.23921874999999998, 192.0, 0.0, 0.0, 0.0, 0.0, 0.0, 0.0, 0.0, 0.0, 0.0, 1.6959298130128217E9, 0.0, 2023-09-28 14:36:53.012
24.0, 14998.311102188958, 19292.505895198097, 29944.3191223525, 13879.740402667572, 32120.104982865454, 6538.399343299788, -187500.02235174447, 32637.056128627795, 17001.49679201803, -25187.689088307514, -187500.02235174447, 53106.426072886716, 26242.311446942265, -2783.261571319291, 65259.29305068172, 29093.432914427867, 0.22303125000000001, 0.9611562499999999, 0.23921874999999998, 192.0, 0.0, 0.0, 0.0, 0.0, 0.0, 0.0, 0.0, 0.0, 0.0, 1.695929813012844E9, 0.0, 2023-09-28 14:36:53.012
26.0, 15156.874377354907, 19289.510761441084, 29970.269497665107, 13859.266204746511, 32108.035040859588, 6531.693819963196, -187500.02235174447, 32621.052279597796, 16981.60373945281, -25220.99318754592, -187500.02235174447, 53110.09175897739, 26216.539885585295, -2803.758120984807, 65336.853603941636, 29098.4173534414, 0.22303125000000001, 0.9611562499999999, 0.23921874999999998, 192.0, 0.0, 0.0, 0.0, 0.0, 0.0, 0.0, 0.0, 0.0, 0.0, 1.6959298130128667E9, 0.0, 2023-09-28 14:36:53.012
28.0, 14986.196456694182, 19292.90822659829, 29920.134534851855, 13876.007661343536, 32134.275988850117, 6552.123314395347, -187500.02235174447, 32653.574067780268, 16999.88746641725, -25196.048640733796, -187500.02235174447, 53094.266723903034, 26242.043226008802, -2782.3898532855337, 65271.51945489877, 29082.83818755605, 0.218515625, 0.966578125, 0.235609375, 192.0, 3.0, 88.0, 15.0, 48.0, 3.5, 32.0, 0.0, 0.0, 0.0, 1.6959298130128915E9, 0.0, 2023-09-28 14:36:53.012
30.0, 15145.407932449334, 19281.37472645935, 29975.54450935656, 13846.413951684708, 32095.652174431347, 6514.393569754788, -187500.02235174447, 32614.704384172488, 16990.4103267682, -25216.835763077233, -187500.02235174447, 53115.74675032458, 26226.57581884573, -2797.1420046260364, 65320.08979560016, 29097.500931918734, 0.218515625, 0.966578125, 0.235609375, 192.0, 0.0, 0.0, 0.0, 0.0, 0.0, 0.0, 0.0, 0.0, 0.0, 1.6959298130129175E9, 0.0, 2023-09-28 14:36:53.012
32.0, 15003.630817369321, 19279.407772947285, 29903.72835442166, 13859.042687301957, 32120.79788694357, 6528.050485616981, -187500.02235174447, 32624.092116843716, 16987.54930347792, -25221.954312557496, -187500.02235174447, 53083.64964528676, 26225.078251967225, -2809.703685009919, 65299.07915581217, 29059.480614600256, 0.218515625, 0.966578125, 0.235609375, 192.0, 0.0, 0.0, 0.0, 0.0, 0.0, 0.0, 0.0, 0.0, 0.0, 1.6959298130129404E9, 0.0, 2023-09-28 14:36:53.012
34.0, 15138.836519579474, 19273.126932755345, 29979.63487859188, 13842.368285938299, 32097.21679654322, 6509.163261552247, -187500.02235174447, 32624.18152382154, 16989.94094013464, -25230.179754517052, -187500.02235174447, 53094.73611053659, 26225.167658945044, -2804.0039901738155, 65309.807993150716, 29089.81193182611, 0.218515625, 0.966578125, 0.235609375, 192.0, 0.0, 0.0, 0.0, 0.0, 0.0, 0.0, 0.0, 0.0, 0.0, 1.6959298130129635E9, 0.0, 2023-09-28 14:36:53.012
36.0, 15003.273189458036, 19281.888816581824, 29902.96839511018, 13865.524693193996, 32130.49854403717, 6547.854131204383, -187500.02235174447, 32644.096928131217, 16991.97494888007, -25218.84742007821, -187500.02235174447, 53083.3814243533, 26231.873182281637, -2800.092434894137, 65304.10829831461, 29068.17544319337, 0.218515625, 0.966578125, 0.235609375, 192.0, 0.0, 0.0, 0.0, 0.0, 0.0, 0.0, 0.0, 0.0, 0.0, 1.6959298130129864E9, 0.0, 2023-09-28 14:36:53.012
38.0, 15108.773423287086, 19269.573005386952, 29988.530872885094, 13841.340105693354, 32103.229415801696, 6519.266250046045, -187500.02235174447, 32629.970625635462, 16997.249960571524, -25212.27600720835, -187500.02235174447, 53097.26185766004, 26237.572877117742, -2795.21975460288, 65286.62923415056, 29102.75359186573, 0.21425781249999998, 0.9682890625, 0.2338046875, 192.0, 3.0, 72.0, 15.0, 40.0, 3.5, 32.0, 0.0, 0.0, 0.0, 1.6959298130130088E9, 0.0, 2023-09-28 14:36:53.013
40.0, 15034.45387297319, 19256.318420924952, 29897.983956096647, 13827.459672386609, 32107.520950737115, 6524.898889648783, -187500.02235174447, 32627.176657578548, 16974.585291693842, -25234.89597259712, -187500.02235174447, 53075.60301728285, 26218.104507697168, -2811.827100733173, 65323.66607471301, 29062.252230912716, 0.21425781249999998, 0.9682890625, 0.2338046875, 192.0, 0.0, 0.0, 0.0, 0.0, 0.0, 0.0, 0.0, 0.0, 0.0, 1.6959298130130332E9, 0.0, 2023-09-28 14:36:53.013
42.0, 15107.164097686304, 19257.838339547914, 29985.692201339272, 13825.269201429988, 32099.563729711026, 6512.739540665096, -187500.02235174447, 32629.009500623884, 16976.46283822809, -25239.835708121744, -187500.02235174447, 53075.670072516215, 26216.986920474403, -2809.7483884988296, 65282.315347470685, 29076.914975275395, 0.21425781249999998, 0.9682890625, 0.2338046875, 192.0, 0.0, 0.0, 0.0, 0.0, 0.0, 0.0, 0.0, 0.0, 0.0, 1.6959298130130556E9, 0.0, 2023-09-28 14:36:53.013
44.0, 15047.909623135285, 19282.894645082313, 29912.892569648335, 13852.448922687641, 32130.990282415187, 6552.39153532881, -187500.02235174447, 32649.863678200687, 16989.78447792345, -25228.592780660725, -187500.02235174447, 53097.37361638232, 26226.061728723256, -2797.857260448606, 65326.6165049811, 29074.79155955214, 0.21425781249999998, 0.9682890625, 0.2338046875, 192.0, 0.0, 0.0, 0.0, 0.0, 0.0, 0.0, 0.0, 0.0, 0.0, 1.695929813013078E9, 0.0, 2023-09-28 14:36:53.013
46.0, 15087.829838732463, 19272.679897866237, 30004.08768702599, 13839.484910903564, 32110.29256704957, 6524.273040804034, -187500.02235174447, 32642.621712997166, 17000.669777473187, -25215.047623520808, -187500.02235174447, 53107.23073568711, 26239.495127140897, -2783.8203649306733, 65258.82366404816, 29102.507722676724, 0.21425781249999998, 0.9682890625, 0.2338046875, 192.0, 0.0, 0.0, 0.0, 0.0, 0.0, 0.0, 0.0, 0.0, 0.0, 1.6959298130131004E9, 0.0, 2023-09-28 14:36:53.013
48.0, 15066.416867544278, 19293.265854509576, 29935.534886781563, 13862.306041992431, 32143.484907565704, 6559.700555765696, -187500.02235174447, 32648.388463066636, 16987.68341394465, -25217.483963666436, -187500.02235174447, 53117.11020673635, 26227.55929560176, -2801.567650028187, 65339.96049642092, 29082.6146701115, 0.21712890624999998, 0.96814453125, 0.23490234375000002, 192.0, 3.0, 112.0, 15.0, 32.0, 3.5, 48.0, 0.0, 0.0, 0.0, 1.6959298130131228E9, 0.0, 2023-09-28 14:36:53.013
50.0, 15062.415905286778, 19283.408735204786, 30022.17024829033, 13854.997021555546, 32126.49758177967, 6544.210796858168, -187500.02235174447, 32647.047358399315, 17013.61143751281, -25191.13125695363, -187500.02235174447, 53117.289020692, 26254.38138894813, -2774.9243706374614, 65249.54769009921, 29108.69915589084, 0.21712890624999998, 0.96814453125, 0.23490234375000002, 192.0, 0.0, 0.0, 0.0, 0.0, 0.0, 0.0, 0.0, 0.0, 0.0, 1.6959298130131452E9, 0.0, 2023-09-28 14:36:53.013
52.0, 15103.721929040186, 19286.96266257318, 29947.78364274307, 13849.185567997167, 32127.92809342481, 6544.322555580445, -187500.02235174447, 32630.84234366922, 16991.08087910186, -25216.61224563268, -187500.02235174447, 53116.2384887026, 26227.58164734622, -2802.774644228774, 65361.19465365347, 29092.740010349753, 0.21712890624999998, 0.96814453125, 0.23490234375000002, 192.0, 0.0, 0.0, 0.0, 0.0, 0.0, 0.0, 0.0, 0.0, 0.0, 1.6959298130131679E9, 0.0, 2023-09-28 14:36:53.013
54.0, 15051.195329570215, 19281.754706115094, 30001.204311991252, 13855.421704700197, 32124.843552689978, 6539.1145991223575, -187500.02235174447, 32636.11735536067, 17006.45887928711, -25208.386803673126, -187500.02235174447, 53093.0820814469, 26242.222039964443, -2776.1760683269586, 65253.70511456789, 29088.671992858886, 0.21712890624999998, 0.96814453125, 0.23490234375000002, 192.0, 0.0, 0.0, 0.0, 0.0, 0.0, 0.0, 0.0, 0.0, 0.0, 1.6959298130131934E9, 0.0, 2023-09-28 14:36:53.013
56.0, 15131.795720076052, 19277.66433687977, 29957.26078239212, 13855.086428533368, 32131.996110915676, 6540.701572978684, -187500.02235174447, 32630.060032613284, 16987.594006966832, -25233.264295251884, -187500.02235174447, 53115.81380555795, 26222.70896705496, -2804.2722111072794, 65370.69414504697, 29087.017963769194, 0.21712890624999998, 0.96814453125, 0.23490234375000002, 192.0, 0.0, 0.0, 0.0, 0.0, 0.0, 0.0, 0.0, 0.0, 0.0, 1.6959298130132155E9, 0.0, 2023-09-28 14:36:53.013
58.0, 15031.45873921618, 19279.363069458374, 30002.299547469564, 13876.588806699374, 32135.8853144509, 6553.375012084844, -187500.02235174447, 32662.291248117835, 17000.960350151105, -25205.548132127304, -187500.02235174447, 53094.49024134759, 26244.881897554627, -2780.5570102401985, 65259.82949254865, 29094.99753653974, 0.227564453125, 0.9690722656249999, 0.23645117187500003, 192.0, 3.5, 56.0, 15.0, 40.0, 3.5, 56.0, 0.0, 0.0, 0.0, 1.6959298130132382E9, 0.0, 2023-09-28 14:36:53.013
60.0, 15138.501243412644, 19283.29697648251, 29967.609640074927, 13871.827885130393, 32130.230323103708, 6557.15245689779, -187500.02235174447, 32640.766518207376, 16992.287873302444, -25223.787155602833, -187500.02235174447, 53114.20447995717, 26228.542772357796, -2794.4821470358547, 65372.34817413666, 29112.61071117052, 0.227564453125, 0.9690722656249999, 0.23645117187500003, 192.0, 0.0, 0.0, 0.0, 0.0, 0.0, 0.0, 0.0, 0.0, 0.0, 1.6959298130132606E9, 0.0, 2023-09-28 14:36:53.013
62.0, 15008.905829060774, 19284.68278463874, 29983.211157704733, 13887.27294054901, 32132.30903533805, 6567.903645980793, -187500.02235174447, 32660.927791706064, 17008.962274666104, -25196.070992478253, -187500.02235174447, 53090.53398257899, 26250.402778435087, -2767.704757178397, 65256.029695991245, 29104.42997269988, 0.227564453125, 0.9690722656249999, 0.23645117187500003, 192.0, 0.0, 0.0, 0.0, 0.0, 0.0, 0.0, 0.0, 0.0, 0.0, 1.6959298130132856E9, 0.0, 2023-09-28 14:36:53.013
64.0, 15155.890900598873, 19296.81978187797, 29966.246183663156, 13870.620890929806, 32120.84259043248, 6550.893968450305, -187500.02235174447, 32639.671282729065, 16991.058527357403, -25213.550056642303, -187500.02235174447, 53117.71370383665, 26219.602074575672, -2795.1303476250587, 65374.58334858219, 29114.08592630457, 0.227564453125, 0.9690722656249999, 0.23645117187500003, 192.0, 0.0, 0.0, 0.0, 0.0, 0.0, 0.0, 0.0, 0.0, 0.0, 1.6959298130133083E9, 0.0, 2023-09-28 14:36:53.013
66.0, 14999.383985922812, 19301.245427280122, 29973.666962822317, 13889.03872836098, 32143.328445354517, 6580.711195553684, -187500.02235174447, 32675.098797690727, 17014.23728635756, -25171.528777066324, -187500.02235174447, 53102.80509028496, 26252.86147032517, -2754.2043035273914, 65260.075361737654, 29105.23463550027, 0.227564453125, 0.9690722656249999, 0.23645117187500003, 192.0, 0.0, 0.0, 0.0, 0.0, 0.0, 0.0, 0.0, 0.0, 0.0, 1.6959298130133321E9, 0.0, 2023-09-28 14:36:53.013
68.0, 15161.724705901708, 19297.982072589646, 29986.005125761647, 13873.817190386915, 32123.345985811473, 6558.2476923761005, -187500.02235174447, 32645.348625820712, 16999.351024550324, -25209.057356006786, -187500.02235174447, 53122.07229400543, 26232.163754959554, -2772.823306658662, 65362.53575832078, 29128.86042938953, 0.2387822265625, 0.9685361328125, 0.2402255859375, 192.0, 3.5, 104.0, 15.0, 32.0, 3.5, 80.0, 0.0, 0.0, 0.0, 1.6959298130133548E9, 0.0, 2023-09-28 14:36:53.013
70.0, 15006.4918406596, 19293.399964976306, 29950.108224166423, 13882.22144630211, 32136.68997725129, 6564.640291290319, -187500.02235174447, 32656.144518392626, 17005.251885086524, -25185.431562117526, -187500.02235174447, 53093.283247146996, 26242.66907485355, -2772.845658403118, 65275.408658434, 29101.61365289851, 0.2387822265625, 0.9685361328125, 0.2402255859375, 192.0, 0.0, 0.0, 0.0, 0.0, 0.0, 0.0, 0.0, 0.0, 0.0, 1.6959298130133793E9, 0.0, 2023-09-28 14:36:53.013
72.0, 15171.447714739767, 19293.802296376503, 29968.190785430765, 13865.345879238354, 32118.518009009127, 6545.797770714495, -187500.02235174447, 32636.005596638395, 16997.473478016076, -25210.018481018364, -187500.02235174447, 53112.95278226767, 26225.70410081197, -2792.381083057056, 65354.466778572416, 29118.75744089573, 0.2387822265625, 0.9685361328125, 0.2402255859375, 192.0, 0.0, 0.0, 0.0, 0.0, 0.0, 0.0, 0.0, 0.0, 0.0, 1.695929813013399E9, 0.0, 2023-09-28 14:36:53.013
74.0, 15001.663863857255, 19312.957741374703, 29915.373613282874, 13899.544048254973, 32147.821145990034, 6579.727718797651, -187500.02235174447, 32669.287344132346, 17013.1644026237, -25186.280928406828, -187500.02235174447, 53096.74776753757, 26248.1452522451, -2768.285902534235, 65279.096696269124, 29097.545635407645, 0.2387822265625, 0.9685361328125, 0.2402255859375, 192.0, 0.0, 0.0, 0.0, 0.0, 0.0, 0.0, 0.0, 0.0, 0.0, 1.6959298130134196E9, 0.0, 2023-09-28 14:36:53.013
76.0, 15172.386488006889, 19298.831438878948, 29964.681561551282, 13868.408068228731, 32116.68516596379, 6543.853168946883, -187500.02235174447, 32636.206762338494, 17014.907838691215, -25196.27215817835, -187500.02235174447, 53126.31912545194, 26237.975208517935, -2777.092489849626, 65336.853603941636, 29133.978978869796, 0.2387822265625, 0.9685361328125, 0.2402255859375, 192.0, 0.0, 0.0, 0.0, 0.0, 0.0, 0.0, 0.0, 0.0, 0.0, 1.6959298130134344E9, 0.0, 2023-09-28 14:36:53.013
78.0, 15012.191535495704, 19304.955816859703, 29884.997592568114, 13893.46437376313, 32139.707462752758, 6573.938616983726, -187500.02235174447, 32663.297076618324, 17001.139164106746, -25204.587007115726, -187500.02235174447, 53092.098604690866, 26238.511650384862, -2777.5618764831875, 65296.59811217763, 29092.5164929052, 0.25139111328125, 0.96926806640625, 0.24011279296875, 192.0, 4.0, 32.0, 15.0, 40.0, 3.5, 64.0, 0.0, 0.0, 0.0, 1.6959298130134518E9, 0.0, 2023-09-28 14:36:53.013
80.0, 15158.461351211234, 19296.931540600246, 29942.553334540527, 13872.498437464052, 32119.523837509616, 6552.302128350989, -187500.02235174447, 32638.151364106106, 17007.576466509876, -25197.27798667884, -187500.02235174447, 53122.362866683354, 26238.846926551694, -2777.1818968274474, 65318.30165604373, 29134.33660678108, 0.25139111328125, 0.96926806640625, 0.24011279296875, 192.0, 0.0, 0.0, 0.0, 0.0, 0.0, 0.0, 0.0, 0.0, 0.0, 1.6959298130134716E9, 0.0, 2023-09-28 14:36:53.013
82.0, 15023.769739123552, 19292.952930087202, 29850.486499129118, 13884.79189691447, 32132.152573126863, 6564.72969826814, -187500.02235174447, 32646.712082232487, 16994.07601285887, -25210.018481018364, -187500.02235174447, 53095.92075299272, 26231.91788577055, -2776.220771815869, 65310.97028386239, 29095.243405728746, 0.25139111328125, 0.96926806640625, 0.24011279296875, 192.0, 0.0, 0.0, 0.0, 0.0, 0.0, 0.0, 0.0, 0.0, 0.0, 1.6959298130134914E9, 0.0, 2023-09-28 14:36:53.013
84.0, 15145.474987682699, 19291.611825419885, 29926.59418899944, 13873.034879330979, 32117.199256086264, 6552.6150527733635, -187500.02235174447, 32649.684864245042, 17002.79319319644, -25209.28087345134, -187500.02235174447, 53106.11314846434, 26233.258990437866, -2773.091527592126, 65307.63987393855, 29125.775888654698, 0.25139111328125, 0.96926806640625, 0.24011279296875, 192.0, 0.0, 0.0, 0.0, 0.0, 0.0, 0.0, 0.0, 0.0, 0.0, 1.6959298130135098E9, 0.0, 2023-09-28 14:36:53.013
86.0, 15050.144797580815, 19285.77802011705, 29839.71295830166, 13875.493571221063, 32129.045680647574, 6552.749163240095, -187500.02235174447, 32642.08527113024, 16996.624111726775, -25212.56657988627, -187500.02235174447, 53093.216191913634, 26230.934409014513, -2792.2022691014135, 65319.4192432665, 29090.86246381551, 0.25139111328125, 0.96926806640625, 0.24011279296875, 192.0, 0.0, 0.0, 0.0, 0.0, 0.0, 0.0, 0.0, 0.0, 0.0, 1.6959298130135293E9, 0.0, 2023-09-28 14:36:53.013
88.0, 15149.09597028446, 19280.279490981044, 29912.132610336856, 13865.36823098281, 32106.69393619227, 6541.170959612246, -187500.02235174447, 32647.337931077236, 16992.98077738056, -25216.07580376575, -187500.02235174447, 53094.199668669666, 26225.70410081197, -2795.1526993695143, 65298.475658711875, 29114.018871071206, 0.25569555664062504, 0.9706340332031249, 0.242056396484375, 192.0, 4.0, 16.0, 15.0, 48.0, 3.5, 80.0, 0.0, 0.0, 0.0, 1.695929813013549E9, 0.0, 2023-09-28 14:36:53.013
0.0, 8633.249537140076, 9477.564332194845, 15266.040297274627, 7258.751363605424, 16220.415082027326, 3900.9829045513757, -93750.01117587223, 17734.70106538547, 8494.199334883611, -12606.294465815363, -93750.01117587223, 26553.380674526772, 13109.901620137885, -1398.5933540574736, 32692.510806621412, 14551.365620060638, 0.226, 0.982, 0.242, 192.0, 3.5, 8.0, 15.0, 88.0, 3.5, 72.0, 0.0, 0.0, 0.0, 1.6959298136068597E9, 0.0, 2023-09-28 14:36:53.606
2.0, 17166.78794226503, 18970.03727794138, 30425.418070008527, 14545.68827696899, 32468.658085901512, 7828.989068149218, -187500.02235174447, 35496.98418342879, 17036.320809879402, -23903.67077632794, -187500.02235174447, 53645.17016949299, 26661.27254501254, -2894.372093006622, 63262.16468360004, 27102.719498004855, 0.226, 0.982, 0.242, 192.0, 0.0, 0.0, 0.0, 0.0, 0.0, 0.0, 0.0, 0.0, 0.0, 1.6959298136069045E9, 0.0, 2023-09-28 14:36:53.606
4.0, 17142.782168720027, 18973.70296403205, 30508.633614615635, 14542.804901934256, 32466.57937366717, 7816.494442998701, -187500.02235174447, 35486.0765321346, 17060.751266569052, -23867.215081121336, -187500.02235174447, 53646.399515438025, 26688.944004648212, -2859.3916129340664, 63168.73439177685, 27138.862268789086, 0.226, 0.982, 0.242, 192.0, 0.0, 0.0, 0.0, 0.0, 0.0, 0.0, 0.0, 0.0, 0.0, 1.6959298136069252E9, 0.0, 2023-09-28 14:36:53.606
6.0, 17178.343794148423, 18978.75445827895, 30436.281017813806, 14554.15958811755, 32475.721237149388, 7825.1445681029045, -187500.02235174447, 35499.88991020798, 17046.75907454003, -23886.124656930526, -187500.02235174447, 53652.79211435225, 26666.502853215083, -2886.817203380728, 63268.020840647325, 27120.198562168905, 0.226, 0.982, 0.242, 192.0, 0.0, 0.0, 0.0, 0.0, 0.0, 0.0, 0.0, 0.0, 0.0, 1.6959298136069608E9, 0.0, 2023-09-28 14:36:53.606
8.0, 17127.04654062349, 18966.818626739816, 30499.402344155595, 14537.798111176267, 32460.790271853242, 7810.25830629567, -187500.02235174447, 35481.20385184334, 17062.584109614385, -23871.216043378838, -187500.02235174447, 53641.34802119112, 26685.032449368533, -2862.4538019244437, 63172.33302263416, 27138.482289133346, 0.198, 0.978, 0.248, 192.0, 3.0, 24.0, 15.0, 72.0, 3.5, 96.0, 0.0, 0.0, 0.0, 1.6959298136069777E9, 0.0, 2023-09-28 14:36:53.606
10.0, 17202.282512460057, 18979.581472823797, 30444.439404539993, 14545.464759524437, 32480.996248840842, 7832.118312372961, -187500.02235174447, 35494.12316013851, 17038.04189420246, -23890.438543610402, -187500.02235174447, 53654.870826586586, 26661.0937310569, -2886.124299302614, 63281.27542510932, 27118.499829590302, 0.198, 0.978, 0.248, 192.0, 0.0, 0.0, 0.0, 0.0, 0.0, 0.0, 0.0, 0.0, 0.0, 1.6959298136069937E9, 0.0, 2023-09-28 14:36:53.606
12.0, 17099.19626703218, 18969.254966885444, 30484.98546898192, 14543.654268223558, 32470.781501624766, 7812.82875690803, -187500.02235174447, 35480.332133809585, 17056.75030431155, -23865.96338343184, -187500.02235174447, 53634.731904832355, 26688.362859292374, -2849.5791971181866, 63170.96956622238, 27142.974989768863, 0.198, 0.978, 0.248, 192.0, 0.0, 0.0, 0.0, 0.0, 0.0, 0.0, 0.0, 0.0, 0.0, 1.6959298136070163E9, 0.0, 2023-09-28 14:36:53.607
14.0, 17206.059957273003, 18986.130533949203, 30464.824195483234, 14552.55026251677, 32489.37815301158, 7836.07457114155, -187500.02235174447, 35504.6284800325, 17051.363533897824, -23877.452180081866, -187500.02235174447, 53660.391707467046, 26673.43189399623, -2863.2584647248345, 63272.17826511601, 27130.592123340622, 0.198, 0.978, 0.248, 192.0, 0.0, 0.0, 0.0, 0.0, 0.0, 0.0, 0.0, 0.0, 0.0, 1.6959298136070344E9, 0.0, 2023-09-28 14:36:53.607
16.0, 17074.788162086985, 18977.99449896747, 30489.053486472785, 14557.713515485946, 32482.203243041426, 7824.272850069148, -187500.02235174447, 35491.3291920816, 17064.595766615363, -23848.461967523333, -187500.02235174447, 53635.33540193265, 26703.24912109961, -2856.4188309215106, 63170.32136563318, 27149.09936774962, 0.198, 0.978, 0.248, 192.0, 0.0, 0.0, 0.0, 0.0, 0.0, 0.0, 0.0, 0.0, 0.0, 1.695929813607051E9, 0.0, 2023-09-28 14:36:53.607
18.0, 17216.721739378183, 18992.970167752526, 30504.543245380315, 14559.8369312092, 32490.18281581197, 7833.727637973743, -187500.02235174447, 35493.92199443841, 17063.90286253725, -23860.174281617914, -187500.02235174447, 53667.723079648385, 26688.921652903755, -2867.1476682600583, 63272.60294826066, 27147.870021804574, 0.186, 0.972, 0.254, 192.0, 2.5, 104.0, 15.0, 48.0, 3.5, 120.0, 0.0, 0.0, 0.0, 1.6959298136070666E9, 0.0, 2023-09-28 14:36:53.607
20.0, 17065.914519538226, 18969.74670526346, 30497.681259832534, 14548.102265370164, 32490.04870534524, 7821.858861667974, -187500.02235174447, 35481.941459410365, 17068.842598061874, -23856.754464716254, -187500.02235174447, 53626.79703555072, 26688.56402499247, -2864.934845558983, 63182.34660415013, 27143.89141129153, 0.186, 0.972, 0.254, 192.0, 0.0, 0.0, 0.0, 0.0, 0.0, 0.0, 0.0, 0.0, 0.0, 1.6959298136070824E9, 0.0, 2023-09-28 14:36:53.607
22.0, 17230.669227918297, 18985.169408937625, 30518.401326942603, 14547.677582225513, 32487.075923332683, 7824.094036113505, -187500.02235174447, 35479.840395431565, 17053.46459787662, -23869.24908986677, -187500.02235174447, 53651.294547473735, 26680.942080133213, -2872.4226799515104, 63277.34151808519, 27136.47063213237, 0.186, 0.972, 0.254, 192.0, 0.0, 0.0, 0.0, 0.0, 0.0, 0.0, 0.0, 0.0, 0.0, 1.6959298136070993E9, 0.0, 2023-09-28 14:36:53.607
24.0, 17051.27412692, 18985.348222893266, 30494.95434700899, 14565.938957445498, 32503.39269678506, 7833.146492617905, -187500.02235174447, 35501.74510499777, 17071.211882974134, -23852.127653614003, -187500.02235174447, 53626.86409078409, 26700.455153042694, -2848.9757000178934, 63192.53899962176, 27141.812699057187, 0.186, 0.972, 0.254, 192.0, 0.0, 0.0, 0.0, 0.0, 0.0, 0.0, 0.0, 0.0, 0.0, 1.695929813607116E9, 0.0, 2023-09-28 14:36:53.607
26.0, 17245.242565303157, 18992.769002052428, 30538.249676018917, 14552.438503794492, 32478.023466828286, 7820.830681423031, -187500.02235174447, 35481.226203587794, 17057.55496711194, -23861.53773802969, -187500.02235174447, 53658.76003012181, 26676.918766131257, -2877.0718427982147, 63278.861436708146, 27134.526030364756, 0.186, 0.972, 0.254, 192.0, 0.0, 0.0, 0.0, 0.0, 0.0, 0.0, 0.0, 0.0, 0.0, 1.6959298136071339E9, 0.0, 2023-09-28 14:36:53.607
28.0, 17058.56079561243, 18989.10331596176, 30487.98060273893, 14572.59977729318, 32507.19249334246, 7845.328193346048, -187500.02235174447, 35487.93172692439, 17061.71239158063, -23845.690351210877, -187500.02235174447, 53635.625974610564, 26695.537769262526, -2858.6316536225863, 63208.16286899601, 27140.27042868977, 0.178, 0.97, 0.258, 192.0, 2.5, 72.0, 15.0, 40.0, 4.0, 8.0, 0.0, 0.0, 0.0, 1.69592981360715E9, 0.0, 2023-09-28 14:36:53.607
30.0, 17255.613774730416, 18982.867179258727, 30552.174812814574, 14548.683410726002, 32471.988495825353, 7811.510003985168, -187500.02235174447, 35462.74131092326, 17054.179853699192, -23863.124711886016, -187500.02235174447, 53655.563730664704, 26675.33179227493, -2874.769613119318, 63269.65251799256, 27132.313207663683, 0.178, 0.97, 0.258, 192.0, 0.0, 0.0, 0.0, 0.0, 0.0, 0.0, 0.0, 0.0, 0.0, 1.695929813607166E9, 0.0, 2023-09-28 14:36:53.607
32.0, 17080.84548483437, 19004.414260913643, 30483.487902103414, 14580.154666919074, 32504.8232084302, 7854.581815550544, -187500.02235174447, 35504.874349221514, 17060.28187993549, -23852.19470884737, -187500.02235174447, 53630.127445474565, 26680.2491760551, -2862.1632292465247, 63231.52044195181, 27136.962370510384, 0.178, 0.97, 0.258, 192.0, 0.0, 0.0, 0.0, 0.0, 0.0, 0.0, 0.0, 0.0, 0.0, 1.695929813607182E9, 0.0, 2023-09-28 14:36:53.607
34.0, 17253.624469473896, 18995.987653253993, 30565.80937693231, 14556.59592826318, 32482.80674014172, 7827.826777437542, -187500.02235174447, 35476.152357596446, 17068.3285079394, -23847.612601234032, -187500.02235174447, 53662.626881912576, 26686.842940669412, -2863.727851358396, 63263.058753378245, 27150.865155561587, 0.178, 0.97, 0.258, 192.0, 0.0, 0.0, 0.0, 0.0, 0.0, 0.0, 0.0, 0.0, 0.0, 1.695929813607198E9, 0.0, 2023-09-28 14:36:53.607
36.0, 17108.20402004767, 18983.649490314663, 30472.580250809224, 14564.284928355806, 32491.121589079095, 7839.069704898561, -187500.02235174447, 35484.55661351164, 17066.18274047169, -23847.18791808938, -187500.02235174447, 53633.70372458741, 26706.445420556716, -2868.533476416287, 63246.67492469251, 27137.11883272157, 0.178, 0.97, 0.258, 192.0, 0.0, 0.0, 0.0, 0.0, 0.0, 0.0, 0.0, 0.0, 0.0, 1.6959298136072142E9, 0.0, 2023-09-28 14:36:53.607
38.0, 17270.678850493296, 18979.60382456825, 30558.343894284237, 14543.698971712467, 32463.785405610255, 7820.0930738560055, -187500.02235174447, 35460.550839966636, 17042.445187860154, -23871.216043378838, -187500.02235174447, 53634.240166454336, 26654.18704202021, -2886.3254650027116, 63256.30852655275, 27129.630998329045, 0.182, 0.976, 0.258, 192.0, 2.5, 88.0, 15.0, 64.0, 4.0, 8.0, 0.0, 0.0, 0.0, 1.6959298136072307E9, 0.0, 2023-09-28 14:36:53.607
40.0, 17132.18744184821, 18997.351109665768, 30462.097282659684, 14580.936977975009, 32496.553062981733, 7860.862655742486, -187500.02235174447, 35494.12316013851, 17056.772656056008, -23861.604793263054, -187500.02235174447, 53635.24599495483, 26675.063571341467, -2866.2312467373904, 63256.10736085265, 27137.56586761068, 0.182, 0.976, 0.258, 192.0, 0.0, 0.0, 0.0, 0.0, 0.0, 0.0, 0.0, 0.0, 0.0, 1.6959298136072483E9, 0.0, 2023-09-28 14:36:53.607
42.0, 17251.21048107272, 18968.696173274064, 30544.351702255215, 14533.841852407677, 32452.09544326013, 7814.169861575349, -187500.02235174447, 35446.60335142653, 17062.740571825572, -23863.43763630839, -187500.02235174447, 53643.98552703685, 26677.209338809174, -2867.8182205937173, 63220.16575576851, 27144.003170013806, 0.182, 0.976, 0.258, 192.0, 0.0, 0.0, 0.0, 0.0, 0.0, 0.0, 0.0, 0.0, 0.0, 1.6959298136072645E9, 0.0, 2023-09-28 14:36:53.607
44.0, 17152.97456419165, 18993.551313108364, 30440.103166115663, 14580.668757041545, 32487.23238554387, 7858.31455687458, -187500.02235174447, 35488.53522402468, 17043.071036704903, -23867.080970654606, -187500.02235174447, 53635.67067809948, 26668.26864102705, -2890.1029098156587, 63258.40959053154, 27123.50662034829, 0.182, 0.976, 0.258, 192.0, 0.0, 0.0, 0.0, 0.0, 0.0, 0.0, 0.0, 0.0, 0.0, 1.6959298136072805E9, 0.0, 2023-09-28 14:36:53.607
46.0, 17227.1153005499, 18981.213150169035, 30540.976588842463, 14559.300489342271, 32469.708617890912, 7835.269908341159, -187500.02235174447, 35470.85499416054, 17068.5296736395, -23842.67286570941, -187500.02235174447, 53651.40630619601, 26686.507664502584, -2859.4586681674327, 63201.83732531516, 27146.975952026365, 0.182, 0.976, 0.258, 192.0, 0.0, 0.0, 0.0, 0.0, 0.0, 0.0, 0.0, 0.0, 0.0, 1.6959298136072965E9, 0.0, 2023-09-28 14:36:53.607
48.0, 17197.253369957612, 18989.438592128587, 30445.467584784936, 14572.935053460009, 32484.550176209235, 7847.675126513855, -187500.02235174447, 35475.101825607046, 17043.249850660544, -23863.14706363047, -187500.02235174447, 53650.266367228796, 26665.85465262588, -2887.443052225477, 63275.933358184506, 27126.993492483318, 0.188, 0.972, 0.266, 192.0, 2.5, 112.0, 15.0, 48.0, 4.0, 40.0, 0.0, 0.0, 0.0, 1.6959298136073136E9, 0.0, 2023-09-28 14:36:53.607
50.0, 17204.31652120549, 18984.00711822595, 30542.18358304305, 14572.97975694892, 32490.160464067518, 7839.449684554302, -187500.02235174447, 35476.88996516347, 17069.04376376197, -23841.220002319813, -187500.02235174447, 53656.14487602054, 26693.660222728282, -2860.0398135232704, 63187.88983677505, 27152.18390848445, 0.188, 0.972, 0.266, 192.0, 0.0, 0.0, 0.0, 0.0, 0.0, 0.0, 0.0, 0.0, 0.0, 1.6959298136073294E9, 0.0, 2023-09-28 14:36:53.607
52.0, 17211.826707342472, 18994.71360382004, 30456.06231165675, 14575.21493139445, 32492.887376891063, 7853.575987050055, -187500.02235174447, 35479.99685764276, 17062.18177821419, -23861.805958963152, -187500.02235174447, 53671.656986672526, 26685.14420809081, -2885.6772644135076, 63274.90517793956, 27137.31999842167, 0.188, 0.972, 0.266, 192.0, 0.0, 0.0, 0.0, 0.0, 0.0, 0.0, 0.0, 0.0, 0.0, 1.6959298136073468E9, 0.0, 2023-09-28 14:36:53.607
54.0, 17173.694631301718, 18986.734031049495, 30520.41298394358, 14558.249957352873, 32477.688190661454, 7832.1853676063265, -187500.02235174447, 35453.420633485395, 17073.938795797683, -23848.976057645807, -187500.02235174447, 53646.7124398604, 26695.135437862333, -2859.212798978424, 63171.41660111149, 27139.152841467007, 0.188, 0.972, 0.266, 192.0, 0.0, 0.0, 0.0, 0.0, 0.0, 0.0, 0.0, 0.0, 0.0, 1.6959298136073627E9, 0.0, 2023-09-28 14:36:53.607
56.0, 17251.299888050544, 18987.47163861652, 30474.256631643373, 14561.915643443543, 32484.43841748696, 7839.8743676989525, -187500.02235174447, 35465.53527898017, 17057.979650256595, -23870.232566622803, -187500.02235174447, 53660.65992840051, 26674.147149818797, -2880.7822323777955, 63275.12869538411, 27127.485230861337, 0.188, 0.972, 0.266, 192.0, 0.0, 0.0, 0.0, 0.0, 0.0, 0.0, 0.0, 0.0, 0.0, 1.6959298136073792E9, 0.0, 2023-09-28 14:36:53.607
58.0, 17176.086267958435, 18987.248121171968, 30522.581103155746, 14567.972966190931, 32479.185757539963, 7830.531338516634, -187500.02235174447, 35458.7179969213, 17070.027240518004, -23853.491110025778, -187500.02235174447, 53636.58709962215, 26700.701022231704, -2870.165153761525, 63173.38355462356, 27139.778690311756, 0.178, 0.968, 0.256, 192.0, 2.5, 72.0, 15.0, 32.0, 4.0, 0.0, 0.0, 0.0, 0.0, 1.695929813607395E9, 0.0, 2023-09-28 14:36:53.607
60.0, 17292.695318781774, 18994.512438119942, 30482.37031488065, 14555.344230573683, 32469.261583001804, 7830.285469327626, -187500.02235174447, 35446.53629619316, 17052.436417631678, -23862.498863041266, -187500.02235174447, 53666.113754047605, 26658.210356022162, -2891.8016423942618, 63284.96346294445, 27125.98766398283, 0.178, 0.968, 0.256, 192.0, 0.0, 0.0, 0.0, 0.0, 0.0, 0.0, 0.0, 0.0, 0.0, 1.695929813607411E9, 0.0, 2023-09-28 14:36:53.607
62.0, 17185.295186674022, 18987.248121171968, 30500.87755928964, 14550.046867137775, 32465.685303888957, 7820.160129089371, -187500.02235174447, 35442.42357521338, 17055.364496155322, -23858.564956017133, -187500.02235174447, 53624.02541923826, 26675.175330063743, -2867.6170548936198, 63178.815028526195, 27122.18786742543, 0.178, 0.968, 0.256, 192.0, 0.0, 0.0, 0.0, 0.0, 0.0, 0.0, 0.0, 0.0, 0.0, 1.695929813607427E9, 0.0, 2023-09-28 14:36:53.607
64.0, 17324.032464508113, 19001.642644601186, 30486.170111438052, 14550.02451539332, 32468.76984462379, 7827.290335570614, -187500.02235174447, 35442.44592695784, 17055.967993255617, -23860.10722638455, -187500.02235174447, 53650.0652015287, 26663.731236902626, -2898.9094971310496, 63281.85657046516, 27115.214123155372, 0.178, 0.968, 0.256, 192.0, 0.0, 0.0, 0.0, 0.0, 0.0, 0.0, 0.0, 0.0, 0.0, 1.6959298136074443E9, 0.0, 2023-09-28 14:36:53.607
66.0, 17171.794733023016, 18993.350147408266, 30488.36058239467, 14547.87874792561, 32472.256716758817, 7828.229108837737, -187500.02235174447, 35449.240857272256, 17057.398504900757, -23841.91290639793, -187500.02235174447, 53614.41416912248, 26685.010097624076, -2875.216648008424, 63168.197949909925, 27121.249094158306, 0.178, 0.968, 0.256, 192.0, 0.0, 0.0, 0.0, 0.0, 0.0, 0.0, 0.0, 0.0, 0.0, 1.69592981360746E9, 0.0, 2023-09-28 14:36:53.607
68.0, 17339.119892015446, 19001.642644601186, 30495.468437131458, 14540.681486211, 32465.797062611233, 7823.043504124106, -187500.02235174447, 35440.8142496126, 17052.011734487027, -23866.946860187873, -187500.02235174447, 53644.589024137145, 26669.65444918328, -2892.3827877501, 63267.596157502674, 27110.83318124213, 0.17, 0.968, 0.25, 192.0, 2.5, 40.0, 15.0, 32.0, 3.5, 104.0, 0.0, 0.0, 0.0, 1.695929813607476E9, 0.0, 2023-09-28 14:36:53.607
70.0, 17161.06589568447, 19003.251970201967, 30478.011724711865, 14564.575501033725, 32478.336391250657, 7837.728600231243, -187500.02235174447, 35455.83462188657, 17064.171083470712, -23848.037284378683, -187500.02235174447, 53620.56089884769, 26688.80989418148, -2874.2331712523905, 63171.03662145575, 27118.522181334756, 0.17, 0.968, 0.25, 192.0, 0.0, 0.0, 0.0, 0.0, 0.0, 0.0, 0.0, 0.0, 0.0, 1.6959298136074917E9, 0.0, 2023-09-28 14:36:53.607
72.0, 17356.330735246032, 19001.2850166899, 30510.37705068315, 14535.54058498628, 32457.973952051874, 7806.503213227179, -187500.02235174447, 35419.49068540224, 17052.5258246095, -23862.454159552355, -187500.02235174447, 53653.529721919265, 26670.392056750305, -2894.863831384639, 63252.55343348425, 27112.442506842915, 0.17, 0.968, 0.25, 192.0, 0.0, 0.0, 0.0, 0.0, 0.0, 0.0, 0.0, 0.0, 0.0, 1.6959298136075077E9, 0.0, 2023-09-28 14:36:53.607
74.0, 17176.332137147445, 19002.46965914603, 30467.908736218065, 14555.8359689517, 32486.874757632588, 7833.705286229288, -187500.02235174447, 35454.49351721925, 17057.1749874562, -23852.70879896984, -187500.02235174447, 53627.44523613992, 26683.244309812108, -2881.922171345016, 63183.62065358408, 27104.552341050192, 0.17, 0.968, 0.25, 192.0, 0.0, 0.0, 0.0, 0.0, 0.0, 0.0, 0.0, 0.0, 0.0, 1.6959298136075237E9, 0.0, 2023-09-28 14:36:53.607
76.0, 17369.0488778411, 19001.70969983455, 30515.51795190787, 14535.473529752915, 32470.22270801338, 7816.136815087416, -187500.02235174447, 35430.33128146306, 17051.65410657574, -23860.464854295835, -187500.02235174447, 53656.256634742815, 26677.678725442736, -2887.3089417587453, 63254.16275908503, 27115.12471617755, 0.17, 0.968, 0.25, 192.0, 0.0, 0.0, 0.0, 0.0, 0.0, 0.0, 0.0, 0.0, 0.0, 1.6959298136075482E9, 0.0, 2023-09-28 14:36:53.607
78.0, 17180.93659650524, 18999.720394578027, 30449.580305764714, 14548.728114214911, 32487.634716944067, 7836.4098473083795, -187500.02235174447, 35457.041616087154, 17065.84746430486, -23851.188880346883, -187500.02235174447, 53624.56186110519, 26691.357993049383, -2877.1388980315805, 63189.14153446455, 27108.866227730065, 0.17200000000000001, 0.974, 0.242, 192.0, 2.5, 48.0, 15.0, 56.0, 3.5, 72.0, 0.0, 0.0, 0.0, 1.695929813607564E9, 0.0, 2023-09-28 14:36:53.607
80.0, 17383.01871812567, 18985.057650215345, 30508.924187293553, 14504.941046826965, 32448.02742576926, 7794.343864243492, -187500.02235174447, 35414.66270859989, 17044.23332741658, -23873.11594165754, -187500.02235174447, 53633.70372458741, 26664.893527614302, -2908.7442646913846, 63234.89555536456, 27099.836122970122, 0.17200000000000001, 0.974, 0.242, 192.0, 0.0, 0.0, 0.0, 0.0, 0.0, 0.0, 0.0, 0.0, 0.0, 1.6959298136075912E9, 0.0, 2023-09-28 14:36:53.607
82.0, 17212.676073631774, 19007.43174641511, 30431.229523566908, 14552.259689838851, 32485.399542498537, 7836.096922886005, -187500.02235174447, 35451.54308695115, 17054.09044672137, -23863.10236014156, -187500.02235174447, 53615.12942494505, 26675.46590274166, -2886.772499891818, 63202.239656715356, 27091.968308921852, 0.17200000000000001, 0.974, 0.242, 192.0, 0.0, 0.0, 0.0, 0.0, 0.0, 0.0, 0.0, 0.0, 0.0, 1.695929813607607E9, 0.0, 2023-09-28 14:36:53.607
84.0, 17370.144113319413, 19001.016795756437, 30521.776440355356, 14519.804956889744, 32462.734873620855, 7805.720902171243, -187500.02235174447, 35417.32256619007, 17065.489836393575, -23854.295772826168, -187500.02235174447, 53650.84751258463, 26680.785617922025, -2889.2758952708123, 63214.689578376965, 27103.07712591614, 0.17200000000000001, 0.974, 0.242, 192.0, 0.0, 0.0, 0.0, 0.0, 0.0, 0.0, 0.0, 0.0, 0.0, 1.695929813607624E9, 0.0, 2023-09-28 14:36:53.607
86.0, 17239.5205187226, 18998.915731777637, 30427.49678224287, 14529.527965727802, 32477.84465287264, 7819.958963389274, -187500.02235174447, 35430.286577974155, 17051.497644364554, -23873.764142246742, -187500.02235174447, 53623.980715749356, 26672.42606549574, -2899.9823808649044, 63224.390235470564, 27086.268614085748, 0.17200000000000001, 0.974, 0.242, 192.0, 0.0, 0.0, 0.0, 0.0, 0.0, 0.0, 0.0, 0.0, 0.0, 1.6959298136076403E9, 0.0, 2023-09-28 14:36:53.607
88.0, 17355.570775934553, 19002.156734723656, 30524.033966545343, 14526.354018015149, 32462.75722536531, 7806.92789637183, -187500.02235174447, 35419.40127842442, 17058.113760723325, -23867.796226477174, -187500.02235174447, 53640.78922757974, 26676.56113821997, -2896.6519709410636, 63206.84411607315, 27102.518332304757, 0.176, 0.976, 0.246, 192.0, 2.5, 64.0, 15.0, 64.0, 3.5, 88.0, 0.0, 0.0, 0.0, 1.695929813607656E9, 0.0, 2023-09-28 14:36:53.607
90.0, 17262.542815511562, 18992.344318907777, 30433.64351196808, 14537.351076287161, 32480.169234295994, 7819.847204666997, -187500.02235174447, 35426.352670950015, 17055.543310110967, -23864.130540386504, -187500.02235174447, 53635.13423623255, 26672.761341662568, -2891.5781249497086, 63237.30954376573, 27091.36481182156, 0.176, 0.976, 0.246, 192.0, 0.0, 0.0, 0.0, 0.0, 0.0, 0.0, 0.0, 0.0, 0.0, 1.695929813607674E9, 0.0, 2023-09-28 14:36:53.607
92.0, 17353.2461945112, 18980.65435655765, 30521.88819907763, 14521.414282490527, 32458.242172985338, 7803.239858536704, -187500.02235174447, 35423.44694417083, 17044.099216949846, -23871.506616056755, -187500.02235174447, 53625.83591053914, 26667.352219504384, -2904.4974332448764, 63204.966569538905, 27099.79141948121, 0.176, 0.976, 0.246, 192.0, 0.0, 0.0, 0.0, 0.0, 0.0, 0.0, 0.0, 0.0, 0.0, 1.6959298136076903E9, 0.0, 2023-09-28 14:36:53.607
94.0, 17303.133583442403, 18985.2811676599, 30427.474430498416, 14535.182957074996, 32469.686266146455, 7818.662562210866, -187500.02235174447, 35422.32935694807, 17035.337333123367, -23886.236415652802, -187500.02235174447, 53628.786340807244, 26656.42221646574, -2908.7442646913846, 63259.25895682084, 27082.44646578389, 0.176, 0.976, 0.246, 192.0, 0.0, 0.0, 0.0, 0.0, 0.0, 0.0, 0.0, 0.0, 0.0, 1.6959298136077068E9, 0.0, 2023-09-28 14:36:53.607
96.0, 17327.787557576605, 18998.871028288726, 30518.066050775775, 14538.289849554283, 32469.015713812798, 7814.21456506426, -187500.02235174447, 35418.84248481304, 17045.619135572808, -23869.62906952251, -187500.02235174447, 53636.408285666505, 26674.996516108098, -2885.789023135784, 63193.47777288887, 27104.88761721702, 0.176, 0.976, 0.246, 192.0, 0.0, 0.0, 0.0, 0.0, 0.0, 0.0, 0.0, 0.0, 0.0, 1.6959298136077228E9, 0.0, 2023-09-28 14:36:53.607
98.0, 17312.364853902443, 19010.67274936113, 30434.31406430174, 14547.856396181154, 32490.160464067518, 7835.873405441453, -187500.02235174447, 35436.03097629917, 17032.74453076655, -23873.406514335456, -187500.02235174447, 53653.261500985805, 26671.37553350634, -2893.2321540394014, 63264.51161676784, 27099.590253781113, 0.182, 0.976, 0.252, 192.0, 2.5, 88.0, 15.0, 64.0, 3.5, 112.0, 0.0, 0.0, 0.0, 1.6959298136077385E9, 0.0, 2023-09-28 14:36:53.607
100.0, 17316.924609771326, 18990.310310162346, 30507.538379137324, 14513.25589576434, 32459.359760208103, 7796.44492822229, -187500.02235174447, 35410.9076155314, 17033.61624880031, -23857.42501704991, -187500.02235174447, 53643.09145725864, 26683.110199345378, -2881.2069155224463, 63180.156133193515, 27108.307434118684, 0.182, 0.976, 0.252, 192.0, 0.0, 0.0, 0.0, 0.0, 0.0, 0.0, 0.0, 0.0, 0.0, 1.695929813607756E9, 0.0, 2023-09-28 14:36:53.607
102.0, 17353.983802078226, 19003.90017079117, 30426.803878164756, 14525.638762192579, 32474.42483597098, 7814.683951697822, -187500.02235174447, 35414.260377199695, 17003.821373441384, -23872.154816645958, -187500.02235174447, 53643.78436133675, 26654.52231818704, -2903.5810117222086, 63279.30847159726, 27076.523253503234, 0.182, 0.976, 0.252, 192.0, 0.0, 0.0, 0.0, 0.0, 0.0, 0.0, 0.0, 0.0, 0.0, 1.6959298136077747E9, 0.0, 2023-09-28 14:36:53.607
104.0, 17288.694356524273, 19010.560990638853, 30490.193425440008, 14539.921526899521, 32475.654181916023, 7814.438082508813, -187500.02235174447, 35427.134982005955, 17034.219745900602, -23853.111130370038, -187500.02235174447, 53636.09536124413, 26683.75839993458, -2882.346854489667, 63170.58958656664, 27104.328823605636, 0.182, 0.976, 0.252, 192.0, 0.0, 0.0, 0.0, 0.0, 0.0, 0.0, 0.0, 0.0, 0.0, 1.6959298136077976E9, 0.0, 2023-09-28 14:36:53.607
106.0, 17373.72039243226, 19020.976903555027, 30441.13134636061, 14537.351076287161, 32476.704713905423, 7826.731541959231, -187500.02235174447, 35428.56549365109, 17022.775652739485, -23863.035304908193, -187500.02235174447, 53667.81248662621, 26670.727332917137, -2893.5450784617756, 63280.29194835329, 27100.640785770513, 0.182, 0.976, 0.252, 192.0, 0.0, 0.0, 0.0, 0.0, 0.0, 0.0, 0.0, 0.0, 0.0, 1.6959298136078205E9, 0.0, 2023-09-28 14:36:53.607
108.0, 17283.598158788463, 18999.452173644564, 30469.518061818846, 14524.990561603376, 32459.71738811939, 7802.457547480768, -187500.02235174447, 35408.85125504151, 17015.801908469428, -23854.854566437552, -187500.02235174447, 53631.24503269733, 26673.141321318308, -2881.631598667097, 63180.1114297046, 27095.566939779157, 0.18, 0.98, 0.248, 192.0, 2.5, 80.0, 15.0, 80.0, 3.5, 96.0, 0.0, 0.0, 0.0, 1.695929813607842E9, 0.0, 2023-09-28 14:36:53.607
110.0, 17424.07887269007, 18996.211170698545, 30441.421919038527, 14505.477488693892, 32446.17223097947, 7798.233067778715, -187500.02235174447, 35395.66372581288, 16997.719347205086, -23883.420095851434, -187500.02235174447, 53648.14295150554, 26653.31532398645, -2909.0795408582144, 63286.21516063395, 27080.434808782913, 0.18, 0.98, 0.248, 192.0, 0.0, 0.0, 0.0, 0.0, 0.0, 0.0, 0.0, 0.0, 0.0, 1.6959298136078644E9, 0.0, 2023-09-28 14:36:53.607
112.0, 17287.822638490517, 18996.233522443, 30448.239201097396, 14520.25199177885, 32464.545364921734, 7795.997893333184, -187500.02235174447, 35399.240004925734, 16997.384071038257, -23874.077066669117, -187500.02235174447, 53613.78832027773, 26660.534937445515, -2892.695712172474, 63184.134743706556, 27073.952802890875, 0.18, 0.98, 0.248, 192.0, 0.0, 0.0, 0.0, 0.0, 0.0, 0.0, 0.0, 0.0, 0.0, 1.6959298136078858E9, 0.0, 2023-09-28 14:36:53.607
114.0, 17430.762044282204, 19013.13144125121, 30455.41411106755, 14529.527965727802, 32463.51718467679, 7807.218469049749, -187500.02235174447, 35406.19139745133, 17007.755280465517, -23879.01680219374, -187500.02235174447, 53650.62399514008, 26668.581565449425, -2901.14467157658, 63273.273500594325, 27089.330803076125, 0.18, 0.98, 0.248, 192.0, 0.0, 0.0, 0.0, 0.0, 0.0, 0.0, 0.0, 0.0, 0.0, 1.69592981360791E9, 0.0, 2023-09-28 14:36:53.607
116.0, 17287.24149313468, 18991.114972962736, 30437.756232947857, 14517.793299888766, 32448.072129258173, 7791.0358060641065, -187500.02235174447, 35388.689981542826, 17001.69795771813, -23862.34240083008, -187500.02235174447, 53622.013762237286, 26672.56017596247, -2898.4177587530326, 63180.87138901608, 27087.855587942075, 0.18, 0.98, 0.248, 192.0, 0.0, 0.0, 0.0, 0.0, 0.0, 0.0, 0.0, 0.0, 0.0, 1.6959298136079314E9, 0.0, 2023-09-28 14:36:53.607
118.0, 17467.64242263346, 19002.603769612764, 30455.50351804537, 14514.999331831854, 32445.94871353492, 7795.215582277248, -187500.02235174447, 35390.52282458816, 16981.044945841426, -23880.559072561155, -187500.02235174447, 53642.487960158345, 26646.922725072232, -2910.95708739246, 63278.012070418845, 27070.98002087832, 0.176, 0.982, 0.246, 192.0, 2.5, 64.0, 15.0, 88.0, 3.5, 88.0, 0.0, 0.0, 0.0, 1.695929813607952E9, 0.0, 2023-09-28 14:36:53.607
120.0, 17299.847877007473, 18993.931292764104, 30424.903979886054, 14521.146061557063, 32454.062396772195, 7806.302047527081, -187500.02235174447, 35391.5063013442, 16996.73587044905, -23859.14610137297, -187500.02235174447, 53623.15370120451, 26663.57477469144, -2884.514973701832, 63194.193028711445, 27089.46491354286, 0.176, 0.982, 0.246, 192.0, 0.0, 0.0, 0.0, 0.0, 0.0, 0.0, 0.0, 0.0, 0.0, 1.6959298140874412E9, 0.0, 2023-09-28 14:36:54.087
122.0, 17477.834818105082, 19003.05080450187, 30469.138082163106, 14520.363750501127, 32440.673701843465, 7790.767585130643, -187500.02235174447, 35390.47812109925, 16997.339367549346, -23876.15577890346, -187500.02235174447, 53649.99814629533, 26651.37072221884, -2888.0465493257702, 63269.31724182573, 27081.284175072215, 0.176, 0.982, 0.246, 192.0, 0.0, 0.0, 0.0, 0.0, 0.0, 0.0, 0.0, 0.0, 0.0, 1.695929814087512E9, 0.0, 2023-09-28 14:36:54.087
124.0, 17298.50677234015, 19006.872952803726, 30414.73393615889, 14528.20921280494, 32471.742626636344, 7804.670370181843, -187500.02235174447, 35403.46448462778, 16987.638710455743, -23868.846758466574, -187500.02235174447, 53632.04969549772, 26665.98876309261, -2883.2632760123347, 63204.58658988316, 27080.03247738272, 0.176, 0.982, 0.246, 192.0, 0.0, 0.0, 0.0, 0.0, 0.0, 0.0, 0.0, 0.0, 0.0, 1.6959298140875516E9, 0.0, 2023-09-28 14:36:54.087
126.0, 17475.487884937273, 19014.85252557427, 30485.723076548944, 14517.703892910946, 32457.370454951582, 7789.8064601190645, -187500.02235174447, 35387.371228619966, 16997.138201849248, -23861.940069429886, -187500.02235174447, 53670.42764072748, 26676.18115856423, -2864.5101624143317, 63254.65449746305, 27093.59998626709, 0.176, 0.982, 0.246, 192.0, 0.0, 0.0, 0.0, 0.0, 0.0, 0.0, 0.0, 0.0, 0.0, 1.6959298140875852E9, 0.0, 2023-09-28 14:36:54.087
128.0, 17292.695318781774, 19025.11197627926, 30412.029375079797, 14541.39674203357, 32484.393713998048, 7818.059065110572, -187500.02235174447, 35417.68019410136, 17001.228571084568, -23851.322990813613, -187500.02235174447, 53642.75618109181, 26672.314306773464, -2867.594703149164, 63215.65070338854, 27082.6923349729, 0.164, 0.978, 0.23800000000000002, 192.0, 2.5, 16.0, 15.0, 72.0, 3.5, 56.0, 0.0, 0.0, 0.0, 1.6959298140876188E9, 0.0, 2023-09-28 14:36:54.087
130.0, 17456.198329472343, 19023.390891956198, 30507.113695992673, 14518.843831878166, 32464.47830968837, 7799.775338146132, -187500.02235174447, 35396.446036868816, 17015.064300902402, -23844.796281432664, -187500.02235174447, 53677.33432976417, 26681.143245833307, -2859.190447233969, 63236.080197820695, 27101.758372993278, 0.164, 0.978, 0.23800000000000002, 192.0, 0.0, 0.0, 0.0, 0.0, 0.0, 0.0, 0.0, 0.0, 0.0, 1.695929814087646E9, 0.0, 2023-09-28 14:36:54.087
132.0, 17314.57767660352, 19015.61248488575, 30410.330642501194, 14531.919602384522, 32472.502585947823, 7811.062969096061, -187500.02235174447, 35401.29636541562, 17001.630902484765, -23860.35309557356, -187500.02235174447, 53644.49961715932, 26660.825510123435, -2866.477115926399, 63237.957744354935, 27078.93724190441, 0.164, 0.978, 0.23800000000000002, 192.0, 0.0, 0.0, 0.0, 0.0, 0.0, 0.0, 0.0, 0.0, 0.0, 1.6959298140876732E9, 0.0, 2023-09-28 14:36:54.087
134.0, 17453.136140481965, 18999.742746322485, 30490.707515562477, 14514.038206820274, 32442.595951866624, 7785.313759483548, -187500.02235174447, 35382.587955306524, 16995.640634970743, -23875.39581959198, -187500.02235174447, 53657.95536732142, 26656.42221646574, -2879.7093486439408, 63232.7721396413, 27081.530044261224, 0.164, 0.978, 0.23800000000000002, 192.0, 0.0, 0.0, 0.0, 0.0, 0.0, 0.0, 0.0, 0.0, 0.0, 1.6959298140876997E9, 0.0, 2023-09-28 14:36:54.087
136.0, 17318.265714438643, 19012.95262729557, 30393.946813815455, 14546.157663602551, 32474.648353415534, 7821.568288990055, -187500.02235174447, 35420.18358948035, 17003.75431820802, -23874.47939806931, -187500.02235174447, 53654.66966088649, 26662.904222357778, -2871.729775873396, 63246.65257294805, 27082.6923349729, 0.164, 0.978, 0.23800000000000002, 192.0, 0.0, 0.0, 0.0, 0.0, 0.0, 0.0, 0.0, 0.0, 0.0, 1.6959298140877264E9, 0.0, 2023-09-28 14:36:54.087
138.0, 17412.143041150935, 18999.653339344663, 30486.192463182506, 14527.44925349346, 32458.37628345207, 7797.249591022682, -187500.02235174447, 35389.53934783213, 17024.407330084723, -23868.869110211028, -187500.02235174447, 53672.059318072716, 26676.27056554205, -2869.539304916776, 63225.12784303759, 27100.618434026055, 0.178, 0.986, 0.252, 192.0, 2.5, 72.0, 15.0, 104.0, 3.5, 112.0, 0.0, 0.0, 0.0, 1.6959298140877547E9, 0.0, 2023-09-28 14:36:54.087
140.0, 17312.811888791548, 19017.691197120097, 30390.54934865825, 14544.50363451286, 32485.153673309527, 7836.1192746304605, -187500.02235174447, 35426.03974652765, 17018.193545126145, -23880.29085162769, -187500.02235174447, 53665.10792554712, 26667.441626482207, -2863.414926936022, 63261.51648301083, 27084.88280592952, 0.178, 0.986, 0.252, 192.0, 0.0, 0.0, 0.0, 0.0, 0.0, 0.0, 0.0, 0.0, 0.0, 1.695929814087782E9, 0.0, 2023-09-28 14:36:54.087
142.0, 17371.28405228663, 19007.409394670653, 30483.39849512559, 14522.643628435568, 32458.53274566326, 7802.859878880964, -187500.02235174447, 35400.491702615225, 17032.632772044275, -23860.48720604029, -187500.02235174447, 53672.66281517301, 26688.072286614453, -2853.3342901866786, 63203.491354404854, 27107.92745446294, 0.178, 0.986, 0.252, 192.0, 0.0, 0.0, 0.0, 0.0, 0.0, 0.0, 0.0, 0.0, 0.0, 1.6959298140878108E9, 0.0, 2023-09-28 14:36:54.087
144.0, 17347.971182819747, 19011.320949950332, 30386.503682911836, 14527.471605237915, 32479.878661618077, 7812.538184230111, -187500.02235174447, 35409.454752141806, 17004.13429786376, -23881.92252897293, -187500.02235174447, 53663.49859994634, 26659.6408676673, -2883.509145201343, 63279.219064619436, 27072.45523601237, 0.178, 0.986, 0.252, 192.0, 0.0, 0.0, 0.0, 0.0, 0.0, 0.0, 0.0, 0.0, 0.0, 1.6959298140878396E9, 0.0, 2023-09-28 14:36:54.087
146.0, 17351.3462962325, 19013.444365673586, 30472.35673336467, 14520.028474334298, 32472.390827225547, 7802.412843991858, -187500.02235174447, 35401.609289837994, 17028.56475455341, -23857.782644961197, -187500.02235174447, 53659.899969089034, 26688.42991452574, -2856.6870518549745, 63200.85384855913, 27102.004242182287, 0.178, 0.986, 0.252, 192.0, 0.0, 0.0, 0.0, 0.0, 0.0, 0.0, 0.0, 0.0, 0.0, 1.6959298140878692E9, 0.0, 2023-09-28 14:36:54.087
148.0, 17357.91770910236, 19039.52885145293, 30403.155732531042, 14544.391875790583, 32498.38590602707, 7836.141626374916, -187500.02235174447, 35423.424592426374, 17030.017617943005, -23861.269517096225, -187500.02235174447, 53687.05733860223, 26681.85850165588, -2868.9805113053935, 63292.42894559252, 27091.02953565473, 0.178, 0.984, 0.248, 192.0, 2.5, 72.0, 15.0, 96.0, 3.5, 96.0, 0.0, 0.0, 0.0, 1.6959298140879047E9, 0.0, 2023-09-28 14:36:54.087
150.0, 17322.534897629608, 19035.796110128893, 30469.83098624122, 14534.065369852231, 32466.646428900534, 7828.094998371005, -187500.02235174447, 35408.76184806369, 17046.37909488429, -23830.75938591473, -187500.02235174447, 53684.53159147878, 26696.923577418755, -2828.546205585743, 63207.93935155146, 27112.397803354004, 0.178, 0.984, 0.248, 192.0, 0.0, 0.0, 0.0, 0.0, 0.0, 0.0, 0.0, 0.0, 0.0, 1.6959298140879548E9, 0.0, 2023-09-28 14:36:54.087
152.0, 17394.038128142136, 19043.95449685508, 30405.703831398947, 14539.027457121309, 32463.29366723224, 7831.626573994944, -187500.02235174447, 35398.122417702965, 17024.340274851354, -23848.797243690165, -187500.02235174447, 53688.39844326955, 26661.965449090654, -2848.8639412956168, 63314.378358647635, 27085.776875707732, 0.178, 0.984, 0.248, 192.0, 0.0, 0.0, 0.0, 0.0, 0.0, 0.0, 0.0, 0.0, 0.0, 1.6959298140880015E9, 0.0, 2023-09-28 14:36:54.088
154.0, 17311.113156212945, 19030.85637460427, 30456.151718634574, 14537.149910587063, 32457.303399718214, 7829.681972227332, -187500.02235174447, 35401.0057927377, 17052.212900187125, -23822.221019532804, -187500.02235174447, 53679.65891118752, 26695.314251817974, -2811.7153420108966, 63202.84315381565, 27114.61062605508, 0.178, 0.984, 0.248, 192.0, 0.0, 0.0, 0.0, 0.0, 0.0, 0.0, 0.0, 0.0, 0.0, 1.6959298140880294E9, 0.0, 2023-09-28 14:36:54.088
156.0, 17405.30340734761, 19025.648418146186, 30414.890398370077, 14526.085797081685, 32475.00598132682, 7826.888004170419, -187500.02235174447, 35401.25166192671, 17029.950562709637, -23854.519290270724, -187500.02235174447, 53693.71815844991, 26663.37360899134, -2856.888217555072, 63312.74668130239, 27090.627204254535, 0.178, 0.984, 0.248, 192.0, 0.0, 0.0, 0.0, 0.0, 0.0, 0.0, 0.0, 0.0, 0.0, 1.6959298140880578E9, 0.0, 2023-09-28 14:36:54.088
158.0, 17274.746867984162, 19011.589170883795, 30435.901038158067, 14521.146061557063, 32470.557984180214, 7815.30980054257, -187500.02235174447, 35404.96205150629, 17033.057455188926, -23851.546508258165, -187500.02235174447, 53654.20027425293, 26681.85850165588, -2852.6190343641088, 63197.41167991301, 27095.343422334605, 0.17200000000000001, 0.982, 0.23800000000000002, 192.0, 2.5, 48.0, 15.0, 88.0, 3.5, 56.0, 0.0, 0.0, 0.0, 1.6959298140880837E9, 0.0, 2023-09-28 14:36:54.088
160.0, 17419.653227287916, 19010.136307494202, 30421.7300321734, 14500.023663046797, 32456.364626451093, 7798.277771267626, -187500.02235174447, 35381.49271982822, 17026.150766152237, -23865.53870028719, -187500.02235174447, 53676.887294875065, 26674.884757385822, -2865.4489356814547, 63296.18403866101, 27084.25695708477, 0.17200000000000001, 0.982, 0.23800000000000002, 192.0, 0.0, 0.0, 0.0, 0.0, 0.0, 0.0, 0.0, 0.0, 0.0, 1.6959298140881104E9, 0.0, 2023-09-28 14:36:54.088
162.0, 17280.714783753727, 19000.27918818941, 30413.504590213848, 14506.483317194381, 32474.76011213781, 7799.30595151257, -187500.02235174447, 35383.437321595826, 17017.50064104803, -23873.272403868727, -187500.02235174447, 53626.841739039635, 26662.65835316877, -2889.499412715365, 63212.78968009826, 27068.946012132885, 0.17200000000000001, 0.982, 0.23800000000000002, 192.0, 0.0, 0.0, 0.0, 0.0, 0.0, 0.0, 0.0, 0.0, 0.0, 1.6959298140881405E9, 0.0, 2023-09-28 14:36:54.088
164.0, 17432.773701283182, 19011.969150539535, 30428.569665976724, 14503.711700881924, 32476.078865060674, 7804.178631803827, -187500.02235174447, 35393.56266183408, 17027.4695190751, -23878.25684288226, -187500.02235174447, 53662.78334412377, 26673.320135273952, -2880.8045841222506, 63299.96148347396, 27075.65153546948, 0.17200000000000001, 0.982, 0.23800000000000002, 192.0, 0.0, 0.0, 0.0, 0.0, 0.0, 0.0, 0.0, 0.0, 0.0, 1.6959298140881724E9, 0.0, 2023-09-28 14:36:54.088
166.0, 17246.203690314735, 19007.834077815303, 30401.300537741252, 14514.038206820274, 32475.18479528246, 7814.97452437574, -187500.02235174447, 35406.169045706876, 17038.153652924735, -23859.39197056198, -187500.02235174447, 53635.223643210375, 26691.04506862701, -2867.304130471245, 63201.90438054853, 27087.58736700861, 0.17200000000000001, 0.982, 0.23800000000000002, 192.0, 0.0, 0.0, 0.0, 0.0, 0.0, 0.0, 0.0, 0.0, 0.0, 1.6959298140882027E9, 0.0, 2023-09-28 14:36:54.088
168.0, 17441.73675080976, 19005.420089414132, 30434.02349162382, 14494.592189144158, 32459.94090556394, 7794.120346798939, -187500.02235174447, 35381.78329250614, 17020.831050971872, -23875.284060869704, -187500.02235174447, 53658.916492332995, 26667.620440437848, -2889.2535435263567, 63286.4386780785, 27073.751637190777, 0.176, 0.986, 0.248, 192.0, 2.5, 64.0, 15.0, 104.0, 3.5, 96.0, 0.0, 0.0, 0.0, 1.695929814088236E9, 0.0, 2023-09-28 14:36:54.088
170.0, 17244.63906820286, 19007.543505137386, 30385.140226500065, 14518.30739001124, 32483.18671979746, 7818.237879066215, -187500.02235174447, 35401.899862515915, 17031.64929528824, -23866.410418320946, -187500.02235174447, 53633.77077982078, 26689.771019193056, -2871.7521276178513, 63212.856735331625, 27078.73607620431, 0.176, 0.986, 0.248, 192.0, 0.0, 0.0, 0.0, 0.0, 0.0, 0.0, 0.0, 0.0, 0.0, 1.69592981408827E9, 0.0, 2023-09-28 14:36:54.088
172.0, 17414.40056734092, 19007.096470248278, 30435.342244546682, 14496.715604867411, 32463.561888165703, 7799.8423933794975, -187500.02235174447, 35375.748321503204, 17030.66581853221, -23877.34042135959, -187500.02235174447, 53661.084611545164, 26683.579585978936, -2883.576200434709, 63265.360983057144, 27081.97707915033, 0.176, 0.986, 0.248, 192.0, 0.0, 0.0, 0.0, 0.0, 0.0, 0.0, 0.0, 0.0, 0.0, 1.6959298140883117E9, 0.0, 2023-09-28 14:36:54.088
174.0, 17233.574954697484, 19013.869048818236, 30366.074188479688, 14517.703892910946, 32486.80770239922, 7816.293277298603, -187500.02235174447, 35395.79783627961, 17025.346103351843, -23869.673773011422, -187500.02235174447, 53630.395666408025, 26685.099504601898, -2880.961046333438, 63220.18810751297, 27071.650573211977, 0.176, 0.986, 0.248, 192.0, 0.0, 0.0, 0.0, 0.0, 0.0, 0.0, 0.0, 0.0, 0.0, 1.6959298140883627E9, 0.0, 2023-09-28 14:36:54.088
176.0, 17391.914712418882, 19022.60858090026, 30443.88061092861, 14505.924523582999, 32470.110949291105, 7808.06783533905, -187500.02235174447, 35387.01360070868, 17038.555984324932, -23860.82248220712, -187500.02235174447, 53668.147762793036, 26693.32494656145, -2873.2943979852676, 63252.016991617325, 27090.917776932452, 0.176, 0.986, 0.248, 192.0, 0.0, 0.0, 0.0, 0.0, 0.0, 0.0, 0.0, 0.0, 0.0, 1.6959298140884156E9, 0.0, 2023-09-28 14:36:54.088
178.0, 17229.797509884538, 19015.43367093011, 30359.86040352111, 14516.273381265806, 32474.80481562672, 7816.628553465433, -187500.02235174447, 35397.74243804722, 17035.627905801288, -23856.799168205165, -187500.02235174447, 53644.164340992495, 26690.732144204634, -2878.1447265320694, 63230.84988961815, 27081.21711983885, 0.17200000000000001, 0.982, 0.248, 192.0, 2.5, 48.0, 15.0, 88.0, 3.5, 96.0, 0.0, 0.0, 0.0, 1.6959298140884595E9, 0.0, 2023-09-28 14:36:54.088
180.0, 17376.559063978086, 19014.651359874173, 30446.16048886305, 14503.197610759451, 32462.28783873175, 7798.948323601285, -187500.02235174447, 35377.40235059289, 17033.79506275595, -23872.154816645958, -187500.02235174447, 53658.648271399536, 26682.84197841191, -2895.3332180182006, 63245.84791014766, 27084.32401231814, 0.17200000000000001, 0.982, 0.248, 192.0, 0.0, 0.0, 0.0, 0.0, 0.0, 0.0, 0.0, 0.0, 0.0, 1.6959298140885048E9, 0.0, 2023-09-28 14:36:54.088
182.0, 17240.861623389916, 19019.166412254144, 30366.364761157605, 14528.58919246068, 32492.753266424334, 7828.519681515656, -187500.02235174447, 35403.509188116695, 17027.871850475294, -23855.949801915864, -187500.02235174447, 53658.491809188345, 26686.977051136146, -2882.257447511846, 63250.76529392783, 27086.469779785846, 0.17200000000000001, 0.982, 0.248, 192.0, 0.0, 0.0, 0.0, 0.0, 0.0, 0.0, 0.0, 0.0, 0.0, 1.6959298140885367E9, 0.0, 2023-09-28 14:36:54.088
184.0, 17358.72237190275, 19009.66692086064, 30452.731901732914, 14499.844849091156, 32463.42777769897, 7800.512945713156, -187500.02235174447, 35376.06124592558, 17024.787309740463, -23865.695162498378, -187500.02235174447, 53665.13027729157, 26686.7982371805, -2889.9464476044714, 63242.159872312535, 27090.26957634325, 0.17200000000000001, 0.982, 0.248, 192.0, 0.0, 0.0, 0.0, 0.0, 0.0, 0.0, 0.0, 0.0, 0.0, 1.6959298140885713E9, 0.0, 2023-09-28 14:36:54.088
186.0, 17257.60307998694, 19016.931237808614, 30370.119854226097, 14520.944895856965, 32489.691077433956, 7818.282582555125, -187500.02235174447, 35392.28861240013, 17026.284876618967, -23861.940069429886, -187500.02235174447, 53660.23524525586, 26681.500873744593, -2894.014465095337, 63276.961538429445, 27079.272518071237, 0.17200000000000001, 0.982, 0.248, 192.0, 0.0, 0.0, 0.0, 0.0, 0.0, 0.0, 0.0, 0.0, 0.0, 1.6959298140886064E9, 0.0, 2023-09-28 14:36:54.088
188.0, 17345.75836011867, 19005.487144647497, 30465.964134450453, 14493.474601921393, 32460.589106153144, 7787.25836125116, -187500.02235174447, 35360.929114929335, 17024.675551018187, -23855.6815809824, -187500.02235174447, 53660.54816967824, 26681.56792897796, -2902.1728518215245, 63234.76144489783, 27091.722439732843, 0.17, 0.984, 0.232, 192.0, 2.5, 40.0, 15.0, 96.0, 3.5, 32.0, 0.0, 0.0, 0.0, 1.6959298140886467E9, 0.0, 2023-09-28 14:36:54.088
190.0, 17296.1821909168, 19007.923484793126, 30375.819549062202, 14509.567857929214, 32483.589051197658, 7811.35354177398, -187500.02235174447, 35383.32556287355, 17004.290760074946, -23872.66890676843, -187500.02235174447, 53652.47918992987, 26667.307516015473, -2910.308886803256, 63292.65246303708, 27069.817730166644, 0.17, 0.984, 0.232, 192.0, 0.0, 0.0, 0.0, 0.0, 0.0, 0.0, 0.0, 0.0, 0.0, 1.6959298140886793E9, 0.0, 2023-09-28 14:36:54.088
192.0, 17340.796272849595, 18993.79718229737, 30457.98456167991, 14487.573741385191, 32463.986571310354, 7783.436212949302, -187500.02235174447, 35353.731853214726, 17001.049757128927, -23870.545491045177, -187500.02235174447, 53639.58223337916, 26672.113141073365, -2904.698598944974, 63224.09966279264, 27077.17145409244, 0.17, 0.984, 0.232, 192.0, 0.0, 0.0, 0.0, 0.0, 0.0, 0.0, 0.0, 0.0, 0.0, 1.6959298140887067E9, 0.0, 2023-09-28 14:36:54.088
194.0, 17328.681627354817, 19008.169353982135, 30383.888528810567, 14511.557163185736, 32489.556966967222, 7814.818062164553, -187500.02235174447, 35381.984458206236, 16996.333539048857, -23875.887557969996, -187500.02235174447, 53653.06033528571, 26665.139396803308, -2909.213651324946, 63299.46974509594, 27066.755541176266, 0.17, 0.984, 0.232, 192.0, 0.0, 0.0, 0.0, 0.0, 0.0, 0.0, 0.0, 0.0, 0.0, 1.6959298140887344E9, 0.0, 2023-09-28 14:36:54.088
196.0, 17305.301702654568, 18999.832153300304, 30450.183802865005, 14495.307444966727, 32473.91074584851, 7797.294294511592, -187500.02235174447, 35359.63271375093, 17005.430699042165, -23869.025572422215, -187500.02235174447, 53635.33540193265, 26674.191853307708, -2892.7851191502955, 63207.71583410691, 27079.294869815694, 0.17, 0.984, 0.232, 192.0, 0.0, 0.0, 0.0, 0.0, 0.0, 0.0, 0.0, 0.0, 0.0, 1.6959298140887616E9, 0.0, 2023-09-28 14:36:54.088
198.0, 17334.180156490824, 19021.222772744033, 30393.902110326544, 14521.794262146266, 32500.844597917152, 7828.8996611713965, -187500.02235174447, 35387.214766408775, 16998.345196049835, -23860.666019995933, -187500.02235174447, 53654.870826586586, 26671.263774784064, -2904.676247200519, 63294.306492126765, 27071.851738912075, 0.168, 0.998, 0.23600000000000002, 192.0, 2.5, 32.0, 15.5, 24.0, 3.5, 48.0, 0.0, 0.0, 0.0, 1.6959298140887868E9, 0.0, 2023-09-28 14:36:54.088
200.0, 17285.676871022806, 18996.72526082102, 30460.64441927009, 14498.72726186839, 32483.723161664388, 7797.897791611886, -187500.02235174447, 35365.958257431776, 17004.246056586035, -23845.936220399886, -187500.02235174447, 53634.97777402136, 26686.32885054694, -2897.4119302525437, 63200.473868903384, 27090.35898332107, 0.168, 0.998, 0.23600000000000002, 192.0, 0.0, 0.0, 0.0, 0.0, 0.0, 0.0, 0.0, 0.0, 0.0, 1.6959298140888152E9, 0.0, 2023-09-28 14:36:54.088
202.0, 17378.034279112137, 19013.600827884773, 30405.34620348766, 14506.170392772006, 32490.5180919788, 7810.705341184776, -187500.02235174447, 35363.83484170852, 16980.35204176331, -23882.90600572896, -187500.02235174447, 53643.94082354794, 26658.389169977807, -2927.7208957339403, 63315.18302144802, 27063.335724274606, 0.168, 0.998, 0.23600000000000002, 192.0, 0.0, 0.0, 0.0, 0.0, 0.0, 0.0, 0.0, 0.0, 0.0, 1.6959298140888417E9, 0.0, 2023-09-28 14:36:54.088
204.0, 17253.780931685083, 19022.742691366995, 30454.83296571171, 14521.995427846365, 32494.563757725213, 7820.540108745112, -187500.02235174447, 35378.76580700467, 17016.60657126982, -23837.08492959558, -187500.02235174447, 53636.6094513666, 26698.1529233638, -2881.698653900463, 63191.55552286572, 27098.4950183028, 0.168, 0.998, 0.23600000000000002, 192.0, 0.0, 0.0, 0.0, 0.0, 0.0, 0.0, 0.0, 0.0, 0.0, 1.6959298140888703E9, 0.0, 2023-09-28 14:36:54.088
206.0, 17395.938026420838, 19016.350092452776, 30428.659072954546, 14505.902171838543, 32484.974859353886, 7807.620800449944, -187500.02235174447, 35358.0457398946, 16991.41615526869, -23867.72917124381, -187500.02235174447, 53656.65896614301, 26664.75941714757, -2927.3409160782003, 63314.71363481446, 27072.231718567815, 0.168, 0.998, 0.23600000000000002, 192.0, 0.0, 0.0, 0.0, 0.0, 0.0, 0.0, 0.0, 0.0, 0.0, 1.695929814088897E9, 0.0, 2023-09-28 14:36:54.088
208.0, 17258.944184654258, 19003.85546730226, 30442.293637072282, 14503.91286658202, 32486.450074487937, 7796.579038689022, -187500.02235174447, 35354.00007414819, 17011.331559578368, -23839.76713893022, -187500.02235174447, 53627.3558291621, 26689.838074426425, -2888.6053429371527, 63201.949084037435, 27084.234605340316, 0.166, 0.994, 0.234, 192.0, 2.5, 24.0, 15.5, 8.0, 3.5, 40.0, 0.0, 0.0, 0.0, 1.6959298140889232E9, 0.0, 2023-09-28 14:36:54.088
210.0, 17431.1643756824, 19015.500726163475, 30435.29754105777, 14497.073232778697, 32478.62696392858, 7795.1485270438825, -187500.02235174447, 35345.14878334389, 16984.42005925418, -23874.859377725053, -187500.02235174447, 53645.88542531555, 26655.61755366535, -2927.3409160782003, 63319.85453603918, 27057.121939316028, 0.166, 0.994, 0.234, 192.0, 0.0, 0.0, 0.0, 0.0, 0.0, 0.0, 0.0, 0.0, 0.0, 1.695929814088973E9, 0.0, 2023-09-28 14:36:54.088
212.0, 17255.345553796953, 19009.756327838462, 30421.864142640134, 14515.245201020862, 32493.692039691454, 7803.888059125908, -187500.02235174447, 35354.223591592745, 17011.51037353401, -23844.48335701029, -187500.02235174447, 53627.89227102903, 26698.95758616419, -2879.7764038773066, 63213.169659754, 27074.958631391364, 0.166, 0.994, 0.234, 192.0, 0.0, 0.0, 0.0, 0.0, 0.0, 0.0, 0.0, 0.0, 0.0, 1.6959298140890045E9, 0.0, 2023-09-28 14:36:54.089
214.0, 17432.036093716157, 19021.178069255122, 30448.194497608485, 14512.048901563752, 32487.65706868852, 7799.440061979301, -187500.02235174447, 35358.60453350598, 17002.659082729708, -23860.71072348484, -187500.02235174447, 53658.514160932806, 26671.37553350634, -2916.410913039555, 63316.1441464596, 27076.858529670066, 0.166, 0.994, 0.234, 192.0, 0.0, 0.0, 0.0, 0.0, 0.0, 0.0, 0.0, 0.0, 0.0, 1.6959298140890317E9, 0.0, 2023-09-28 14:36:54.089
216.0, 17256.239623575166, 19010.09160400529, 30410.375345990105, 14510.886610852076, 32491.43451350147, 7804.737425415209, -187500.02235174447, 35366.29353359861, 17015.377225324777, -23852.3288193141, -187500.02235174447, 53623.824253538165, 26690.374516293352, -2905.995000123382, 63228.81588087272, 27081.999430894786, 0.166, 0.994, 0.234, 192.0, 0.0, 0.0, 0.0, 0.0, 0.0, 0.0, 0.0, 0.0, 0.0, 1.6959298140890596E9, 0.0, 2023-09-28 14:36:54.089
218.0, 17450.45393114733, 19014.42784242962, 30456.956381434964, 14500.82832584719, 32483.7678651533, 7786.967788573241, -187500.02235174447, 35344.81350717706, 16995.283007059457, -23869.71847650033, -187500.02235174447, 53650.13225676206, 26657.89743159979, -2919.67426773003, 63311.45028012399, 27068.275459799228, 0.164, 0.984, 0.23800000000000002, 192.0, 2.5, 16.0, 15.0, 96.0, 3.5, 56.0, 0.0, 0.0, 0.0, 1.6959298140890863E9, 0.0, 2023-09-28 14:36:54.089
220.0, 17263.459237034233, 19012.304426706367, 30394.282089982284, 14516.452195221449, 32496.6201182151, 7803.239858536704, -187500.02235174447, 35361.71142598527, 17007.88939093225, -23852.060598380638, -187500.02235174447, 53626.43940763944, 26679.37745802134, -2904.676247200519, 63243.903308380046, 27073.304602301672, 0.164, 0.984, 0.23800000000000002, 192.0, 0.0, 0.0, 0.0, 0.0, 0.0, 0.0, 0.0, 0.0, 0.0, 1.6959298140891144E9, 0.0, 2023-09-28 14:36:54.089
222.0, 17429.0633117036, 19020.015778543446, 30458.7892244803, 14507.06446255022, 32490.786312912267, 7793.0921665539945, -187500.02235174447, 35353.57539100354, 17009.11873687729, -23860.5319095292, -187500.02235174447, 53649.394649195034, 26673.90128062979, -2911.7170467039405, 63292.697166525984, 27072.83521566811, 0.164, 0.984, 0.23800000000000002, 192.0, 0.0, 0.0, 0.0, 0.0, 0.0, 0.0, 0.0, 0.0, 0.0, 1.695929814089142E9, 0.0, 2023-09-28 14:36:54.089
224.0, 17245.0190478586, 19022.541525666897, 30392.91863357051, 14533.975962874409, 32511.416973044514, 7810.794748162598, -187500.02235174447, 35369.1992603778, 17023.08857716186, -23838.38133077399, -187500.02235174447, 53635.156587977006, 26699.404621053294, -2884.537325446287, 63244.23858454688, 27084.145198362494, 0.164, 0.984, 0.23800000000000002, 192.0, 0.0, 0.0, 0.0, 0.0, 0.0, 0.0, 0.0, 0.0, 0.0, 1.6959298140891716E9, 0.0, 2023-09-28 14:36:54.089
226.0, 17422.20132615582, 19018.47350817603, 30471.17209090854, 14509.366692229116, 32481.51033896331, 7784.442041449791, -187500.02235174447, 35336.92334138433, 17014.79607996894, -23868.667944510933, -187500.02235174447, 53649.17113175048, 26677.030524853533, -2918.087293873703, 63284.91875945554, 27076.858529670066, 0.164, 0.984, 0.23800000000000002, 192.0, 0.0, 0.0, 0.0, 0.0, 0.0, 0.0, 0.0, 0.0, 0.0, 1.695929814089205E9, 0.0, 2023-09-28 14:36:54.089
228.0, 17284.827504733505, 19012.460888917554, 30372.086807738164, 14510.39487247406, 32491.85919664612, 7794.54502994359, -187500.02235174447, 35351.89901016939, 17012.40444331222, -23863.303525841657, -187500.02235174447, 53625.8582622836, 26678.081056842933, -2910.912383903549, 63279.59904427517, 27065.280326042215, 0.176, 0.98, 0.244, 192.0, 2.5, 64.0, 15.0, 80.0, 3.5, 80.0, 0.0, 0.0, 0.0, 1.6959298140892322E9, 0.0, 2023-09-28 14:36:54.089
230.0, 17403.29175034663, 19016.931237808614, 30459.92916344752, 14506.438613705472, 32485.600708198635, 7781.759832115154, -187500.02235174447, 35341.058414108564, 17014.729024735574, -23866.075142154117, -187500.02235174447, 53635.9612507774, 26681.545577233504, -2911.270011814834, 63272.26767209383, 27074.06456161315, 0.176, 0.98, 0.244, 192.0, 0.0, 0.0, 0.0, 0.0, 0.0, 0.0, 0.0, 0.0, 0.0, 1.6959298140892596E9, 0.0, 2023-09-28 14:36:54.089
232.0, 17294.550513571565, 19013.176144740122, 30367.214127446907, 14512.697102152957, 32492.149769324038, 7796.288466011103, -187500.02235174447, 35346.176963588834, 17008.98462641056, -23877.116903915037, -187500.02235174447, 53625.52298611677, 26678.32692603194, -2911.3817705371107, 63290.61845429164, 27060.87703238452, 0.176, 0.98, 0.244, 192.0, 0.0, 0.0, 0.0, 0.0, 0.0, 0.0, 0.0, 0.0, 0.0, 1.6959298140892868E9, 0.0, 2023-09-28 14:36:54.089
234.0, 17381.744668691717, 19027.77183386944, 30462.32080010424, 14509.433747462483, 32484.751341909334, 7791.952227586774, -187500.02235174447, 35344.38882403241, 17019.534649793466, -23848.596077990067, -187500.02235174447, 53636.676506599964, 26682.41729526726, -2884.1126423016362, 63255.302698052255, 27073.59517497959, 0.176, 0.98, 0.244, 192.0, 0.0, 0.0, 0.0, 0.0, 0.0, 0.0, 0.0, 0.0, 0.0, 1.695929814089314E9, 0.0, 2023-09-28 14:36:54.089
236.0, 17284.648690777864, 19027.503612935976, 30385.34139220016, 14542.35786704515, 32517.608406258634, 7821.143605845405, -187500.02235174447, 35364.59480102001, 17024.183812640167, -23846.673827966908, -187500.02235174447, 53650.80280909572, 26692.52028376106, -2892.5839534501974, 63297.68160553952, 27077.93141340392, 0.176, 0.98, 0.244, 192.0, 0.0, 0.0, 0.0, 0.0, 0.0, 0.0, 0.0, 0.0, 0.0, 1.695929814089342E9, 0.0, 2023-09-28 14:36:54.089
238.0, 17336.460034425265, 19012.99733078448, 30472.915526976056, 14509.545506184759, 32478.85048137313, 7778.675291380321, -187500.02235174447, 35327.04387033509, 17035.963181968116, -23857.00033390526, -187500.02235174447, 53650.735753862355, 26696.543597763015, -2893.254505783857, 63244.17152931351, 27083.809922195665, 0.182, 0.976, 0.248, 192.0, 2.5, 88.0, 15.0, 64.0, 3.5, 96.0, 0.0, 0.0, 0.0, 1.6959298140893688E9, 0.0, 2023-09-28 14:36:54.089
240.0, 17303.155935186856, 19021.111014021757, 30382.458017165427, 14524.834099392188, 32512.311042822726, 7805.922067871341, -187500.02235174447, 35363.41015856387, 17027.290705119456, -23873.138293401993, -187500.02235174447, 53652.25567248531, 26683.780751679034, -2909.9736106364267, 63315.04891098129, 27067.24727955428, 0.182, 0.976, 0.248, 192.0, 0.0, 0.0, 0.0, 0.0, 0.0, 0.0, 0.0, 0.0, 0.0, 1.6959298145668375E9, 0.0, 2023-09-28 14:36:54.566
242.0, 17303.915894498336, 19006.068290003335, 30465.293582116796, 14500.157773513529, 32488.23821404436, 7779.524657669624, -187500.02235174447, 35331.983605859714, 17033.12451042229, -23870.81371197864, -187500.02235174447, 53635.93889903294, 26694.934272162234, -2905.995000123382, 63233.196822785954, 27080.926547160932, 0.182, 0.976, 0.248, 192.0, 0.0, 0.0, 0.0, 0.0, 0.0, 0.0, 0.0, 0.0, 0.0, 1.6959298145669851E9, 0.0, 2023-09-28 14:36:54.566
244.0, 17314.890601025894, 19027.682426891617, 30395.176159760496, 14528.723302927412, 32508.555949754234, 7808.2913527836035, -187500.02235174447, 35366.584106276525, 17022.015693428006, -23886.30347088617, -187500.02235174447, 53647.584157894154, 26680.025658610542, -2916.2768025728233, 63326.22478320894, 27068.275459799228, 0.182, 0.976, 0.248, 192.0, 0.0, 0.0, 0.0, 0.0, 0.0, 0.0, 0.0, 0.0, 0.0, 1.695929814567007E9, 0.0, 2023-09-28 14:36:54.567
246.0, 17272.265824349623, 19008.795202826885, 30460.309143103263, 14509.813727118222, 32484.773693653788, 7784.978483316718, -187500.02235174447, 35337.012748362155, 17035.94083022366, -23856.933278671895, -187500.02235174447, 53644.83489332615, 26695.962452407177, -2885.185526035491, 63229.06175006172, 27094.918739189954, 0.182, 0.976, 0.248, 192.0, 0.0, 0.0, 0.0, 0.0, 0.0, 0.0, 0.0, 0.0, 0.0, 1.695929814567027E9, 0.0, 2023-09-28 14:36:54.567
248.0, 17353.00032532219, 19013.15379299567, 30390.236424235874, 14502.147078770053, 32483.47729247538, 7784.352634471969, -187500.02235174447, 35327.53560871311, 17012.046815400936, -23887.778686020218, -187500.02235174447, 53652.90387307452, 26661.853690368378, -2919.629564241119, 63340.12756826015, 27061.07819808462, 0.178, 0.976, 0.248, 192.0, 2.5, 72.0, 15.0, 64.0, 3.5, 96.0, 0.0, 0.0, 0.0, 1.6959298145670507E9, 0.0, 2023-09-28 14:36:54.567
250.0, 17283.03936517708, 18998.71456607754, 30426.178029320006, 14487.596093129647, 32471.161481280506, 7766.135962740895, -187500.02235174447, 35314.81746611804, 17012.3150363344, -23889.410363365456, -187500.02235174447, 53622.080817470654, 26669.475635227638, -2915.114511861147, 63241.28815427878, 27058.619506194533, 0.178, 0.976, 0.248, 192.0, 0.0, 0.0, 0.0, 0.0, 0.0, 0.0, 0.0, 0.0, 0.0, 1.695929814567072E9, 0.0, 2023-09-28 14:36:54.567
252.0, 17392.160581607888, 19021.356883210767, 30387.218938734408, 14495.933293811477, 32480.48215871837, 7779.658768136355, -187500.02235174447, 35316.337384741, 16999.440431528143, -23903.78253505022, -187500.02235174447, 53651.67452712948, 26652.153033274775, -2927.6091370116637, 63348.19654800851, 27043.979113576308, 0.178, 0.976, 0.248, 192.0, 0.0, 0.0, 0.0, 0.0, 0.0, 0.0, 0.0, 0.0, 0.0, 1.695929814567109E9, 0.0, 2023-09-28 14:36:54.567
254.0, 17259.145350354356, 19018.67467387613, 30425.283959541794, 14514.462889964927, 32489.445208244946, 7780.798707103576, -187500.02235174447, 35331.89419888189, 17027.13424290827, -23862.476511296813, -187500.02235174447, 53635.849492055124, 26683.33371678993, -2892.7851191502955, 63229.3746744841, 27068.990715621796, 0.178, 0.976, 0.248, 192.0, 0.0, 0.0, 0.0, 0.0, 0.0, 0.0, 0.0, 0.0, 0.0, 1.6959298145671291E9, 0.0, 2023-09-28 14:36:54.567
0.0, 17407.82915447106, 19021.13336576621, 30417.103221071153, 14503.510535181826, 32483.3655337531, 7774.54021865609, -187500.02235174447, 35313.16343702834, 17003.79902169693, -23889.365659876545, -187500.02235174447, 53656.390745209545, 26665.139396803308, -2920.635392741608, 63346.475463685456, 27057.054884082663, 0.178, 0.976, 0.248, 192.0, 0.0, 0.0, 0.0, 0.0, 0.0, 0.0, 0.0, 0.0, 0.0, 1.6959298145671508E9, 0.0, 2023-09-28 14:36:54.567
2.0, 17258.340687553966, 19011.633874372706, 30416.92440711551, 14505.566895671715, 32484.4160657425, 7778.20590474676, -187500.02235174447, 35329.07787908052, 17013.3655683238, -23867.036267165695, -187500.02235174447, 53627.266422184286, 26682.08201910043, -2905.369151278633, 63244.99854385836, 27064.721532430834, 0.176, 0.98, 0.248, 192.0, 2.5, 64.0, 15.0, 80.0, 3.5, 96.0, 0.0, 0.0, 0.0, 1.6959298145671728E9, 0.0, 2023-09-28 14:36:54.567
4.0, 17409.773756238672, 19032.733921138515, 30429.59784622167, 14505.164564271518, 32497.447132759946, 7779.457602436257, -187500.02235174447, 35328.67554768033, 17012.829126456872, -23880.983755705805, -187500.02235174447, 53659.899969089034, 26674.527129474536, -2917.8637764291498, 63344.95554506249, 27060.519404473234, 0.176, 0.98, 0.248, 192.0, 0.0, 0.0, 0.0, 0.0, 0.0, 0.0, 0.0, 0.0, 0.0, 1.6959298145671964E9, 0.0, 2023-09-28 14:36:54.567
6.0, 17220.65564640232, 19022.56387741135, 30409.369517489617, 14521.034302834787, 32502.543330495755, 7790.655826408366, -187500.02235174447, 35341.30428329758, 17031.537536565964, -23858.00616240575, -187500.02235174447, 53636.29652694423, 26696.588301251926, -2893.1874505504907, 63238.40477924405, 27068.74484643279, 0.176, 0.98, 0.248, 192.0, 0.0, 0.0, 0.0, 0.0, 0.0, 0.0, 0.0, 0.0, 0.0, 1.69592981456722E9, 0.0, 2023-09-28 14:36:54.567
8.0, 17418.3121226206, 19016.305388963865, 30435.36459629114, 14492.11114550962, 32470.937963835953, 7760.637433604888, -187500.02235174447, 35296.891367064876, 17011.59978051183, -23885.856435997062, -187500.02235174447, 53656.36839346509, 26669.855614883378, -2917.729665962418, 63327.96821927646, 27056.563145704647, 0.176, 0.98, 0.248, 192.0, 0.0, 0.0, 0.0, 0.0, 0.0, 0.0, 0.0, 0.0, 0.0, 1.6959298145672407E9, 0.0, 2023-09-28 14:36:54.567
10.0, 17228.769329639596, 19025.447252446087, 30383.91088055502, 14519.20145978945, 32502.945661895952, 7787.794803118087, -187500.02235174447, 35327.66971917984, 17018.819393970894, -23866.276307854216, -187500.02235174447, 53627.89227102903, 26682.84197841191, -2912.6111164821527, 63243.903308380046, 27056.071407326628, 0.176, 0.98, 0.248, 192.0, 0.0, 0.0, 0.0, 0.0, 0.0, 0.0, 0.0, 0.0, 0.0, 1.6959298145672603E9, 0.0, 2023-09-28 14:36:54.567
12.0, 17417.865087731494, 19023.949685567582, 30446.316951074237, 14499.934256068977, 32481.599745941134, 7771.232160476704, -187500.02235174447, 35308.93895732629, 17008.872867688282, -23878.636822538, -187500.02235174447, 53659.072954544186, 26673.253080040584, -2921.3953520530886, 63311.27146616834, 27056.60784919356, 0.17, 0.984, 0.248, 192.0, 2.5, 40.0, 15.0, 96.0, 3.5, 96.0, 0.0, 0.0, 0.0, 1.6959298145672805E9, 0.0, 2023-09-28 14:36:54.567
14.0, 17240.101664078436, 19020.060482032357, 30382.078037509687, 14510.216058518417, 32493.84850190264, 7784.799669361076, -187500.02235174447, 35320.62891967642, 17011.55507702292, -23867.2821363547, -187500.02235174447, 53635.7600850773, 26683.400772023295, -2913.3487240491777, 63260.60006148816, 27057.77013990523, 0.17, 0.984, 0.248, 192.0, 0.0, 0.0, 0.0, 0.0, 0.0, 0.0, 0.0, 0.0, 0.0, 1.6959298145673008E9, 0.0, 2023-09-28 14:36:54.567
16.0, 17416.658093530907, 19024.888458834703, 30458.722169246936, 14492.044090276253, 32476.52589994978, 7767.6335296194, -187500.02235174447, 35300.82527408902, 17000.133335606257, -23871.663078267942, -187500.02235174447, 53650.467532928895, 26669.810911394467, -2925.2622038438567, 63306.264675410355, 27054.283267770206, 0.17, 0.984, 0.248, 192.0, 0.0, 0.0, 0.0, 0.0, 0.0, 0.0, 0.0, 0.0, 0.0, 1.6959298145673203E9, 0.0, 2023-09-28 14:36:54.567
18.0, 17246.65072520384, 19030.43169145962, 30377.808854318722, 14521.123709812608, 32500.598728728146, 7790.20879151926, -187500.02235174447, 35322.75233539967, 17007.88939093225, -23856.374485060514, -187500.02235174447, 53637.123541489076, 26680.271527799552, -2916.5226717618316, 63278.2355878634, 27053.903288114463, 0.17, 0.984, 0.248, 192.0, 0.0, 0.0, 0.0, 0.0, 0.0, 0.0, 0.0, 0.0, 0.0, 1.6959298145673423E9, 0.0, 2023-09-28 14:36:54.567
20.0, 17417.082776675557, 19014.964284296548, 30460.77852973682, 14490.144191997551, 32458.935077063452, 7746.734648553687, -187500.02235174447, 35281.423959901804, 17002.70378621862, -23877.608642293053, -187500.02235174447, 53654.04381204174, 26669.22976603863, -2936.1922068825015, 63292.04896593678, 27060.139424817495, 0.17, 0.984, 0.248, 192.0, 0.0, 0.0, 0.0, 0.0, 0.0, 0.0, 0.0, 0.0, 0.0, 1.6959298145673723E9, 0.0, 2023-09-28 14:36:54.567
22.0, 17282.70408901025, 19036.75723514047, 30369.941040270456, 14515.044035320763, 32491.456865245924, 7781.826887348519, -187500.02235174447, 35309.09541953748, 16999.395728039235, -23871.596023034577, -187500.02235174447, 53642.26444271379, 26668.26864102705, -2928.4585033009653, 63299.760317773864, 27046.12488104402, 0.162, 0.97, 0.244, 192.0, 2.5, 8.0, 15.0, 40.0, 3.5, 80.0, 0.0, 0.0, 0.0, 1.6959298145673923E9, 0.0, 2023-09-28 14:36:54.567
24.0, 17409.01379692719, 19028.710607136563, 30458.275134357827, 14478.476581391882, 32478.358742995115, 7751.517921867124, -187500.02235174447, 35292.24220421818, 17007.2635420875, -23874.859377725053, -187500.02235174447, 53649.28289047276, 26668.358048004873, -2923.7422852208956, 63285.991643189394, 27055.132634059508, 0.162, 0.97, 0.244, 192.0, 0.0, 0.0, 0.0, 0.0, 0.0, 0.0, 0.0, 0.0, 0.0, 1.6959298145674129E9, 0.0, 2023-09-28 14:36:54.567
26.0, 17309.123850956425, 19050.660020191674, 30361.045045977244, 14529.68442793899, 32515.99908065785, 7793.047463065084, -187500.02235174447, 35333.92820762732, 16996.400594282222, -23877.049848681672, -187500.02235174447, 53643.18086423646, 26664.55825144747, -2931.2748231023343, 63329.53284138833, 27056.093759071086, 0.162, 0.97, 0.244, 192.0, 0.0, 0.0, 0.0, 0.0, 0.0, 0.0, 0.0, 0.0, 0.0, 1.6959298145674324E9, 0.0, 2023-09-28 14:36:54.567
28.0, 17381.141171591422, 19037.76306364096, 30453.000122666377, 14503.935218326476, 32477.8670046171, 7758.022279503618, -187500.02235174447, 35296.62314613142, 17012.762071223508, -23857.514424027733, -187500.02235174447, 53662.09044004565, 26681.456170255682, -2918.5790322517196, 63278.369698330134, 27077.707895959367, 0.162, 0.97, 0.244, 192.0, 0.0, 0.0, 0.0, 0.0, 0.0, 0.0, 0.0, 0.0, 0.0, 1.6959298145674524E9, 0.0, 2023-09-28 14:36:54.567
30.0, 17321.77493831813, 19061.031229618937, 30368.018790247297, 14532.031361106798, 32504.10795260763, 7792.086338053506, -187500.02235174447, 35326.48507672371, 17001.563847251397, -23873.272403868727, -187500.02235174447, 53662.93980633495, 26670.19089105021, -2924.882224188116, 63331.991533278415, 27054.775006148222, 0.162, 0.97, 0.244, 192.0, 0.0, 0.0, 0.0, 0.0, 0.0, 0.0, 0.0, 0.0, 0.0, 1.6959298145674727E9, 0.0, 2023-09-28 14:36:54.567
32.0, 17352.463883455264, 19051.218813803054, 30462.812538482256, 14513.501764953347, 32488.394676255546, 7774.227294233716, -187500.02235174447, 35309.341288726486, 17004.73779496405, -23861.71655198533, -187500.02235174447, 53665.353794736126, 26677.52226323155, -2909.4148170250437, 63266.14329411308, 27077.283212814717, 0.17400000000000002, 0.986, 0.25, 192.0, 2.5, 56.0, 15.0, 104.0, 3.5, 104.0, 0.0, 0.0, 0.0, 1.695929814567494E9, 0.0, 2023-09-28 14:36:54.567
34.0, 17364.44441848331, 19054.392761515708, 30382.54742414325, 14513.76998588681, 32493.557929224724, 7786.0513670505725, -187500.02235174447, 35317.3879167304, 16986.856399399807, -23869.24908986677, -187500.02235174447, 53680.463573987916, 26662.412483979762, -2916.209747339457, 63351.68342014354, 27064.095683586085, 0.17400000000000002, 0.986, 0.25, 192.0, 0.0, 0.0, 0.0, 0.0, 0.0, 0.0, 0.0, 0.0, 0.0, 1.695929814567514E9, 0.0, 2023-09-28 14:36:54.567
36.0, 17348.06058979757, 19038.05363631888, 30444.506459773358, 14491.999386787342, 32481.487987218858, 7768.326433697514, -187500.02235174447, 35300.89232932238, 16982.676623186664, -23859.97311591782, -187500.02235174447, 53662.492771445846, 26668.492158471607, -2909.370113536133, 63264.176340601014, 27069.50480574427, 0.17400000000000002, 0.986, 0.25, 192.0, 0.0, 0.0, 0.0, 0.0, 0.0, 0.0, 0.0, 0.0, 0.0, 1.6959298145675337E9, 0.0, 2023-09-28 14:36:54.567
38.0, 17407.225657370767, 19039.461796219566, 30369.985743759364, 14496.626197889591, 32486.24890878784, 7772.886189566397, -187500.02235174447, 35298.8806723214, 16958.268518241468, -23878.793284749187, -187500.02235174447, 53669.555922693726, 26642.899411070277, -2929.3525730791775, 63364.64743192762, 27045.811956621645, 0.17400000000000002, 0.986, 0.25, 192.0, 0.0, 0.0, 0.0, 0.0, 0.0, 0.0, 0.0, 0.0, 0.0, 1.695929814567554E9, 0.0, 2023-09-28 14:36:54.567
40.0, 17333.19667973479, 19034.94674383959, 30420.72420367291, 14500.358939213627, 32489.445208244946, 7772.953244799763, -187500.02235174447, 35306.86024509195, 16971.50075095901, -23867.550357288168, -187500.02235174447, 53647.04771602723, 26659.998495578588, -2922.7811602093175, 63259.348363798665, 27064.386256264002, 0.17400000000000002, 0.986, 0.25, 192.0, 0.0, 0.0, 0.0, 0.0, 0.0, 0.0, 0.0, 0.0, 0.0, 1.695929814567574E9, 0.0, 2023-09-28 14:36:54.567
42.0, 17423.07304418958, 19045.496767222496, 30373.9196507835, 14500.314235724716, 32495.256661803327, 7777.647111135378, -187500.02235174447, 35300.08766652199, 16962.135370032236, -23883.44244759589, -187500.02235174447, 53667.946597092945, 26649.202603006674, -2936.885110960616, 63359.707696403, 27052.293962513682, 0.178, 0.982, 0.25, 192.0, 2.5, 72.0, 15.0, 88.0, 3.5, 104.0, 0.0, 0.0, 0.0, 1.695929814567594E9, 0.0, 2023-09-28 14:36:54.567
44.0, 17307.96156024475, 19030.990485071005, 30411.87291286861, 14498.302578723738, 32492.976783868886, 7771.790954088087, -187500.02235174447, 35309.98948931569, 16978.295681273423, -23866.030438665206, -187500.02235174447, 53645.505445659815, 26670.347353261397, -2911.4041222815663, 63241.64578219006, 27069.54950923318, 0.178, 0.982, 0.25, 192.0, 0.0, 0.0, 0.0, 0.0, 0.0, 0.0, 0.0, 0.0, 0.0, 1.6959298145676153E9, 0.0, 2023-09-28 14:36:54.567
46.0, 17443.122558965988, 19033.67269440564, 30376.557156629224, 14487.909017552021, 32485.24308028735, 7766.873570307919, -187500.02235174447, 35295.19263448627, 16956.860358340786, -23903.87194202804, -187500.02235174447, 53665.93494009197, 26641.088919769398, -2945.8481604871945, 63361.2052632815, 27049.8352706236, 0.178, 0.982, 0.25, 192.0, 0.0, 0.0, 0.0, 0.0, 0.0, 0.0, 0.0, 0.0, 0.0, 1.6959298145676355E9, 0.0, 2023-09-28 14:36:54.567
48.0, 17292.203580403755, 19015.724243608027, 30384.626136377592, 14490.300654208739, 32489.892243134054, 7763.721974339721, -187500.02235174447, 35294.18680598579, 16971.590157936833, -23880.849645239075, -187500.02235174447, 53640.118675246085, 26664.51354795856, -2926.1115701331582, 63245.40087525856, 27063.17926206342, 0.178, 0.982, 0.25, 192.0, 0.0, 0.0, 0.0, 0.0, 0.0, 0.0, 0.0, 0.0, 0.0, 1.6959298145676556E9, 0.0, 2023-09-28 14:36:54.567
50.0, 17456.31008819462, 19018.786432598405, 30377.093598496154, 14472.396906900038, 32474.223670270883, 7748.9474712547635, -187500.02235174447, 35280.686352334786, 16956.770951362963, -23914.39961366649, -187500.02235174447, 53658.38005046607, 26639.390187190795, -2955.9958524699036, 63355.39380972312, 27045.990770577286, 0.178, 0.982, 0.25, 192.0, 0.0, 0.0, 0.0, 0.0, 0.0, 0.0, 0.0, 0.0, 0.0, 1.6959298145676754E9, 0.0, 2023-09-28 14:36:54.567
52.0, 17287.889693723882, 19007.498801648475, 30367.549403613735, 14482.790468071757, 32480.057475573718, 7755.2283114467045, -187500.02235174447, 35281.98275351319, 16974.585291693842, -23884.895310985485, -187500.02235174447, 53632.764951320285, 26656.824547865934, -2934.96286093746, 63240.72936066739, 27045.54373568818, 0.17200000000000001, 0.99, 0.252, 192.0, 2.5, 48.0, 15.0, 120.0, 3.5, 112.0, 0.0, 0.0, 0.0, 1.6959298145676951E9, 0.0, 2023-09-28 14:36:54.567
54.0, 17470.190521501365, 18987.493990360974, 30394.572662660205, 14476.219055201896, 32477.174100538985, 7757.575244614512, -187500.02235174447, 35284.62025935892, 16933.614544107266, -23937.511317433276, -187500.02235174447, 53651.20514049592, 26623.632207349805, -2961.717899050462, 63349.98468756494, 27041.252200752762, 0.17200000000000001, 0.99, 0.252, 192.0, 0.0, 0.0, 0.0, 0.0, 0.0, 0.0, 0.0, 0.0, 0.0, 1.695929814567715E9, 0.0, 2023-09-28 14:36:54.567
56.0, 17278.300795352556, 18961.253042370445, 30356.753511041825, 14487.238465218363, 32484.37136225359, 7770.248683720671, -187500.02235174447, 35300.17707349981, 16951.428884438144, -23916.612436367566, -187500.02235174447, 53621.76789304828, 26648.33088497292, -2930.760732979862, 63250.0276863608, 27061.994619607285, 0.17200000000000001, 0.99, 0.252, 192.0, 0.0, 0.0, 0.0, 0.0, 0.0, 0.0, 0.0, 0.0, 0.0, 1.6959298145677369E9, 0.0, 2023-09-28 14:36:54.567
58.0, 17453.225547459788, 18951.08299864328, 30403.334546486683, 14484.444497161448, 32488.95346986693, 7766.672404607822, -187500.02235174447, 35291.25872746214, 16935.4473871526, -23946.83199487114, -187500.02235174447, 53633.837835054146, 26629.242495208087, -2950.7431925229066, 63328.504661143386, 27060.340590517593, 0.17200000000000001, 0.99, 0.252, 192.0, 0.0, 0.0, 0.0, 0.0, 0.0, 0.0, 0.0, 0.0, 0.0, 1.695929814567757E9, 0.0, 2023-09-28 14:36:54.567
60.0, 17242.18037631278, 18936.733178702973, 30350.092691194142, 14517.122747555108, 32516.49081903587, 7791.192268275294, -187500.02235174447, 35318.72902139772, 16944.455140168087, -23932.21395399737, -187500.02235174447, 53613.11776794407, 26653.360027475363, -2921.5294625198203, 63264.80218944576, 27079.384276793513, 0.17200000000000001, 0.99, 0.252, 192.0, 0.0, 0.0, 0.0, 0.0, 0.0, 0.0, 0.0, 0.0, 0.0, 1.695929814567777E9, 0.0, 2023-09-28 14:36:54.567
62.0, 17406.68921550384, 18906.73713764395, 30412.521113457813, 14479.34829942564, 32483.7678651533, 7752.411991645336, -187500.02235174447, 35280.08285523449, 16930.194727205602, -23955.45976823089, -187500.02235174447, 53637.34705893363, 26639.88192556881, -2931.6548027580743, 63318.20050694949, 27076.478550014326, 0.17200000000000001, 0.986, 0.248, 192.0, 2.5, 48.0, 15.0, 104.0, 3.5, 96.0, 0.0, 0.0, 0.0, 1.6959298145677967E9, 0.0, 2023-09-28 14:36:54.567
64.0, 17226.55650693852, 18882.284329209844, 30335.944036953933, 14490.300654208739, 32505.046725874752, 7763.587863872989, -187500.02235174447, 35298.07600952101, 16914.660264809165, -23960.623021200066, -187500.02235174447, 53612.58132607715, 26641.9382860587, -2931.7442097358958, 63285.96929144493, 27062.888689385498, 0.17200000000000001, 0.986, 0.248, 192.0, 0.0, 0.0, 0.0, 0.0, 0.0, 0.0, 0.0, 0.0, 0.0, 1.6959298145678172E9, 0.0, 2023-09-28 14:36:54.567
66.0, 17382.52697974765, 18866.995736002416, 30411.649395424058, 14468.8653312761, 32484.773693653788, 7745.751171797654, -187500.02235174447, 35281.513366879626, 16899.34931985728, -23979.018506886783, -187500.02235174447, 53620.89617501452, 26628.437832407693, -2941.7801429963283, 63317.8428790382, 27055.378503248514, 0.17200000000000001, 0.986, 0.248, 192.0, 0.0, 0.0, 0.0, 0.0, 0.0, 0.0, 0.0, 0.0, 0.0, 1.6959298145678372E9, 0.0, 2023-09-28 14:36:54.567
68.0, 17215.671207388783, 18866.079314479746, 30322.66710074748, 14498.72726186839, 32509.606481743635, 7772.461506421746, -187500.02235174447, 35320.42775397632, 16898.96934020154, -23967.01562011428, -187500.02235174447, 53604.8029190067, 26636.0374255225, -2930.8948434465938, 63307.4940213554, 27057.233698038304, 0.17200000000000001, 0.986, 0.248, 192.0, 0.0, 0.0, 0.0, 0.0, 0.0, 0.0, 0.0, 0.0, 0.0, 1.6959298145678573E9, 0.0, 2023-09-28 14:36:54.567
70.0, 17336.929421058827, 18859.59730858771, 30406.59790117716, 14479.929444781477, 32479.81160638471, 7746.488779364679, -187500.02235174447, 35291.45989316224, 16891.079174408816, -23965.942736380428, -187500.02235174447, 53616.984619734845, 26627.253189951563, -2919.2272328409235, 63300.63203580762, 27063.5368899747, 0.17200000000000001, 0.986, 0.248, 192.0, 0.0, 0.0, 0.0, 0.0, 0.0, 0.0, 0.0, 0.0, 0.0, 1.6959298145678923E9, 0.0, 2023-09-28 14:36:54.567
72.0, 17216.162945766802, 18892.49907642592, 30311.67004247547, 14522.554221457747, 32510.075868377196, 7794.366215987947, -187500.02235174447, 35324.24990227818, 16889.358090085756, -23959.661896188485, -187500.02235174447, 53616.04584646772, 26624.682739339205, -2910.219479825435, 63324.01196050787, 27060.050017839676, 0.176, 0.982, 0.246, 192.0, 2.5, 64.0, 15.0, 88.0, 3.5, 88.0, 0.0, 0.0, 0.0, 1.6959298145679133E9, 0.0, 2023-09-28 14:36:54.567
74.0, 17303.535914842596, 18907.251227766425, 30419.718375172422, 14515.155794043041, 32478.336391250657, 7782.2292187487155, -187500.02235174447, 35303.32866946801, 16915.174354931638, -23914.466668899855, -187500.02235174447, 53646.08659101565, 26640.485422669106, -2860.464496667921, 63294.61941654914, 27101.35604159308, 0.176, 0.982, 0.246, 192.0, 0.0, 0.0, 0.0, 0.0, 0.0, 0.0, 0.0, 0.0, 0.0, 1.6959298145679345E9, 0.0, 2023-09-28 14:36:54.567
76.0, 17230.02102732909, 18934.967390891004, 30325.416365315483, 14540.860300166643, 32497.871815904597, 7805.5420882156, -187500.02235174447, 35327.96029185776, 16905.183125160114, -23884.87295924103, -187500.02235174447, 53660.07878304467, 26628.482535896605, -2860.3750896901, 63350.387018965135, 27088.45908504237, 0.176, 0.982, 0.246, 192.0, 0.0, 0.0, 0.0, 0.0, 0.0, 0.0, 0.0, 0.0, 0.0, 1.6959298145679567E9, 0.0, 2023-09-28 14:36:54.567
78.0, 17264.912100423826, 18935.302667057833, 30413.884569869588, 14524.25295403635, 32492.28387979077, 7782.16216351535, -187500.02235174447, 35315.95740508525, 16916.694273554596, -23850.317162313124, -187500.02235174447, 53669.17594303798, 26642.117100014344, -2834.8717492665946, 63288.517390312845, 27114.56592256617, 0.176, 0.982, 0.246, 192.0, 0.0, 0.0, 0.0, 0.0, 0.0, 0.0, 0.0, 0.0, 0.0, 1.6959298145679765E9, 0.0, 2023-09-28 14:36:54.567
80.0, 17231.473890718687, 18941.82937643878, 30322.9576734254, 14535.78645417529, 32520.469429548913, 7791.2146200197485, -187500.02235174447, 35323.69110866679, 16901.115107669248, -23856.307429827146, -187500.02235174447, 53670.89702736104, 26632.394091176284, -2852.6190343641088, 63356.19847252351, 27091.36481182156, 0.176, 0.982, 0.246, 192.0, 0.0, 0.0, 0.0, 0.0, 0.0, 0.0, 0.0, 0.0, 0.0, 1.6959298145679975E9, 0.0, 2023-09-28 14:36:54.567
82.0, 17237.397102999344, 18933.335713545766, 30409.570683189715, 14510.819555618711, 32492.641507702057, 7759.743363826677, -187500.02235174447, 35296.28786996459, 16907.932389728117, -23834.134499327483, -187500.02235174447, 53664.90675984702, 26645.69337912719, -2844.1030197266364, 63272.491189538385, 27107.882750974033, 0.17, 0.978, 0.248, 192.0, 2.5, 40.0, 15.0, 72.0, 3.5, 96.0, 0.0, 0.0, 0.0, 1.695929814568019E9, 0.0, 2023-09-28 14:36:54.568
84.0, 17262.632222489385, 18953.69815274455, 30331.33957759614, 14523.850622636155, 32522.659900505532, 7781.357500714958, -187500.02235174447, 35327.75912615766, 16884.932444683607, -23851.010066391238, -187500.02235174447, 53673.82510588469, 26624.012187005545, -2877.0718427982147, 63373.63283319865, 27083.429942539926, 0.17, 0.978, 0.248, 192.0, 0.0, 0.0, 0.0, 0.0, 0.0, 0.0, 0.0, 0.0, 0.0, 1.6959298145680397E9, 0.0, 2023-09-28 14:36:54.568
86.0, 17219.091024290447, 18949.160748620125, 30395.533787671782, 14502.594113659157, 32502.29746130675, 7754.982442257696, -187500.02235174447, 35299.551224655064, 16907.01596820545, -23816.633083418976, -187500.02235174447, 53661.4645912009, 26647.54857391698, -2848.1933889619577, 63271.95474767146, 27107.41336434047, 0.17, 0.978, 0.248, 192.0, 0.0, 0.0, 0.0, 0.0, 0.0, 0.0, 0.0, 0.0, 0.0, 1.6959298145680637E9, 0.0, 2023-09-28 14:36:54.568
88.0, 17288.113211168435, 18974.351164621254, 30331.652502018514, 14512.562991686225, 32516.803743458244, 7771.433326176802, -187500.02235174447, 35313.85634110646, 16880.752668470464, -23843.92456339891, -187500.02235174447, 53671.34406225015, 26617.999567747065, -2876.7142148869298, 63383.15467633661, 27075.517425002745, 0.17, 0.978, 0.248, 192.0, 0.0, 0.0, 0.0, 0.0, 0.0, 0.0, 0.0, 0.0, 0.0, 1.695929814568088E9, 0.0, 2023-09-28 14:36:54.568
90.0, 17192.917131533282, 18976.832208255793, 30389.789389346766, 14521.146061557063, 32510.47819977739, 7765.733631340699, -187500.02235174447, 35310.36946897143, 16909.76523277345, -23794.37074594149, -187500.02235174447, 53668.86301861561, 26652.957696075166, -2826.020458462293, 63266.679735980004, 27110.40849809748, 0.17, 0.978, 0.248, 192.0, 0.0, 0.0, 0.0, 0.0, 0.0, 0.0, 0.0, 0.0, 0.0, 1.6959298145681107E9, 0.0, 2023-09-28 14:36:54.568
92.0, 17322.065510996046, 18989.125667706212, 30349.064510949196, 14508.696139895457, 32492.976783868886, 7753.0601922345395, -187500.02235174447, 35297.65132637636, 16891.325043597823, -23814.777888629185, -187500.02235174447, 53694.656931717036, 26616.993739246576, -2857.3576041886336, 63386.82036242728, 27083.005259395275, 0.166, 0.988, 0.246, 192.0, 2.5, 24.0, 15.0, 112.0, 3.5, 88.0, 0.0, 0.0, 0.0, 1.6959298145681343E9, 0.0, 2023-09-28 14:36:54.568
94.0, 17190.078459987457, 18993.2830921749, 30371.99740076034, 14522.576573202203, 32504.75615319683, 7759.788067315587, -187500.02235174447, 35310.16830327133, 16905.205476904568, -23784.021888258685, -187500.02235174447, 53670.5170477053, 26634.383396432808, -2837.9115865125164, 63268.55728251425, 27090.135465876516, 0.166, 0.988, 0.246, 192.0, 0.0, 0.0, 0.0, 0.0, 0.0, 0.0, 0.0, 0.0, 0.0, 1.6959298145681572E9, 0.0, 2023-09-28 14:36:54.568
96.0, 17337.71173211476, 19010.605694127764, 30363.324923911685, 14515.647532421057, 32503.32564155169, 7762.112648738939, -187500.02235174447, 35303.50748342365, 16902.657378036663, -23794.102525008027, -187500.02235174447, 53711.44309180297, 26621.754660815557, -2855.480057654388, 63380.87479840217, 27085.642765241002, 0.166, 0.988, 0.246, 192.0, 0.0, 0.0, 0.0, 0.0, 0.0, 0.0, 0.0, 0.0, 0.0, 1.6959298145681996E9, 0.0, 2023-09-28 14:36:54.568
98.0, 17166.832645753937, 19010.404528427665, 30366.38711290206, 14524.58823020318, 32515.06030739073, 7766.337128440992, -187500.02235174447, 35320.718326654234, 16924.15975620267, -23751.79067275413, -187500.02235174447, 53693.740510194366, 26656.019885065543, -2825.059333450715, 63273.09468663868, 27108.039213185217, 0.166, 0.988, 0.246, 192.0, 0.0, 0.0, 0.0, 0.0, 0.0, 0.0, 0.0, 0.0, 0.0, 1.695929814568224E9, 0.0, 2023-09-28 14:36:54.568
100.0, 17331.229726222722, 19027.615371658252, 30376.311287440218, 14518.955590600443, 32507.25954857583, 7757.016451003129, -187500.02235174447, 35306.86024509195, 16913.16269793066, -23774.880024776463, -187500.02235174447, 53716.24871686086, 26635.344521444385, -2835.60935683362, 63377.16440882259, 27088.615547253557, 0.166, 0.988, 0.246, 192.0, 0.0, 0.0, 0.0, 0.0, 0.0, 0.0, 0.0, 0.0, 0.0, 1.6959298145682473E9, 0.0, 2023-09-28 14:36:54.568
102.0, 17144.01151466507, 19031.593982171296, 30354.697150551936, 14536.635820464591, 32521.408202816037, 7767.4994191526675, -187500.02235174447, 35319.80190513157, 16931.602887106288, -23750.8071959981, -187500.02235174447, 53695.86392591762, 26656.75749263257, -2815.381028101567, 63278.61556751914, 27105.6475765285, 0.162, 0.98, 0.246, 192.0, 2.5, 8.0, 15.0, 80.0, 3.5, 88.0, 0.0, 0.0, 0.0, 1.69592981456827E9, 0.0, 2023-09-28 14:36:54.568
104.0, 17326.4911563982, 19035.10320605078, 30385.7213718559, 14516.16162254353, 32504.063249118717, 7753.395468401369, -187500.02235174447, 35298.72421011022, 16920.181145689625, -23765.693457805333, -187500.02235174447, 53718.3274290952, 26633.22110572113, -2835.117618455603, 63363.21692028248, 27091.565977521655, 0.162, 0.98, 0.246, 192.0, 0.0, 0.0, 0.0, 0.0, 0.0, 0.0, 0.0, 0.0, 0.0, 1.6959298150477588E9, 0.0, 2023-09-28 14:36:55.047
106.0, 17130.62281973634, 19039.461796219566, 30336.8604584766, 14537.284021053794, 32523.10693539464, 7770.002814531662, -187500.02235174447, 35323.71346041125, 16942.711704100573, -23744.66046627289, -187500.02235174447, 53699.55196375275, 26659.596164178394, -2805.054522163215, 63280.51546579784, 27101.646614271, 0.162, 0.98, 0.246, 192.0, 0.0, 0.0, 0.0, 0.0, 0.0, 0.0, 0.0, 0.0, 0.0, 1.6959298150478785E9, 0.0, 2023-09-28 14:36:55.047
108.0, 17329.039255266103, 19036.421958973642, 30396.49491268336, 14508.137346284075, 32498.38590602707, 7737.2128054157265, -187500.02235174447, 35286.65426810435, 16928.339532415812, -23775.751742810222, -187500.02235174447, 53716.941620938975, 26634.18223073271, -2834.8717492665946, 63353.47155969997, 27089.107285631573, 0.162, 0.98, 0.246, 192.0, 0.0, 0.0, 0.0, 0.0, 0.0, 0.0, 0.0, 0.0, 0.0, 1.6959298150479076E9, 0.0, 2023-09-28 14:36:55.047
110.0, 17163.546939319007, 19025.447252446087, 30325.170496126473, 14517.703892910946, 32505.76198169732, 7744.432418874791, -187500.02235174447, 35291.12461699541, 16926.88666902622, -23761.69249554783, -187500.02235174447, 53693.58404798318, 26640.597181391382, -2822.89121423855, 63308.72336730044, 27079.98777389381, 0.162, 0.98, 0.246, 192.0, 0.0, 0.0, 0.0, 0.0, 0.0, 0.0, 0.0, 0.0, 0.0, 1.69592981504793E9, 0.0, 2023-09-28 14:36:55.047
112.0, 17331.542650645097, 19030.878726348725, 30395.8243603497, 14508.316160239716, 32490.294574534248, 7727.57920355549, -187500.02235174447, 35277.668866833315, 16924.83030853633, -23768.46507411779, -187500.02235174447, 53708.403254557044, 26628.706053341157, -2835.631708578075, 63343.86030958418, 27077.909061659466, 0.16, 0.986, 0.248, 192.0, 2.5, 0.0, 15.0, 104.0, 3.5, 96.0, 0.0, 0.0, 0.0, 1.6959298150479517E9, 0.0, 2023-09-28 14:36:55.047
114.0, 17171.146532433813, 19040.62408693124, 30323.248246103318, 14539.586250732691, 32523.956301683942, 7754.446000390769, -187500.02235174447, 35309.810675360044, 16939.046018009903, -23746.001570940207, -187500.02235174447, 53700.91542016452, 26650.23078325162, -2814.84458623464, 63320.07805348373, 27091.431867054926, 0.16, 0.986, 0.248, 192.0, 0.0, 0.0, 0.0, 0.0, 0.0, 0.0, 0.0, 0.0, 0.0, 1.6959298150479712E9, 0.0, 2023-09-28 14:36:55.047
116.0, 17317.595162104986, 19042.658095676674, 30409.660090167534, 14517.994465588865, 32503.95149039644, 7728.607383800434, -187500.02235174447, 35284.93318378129, 16940.610640121777, -23757.624478056965, -187500.02235174447, 53712.24775460336, 26643.86053608186, -2825.886347995561, 63339.27820197085, 27096.572768279646, 0.16, 0.986, 0.248, 192.0, 0.0, 0.0, 0.0, 0.0, 0.0, 0.0, 0.0, 0.0, 0.0, 1.6959298150479918E9, 0.0, 2023-09-28 14:36:55.047
118.0, 17193.475925144663, 19042.94866835459, 30317.168571611473, 14532.92543088501, 32521.944644682964, 7753.641337590378, -187500.02235174447, 35304.11098052395, 16939.470701154554, -23752.975315210264, -187500.02235174447, 53697.942638151966, 26643.771129104036, -2822.086551438159, 63350.6999433875, 27087.20738735287, 0.16, 0.986, 0.248, 192.0, 0.0, 0.0, 0.0, 0.0, 0.0, 0.0, 0.0, 0.0, 0.0, 1.6959298150480502E9, 0.0, 2023-09-28 14:36:55.048
120.0, 17302.954769486758, 19047.575479456842, 30411.78350589079, 14524.275305780806, 32503.258586318327, 7736.452846104246, -187500.02235174447, 35277.71357032222, 16945.30450645739, -23750.8071959981, -187500.02235174447, 53705.45282428895, 26644.41932969324, -2818.376161858578, 63330.650428611094, 27092.437695555414, 0.16, 0.986, 0.248, 192.0, 0.0, 0.0, 0.0, 0.0, 0.0, 0.0, 0.0, 0.0, 0.0, 1.695929815048074E9, 0.0, 2023-09-28 14:36:55.048
122.0, 17214.39715795483, 19058.416075517664, 30315.89452217752, 14552.259689838851, 32532.002929687853, 7770.695718609777, -187500.02235174447, 35330.70955642576, 16946.84677682481, -23739.07253015906, -187500.02235174447, 53713.320638337216, 26642.452376181172, -2813.771702500785, 63365.966184850484, 27089.375506565037, 0.168, 0.99, 0.246, 192.0, 2.5, 32.0, 15.0, 120.0, 3.5, 88.0, 0.0, 0.0, 0.0, 1.6959298150480945E9, 0.0, 2023-09-28 14:36:55.048
124.0, 17282.61468203243, 19043.686275921616, 30413.63870068058, 14532.813672162732, 32507.885397420574, 7747.204035187249, -187500.02235174447, 35308.24605324818, 16956.368619962766, -23738.491384803223, -187500.02235174447, 53711.7783679698, 26650.253134996074, -2810.217775132391, 63324.41429190806, 27104.84291372811, 0.168, 0.99, 0.246, 192.0, 0.0, 0.0, 0.0, 0.0, 0.0, 0.0, 0.0, 0.0, 0.0, 1.695929815048113E9, 0.0, 2023-09-28 14:36:55.048
126.0, 17216.006483555615, 19063.042886619914, 30323.42706005896, 14559.41224806455, 32546.509211839344, 7780.374023958925, -187500.02235174447, 35339.046757107586, 16950.91479431567, -23738.580791781045, -187500.02235174447, 53718.86387096213, 26645.827489593925, -2811.827100733173, 63382.0594408583, 27093.59998626709, 0.168, 0.99, 0.246, 192.0, 0.0, 0.0, 0.0, 0.0, 0.0, 0.0, 0.0, 0.0, 0.0, 1.695929815048132E9, 0.0, 2023-09-28 14:36:55.048
128.0, 17240.79456815655, 19054.01278185997, 30414.868046625623, 14536.613468720136, 32518.077792892196, 7752.099067222962, -187500.02235174447, 35317.90200685287, 16971.232530025547, -23726.063814886074, -187500.02235174447, 53715.10877789364, 26662.099559557388, -2799.93597268295, 63304.76710853185, 27110.520256819756, 0.168, 0.99, 0.246, 192.0, 0.0, 0.0, 0.0, 0.0, 0.0, 0.0, 0.0, 0.0, 0.0, 1.6959298150481496E9, 0.0, 2023-09-28 14:36:55.048
130.0, 17245.2202135587, 19065.121598854257, 30341.420214345482, 14547.923451414521, 32540.362482114135, 7765.376003429414, -187500.02235174447, 35313.16343702834, 16959.16258801968, -23728.12017537596, -187500.02235174447, 53725.748208254365, 26651.571887918937, -2808.675504764975, 63393.92821716407, 27093.085896144617, 0.168, 0.99, 0.246, 192.0, 0.0, 0.0, 0.0, 0.0, 0.0, 0.0, 0.0, 0.0, 0.0, 1.6959298150481696E9, 0.0, 2023-09-28 14:36:55.048
132.0, 17204.897666561326, 19058.01374411747, 30415.426840237003, 14544.146006601573, 32523.62102551711, 7758.335203925992, -187500.02235174447, 35313.23049226171, 16970.83019862535, -23720.78880319462, -187500.02235174447, 53707.82210920121, 26663.664181669257, -2793.319856324179, 63301.12377418564, 27110.45320158639, 0.176, 0.986, 0.246, 192.0, 2.5, 64.0, 15.0, 104.0, 3.5, 88.0, 0.0, 0.0, 0.0, 1.6959298150481925E9, 0.0, 2023-09-28 14:36:55.048
134.0, 17266.18614985778, 19059.220738318058, 30350.62913306107, 14541.173224589018, 32528.02431917481, 7762.962015028241, -187500.02235174447, 35307.41903870333, 16958.380276963744, -23739.02782667015, -187500.02235174447, 53724.78708324279, 26645.51456517155, -2813.4364263339553, 63399.85142944472, 27095.27636710124, 0.176, 0.986, 0.246, 192.0, 0.0, 0.0, 0.0, 0.0, 0.0, 0.0, 0.0, 0.0, 0.0, 1.6959298150482197E9, 0.0, 2023-09-28 14:36:55.048
136.0, 17174.34283189092, 19063.1993488311, 30404.765058131823, 14545.844739180176, 32530.415955831526, 7762.000890016662, -187500.02235174447, 35305.65325089136, 16969.198521280112, -23721.437003783823, -187500.02235174447, 53700.53544050878, 26660.601992678883, -2798.2372401043463, 63293.23360839291, 27104.440582327916, 0.176, 0.986, 0.246, 192.0, 0.0, 0.0, 0.0, 0.0, 0.0, 0.0, 0.0, 0.0, 0.0, 1.69592981504824E9, 0.0, 2023-09-28 14:36:55.048
138.0, 17275.26095810663, 19065.121598854257, 30357.647580820038, 14538.133387343096, 32523.19634237246, 7758.15638997035, -187500.02235174447, 35298.768913599124, 16957.709724630087, -23737.731425491744, -187500.02235174447, 53722.64131577508, 26643.547611659484, -2814.6881240234525, 63400.38787131165, 27092.616509511055, 0.176, 0.986, 0.246, 192.0, 0.0, 0.0, 0.0, 0.0, 0.0, 0.0, 0.0, 0.0, 0.0, 1.6959298150482602E9, 0.0, 2023-09-28 14:36:55.048
140.0, 17157.802540993995, 19054.325706282343, 30387.375400945595, 14541.553204244758, 32521.18468537148, 7749.930948010797, -187500.02235174447, 35298.299526965566, 16970.62903292525, -23722.3981287954, -187500.02235174447, 53695.23807707287, 26663.70888515817, -2800.6959319944303, 63284.9858146889, 27103.904140460985, 0.176, 0.986, 0.246, 192.0, 0.0, 0.0, 0.0, 0.0, 0.0, 0.0, 0.0, 0.0, 0.0, 1.6959298150482817E9, 0.0, 2023-09-28 14:36:55.048
