%OpenBCI Raw EXG Data
%Number of channels = 16
%Sample Rate = 125 Hz
%Board = OpenBCI_GUI$BoardCytonSerialDaisy
Sample Index, EXG Channel 0, EXG Channel 1, EXG Channel 2, EXG Channel 3, EXG Channel 4, EXG Channel 5, EXG Channel 6, EXG Channel 7, EXG Channel 8, EXG Channel 9, EXG Channel 10, EXG Channel 11, EXG Channel 12, EXG Channel 13, EXG Channel 14, EXG Channel 15, Accel Channel 0, Accel Channel 1, Accel Channel 2, Other, Other, Other, Other, Other, Other, Other, Analog Channel 0, Analog Channel 1, Analog Channel 2, Timestamp, Other, Timestamp (Formatted)
42.0, -13963.470037397152, -17994.584798167325, 32698.81399855781, -4837.632755951018, -20370.865806444384, -20496.974348661228, 130353.518468561, -5623.20716657724, -2368.4578977177025, -4196.204745317072, -17115.870668395837, -8314.245440273933, 384.4276528868262, -10431.425026825074, -5531.117979421375, 23383.43392413067, 0.0, 0.0, 0.0, 192.0, 0.0, 0.0, 0.0, 0.0, 0.0, 0.0, 0.0, 0.0, 0.0, 1.695415167695341E9, 0.0, 2023-09-22 15:39:27.695
44.0, -13952.294165169498, -17980.838475327313, 32737.326054254303, -4820.220747020334, -20363.534434263045, -20484.658537466352, 130397.79727432696, -5616.188718818274, -2363.786383126543, -4185.453556234069, -17109.031034592514, -8287.73627134994, 389.5909058560021, -10424.764206977392, -5517.863394959378, 23395.63797660327, 0.0, 0.0, 0.0, 192.0, 0.0, 0.0, 0.0, 0.0, 0.0, 0.0, 0.0, 0.0, 0.0, 1.69541516769535E9, 0.0, 2023-09-22 15:39:27.695
46.0, -13960.206682706677, -17990.047394042896, 32700.512731136412, -4836.67163093944, -20369.54705352152, -20494.515656771142, 130346.94705569114, -5623.609497977436, -2359.8301243579535, -4180.849096876275, -17105.946493857682, -8291.69253011853, 389.68031283382334, -10423.959544177002, -5521.66319151678, 23391.01116550102, 0.0, 0.0, 0.0, 192.0, 0.0, 0.0, 0.0, 0.0, 0.0, 0.0, 0.0, 0.0, 0.0, 1.695415167695354E9, 0.0, 2023-09-22 15:39:27.695
48.0, -13972.231921223633, -18002.65377791569, 32740.924685111608, -4827.976802346326, -20379.761800737597, -20503.836334209005, 130392.90224229125, -5627.185777090285, -2365.5745226829677, -4192.539059226401, -17114.90954338426, -8281.522486391365, 384.27119067563905, -10433.995477437435, -5521.819653727967, 23394.29687193595, 0.0, 0.0, 0.0, 192.0, 0.0, 0.0, 0.0, 0.0, 0.0, 0.0, 0.0, 0.0, 0.0, 1.695415167695357E9, 0.0, 2023-09-22 15:39:27.695
50.0, -13968.186255477221, -17999.27866450294, 32696.46706539, -4846.931081644426, -20377.280757103057, -20498.695432984285, 130323.8130001799, -5626.828149179, -2369.977816340663, -4197.881126151219, -17120.542182987, -8301.996684312426, 377.8785917614212, -10440.186910651555, -5531.8555869884, 23415.15104951275, -0.038, 0.996, 0.19, 192.0, 127.0, 104.0, 15.5, 16.0, 2.5, 120.0, 0.0, 0.0, 0.0, 1.69541516769536E9, 0.0, 2023-09-22 15:39:27.695
52.0, -13975.316461958464, -18006.56533319537, 32732.609836174233, -4833.184758804412, -20386.064992673993, -20506.160915632358, 130386.68845733267, -5627.118721856919, -2369.37431924037, -4194.215440060549, -17120.92216264274, -8295.648788887118, 370.77073702463355, -10438.73404726196, -5524.8594909738895, 23389.58065385588, -0.038, 0.996, 0.19, 192.0, 0.0, 0.0, 0.0, 0.0, 0.0, 0.0, 0.0, 0.0, 0.0, 1.695415167695364E9, 0.0, 2023-09-22 15:39:27.695
54.0, -13968.521531644052, -17999.904513347687, 32690.99088799845, -4851.557892746674, -20375.537321035543, -20502.91991268634, 130325.4670292696, -5624.436512522282, -2369.821354129476, -4201.5915157308, -17120.89981089828, -8307.11523379269, 372.58122832551345, -10446.11012293221, -5535.722438779168, 23412.848819833856, -0.038, 0.996, 0.19, 192.0, 0.0, 0.0, 0.0, 0.0, 0.0, 0.0, 0.0, 0.0, 0.0, 1.695415167695367E9, 0.0, 2023-09-22 15:39:27.695
56.0, -13973.505970657585, -18004.95600759459, 32742.422251990112, -4828.602651191074, -20375.246748357626, -20498.87424693993, 130393.0810562469, -5617.798044419056, -2367.9214558507747, -4201.166832586149, -17118.038787608002, -8304.83535585825, 379.8902487623988, -10441.773884507882, -5522.959592695188, 23395.168589969708, -0.038, 0.996, 0.19, 192.0, 0.0, 0.0, 0.0, 0.0, 0.0, 0.0, 0.0, 0.0, 0.0, 1.695415167695371E9, 0.0, 2023-09-22 15:39:27.695
58.0, -13966.264005454064, -17999.301016247395, 32703.776085826885, -4841.231386808323, -20368.541225021032, -20491.87815092542, 130335.65942474121, -5618.021561863609, -2370.268389018582, -4202.999675631485, -17118.53052598602, -8300.365006967188, 378.5267923506251, -10438.979916450968, -5521.842005472423, 23432.8312793769, -0.038, 0.996, 0.19, 192.0, 0.0, 0.0, 0.0, 0.0, 0.0, 0.0, 0.0, 0.0, 0.0, 1.695415167695374E9, 0.0, 2023-09-22 15:39:27.695
0.0, -6943.658822018961, -8970.447953992838, 16617.96320890942, -2340.1605892372836, -10184.125326171557, -10196.441137366432, 63989.57985515355, -3479.2725419130975, -1182.362578196833, -2096.4371676966152, -8554.549044912941, -4159.480829177002, 192.62733371583627, -5215.623106434716, -2758.674652418453, 11683.323882022367, -0.016, 1.0, 0.17, 192.0, 127.5, 64.0, 15.5, 32.0, 2.5, 40.0, 0.0, 0.0, 0.0, 1.695415167805154E9, 0.0, 2023-09-22 15:39:27.805
2.0, -13888.70345219415, -17944.896870243178, 33259.77572915265, -4663.043280010615, -20365.79196045303, -20391.496466576635, 127998.13634134966, -6952.085429678611, -2270.691367470189, -5933.650545317, -17319.3385981725, -8511.387826369742, 421.08451379352977, -10355.563206143763, -7051.2601198268085, 23290.74123987451, -0.016, 1.0, 0.17, 192.0, 0.0, 0.0, 0.0, 0.0, 0.0, 0.0, 0.0, 0.0, 0.0, 1.69541516786351E9, 0.0, 2023-09-22 15:39:27.863
4.0, -13888.770507427516, -17942.8852132422, 33257.29468551811, -4669.167657991369, -20366.12723661986, -20393.17284741078, 128000.84090242874, -6959.550912326684, -2273.597094249379, -5937.562100596679, -17324.94888603078, -8485.303340590399, 416.90473758038735, -10359.072430023245, -7048.644965725537, 23335.511784018494, -0.016, 1.0, 0.17, 192.0, 0.0, 0.0, 0.0, 0.0, 0.0, 0.0, 0.0, 0.0, 0.0, 1.695415167863522E9, 0.0, 2023-09-22 15:39:27.863
6.0, -13894.917237152726, -17947.78024527791, 33262.97202860976, -4664.384384677933, -20361.723942962166, -20389.954196209215, 127997.53284424936, -6950.833731989113, -2271.4513267816696, -5932.220033671861, -17321.462013895754, -8518.182756684155, 420.2351475042281, -10353.998584031891, -7051.662451227004, 23274.536225144413, -0.016, 1.0, 0.17, 192.0, 0.0, 0.0, 0.0, 0.0, 0.0, 0.0, 0.0, 0.0, 0.0, 1.695415167863527E9, 0.0, 2023-09-22 15:39:27.863
8.0, -13907.411862303241, -17959.13493146121, 33262.5026419762, -4671.3804806924445, -20369.904681432807, -20398.850190502428, 128034.65909178962, -6966.055269963178, -2283.767137976544, -5941.831283787642, -17337.085883270014, -8488.72315749206, 407.7181706092561, -10361.66523238006, -7058.412678052507, 23339.780967209455, -0.006, 1.0, 0.164, 192.0, 127.5, 104.0, 15.5, 32.0, 2.5, 16.0, 0.0, 0.0, 0.0, 1.695415167863547E9, 0.0, 2023-09-22 15:39:27.863
10.0, -13910.854030949358, -17958.710248316558, 33235.546438163095, -4673.7274138602515, -20370.530530277556, -20394.5139520781, 127992.57075698028, -6963.373060628541, -2285.242353110594, -5936.5115686072795, -17336.929421058827, -8516.327561894364, 408.4781299207366, -10355.80907533277, -7071.421393325495, 23294.384574220727, -0.006, 1.0, 0.164, 192.0, 0.0, 0.0, 0.0, 0.0, 0.0, 0.0, 0.0, 0.0, 0.0, 1.69541516786355E9, 0.0, 2023-09-22 15:39:27.863
12.0, -13926.746121257082, -17974.08824850181, 33231.76899335015, -4684.568009921076, -20381.50523680511, -20405.13103069437, 128006.40648679812, -6980.203924203387, -2296.954667205175, -5940.646641331511, -17351.122778787947, -8495.473384317564, 395.3576559254713, -10360.86056957967, -7076.919922461501, 23316.870429142768, -0.006, 1.0, 0.164, 192.0, 0.0, 0.0, 0.0, 0.0, 0.0, 0.0, 0.0, 0.0, 0.0, 1.695415167863553E9, 0.0, 2023-09-22 15:39:27.863
14.0, -13944.135778443311, -17987.387536452716, 33209.95369076177, -4693.285190258645, -20384.74623975113, -20408.70730980722, 127960.45130019801, -6981.053290492689, -2306.2976963874935, -5943.597071599612, -17359.638793425416, -8542.836730818359, 392.78720531311103, -10360.391182946109, -7096.567105837716, 23261.885137782712, -0.006, 1.0, 0.164, 192.0, 0.0, 0.0, 0.0, 0.0, 0.0, 0.0, 0.0, 0.0, 0.0, 1.695415167863557E9, 0.0, 2023-09-22 15:39:27.863
16.0, -13966.375764176342, -18009.69457741911, 33233.445374184295, -4695.7438821487285, -20387.94253920824, -20418.65383608983, 128017.02356541439, -6988.496421396306, -2329.7446763211105, -5960.472638663368, -17377.20726456729, -8524.977686998569, 385.0311499871195, -10374.919816842059, -7099.361073894629, 23296.37387947725, -0.006, 1.0, 0.164, 192.0, 0.0, 0.0, 0.0, 0.0, 0.0, 0.0, 0.0, 0.0, 0.0, 1.695415167923758E9, 0.0, 2023-09-22 15:39:27.923
18.0, -13976.948139303702, -18024.647894459715, 33189.412437607345, -4710.406626511411, -20389.84243748694, -20422.408929158322, 127950.05773902629, -6993.346749943108, -2336.830179313443, -5969.3239294676705, -17384.44922977081, -8561.545140927452, 381.9913127411977, -10377.020880820857, -7112.280382189797, 23262.823911049833, -0.006, 1.0, 0.164, 192.0, 0.0, 0.0, 15.5, 40.0, 2.0, 112.0, 0.0, 0.0, 0.0, 1.69541516792378E9, 0.0, 2023-09-22 15:39:27.923
20.0, -13982.737241117626, -18031.42047302967, 33220.369603677944, -4696.481489715754, -20397.79965851303, -20427.773347827595, 128010.74272522244, -6995.090186010621, -2344.0274410280517, -5978.644606905533, -17392.96524440828, -8549.855178577325, 373.4305946148151, -10382.497058212408, -7112.056864745244, 23282.158170003673, -0.006, 1.0, 0.164, 192.0, 0.0, 0.0, 0.0, 0.0, 0.0, 0.0, 0.0, 0.0, 0.0, 1.695415167923786E9, 0.0, 2023-09-22 15:39:27.923
22.0, -13983.899531829302, -18032.783929441444, 33182.25987938164, -4711.45715850081, -20390.580045053965, -20418.47502213419, 127954.48338442843, -6992.519735398261, -2346.6425951293227, -5976.521191182279, -17395.245122342723, -8568.36242298632, 370.74838528017824, -10379.121944799655, -7118.628277615104, 23293.490504442514, -0.006, 1.0, 0.164, 192.0, 0.0, 0.0, 0.0, 0.0, 0.0, 0.0, 0.0, 0.0, 0.0, 1.695415167923792E9, 0.0, 2023-09-22 15:39:27.923
24.0, -13980.166790505265, -18029.6546852177, 33221.53189438962, -4691.87703035796, -20390.825914242974, -20414.74228081015, 127996.57171923778, -6990.3292644416415, -2341.658156115789, -5968.809839345198, -17392.29469207462, -8563.55679792843, 377.208039427762, -10372.058793551778, -7114.247335701863, 23274.446818166594, -0.006, 1.0, 0.164, 192.0, 0.0, 0.0, 0.0, 0.0, 0.0, 0.0, 0.0, 0.0, 0.0, 1.695415167923807E9, 0.0, 2023-09-22 15:39:27.923
26.0, -13984.48067718514, -18030.079368362352, 33183.62333579342, -4709.378446266466, -20393.03873694405, -20415.144612210348, 127953.14227976112, -6995.537220899728, -2345.2567869730938, -5965.591188143634, -17398.083793888545, -8565.590806673861, 372.69298704779, -10369.935377828524, -7124.730303851403, 23289.400135207194, -0.006, 1.0, 0.164, 192.0, 0.0, 0.0, 0.0, 0.0, 0.0, 0.0, 0.0, 0.0, 0.0, 1.695415167923811E9, 0.0, 2023-09-22 15:39:27.923
28.0, -13976.434049181229, -18020.490469991026, 33230.74081310521, -4688.568972178576, -20383.3604315949, -20404.348719638434, 127997.06345761579, -6981.120345726054, -2345.010917784085, -5960.874970063564, -17398.35201482201, -8550.257509977522, 372.11184169195195, -10369.734212128427, -7119.008257270844, 23285.13095201623, 0.002, 1.0, 0.152, 192.0, 0.0, 8.0, 15.5, 32.0, 2.0, 96.0, 0.0, 0.0, 0.0, 1.695415167923815E9, 0.0, 2023-09-22 15:39:27.923
30.0, -13969.259139211075, -18012.890876876223, 33199.694240056786, -4700.795376395628, -20380.678222260263, -20406.270969661593, 127956.87502108516, -6985.769508572759, -2339.6017956259006, -5951.241368203327, -17391.1547531074, -8554.996079802046, 380.04671097358596, -10360.413534690564, -7115.499033391361, 23292.17175151965, 0.002, 1.0, 0.152, 192.0, 0.0, 0.0, 0.0, 0.0, 0.0, 0.0, 0.0, 0.0, 0.0, 1.695415167923818E9, 0.0, 2023-09-22 15:39:27.923
32.0, -13967.783924077026, -18012.265028031474, 33228.77385959314, -4690.088890801536, -20384.880350217863, -20412.12712670888, 128002.78550419635, -6989.725767341348, -2335.5784816239457, -5954.281205449249, -17388.450192028307, -8555.510169924519, 384.31589416454966, -10364.570959159251, -7114.560260124238, 23273.351582688283, 0.002, 1.0, 0.152, 192.0, 0.0, 0.0, 0.0, 0.0, 0.0, 0.0, 0.0, 0.0, 0.0, 1.695415167985398E9, 0.0, 2023-09-22 15:39:27.985
34.0, -13964.677031597737, -18011.9521036091, 33193.50280684266, -4706.450367742821, -20382.421658327778, -20413.98232149867, 127960.02661705336, -6993.6149708765715, -2334.9079292902866, -5961.389060186036, -17392.29469207462, -8547.575300642884, 379.97965574022004, -10366.783781860326, -7124.1044550066545, 23299.637234167723, 0.002, 1.0, 0.152, 192.0, 0.0, 0.0, 0.0, 0.0, 0.0, 0.0, 0.0, 0.0, 0.0, 1.695415167985409E9, 0.0, 2023-09-22 15:39:27.985
36.0, -13961.726601329638, -18004.978359339042, 33233.177153250836, -4690.670036157374, -20382.5110653056, -20420.307865179526, 128005.93710016455, -6989.546953385706, -2334.9302810347417, -5950.816685058676, -17392.987596152736, -8543.68609710766, 380.51609760714746, -10365.979119059935, -7121.198728227464, 23270.669373353645, 0.002, 1.0, 0.152, 192.0, 0.0, 0.0, 0.0, 0.0, 0.0, 0.0, 0.0, 0.0, 0.0, 1.695415167985413E9, 0.0, 2023-09-22 15:39:27.985
38.0, -13953.94819425919, -17998.585760424827, 33209.394897150385, -4702.069425829581, -20381.2593676161, -20414.250542432135, 127972.83416662624, -6991.960941786879, -2333.276251945049, -5952.023679259262, -17392.808782197095, -8533.426646402675, 383.3547691529714, -10366.470857437953, -7123.880937562101, 23300.955987090587, 0.002, 0.996, 0.148, 192.0, 0.0, 8.0, 15.5, 16.0, 2.0, 80.0, 0.0, 0.0, 0.0, 1.695415167985416E9, 0.0, 2023-09-22 15:39:27.985
40.0, -13946.706229055671, -17989.913283576167, 33244.44243245631, -4687.004350066704, -20375.89494894683, -20410.674263319288, 128001.28793731784, -6983.333168427131, -2329.945842021208, -5945.966356511874, -17390.21597984028, -8548.31290820991, 385.61229534295745, -10361.262900979866, -7121.556356138749, 23262.198062205087, 0.002, 0.996, 0.148, 192.0, 0.0, 0.0, 0.0, 0.0, 0.0, 0.0, 0.0, 0.0, 0.0, 1.695415167985419E9, 0.0, 2023-09-22 15:39:27.985
42.0, -13937.474958595629, -17980.95023404959, 33219.69905134429, -4702.807033396606, -20377.50427454761, -20412.641216831355, 127973.66118117109, -6994.106709254588, -2323.5532431069905, -5941.048972731706, -17383.510456503685, -8525.759998054506, 391.6025628569797, -10359.117133512156, -7118.091835748177, 23304.75578364799, 0.002, 0.996, 0.148, 192.0, 0.0, 0.0, 0.0, 0.0, 0.0, 0.0, 0.0, 0.0, 0.0, 1.695415167985422E9, 0.0, 2023-09-22 15:39:27.985
44.0, -13939.978353974624, -17986.44876318559, 33241.62611265494, -4697.174393793869, -20384.299204862025, -20420.240809946157, 127993.73304769196, -6998.308837212186, -2325.073161729951, -5940.423123886958, -17384.38217453744, -8552.02329778949, 388.74153956670045, -10367.253168493888, -7129.223004486919, 23244.02609396292, 0.002, 0.996, 0.148, 192.0, 0.0, 0.0, 0.0, 0.0, 0.0, 0.0, 0.0, 0.0, 0.0, 1.695415167985426E9, 0.0, 2023-09-22 15:39:27.985
46.0, -13932.244650393088, -17980.391440438205, 33217.799153065585, -4709.825481155573, -20382.84634147243, -20418.251504689637, 127974.5552509493, -7003.785014603736, -2324.8496442853984, -5943.552368110701, -17385.589168738028, -8531.459692890608, 376.15750743836253, -10372.595235418707, -7133.805112100257, 23290.696536385603, 0.002, 0.996, 0.148, 192.0, 0.0, 0.0, 0.0, 0.0, 0.0, 0.0, 0.0, 0.0, 0.0, 1.695415168044217E9, 0.0, 2023-09-22 15:39:28.044
48.0, -13929.785958503004, -17976.524588647437, 33236.08288003002, -4695.989751337737, -20383.18161763926, -20417.916228522805, 127997.19756808253, -6996.967732544867, -2322.6815250732334, -5941.831283787642, -17382.906959403394, -8551.93389081167, 394.3294756805272, -10371.879979596137, -7137.023763301821, 23242.103843939763, 0.004, 0.998, 0.14, 192.0, 0.0, 16.0, 15.5, 24.0, 2.0, 48.0, 0.0, 0.0, 0.0, 1.69541516804423E9, 0.0, 2023-09-22 15:39:28.044
50.0, -13920.241763620588, -17962.64415534069, 33209.35019366148, -4706.293905531634, -20379.381821081857, -20410.338987152456, 127973.97410559346, -6993.6149708765715, -2317.9653069931637, -5934.3434493951145, -17381.498799502708, -8527.525785866474, 392.02724600163054, -10367.677851638538, -7140.085952292198, 23293.825780609346, 0.004, 0.998, 0.14, 192.0, 0.0, 0.0, 0.0, 0.0, 0.0, 0.0, 0.0, 0.0, 0.0, 1.695415168044234E9, 0.0, 2023-09-22 15:39:28.044
52.0, -13932.490519582096, -17973.37299267924, 33222.537722890105, -4697.576725194064, -20388.94836770873, -20419.503202379132, 127984.34531502072, -6997.057139522689, -2317.7194378041554, -5928.375533625547, -17383.041069870123, -8554.392582701754, 393.0107227576641, -10362.894578325102, -7146.053868061766, 23216.53344828289, 0.004, 0.998, 0.14, 192.0, 0.0, 0.0, 0.0, 0.0, 0.0, 0.0, 0.0, 0.0, 0.0, 1.695415168044244E9, 0.0, 2023-09-22 15:39:28.044
54.0, -13922.52164155503, -17964.946385019586, 33223.61060662396, -4701.331818262555, -20385.237978129146, -20419.346740167945, 127999.72331520598, -7006.422520449462, -2325.8107692969766, -5929.26960340376, -17394.596921753517, -8510.694922291628, 387.86982153294343, -10370.471819695453, -7155.46395247745, 23301.738298146523, 0.004, 0.998, 0.14, 192.0, 0.0, 0.0, 0.0, 0.0, 0.0, 0.0, 0.0, 0.0, 0.0, 1.695415168044247E9, 0.0, 2023-09-22 15:39:28.044
56.0, -13917.246629863577, -17959.067876227844, 33219.96727227775, -4688.680730900852, -20379.918262948784, -20415.3681296549, 127964.54166943333, -7000.968694802367, -2312.4220743682476, -5923.949888223397, -17381.409392524885, -8557.924158325692, 405.1253682524405, -10360.346479457197, -7156.603891444671, 23236.918239226132, 0.004, 0.998, 0.14, 192.0, 0.0, 0.0, 0.0, 0.0, 0.0, 0.0, 0.0, 0.0, 0.0, 1.69541516804425E9, 0.0, 2023-09-22 15:39:28.044
58.0, -13916.866650207836, -17959.201986694574, 33236.731080619225, -4687.6972541448185, -20384.56742579549, -20422.23011520268, 127985.79817841032, -7009.037674550734, -2313.6514203132892, -5923.078170189639, -17383.01871812567, -8519.568564840385, 407.0923217645075, -10364.280386481332, -7154.033440832311, 23278.336021701816, 0.012, 1.002, 0.138, 192.0, 0.0, 48.0, 15.5, 40.0, 2.0, 40.0, 0.0, 0.0, 0.0, 1.695415168044253E9, 0.0, 2023-09-22 15:39:28.044
60.0, -13919.168879886733, -17956.050390726377, 33235.63584514092, -4689.954780334804, -20388.70249851972, -20425.493469893154, 127959.24430599742, -7014.022113564267, -2316.7806645370324, -5920.910050977475, -17384.96331989328, -8534.521881880984, 406.93585955332037, -10368.728383627938, -7169.858475906668, 23259.247631936985, 0.012, 1.002, 0.138, 192.0, 0.0, 0.0, 0.0, 0.0, 0.0, 0.0, 0.0, 0.0, 0.0, 1.695415168044256E9, 0.0, 2023-09-22 15:39:28.044
62.0, -13912.485708294596, -17953.479940114015, 33263.19554605431, -4681.394062208422, -20379.98531818215, -20420.397272157345, 127991.85550115771, -7009.551764673205, -2314.053751713485, -5913.869251474053, -17382.661090214384, -8499.787270997438, 413.84254859001027, -10364.839180092715, -7165.477533993428, 23306.61097843778, 0.012, 1.002, 0.138, 192.0, 0.0, 0.0, 0.0, 0.0, 0.0, 0.0, 0.0, 0.0, 0.0, 1.695415168103686E9, 0.0, 2023-09-22 15:39:28.103
64.0, -13909.110594881844, -17946.617954566234, 33224.75054559118, -4686.445556455321, -20373.50331229011, -20417.402138400335, 127936.91491328657, -7008.925915828457, -2313.472606357647, -5909.533013049724, -17381.52115124716, -8527.25756493301, 418.53641492562474, -10358.871264323148, -7175.781688187324, 23283.007536292975, 0.012, 1.002, 0.138, 192.0, 0.0, 0.0, 0.0, 0.0, 0.0, 0.0, 0.0, 0.0, 0.0, 1.695415168103698E9, 0.0, 2023-09-22 15:39:28.103
66.0, -13907.903600681258, -17944.829815009813, 33252.042025571114, -4672.453364426299, -20371.446951800222, -20414.719929065697, 127977.0586463283, -7007.115424527577, -2311.9750394791413, -5906.135547892517, -17382.862255914482, -8499.2061256416, 413.75314161218904, -10354.982060787925, -7172.7642026858575, 23291.79177186391, 0.012, 1.002, 0.138, 192.0, 0.0, 0.0, 0.0, 0.0, 0.0, 0.0, 0.0, 0.0, 0.0, 1.695415168103701E9, 0.0, 2023-09-22 15:39:28.103
68.0, -13905.534315768995, -17948.003762722466, 33219.274368199636, -4683.919809331872, -20371.5587105225, -20415.345777910446, 127929.24826493839, -7010.557593173694, -2308.6669812997557, -5904.079187402629, -17380.29180530212, -8515.724064794073, 437.3565837569933, -10351.919871797547, -7179.760298700368, 23264.947326773086, 0.01, 1.012, 0.136, 192.0, 0.0, 40.0, 15.5, 80.0, 2.0, 32.0, 0.0, 0.0, 0.0, 1.695415168103709E9, 0.0, 2023-09-22 15:39:28.103
70.0, -13907.300103580965, -17951.445931368584, 33255.70771166178, -4673.816820838073, -20374.46443730169, -20418.162097711815, 127988.32392553377, -7010.758758873792, -2313.047923212996, -5908.616591527056, -17384.136305348435, -8485.035119656935, 429.4217144753593, -10354.512674154363, -7177.525124254838, 23296.016251565965, 0.01, 1.012, 0.136, 192.0, 0.0, 0.0, 0.0, 0.0, 0.0, 0.0, 0.0, 0.0, 0.0, 1.695415168103714E9, 0.0, 2023-09-22 15:39:28.103
72.0, -13908.462394292641, -17953.50229185847, 33218.849685054985, -4691.3405884910335, -20376.900777447318, -20425.04643500405, 127945.18505873503, -7013.351561230607, -2314.701952302689, -5914.293934618704, -17384.67274721536, -8507.275105389966, 425.48780745122525, -10359.899444568091, -7186.085842381221, 23303.235865025028, 0.01, 1.012, 0.136, 192.0, 0.0, 0.0, 0.0, 0.0, 0.0, 0.0, 0.0, 0.0, 0.0, 1.695415168103717E9, 0.0, 2023-09-22 15:39:28.103
74.0, -13905.355501813354, -17947.668486555634, 33263.508470476685, -4677.460155184288, -20371.5587105225, -20422.632446602875, 127995.07415235927, -7010.512889684784, -2319.239356427116, -5914.3833415965255, -17390.01481414018, -8503.341198365832, 421.95623182728673, -10362.916930069558, -7182.8001359462905, 23306.923902860155, 0.01, 1.012, 0.136, 192.0, 0.0, 0.0, 0.0, 0.0, 0.0, 0.0, 0.0, 0.0, 0.0, 1.69541516810372E9, 0.0, 2023-09-22 15:39:28.103
76.0, -13902.002740145057, -17942.862861497746, 33220.86134205596, -4691.005312324204, -20368.94355642123, -20417.558600611523, 127919.7934770338, -7007.920087327968, -2309.784568522521, -5892.031597141218, -17381.76702043617, -8511.767806025482, 428.527644697147, -10348.969441529447, -7183.425984791039, 23284.482751427026, 0.01, 1.012, 0.136, 192.0, 0.0, 0.0, 0.0, 0.0, 0.0, 0.0, 0.0, 0.0, 0.0, 1.69541516816346E9, 0.0, 2023-09-22 15:39:28.163
78.0, -13911.882211194303, -17955.78216979291, 33259.798080897104, -4678.4883354292315, -20376.878425702864, -20423.28064719208, 127983.1606725646, -7012.211622263387, -2317.250051170594, -5901.128757134528, -17390.327738562555, -8502.313018120887, 420.2127957597728, -10353.52919739833, -7182.621321990648, 23257.21362319155, 0.01, 1.006, 0.128, 192.0, 0.0, 40.0, 15.5, 56.0, 2.0, 0.0, 0.0, 0.0, 0.0, 1.695415168163474E9, 0.0, 2023-09-22 15:39:28.163
80.0, -13913.960923428647, -17956.117445959742, 33210.803057051075, -4703.052902585614, -20378.97948968166, -20427.549830383043, 127916.28425315431, -7021.956982845901, -2323.5755948514457, -5906.828451970631, -17399.1566776224, -8501.083672175846, 412.81436834506616, -10359.81003759027, -7192.880772695634, 23286.6955741281, 0.01, 1.006, 0.128, 192.0, 0.0, 0.0, 0.0, 0.0, 0.0, 0.0, 0.0, 0.0, 0.0, 1.695415168163477E9, 0.0, 2023-09-22 15:39:28.163
82.0, -13923.259249122055, -17966.667469342647, 33253.49488896071, -4683.137498275936, -20385.260329873603, -20434.18829848627, 127968.22970726845, -7019.34182874463, -2324.3132024184706, -5908.057797915673, -17403.1576398799, -8505.732835022549, 406.17590024183994, -10361.173494002043, -7192.679606995536, 23231.889096723688, 0.01, 1.006, 0.128, 192.0, 0.0, 0.0, 0.0, 0.0, 0.0, 0.0, 0.0, 0.0, 0.0, 1.695415168163481E9, 0.0, 2023-09-22 15:39:28.163
84.0, -13919.459452564652, -17963.515873374447, 33203.337574403, -4702.695274674329, -20377.99601292563, -20437.742225854665, 127920.41932587855, -7027.634325937549, -2328.8506065428983, -5918.004324198285, -17410.39960508342, -8494.311093605887, 396.36348442596017, -10369.823619106248, -7203.922534456556, 23281.88994907021, 0.01, 1.006, 0.128, 192.0, 0.0, 0.0, 0.0, 0.0, 0.0, 0.0, 0.0, 0.0, 0.0, 1.695415168163484E9, 0.0, 2023-09-22 15:39:28.163
86.0, -13915.726711240615, -17960.923071017634, 33238.072185286546, -4681.4164139528775, -20376.029059413562, -20434.255353719636, 127954.05870128378, -7018.850090366614, -2322.79328379551, -5911.991704939807, -17401.97299742377, -8506.850422245316, 413.08258927852984, -10362.469895180451, -7195.674740752547, 23222.8813437082, 0.01, 1.006, 0.128, 192.0, 0.0, 0.0, 0.0, 0.0, 0.0, 0.0, 0.0, 0.0, 0.0, 1.695415168163487E9, 0.0, 2023-09-22 15:39:28.163
88.0, -13915.95022868517, -17959.760780305958, 33207.18207444931, -4701.287114773645, -20375.827893713464, -20437.898688065852, 127919.48055261142, -7024.996820091823, -2322.8379872844207, -5905.554402536679, -17401.0565759011, -8483.716366734072, 407.0923217645075, -10358.938319556513, -7198.42400532055, 23269.328268686328, 0.018000000000000002, 1.002, 0.13, 192.0, 0.0, 72.0, 15.5, 40.0, 2.0, 8.0, 0.0, 0.0, 0.0, 1.69541516816349E9, 0.0, 2023-09-22 15:39:28.163
90.0, -13918.654789764261, -17961.504216373472, 33248.59985692499, -4686.087928544036, -20379.717097248686, -20439.887993322372, 127945.31916920176, -7024.661543924993, -2322.9944494956076, -5902.872193202043, -17403.515267791186, -8503.944695466125, 403.5830978850243, -10360.637052135116, -7201.66500826657, 23221.07085240732, 0.018000000000000002, 1.002, 0.13, 192.0, 0.0, 0.0, 0.0, 0.0, 0.0, 0.0, 0.0, 0.0, 0.0, 1.695415168163494E9, 0.0, 2023-09-22 15:39:28.163
92.0, -13918.341865341887, -17962.957079763066, 33219.56494087755, -4697.174393793869, -20384.075687417473, -20447.308772481534, 127934.1432969741, -7037.20087256442, -2325.36373440787, -5911.745835750799, -17407.672692259872, -8480.654177743696, 396.67640884833446, -10366.627319649138, -7207.610572291681, 23276.279661211927, 0.018000000000000002, 1.002, 0.13, 192.0, 0.0, 0.0, 0.0, 0.0, 0.0, 0.0, 0.0, 0.0, 0.0, 1.695415168223821E9, 0.0, 2023-09-22 15:39:28.223
94.0, -13917.291333352487, -17961.16894020664, 33238.02748179764, -4679.2482947407125, -20383.002803683616, -20441.832595089985, 127945.27446571285, -7029.243651538331, -2322.07802797294, -5905.353236836581, -17408.790279482637, -8521.356704396809, 397.5257751376361, -10365.465028937464, -7212.080921182743, 23232.40318684616, 0.018000000000000002, 1.002, 0.13, 192.0, 0.0, 0.0, 0.0, 0.0, 0.0, 0.0, 0.0, 0.0, 0.0, 1.695415168223833E9, 0.0, 2023-09-22 15:39:28.223
96.0, -13913.715054239638, -17958.196158194085, 33214.17817046382, -4691.184126279846, -20381.102905404914, -20443.75484511314, 127929.49413412741, -7032.842282395635, -2322.8379872844207, -5899.854707700576, -17409.416128327386, -8504.68230303315, 395.17884196982885, -10361.57582540224, -7209.622229292659, 23285.287414227416, 0.018000000000000002, 1.002, 0.13, 192.0, 0.0, 0.0, 0.0, 0.0, 0.0, 0.0, 0.0, 0.0, 0.0, 1.695415168223837E9, 0.0, 2023-09-22 15:39:28.223
98.0, -13916.710187996649, -17958.039695982898, 33227.45510667028, -4679.829440096551, -20386.5120275631, -20446.794682359065, 127941.96640753346, -7028.506043971306, -2317.115940703862, -5903.542745535701, -17405.884552703446, -8534.54423362544, 395.78233907012213, -10360.324127712742, -7211.186851404531, 23231.39735834567, 0.022, 1.006, 0.13, 192.0, 0.0, 88.0, 15.5, 56.0, 2.0, 8.0, 0.0, 0.0, 0.0, 1.69541516822384E9, 0.0, 2023-09-22 15:39:28.223
100.0, -13911.055196649457, -17953.323477902828, 33211.853589040475, -4688.859544856495, -20385.99793744063, -20446.81703410352, 127922.63214857962, -7033.579889962661, -2318.3899901378145, -5887.829469183621, -17406.68921550384, -8497.753262252005, 385.7911092985999, -10359.653575379083, -7214.785482261835, 23282.8957775707, 0.022, 1.006, 0.13, 192.0, 0.0, 0.0, 0.0, 0.0, 0.0, 0.0, 0.0, 0.0, 0.0, 1.695415168223843E9, 0.0, 2023-09-22 15:39:28.223
102.0, -13910.317589082431, -17952.004724979965, 33214.44639139729, -4681.3046552306005, -20384.008632184104, -20447.24171724817, 127922.0957067127, -7030.160073060999, -2315.88659475882, -5894.02090239774, -17404.29757884712, -8529.582146356363, 395.84939430348805, -10360.43588643502, -7219.300534641807, 23216.35463432725, 0.022, 1.006, 0.13, 192.0, 0.0, 0.0, 0.0, 0.0, 0.0, 0.0, 0.0, 0.0, 0.0, 1.695415168223847E9, 0.0, 2023-09-22 15:39:28.223
104.0, -13911.166955371733, -17951.580041835314, 33235.30056897409, -4682.01991105317, -20384.343908350937, -20453.18728127328, 127949.72246285946, -7035.189215563442, -2311.5950598234012, -5885.191963337894, -17402.464735801786, -8500.100195419813, 397.63753385991265, -10358.737153856417, -7212.28208688284, 23273.306879199372, 0.022, 1.006, 0.13, 192.0, 0.0, 0.0, 0.0, 0.0, 0.0, 0.0, 0.0, 0.0, 0.0, 1.69541516822385E9, 0.0, 2023-09-22 15:39:28.223
106.0, -13912.306894338953, -17952.40705638016, 33231.00903403867, -4686.803184366606, -20385.41679208479, -20453.14257778437, 127925.82844803673, -7033.19991030692, -2315.216042425161, -5885.795460438188, -17403.49291604673, -8534.186605714156, 396.0505600035858, -10359.675927123539, -7221.356895131696, 23233.677236280113, 0.022, 1.006, 0.13, 192.0, 0.0, 0.0, 0.0, 0.0, 0.0, 0.0, 0.0, 0.0, 0.0, 1.695415168284097E9, 0.0, 2023-09-22 15:39:28.284
108.0, -13909.937609426692, -17948.47314935603, 33249.113947047466, -4681.215248252779, -20383.807466484006, -20453.880185351394, 127953.16463150557, -7035.032753352256, -2313.5173098465575, -5887.248323827783, -17404.878724202958, -8498.803794241405, 396.58700187051323, -10358.066601522756, -7218.562927074782, 23264.567347117347, 0.028, 1.012, 0.126, 192.0, 0.0, 112.0, 15.5, 80.0, 1.5, 120.0, 0.0, 0.0, 0.0, 1.695415168284111E9, 0.0, 2023-09-22 15:39:28.284
110.0, -13911.591638516384, -17953.301126158374, 33215.29575768659, -4677.795431351117, -20380.722925749174, -20458.81992087602, 127920.37462238965, -7035.256270796808, -2314.79135928051, -5880.900428402475, -17406.286884103643, -8523.524823608974, 397.32460943753836, -10357.284290466821, -7225.179043433553, 23220.199134373564, 0.028, 1.012, 0.126, 192.0, 0.0, 0.0, 0.0, 0.0, 0.0, 0.0, 0.0, 0.0, 0.0, 1.695415168284115E9, 0.0, 2023-09-22 15:39:28.284
112.0, -13906.94247566968, -17949.858957512257, 33236.6416736414, -4669.2123614802795, -20380.722925749174, -20459.13284529839, 127980.6125736967, -7036.6420789530375, -2312.1315016903286, -5883.984969137307, -17404.096413147025, -8491.070090659869, 401.07970250602995, -10359.452409678986, -7220.820453264768, 23242.729692784513, 0.028, 1.012, 0.126, 192.0, 0.0, 0.0, 0.0, 0.0, 0.0, 0.0, 0.0, 0.0, 0.0, 1.695415168284118E9, 0.0, 2023-09-22 15:39:28.284
114.0, -13911.301065838465, -17951.021248223933, 33208.344365160985, -4677.035472039637, -20383.092210661438, -20456.47298770821, 127951.42119543806, -7039.905433643513, -2310.9692109786524, -5879.648730712978, -17404.051709658113, -8527.905765522215, 403.06900776255225, -10355.518502654852, -7228.755322546402, 23211.16902961362, 0.028, 1.012, 0.126, 192.0, 0.0, 0.0, 0.0, 0.0, 0.0, 0.0, 0.0, 0.0, 0.0, 1.695415168284121E9, 0.0, 2023-09-22 15:39:28.284
116.0, -13914.385606573298, -17955.670411070634, 33240.441470198806, -4666.3960416789105, -20383.673356017276, -20457.367057486423, 128013.33552757926, -7041.894738900035, -2314.277269158038, -5886.1530883494725, -17408.343244593532, -8506.1575181672, 401.37027518394893, -10354.959709043469, -7218.384113119139, 23241.88032649521, 0.028, 1.012, 0.126, 192.0, 0.0, 0.0, 0.0, 0.0, 0.0, 0.0, 0.0, 0.0, 0.0, 1.695415168284124E9, 0.0, 2023-09-22 15:39:28.284
118.0, -13914.832641462404, -17952.004724979965, 33197.302603400065, -4679.963550563282, -20380.07472515997, -20457.992906331172, 127962.77588162136, -7039.860730154602, -2316.557147092479, -5881.347463291581, -17411.092509161535, -8522.83191953086, 393.368350668949, -10354.557377643274, -7226.967182989977, 23231.710282768046, 0.026000000000000002, 1.014, 0.12, 192.0, 0.0, 104.0, 15.5, 88.0, 1.5, 96.0, 0.0, 0.0, 0.0, 1.695415168284128E9, 0.0, 2023-09-22 15:39:28.284
120.0, -13916.933705441203, -17954.105788958765, 33230.96433054976, -4667.06659401257, -20380.767629238086, -20459.82574937651, 128016.64358575865, -7040.82185516618, -2320.7145715611664, -5878.486440001302, -17410.91369520589, -8504.34702686632, 410.4674351772589, -10353.059810764767, -7219.188775919531, 23229.54216355588, 0.026000000000000002, 1.014, 0.12, 192.0, 0.0, 0.0, 0.0, 0.0, 0.0, 0.0, 0.0, 0.0, 0.0, 1.695415168284131E9, 0.0, 2023-09-22 15:39:28.284
122.0, -13915.056158906957, -17950.373047634726, 33197.34730688898, -4685.797355866117, -20377.61603326989, -20462.127979055404, 127964.02757931086, -7043.951099389923, -2318.948783749197, -5878.128812090017, -17409.63964577194, -8524.39654164273, 408.433426431826, -10351.092857252701, -7224.083807955242, 23230.16801240063, 0.026000000000000002, 1.014, 0.12, 192.0, 0.0, 0.0, 0.0, 0.0, 0.0, 0.0, 0.0, 0.0, 0.0, 1.695415168344316E9, 0.0, 2023-09-22 15:39:28.344
124.0, -13922.119310154834, -17958.442027383095, 33241.96138882177, -4672.721585359763, -20380.745277493632, -20465.90542386835, 128035.79903075684, -7044.196968578932, -2322.0109727395743, -5878.2852743012045, -17415.07111967458, -8503.944695466125, 403.6725048628455, -10358.156008500579, -7219.680514297547, 23227.0834716658, 0.026000000000000002, 1.014, 0.12, 192.0, 0.0, 0.0, 0.0, 0.0, 0.0, 0.0, 0.0, 0.0, 0.0, 1.695415168344329E9, 0.0, 2023-09-22 15:39:28.344
126.0, -13919.481804309107, -17956.22920468202, 33202.33174590251, -4687.83136461155, -20380.32059434898, -20465.838368634984, 127982.42306499757, -7047.72854420287, -2323.9779262516413, -5891.763376207755, -17417.038073186646, -8518.003942728514, 404.432464174326, -10358.401877689586, -7228.107121957198, 23246.082454452808, 0.026000000000000002, 1.014, 0.12, 192.0, 0.0, 0.0, 0.0, 0.0, 0.0, 0.0, 0.0, 0.0, 0.0, 1.695415168344334E9, 0.0, 2023-09-22 15:39:28.344
128.0, -13920.420577576231, -17953.636402325203, 33227.924493303835, -4670.017024280671, -20379.40417282631, -20466.710086668743, 128024.73491725147, -7045.113390101599, -2323.6873535737222, -5880.565152235646, -17417.239238886745, -8518.853309017815, 405.0583130190746, -10357.284290466821, -7223.569717832771, 23220.757927984945, 0.012, 1.012, 0.124, 192.0, 0.0, 48.0, 15.5, 80.0, 1.5, 112.0, 0.0, 0.0, 0.0, 1.695415168344339E9, 0.0, 2023-09-22 15:39:28.344
130.0, -13918.967714186636, -17955.089265714796, 33185.99262070568, -4692.838155369539, -20379.582986781956, -20470.3310692705, 127970.5542886918, -7050.209587837409, -2322.368600650859, -5881.2804080582155, -17417.239238886745, -8520.619096829783, 406.3323624530271, -10354.423267176542, -7226.9448312455215, 23233.677236280113, 0.012, 1.012, 0.124, 192.0, 0.0, 0.0, 0.0, 0.0, 0.0, 0.0, 0.0, 0.0, 0.0, 1.695415168344343E9, 0.0, 2023-09-22 15:39:28.344
132.0, -13923.080435166412, -17958.106751216263, 33227.56686539255, -4672.185143492835, -20379.337117592946, -20467.782970402597, 128019.43755381556, -7042.095904600133, -2324.737885563122, -5886.577771494123, -17417.462756331297, -8529.805663800915, 404.4771676632366, -10358.468932922951, -7225.201395178008, 23189.420782258607, 0.012, 1.012, 0.124, 192.0, 0.0, 0.0, 0.0, 0.0, 0.0, 0.0, 0.0, 0.0, 0.0, 1.695415168344348E9, 0.0, 2023-09-22 15:39:28.344
134.0, -13923.080435166412, -17958.710248316558, 33201.504731357665, -4692.033492569148, -20381.616995527387, -20469.794627403575, 127975.38226549415, -7046.722715702381, -2327.8000745534987, -5885.996626138285, -17423.20715465631, -8522.92132650868, 393.4130541578596, -10356.077296266234, -7229.984668491444, 23226.435271076592, 0.012, 1.012, 0.124, 192.0, 0.0, 0.0, 0.0, 0.0, 0.0, 0.0, 0.0, 0.0, 0.0, 1.695415168344353E9, 0.0, 2023-09-22 15:39:28.344
136.0, -13923.974504944625, -17953.815216280844, 33242.34136847751, -4666.932483545838, -20381.639347271845, -20470.174607059314, 128025.9195597076, -7043.638174967548, -2327.733019320133, -5883.537934248202, -17422.69306453384, -8527.749303311028, 409.7745310991444, -10355.160874743566, -7229.358819646695, 23174.333354751274, 0.012, 1.012, 0.124, 192.0, 0.0, 0.0, 0.0, 0.0, 0.0, 0.0, 0.0, 0.0, 0.0, 1.695415168403984E9, 0.0, 2023-09-22 15:39:28.403
138.0, -13918.744196742082, -17948.31668714484, 33218.17913272132, -4679.44946044081, -20377.54897803652, -20466.799493646562, 127999.25392857242, -7048.644965725537, -2327.7106675756777, -5874.373719021526, -17420.4131865994, -8512.505413592507, 404.2983537075942, -10348.209482217966, -7228.844729524223, 23226.79289898788, 0.016, 1.016, 0.124, 192.0, 0.0, 64.0, 15.5, 96.0, 1.5, 112.0, 0.0, 0.0, 0.0, 1.695415168403998E9, 0.0, 2023-09-22 15:39:28.403
140.0, -13923.28160086651, -17951.98237323551, 33240.083842287524, -4669.547637647109, -20380.4100013268, -20472.409781504844, 128021.62802477217, -7047.72854420287, -2326.79424605301, -5881.459222013858, -17420.681407532862, -8531.839672546348, 403.2254699737394, -10351.271671208344, -7230.05172372481, 23183.25170078894, 0.016, 1.016, 0.124, 192.0, 0.0, 0.0, 0.0, 0.0, 0.0, 0.0, 0.0, 0.0, 0.0, 1.695415168404001E9, 0.0, 2023-09-22 15:39:28.404
142.0, -13923.2368973776, -17955.82687328182, 33223.72236534624, -4683.495126187221, -20381.907568205308, -20476.38839201789, 128010.3180420778, -7054.389364050551, -2330.1023042323955, -5885.013149382252, -17424.570611068084, -8502.91651522118, 398.7327693382227, -10356.703145110983, -7232.175139448063, 23230.50328856746, 0.016, 1.016, 0.124, 192.0, 0.0, 0.0, 0.0, 0.0, 0.0, 0.0, 0.0, 0.0, 0.0, 1.695415168404004E9, 0.0, 2023-09-22 15:39:28.404
144.0, -13923.32630435542, -17959.64902158368, 33235.63584514092, -4673.9062278158935, -20382.75693449461, -20477.4836274962, 128030.83694348777, -7046.566253491194, -2330.6834495882335, -5888.7905941951985, -17424.72707327927, -8527.682248077661, 399.4703769052478, -10359.72063061245, -7232.264546425885, 23189.21961655851, 0.016, 1.016, 0.124, 192.0, 0.0, 0.0, 0.0, 0.0, 0.0, 0.0, 0.0, 0.0, 0.0, 1.695415168404007E9, 0.0, 2023-09-22 15:39:28.404
146.0, -13915.883173451803, -17947.78024527791, 33210.64659483988, -4686.69142564433, -20378.84537921493, -20473.52736872761, 128016.19655086954, -7048.5555587477165, -2328.694144331711, -5884.521411004235, -17423.967113967792, -8497.239172129533, 398.5092518936696, -10357.15018000009, -7229.448226624517, 23233.16314615764, 0.016, 1.016, 0.124, 192.0, 0.0, 0.0, 0.0, 0.0, 0.0, 0.0, 0.0, 0.0, 0.0, 1.695415168404011E9, 0.0, 2023-09-22 15:39:28.404
148.0, -13922.543993299485, -17954.17284419213, 33214.982833264214, -4679.7176813742735, -20383.89687346183, -20482.982156632206, 128012.48616128995, -7052.020079138289, -2326.146045463806, -5873.524352732224, -17422.715416278294, -8524.865928276293, 391.73667332371156, -10353.730363098426, -7234.365610404684, 23156.943697565046, 0.022, 1.01, 0.128, 192.0, 0.0, 88.0, 15.5, 72.0, 2.0, 0.0, 0.0, 0.0, 0.0, 1.695415168404014E9, 0.0, 2023-09-22 15:39:28.404
150.0, -13918.498327553074, -17950.864786012746, 33216.592158864994, -4686.311445988589, -20379.918262948784, -20481.57399673152, 128019.50460904892, -7058.3009193302305, -2334.2597287010826, -5883.78380343721, -17432.438425116354, -8493.148802894211, 400.0291705166305, -10365.24151149291, -7235.818473794279, 23219.148602384164, 0.022, 1.01, 0.128, 192.0, 0.0, 0.0, 0.0, 0.0, 0.0, 0.0, 0.0, 0.0, 0.0, 1.695415168404017E9, 0.0, 2023-09-22 15:39:28.404
152.0, -13913.37977807281, -17944.226317909517, 33220.6378246114, -4677.348396462011, -20376.453742558213, -20478.847083907975, 128002.47257977398, -7051.126009360077, -2323.2626704290715, -5869.054003841163, -17422.849526745027, -8517.579259583863, 402.01847577315283, -10356.121999755145, -7234.700886571513, 23160.274107488884, 0.022, 1.01, 0.128, 192.0, 0.0, 0.0, 0.0, 0.0, 0.0, 0.0, 0.0, 0.0, 0.0, 1.695415168464126E9, 0.0, 2023-09-22 15:39:28.464
154.0, -13909.17765011521, -17941.812329508346, 33229.399708437886, -4679.561219163086, -20377.817198969984, -20481.43988626479, 128009.60278625523, -7058.703250730426, -2315.5289668475352, -5869.076355585618, -17417.507459820208, -8490.377186581754, 409.37219969894886, -10355.429095677031, -7230.945793503022, 23191.74536368196, 0.022, 1.01, 0.128, 192.0, 0.0, 0.0, 0.0, 0.0, 0.0, 0.0, 0.0, 0.0, 0.0, 1.695415168464149E9, 0.0, 2023-09-22 15:39:28.464
156.0, -13919.124176397823, -17952.74233254699, 33202.42115288033, -4683.45042269831, -20387.18257989676, -20490.20177009127, 127994.42595177007, -7063.106544388122, -2317.987658737619, -5867.891713129487, -17424.570611068084, -8527.794006799937, 404.25365021868356, -10357.708973611472, -7239.171235462575, 23151.355761451217, 0.022, 1.01, 0.128, 192.0, 0.0, 0.0, 0.0, 0.0, 0.0, 0.0, 0.0, 0.0, 0.0, 1.695415168464152E9, 0.0, 2023-09-22 15:39:28.464
158.0, -13927.66254277975, -17961.16894020664, 33212.1888652073, -4681.751690119707, -20392.882274732863, -20497.287273083602, 128031.23927488796, -7070.169695635998, -2329.722324576655, -5877.6370737120005, -17439.68039031987, -8505.978704211559, 391.73667332371156, -10368.370755716653, -7245.183854721053, 23215.59467501577, 0.028, 1.016, 0.126, 192.0, 0.0, 112.0, 15.5, 96.0, 1.5, 120.0, 0.0, 0.0, 0.0, 1.695415168464155E9, 0.0, 2023-09-22 15:39:28.464
160.0, -13929.562441058451, -17967.427428654126, 33179.15298690236, -4691.206478024302, -20386.84730372993, -20496.81788645004, 127979.76320740739, -7068.917997946501, -2333.9021007897977, -5874.485477743802, -17442.720227565795, -8548.02233553199, 390.5743826120356, -10369.018956305858, -7256.650299626625, 23186.58211071278, 0.028, 1.016, 0.126, 192.0, 0.0, 0.0, 0.0, 0.0, 0.0, 0.0, 0.0, 0.0, 0.0, 1.695415168464159E9, 0.0, 2023-09-22 15:39:28.464
162.0, -13934.479824838618, -17967.338021676307, 33210.04309773959, -4678.7789081071505, -20388.523684564076, -20499.030709151117, 128031.08281267677, -7069.677957257982, -2334.595004867912, -5882.979140636819, -17445.514195622705, -8521.379056141264, 380.2925801625944, -10370.516523184362, -7248.8942443006335, 23210.006738901942, 0.028, 1.016, 0.126, 192.0, 0.0, 0.0, 0.0, 0.0, 0.0, 0.0, 0.0, 0.0, 0.0, 1.695415168464162E9, 0.0, 2023-09-22 15:39:28.464
164.0, -13926.61201079035, -17957.32444016033, 33169.36292283093, -4686.758480877696, -20381.214664127194, -20491.766392203142, 127962.17238452107, -7067.465134556906, -2332.896272289309, -5871.892675386986, -17440.68621882036, -8546.100085508835, 400.2303362167283, -10364.638014392616, -7251.621157124181, 23187.25266304644, 0.028, 1.016, 0.126, 192.0, 0.0, 0.0, 0.0, 0.0, 0.0, 0.0, 0.0, 0.0, 0.0, 1.695415168464165E9, 0.0, 2023-09-22 15:39:28.464
166.0, -13930.456510836662, -17963.873501285732, 33200.945937746284, -4667.312463201579, -20383.65100427282, -20492.168723603336, 128015.2130741135, -7064.961739177912, -2328.895310031809, -5861.163838048439, -17437.467567618798, -8519.97089624058, 396.69876059278977, -10357.463104422462, -7239.864139540689, 23181.77648565489, 0.028, 1.016, 0.126, 192.0, 0.0, 0.0, 0.0, 0.0, 0.0, 0.0, 0.0, 0.0, 0.0, 1.69541516852454E9, 0.0, 2023-09-22 15:39:28.524
168.0, -13924.622705533828, -17957.570309349336, 33166.256030351644, -4674.107393515992, -20376.14081813584, -20485.396145033377, 127962.17238452107, -7062.815971710203, -2335.086743245929, -5865.097745072573, -17442.07202697659, -8536.824111559881, 390.4849756342144, -10358.33482245622, -7245.675593099069, 23183.430514744585, 0.016, 1.014, 0.12, 192.0, 0.0, 64.0, 15.5, 88.0, 1.5, 96.0, 0.0, 0.0, 0.0, 1.695415168524558E9, 0.0, 2023-09-22 15:39:28.524
170.0, -13921.784033988004, -17956.989163993498, 33214.62520535293, -4643.843131523506, -20379.27006235958, -20484.4350200218, 128013.17906536808, -7058.233864096865, -2324.5814233519345, -5860.001547336763, -17434.15950943941, -8522.474291619576, 399.8280048165327, -10349.058848507268, -7237.472502883971, 23178.49077921996, 0.016, 1.014, 0.12, 192.0, 0.0, 0.0, 0.0, 0.0, 0.0, 0.0, 0.0, 0.0, 0.0, 1.695415168524562E9, 0.0, 2023-09-22 15:39:28.524
172.0, -13925.069740422934, -17955.715114559545, 33176.35901884544, -4665.5690271340645, -20382.041678672038, -20487.00547063416, 127964.67577990006, -7065.4087740670175, -2328.5600338649792, -5860.627396181512, -17438.004009485725, -8526.698771321628, 394.3965309138931, -10355.831427077226, -7248.067229755787, 23221.249666362964, 0.016, 1.014, 0.12, 192.0, 0.0, 0.0, 0.0, 0.0, 0.0, 0.0, 0.0, 0.0, 0.0, 1.695415168524565E9, 0.0, 2023-09-22 15:39:28.524
174.0, -13931.730560270616, -17960.632498339713, 33226.181057236325, -4651.688593827319, -20380.678222260263, -20488.927720657317, 128023.14794339515, -7062.5253990322835, -2329.8787867878423, -5863.175495049417, -17442.1167304655, -8519.009771229003, 392.6530948463792, -10358.960671300969, -7248.424857667072, 23213.851238948257, 0.016, 1.014, 0.12, 192.0, 0.0, 0.0, 0.0, 0.0, 0.0, 0.0, 0.0, 0.0, 0.0, 1.695415168524568E9, 0.0, 2023-09-22 15:39:28.524
176.0, -13922.409882832753, -17948.964887734044, 33173.877975210904, -4667.3348149460335, -20372.341021578435, -20481.90927289835, 127956.83031759625, -7059.753782719825, -2327.1742257087503, -5852.200788521861, -17437.176994940877, -8521.602573585818, 396.31878093704955, -10352.836293320215, -7246.81553206629, 23247.691780053592, 0.016, 1.014, 0.12, 192.0, 0.0, 0.0, 0.0, 0.0, 0.0, 0.0, 0.0, 0.0, 0.0, 1.695415168524571E9, 0.0, 2023-09-22 15:39:28.524
178.0, -13932.71403702665, -17964.097018730285, 33212.680603585315, -4648.4922943702095, -20386.333213607457, -20487.363098545444, 128011.6144432562, -7058.569140263694, -2326.9730600086523, -5849.540930931679, -17433.31014315011, -8520.127358451768, 393.4354059023149, -10344.722610082938, -7235.125569716164, 23216.55580002735, 0.012, 1.01, 0.12, 192.0, 0.0, 48.0, 15.5, 72.0, 1.5, 96.0, 0.0, 0.0, 0.0, 1.695415168524575E9, 0.0, 2023-09-22 15:39:28.524
180.0, -13932.870499237837, -17962.197120451587, 33173.90032695536, -4672.520419659665, -20388.970719453184, -20493.018089892637, 127985.28408828785, -7073.053070670733, -2341.926377049253, -5863.287253771693, -17450.07395149159, -8522.586050341852, 383.6006383419798, -10361.374659702142, -7249.34127918974, 23282.851074081787, 0.012, 1.01, 0.12, 192.0, 0.0, 0.0, 0.0, 0.0, 0.0, 0.0, 0.0, 0.0, 0.0, 1.695415168524578E9, 0.0, 2023-09-22 15:39:28.524
182.0, -13929.964772458647, -17958.8890622722, 33200.49890285717, -4652.940291516816, -20381.03585017155, -20488.14540960138, 128003.18783559655, -7064.268835099797, -2329.8340832989315, -5851.820808866121, -17440.462701375807, -8546.07773376438, 397.3916646709043, -10353.95388054298, -7241.629927352658, 23240.82979450581, 0.012, 1.01, 0.12, 192.0, 0.0, 0.0, 0.0, 0.0, 0.0, 0.0, 0.0, 0.0, 0.0, 1.695415168584007E9, 0.0, 2023-09-22 15:39:28.584
184.0, -13931.99878120408, -17960.56544310635, 33164.937277428784, -4672.87804757095, -20385.55090255152, -20493.040441637095, 127956.94207631852, -7069.812067724713, -2329.945842021208, -5855.173570534417, -17441.513233365207, -8540.623908117284, 395.6705803478456, -10355.00441253238, -7239.819436051779, 23261.50515812697, 0.012, 1.01, 0.12, 192.0, 0.0, 0.0, 0.0, 0.0, 0.0, 0.0, 0.0, 0.0, 0.0, 1.695415168584018E9, 0.0, 2023-09-22 15:39:28.584
186.0, -13928.735426513604, -17953.03290522491, 33208.210254694255, -4654.370803161955, -20382.08638216095, -20485.977290389215, 127981.99838185291, -7061.407811809518, -2331.8010368109985, -5850.546759432168, -17443.659000832915, -8556.784219358471, 391.06612099005235, -10354.087991009712, -7239.5065116294045, 23206.475163278006, 0.012, 1.01, 0.12, 192.0, 0.0, 0.0, 0.0, 0.0, 0.0, 0.0, 0.0, 0.0, 0.0, 1.695415168584022E9, 0.0, 2023-09-22 15:39:28.584
188.0, -13928.400150346775, -17956.02803898192, 33192.966364975735, -4667.513628901676, -20382.801637983517, -20488.033650879104, 127958.7525676194, -7064.984090922367, -2324.6261268408452, -5843.997698306764, -17437.82519553008, -8525.983515499058, 398.1963274712953, -10345.1919967165, -7233.6950580710245, 23240.136890427697, 0.012, 1.0, 0.126, 192.0, 0.0, 48.0, 15.5, 32.0, 1.5, 120.0, 0.0, 0.0, 0.0, 1.695415168584026E9, 0.0, 2023-09-22 15:39:28.584
190.0, -13933.228127149121, -17962.59945185178, 33210.35602216196, -4654.706079328786, -20387.741373508143, -20491.85579918096, 127994.7612279369, -7065.54288453375, -2328.26946118706, -5847.305756486149, -17442.183785698868, -8551.2186349891, 396.67640884833446, -10349.192958974, -7237.070171483776, 23196.9756718845, 0.012, 1.0, 0.126, 192.0, 0.0, 0.0, 0.0, 0.0, 0.0, 0.0, 0.0, 0.0, 0.0, 1.695415168584029E9, 0.0, 2023-09-22 15:39:28.584
192.0, -13932.445816093186, -17960.006649494964, 33187.62429805092, -4670.888742314428, -20387.02611768557, -20494.135677115402, 127977.68449517305, -7073.164829393009, -2332.248071700105, -5849.764448376232, -17450.78920731416, -8527.458730633109, 395.7599873256668, -10355.183226488021, -7238.657145340103, 23270.155283231175, 0.012, 1.0, 0.126, 192.0, 0.0, 0.0, 0.0, 0.0, 0.0, 0.0, 0.0, 0.0, 0.0, 1.695415168584032E9, 0.0, 2023-09-22 15:39:28.584
194.0, -13935.060970194456, -17961.191291951098, 33195.29094639909, -4660.718698587263, -20391.60822529891, -20491.900502669872, 127979.07030332928, -7068.158038635021, -2330.370525165859, -5846.657555896945, -17452.532643381674, -8559.689946137662, 389.05446398907475, -10350.869339808147, -7244.826226809768, 23212.957169170044, 0.012, 1.0, 0.126, 192.0, 0.0, 0.0, 0.0, 0.0, 0.0, 0.0, 0.0, 0.0, 0.0, 1.695415168584036E9, 0.0, 2023-09-22 15:39:28.584
196.0, -13928.75777825806, -17953.8375680253, 33176.78370199009, -4665.904303300894, -20384.008632184104, -20492.2357788367, 127968.81085262429, -7074.058899171222, -2331.309298432982, -5845.7634861187325, -17452.711457337315, -8516.931058994658, 403.9630775407645, -10348.567110129252, -7244.736819831946, 23266.288431440407, 0.012, 1.0, 0.126, 192.0, 0.0, 0.0, 0.0, 0.0, 0.0, 0.0, 0.0, 0.0, 0.0, 1.695415168643573E9, 0.0, 2023-09-22 15:39:28.643
198.0, -13936.133853928312, -17960.721905317536, 33194.06160045405, -4659.109372986481, -20391.831742743463, -20496.370851560932, 127973.66118117109, -7072.583684037171, -2328.8506065428983, -5836.912195314431, -17450.252765447232, -8545.630698875273, 408.4557781762813, -10348.500054895885, -7247.150808233119, 23209.15737261264, 0.012, 1.004, 0.126, 192.0, 0.0, 48.0, 15.5, 48.0, 1.5, 120.0, 0.0, 0.0, 0.0, 1.695415168643589E9, 0.0, 2023-09-22 15:39:28.643
200.0, -13926.679066023717, -17951.26711741294, 33199.71659180124, -4656.851846796495, -20384.925053706775, -20492.4369445368, 127977.01394283939, -7073.634216026571, -2327.8000745534987, -5831.480721411792, -17451.727980581283, -8516.372265383276, 407.3381909535159, -10346.644860106095, -7245.630889610159, 23263.069780238842, 0.012, 1.004, 0.126, 192.0, 0.0, 0.0, 0.0, 0.0, 0.0, 0.0, 0.0, 0.0, 0.0, 1.695415168643592E9, 0.0, 2023-09-22 15:39:28.643
202.0, -13933.51869982704, -17960.61014659526, 33189.680658540805, -4655.5330938736315, -20390.535341565053, -20502.003491163672, 127961.30066648731, -7077.344605606152, -2330.5493391215014, -5833.067695268118, -17454.231375960277, -8553.543216412452, 409.8639380769656, -10349.103551996179, -7254.392773436639, 23219.327416339805, 0.012, 1.004, 0.126, 192.0, 0.0, 0.0, 0.0, 0.0, 0.0, 0.0, 0.0, 0.0, 0.0, 1.695415168643596E9, 0.0, 2023-09-22 15:39:28.643
204.0, -13929.160109658254, -17958.665544827647, 33201.48237961321, -4651.532131616132, -20389.4624578312, -20503.612816764453, 127985.97699236596, -7079.468021329406, -2328.9400135207193, -5835.325221458104, -17456.757123083727, -8523.25660267551, 412.8814235784321, -10353.350383442687, -7250.838846068245, 23264.433236650617, 0.012, 1.004, 0.126, 192.0, 0.0, 0.0, 0.0, 0.0, 0.0, 0.0, 0.0, 0.0, 0.0, 1.695415168643599E9, 0.0, 2023-09-22 15:39:28.643
206.0, -13927.059045679456, -17957.391495393695, 33173.408588577346, -4656.315404929567, -20392.16701891029, -20500.595331262986, 127947.12966050264, -7076.338777105663, -2331.1081327328843, -5836.3757534475035, -17458.478207406784, -8556.73951586956, 410.8921183219097, -10352.09868575319, -7257.678479871569, 23225.764718742936, 0.012, 1.004, 0.126, 192.0, 0.0, 0.0, 0.0, 0.0, 0.0, 0.0, 0.0, 0.0, 0.0, 1.695415168643602E9, 0.0, 2023-09-22 15:39:28.643
208.0, -13919.817080475937, -17949.098998200774, 33201.772952291125, -4638.121084942947, -20388.389574097346, -20497.466087039244, 127985.75347492141, -7070.97435843639, -2328.8282547984427, -5822.6964858408555, -17455.97481202779, -8521.02142822998, 404.90185080788746, -10346.846025806193, -7253.029317024865, 23247.22239342003, 0.006, 1.002, 0.132, 192.0, 0.0, 24.0, 15.5, 40.0, 2.0, 16.0, 0.0, 0.0, 0.0, 1.695415168643606E9, 0.0, 2023-09-22 15:39:28.643
210.0, -13918.52067929753, -17952.11648370224, 33172.33570484349, -4643.999593734693, -20384.813294984495, -20501.77997371912, 127946.81673608026, -7073.142477648554, -2322.5921180954124, -5819.679000339389, -17449.135178224467, -8544.714277352605, 432.3050895100939, -10340.498130380885, -7252.939910047044, 23226.59173328778, 0.006, 1.002, 0.132, 192.0, 0.0, 0.0, 0.0, 0.0, 0.0, 0.0, 0.0, 0.0, 0.0, 1.695415168643609E9, 0.0, 2023-09-22 15:39:28.643
212.0, -13917.380740330309, -17948.02611446692, 33193.92748998731, -4631.817893006551, -20386.288510118546, -20502.562284775053, 127999.09746636123, -7073.835381726669, -2329.856435043387, -5828.552642888146, -17459.551091140638, -8513.198317670622, 423.07381905005207, -10347.293060695298, -7250.503569901415, 23265.103788984274, 0.006, 1.002, 0.132, 192.0, 0.0, 0.0, 0.0, 0.0, 0.0, 0.0, 0.0, 0.0, 0.0, 1.695415168703828E9, 0.0, 2023-09-22 15:39:28.703
214.0, -13916.307856596453, -17956.966812249044, 33164.51259428413, -4641.473846611243, -20386.333213607457, -20503.456354553266, 127951.13062276015, -7073.947140448945, -2325.274327430049, -5812.548793858146, -17454.387838171464, -8537.204091215623, 424.7278481397448, -10341.839235048205, -7251.799971079823, 23253.056198722865, 0.006, 1.002, 0.132, 192.0, 0.0, 0.0, 0.0, 0.0, 0.0, 0.0, 0.0, 0.0, 0.0, 1.695415168703843E9, 0.0, 2023-09-22 15:39:28.703
216.0, -13918.207754875155, -17962.331230918317, 33205.70685931526, -4630.812064506062, -20389.015422942095, -20508.30668310007, 128006.58530075375, -7076.87521897259, -2329.7893798100213, -5824.462273652825, -17460.243995218756, -8516.886355505749, 420.05633354858566, -10348.1424269846, -7243.887453542645, 23277.97839379053, 0.006, 1.002, 0.132, 192.0, 0.0, 0.0, 0.0, 0.0, 0.0, 0.0, 0.0, 0.0, 0.0, 1.695415168703847E9, 0.0, 2023-09-22 15:39:28.703
218.0, -13912.46335655014, -17955.40219013717, 33162.16566111633, -4645.787733291118, -20383.74041125064, -20505.66917725434, 127941.22879996644, -7073.991843937856, -2330.1917112102165, -5824.775198075199, -17459.305221951632, -8547.150617498233, 419.22931900373925, -10345.52727288333, -7247.3743256776725, 23266.489597140506, 0.002, 1.008, 0.134, 192.0, 0.0, 8.0, 15.5, 64.0, 2.0, 24.0, 0.0, 0.0, 0.0, 1.695415168703851E9, 0.0, 2023-09-22 15:39:28.703
220.0, -13917.738368241593, -17959.7384285615, 33201.95176624677, -4630.365029616956, -20384.6121292844, -20509.78189823412, 127997.68930646054, -7074.7965067382465, -2325.8331210414317, -5823.434093407881, -17456.913585294915, -8539.863948805803, 425.3313452400381, -10345.549624627785, -7242.568700619781, 23243.31083814035, 0.002, 1.008, 0.134, 192.0, 0.0, 0.0, 0.0, 0.0, 0.0, 0.0, 0.0, 0.0, 0.0, 1.695415168703854E9, 0.0, 2023-09-22 15:39:28.703
222.0, -13921.113481654345, -17966.13102747572, 33160.31046632653, -4653.610843850475, -20387.719021763685, -20516.643883781897, 127952.96346580547, -7079.132745162577, -2331.9351472777307, -5830.229023722294, -17463.59675688705, -8539.863948805803, 413.9096038233762, -10351.070505508245, -7250.235348967952, 23253.011495233954, 0.002, 1.008, 0.134, 192.0, 0.0, 0.0, 0.0, 0.0, 0.0, 0.0, 0.0, 0.0, 0.0, 1.695415168703857E9, 0.0, 2023-09-22 15:39:28.703
224.0, -13924.46624332264, -17971.115466489253, 33195.00037372117, -4632.331983129023, -20393.306957877514, -20519.1919826498, 128020.24221661595, -7078.484544573373, -2338.104228747395, -5835.057000524641, -17471.263405235222, -8535.147730725734, 398.95628678277575, -10354.602081132183, -7249.251872211918, 23251.35746614426, 0.002, 1.008, 0.134, 192.0, 0.0, 0.0, 0.0, 0.0, 0.0, 0.0, 0.0, 0.0, 0.0, 1.695415168703861E9, 0.0, 2023-09-22 15:39:28.703
226.0, -13916.352560085365, -17961.660678584656, 33155.41543429082, -4647.598224591998, -20385.886178718352, -20516.73329075972, 127968.18500377954, -7080.183277151976, -2338.2606909585825, -5832.508901656735, -17467.50831216673, -8538.344030182843, 414.9601358127756, -10354.132694498623, -7248.827189067268, 23286.807332850378, 0.002, 1.008, 0.134, 192.0, 0.0, 0.0, 0.0, 0.0, 0.0, 0.0, 0.0, 0.0, 0.0, 1.695415168764128E9, 0.0, 2023-09-22 15:39:28.764
228.0, -13915.279676351509, -17962.331230918317, 33189.255975396154, -4626.878157481928, -20385.439143829244, -20515.794517492595, 128023.68438526207, -7073.656567771026, -2338.4842084031357, -5830.5642998891235, -17466.07780052159, -8546.569472142395, 405.0583130190746, -10352.09868575319, -7240.042953496332, 23268.434198908115, -0.002, 1.012, 0.134, 192.0, 127.5, 120.0, 15.5, 80.0, 2.0, 24.0, 0.0, 0.0, 0.0, 1.695415168764142E9, 0.0, 2023-09-22 15:39:28.764
230.0, -13914.139737384288, -17965.527530375424, 33143.211381818226, -4647.106486213981, -20384.455667073213, -20514.788688992106, 127958.41729145257, -7077.299902117241, -2333.8126938119763, -5819.835462550576, -17459.707553351825, -8552.068001278401, 409.61806888795724, -10344.454389149474, -7238.075999984265, 23292.350565475295, -0.002, 1.012, 0.134, 192.0, 0.0, 0.0, 0.0, 0.0, 0.0, 0.0, 0.0, 0.0, 0.0, 1.695415168764145E9, 0.0, 2023-09-22 15:39:28.764
232.0, -13920.46528106514, -17972.434219412116, 33179.398856091364, -4627.660468537863, -20389.216588642194, -20517.135622159913, 128010.07217288879, -7073.075422415188, -2336.0702200019623, -5827.144482987462, -17463.909681309426, -8555.845446091347, 401.5043856506808, -10346.533101383819, -7244.066267498287, 23244.853108507767, -0.002, 1.012, 0.134, 192.0, 0.0, 0.0, 0.0, 0.0, 0.0, 0.0, 0.0, 0.0, 0.0, 1.695415168764148E9, 0.0, 2023-09-22 15:39:28.764
234.0, -13919.258286864555, -17968.54501587689, 33142.51847774011, -4647.285300169623, -20389.171885153282, -20521.44950883979, 127970.53193694734, -7080.965588207911, -2340.98760378213, -5829.022029521708, -17469.519969167708, -8538.724009838583, 395.80469081457744, -10348.321240940242, -7249.900072801122, 23298.117315544765, -0.002, 1.012, 0.134, 192.0, 0.0, 0.0, 0.0, 0.0, 0.0, 0.0, 0.0, 0.0, 0.0, 1.695415168764152E9, 0.0, 2023-09-22 15:39:28.764
236.0, -13920.711150254148, -17971.718963589545, 33180.49409156968, -4625.157073158869, -20386.824951985473, -20522.902372229382, 128004.2607193304, -7077.098736417143, -2339.534740392535, -5824.641087608467, -17467.01657378871, -8560.829885104882, 386.32755116552727, -10345.929604283525, -7246.793180321834, 23245.344846885782, -0.002, 1.012, 0.134, 192.0, 0.0, 0.0, 0.0, 0.0, 0.0, 0.0, 0.0, 0.0, 0.0, 1.695415168764155E9, 0.0, 2023-09-22 15:39:28.764
238.0, -13919.682970009206, -17971.562501378357, 33151.81680343352, -4642.122047200447, -20386.55673105201, -20527.529183331633, 127974.33173350475, -7083.759556264825, -2339.6017956259006, -5826.116302742517, -17469.341155212063, -8530.275050434477, 390.35086516748254, -10345.326107183231, -7243.753343075913, 23298.698460900603, -0.002, 1.008, 0.136, 192.0, 127.5, 120.0, 15.5, 64.0, 2.0, 32.0, 0.0, 0.0, 0.0, 1.695415168764158E9, 0.0, 2023-09-22 15:39:28.764
240.0, -13915.279676351509, -17966.30984143136, 33171.70985599874, -4625.134721414414, -20378.778323981565, -20519.3931483499, 127975.18109979405, -7069.990881680355, -2336.852531057898, -5824.149349230451, -17463.708515609327, -8556.091315280357, 402.979600784731, -10344.968479271947, -7239.685325585047, 23232.5820008018, -0.002, 1.008, 0.136, 192.0, 0.0, 0.0, 0.0, 0.0, 0.0, 0.0, 0.0, 0.0, 0.0, 1.695415168764161E9, 0.0, 2023-09-22 15:39:28.764
242.0, -13921.493461310085, -17974.870559557745, 33157.71766396972, -4641.049163466592, -20385.237978129146, -20528.378549620935, 127986.20050981051, -7080.809125996724, -2341.725211349155, -5824.1046457415405, -17468.044754033657, -8518.585088084352, 391.5131558791585, -10343.783836815815, -7236.846654039223, 23289.08721078482, -0.002, 1.008, 0.136, 192.0, 0.0, 0.0, 0.0, 0.0, 0.0, 0.0, 0.0, 0.0, 0.0, 1.69541516882586E9, 0.0, 2023-09-22 15:39:28.825
244.0, -13919.012417675545, -17970.46726590005, 33149.67103596581, -4640.378611132934, -20384.008632184104, -20526.903334486884, 127966.21805026747, -7072.024890425789, -2341.7475630936106, -5824.909308541931, -17465.340192954565, -8569.234141020077, 388.853298288977, -10343.113284482157, -7242.725162830969, 23233.677236280113, -0.002, 1.008, 0.136, 192.0, 0.0, 0.0, 0.0, 0.0, 0.0, 0.0, 0.0, 0.0, 0.0, 1.695415168825871E9, 0.0, 2023-09-22 15:39:28.825
246.0, -13919.70532175366, -17967.27096644294, 33149.067538865515, -4643.01611697866, -20386.959062452206, -20527.05979669807, 127988.68155344506, -7075.467059071906, -2339.2665194590713, -5819.053151494641, -17466.726001110794, -8540.40039067273, 387.86982153294343, -10343.940299027003, -7239.19358720703, 23267.74129483, -0.002, 1.008, 0.136, 192.0, 0.0, 0.0, 0.0, 0.0, 0.0, 0.0, 0.0, 0.0, 0.0, 1.695415168825874E9, 0.0, 2023-09-22 15:39:28.825
248.0, -13919.370045586831, -17970.199044966586, 33146.60884697543, -4646.078305969037, -20385.349736851425, -20529.96552347726, 127961.12185253167, -7077.54577130625, -2337.8360078139317, -5826.29511669816, -17464.40141968744, -8574.911484111724, 386.6851790768122, -10344.1414647271, -7246.301441943818, 23224.848297220266, -0.006, 1.01, 0.14400000000000002, 192.0, 127.5, 104.0, 15.5, 72.0, 2.0, 64.0, 0.0, 0.0, 0.0, 1.695415168825877E9, 0.0, 2023-09-22 15:39:28.825
250.0, -13915.592600773884, -17966.80157980938, 33155.080158123994, -4651.666242082863, -20387.339042107946, -20531.016055466658, 127973.83999512673, -7081.367919608107, -2335.7796473240433, -5820.058979995129, -17461.987431286267, -8536.891166793248, 387.57924885502445, -10345.437865905507, -7242.166369219586, 23251.31276265535, -0.006, 1.01, 0.14400000000000002, 192.0, 0.0, 0.0, 0.0, 0.0, 0.0, 0.0, 0.0, 0.0, 0.0, 1.695415168825881E9, 0.0, 2023-09-22 15:39:28.825
252.0, -13917.268981608033, -17971.540149633904, 33132.32608226849, -4654.862541539972, -20390.75885900961, -20535.285238657623, 127942.41344242258, -7081.904361475034, -2336.6513653578004, -5822.964706774319, -17464.15555049843, -8566.708393896628, 383.82415578653286, -10347.516578139852, -7247.731953588957, 23207.860971434235, -0.006, 1.01, 0.14400000000000002, 192.0, 0.0, 0.0, 0.0, 0.0, 0.0, 0.0, 0.0, 0.0, 0.0, 1.695415168825884E9, 0.0, 2023-09-22 15:39:28.825
254.0, -13917.89483045278, -17970.780190322424, 33146.43003301979, -4653.677899083841, -20394.357489866914, -20536.02284622465, 127978.62326844016, -7083.290169631264, -2342.686336360733, -5830.96663128932, -17470.257576734733, -8533.426646402675, 364.98163521070904, -10351.405781675076, -7243.328659931262, 23258.040637736398, -0.006, 1.01, 0.14400000000000002, 192.0, 0.0, 0.0, 0.0, 0.0, 0.0, 0.0, 0.0, 0.0, 0.0, 1.695415168825887E9, 0.0, 2023-09-22 15:39:28.825
0.0, -13909.825850704414, -17960.40898089516, 33119.5185326956, -4657.92473053035, -20388.03194618606, -20530.837241511017, 127926.61075909267, -7076.450535827939, -2337.0313450135404, -5819.835462550576, -17462.434466175375, -8563.422687461698, 384.7629290536558, -10344.81201706076, -7245.876758799167, 23220.579114029304, -0.006, 1.01, 0.14400000000000002, 192.0, 0.0, 0.0, 0.0, 0.0, 0.0, 0.0, 0.0, 0.0, 0.0, 1.695415168884563E9, 0.0, 2023-09-22 15:39:28.884
2.0, -13915.302028095964, -17963.292355929894, 33144.865410907914, -4654.259044439679, -20390.244768887136, -20536.69339855831, 127972.38713173714, -7079.311559118219, -2331.689278088722, -5816.05801773763, -17461.719210352803, -8524.485948620551, 384.8076325425664, -10344.677906594028, -7236.489026127938, 23246.730655042014, -0.01, 1.006, 0.14400000000000002, 192.0, 127.5, 88.0, 15.5, 56.0, 2.0, 64.0, 0.0, 0.0, 0.0, 1.695415168884579E9, 0.0, 2023-09-22 15:39:28.884
4.0, -13916.330208340909, -17967.27096644294, 33108.92380582378, -4667.893608557416, -20392.345832865936, -20534.97231423525, 127918.20650317747, -7083.178410908987, -2339.1324089923396, -5829.044381266163, -17470.950480812848, -8561.947472327647, 375.6434173158905, -10351.294022952798, -7249.43068616756, 23219.796802973367, -0.01, 1.006, 0.14400000000000002, 192.0, 0.0, 0.0, 0.0, 0.0, 0.0, 0.0, 0.0, 0.0, 0.0, 1.695415168884583E9, 0.0, 2023-09-22 15:39:28.884
6.0, -13914.877344951314, -17966.533358875913, 33145.31244579702, -4651.196855449302, -20393.821047999983, -20534.458224112775, 127972.81181488179, -7080.49620157435, -2341.5463973935125, -5815.141596214962, -17472.35864071353, -8547.552948898428, 377.1186324499408, -10346.175473472533, -7240.28882268534, 23218.65686400615, -0.01, 1.006, 0.14400000000000002, 192.0, 0.0, 0.0, 0.0, 0.0, 0.0, 0.0, 0.0, 0.0, 0.0, 1.695415168884587E9, 0.0, 2023-09-22 15:39:28.884
8.0, -13913.960923428647, -17964.722867575034, 33106.912148822805, -4670.754631847695, -20391.429411343266, -20539.219145681756, 127924.44263988051, -7086.374710366096, -2339.534740392535, -5821.802416062644, -17473.632690147482, -8561.343975227353, 379.8455452734882, -10354.177397987532, -7246.592014621737, 23227.485803065993, -0.01, 1.006, 0.14400000000000002, 192.0, 0.0, 0.0, 0.0, 0.0, 0.0, 0.0, 0.0, 0.0, 0.0, 1.695415168884592E9, 0.0, 2023-09-22 15:39:28.884
10.0, -13914.653827506761, -17964.991088508497, 33147.18999233127, -4651.934463016327, -20392.211722399203, -20536.53693634712, 127973.72823640445, -7082.68667253097, -2334.9749845236524, -5820.416607906414, -17471.889254079968, -8551.59861464484, 382.7065685637675, -10351.606947375172, -7242.680459342058, 23221.763756485434, -0.01, 1.006, 0.14400000000000002, 192.0, 0.0, 0.0, 0.0, 0.0, 0.0, 0.0, 0.0, 0.0, 0.0, 1.695415168884596E9, 0.0, 2023-09-22 15:39:28.884
12.0, -13918.051292663968, -17969.908472288666, 33111.047221547036, -4671.358128947989, -20392.725812521676, -20539.06268347057, 127917.96063398846, -7083.938370220468, -2337.053696757996, -5819.053151494641, -17474.63851864797, -8558.684117637173, 382.12542320792954, -10349.014145018356, -7245.407372165606, 23224.065986164333, -0.008, 1.006, 0.148, 192.0, 127.5, 96.0, 15.5, 56.0, 2.0, 80.0, 0.0, 0.0, 0.0, 1.6954151688846E9, 0.0, 2023-09-22 15:39:28.884
14.0, -13919.884135709302, -17971.629556611726, 33153.403777289845, -4649.364012403967, -20396.145629423336, -20541.320209660556, 127977.39392249513, -7083.40192835354, -2342.239301471627, -5818.248488694249, -17481.098172795555, -8554.280823979476, 370.41310911334864, -10352.769238086848, -7246.4355524105495, 23211.39254705817, -0.008, 1.006, 0.148, 192.0, 0.0, 0.0, 0.0, 0.0, 0.0, 0.0, 0.0, 0.0, 0.0, 1.695415168884605E9, 0.0, 2023-09-22 15:39:28.884
16.0, -13917.023112419023, -17969.997879266488, 33118.53505593957, -4667.871256812961, -20391.250597387625, -20541.610782338477, 127914.3396513867, -7086.553524321738, -2336.6513653578004, -5820.081331739585, -17477.0748587936, -8557.812399603416, 385.23231568721724, -10350.981098530425, -7252.559930391304, 23226.859954221243, -0.008, 1.006, 0.148, 192.0, 0.0, 0.0, 0.0, 0.0, 0.0, 0.0, 0.0, 0.0, 0.0, 1.69541516894413E9, 0.0, 2023-09-22 15:39:28.944
18.0, -13915.682007751706, -17966.6898210871, 33162.72445472771, -4644.647794323897, -20390.848265987428, -20541.566078849566, 127972.78946313733, -7082.887838231068, -2336.6737171022555, -5823.299982941149, -17478.013632060723, -8552.671498378695, 384.58411509801334, -10354.132694498623, -7246.234386710452, 23194.069945105308, -0.008, 1.006, 0.148, 192.0, 0.0, 0.0, 0.0, 0.0, 0.0, 0.0, 0.0, 0.0, 0.0, 1.695415168944142E9, 0.0, 2023-09-22 15:39:28.944
20.0, -13910.474051293619, -17963.784094307914, 33115.07053554899, -4667.960663790782, -20387.98724269715, -20542.370741649956, 127908.05881119476, -7084.0724806871995, -2331.957499022186, -5810.492433368258, -17472.55980641363, -8544.468408163597, 388.40626339987085, -10345.23670020541, -7244.714468087491, 23206.855142933746, -0.008, 1.006, 0.148, 192.0, 0.0, 0.0, 0.0, 0.0, 0.0, 0.0, 0.0, 0.0, 0.0, 1.695415168944146E9, 0.0, 2023-09-22 15:39:28.944
22.0, -13922.923972955225, -17976.077553758332, 33160.84690819346, -4652.001518249693, -20397.822010257485, -20547.377532407943, 127987.09457958872, -7084.206591153931, -2341.412286926781, -5820.550718373146, -17482.327518740596, -8547.888225065259, 379.97965574022004, -10352.456313664474, -7250.078886756764, 23165.057380802322, -0.008, 1.01, 0.148, 192.0, 127.5, 96.0, 15.5, 72.0, 2.0, 80.0, 0.0, 0.0, 0.0, 1.695415168944149E9, 0.0, 2023-09-22 15:39:28.944
24.0, -13917.112519396846, -17970.80254206688, 33119.47382920669, -4675.224980738757, -20397.419678857288, -20550.484424887232, 127936.93726503103, -7092.633198813582, -2342.663984616278, -5818.650820094445, -17485.03207981969, -8534.007791758513, 375.755176038167, -10355.47379916594, -7260.137171761653, 23225.87647746521, -0.008, 1.01, 0.148, 192.0, 0.0, 0.0, 0.0, 0.0, 0.0, 0.0, 0.0, 0.0, 0.0, 1.695415168944152E9, 0.0, 2023-09-22 15:39:28.944
26.0, -13918.028940919512, -17972.568329878846, 33156.22009709121, -4660.226960209246, -20398.447859102234, -20550.573831865055, 127965.83807061173, -7086.374710366096, -2339.8476648149094, -5825.15517773094, -17484.026251319203, -8545.317774452898, 375.3751963824268, -10358.245415478399, -7262.014718295899, 23177.619061186204, -0.008, 1.01, 0.148, 192.0, 0.0, 0.0, 0.0, 0.0, 0.0, 0.0, 0.0, 0.0, 0.0, 1.695415168944155E9, 0.0, 2023-09-22 15:39:28.944
28.0, -13919.906487453758, -17972.300108945383, 33117.819800116995, -4678.398928451411, -20397.151457923825, -20553.12193073296, 127929.87411378314, -7090.8227075127015, -2339.668850859267, -5816.549756115646, -17483.489809452272, -8528.218689944588, 374.1011469484743, -10354.28915670981, -7262.215883995997, 23218.433346561593, -0.008, 1.01, 0.148, 192.0, 0.0, 0.0, 0.0, 0.0, 0.0, 0.0, 0.0, 0.0, 0.0, 1.695415168944158E9, 0.0, 2023-09-22 15:39:28.944
30.0, -13926.276734623521, -17979.743239849002, 33142.6749399513, -4668.586512635531, -20404.013443471606, -20561.1015035035, 127961.01009380938, -7089.906285990034, -2347.2237404851608, -5819.477834639291, -17490.307091511142, -8562.863893850314, 359.9524927082649, -10356.703145110983, -7269.234331754963, 23163.403351712626, -0.008, 1.01, 0.148, 192.0, 0.0, 0.0, 0.0, 0.0, 0.0, 0.0, 0.0, 0.0, 0.0, 1.695415169004007E9, 0.0, 2023-09-22 15:39:29.004
32.0, -13922.745158999582, -17979.162094493164, 33125.66526242081, -4686.825536111061, -20397.33027187947, -20562.844939571016, 127938.65834935408, -7094.980131981389, -2351.917606820775, -5828.44088416587, -17496.923207869913, -8542.926137796181, 369.8990189908766, -10367.409630705075, -7275.671634158091, 23219.372119828717, -0.002, 1.002, 0.14200000000000002, 192.0, 127.5, 120.0, 15.5, 40.0, 2.0, 56.0, 0.0, 0.0, 0.0, 1.695415169004021E9, 0.0, 2023-09-22 15:39:29.004
34.0, -13923.371007844331, -17977.485713659014, 33136.50585848163, -4670.709928358785, -20398.09023119095, -20560.07332325856, 127943.41927092306, -7086.464117343917, -2339.758257837088, -5820.617773606512, -17487.60253043205, -8560.74047812706, 378.68325456181225, -10356.501979410885, -7268.742593376946, 23143.15267123612, -0.002, 1.002, 0.14200000000000002, 192.0, 0.0, 0.0, 0.0, 0.0, 0.0, 0.0, 0.0, 0.0, 0.0, 1.695415169004024E9, 0.0, 2023-09-22 15:39:29.004
36.0, -13923.952153200169, -17978.200969481586, 33129.66622467831, -4685.864411099483, -20399.878370747374, -20564.96835529427, 127950.81769833776, -7095.136594192576, -2347.201388740705, -5814.962782259319, -17496.36441425853, -8527.59284109984, 368.51321083464757, -10360.122962012645, -7272.117706789698, 23218.07571865031, -0.002, 1.002, 0.14200000000000002, 192.0, 0.0, 0.0, 0.0, 0.0, 0.0, 0.0, 0.0, 0.0, 0.0, 1.695415169004028E9, 0.0, 2023-09-22 15:39:29.004
38.0, -13930.367103858842, -17982.22428348354, 33121.17256178529, -4684.433899454343, -20404.415774871803, -20565.191872738826, 127946.23559072443, -7095.0248354703, -2351.112944020384, -5813.062883980619, -17501.728832927805, -8565.657861907228, 366.30038813357214, -10360.167665501556, -7281.639549927659, 23178.468427475505, -0.002, 1.002, 0.14200000000000002, 192.0, 0.0, 0.0, 0.0, 0.0, 0.0, 0.0, 0.0, 0.0, 0.0, 1.695415169004031E9, 0.0, 2023-09-22 15:39:29.004
40.0, -13931.194118403688, -17986.94050156361, 33111.00251805813, -4692.614637924986, -20402.448821359732, -20567.02471578416, 127943.08399475623, -7098.26583841632, -2359.2266272576603, -5820.215442206317, -17509.864867909535, -8536.93587028216, 351.90586470435437, -10361.911101569069, -7289.373253509195, 23216.421689560615, -0.002, 1.002, 0.14200000000000002, 192.0, 0.0, 0.0, 0.0, 0.0, 0.0, 0.0, 0.0, 0.0, 0.0, 1.695415169004034E9, 0.0, 2023-09-22 15:39:29.004
42.0, -13929.875365480824, -17980.257329971475, 33110.22020700219, -4690.938257090838, -20400.906550992317, -20564.118989004968, 127935.61851210815, -7093.817841269713, -2352.364641709881, -5815.700389826345, -17506.221533563323, -8562.640376405761, 367.4850305897034, -10357.776028844837, -7287.5180587194045, 23160.475273188982, -0.002, 1.002, 0.14200000000000002, 192.0, 0.0, 0.0, 15.5, 64.0, 2.0, 48.0, 0.0, 0.0, 0.0, 1.695415169004037E9, 0.0, 2023-09-22 15:39:29.004
44.0, -13925.740292756593, -17979.296204959894, 33121.12785829638, -4689.127765789958, -20407.276798162082, -20571.852692586504, 127959.1548990196, -7107.228887942897, -2354.08572603294, -5814.493395625758, -17511.205972576856, -8533.44899814713, 356.3538618509605, -10363.43102019203, -7290.5131924764155, 23201.31191030883, -0.002, 1.002, 0.14200000000000002, 192.0, 0.0, 0.0, 0.0, 0.0, 0.0, 0.0, 0.0, 0.0, 0.0, 1.69541516900404E9, 0.0, 2023-09-22 15:39:29.004
46.0, -13917.157222885755, -17968.768533321447, 33114.44468670424, -4684.433899454343, -20399.476039347177, -20564.38720993843, 127923.83914278021, -7098.422300627506, -2347.0896300184286, -5805.887974010465, -17503.740489928783, -8558.818228103904, 375.8222312715329, -10354.646784621094, -7297.710454191024, 23173.551043695337, -0.002, 1.002, 0.14200000000000002, 192.0, 0.0, 0.0, 0.0, 0.0, 0.0, 0.0, 0.0, 0.0, 0.0, 1.695415169064231E9, 0.0, 2023-09-22 15:39:29.064
48.0, -13923.482766566607, -17977.731582848024, 33138.025777104594, -4680.343530219023, -20404.03579521606, -20571.807989097597, 127964.56402117778, -7102.155041951542, -2345.927339306753, -5807.00556123323, -17504.723966684815, -8539.30515519442, 370.0107777131531, -10354.825598576737, -7289.239143042463, 23208.17389585661, -0.002, 1.002, 0.14200000000000002, 192.0, 0.0, 0.0, 0.0, 0.0, 0.0, 0.0, 0.0, 0.0, 0.0, 1.695415169064242E9, 0.0, 2023-09-22 15:39:29.064
50.0, -13926.544955556985, -17985.286472473916, 33110.488427935656, -4692.59228618053, -20404.773402783085, -20577.910015333895, 127911.85860775216, -7108.234716443386, -2353.7728016105657, -5814.649857836946, -17510.110737098545, -8572.542199199463, 361.6959287757789, -10361.799342846793, -7290.557895965326, 23174.981555340477, -0.002, 1.002, 0.14200000000000002, 192.0, 0.0, 0.0, 0.0, 0.0, 0.0, 0.0, 0.0, 0.0, 0.0, 1.695415169064246E9, 0.0, 2023-09-22 15:39:29.064
52.0, -13925.561478800952, -17982.783077094922, 33142.22790506219, -4678.443631940321, -20403.09702194894, -20577.686497889343, 127961.99357056542, -7108.7264548214025, -2352.2528829876046, -5809.173680445395, -17506.355644030053, -8545.273070963987, 361.4053560978599, -10363.743944614405, -7282.175991794586, 23186.313889779318, -0.002, 1.008, 0.148, 192.0, 127.5, 120.0, 15.5, 64.0, 2.0, 80.0, 0.0, 0.0, 0.0, 1.695415169064249E9, 0.0, 2023-09-22 15:39:29.064
54.0, -13923.818042733437, -17978.245672970497, 33103.53703541005, -4689.083062301047, -20399.900722491828, -20572.277375731155, 127910.38339261811, -7103.8537745301455, -2352.409345198792, -5806.357360644026, -17504.343987029075, -8560.02522230449, 358.74549850767835, -10357.597214889194, -7291.295503532351, 23179.138979809166, -0.002, 1.008, 0.148, 192.0, 0.0, 0.0, 0.0, 0.0, 0.0, 0.0, 0.0, 0.0, 0.0, 1.695415169064253E9, 0.0, 2023-09-22 15:39:29.064
56.0, -13929.696551525183, -17986.51581841896, 33141.26678005061, -4676.4319749393435, -20403.47700160468, -20578.915843834384, 127977.93036436205, -7107.295943176263, -2351.045888787018, -5812.526442113691, -17504.813373662637, -8543.93196629667, 360.13130666390737, -10357.57486314474, -7284.813497640312, 23180.25656703193, -0.002, 1.008, 0.148, 192.0, 0.0, 0.0, 0.0, 0.0, 0.0, 0.0, 0.0, 0.0, 0.0, 1.695415169064256E9, 0.0, 2023-09-22 15:39:29.064
58.0, -13923.885097966802, -17978.111562503764, 33090.72948583716, -4695.5650681930865, -20404.46047836071, -20582.11214329149, 127903.49905532588, -7111.721588578414, -2351.850551587409, -5809.106625212029, -17502.265274794732, -8563.959129328625, 358.2314083852063, -10357.351345700186, -7295.519983234404, 23177.55200595284, -0.002, 1.008, 0.148, 192.0, 0.0, 0.0, 0.0, 0.0, 0.0, 0.0, 0.0, 0.0, 0.0, 1.695415169064259E9, 0.0, 2023-09-22 15:39:29.064
60.0, -13925.829699734415, -17979.02798402643, 33132.46019273522, -4675.023815038659, -20405.421603372288, -20582.894454347428, 127975.6504864276, -7108.480585632395, -2352.074069031962, -5810.023046734696, -17502.89112363948, -8542.590861629351, 351.4141263263376, -10360.1453137571, -7295.609390212226, 23169.43832271556, -0.002, 1.008, 0.148, 192.0, 0.0, 0.0, 0.0, 0.0, 0.0, 0.0, 0.0, 0.0, 0.0, 1.695415169124582E9, 0.0, 2023-09-22 15:39:29.124
62.0, -13919.146528142277, -17970.444914155592, 33087.55553812451, -4692.480527458254, -20396.257388145612, -20576.16657926638, 127903.1414274146, -7107.005370498344, -2348.6989556192107, -5806.603229833035, -17498.71134742634, -8542.121474995789, 353.24696937167283, -10355.317336954753, -7296.145832079153, 23188.146732824654, -0.004, 0.996, 0.152, 192.0, 127.5, 112.0, 15.5, 16.0, 2.0, 96.0, 0.0, 0.0, 0.0, 1.695415169124595E9, 0.0, 2023-09-22 15:39:29.124
64.0, -13927.304914868464, -17980.32438520484, 33135.298864281045, -4667.938312046327, -20404.013443471606, -20580.748686879717, 127971.53776544784, -7104.300809419252, -2347.916644563275, -5800.523555341191, -17495.89502762497, -8535.080675492367, 363.26055088765037, -10347.181301973022, -7286.132250563175, 23148.740607349948, -0.004, 0.996, 0.152, 192.0, 0.0, 0.0, 0.0, 0.0, 0.0, 0.0, 0.0, 0.0, 0.0, 1.695415169124599E9, 0.0, 2023-09-22 15:39:29.124
66.0, -13916.106690896357, -17970.534321133415, 33098.93257605226, -4685.797355866117, -20390.736507265152, -20572.143265264425, 127918.63118632212, -7104.189050696976, -2347.693127118722, -5807.251430422239, -17496.565579958627, -8531.504396379518, 356.1303444064074, -10349.95291828548, -7289.887343631666, 23197.44505851806, -0.004, 0.996, 0.152, 192.0, 0.0, 0.0, 0.0, 0.0, 0.0, 0.0, 0.0, 0.0, 0.0, 1.695415169124602E9, 0.0, 2023-09-22 15:39:29.124
68.0, -13920.577039787417, -17972.90360604568, 33142.563181229016, -4661.612768365475, -20392.211722399203, -20567.762323351184, 127975.09169281623, -7090.8227075127015, -2336.561958379979, -5796.120261683495, -17488.18367578789, -8540.065114505902, 370.16723992434027, -10341.28044143682, -7280.186686538063, 23151.15459575112, -0.004, 0.996, 0.152, 192.0, 0.0, 0.0, 0.0, 0.0, 0.0, 0.0, 0.0, 0.0, 0.0, 1.695415169124605E9, 0.0, 2023-09-22 15:39:29.124
70.0, -13918.27481010852, -17967.18155946512, 33087.756703824605, -4688.993655323226, -20391.921149721285, -20570.042201285625, 127917.31243339926, -7100.702178561947, -2344.27331021706, -5796.43318610587, -17494.41981249092, -8531.794969057437, 362.47823983171463, -10343.247394948889, -7282.8688958727, 23203.45767777654, -0.004, 0.996, 0.152, 192.0, 0.0, 0.0, 0.0, 0.0, 0.0, 0.0, 0.0, 0.0, 0.0, 1.695415169124608E9, 0.0, 2023-09-22 15:39:29.124
72.0, -13920.308818853953, -17972.613033367757, 33121.8207623745, -4669.480582413743, -20395.22920790067, -20575.339564721533, 127953.63401813913, -7097.014140726822, -2341.144065993317, -5797.170793672895, -17494.79979214666, -8558.572358914895, 362.7911642540889, -10343.38150541562, -7284.433517984572, 23139.48698514545, 0.002, 0.992, 0.154, 192.0, 0.0, 8.0, 15.5, 0.0, 2.0, 104.0, 0.0, 0.0, 0.0, 1.695415169124612E9, 0.0, 2023-09-22 15:39:29.124
74.0, -13914.027978662012, -17970.288451944405, 33086.34854392392, -4687.853716356006, -20391.474114832177, -20573.93140482085, 127912.12682868564, -7102.579725096193, -2339.691202603722, -5791.940485470353, -17491.491733967272, -8539.036934260957, 359.9971961971755, -10341.61571760365, -7288.993273853454, 23188.01262235792, 0.002, 0.992, 0.154, 192.0, 0.0, 0.0, 0.0, 0.0, 0.0, 0.0, 0.0, 0.0, 0.0, 1.695415169124615E9, 0.0, 2023-09-22 15:39:29.124
76.0, -13918.587734530895, -17971.584853122815, 33126.60403568793, -4665.5690271340645, -20396.615016056898, -20576.92653857786, 127947.77786109185, -7102.69148381847, -2341.725211349155, -5791.091119181052, -17491.69289966737, -8549.408143688219, 360.4218793418264, -10338.352362913176, -7289.2838465313735, 23137.095348488732, 0.002, 0.992, 0.154, 192.0, 0.0, 0.0, 0.0, 0.0, 0.0, 0.0, 0.0, 0.0, 0.0, 1.695415169184905E9, 0.0, 2023-09-22 15:39:29.184
78.0, -13914.206792617655, -17965.54988211988, 33113.59532041494, -4682.981036064749, -20395.251559645123, -20575.674840888365, 127932.26575043987, -7106.088948975676, -2344.005089283596, -5791.7616715147105, -17495.78326890269, -8520.0603032184, 362.6347020429018, -10341.660421092562, -7295.3858727676725, 23215.013529659933, 0.002, 0.992, 0.154, 192.0, 0.0, 0.0, 0.0, 0.0, 0.0, 0.0, 0.0, 0.0, 0.0, 1.695415169184919E9, 0.0, 2023-09-22 15:39:29.184
80.0, -13916.46431880764, -17964.74521931949, 33121.77605888558, -4673.772117349162, -20394.446896844733, -20575.4066199549, 127941.02763426634, -7098.891687261068, -2338.2606909585825, -5784.653816777924, -17491.402326989453, -8541.07094300639, 362.90292297636546, -10330.909232009559, -7299.252724558441, 23164.498587190938, 0.002, 0.992, 0.154, 192.0, 0.0, 0.0, 0.0, 0.0, 0.0, 0.0, 0.0, 0.0, 0.0, 1.695415169184922E9, 0.0, 2023-09-22 15:39:29.184
82.0, -13909.490574537585, -17958.97846925002, 33107.69445987874, -4687.518440189176, -20388.009594441606, -20569.841035585527, 127907.00827920536, -7101.953876251445, -2338.8418363144206, -5786.732529012266, -17496.83380089209, -8523.077788719867, 363.014681698642, -10336.117188467644, -7309.78039619689, 23211.59371275827, 0.004, 1.002, 0.152, 192.0, 0.0, 16.0, 15.5, 40.0, 2.0, 96.0, 0.0, 0.0, 0.0, 1.695415169184926E9, 0.0, 2023-09-22 15:39:29.184
84.0, -13912.239839105589, -17960.945422762088, 33119.429125717776, -4672.431012681844, -20389.663623531298, -20575.31721297708, 127923.07918346873, -7099.6292948280925, -2336.472551402158, -5776.070746907085, -17490.50825721124, -8538.142864482745, 371.9777312252201, -10330.95393549847, -7308.68516071858, 23139.934020034554, 0.004, 1.002, 0.152, 192.0, 0.0, 0.0, 0.0, 0.0, 0.0, 0.0, 0.0, 0.0, 0.0, 1.695415169184929E9, 0.0, 2023-09-22 15:39:29.184
86.0, -13909.512926282041, -17961.8394925403, 33117.261006505614, -4677.706024373296, -20385.193274640238, -20575.78659961064, 127932.69043358452, -7102.803242540746, -2339.17711248125, -5777.434203318859, -17495.313882269133, -8500.368416353276, 372.29065564759446, -10335.178415200522, -7312.104977620242, 23205.536390010882, 0.004, 1.002, 0.152, 192.0, 0.0, 0.0, 0.0, 0.0, 0.0, 0.0, 0.0, 0.0, 0.0, 1.695415169184932E9, 0.0, 2023-09-22 15:39:29.184
88.0, -13910.965789671636, -17964.812274552856, 33123.85477111993, -4673.280378971145, -20387.69667001923, -20580.4581142018, 127921.67102356805, -7102.847946029658, -2337.1878072247277, -5777.47890680777, -17494.330405513098, -8526.899937021726, 375.0846237045078, -10334.887842522603, -7315.502442777449, 23147.198336982532, 0.004, 1.002, 0.152, 192.0, 0.0, 0.0, 0.0, 0.0, 0.0, 0.0, 0.0, 0.0, 0.0, 1.695415169184935E9, 0.0, 2023-09-22 15:39:29.184
90.0, -13905.243743091076, -17957.615012838247, 33127.87808512188, -4672.54277140412, -20382.7122310057, -20577.12770427796, 127926.83427653722, -7098.489355860872, -2337.1654554802726, -5777.300092852127, -17496.140896813977, -8496.143936651222, 375.53165859361394, -10337.61475534615, -7313.5801927542925, 23196.930968395587, 0.004, 1.002, 0.152, 192.0, 0.0, 0.0, 0.0, 0.0, 0.0, 0.0, 0.0, 0.0, 0.0, 1.695415169244169E9, 0.0, 2023-09-22 15:39:29.244
92.0, -13909.222353604122, -17959.827835539323, 33125.732317654176, -4670.732280103241, -20380.4100013268, -20576.72537287776, 127916.12779094312, -7096.276533159797, -2333.9021007897977, -5773.433241061359, -17490.41885023342, -8527.391675399742, 397.4810716487255, -10331.020990731835, -7309.378064796694, 23148.941773050043, -0.006, 1.01, 0.15, 192.0, 127.5, 104.0, 15.5, 72.0, 2.0, 88.0, 0.0, 0.0, 0.0, 1.695415169244184E9, 0.0, 2023-09-22 15:39:29.244
94.0, -13902.427423289708, -17953.61405058075, 33139.478640494184, -4666.530152145642, -20376.811370469495, -20571.629175141952, 127932.06458473977, -7097.304713404741, -2336.494903146613, -5772.673281749879, -17494.442164235374, -8496.859192473792, 395.4247111588372, -10330.99863898738, -7308.327532807295, 23198.92027365211, -0.006, 1.01, 0.15, 192.0, 0.0, 0.0, 0.0, 0.0, 0.0, 0.0, 0.0, 0.0, 0.0, 1.695415169244188E9, 0.0, 2023-09-22 15:39:29.244
96.0, -13900.549876755462, -17951.06595171284, 33131.29790202354, -4663.937349788827, -20375.827893713464, -20572.4561896868, 127896.6370697781, -7090.286265645775, -2332.8739205448533, -5765.721889224278, -17487.826047876602, -8519.345047395831, 400.207984472273, -10319.71100803745, -7309.713340963524, 23136.514203132894, -0.006, 1.01, 0.15, 192.0, 0.0, 0.0, 0.0, 0.0, 0.0, 0.0, 0.0, 0.0, 0.0, 1.695415169244191E9, 0.0, 2023-09-22 15:39:29.244
98.0, -13903.32149306792, -17960.811312295355, 33148.39698653186, -4660.226960209246, -20380.208835626705, -20580.346355479523, 127935.86438129717, -7096.678864559993, -2333.522121134057, -5770.348700326526, -17490.999995589256, -8489.505468547997, 399.850356560988, -10326.483586607408, -7306.248820572951, 23160.788197611357, -0.006, 1.01, 0.15, 192.0, 0.0, 0.0, 0.0, 0.0, 0.0, 0.0, 0.0, 0.0, 0.0, 1.695415169244194E9, 0.0, 2023-09-22 15:39:29.244
100.0, -13899.253475577054, -17957.793826793888, 33117.14924778334, -4664.697309100307, -20375.716134991188, -20577.395925211422, 127890.78091273081, -7095.382463381585, -2332.583347866934, -5764.984281657253, -17492.631672934494, -8513.533593837452, 401.9290687953316, -10327.869394763637, -7314.630724743692, 23144.694941603535, -0.006, 1.01, 0.15, 192.0, 0.0, 0.0, 0.0, 0.0, 0.0, 0.0, 0.0, 0.0, 0.0, 1.695415169244197E9, 0.0, 2023-09-22 15:39:29.244
102.0, -13899.186420343689, -17956.050390726377, 33155.61659999092, -4647.106486213981, -20377.75014373662, -20578.78173336765, 127946.57086689126, -7093.4602133584285, -2328.5823856094344, -5764.783115957155, -17489.45772522184, -8485.1021748903, 408.2322607317282, -10324.583688328707, -7304.192460083063, 23163.090427290255, -0.008, 1.004, 0.154, 192.0, 127.5, 96.0, 15.5, 48.0, 2.0, 104.0, 0.0, 0.0, 0.0, 1.695415169244201E9, 0.0, 2023-09-22 15:39:29.244
104.0, -13902.27096107852, -17961.191291951098, 33120.25614026262, -4661.657471854386, -20381.192312382736, -20583.430896214355, 127883.87422369412, -7098.3328936496855, -2331.8680920443644, -5765.721889224278, -17492.94459735687, -8507.677436790162, 398.93393503832044, -10328.383484886108, -7316.217698600019, 23158.083636532265, -0.008, 1.004, 0.154, 192.0, 0.0, 0.0, 0.0, 0.0, 0.0, 0.0, 0.0, 0.0, 0.0, 1.695415169244204E9, 0.0, 2023-09-22 15:39:29.244
106.0, -13902.338016311887, -17963.158245463164, 33156.354207557946, -4637.91991924285, -20381.214664127194, -20584.88375960395, 127959.6019339087, -7096.4553471154395, -2334.6844118457334, -5769.722851481778, -17495.112716569034, -8496.00982618449, 392.7648535686557, -10326.528290096318, -7308.975733396499, 23176.367363496705, -0.008, 1.004, 0.154, 192.0, 0.0, 0.0, 0.0, 0.0, 0.0, 0.0, 0.0, 0.0, 0.0, 1.695415169304952E9, 0.0, 2023-09-22 15:39:29.304
108.0, -13896.41480403123, -17957.70441981607, 33109.39319245734, -4655.890721784916, -20373.995050668127, -20585.330794493057, 127868.04918861977, -7098.981094238889, -2331.666926344267, -5764.716060723789, -17490.88823686698, -8515.008808971503, 403.04665601809694, -10326.550641840773, -7314.2283933434965, 23173.8192646288, -0.008, 1.004, 0.154, 192.0, 0.0, 0.0, 0.0, 0.0, 0.0, 0.0, 0.0, 0.0, 0.0, 1.695415169304964E9, 0.0, 2023-09-22 15:39:29.304
110.0, -13903.924990168214, -17971.204873467075, 33164.244373350666, -4637.741105287208, -20380.83468447145, -20594.40560274191, 127938.12190748715, -7098.779928538791, -2333.946804278708, -5772.025081160675, -17492.810486890136, -8486.622093513262, 394.3518274249825, -10330.66336282055, -7307.411111284628, 23146.8630608157, -0.008, 1.004, 0.154, 192.0, 0.0, 0.0, 0.0, 0.0, 0.0, 0.0, 0.0, 0.0, 0.0, 1.695415169304967E9, 0.0, 2023-09-22 15:39:29.304
112.0, -13894.604312730351, -17961.101884973275, 33115.62932916037, -4650.593358349009, -20377.727791992165, -20588.974128839272, 127893.32901159872, -7097.349416893651, -2336.6290136133453, -5779.043528919641, -17492.92224561241, -8491.762994737983, 390.2838099341166, -10334.530214611319, -7309.892154919166, 23185.620985701204, -0.004, 1.002, 0.166, 192.0, 127.5, 112.0, 15.5, 40.0, 2.5, 24.0, 0.0, 0.0, 0.0, 1.695415169304971E9, 0.0, 2023-09-22 15:39:29.304
114.0, -13898.98525464359, -17966.198082709085, 33145.33479754148, -4633.673087796341, -20381.639347271845, -20596.484314976253, 127939.23949470992, -7097.729396549392, -2331.0634292439736, -5762.279720578161, -17490.485905466783, -8489.840744714826, 390.8873070344099, -10327.645877319084, -7305.019474627909, 23160.385866211163, -0.004, 1.002, 0.166, 192.0, 0.0, 0.0, 0.0, 0.0, 0.0, 0.0, 0.0, 0.0, 0.0, 1.695415169304974E9, 0.0, 2023-09-22 15:39:29.304
116.0, -13897.778260443005, -17964.722867575034, 33106.55452091152, -4654.169637461858, -20375.202044868714, -20598.54067546614, 127864.53996474028, -7097.975265738401, -2332.762161822577, -5770.371052070982, -17494.062184579634, -8505.464614089085, 387.7804145551222, -10335.714857067449, -7313.155509609642, 23171.695848905547, -0.004, 1.002, 0.166, 192.0, 0.0, 0.0, 0.0, 0.0, 0.0, 0.0, 0.0, 0.0, 0.0, 1.695415169304978E9, 0.0, 2023-09-22 15:39:29.304
118.0, -13902.941513412181, -17969.863768799754, 33149.44751852125, -4630.700305783786, -20384.142742650838, -20602.139306323446, 127929.78470680532, -7093.415509869517, -2332.538644378024, -5768.717022981289, -17493.816315390624, -8513.265372903988, 384.8076325425664, -10332.965592499446, -7309.3557130522395, 23125.807717538803, -0.004, 1.002, 0.166, 192.0, 0.0, 0.0, 0.0, 0.0, 0.0, 0.0, 0.0, 0.0, 0.0, 1.695415169304981E9, 0.0, 2023-09-22 15:39:29.304
120.0, -13898.135888354289, -17963.69468733009, 33110.57783491348, -4651.44272463831, -20382.17578913877, -20600.194704555834, 127878.7333224694, -7097.975265738401, -2333.9021007897977, -5763.3526043120155, -17495.827972391602, -8497.283875618443, 370.2342951577062, -10331.691543065494, -7318.519928278915, 23170.31004074932, -0.004, 1.002, 0.166, 192.0, 0.0, 0.0, 0.0, 0.0, 0.0, 0.0, 0.0, 0.0, 0.0, 1.695415169304984E9, 0.0, 2023-09-22 15:39:29.304
122.0, -13899.544048254973, -17967.449780398583, 33143.054919607035, -4635.170654674846, -20381.2593676161, -20602.675748190373, 127909.69048854, -7095.337759892674, -2332.829217055943, -5768.739374725745, -17496.36441425853, -8515.500547349518, 384.07002497554123, -10333.054999477268, -7319.905736435144, 23115.57061857827, -0.006, 1.008, 0.168, 192.0, 127.5, 104.0, 15.5, 64.0, 2.5, 32.0, 0.0, 0.0, 0.0, 1.695415169365103E9, 0.0, 2023-09-22 15:39:29.365
124.0, -13902.159202356244, -17968.477960643526, 33113.282395992566, -4651.420372893855, -20382.958100194704, -20603.770983668684, 127876.14052011259, -7099.137556450076, -2330.974022266152, -5762.167961855885, -17496.498524725263, -8495.49573606202, 380.87372551843237, -10327.198842429978, -7320.241012601974, 23147.444206171538, -0.006, 1.008, 0.168, 192.0, 0.0, 0.0, 0.0, 0.0, 0.0, 0.0, 0.0, 0.0, 0.0, 1.695415169365114E9, 0.0, 2023-09-22 15:39:29.365
126.0, -13906.696606480671, -17972.83655081231, 33134.44949799174, -4639.037506465615, -20387.070821174482, -20606.69906219233, 127911.16570367405, -7094.466041858917, -2337.076048502451, -5769.298168337127, -17502.913475383935, -8516.640486316739, 371.9777312252201, -10328.204670930467, -7323.437312059083, 23112.463726098984, -0.006, 1.008, 0.168, 192.0, 0.0, 0.0, 0.0, 0.0, 0.0, 0.0, 0.0, 0.0, 0.0, 1.695415169365118E9, 0.0, 2023-09-22 15:39:29.365
128.0, -13903.545010512473, -17967.472132143037, 33107.180369756265, -4654.1249339729475, -20382.287547861048, -20606.095565092037, 127885.99763941737, -7099.40577738354, -2336.6737171022555, -5760.715098466289, -17501.460611994342, -8494.355797094799, 366.34509162248276, -10329.098740708678, -7322.766759725423, 23178.423723986594, -0.006, 1.008, 0.168, 192.0, 0.0, 0.0, 0.0, 0.0, 0.0, 0.0, 0.0, 0.0, 0.0, 1.695415169365121E9, 0.0, 2023-09-22 15:39:29.365
130.0, -13910.004664660057, -17975.5411118914, 33114.84701810444, -4648.335832159023, -20384.276853117568, -20610.83413491656, 127889.75273248587, -7095.561277337227, -2336.472551402158, -5762.793810700633, -17500.857114894046, -8518.696846806628, 367.37327186742687, -10327.936449997003, -7322.453835303049, 23113.357795877197, -0.006, 1.008, 0.168, 192.0, 0.0, 0.0, 0.0, 0.0, 0.0, 0.0, 0.0, 0.0, 0.0, 1.695415169365125E9, 0.0, 2023-09-22 15:39:29.365
132.0, -13905.266094835531, -17969.03675425491, 33106.33100346696, -4662.238617210223, -20380.946443193727, -20611.12470759448, 127880.40970330355, -7096.6341610710815, -2339.2888712035265, -5766.839476447043, -17503.136992828488, -8490.734814493038, 362.88057123191015, -10331.37861864312, -7319.235184101485, 23152.406293440617, -0.002, 1.008, 0.17200000000000001, 192.0, 127.5, 120.0, 15.5, 64.0, 2.5, 48.0, 0.0, 0.0, 0.0, 1.695415169365128E9, 0.0, 2023-09-22 15:39:29.365
134.0, -13907.076586136413, -17972.50127464548, 33111.874236091884, -4661.076326498548, -20382.46636181669, -20611.571742483586, 127872.31837181073, -7089.861582501124, -2332.4492374002025, -5758.23405483175, -17496.85615263655, -8515.142919438234, 359.6395682858906, -10325.23188891791, -7320.129253879697, 23099.656176526092, -0.002, 1.008, 0.17200000000000001, 192.0, 0.0, 0.0, 0.0, 0.0, 0.0, 0.0, 0.0, 0.0, 0.0, 1.695415169365131E9, 0.0, 2023-09-22 15:39:29.365
136.0, -13905.333150068898, -17968.65677459917, 33107.29212847855, -4667.6253876239525, -20378.331289092457, -20612.599922728532, 127866.28340080779, -7098.534059349783, -2334.863225801376, -5762.302072322616, -17501.058280594145, -8484.789250467928, 357.71731826273424, -10327.04238021879, -7318.54228002337, 23132.46853738648, -0.002, 1.008, 0.17200000000000001, 192.0, 0.0, 0.0, 0.0, 0.0, 0.0, 0.0, 0.0, 0.0, 0.0, 1.695415169425469E9, 0.0, 2023-09-22 15:39:29.425
138.0, -13915.547897284974, -17977.530417147926, 33106.4651139337, -4665.501971900699, -20382.7122310057, -20617.83023093107, 127870.41847353203, -7098.288190160774, -2337.9701182806634, -5765.319557824083, -17504.053414351158, -8513.913573493192, 362.6570537873571, -10330.864528520648, -7324.286678348384, 23086.312185086274, -0.002, 1.008, 0.17200000000000001, 192.0, 0.0, 0.0, 0.0, 0.0, 0.0, 0.0, 0.0, 0.0, 0.0, 1.695415169425483E9, 0.0, 2023-09-22 15:39:29.425
140.0, -13913.37977807281, -17973.95413803508, 33109.281433735065, -4667.088945757026, -20382.533417050054, -20620.89241992145, 127883.04720914927, -7103.473794874406, -2339.6241473703562, -5760.782153699655, -17506.646216707974, -8487.113831891278, 357.2479316291728, -10327.489415107897, -7322.140910880675, 23141.900973546624, -0.002, 1.008, 0.17200000000000001, 192.0, 0.0, 0.0, 0.0, 0.0, 0.0, 0.0, 0.0, 0.0, 0.0, 1.695415169425486E9, 0.0, 2023-09-22 15:39:29.425
142.0, -13912.217487361133, -17969.8414170553, 33084.09101773394, -4672.252198726202, -20382.08638216095, -20621.071233877094, 127837.38259522709, -7102.579725096193, -2339.1994642257055, -5762.749107211722, -17503.718138184326, -8513.600649070817, 357.35969035144933, -10325.030723217813, -7328.041771416876, 23091.274272355353, -0.004, 0.998, 0.176, 192.0, 127.5, 112.0, 15.5, 24.0, 2.5, 64.0, 0.0, 0.0, 0.0, 1.69541516942549E9, 0.0, 2023-09-22 15:39:29.425
144.0, -13911.479879794108, -17974.915263046656, 33109.303785479526, -4670.218189980768, -20385.55090255152, -20626.41330080191, 127870.66434272104, -7107.40770189854, -2334.2820804455378, -5759.843380432532, -17502.22057130582, -8485.39274756822, 355.57155079502473, -10327.355304641165, -7327.013591171932, 23107.47928708545, -0.004, 0.998, 0.176, 192.0, 0.0, 0.0, 0.0, 0.0, 0.0, 0.0, 0.0, 0.0, 0.0, 1.695415169425493E9, 0.0, 2023-09-22 15:39:29.425
146.0, -13913.759757728549, -17972.12129498974, 33091.48944514864, -4673.325082460056, -20386.713193263196, -20626.770928713195, 127831.81701085772, -7107.184184453987, -2334.863225801376, -5755.171865841373, -17504.858077151548, -8521.155538696712, 358.9466642077761, -10324.650743562073, -7335.171977898119, 23080.299565827798, -0.004, 0.998, 0.176, 192.0, 0.0, 0.0, 0.0, 0.0, 0.0, 0.0, 0.0, 0.0, 0.0, 1.695415169425496E9, 0.0, 2023-09-22 15:39:29.425
148.0, -13916.307856596453, -17976.54694039189, 33107.470942434185, -4665.881951556439, -20388.926015964273, -20628.335550825068, 127887.40579931806, -7106.915963520523, -2343.8039235834985, -5760.111601365996, -17515.22928657881, -8495.473384317564, 352.93404494929854, -10329.702237808971, -7338.122408166219, 23118.498697101917, -0.004, 0.998, 0.176, 192.0, 0.0, 0.0, 0.0, 0.0, 0.0, 0.0, 0.0, 0.0, 0.0, 1.695415169425499E9, 0.0, 2023-09-22 15:39:29.425
150.0, -13913.580943772906, -17975.921091547145, 33076.82670078596, -4678.220114495768, -20387.495504319133, -20623.37346355599, 127823.54686540925, -7104.636085586082, -2337.791304325021, -5756.468267019781, -17509.55194348716, -8512.326599636865, 356.8679519734326, -10323.734322039405, -7345.096152436275, 23093.24122586742, -0.004, 0.998, 0.176, 192.0, 0.0, 0.0, 0.0, 0.0, 0.0, 0.0, 0.0, 0.0, 0.0, 1.695415169425502E9, 0.0, 2023-09-22 15:39:29.425
152.0, -13915.279676351509, -17977.396306681196, 33115.025832060084, -4668.92178880236, -20388.83660898645, -20627.352074069033, 127885.32708708372, -7105.999541997856, -2342.015784027074, -5757.094115864529, -17513.53055400021, -8489.706634248094, 347.77079198012257, -10327.869394763637, -7338.54709131087, 23105.489981828927, -0.004, 1.0, 0.168, 192.0, 127.5, 112.0, 15.5, 32.0, 2.5, 32.0, 0.0, 0.0, 0.0, 1.695415169485698E9, 0.0, 2023-09-22 15:39:29.485
154.0, -13909.08824313739, -17969.75201007748, 33083.308706678, -4683.338663976034, -20379.5606350375, -20622.23352458877, 127816.6178246281, -7099.204611683442, -2338.5736153809567, -5759.217531587784, -17511.85417316606, -8519.54621309593, 363.48406833220344, -10327.71293255245, -7345.45378034756, 23095.09642065721, -0.004, 1.0, 0.168, 192.0, 0.0, 0.0, 0.0, 0.0, 0.0, 0.0, 0.0, 0.0, 0.0, 1.695415169485709E9, 0.0, 2023-09-22 15:39:29.485
156.0, -13910.876382693814, -17971.562501378357, 33128.52628571109, -4663.937349788827, -20382.287547861048, -20617.360844297513, 127866.26104906334, -7093.683730802982, -2337.8807113028424, -5751.930862895354, -17512.167097588434, -8495.003997684002, 363.2829026321057, -10324.606040073162, -7338.636498288692, 23073.124655857642, -0.004, 1.0, 0.168, 192.0, 0.0, 0.0, 0.0, 0.0, 0.0, 0.0, 0.0, 0.0, 0.0, 1.695415169485712E9, 0.0, 2023-09-22 15:39:29.485
158.0, -13909.959961171147, -17972.300108945383, 33079.68772407624, -4681.103489530503, -20380.298242604524, -20617.562009997608, 127819.92588280748, -7098.802280283247, -2338.439504914225, -5756.647080975424, -17517.777385446716, -8492.031215671446, 359.08077467450795, -10324.673095306527, -7347.152512926164, 23086.535702530826, -0.004, 1.0, 0.168, 192.0, 0.0, 0.0, 0.0, 0.0, 0.0, 0.0, 0.0, 0.0, 0.0, 1.695415169485715E9, 0.0, 2023-09-22 15:39:29.485
160.0, -13911.189307116189, -17976.859864814265, 33115.38345997137, -4660.383422420433, -20378.688917003743, -20618.50078326473, 127864.24939206237, -7094.734262792381, -2335.109094990384, -5742.610185457491, -17513.396443533475, -8482.889352189226, 366.72507127822297, -10319.129862681611, -7339.999954700465, 23062.485225496916, -0.004, 1.0, 0.168, 192.0, 0.0, 0.0, 0.0, 0.0, 0.0, 0.0, 0.0, 0.0, 0.0, 1.695415169485719E9, 0.0, 2023-09-22 15:39:29.485
162.0, -13913.916219939736, -17980.838475327313, 33072.33400015045, -4682.846925598017, -20381.996975183127, -20623.865201934004, 127820.52937990778, -7103.831422785691, -2343.312185205482, -5756.848246675521, -17523.81235644965, -8489.192544125623, 359.05842293005264, -10330.462197120452, -7348.31480363784, 23091.922472944556, -0.004, 1.0, 0.162, 192.0, 127.5, 112.0, 15.5, 32.0, 2.5, 8.0, 0.0, 0.0, 0.0, 1.695415169485722E9, 0.0, 2023-09-22 15:39:29.485
164.0, -13916.12904264081, -17977.55276889238, 33108.90145407933, -4662.551541632598, -20387.04846943003, -20623.2170013448, 127865.43403451849, -7101.59624834016, -2343.2227782276605, -5753.093153607029, -17525.66755123944, -8498.669683774673, 357.76202175164485, -10328.919926753037, -7351.399344372671, 23074.242243080407, -0.004, 1.0, 0.162, 192.0, 0.0, 0.0, 0.0, 0.0, 0.0, 0.0, 0.0, 0.0, 0.0, 1.695415169485725E9, 0.0, 2023-09-22 15:39:29.485
166.0, -13913.022150161523, -17974.51293164646, 33068.3553896374, -4676.051995283603, -20385.729716507165, -20625.47452753479, 127810.89577804755, -7103.518498363316, -2341.36758343787, -5747.259348304195, -17525.488737283795, -8493.282913360943, 347.8378472134885, -10325.589516829195, -7355.489713607993, 23103.992414950422, -0.004, 1.0, 0.162, 192.0, 0.0, 0.0, 0.0, 0.0, 0.0, 0.0, 0.0, 0.0, 0.0, 1.695415169545153E9, 0.0, 2023-09-22 15:39:29.545
168.0, -13919.504156053563, -17983.65479512868, 33102.48650342065, -4664.406736422388, -20390.08830667595, -20629.520193281198, 127863.82470891772, -7102.378559396096, -2346.1285050068504, -5761.452706033315, -17532.507185042763, -8506.06811118938, 361.7853357536001, -10335.491339622897, -7356.160265941652, 23073.683449469027, -0.004, 1.0, 0.162, 192.0, 0.0, 0.0, 0.0, 0.0, 0.0, 0.0, 0.0, 0.0, 0.0, 1.695415169545167E9, 0.0, 2023-09-22 15:39:29.545
170.0, -13911.681045494206, -17970.534321133415, 33065.33790413594, -4682.69046338683, -20388.009594441606, -20627.732053724772, 127818.36126069562, -7102.69148381847, -2345.502656162102, -5743.61601395798, -17533.155385631966, -8491.964160438081, 352.0176234266309, -10328.85287151967, -7360.630614832714, 23113.983644721946, -0.004, 1.0, 0.162, 192.0, 0.0, 0.0, 0.0, 0.0, 0.0, 0.0, 0.0, 0.0, 0.0, 1.695415169545176E9, 0.0, 2023-09-22 15:39:29.545
172.0, -13921.225240376622, -17988.12514401974, 33092.80819807151, -4668.318291702067, -20387.115524663393, -20632.627085760487, 127851.84417388967, -7099.0257977278, -2340.764086337577, -5750.209778572295, -17532.261315853753, -8512.393654870231, 353.40343158286, -10332.719723310438, -7366.754992813468, 23062.61933596365, -0.004, 1.004, 0.162, 192.0, 127.5, 112.0, 15.5, 48.0, 2.5, 8.0, 0.0, 0.0, 0.0, 1.695415169545188E9, 0.0, 2023-09-22 15:39:29.545
174.0, -13922.052254921467, -17988.482771931027, 33058.40886335479, -4685.0597482990925, -20384.70153626222, -20631.397739815446, 127808.99587976885, -7109.039379243777, -2349.436563186236, -5760.603339744012, -17538.743321745795, -8496.72508200706, 352.30819610454995, -10340.09579898069, -7365.190370701596, 23112.307263887797, -0.004, 1.004, 0.162, 192.0, 0.0, 0.0, 0.0, 0.0, 0.0, 0.0, 0.0, 0.0, 0.0, 1.695415169545192E9, 0.0, 2023-09-22 15:39:29.545
176.0, -13922.61104853285, -17990.337966720817, 33087.35437242441, -4664.6302538669415, -20389.4624578312, -20631.08481539307, 127835.08036554819, -7100.746882050858, -2343.379240438848, -5754.2554443187055, -17534.742359488293, -8516.528727594463, 355.95153045076495, -10335.357229156165, -7364.050431734376, 23038.837079863202, -0.004, 1.004, 0.162, 192.0, 0.0, 0.0, 0.0, 0.0, 0.0, 0.0, 0.0, 0.0, 0.0, 1.695415169545195E9, 0.0, 2023-09-22 15:39:29.545
178.0, -13917.000760674568, -17982.626614883735, 33060.77814826705, -4678.890666829428, -20387.47315257468, -20631.196574115347, 127811.7674960813, -7107.988847254378, -2346.6872986182334, -5754.5460169966245, -17537.33516184511, -8482.084689388836, 350.78827748158903, -10335.066656478246, -7367.31378642485, 23111.256731898397, -0.004, 1.004, 0.162, 192.0, 0.0, 0.0, 0.0, 0.0, 0.0, 0.0, 0.0, 0.0, 0.0, 1.695415169545198E9, 0.0, 2023-09-22 15:39:29.545
180.0, -13917.224278119122, -17981.911359061167, 33069.36121813789, -4666.261931212179, -20388.143704908336, -20630.570725270598, 127805.30784193371, -7103.78671929678, -2342.976909038652, -5745.940595381331, -17533.870641454538, -8516.97576248357, 354.23044612770633, -10330.484548864908, -7372.454687649571, 23031.438652448494, -0.004, 1.004, 0.162, 192.0, 0.0, 0.0, 0.0, 0.0, 0.0, 0.0, 0.0, 0.0, 0.0, 1.695415169545201E9, 0.0, 2023-09-22 15:39:29.545
182.0, -13913.647999006273, -17982.98424279502, 33068.06481695948, -4674.107393515992, -20388.94836770873, -20635.666923006407, 127807.63242335706, -7111.743940322869, -2344.362717194881, -5745.784133170144, -17537.849251967582, -8477.144953864212, 340.4841232876925, -10331.33391515421, -7370.532437626414, 23079.8972344276, -0.002, 1.012, 0.158, 192.0, 127.5, 120.0, 15.5, 80.0, 2.0, 120.0, 0.0, 0.0, 0.0, 1.6954151696048E9, 0.0, 2023-09-22 15:39:29.604
184.0, -13918.94536244218, -17986.47111493005, 33073.87627051786, -4671.425184181355, -20393.731641022165, -20639.243202119258, 127813.0191937708, -7112.50389963435, -2340.8758450598534, -5750.477999505759, -17537.0892926561, -8514.025332215468, 355.5044955616588, -10335.67015357854, -7372.6335016052135, 23019.368710442628, -0.002, 1.012, 0.158, 192.0, 0.0, 0.0, 0.0, 0.0, 0.0, 0.0, 0.0, 0.0, 0.0, 1.695415169604811E9, 0.0, 2023-09-22 15:39:29.604
186.0, -13912.396301316776, -17978.98328053752, 33072.64692457282, -4674.643835382919, -20385.819123484984, -20631.50949853772, 127821.91518806401, -7110.291076933275, -2342.976909038652, -5744.398325013915, -17540.062074668655, -8480.520067276962, 354.3869083388935, -10337.033609990312, -7370.733603326512, 23088.1003246427, -0.002, 1.012, 0.158, 192.0, 0.0, 0.0, 0.0, 0.0, 0.0, 0.0, 0.0, 0.0, 0.0, 1.695415169604815E9, 0.0, 2023-09-22 15:39:29.604
188.0, -13910.161126871244, -17976.16696073615, 33078.2572124311, -4669.190009735824, -20386.377917096368, -20633.5211555387, 127794.914280762, -7108.50293737685, -2338.305394447493, -5739.324479022561, -17533.42360656543, -8506.49279433403, 356.44326882878175, -10327.377656385619, -7377.372071429739, 23032.42212920453, -0.002, 1.012, 0.158, 192.0, 0.0, 0.0, 0.0, 0.0, 0.0, 0.0, 0.0, 0.0, 0.0, 1.695415169604818E9, 0.0, 2023-09-22 15:39:29.604
190.0, -13908.305932081454, -17978.759763092967, 33083.46516888919, -4668.430050424344, -20390.93767296525, -20638.23737361877, 127816.10373450562, -7116.951896780956, -2339.4900369036245, -5735.904662120898, -17536.66460951145, -8472.696956717606, 352.35289959346056, -10333.56908959974, -7380.814240075856, 23071.47062676795, -0.002, 1.012, 0.158, 192.0, 0.0, 0.0, 0.0, 0.0, 0.0, 0.0, 0.0, 0.0, 0.0, 1.695415169604822E9, 0.0, 2023-09-22 15:39:29.604
192.0, -13908.03771114799, -17976.681050858624, 33061.35929362289, -4675.649663883408, -20390.33417586496, -20642.215984131813, 127777.8598997426, -7120.3493619381625, -2337.0089932690853, -5734.630612686946, -17536.105815900068, -8508.370340868276, 351.43647807079293, -10333.211461688456, -7391.632484392225, 23038.300637996275, -0.002, 1.01, 0.156, 192.0, 127.5, 120.0, 15.5, 72.0, 2.0, 112.0, 0.0, 0.0, 0.0, 1.695415169604825E9, 0.0, 2023-09-22 15:39:29.604
194.0, -13909.356464070854, -17977.508065403472, 33077.18432869724, -4666.619559123464, -20393.508123577612, -20639.04203641916, 127814.78498158276, -7121.936335794489, -2339.020650270063, -5733.758894653189, -17539.145653145988, -8492.120622649267, 350.90003620386557, -10327.377656385619, -7386.335120956317, 23067.044981365798, -0.002, 1.01, 0.156, 192.0, 0.0, 0.0, 0.0, 0.0, 0.0, 0.0, 0.0, 0.0, 0.0, 1.695415169604828E9, 0.0, 2023-09-22 15:39:29.604
196.0, -13910.764623971538, -17977.776286336935, 33041.44388931321, -4681.014082552681, -20393.955158466717, -20642.350094598543, 127765.47703331435, -7125.289097462785, -2338.4842084031357, -5731.32255450756, -17538.497452556785, -8511.700750792117, 337.48898953068135, -10326.304772651765, -7392.951237315087, 23038.658265907558, -0.002, 1.01, 0.156, 192.0, 0.0, 0.0, 0.0, 0.0, 0.0, 0.0, 0.0, 0.0, 0.0, 1.695415169665044E9, 0.0, 2023-09-22 15:39:29.665
198.0, -13916.531374041007, -17980.570254393846, 33082.50404387761, -4675.761422605685, -20399.78896376955, -20650.821405747105, 127825.53617066577, -7131.569937654726, -2348.140162007828, -5733.602432442001, -17545.448845082385, -8481.414137055175, 353.2246176272175, -10334.865490778147, -7387.743280857001, 23070.59890873419, -0.002, 1.01, 0.156, 192.0, 0.0, 0.0, 0.0, 0.0, 0.0, 0.0, 0.0, 0.0, 0.0, 1.695415169665067E9, 0.0, 2023-09-22 15:39:29.665
200.0, -13912.642170505784, -17981.79960033889, 33037.33116833343, -4690.6923879018295, -20395.720946278685, -20652.117806925515, 127758.57034427767, -7132.285193477296, -2349.078935274951, -5737.379877254949, -17544.197147392886, -8503.989398955036, 344.015698911631, -10337.815921046249, -7399.120318784752, 23063.155777830576, -0.002, 1.01, 0.156, 192.0, 0.0, 0.0, 0.0, 0.0, 0.0, 0.0, 0.0, 0.0, 0.0, 1.69541516966507E9, 0.0, 2023-09-22 15:39:29.665
202.0, -13911.725748983115, -17977.396306681196, 33077.85488103091, -4673.235675482235, -20391.787039254552, -20650.664943535918, 127817.44483917295, -7120.3493619381625, -2345.1897317397274, -5732.350734752505, -17541.358475847064, -8480.855343443793, 347.5472745355695, -10333.09970296618, -7388.6597023796685, 23041.675751409024, -0.002, 1.012, 0.156, 192.0, 127.5, 120.0, 15.5, 80.0, 2.0, 112.0, 0.0, 0.0, 0.0, 1.695415169665073E9, 0.0, 2023-09-22 15:39:29.665
204.0, -13916.061987407445, -17982.447800928094, 33039.11930788986, -4687.45138495581, -20392.99403345514, -20652.922469725905, 127771.02026593928, -7123.4562544174505, -2345.301490462004, -5732.03781033013, -17541.403179335975, -8486.711500491083, 347.05553615755275, -10334.016124488846, -7393.5323826709255, 23039.217059518942, -0.002, 1.012, 0.156, 192.0, 0.0, 0.0, 0.0, 0.0, 0.0, 0.0, 0.0, 0.0, 0.0, 1.695415169665077E9, 0.0, 2023-09-22 15:39:29.665
206.0, -13916.79959497447, -17986.113487018763, 33076.26790717458, -4670.374652191956, -20391.13883866535, -20649.14502491296, 127826.29612997726, -7119.812920071236, -2353.5269324215574, -5737.625746443957, -17549.963897462356, -8479.134259120734, 339.2994808315612, -10339.447598391485, -7396.706330383579, 23053.678638181525, -0.002, 1.012, 0.156, 192.0, 0.0, 0.0, 0.0, 0.0, 0.0, 0.0, 0.0, 0.0, 0.0, 1.69541516966508E9, 0.0, 2023-09-22 15:39:29.665
208.0, -13913.625647261817, -17983.207760239573, 33040.77333697955, -4685.015044810181, -20388.769553753085, -20647.535699312175, 127761.18549837894, -7117.130710736598, -2343.669813116767, -5725.51110094918, -17540.129129902023, -8494.020520927968, 347.05553615755275, -10326.237717418398, -7393.018292548453, 23037.31716124024, -0.002, 1.012, 0.156, 192.0, 0.0, 0.0, 0.0, 0.0, 0.0, 0.0, 0.0, 0.0, 0.0, 1.695415169665083E9, 0.0, 2023-09-22 15:39:29.665
210.0, -13910.675216993717, -17977.061030514364, 33086.92968927976, -4673.190971993324, -20388.344870608435, -20644.94289695536, 127806.98422276786, -7111.162794967031, -2348.3860311968365, -5728.506234706192, -17545.13592066001, -8486.085651646335, 331.4093150388378, -10329.590479086695, -7394.404100704683, 23025.113108767644, -0.002, 1.012, 0.156, 192.0, 0.0, 0.0, 0.0, 0.0, 0.0, 0.0, 0.0, 0.0, 0.0, 1.695415169665086E9, 0.0, 2023-09-22 15:39:29.665
212.0, -13904.41672854623, -17969.930824033123, 33043.83552596993, -4691.541754191131, -20380.45470481571, -20639.824347475096, 127733.17876257644, -7108.525289121305, -2341.412286926781, -5716.480996189237, -17535.122339144033, -8484.38691906773, 354.25279787216164, -10320.85094700467, -7393.733548371023, 23027.41533844654, 0.002, 1.01, 0.156, 192.0, 0.0, 8.0, 15.5, 72.0, 2.0, 112.0, 0.0, 0.0, 0.0, 1.695415169725399E9, 0.0, 2023-09-22 15:39:29.725
214.0, -13913.983275173101, -17979.832646826824, 33087.332020679954, -4670.4417074253215, -20393.731641022165, -20647.84862373455, 127807.83358905716, -7108.16766121002, -2342.6192811273672, -5715.408112455382, -17535.52467054423, -8490.421890070664, 347.72608849121195, -10321.633258060607, -7390.894876825199, 22996.88285552059, 0.002, 1.01, 0.156, 192.0, 0.0, 0.0, 0.0, 0.0, 0.0, 0.0, 0.0, 0.0, 0.0, 1.695415169725409E9, 0.0, 2023-09-22 15:39:29.725
216.0, -13911.099900138368, -17978.60330088178, 33036.928836933235, -4656.404811907389, -20393.41871659979, -20652.00604820324, 127773.72482701836, -7113.845004301668, -2350.3082812199928, -5724.684086404334, -17546.208804393864, -8480.117735876767, 334.5609110070361, -10331.400970387574, -7408.7315689005345, 23065.547414487293, 0.002, 1.01, 0.156, 192.0, 0.0, 0.0, 0.0, 0.0, 0.0, 0.0, 0.0, 0.0, 0.0, 1.695415169725412E9, 0.0, 2023-09-22 15:39:29.725
218.0, -13906.60719950285, -17972.52362638994, 33068.802424526504, -4620.82083473454, -20387.719021763685, -20648.340362112565, 127806.98422276786, -7106.290114675774, -2344.005089283596, -5720.794882869111, -17538.720970001337, -8483.984587667535, 342.3616698219383, -10324.360170884154, -7404.395330476204, 23025.64955063457, 0.002, 1.01, 0.156, 192.0, 0.0, 0.0, 0.0, 0.0, 0.0, 0.0, 0.0, 0.0, 0.0, 1.695415169725416E9, 0.0, 2023-09-22 15:39:29.725
220.0, -13903.746176212571, -17967.874463543234, 33042.22620036914, -4636.779980275629, -20387.160228152305, -20650.620240047007, 127768.53922230474, -7112.88387929009, -2342.887502060831, -5713.351751965493, -17536.843423467093, -8467.019613625958, 343.23338785569524, -10324.360170884154, -7402.897763597699, 23067.31320229926, 0.002, 1.01, 0.156, 192.0, 0.0, 0.0, 0.0, 0.0, 0.0, 0.0, 0.0, 0.0, 0.0, 1.695415169725419E9, 0.0, 2023-09-22 15:39:29.725
222.0, -13904.774356457516, -17972.590681623304, 33063.1027296904, -4621.893718468395, -20389.596568297933, -20648.385065601477, 127781.48088234436, -7110.224021699909, -2340.98760378213, -5709.03786528562, -17536.217574622344, -8481.950578922102, 343.63571925589076, -10323.130824939111, -7405.267048509962, 23016.306521452254, 0.004, 0.998, 0.156, 192.0, 0.0, 16.0, 15.5, 24.0, 2.0, 112.0, 0.0, 0.0, 0.0, 1.695415169725423E9, 0.0, 2023-09-22 15:39:29.725
224.0, -13902.136850611789, -17968.522664132437, 33042.36031083588, -4629.783884261118, -20387.249635130123, -20649.815577246616, 127758.86091695559, -7110.983981011389, -2334.215025212172, -5701.818251826555, -17531.344894331087, -8455.217892553555, 347.2567018576505, -10317.073502191723, -7401.0425688079085, 23052.359885258662, 0.004, 0.998, 0.156, 192.0, 0.0, 0.0, 0.0, 0.0, 0.0, 0.0, 0.0, 0.0, 0.0, 1.695415169725427E9, 0.0, 2023-09-22 15:39:29.725
226.0, -13906.09310938038, -17969.21556821055, 33062.096901189914, -4622.988953946705, -20391.787039254552, -20654.598850560054, 127788.99106848134, -7106.848908287157, -2341.725211349155, -5706.489766417714, -17537.17869963392, -8485.683320246138, 333.04099238407525, -10321.365037127141, -7404.820013620855, 23016.284169707797, 0.004, 0.998, 0.156, 192.0, 0.0, 0.0, 0.0, 0.0, 0.0, 0.0, 0.0, 0.0, 0.0, 1.695415169785697E9, 0.0, 2023-09-22 15:39:29.785
228.0, -13899.655806977249, -17961.928899518123, 33054.832584241936, -4637.808160520573, -20388.769553753085, -20655.47056859381, 127771.53435606175, -7112.682713589992, -2342.395763682814, -5699.806594825577, -17538.43039732342, -8456.938976876614, 345.40150706786005, -10321.499147593875, -7404.887068854221, 23080.433676294528, 0.004, 0.998, 0.156, 192.0, 0.0, 0.0, 0.0, 0.0, 0.0, 0.0, 0.0, 0.0, 0.0, 1.695415169785709E9, 0.0, 2023-09-22 15:39:29.785
230.0, -13904.819059946425, -17967.22626295403, 33065.941401236225, -4624.374762102933, -20388.568388052987, -20654.28592613768, 127782.84433875613, -7106.066597231222, -2340.3170514484705, -5695.2021354677845, -17537.245754867286, -8479.96127366558, 346.8320187129997, -10316.51470858034, -7411.056150323886, 23025.493088423384, 0.004, 0.998, 0.156, 192.0, 0.0, 0.0, 0.0, 0.0, 0.0, 0.0, 0.0, 0.0, 0.0, 1.695415169785713E9, 0.0, 2023-09-22 15:39:29.785
232.0, -13903.410900045741, -17966.421600153637, 33046.651845771295, -4631.147340672892, -20388.054297930517, -20651.76017901423, 127776.49644333082, -7111.654533345049, -2340.8534933153983, -5697.146737235396, -17540.66557176895, -8448.288851772411, 349.78244898110023, -10313.810147501248, -7407.144595044208, 23084.747562974404, 0.002, 0.998, 0.16, 192.0, 0.0, 8.0, 15.5, 24.0, 2.5, 0.0, 0.0, 0.0, 0.0, 1.695415169785717E9, 0.0, 2023-09-22 15:39:29.785
234.0, -13903.500307023563, -17962.241823940494, 33041.95797943568, -4626.4758260817325, -20385.573254295978, -20648.183899901378, 127746.67921622745, -7106.133652464588, -2340.339403192926, -5693.9727895227425, -17542.118435158543, -8493.05939591639, 350.56476003703597, -10314.793624257281, -7414.163042803174, 23016.84296331918, 0.002, 0.998, 0.16, 192.0, 0.0, 0.0, 0.0, 0.0, 0.0, 0.0, 0.0, 0.0, 0.0, 1.695415169785721E9, 0.0, 2023-09-22 15:39:29.785
236.0, -13900.304007566454, -17962.308879173863, 33058.185345910235, -4621.245517879191, -20381.147608893825, -20648.429769090388, 127771.44494908393, -7104.6137338416265, -2340.5629206374792, -5687.803708053078, -17543.124263659032, -8459.263558299966, 355.079812417008, -10311.127938166612, -7404.7976618764005, 23059.17716731753, 0.002, 0.998, 0.16, 192.0, 0.0, 0.0, 0.0, 0.0, 0.0, 0.0, 0.0, 0.0, 0.0, 1.695415169785725E9, 0.0, 2023-09-22 15:39:29.785
238.0, -13900.952208155657, -17965.527530375424, 33046.76360449357, -4621.871366723939, -20377.12429489187, -20645.65815277793, 127736.37506203355, -7103.339684407674, -2340.4511619152026, -5685.1662022073515, -17541.917269458445, -8482.397613811208, 363.55112356556936, -10308.624542787617, -7412.6654759246685, 23012.663187106038, 0.002, 0.998, 0.16, 192.0, 0.0, 0.0, 0.0, 0.0, 0.0, 0.0, 0.0, 0.0, 0.0, 1.695415169785728E9, 0.0, 2023-09-22 15:39:29.785
240.0, -13904.819059946425, -17967.382725165215, 33068.24363091512, -4613.780035231118, -20380.812332726997, -20645.41228358892, 127780.5644608217, -7101.842117529169, -2341.278176460049, -5689.658902842868, -17546.90170847198, -8448.355907005776, 369.3625771239492, -10309.205688143455, -7407.949257844599, 23031.304541981764, 0.002, 0.998, 0.16, 192.0, 0.0, 0.0, 0.0, 0.0, 0.0, 0.0, 0.0, 0.0, 0.0, 1.695415169785731E9, 0.0, 2023-09-22 15:39:29.785
242.0, -13903.433251790197, -17967.31566993185, 33036.01241541057, -4620.060875423059, -20377.61603326989, -20647.60275454554, 127736.151544589, -7097.438823871473, -2340.5629206374792, -5683.780394051122, -17551.57322306314, -8472.518142761963, 359.75132700816715, -10310.323275366221, -7418.521632971959, 23016.37357668562, 0.002, 0.998, 0.16, 192.0, 0.0, 0.0, 15.5, 16.0, 2.5, 0.0, 0.0, 0.0, 0.0, 1.695415169844962E9, 0.0, 2023-09-22 15:39:29.844
244.0, -13899.365234299332, -17967.18155946512, 33066.50019484761, -4606.6945322387855, -20375.93965243574, -20649.681466779886, 127772.49548107333, -7098.5117076053275, -2340.3170514484705, -5681.969902750243, -17551.841443996604, -8455.776686164938, 384.60646684246865, -10311.217345144432, -7410.452653223593, 23038.56885892974, 0.002, 0.998, 0.16, 192.0, 0.0, 0.0, 0.0, 0.0, 0.0, 0.0, 0.0, 0.0, 0.0, 1.695415169844973E9, 0.0, 2023-09-22 15:39:29.844
246.0, -13900.214600588633, -17967.13685597621, 33041.24272361311, -4611.589564274498, -20379.98531818215, -20652.94482147036, 127728.70841368538, -7099.003445983344, -2339.6241473703562, -5682.975731250731, -17549.539214317705, -8487.270294102465, 385.0535017315748, -10307.752824753861, -7413.47013872506, 23013.46784990643, 0.002, 0.998, 0.16, 192.0, 0.0, 0.0, 0.0, 0.0, 0.0, 0.0, 0.0, 0.0, 0.0, 1.695415169844977E9, 0.0, 2023-09-22 15:39:29.844
248.0, -13896.191286586678, -17967.31566993185, 33077.11727346388, -4595.295142566579, -20381.348774593924, -20652.766007514718, 127797.68589707445, -7093.1696406805095, -2343.1557229942946, -5680.338225405005, -17553.540176575207, -8452.490979730008, 378.99617898418654, -10310.56914455523, -7407.770443888956, 23050.08000732422, 0.002, 0.998, 0.16, 192.0, 0.0, 0.0, 0.0, 0.0, 0.0, 0.0, 0.0, 0.0, 0.0, 1.69541516984498E9, 0.0, 2023-09-22 15:39:29.844
