%OpenBCI Raw EXG Data
%Number of channels = 16
%Sample Rate = 125 Hz
%Board = OpenBCI_GUI$BoardCytonSerialDaisy
Sample Index, EXG Channel 0, EXG Channel 1, EXG Channel 2, EXG Channel 3, EXG Channel 4, EXG Channel 5, EXG Channel 6, EXG Channel 7, EXG Channel 8, EXG Channel 9, EXG Channel 10, EXG Channel 11, EXG Channel 12, EXG Channel 13, EXG Channel 14, EXG Channel 15, Accel Channel 0, Accel Channel 1, Accel Channel 2, Other, Other, Other, Other, Other, Other, Other, Analog Channel 0, Analog Channel 1, Analog Channel 2, Timestamp, Other, Timestamp (Formatted)
0.0, 22651.70486589728, 38008.247376471445, -41920.227339294834, -40762.45167999884, -25670.285602842047, -17461.987431286267, -187500.02235174447, -9570.41347866219, 0.0, 0.0, 0.0, 0.0, 0.0, 0.0, 0.0, 0.0, 0.0, 0.0, 0.0, 192.0, 0.0, 0.0, 0.0, 0.0, 0.0, 0.0, 0.0, 0.0, 0.0, 1.695420966018532E9, 0.0, 2023-09-22 17:16:06.018
254.0, 22688.831113437547, 38045.82065890082, -41914.30412701418, -40769.55953473563, -25653.655904967298, -17469.430562189886, -187500.02235174447, -9556.957728500096, -3075.4212230946096, 16306.849277836, -39167.16297473467, -35869.99009489895, -10933.981649158199, -34650.52362090631, -39963.7344436329, -38618.87468324598, 0.0, 0.0, 0.0, 192.0, 0.0, 0.0, 0.0, 0.0, 0.0, 0.0, 0.0, 0.0, 0.0, 1.695420966018541E9, 0.0, 2023-09-22 17:16:06.018
0.0, 22670.793255662116, 38025.033536557385, -41908.17974903342, -40754.092127572556, -25659.869689925872, -17453.784341071172, -187500.02235174447, -9567.395993160724, -3074.5495050608524, 16296.947455042298, -39165.41953866715, -35870.43712978806, -10936.529748026103, -34651.417690684524, -39967.42248146802, -38619.813456513104, 0.0, 0.0, 0.0, 192.0, 0.0, 0.0, 0.0, 0.0, 0.0, 0.0, 0.0, 0.0, 0.0, 1.695420966018545E9, 0.0, 2023-09-22 17:16:06.018
2.0, 22701.50455254371, 38053.59906597126, -41900.446045451885, -40761.714072431816, -25638.814346648975, -17461.49569290825, -187500.02235174447, -9551.41449587518, -3058.3221385862994, 16316.125251784952, -39151.9414367606, -35854.075652846775, -10919.83299491799, -34637.98429226688, -39950.70337661546, -38606.603575540015, 0.0, 0.0, 0.0, 192.0, 0.0, 0.0, 0.0, 0.0, 0.0, 0.0, 0.0, 0.0, 0.0, 1.695420966018548E9, 0.0, 2023-09-22 17:16:06.018
4.0, 22683.310232557087, 38034.06364131733, -41909.18557753391, -40761.33409277607, -25658.573288747466, -17457.070047506102, -187500.02235174447, -9567.32893792736, -3064.982958433981, 16304.882324323933, -39161.88796304321, -35864.04453087384, -10929.421893289316, -34647.61789412712, -39963.689740143986, -38622.45096235883, 0.0, 0.0, 0.0, 192.0, 0.0, 0.0, 0.0, 0.0, 0.0, 0.0, 0.0, 0.0, 0.0, 1.695420966018551E9, 0.0, 2023-09-22 17:16:06.018
6.0, 22700.07404089857, 38048.41346125764, -41913.56651944715, -40777.89673541746, -25645.653980452298, -17469.475265678797, -187500.02235174447, -9556.488341866534, -3065.4523450675424, 16302.200114989295, -39165.15131773369, -35862.6140192287, -10928.796044444567, -34648.422556927515, -39964.47205119992, -38623.97088098179, 0.002, 1.004, 0.17, 192.0, 0.0, 8.0, 15.5, 48.0, 2.5, 40.0, 0.0, 0.0, 0.0, 1.695420966018555E9, 0.0, 2023-09-22 17:16:06.018
8.0, 22693.972014662268, 38039.40570824214, -41912.44893222439, -40766.050310856146, -25657.500405013612, -17456.041867261156, -187500.02235174447, -9572.983929274551, -3070.0344526808803, 16298.847353321, -39169.42050092465, -35867.218478586496, -10934.093407880475, -34658.74906286586, -39971.62460942562, -38636.4208026434, 0.002, 1.004, 0.17, 192.0, 0.0, 0.0, 0.0, 0.0, 0.0, 0.0, 0.0, 0.0, 0.0, 1.695420966018558E9, 0.0, 2023-09-22 17:16:06.018
10.0, 22709.55118054762, 38055.40955727215, -41901.38481871901, -40763.50221198824, -25626.990273832118, -17451.795035814648, -187500.02235174447, -9545.491283594523, -3046.8333419362716, 16303.407109189882, -39143.7383465455, -35841.04458582933, -10911.674608191803, -34641.64997835756, -39949.16110624804, -38620.08167744657, 0.002, 1.004, 0.17, 192.0, 0.0, 0.0, 0.0, 0.0, 0.0, 0.0, 0.0, 0.0, 0.0, 1.695420966018561E9, 0.0, 2023-09-22 17:16:06.018
12.0, 22707.897151457924, 38056.79536542838, -41914.46058922537, -40760.39531950895, -25647.553878731, -17448.039942746156, -187500.02235174447, -9568.066545494383, -3049.2026268485342, 16314.627684906447, -39146.53231460242, -35840.75401315141, -10917.709579194734, -34649.741309850375, -39952.96090280544, -38628.0165467282, 0.002, 1.004, 0.17, 192.0, 0.0, 0.0, 0.0, 0.0, 0.0, 0.0, 0.0, 0.0, 0.0, 1.695420966018564E9, 0.0, 2023-09-22 17:16:06.018
0.0, 11422.143748062104, 19030.521098437443, -20877.378687546097, -20375.425562313267, -12755.224139121074, -8723.0588463615, -93750.01117587223, -4813.4928719392865, -1524.5677858075842, 8159.124333754103, -19571.410962511418, -17919.30412284185, -5458.877141341823, -17324.121871485935, -19973.183569095563, -19310.83432565145, 0.002, 1.004, 0.17, 192.0, 0.0, 0.0, 15.5, 32.0, 2.5, 48.0, 0.0, 0.0, 0.0, 1.695420966185895E9, 0.0, 2023-09-22 17:16:06.185
2.0, 22843.61694379055, 38056.348330539266, -41766.89437233143, -40751.141697304454, -25533.895258175762, -17447.88348053497, -187500.02235174447, -9654.277223858504, -2974.9724835124593, 16244.778483483611, -39080.952296370546, -35791.51312011637, -10894.150840538841, -34634.2739026873, -39904.92700397098, -38599.898052203425, 0.002, 1.004, 0.17, 192.0, 0.0, 0.0, 0.0, 0.0, 0.0, 0.0, 0.0, 0.0, 0.0, 1.695420966185907E9, 0.0, 2023-09-22 17:16:06.185
4.0, 22824.79677495918, 38034.264807017425, -41751.4046134239, -40739.02705180968, -25509.084821830373, -17436.59584958504, -187500.02235174447, -9629.958525891128, -2969.250436931901, 16223.320808806517, -39065.551944440835, -35787.75802704788, -10887.758241624624, -34628.52950436229, -39897.975611445385, -38594.35481957851, 0.002, 1.004, 0.17, 192.0, 0.0, 0.0, 0.0, 0.0, 0.0, 0.0, 0.0, 0.0, 0.0, 1.695420966185911E9, 0.0, 2023-09-22 17:16:06.185
6.0, 22839.638333277504, 38048.8828478912, -41768.23547699874, -40752.907485116426, -25524.596932482356, -17450.990373014258, -187500.02235174447, -9652.779656979998, -2968.155201453591, 16245.717256750735, -39066.64717991915, -35792.6977625725, -10884.15961076732, -34636.64318759956, -39895.06988466619, -38597.43936031334, 0.002, 1.004, 0.17, 192.0, 0.0, 0.0, 0.0, 0.0, 0.0, 0.0, 0.0, 0.0, 0.0, 1.695420966185914E9, 0.0, 2023-09-22 17:16:06.185
8.0, 22818.80650744516, 38024.43003945709, -41751.42696516836, -40737.55183667563, -25506.983757851573, -17435.947648995836, -187500.02235174447, -9633.400694537246, -2966.25530317489, 16216.771747681112, -39057.08063329227, -35792.00485849439, -10881.008014799121, -34631.3234724192, -39893.147634643035, -38593.818377711585, -0.008, 0.996, 0.17, 192.0, 127.5, 96.0, 15.5, 16.0, 2.5, 40.0, 0.0, 0.0, 0.0, 1.695420966185918E9, 0.0, 2023-09-22 17:16:06.185
10.0, 22849.875432238037, 38054.80606017185, -41763.25103798521, -40744.1679530344, -25519.43367951318, -17446.162396211912, -187500.02235174447, -9643.749552220053, -2968.4904776204203, 16244.957297439254, -39063.02619731739, -35794.709419573475, -10884.15961076732, -34638.00664401134, -39894.198166632435, -38595.852386457016, -0.008, 0.996, 0.17, 192.0, 0.0, 0.0, 0.0, 0.0, 0.0, 0.0, 0.0, 0.0, 0.0, 1.695420966185921E9, 0.0, 2023-09-22 17:16:06.185
12.0, 22815.476097521318, 38020.0267457994, -41764.32392171907, -40742.0668890556, -25522.20529582564, -17447.25763169022, -187500.02235174447, -9645.068305142917, -2972.133811966635, 16214.469518002215, -39062.467403706, -35796.78813180782, -10891.24511375965, -34636.79964981075, -39901.328373113676, -38599.8086452256, -0.008, 0.996, 0.17, 192.0, 0.0, 0.0, 0.0, 0.0, 0.0, 0.0, 0.0, 0.0, 0.0, 1.695420966185924E9, 0.0, 2023-09-22 17:16:06.185
14.0, 22848.84725199309, 38053.82258341582, -41770.04596829963, -40748.92887460338, -25525.692167960664, -17455.460721905318, -187500.02235174447, -9654.165465136226, -2973.8772480341495, 16238.654105502857, -39070.75990089893, -35799.8503207982, -10897.570657440503, -34644.511001647836, -39907.922137728, -38605.53069180616, -0.008, 0.996, 0.17, 192.0, 0.0, 0.0, 0.0, 0.0, 0.0, 0.0, 0.0, 0.0, 0.0, 1.695420966185927E9, 0.0, 2023-09-22 17:16:06.185
16.0, 22814.157344598454, 38015.33287946378, -41766.223819997766, -40743.58680767856, -25528.664949973223, -17450.02924800268, -187500.02235174447, -9652.779656979998, -2972.5584951112864, 16211.630846456392, -39064.724929895994, -35797.928070775044, -10896.117794050908, -34637.98429226688, -39907.7209720279, -38604.569566794584, -0.008, 0.996, 0.17, 192.0, 0.0, 0.0, 0.0, 0.0, 0.0, 0.0, 0.0, 0.0, 0.0, 1.695420966245518E9, 0.0, 2023-09-22 17:16:06.245
18.0, 22849.160176415466, 38053.733176438, -41762.69224437383, -40744.97261583479, -25519.7242521911, -17452.577346870585, -187500.02235174447, -9647.772866222009, -2974.212524200979, 16231.54625076607, -39071.00577008793, -35798.55391961979, -10898.688244663268, -34645.829754570696, -39908.61504180611, -38608.078790674066, -0.004, 0.992, 0.17200000000000001, 192.0, 127.5, 112.0, 15.5, 0.0, 2.5, 48.0, 0.0, 0.0, 0.0, 1.695420966245529E9, 0.0, 2023-09-22 17:16:06.245
20.0, 22818.873562678524, 38019.73617312148, -41755.74085184823, -40732.88032208447, -25519.388976024267, -17439.613335086506, -187500.02235174447, -9644.464808042623, -2960.9355879945265, 16218.023445370609, -39055.15838326912, -35786.7969020363, -10886.73006137968, -34631.56934160821, -39899.94256495745, -38594.89126144544, -0.004, 0.992, 0.17200000000000001, 192.0, 0.0, 0.0, 0.0, 0.0, 0.0, 0.0, 0.0, 0.0, 0.0, 1.695420966245533E9, 0.0, 2023-09-22 17:16:06.245
22.0, 22848.556679315174, 38049.82162115832, -41770.51535493319, -40755.58969445106, -25522.674682459197, -17464.133198753978, -187500.02235174447, -9652.28791860198, -2966.590579341719, 16235.323695579016, -39067.18362178608, -35793.63653583962, -10891.312168993018, -34642.745213835864, -39904.30115512624, -38600.456845814806, -0.004, 0.992, 0.17200000000000001, 192.0, 0.0, 0.0, 0.0, 0.0, 0.0, 0.0, 0.0, 0.0, 0.0, 1.695420966245536E9, 0.0, 2023-09-22 17:16:06.245
24.0, 22814.291455065188, 38016.00343179744, -41764.4580321858, -40740.12228728799, -25524.753394693544, -17446.050637489636, -187500.02235174447, -9657.25000587106, -2979.308721936789, 16204.67945393079, -39075.78904340137, -35804.07480050025, -10903.91855286581, -34648.91429530553, -39919.45563786694, -38611.297441875635, -0.004, 0.992, 0.17200000000000001, 192.0, 0.0, 0.0, 0.0, 0.0, 0.0, 0.0, 0.0, 0.0, 0.0, 1.695420966245539E9, 0.0, 2023-09-22 17:16:06.245
26.0, 22843.48283332382, 38046.20063855656, -41760.077090272556, -40748.772412392194, -25509.24128404156, -17454.119617238, -187500.02235174447, -9642.497854530557, -2966.545875852809, 16230.920401921321, -39066.78129038588, -35791.87074802766, -10887.53472418007, -34638.18545796698, -39903.02710569228, -38596.50058704622, -0.004, 0.992, 0.17200000000000001, 192.0, 0.0, 0.0, 0.0, 0.0, 0.0, 0.0, 0.0, 0.0, 0.0, 1.695420966245542E9, 0.0, 2023-09-22 17:16:06.245
28.0, 22815.36433879904, 38016.785742853375, -41761.73111936225, -40738.11063028701, -25525.647464471756, -17444.68718107786, -187500.02235174447, -9653.986651180585, -2975.5759806127526, 16211.943770878766, -39074.53734571187, -35801.52670163235, -10895.335482994973, -34644.913333048025, -39912.28072789678, -38605.620098783984, -0.008, 0.996, 0.176, 192.0, 127.5, 96.0, 15.5, 16.0, 2.5, 64.0, 0.0, 0.0, 0.0, 1.695420966245546E9, 0.0, 2023-09-22 17:16:06.245
30.0, 22838.52074605474, 38043.16080131064, -41772.392901467436, -40756.93079911838, -25523.43464177068, -17464.244957476254, -187500.02235174447, -9647.683459244188, -2972.2008672000015, 16226.204183841252, -39072.88331662218, -35796.20698645199, -10893.994378327654, -34641.560571379734, -39909.24089065086, -38602.267337115685, -0.008, 0.996, 0.176, 192.0, 0.0, 0.0, 0.0, 0.0, 0.0, 0.0, 0.0, 0.0, 0.0, 1.695420966305872E9, 0.0, 2023-09-22 17:16:06.305
32.0, 22817.890085922492, 38020.630242899686, -41769.107195032506, -40739.98817682126, -25536.175136110203, -17448.196404957343, -187500.02235174447, -9658.300537860458, -2982.3262074382556, 16213.508392990638, -39079.79000565887, -35805.32649818975, -10905.080843577487, -34648.60137088315, -39922.316661157216, -38612.70560177632, -0.008, 0.996, 0.176, 192.0, 0.0, 0.0, 0.0, 0.0, 0.0, 0.0, 0.0, 0.0, 0.0, 1.695420966305887E9, 0.0, 2023-09-22 17:16:06.305
34.0, 22842.61111529006, 38041.99851059896, -41761.79817459562, -40745.129078045975, -25518.629016712788, -17454.231375960277, -187500.02235174447, -9640.374438807303, -2972.0667567332694, 16223.767843695623, -39068.7705956424, -35794.66471608457, -10895.380186483882, -34638.45367890044, -39909.8220360067, -38601.39561908193, -0.008, 0.996, 0.176, 192.0, 0.0, 0.0, 0.0, 0.0, 0.0, 0.0, 0.0, 0.0, 0.0, 1.695420966305891E9, 0.0, 2023-09-22 17:16:06.305
36.0, 22828.998902916777, 38030.19678952656, -41765.32975021956, -40736.30013898613, -25536.242191343572, -17444.709532822315, -187500.02235174447, -9660.669822772721, -2971.820887544261, 16224.751320451656, -39068.81529913131, -35797.63749809712, -10897.68241616278, -34640.71120509043, -39914.62766106459, -38604.32369760558, -0.008, 0.996, 0.176, 192.0, 0.0, 0.0, 0.0, 0.0, 0.0, 0.0, 0.0, 0.0, 0.0, 1.695420966305894E9, 0.0, 2023-09-22 17:16:06.305
38.0, 22836.46438556485, 38035.89648436266, -41762.33461646255, -40746.22431352429, -25515.81269691142, -17452.84556780405, -187500.02235174447, -9641.849653941352, -2966.6129310861747, 16220.348026793961, -39064.970799085, -35793.860053284174, -10889.188753269764, -34634.54212362076, -39906.290460382756, -38598.53459579165, -0.004, 1.004, 0.17400000000000002, 192.0, 127.5, 112.0, 15.5, 48.0, 2.5, 56.0, 0.0, 0.0, 0.0, 1.695420966305898E9, 0.0, 2023-09-22 17:16:06.305
40.0, 22833.133975641013, 38030.71087964903, -41766.17911650886, -40739.22821750978, -25531.347159307858, -17444.284849677664, -187500.02235174447, -9660.62511928381, -2979.331073681244, 16219.386901782384, -39078.8735841362, -35807.24874821291, -10900.722253408701, -34646.455603415445, -39917.30987039922, -38610.939813964345, -0.004, 1.004, 0.17400000000000002, 192.0, 0.0, 0.0, 0.0, 0.0, 0.0, 0.0, 0.0, 0.0, 0.0, 1.695420966305901E9, 0.0, 2023-09-22 17:16:06.305
42.0, 22837.31375185415, 38034.3765657397, -41756.97019779327, -40740.99400532174, -25507.5201997185, -17446.967059012302, -187500.02235174447, -9638.00515389504, -2958.8345240157278, 16222.806718684045, -39059.15934552662, -35786.72984680293, -10881.857381088423, -34626.20492293894, -39899.80845449072, -38592.67843874436, -0.004, 1.004, 0.17400000000000002, 192.0, 0.0, 0.0, 0.0, 0.0, 0.0, 0.0, 0.0, 0.0, 0.0, 1.695420966305904E9, 0.0, 2023-09-22 17:16:06.305
44.0, 22835.14563264199, 38033.706013406045, -41763.65336938541, -40738.78118262067, -25524.172249337706, -17444.418960144398, -187500.02235174447, -9658.367593093824, -2970.0998032212024, 16224.661913473836, -39073.48681372247, -35799.55974812028, -10892.385052726871, -34640.55474287924, -39909.03972495076, -38604.301345861124, -0.004, 1.004, 0.17400000000000002, 192.0, 0.0, 0.0, 0.0, 0.0, 0.0, 0.0, 0.0, 0.0, 0.0, 1.695420966305907E9, 0.0, 2023-09-22 17:16:06.305
46.0, 22826.920190682435, 38024.76531562392, -41758.7583373497, -40745.35259549053, -25510.828257897887, -17450.9680212698, -187500.02235174447, -9638.720409717609, -2965.4729921189537, 16214.87184940241, -39068.16709854211, -35795.71524807397, -10887.557075924526, -34631.47993463039, -39901.6189457916, -38596.813511468594, -0.004, 1.004, 0.17400000000000002, 192.0, 0.0, 0.0, 0.0, 0.0, 0.0, 0.0, 0.0, 0.0, 0.0, 1.695420966366063E9, 0.0, 2023-09-22 17:16:06.366
48.0, 22838.408987332463, 38037.23758902998, -41772.61641891199, -40752.683967671874, -25539.974932667606, -17458.008820773222, -187500.02235174447, -9668.358822865346, -2978.504059136398, 16225.913611163332, -39087.233136562485, -35811.763800592875, -10902.175116798297, -34649.85306857265, -39919.299175655746, -38614.516093077196, -0.002, 1.002, 0.17400000000000002, 192.0, 127.5, 120.0, 15.5, 40.0, 2.5, 56.0, 0.0, 0.0, 0.0, 1.695420966366074E9, 0.0, 2023-09-22 17:16:06.366
50.0, 22828.32835058312, 38025.726440635495, -41756.70197685981, -40743.877380356476, -25516.036214355972, -17449.895137535947, -187500.02235174447, -9642.654316741744, -2967.7528700533953, 16210.312093533528, -39071.363397999216, -35800.67733534305, -10891.96036958222, -34634.96680676541, -39909.08442843967, -38601.373267337476, -0.002, 1.002, 0.17400000000000002, 192.0, 0.0, 0.0, 0.0, 0.0, 0.0, 0.0, 0.0, 0.0, 0.0, 1.695420966366078E9, 0.0, 2023-09-22 17:16:06.366
52.0, 22841.71704551185, 38042.24437978797, -41770.82827935556, -40753.33216826108, -25536.018673899016, -17458.053524262134, -187500.02235174447, -9665.318985619424, -2970.1668584545682, 16230.003980398653, -39079.611191703225, -35806.33232669024, -10898.554134196536, -34643.23695221388, -39914.247681408844, -38607.45294182932, -0.002, 1.002, 0.17400000000000002, 192.0, 0.0, 0.0, 0.0, 0.0, 0.0, 0.0, 0.0, 0.0, 0.0, 1.695420966366081E9, 0.0, 2023-09-22 17:16:06.366
54.0, 22816.280760321708, 38016.38341145318, -41762.49107867373, -40749.13004030348, -25525.33454004938, -17452.107960237023, -187500.02235174447, -9649.00221216705, -2977.2076579579902, 16198.286855016573, -39082.472214993504, -35814.289547716326, -10905.170250555308, -34642.678158602495, -39921.28848091227, -38611.05157268662, -0.002, 1.002, 0.17400000000000002, 192.0, 0.0, 0.0, 0.0, 0.0, 0.0, 0.0, 0.0, 0.0, 0.0, 1.695420966366084E9, 0.0, 2023-09-22 17:16:06.366
56.0, 22842.65581877897, 38044.613664700235, -41763.38514845195, -40750.76171764871, -25530.98953139657, -17452.957326526324, -187500.02235174447, -9654.210168625137, -2973.474916633954, 16229.512242020637, -39085.04266560586, -35811.22735872595, -10899.58231444148, -34639.99594926786, -39917.28751865477, -38606.469465073285, -0.002, 1.002, 0.17400000000000002, 192.0, 0.0, 0.0, 0.0, 0.0, 0.0, 0.0, 0.0, 0.0, 0.0, 1.695420966366088E9, 0.0, 2023-09-22 17:16:06.366
58.0, 22812.212742830845, 38012.874187573696, -41756.83608732654, -40747.47601121378, -25523.121717348306, -17449.31399218011, -187500.02235174447, -9643.90601443124, -2980.2921986928227, 16205.059433586532, -39086.20495631754, -35813.28371921584, -10902.041006331565, -34636.19615271046, -39919.65680356703, -38606.15654065091, -0.002, 1.006, 0.18, 192.0, 127.5, 120.0, 15.5, 56.0, 2.5, 80.0, 0.0, 0.0, 0.0, 1.695420966366091E9, 0.0, 2023-09-22 17:16:06.366
60.0, 22840.2418303778, 38041.752641409956, -41766.60379965351, -40758.45071774134, -25531.168345352216, -17461.383934185975, -187500.02235174447, -9657.786447737986, -2981.9685795269706, 16230.205146098751, -39095.59268898877, -35817.99993729591, -10902.979779598687, -34645.6285888706, -39923.88128326908, -38612.325622120574, -0.002, 1.006, 0.18, 192.0, 0.0, 0.0, 0.0, 0.0, 0.0, 0.0, 0.0, 0.0, 0.0, 1.695420966426506E9, 0.0, 2023-09-22 17:16:06.426
62.0, 22809.105850351556, 38010.12492300569, -41751.56107563509, -40741.50809544422, -25515.43271725568, -17445.603602600528, -187500.02235174447, -9647.258776099537, -2977.408823658088, 16200.857305628933, -39086.24965980645, -35813.730754104945, -10896.453070217738, -34637.80547831124, -39918.62862332209, -38606.760037751206, -0.002, 1.006, 0.18, 192.0, 0.0, 0.0, 0.0, 0.0, 0.0, 0.0, 0.0, 0.0, 0.0, 1.69542096642652E9, 0.0, 2023-09-22 17:16:06.426
64.0, 22843.32637111263, 38048.41346125764, -41762.40167169591, -40755.92497061789, -25520.394804524756, -17459.528739396184, -187500.02235174447, -9656.110066903839, -2975.2183527014677, 16227.768805953123, -39092.64225872067, -35812.32259420426, -10895.24607601715, -34644.220428969915, -39916.505207598835, -38610.15750290841, -0.002, 1.006, 0.18, 192.0, 0.0, 0.0, 0.0, 0.0, 0.0, 0.0, 0.0, 0.0, 0.0, 1.695420966426524E9, 0.0, 2023-09-22 17:16:06.426
66.0, 22813.397385286975, 38017.702164376045, -41753.79625008062, -40740.92695008838, -25520.14893533575, -17442.139082209957, -187500.02235174447, -9650.276261601002, -2975.598332357208, 16203.092480074463, -39087.367247029215, -35811.629690126145, -10895.49194520616, -34637.82783005569, -39917.35457388814, -38606.98355519576, -0.002, 1.006, 0.18, 192.0, 0.0, 0.0, 0.0, 0.0, 0.0, 0.0, 0.0, 0.0, 0.0, 1.695420966426527E9, 0.0, 2023-09-22 17:16:06.426
68.0, 22849.271935137742, 38051.36389152573, -41757.908971060395, -40749.53237170367, -25517.66789170121, -17448.93401252437, -187500.02235174447, -9647.616404010821, -2973.765489311873, 16226.830032686, -39089.31184879683, -35809.327460447246, -10893.793212627555, -34638.05134750025, -39910.24671915135, -38602.15557839341, -0.002, 1.008, 0.178, 192.0, 127.5, 120.0, 15.5, 64.0, 2.5, 72.0, 0.0, 0.0, 0.0, 1.69542096642653E9, 0.0, 2023-09-22 17:16:06.426
70.0, 22813.75501319826, 38015.444638186054, -41753.75154659171, -40737.46242969781, -25524.038138870972, -17437.333457152065, -187500.02235174447, -9649.650412756255, -2977.92291378056, 16202.198410296252, -39086.607287717736, -35810.04271626982, -10897.39184348486, -34634.85504804314, -39913.46537035291, -38600.322735348076, -0.002, 1.008, 0.178, 192.0, 0.0, 0.0, 0.0, 0.0, 0.0, 0.0, 0.0, 0.0, 0.0, 1.695420966426534E9, 0.0, 2023-09-22 17:16:06.426
72.0, 22847.483795581316, 38050.67098744762, -41750.19761922331, -40743.318586745096, -25510.023595097497, -17444.530718866674, -187500.02235174447, -9642.028467896995, -2972.379681155644, 16228.394654797872, -39082.49456673796, -35801.70551558799, -10890.082823047975, -34631.41287939702, -39903.69765802594, -38592.834900955546, -0.002, 1.008, 0.178, 192.0, 0.0, 0.0, 0.0, 0.0, 0.0, 0.0, 0.0, 0.0, 0.0, 1.695420966426537E9, 0.0, 2023-09-22 17:16:06.426
74.0, 22813.620902731527, 38016.56222540882, -41754.556209392096, -40738.02122330919, -25525.736871449575, -17440.909736264915, -187500.02235174447, -9652.377325579802, -2983.3990911721103, 16205.864096386922, -39087.32254354031, -35811.763800592875, -10900.811660386522, -34639.99594926786, -39913.219501163905, -38602.04381967113, -0.002, 1.008, 0.178, 192.0, 0.0, 0.0, 0.0, 0.0, 0.0, 0.0, 0.0, 0.0, 0.0, 1.69542096642654E9, 0.0, 2023-09-22 17:16:06.426
76.0, 22838.38663558801, 38043.38431875519, -41756.07612801506, -40749.957054848324, -25513.935150377172, -17452.622050359496, -187500.02235174447, -9641.916709174719, -2978.951094025504, 16218.87281165991, -39084.95325862805, -35806.91347204608, -10894.977855083687, -34636.33026317719, -39905.39639060455, -38595.74062773474, -0.002, 1.008, 0.178, 192.0, 0.0, 0.0, 0.0, 0.0, 0.0, 0.0, 0.0, 0.0, 0.0, 1.695420966485968E9, 0.0, 2023-09-22 17:16:06.485
78.0, 22815.856077177057, 38019.11032427673, -41749.370604678465, -40733.90850232941, -25524.01578712652, -17436.752311796226, -187500.02235174447, -9649.538654033979, -2984.2261057169567, 16203.718328919213, -39088.48483425198, -35815.31772796127, -10901.124584808897, -34640.55474287924, -39913.063038952714, -38601.842653971034, -0.002, 1.01, 0.17400000000000002, 192.0, 127.5, 120.0, 15.5, 72.0, 2.5, 56.0, 0.0, 0.0, 0.0, 1.695420966485979E9, 0.0, 2023-09-22 17:16:06.485
80.0, 22841.962914700856, 38040.277426275905, -41747.22483721076, -40739.742307632245, -25504.90504561723, -17443.569593855096, -187500.02235174447, -9633.132473603782, -2972.2008672000015, 16217.174079081307, -39077.21955504651, -35802.51017838838, -10891.468631204205, -34631.837562541674, -39900.18843414646, -38590.532671276655, -0.002, 1.01, 0.17400000000000002, 192.0, 0.0, 0.0, 0.0, 0.0, 0.0, 0.0, 0.0, 0.0, 0.0, 1.695420966485983E9, 0.0, 2023-09-22 17:16:06.485
82.0, 22828.37305407203, 38026.03936505787, -41741.72630807475, -40721.90561555691, -25517.936112634674, -17424.458852345808, -187500.02235174447, -9641.179101607693, -2971.2620939328785, 16217.464651759226, -39076.50429922394, -35801.7502190769, -10893.167363782808, -34629.64709158505, -39902.84829173664, -38589.88447068745, -0.002, 1.01, 0.17400000000000002, 192.0, 0.0, 0.0, 0.0, 0.0, 0.0, 0.0, 0.0, 0.0, 0.0, 1.695420966485986E9, 0.0, 2023-09-22 17:16:06.485
84.0, 22843.885164724015, 38041.70793792104, -41739.71465107377, -40733.595577907035, -25500.926435104186, -17433.824233272582, -187500.02235174447, -9624.705865944132, -2960.5109048498757, 16229.422835042817, -39067.42949097508, -35790.95432650499, -10879.666910131802, -34616.23604491187, -39889.88427995256, -38578.77565369316, -0.002, 1.01, 0.17400000000000002, 192.0, 0.0, 0.0, 0.0, 0.0, 0.0, 0.0, 0.0, 0.0, 0.0, 1.695420966485989E9, 0.0, 2023-09-22 17:16:06.485
86.0, 22828.976551172324, 38032.56607443882, -41746.84485755502, -40732.85797034001, -25522.38410978128, -17431.96903848279, -187500.02235174447, -9648.510473789034, -2974.145468967613, 16222.985532639686, -39080.48290973698, -35805.79588482331, -10891.938017837765, -34627.926007261995, -39903.27297488129, -38591.56085152159, -0.002, 1.01, 0.17400000000000002, 192.0, 0.0, 0.0, 0.0, 0.0, 0.0, 0.0, 0.0, 0.0, 0.0, 1.695420966485992E9, 0.0, 2023-09-22 17:16:06.485
88.0, 22838.677208265926, 38038.35517625275, -41738.64176733992, -40737.797705864636, -25504.368603750303, -17437.802843785626, -187500.02235174447, -9631.14316834726, -2969.3621956541774, 16215.274180802606, -39076.23607829047, -35803.96304177798, -10888.115869535908, -34625.17674269399, -39900.479006824375, -38589.92917417636, -0.002, 1.006, 0.182, 192.0, 127.5, 120.0, 15.5, 56.0, 2.5, 88.0, 0.0, 0.0, 0.0, 1.695420966485996E9, 0.0, 2023-09-22 17:16:06.485
90.0, 22834.251562863778, 38036.29881576286, -41743.67090984237, -40735.58488316356, -25520.48421150258, -17436.774663540684, -187500.02235174447, -9656.333584348391, -2969.630416587641, 16226.204183841252, -39076.884278879676, -35804.499483644904, -10888.451145702738, -34630.80938229673, -39902.378905103076, -38592.96901142228, -0.002, 1.006, 0.182, 192.0, 0.0, 0.0, 0.0, 0.0, 0.0, 0.0, 0.0, 0.0, 0.0, 1.695420966546498E9, 0.0, 2023-09-22 17:16:06.546
92.0, 22829.289475594698, 38028.878036603695, -41745.59315986552, -40746.38077573547, -25508.347214263347, -17445.424788644887, -187500.02235174447, -9640.91088067423, -2969.5857130987306, 16212.547267979058, -39074.716159667514, -35802.8007510663, -10886.39478521285, -34625.73553630537, -39897.349762600636, -38588.16338636439, -0.002, 1.006, 0.182, 192.0, 0.0, 0.0, 0.0, 0.0, 0.0, 0.0, 0.0, 0.0, 0.0, 1.695420966546512E9, 0.0, 2023-09-22 17:16:06.546
94.0, 22831.32348434013, 38032.14139129417, -41755.13735474794, -40747.096031558045, -25526.116851105315, -17445.31302992261, -187500.02235174447, -9665.140171663783, -2985.2542859619007, 16218.179907581796, -39095.5256337554, -35821.44210594203, -10901.504564464638, -34643.929856291994, -39914.94058548696, -38605.73185750626, -0.002, 1.006, 0.182, 192.0, 0.0, 0.0, 0.0, 0.0, 0.0, 0.0, 0.0, 0.0, 0.0, 1.695420966546516E9, 0.0, 2023-09-22 17:16:06.546
96.0, 22825.064995892644, 38025.01118481293, -41740.47461038525, -40741.03870881066, -25500.457048470624, -17438.27223041919, -187500.02235174447, -9639.033334139984, -2970.502134621398, 16210.937942378278, -39079.2759155364, -35806.28762320133, -10885.746584623646, -34624.23796942687, -39898.84732947914, -38588.63277299795, -0.002, 1.006, 0.182, 192.0, 0.0, 0.0, 0.0, 0.0, 0.0, 0.0, 0.0, 0.0, 0.0, 1.695420966546519E9, 0.0, 2023-09-22 17:16:06.546
98.0, 22840.130071655523, 38044.39014725568, -41747.895389544414, -40739.92112158789, -25516.706766689633, -17437.02053272969, -187500.02235174447, -9656.378287837302, -2978.437003903032, 16229.288724576083, -39090.47413950851, -35810.735620347936, -10894.217895772206, -34634.229199198395, -39907.966841216905, -38597.2605463577, -0.004, 1.002, 0.182, 192.0, 127.5, 112.0, 15.5, 40.0, 2.5, 88.0, 0.0, 0.0, 0.0, 1.695420966546522E9, 0.0, 2023-09-22 17:16:06.546
100.0, 22819.633521990007, 38027.402821469645, -41739.6028923515, -40736.99304306424, -25507.676661929687, -17436.43938737385, -187500.02235174447, -9637.871043428308, -2966.2329514304342, 16214.670683702314, -39073.21859278901, -35797.77160856385, -10881.186828754762, -34614.89494024455, -39896.25452712233, -38580.27322057167, -0.004, 1.002, 0.182, 192.0, 0.0, 0.0, 0.0, 0.0, 0.0, 0.0, 0.0, 0.0, 0.0, 1.695420966546526E9, 0.0, 2023-09-22 17:16:06.546
102.0, 22837.783138487714, 38048.61462695773, -41755.45027917031, -40747.1183833025, -25534.565810509423, -17446.408265400918, -187500.02235174447, -9661.943872206673, -2987.02007377387, 16228.327599564505, -39097.380828545196, -35815.76476285038, -10901.124584808897, -34636.82200155521, -39914.13592268657, -38598.46754055829, -0.004, 1.002, 0.182, 192.0, 0.0, 0.0, 0.0, 0.0, 0.0, 0.0, 0.0, 0.0, 0.0, 1.695420966546529E9, 0.0, 2023-09-22 17:16:06.546
104.0, 22812.793888186683, 38024.92177783511, -41743.17917146435, -40737.95416807582, -25517.91376089022, -17438.160471696912, -187500.02235174447, -9643.749552220053, -2982.885001049638, 16206.557000465036, -39087.233136562485, -35808.343983691215, -10898.53178245208, -34626.65195782804, -39908.63739355056, -38589.549194520616, -0.004, 1.002, 0.182, 192.0, 0.0, 0.0, 0.0, 0.0, 0.0, 0.0, 0.0, 0.0, 0.0, 1.695420966546532E9, 0.0, 2023-09-22 17:16:06.546
106.0, 22841.158251900466, 38051.743871181476, -41752.34338669102, -40748.973578092286, -25528.597894739854, -17449.939841024858, -187500.02235174447, -9656.28888085948, -2982.9967597719146, 16229.69105597628, -39093.64808722116, -35810.936786048034, -10898.867058618911, -34634.363309665125, -39908.79385576175, -38594.39952306742, -0.004, 1.002, 0.182, 192.0, 0.0, 0.0, 0.0, 0.0, 0.0, 0.0, 0.0, 0.0, 0.0, 1.695420966605781E9, 0.0, 2023-09-22 17:16:06.605
108.0, 22805.954254383356, 38016.24930098645, -41751.829296568554, -40750.381737992975, -25528.32967380639, -17450.766855569706, -187500.02235174447, -9655.171293636715, -2988.9646755414815, 16194.978796837187, -39095.99502038897, -35817.86582682918, -10904.902029621844, -34637.157277722035, -39914.22532966439, -38598.40048532492, -0.008, 1.0, 0.18, 192.0, 127.5, 96.0, 15.5, 32.0, 2.5, 80.0, 0.0, 0.0, 0.0, 1.695420966605793E9, 0.0, 2023-09-22 17:16:06.605
110.0, 22835.771481486736, 38048.90519963565, -41749.102383745005, -40749.91235135941, -25522.093537103363, -17449.73867532476, -187500.02235174447, -9650.589186023377, -2983.9802365279484, 16221.890297161377, -39094.31863955482, -35815.474190172456, -10897.749471396146, -34641.02412951281, -39908.74915227284, -38596.053552157115, -0.008, 1.0, 0.18, 192.0, 0.0, 0.0, 0.0, 0.0, 0.0, 0.0, 0.0, 0.0, 0.0, 1.695420966605796E9, 0.0, 2023-09-22 17:16:06.605
112.0, 22796.588873456585, 38009.49907416094, -41754.26563671418, -40752.125174060486, -25528.307322061937, -17451.146835225445, -187500.02235174447, -9657.853502971353, -2990.7975185868168, 16192.58716018047, -39097.93962215658, -35822.470286186974, -10901.951599353742, -34643.25930395834, -39914.247681408844, -38599.42866556987, -0.008, 1.0, 0.18, 192.0, 0.0, 0.0, 0.0, 0.0, 0.0, 0.0, 0.0, 0.0, 0.0, 1.695420966605799E9, 0.0, 2023-09-22 17:16:06.605
114.0, 22838.38663558801, 38050.22395255852, -41744.2520551982, -40749.51001995922, -25510.157705564226, -17445.625954344985, -187500.02235174447, -9652.399677324258, -2985.9248382955598, 16216.9282098923, -39098.45371227905, -35820.34687046371, -10897.168326040308, -34641.918199291016, -39907.25158539433, -38594.77950272316, -0.008, 1.0, 0.18, 192.0, 0.0, 0.0, 0.0, 0.0, 0.0, 0.0, 0.0, 0.0, 0.0, 1.695420966605802E9, 0.0, 2023-09-22 17:16:06.605
116.0, 22806.222475316823, 38014.975251552496, -41738.462953384274, -40738.62472040948, -25507.408440996223, -17433.220736172287, -187500.02235174447, -9644.777732464998, -2973.8101928007836, 16203.807735897033, -39082.69573243806, -35810.78032383684, -10886.05950904602, -34627.456620628436, -39895.82984397768, -38583.08954037303, -0.008, 1.0, 0.18, 192.0, 0.0, 0.0, 0.0, 0.0, 0.0, 0.0, 0.0, 0.0, 0.0, 1.695420966605806E9, 0.0, 2023-09-22 17:16:06.605
118.0, 22839.61598153305, 38044.41249900014, -41744.766145320675, -40749.822944381594, -25506.201446795636, -17441.647343831937, -187500.02235174447, -9640.977935907595, -2979.7334050814397, 16221.465614016726, -39093.75984594344, -35817.03881228433, -10891.625093415392, -34633.55864686473, -39899.11555041261, -38586.39759855242, -0.01, 1.006, 0.18, 192.0, 127.5, 88.0, 15.5, 56.0, 2.5, 80.0, 0.0, 0.0, 0.0, 1.695420966605809E9, 0.0, 2023-09-22 17:16:06.605
120.0, 22802.735603181794, 38005.76633283691, -41756.00907278169, -40756.14848806244, -25528.15085985075, -17446.229451445277, -187500.02235174447, -9656.087715159383, -2986.505983651398, 16194.218837525706, -39100.35361055775, -35826.78417286684, -10900.58814294197, -34637.023167255305, -39907.56450981671, -38593.192528866835, -0.01, 1.006, 0.18, 192.0, 0.0, 0.0, 0.0, 0.0, 0.0, 0.0, 0.0, 0.0, 0.0, 1.695420966665646E9, 0.0, 2023-09-22 17:16:06.665
122.0, 22841.22530713383, 38043.18315305509, -41749.32590118956, -40757.31077877412, -25511.23058929808, -17450.65509684743, -187500.02235174447, -9638.116912617315, -2980.4263091595544, 16211.54143947857, -39097.60434598975, -35822.6043966537, -10896.564828940014, -34636.21850445491, -39903.3176783702, -38590.68913348784, -0.01, 1.006, 0.18, 192.0, 0.0, 0.0, 0.0, 0.0, 0.0, 0.0, 0.0, 0.0, 0.0, 1.695420966665665E9, 0.0, 2023-09-22 17:16:06.665
124.0, 22811.318673052632, 38016.60692889773, -41749.14708723391, -40748.01245308071, -25528.732005206588, -17442.921393265893, -187500.02235174447, -9657.473523315612, -2986.5953906292193, 16197.057509071532, -39100.55477625785, -35830.06987930177, -10905.438471488771, -34643.05813825824, -39914.18062617548, -38599.94275569233, -0.01, 1.006, 0.18, 192.0, 0.0, 0.0, 0.0, 0.0, 0.0, 0.0, 0.0, 0.0, 0.0, 1.695420966665669E9, 0.0, 2023-09-22 17:16:06.665
126.0, 22840.822975733638, 38045.306568778346, -41742.84389529752, -40751.432269982375, -25508.90600787473, -17449.31399218011, -187500.02235174447, -9644.509511531534, -2972.82671604475, 16217.799927926057, -39088.10485459624, -35815.63065238365, -10890.708671892724, -34632.08343173068, -39901.0154486913, -38589.906822431905, -0.01, 1.006, 0.18, 192.0, 0.0, 0.0, 0.0, 0.0, 0.0, 0.0, 0.0, 0.0, 0.0, 1.695420966665672E9, 0.0, 2023-09-22 17:16:06.665
128.0, 22817.286588822197, 38022.48543768948, -41742.73213657524, -40739.71995588779, -25522.42881327019, -17436.908774007414, -187500.02235174447, -9656.132418648294, -2973.2290474449455, 16209.529782477592, -39087.54606098486, -35818.17875125155, -10892.094480048952, -34628.86478052912, -39903.205919647924, -38589.95152592081, -0.012, 1.004, 0.18, 192.0, 127.5, 80.0, 15.5, 48.0, 2.5, 80.0, 0.0, 0.0, 0.0, 1.695420966665676E9, 0.0, 2023-09-22 17:16:06.665
130.0, 22834.43037681942, 38040.836219887286, -41744.92260753186, -40749.73353740377, -25506.469667729103, -17446.050637489636, -187500.02235174447, -9640.799121951954, -2972.044404988814, 16218.246962815163, -39087.791930173866, -35811.920262804066, -10890.351043981438, -34624.930873504985, -39900.65782078002, -38585.16825260738, -0.012, 1.004, 0.18, 192.0, 0.0, 0.0, 0.0, 0.0, 0.0, 0.0, 0.0, 0.0, 0.0, 1.695420966665679E9, 0.0, 2023-09-22 17:16:06.665
132.0, 22817.063071377645, 38026.3746412247, -41754.08682275854, -40749.68883391486, -25531.10129011885, -17446.810596801115, -187500.02235174447, -9666.637738542287, -2981.54389638232, 16215.005959869142, -39097.157311100644, -35820.34687046371, -10900.006997586132, -34633.96097826493, -39912.727762785886, -38597.61817426899, -0.012, 1.004, 0.18, 192.0, 0.0, 0.0, 0.0, 0.0, 0.0, 0.0, 0.0, 0.0, 0.0, 1.695420966665682E9, 0.0, 2023-09-22 17:16:06.665
134.0, 22832.977513429825, 38039.89744662016, -41742.5533226196, -40749.10768855902, -25506.00028109554, -17446.095340978543, -187500.02235174447, -9641.492026030068, -2972.5137916223757, 16215.430643013793, -39086.09319759526, -35809.327460447246, -10890.686320148268, -34624.19326593796, -39903.09416092565, -38587.314020075086, -0.012, 1.004, 0.18, 192.0, 0.0, 0.0, 0.0, 0.0, 0.0, 0.0, 0.0, 0.0, 0.0, 1.695420966665686E9, 0.0, 2023-09-22 17:16:06.665
136.0, 22825.75789997076, 38030.46501046002, -41753.34921519151, -40750.58290369307, -25529.514316262525, -17445.64830608944, -187500.02235174447, -9666.10129667536, -2980.1357364816354, 16219.185736082285, -39095.95031690005, -35818.67048962957, -10900.275218519595, -34633.91627477602, -39911.811341263216, -38598.02050566918, -0.012, 1.004, 0.18, 192.0, 0.0, 0.0, 0.0, 0.0, 0.0, 0.0, 0.0, 0.0, 0.0, 1.695420966725849E9, 0.0, 2023-09-22 17:16:06.725
138.0, 22828.149536627476, 38030.979100582495, -41748.856514556, -40759.85887764202, -25514.158667821728, -17453.73963758226, -187500.02235174447, -9649.024563911506, -2976.8053265577946, 16208.434546999282, -39090.18356683059, -35814.06603027177, -10895.603703928437, -34627.791896795265, -39902.89299522555, -38590.19739510982, -0.01, 1.006, 0.178, 192.0, 127.5, 88.0, 15.5, 56.0, 2.5, 72.0, 0.0, 0.0, 0.0, 1.695420966725861E9, 0.0, 2023-09-22 17:16:06.725
140.0, 22830.205897117365, 38032.96840583902, -41754.556209392096, -40754.78503165067, -25532.800022697455, -17447.570556112594, -187500.02235174447, -9670.348128121868, -2986.7071493514954, 16213.508392990638, -39101.78412220289, -35824.43723969904, -10906.712520922723, -34638.25251320035, -39914.80647502023, -38600.188624881346, -0.01, 1.006, 0.178, 192.0, 0.0, 0.0, 0.0, 0.0, 0.0, 0.0, 0.0, 0.0, 0.0, 1.695420966725864E9, 0.0, 2023-09-22 17:16:06.725
142.0, 22824.19327785889, 38022.7760103674, -41748.27536920016, -40757.93662761887, -25514.181019566182, -17451.482111392274, -187500.02235174447, -9648.085790644383, -2980.0016260149036, 16202.310169018529, -39092.08346510929, -35816.43531518404, -10898.889410363367, -34629.2224084404, -39907.408047605524, -38592.276107344165, -0.01, 1.006, 0.178, 192.0, 0.0, 0.0, 0.0, 0.0, 0.0, 0.0, 0.0, 0.0, 0.0, 1.695420966725868E9, 0.0, 2023-09-22 17:16:06.725
144.0, 22833.335141341107, 38034.264807017425, -41753.63978786943, -40757.19902005184, -25530.922476163207, -17451.727980581283, -187500.02235174447, -9669.945796721673, -2988.2047162300014, 16217.129375592396, -39102.901709425656, -35824.928978077056, -10907.383073256384, -34641.60527486864, -39915.18645467597, -38601.0603429151, -0.01, 1.006, 0.178, 192.0, 0.0, 0.0, 0.0, 0.0, 0.0, 0.0, 0.0, 0.0, 0.0, 1.695420966725871E9, 0.0, 2023-09-22 17:16:06.725
146.0, 22817.778327200216, 38018.23860624297, -41735.043136482614, -40746.24666526874, -25499.406516481224, -17438.518099608194, -187500.02235174447, -9637.759284706031, -2972.692605578018, 16202.824259141, -39082.51691848242, -35809.550977891806, -10887.735889880169, -34621.89103625906, -39897.39446608954, -38583.38011305095, -0.01, 1.006, 0.178, 192.0, 0.0, 0.0, 0.0, 0.0, 0.0, 0.0, 0.0, 0.0, 0.0, 1.695420966725874E9, 0.0, 2023-09-22 17:16:06.725
148.0, 22827.47898429382, 38027.64869065866, -41757.707805360296, -40765.08918584457, -25528.15085985075, -17454.87957654948, -187500.02235174447, -9665.743668764075, -2985.9695417844705, 16215.609456969436, -39104.220462348516, -35827.924111834065, -10900.275218519595, -34642.70051034695, -39910.91727148501, -38599.11574114749, -0.012, 1.006, 0.178, 192.0, 127.5, 80.0, 15.5, 56.0, 2.5, 72.0, 0.0, 0.0, 0.0, 1.695420966725878E9, 0.0, 2023-09-22 17:16:06.725
150.0, 22804.61314971604, 38004.58169038078, -41747.291892444126, -40757.087261329565, -25510.85060964234, -17447.324686923588, -187500.02235174447, -9646.454113299145, -2985.6789691065514, 16187.267445000107, -39099.86187217973, -35827.18650426704, -10899.24703827465, -34636.442021899464, -39908.90561448403, -38594.42187481187, -0.012, 1.006, 0.178, 192.0, 0.0, 0.0, 0.0, 0.0, 0.0, 0.0, 0.0, 0.0, 0.0, 1.695420966786261E9, 0.0, 2023-09-22 17:16:06.786
152.0, 22829.580048272615, 38031.06850756032, -41758.11013676049, -40766.22912481178, -25529.00022614005, -17458.858187062524, -187500.02235174447, -9668.090601931883, -2992.004512787403, 16215.721215691712, -39109.674287995615, -35831.634501413646, -10905.192602299763, -34645.338016192676, -39914.51590234231, -38602.22263362678, -0.012, 1.006, 0.178, 192.0, 0.0, 0.0, 0.0, 0.0, 0.0, 0.0, 0.0, 0.0, 0.0, 1.695420966786278E9, 0.0, 2023-09-22 17:16:06.786
154.0, 22803.584969471096, 38001.81007406832, -41740.921645274364, -40750.515848459705, -25510.068298586404, -17445.983582256267, -187500.02235174447, -9649.67276450071, -2985.20958247299, 16192.96713983621, -39097.78315994539, -35824.012556554386, -10896.341311495462, -34634.94445502096, -39907.676268538984, -38593.86308120049, -0.012, 1.006, 0.178, 192.0, 0.0, 0.0, 0.0, 0.0, 0.0, 0.0, 0.0, 0.0, 0.0, 1.695420966786285E9, 0.0, 2023-09-22 17:16:06.786
156.0, 22834.542135541695, 38032.74488839447, -41751.71753784628, -40764.48568874427, -25521.892371403264, -17462.233300475276, -187500.02235174447, -9663.463790829634, -2980.0686812482695, 16224.796023940567, -39098.65487797915, -35824.23607399894, -10893.502639949636, -34641.94055103547, -39905.50814932682, -38597.0593806576, -0.012, 1.006, 0.178, 192.0, 0.0, 0.0, 0.0, 0.0, 0.0, 0.0, 0.0, 0.0, 0.0, 1.69542096678629E9, 0.0, 2023-09-22 17:16:06.786
158.0, 22797.304129279153, 37998.23379495547, -41755.89731405942, -40765.2232963113, -25530.363682551826, -17461.562748141616, -187500.02235174447, -9665.05076468596, -2990.2387249754343, 16186.798058366545, -39103.61696524823, -35832.550922936316, -10904.566753455014, -34648.5790191387, -39917.80160877724, -38607.63175578496, -0.01, 1.004, 0.178, 192.0, 127.5, 88.0, 15.5, 48.0, 2.5, 72.0, 0.0, 0.0, 0.0, 1.695420966786293E9, 0.0, 2023-09-22 17:16:06.786
160.0, 22837.671379765437, 38038.62339718621, -41754.82443032556, -40767.145546334454, -25524.976912138096, -17461.763913841714, -187500.02235174447, -9665.900130975262, -2988.4505854190097, 16212.25669530114, -39105.762732715935, -35831.2545217579, -10904.767919155112, -34648.10963250514, -39917.533387843774, -38607.3635348515, -0.01, 1.004, 0.178, 192.0, 0.0, 0.0, 0.0, 0.0, 0.0, 0.0, 0.0, 0.0, 0.0, 1.695420966786297E9, 0.0, 2023-09-22 17:16:06.786
162.0, 22805.104888094054, 38005.54281539236, -41746.509581388185, -40752.616912438505, -25522.18294408118, -17448.73284682427, -187500.02235174447, -9664.044936185472, -2981.4097859155877, 16194.822334626, -39094.296287810364, -35824.68310888804, -10899.984645841676, -34635.19032420997, -39913.197149419444, -38600.099217903524, -0.01, 1.004, 0.178, 192.0, 0.0, 0.0, 0.0, 0.0, 0.0, 0.0, 0.0, 0.0, 0.0, 1.6954209667863E9, 0.0, 2023-09-22 17:16:06.786
164.0, 22839.079539666123, 38043.071394332816, -41743.82737205355, -40752.99689209424, -25510.068298586404, -17447.79407355715, -187500.02235174447, -9652.802008724453, -2984.0919952502245, 16222.247925072663, -39097.20201458955, -35821.39740245311, -10896.542477195559, -34634.74328932086, -39906.4692743384, -38593.59486026703, -0.01, 1.004, 0.178, 192.0, 0.0, 0.0, 0.0, 0.0, 0.0, 0.0, 0.0, 0.0, 0.0, 1.695420966786304E9, 0.0, 2023-09-22 17:16:06.786
166.0, 22797.952329868356, 38002.726495590985, -41753.46097391379, -40756.01437759571, -25524.328711548893, -17449.98454451377, -187500.02235174447, -9657.227654126604, -2984.3825679281435, 16199.404442239338, -39094.8774331662, -35821.53151291985, -10896.430718473282, -34631.636396841575, -39906.0669429382, -38590.465616043286, -0.01, 1.004, 0.178, 192.0, 0.0, 0.0, 0.0, 0.0, 0.0, 0.0, 0.0, 0.0, 0.0, 1.695420966846396E9, 0.0, 2023-09-22 17:16:06.846
168.0, 22835.771481486736, 38040.14331580917, -41749.48236340074, -40759.00951135272, -25511.454106742636, -17454.991335271756, -187500.02235174447, -9646.789389465976, -2987.3329981962443, 16211.988474367676, -39102.812302447834, -35826.76182112239, -10898.956465596732, -34638.74425157836, -39907.81037900572, -38594.48893004524, -0.008, 1.002, 0.17400000000000002, 192.0, 127.5, 96.0, 15.5, 40.0, 2.5, 56.0, 0.0, 0.0, 0.0, 1.695420966846407E9, 0.0, 2023-09-22 17:16:06.846
170.0, 22809.888161407493, 38011.86835907321, -41741.10045923, -40746.58194143557, -25517.153801578737, -17443.100207221534, -187500.02235174447, -9654.634851769788, -2981.5215446378643, 16199.8738288729, -39095.25741282194, -35823.14083852063, -10894.754337639135, -34631.770507308305, -39906.82690224968, -38593.0584184001, -0.008, 1.002, 0.17400000000000002, 192.0, 0.0, 0.0, 0.0, 0.0, 0.0, 0.0, 0.0, 0.0, 0.0, 1.695420966846411E9, 0.0, 2023-09-22 17:16:06.846
172.0, 22837.291400109698, 38039.517466964426, -41744.83320055404, -40760.21650555331, -25511.744679420553, -17459.08170450708, -187500.02235174447, -9651.19268312367, -2977.118250980169, 16219.20808782674, -39095.16800584412, -35818.8046000963, -10891.893314348856, -34630.25058868535, -39899.584937046166, -38588.52101427568, -0.008, 1.002, 0.17400000000000002, 192.0, 0.0, 0.0, 0.0, 0.0, 0.0, 0.0, 0.0, 0.0, 0.0, 1.695420966846414E9, 0.0, 2023-09-22 17:16:06.846
174.0, 22813.799716687172, 38015.109362019226, -41741.99452900822, -40747.721880402794, -25525.133374349283, -17445.69300957835, -187500.02235174447, -9662.525017562511, -2988.2047162300014, 16199.404442239338, -39101.51590126943, -35828.59466416772, -10900.409328986327, -34637.090222488674, -39910.336126129165, -38597.104084146515, -0.008, 1.002, 0.17400000000000002, 192.0, 0.0, 0.0, 0.0, 0.0, 0.0, 0.0, 0.0, 0.0, 0.0, 1.695420966846417E9, 0.0, 2023-09-22 17:16:06.846
176.0, 22839.79479548869, 38043.630187944196, -41737.16655220587, -40751.34286300455, -25507.14022006276, -17451.146835225445, -187500.02235174447, -9642.475502786101, -2976.0677189907697, 16214.469518002215, -39089.58006973029, -35815.340079705726, -10888.831125358478, -34625.89199851656, -39898.62381203459, -38584.45299678481, -0.008, 1.002, 0.17400000000000002, 192.0, 0.0, 0.0, 0.0, 0.0, 0.0, 0.0, 0.0, 0.0, 0.0, 1.695420966846421E9, 0.0, 2023-09-22 17:16:06.846
178.0, 22820.549943512673, 38022.53014117839, -41744.2520551982, -40747.47601121378, -25533.023540142007, -17447.905832279426, -187500.02235174447, -9668.33647112089, -2985.500155150909, 16206.422889998305, -39096.71027621154, -35823.096135031716, -10901.929247609289, -34635.16797246551, -39912.90657674153, -38596.120607390476, -0.004, 1.0, 0.17200000000000001, 192.0, 127.5, 112.0, 15.5, 32.0, 2.5, 48.0, 0.0, 0.0, 0.0, 1.695420966846424E9, 0.0, 2023-09-22 17:16:06.846
180.0, 22837.693731509895, 38034.42126922861, -41743.246226697716, -40760.46237474232, -25518.941941135163, -17458.858187062524, -187500.02235174447, -9652.71260174663, -2979.1969632145124, 16209.842706899966, -39091.569374986815, -35819.89983557461, -10898.151802796341, -34631.770507308305, -39905.39639060455, -38589.97387766527, -0.004, 1.0, 0.17200000000000001, 192.0, 0.0, 0.0, 0.0, 0.0, 0.0, 0.0, 0.0, 0.0, 0.0, 1.69542096690581E9, 0.0, 2023-09-22 17:16:06.905
182.0, 22829.75886222826, 38025.27940574639, -41738.77587780665, -40747.81128738062, -25528.75435695104, -17445.424788644887, -187500.02235174447, -9666.168351908726, -2984.2261057169567, 16207.451070243249, -39096.330296555796, -35827.74529787842, -10903.762090654624, -34637.939588777976, -39911.677230796486, -38596.14295913494, -0.004, 1.0, 0.17200000000000001, 192.0, 0.0, 0.0, 0.0, 0.0, 0.0, 0.0, 0.0, 0.0, 0.0, 1.695420966905823E9, 0.0, 2023-09-22 17:16:06.905
184.0, 22839.884202466514, 38037.81873438582, -41723.15200843239, -40744.48087745677, -25497.506618202522, -17441.915564765404, -187500.02235174447, -9634.51828176001, -2973.184343956035, 16210.557962722536, -39081.30992428183, -35812.30024245981, -10890.328692236984, -34621.95809149243, -39893.929945698976, -38578.82035718207, -0.004, 1.0, 0.17200000000000001, 192.0, 0.0, 0.0, 0.0, 0.0, 0.0, 0.0, 0.0, 0.0, 0.0, 1.695420966905826E9, 0.0, 2023-09-22 17:16:06.905
186.0, 22832.75399598527, 38034.398917484155, -41739.6028923515, -40749.957054848324, -25525.647464471756, -17447.861128790515, -187500.02235174447, -9664.491971074578, -2983.4884981499313, 16218.895163404366, -39092.64225872067, -35820.9056640751, -10898.487078963171, -34631.81521079722, -39902.33420161417, -38587.649296241914, -0.004, 1.0, 0.17200000000000001, 192.0, 0.0, 0.0, 0.0, 0.0, 0.0, 0.0, 0.0, 0.0, 0.0, 1.69542096690583E9, 0.0, 2023-09-22 17:16:06.905
188.0, 22836.844365220593, 38039.56217045333, -41725.23072066674, -40743.050365811636, -25501.57463569339, -17442.74257931025, -187500.02235174447, -9637.33460156138, -2976.961788768982, 16210.200334811252, -39085.40029351715, -35812.814332582275, -10892.385052726871, -34620.52757984729, -39897.215652133906, -38582.03900838363, -0.004, 1.002, 0.17200000000000001, 192.0, 127.5, 112.0, 15.5, 40.0, 2.5, 48.0, 0.0, 0.0, 0.0, 1.695420966905833E9, 0.0, 2023-09-22 17:16:06.905
190.0, 22844.46631007985, 38050.11219383624, -41735.51252311618, -40742.96095883381, -25524.127545848794, -17443.748407810737, -187500.02235174447, -9658.322889604913, -2975.5089253793867, 16232.462672288737, -39087.791930173866, -35811.54028314832, -10893.770860883102, -34621.60046358114, -39901.529538813775, -38584.69886597382, -0.004, 1.002, 0.17200000000000001, 192.0, 0.0, 0.0, 0.0, 0.0, 0.0, 0.0, 0.0, 0.0, 0.0, 1.695420966905837E9, 0.0, 2023-09-22 17:16:06.905
192.0, 22833.24573436329, 38043.45137398856, -41727.26472941217, -40740.92695008838, -25505.866170628808, -17442.988448499258, -187500.02235174447, -9643.57073826441, -2973.407861400588, 16218.246962815163, -39084.707389439034, -35808.701611602504, -10891.893314348856, -34615.38667862257, -39902.0659806807, -38582.93307816185, -0.004, 1.002, 0.17200000000000001, 192.0, 0.0, 0.0, 0.0, 0.0, 0.0, 0.0, 0.0, 0.0, 0.0, 1.69542096690584E9, 0.0, 2023-09-22 17:16:06.905
194.0, 22846.56737405865, 38056.72831019501, -41732.62914808144, -40745.44200246835, -25521.95942663663, -17447.92818402388, -187500.02235174447, -9662.323851862413, -2971.4185561440654, 16242.140977637886, -39088.19426157406, -35809.394515680615, -10889.211105014218, -34619.3205856467, -39902.62477429209, -38585.16825260738, -0.004, 1.002, 0.17200000000000001, 192.0, 0.0, 0.0, 0.0, 0.0, 0.0, 0.0, 0.0, 0.0, 0.0, 1.695420966905843E9, 0.0, 2023-09-22 17:16:06.905
196.0, 22817.197181844378, 38025.41351621312, -41740.11698247397, -40758.80834565262, -25517.109098089826, -17458.947594040346, -187500.02235174447, -9655.372459336813, -2974.950131768004, 16210.803831911546, -39090.675305208606, -35817.932882062545, -10893.457936460727, -34622.829809526185, -39905.93283247147, -38587.29166833063, -0.004, 1.002, 0.17200000000000001, 192.0, 0.0, 0.0, 0.0, 0.0, 0.0, 0.0, 0.0, 0.0, 0.0, 1.695420966965618E9, 0.0, 2023-09-22 17:16:06.965
198.0, 22831.524650040228, 38036.0305948294, -41757.86426757149, -40773.42638652639, -25539.43849080068, -17471.397515701952, -187500.02235174447, -9682.663939316742, -2994.932591311049, 16213.530744735093, -39116.960956688046, -35842.58685619674, -10914.937962882277, -34650.38951043958, -39924.30596641373, -38609.621061041486, -0.004, 1.006, 0.168, 192.0, 127.5, 112.0, 15.5, 56.0, 2.5, 32.0, 0.0, 0.0, 0.0, 1.69542096696563E9, 0.0, 2023-09-22 17:16:06.965
200.0, 22806.960082883845, 38009.588481138766, -41741.21221795228, -40759.00951135272, -25515.63388295578, -17453.24789920424, -187500.02235174447, -9652.444380813167, -2989.724634852962, 16185.233436254674, -39105.762732715935, -35837.46830671648, -10905.10319532194, -34637.80547831124, -39914.270033153305, -38596.96997367978, -0.004, 1.006, 0.168, 192.0, 0.0, 0.0, 0.0, 0.0, 0.0, 0.0, 0.0, 0.0, 0.0, 1.695420966965633E9, 0.0, 2023-09-22 17:16:06.965
202.0, 22838.721911754837, 38040.81386814283, -41741.12281097446, -40758.271903785695, -25516.930284134185, -17451.951498025835, -187500.02235174447, -9655.774790737009, -2984.7178440949733, 16215.318884291517, -39107.66263099464, -35832.819143869776, -10899.15763129683, -34635.5256003768, -39908.70444878393, -38592.767845722185, -0.004, 1.006, 0.168, 192.0, 0.0, 0.0, 0.0, 0.0, 0.0, 0.0, 0.0, 0.0, 0.0, 1.695420966965637E9, 0.0, 2023-09-22 17:16:06.965
204.0, 22809.351719540566, 38010.68371661707, -41734.86432252697, -40750.96288334881, -25512.19171430966, -17447.54820436814, -187500.02235174447, -9648.555177277944, -2986.3048179513003, 16192.34129099146, -39101.94058441408, -35830.583969424246, -10900.789308642068, -34629.15535320704, -39908.592690061654, -38590.35385732101, -0.004, 1.006, 0.168, 192.0, 0.0, 0.0, 0.0, 0.0, 0.0, 0.0, 0.0, 0.0, 0.0, 1.69542096696564E9, 0.0, 2023-09-22 17:16:06.965
206.0, 22847.707313025872, 38046.558266467844, -41734.39493589341, -40751.81224963811, -25512.28112128748, -17451.906794536924, -187500.02235174447, -9651.662069757233, -2979.375777170155, 16226.226535585707, -39098.09608436777, -35822.693803631526, -10893.346177738451, -34629.33416716268, -39901.64129753605, -38588.05162764211, -0.004, 1.006, 0.168, 192.0, 0.0, 0.0, 0.0, 0.0, 0.0, 0.0, 0.0, 0.0, 0.0, 1.695420966965643E9, 0.0, 2023-09-22 17:16:06.965
208.0, 22811.22926607481, 38011.71189686202, -41735.84779928301, -40753.376871749984, -25518.405499268236, -17454.45489340483, -187500.02235174447, -9653.584319780388, -2976.402995157599, 16202.421927740805, -39090.00475287494, -35818.08934427373, -10891.401575970838, -34621.68987055896, -39899.76375100181, -38583.22365083977, -0.004, 0.996, 0.17, 192.0, 127.5, 112.0, 15.5, 16.0, 2.5, 40.0, 0.0, 0.0, 0.0, 1.695420966965646E9, 0.0, 2023-09-22 17:16:06.965
210.0, 22847.215574647853, 38048.43581300209, -41738.08297372854, -40757.60135145204, -25517.220856812106, -17458.142931239956, -187500.02235174447, -9651.81853196842, -2989.8587453196938, 16215.363587780428, -39108.333183328294, -35833.13206829215, -10907.181907556285, -34641.87349580211, -39912.70541104143, -38597.796988224625, -0.004, 0.996, 0.17, 192.0, 0.0, 0.0, 0.0, 0.0, 0.0, 0.0, 0.0, 0.0, 0.0, 1.69542096702588E9, 0.0, 2023-09-22 17:16:07.025
212.0, 22814.31380680964, 38018.328013220795, -41727.555302090084, -40737.46242969781, -25515.924455633696, -17439.143948452944, -187500.02235174447, -9645.180063865193, -2981.7227103379623, 16202.600741696448, -39092.39638953166, -35821.24094024193, -10897.414195229316, -34625.132039205084, -39902.49066382535, -38582.7542642062, -0.004, 0.996, 0.17, 192.0, 0.0, 0.0, 0.0, 0.0, 0.0, 0.0, 0.0, 0.0, 0.0, 1.695420967025894E9, 0.0, 2023-09-22 17:16:07.025
214.0, 22845.449786835885, 38048.726385680005, -41742.84389529752, -40762.42932825439, -25523.63580747078, -17465.65311737694, -187500.02235174447, -9654.120761647317, -2986.058948762292, 16225.131300107398, -39099.10191286825, -35821.218588497475, -10901.504564464638, -34631.25641718583, -39903.94352721495, -38585.10119737401, -0.004, 0.996, 0.17, 192.0, 0.0, 0.0, 0.0, 0.0, 0.0, 0.0, 0.0, 0.0, 0.0, 1.695420967025898E9, 0.0, 2023-09-22 17:16:07.025
216.0, 22811.922170152924, 38015.243472485956, -41738.060621984085, -40749.73353740377, -25529.559019751432, -17454.052562004636, -187500.02235174447, -9660.982747195096, -2984.919009795071, 16197.862171871922, -39096.665572722624, -35826.15832402209, -10903.225648787697, -34633.8268677982, -39909.71027728442, -38591.31498233259, -0.004, 0.996, 0.17, 192.0, 0.0, 0.0, 0.0, 0.0, 0.0, 0.0, 0.0, 0.0, 0.0, 1.695420967025903E9, 0.0, 2023-09-22 17:16:07.025
218.0, 22845.159214157968, 38048.36875776872, -41742.1509912194, -40763.25634279923, -25521.914723147718, -17468.916472067413, -187500.02235174447, -9661.362726850835, -2984.4272714170543, 16210.245038300161, -39102.052343136354, -35829.13110603465, -10906.198430800252, -34642.4769929024, -39913.063038952714, -38595.45005505682, -0.004, 0.998, 0.176, 192.0, 127.5, 112.0, 15.5, 24.0, 2.5, 64.0, 0.0, 0.0, 0.0, 1.695420967025908E9, 0.0, 2023-09-22 17:16:07.025
220.0, 22819.767632456736, 38023.781838867886, -41726.102438700495, -40736.948339575334, -25518.070223101407, -17441.60264034303, -187500.02235174447, -9655.730087248097, -2975.9336085240375, 16197.415136982816, -39090.11651159722, -35823.40905945409, -10898.084747562974, -34632.93279801998, -39907.273937138794, -38590.75618872121, -0.004, 0.998, 0.176, 192.0, 0.0, 0.0, 0.0, 0.0, 0.0, 0.0, 0.0, 0.0, 0.0, 1.695420967025913E9, 0.0, 2023-09-22 17:16:07.025
222.0, 22844.890993224504, 38048.97225486902, -41734.30552891559, -40752.43809848286, -25510.269464286503, -17456.846530061546, -187500.02235174447, -9646.297651087958, -2970.0327479878365, 16222.225573328207, -39085.78027317289, -35814.2001407385, -10890.239285259162, -34623.321547904205, -39897.08154166717, -38579.96029614929, -0.004, 0.998, 0.176, 192.0, 0.0, 0.0, 0.0, 0.0, 0.0, 0.0, 0.0, 0.0, 0.0, 1.695420967025934E9, 0.0, 2023-09-22 17:16:07.025
224.0, 22820.95227491287, 38023.983004567985, -41726.39301137841, -40733.50617092921, -25518.070223101407, -17437.489919363252, -187500.02235174447, -9652.310270346436, -2978.9063905365933, 16209.775651666601, -39092.55285174285, -35821.9561960645, -10898.35296849644, -34624.79676303825, -39906.31281212721, -38586.44230204133, -0.004, 0.998, 0.176, 192.0, 0.0, 0.0, 0.0, 0.0, 0.0, 0.0, 0.0, 0.0, 0.0, 1.695420967025939E9, 0.0, 2023-09-22 17:16:07.025
226.0, 22845.650952535983, 38042.84787688826, -41719.531025830634, -40739.78701112116, -25497.52896994698, -17444.2177944443, -187500.02235174447, -9629.064456112917, -2967.931684009038, 16223.343160550972, -39081.153462070644, -35808.92512904706, -10885.210142756718, -34611.765696020804, -39891.73947474235, -38571.91366814538, -0.004, 0.998, 0.176, 192.0, 0.0, 0.0, 0.0, 0.0, 0.0, 0.0, 0.0, 0.0, 0.0, 1.695420967086224E9, 0.0, 2023-09-22 17:16:07.086
228.0, 22826.42845230442, 38022.82071385631, -41727.600005579, -40739.9658250768, -25523.546400492956, -17447.1682247124, -187500.02235174447, -9656.400639581758, -2976.380643413144, 16217.889334903877, -39088.03779936288, -35817.7540681069, -10894.217895772206, -34622.94156824846, -39902.08833242516, -38581.726083961265, -0.01, 1.006, 0.176, 192.0, 127.5, 88.0, 15.5, 56.0, 2.5, 64.0, 0.0, 0.0, 0.0, 1.695420967086235E9, 0.0, 2023-09-22 17:16:07.086
230.0, 22836.062054164657, 38032.70018490555, -41725.78951427812, -40752.14752580494, -25513.33165327688, -17461.227471974787, -187500.02235174447, -9643.593090008866, -2976.380643413144, 16210.312093533528, -39088.30602029634, -35818.759896607386, -10894.53082019458, -34627.1213444616, -39902.021277191794, -38581.34610430552, -0.01, 1.006, 0.176, 192.0, 0.0, 0.0, 0.0, 0.0, 0.0, 0.0, 0.0, 0.0, 0.0, 1.695420967086239E9, 0.0, 2023-09-22 17:16:07.086
232.0, 22826.294341837685, 38024.72061213501, -41726.63888056742, -40743.5644559341, -25525.982740638585, -17450.006896258223, -187500.02235174447, -9656.825322726409, -2982.885001049638, 16207.316959776517, -39095.25741282194, -35829.3546234792, -10899.403500485838, -34635.19032420997, -39907.98919296136, -38589.34802882052, -0.01, 1.006, 0.176, 192.0, 0.0, 0.0, 0.0, 0.0, 0.0, 0.0, 0.0, 0.0, 0.0, 1.695420967086242E9, 0.0, 2023-09-22 17:16:07.086
234.0, 22830.250600606276, 38027.894559847664, -41727.53295034563, -40752.885133371965, -25508.034289840973, -17457.315916695108, -187500.02235174447, -9638.876871928796, -2977.3864719136327, 16198.800945139044, -39091.725837198, -35824.32548097676, -10892.608570171426, -34628.39539389555, -39901.57424230269, -38581.83784268354, -0.01, 1.006, 0.176, 192.0, 0.0, 0.0, 0.0, 0.0, 0.0, 0.0, 0.0, 0.0, 0.0, 1.695420967086245E9, 0.0, 2023-09-22 17:16:07.086
236.0, 22828.8871441945, 38025.100591790746, -41735.08783997153, -40754.360348506016, -25527.502659261547, -17458.098227751045, -187500.02235174447, -9666.570683308923, -2984.9413615395265, 16203.07012833001, -39104.578090259805, -35834.02613807037, -10899.8728871194, -34640.599446368156, -39912.32543138569, -38595.40535156791, -0.01, 1.006, 0.176, 192.0, 0.0, 0.0, 0.0, 0.0, 0.0, 0.0, 0.0, 0.0, 0.0, 1.695420967086248E9, 0.0, 2023-09-22 17:16:07.086
238.0, 22823.478022036317, 38020.31731847731, -41728.67288931285, -40760.06004334212, -25512.079955587382, -17463.79792258715, -187500.02235174447, -9650.499779045556, -2978.593466114219, 16193.101250302941, -39096.84438667827, -35826.247730999916, -10894.977855083687, -34630.83173404118, -39907.676268538984, -38589.415084053886, -0.006, 1.008, 0.176, 192.0, 127.5, 104.0, 15.5, 64.0, 2.5, 64.0, 0.0, 0.0, 0.0, 1.695420967086251E9, 0.0, 2023-09-22 17:16:07.086
240.0, 22837.157289642968, 38033.86247561723, -41722.034421209624, -40750.18057229288, -25519.992473124563, -17453.82904456008, -187500.02235174447, -9661.698003017666, -2986.2377627179344, 16203.204238796741, -39108.623756006215, -35834.67433865957, -10904.991436599665, -34644.063966758724, -39918.96389948892, -38604.435456327854, -0.006, 1.008, 0.176, 192.0, 0.0, 0.0, 0.0, 0.0, 0.0, 0.0, 0.0, 0.0, 0.0, 1.695420967146463E9, 0.0, 2023-09-22 17:16:07.146
242.0, 22828.37305407203, 38022.038402800375, -41710.657383281876, -40749.06298507011, -25499.630033925776, -17451.54916662564, -187500.02235174447, -9636.842863183363, -2956.2640734033675, 16204.59004695297, -39076.01256084592, -35803.69482084451, -10877.05175603053, -34617.577149579185, -39889.6160590191, -38577.814528681585, -0.006, 1.008, 0.176, 192.0, 0.0, 0.0, 0.0, 0.0, 0.0, 0.0, 0.0, 0.0, 0.0, 1.695420967146476E9, 0.0, 2023-09-22 17:16:07.146
244.0, 22848.579031059628, 38042.26673153242, -41715.93239497333, -40742.98331057827, -25511.47645848709, -17444.575422355585, -187500.02235174447, -9651.259738357037, -2972.759660811384, 16216.078843602998, -39095.36917154422, -35815.22832098345, -10894.8213928725, -34639.683024845486, -39906.33516387167, -38597.19349112434, -0.006, 1.008, 0.176, 192.0, 0.0, 0.0, 0.0, 0.0, 0.0, 0.0, 0.0, 0.0, 0.0, 1.695420967146479E9, 0.0, 2023-09-22 17:16:07.146
246.0, 22825.735548226305, 38021.07727778879, -41711.86437748246, -40739.608197165515, -25496.366679235303, -17439.143948452944, -187500.02235174447, -9630.71848520261, -2962.567265339764, 16202.01959634061, -39076.99603760195, -35794.508253873384, -10881.209180499218, -34620.035841469275, -39887.962029929404, -38580.317924060575, -0.006, 1.008, 0.176, 192.0, 0.0, 0.0, 0.0, 0.0, 0.0, 0.0, 0.0, 0.0, 0.0, 1.695420967146483E9, 0.0, 2023-09-22 17:16:07.146
248.0, 22849.85308049358, 38044.680719933596, -41724.40370612189, -40744.88320885697, -25505.95557760663, -17442.139082209957, -187500.02235174447, -9649.762171478531, -2970.9491695105044, 16223.857250673444, -39088.417779018615, -35797.7492568194, -10888.697014891746, -34632.01637649732, -39892.387675331556, -38589.34802882052, -0.004, 1.006, 0.17400000000000002, 192.0, 127.5, 112.0, 15.5, 56.0, 2.5, 56.0, 0.0, 0.0, 0.0, 1.695420967146486E9, 0.0, 2023-09-22 17:16:07.146
250.0, 22819.141783611987, 38016.495170175454, -41720.35804037548, -40738.557665176115, -25495.450257712637, -17433.444253616843, -187500.02235174447, -9634.875909671297, -2966.791745041817, 16196.722232904702, -39075.721988168, -35792.049561983295, -10884.561942167515, -34625.37790839409, -39886.665628751, -38585.4588252853, -0.004, 1.006, 0.17400000000000002, 192.0, 0.0, 0.0, 0.0, 0.0, 0.0, 0.0, 0.0, 0.0, 0.0, 1.695420967146489E9, 0.0, 2023-09-22 17:16:07.146
252.0, 22851.372999116542, 38045.373624011714, -41722.57086307655, -40737.931816331366, -25499.853551370332, -17433.31014315011, -187500.02235174447, -9642.564909763922, -2965.8082682857835, 16225.846555929968, -39073.62092418921, -35790.596698593705, -10882.639692144357, -34631.1223067191, -39884.27399209428, -38588.856290442505, -0.004, 1.006, 0.17400000000000002, 192.0, 0.0, 0.0, 0.0, 0.0, 0.0, 0.0, 0.0, 0.0, 0.0, 1.695420967146492E9, 0.0, 2023-09-22 17:16:07.146
254.0, 22818.67239697843, 38011.466027673014, -41722.23558690972, -40731.91919707289, -25499.250054270036, -17429.845622759538, -187500.02235174447, -9636.507587016535, -2958.5439513378087, 16207.093442331963, -39055.11367978021, -35777.61033506517, -10873.631939128869, -34617.95712923493, -39876.294419323734, -38577.50160425921, -0.004, 1.006, 0.17400000000000002, 192.0, 0.0, 0.0, 0.0, 0.0, 0.0, 0.0, 0.0, 0.0, 0.0, 1.695420967146495E9, 0.0, 2023-09-22 17:16:07.146
0.0, 22850.814205505158, 38041.730289665495, -41729.4999038577, -40737.14950527543, -25499.741792648056, -17436.0147042292, -187500.02235174447, -9642.207281852638, -2968.758698553884, 16228.26054433114, -39065.574296185296, -35785.81342528027, -10881.320939221494, -34630.89878927455, -39881.10004438163, -38585.81645319658, -0.004, 1.006, 0.17400000000000002, 192.0, 0.0, 0.0, 0.0, 0.0, 0.0, 0.0, 0.0, 0.0, 0.0, 1.695420967205847E9, 0.0, 2023-09-22 17:16:07.205
2.0, 22813.307978309153, 38001.698315346046, -41737.635938839434, -40740.032880310166, -25509.509504975023, -17439.568631597595, -187500.02235174447, -9653.830188969398, -2974.63720734563, 16196.118735804408, -39063.5179356954, -35793.12244571715, -10886.707709635224, -34635.81617305472, -39889.45959680791, -38591.359685821495, -0.002, 0.998, 0.184, 192.0, 127.5, 120.0, 15.5, 24.0, 2.5, 96.0, 0.0, 0.0, 0.0, 1.695420967205872E9, 0.0, 2023-09-22 17:16:07.205
4.0, 22850.166004915955, 38037.975196597006, -41729.455200368786, -40737.97651982028, -25496.590196679856, -17436.417035629398, -187500.02235174447, -9640.732066718587, -2967.663463075574, 16219.990398882675, -39059.829897860276, -35789.65792532658, -10880.985663054666, -34634.54212362076, -39883.87166069409, -38586.57641250806, -0.002, 0.998, 0.184, 192.0, 0.0, 0.0, 0.0, 0.0, 0.0, 0.0, 0.0, 0.0, 0.0, 1.695420967205875E9, 0.0, 2023-09-22 17:16:07.205
6.0, 22810.80458293016, 37997.697353088544, -41732.29387191461, -40733.84144709605, -25507.207275296125, -17432.013741971703, -187500.02235174447, -9647.14701737726, -2971.753832310895, 16195.470535215205, -39059.49462169345, -35794.82117829576, -10885.008977056621, -34633.35748116463, -39885.30217233922, -38589.23627009824, -0.002, 0.998, 0.184, 192.0, 0.0, 0.0, 0.0, 0.0, 0.0, 0.0, 0.0, 0.0, 0.0, 1.695420967205879E9, 0.0, 2023-09-22 17:16:07.205
8.0, 22842.678170523428, 38027.80515286984, -41736.69716557231, -40745.93374084637, -25498.624205425287, -17442.697875821337, -187500.02235174447, -9642.788427208476, -2968.848105531705, 16216.458823258738, -39064.34495024025, -35794.284736428825, -10883.131430522375, -34633.871571287105, -39884.00577116082, -38588.16338636439, -0.002, 0.998, 0.184, 192.0, 0.0, 0.0, 0.0, 0.0, 0.0, 0.0, 0.0, 0.0, 0.0, 1.695420967205882E9, 0.0, 2023-09-22 17:16:07.205
10.0, 22808.815277673635, 37990.32127741829, -41739.111153973485, -40738.11063028701, -25509.263635786014, -17435.79118678465, -187500.02235174447, -9655.975956437107, -2973.92195152306, 16191.894256102356, -39069.70936890953, -35803.89598654461, -10887.825296857989, -34638.677196345, -39894.555794543725, -38595.919441690385, -0.002, 0.998, 0.184, 192.0, 0.0, 0.0, 0.0, 0.0, 0.0, 0.0, 0.0, 0.0, 0.0, 1.695420967205885E9, 0.0, 2023-09-22 17:16:07.205
12.0, 22846.120339169545, 38024.76531562392, -41726.102438700495, -40732.343880217544, -25483.737943618053, -17432.17020418289, -187500.02235174447, -9638.318078317414, -2959.147448438102, 16212.994302868165, -39060.54515368285, -35792.45189338349, -10874.883636818366, -34629.20005669595, -39882.2623350933, -38582.62015373947, -0.002, 0.997, 0.184, 192.0, 127.5, 120.0, 15.5, 16.0, 2.5, 96.0, 0.0, 0.0, 0.0, 1.695420967205888E9, 0.0, 2023-09-22 17:16:07.205
14.0, 22818.270065578232, 37998.50201588893, -41725.96832823376, -40722.73263010176, -25500.81467638191, -17422.849526745027, -187500.02235174447, -9648.331659833391, -2959.1698001825575, 16205.886448131378, -39058.17586877059, -35790.64140208261, -10876.023575785586, -34626.69666131695, -39881.189451359445, -38579.64737172692, -0.002, 0.997, 0.184, 192.0, 0.0, 0.0, 0.0, 0.0, 0.0, 0.0, 0.0, 0.0, 0.0, 1.695420967265688E9, 0.0, 2023-09-22 17:16:07.265
16.0, 22840.577106544628, 38025.100591790746, -41725.00720322218, -40730.86866508349, -25486.531911674967, -17431.611410571506, -187500.02235174447, -9635.322944560403, -2959.6168350716634, 16214.11189009093, -39058.46644144851, -35787.445102625505, -10876.023575785586, -34625.04263222726, -39877.009675146306, -38574.41706352438, -0.002, 0.997, 0.184, 192.0, 0.0, 0.0, 0.0, 0.0, 0.0, 0.0, 0.0, 0.0, 0.0, 1.695420967265703E9, 0.0, 2023-09-22 17:16:07.265
18.0, 22815.923132410426, 38003.19588222455, -41731.44450562531, -40727.49355167074, -25509.330691019382, -17427.096358191535, -187500.02235174447, -9652.71260174663, -2969.8762857766496, 16205.774689409101, -39068.72589215349, -35796.85518704119, -10888.272331747095, -34630.787030552274, -39888.29730609623, -38582.62015373947, -0.002, 0.997, 0.184, 192.0, 0.0, 0.0, 0.0, 0.0, 0.0, 0.0, 0.0, 0.0, 0.0, 1.695420967265706E9, 0.0, 2023-09-22 17:16:07.265
20.0, 22830.3400075841, 38020.965519066514, -41726.48241835623, -40732.72385987328, -25489.90702508772, -17434.58419258406, -187500.02235174447, -9636.887566672274, -2962.6790240620408, 16209.283913288584, -39061.05924380532, -35787.35569564768, -10882.39382295535, -34622.22631242589, -39880.51889902579, -38574.77469143566, -0.002, 0.997, 0.184, 192.0, 0.0, 0.0, 0.0, 0.0, 0.0, 0.0, 0.0, 0.0, 0.0, 1.69542096726571E9, 0.0, 2023-09-22 17:16:07.265
22.0, 22814.962007398844, 38003.486454902464, -41735.08783997153, -40733.2155982513, -25513.801039910442, -17434.852413517525, -187500.02235174447, -9663.19556989617, -2975.687739335029, 16202.198410296252, -39076.057264334835, -35801.68316384353, -10895.804869628533, -34638.632492856086, -39897.416817834004, -38593.28193584466, 0.0, 0.9975, 0.185, 192.0, 0.0, 8.0, 15.5, 24.0, 2.5, 104.0, 0.0, 0.0, 0.0, 1.695420967265713E9, 0.0, 2023-09-22 17:16:07.265
24.0, 22828.820088961136, 38013.81296084082, -41716.42413335134, -40729.0134702937, -25482.91092907321, -17431.656114060417, -187500.02235174447, -9631.634906725278, -2956.509942592376, 16205.059433586532, -39058.086461792765, -35787.78037879233, -10875.330671707472, -34622.44982987044, -39879.62482924758, -38575.95933389179, 0.0, 0.9975, 0.185, 192.0, 0.0, 0.0, 0.0, 0.0, 0.0, 0.0, 0.0, 0.0, 0.0, 1.695420967265716E9, 0.0, 2023-09-22 17:16:07.265
26.0, 22819.8346876901, 38007.554472393334, -41737.3006626726, -40738.60236866503, -25516.326787033893, -17439.50157636423, -187500.02235174447, -9657.920558204718, -2967.5517043532973, 16207.741642921168, -39072.615095688714, -35801.5490533768, -10887.601779413437, -34636.15144922155, -39891.538309042255, -38590.175043365365, 0.0, 0.9975, 0.185, 192.0, 0.0, 0.0, 0.0, 0.0, 0.0, 0.0, 0.0, 0.0, 0.0, 1.695420967265719E9, 0.0, 2023-09-22 17:16:07.265
28.0, 22822.80746970266, 38008.15796949363, -41727.95763349028, -40739.474086698785, -25494.891464101252, -17437.914602507903, -187500.02235174447, -9637.133435861282, -2965.830620030239, 16191.223703768695, -39067.18362178608, -35797.25751844139, -10887.288854991062, -34631.23406544138, -39891.203032875426, -38585.905860174404, 0.0, 0.9975, 0.185, 192.0, 0.0, 0.0, 0.0, 0.0, 0.0, 0.0, 0.0, 0.0, 0.0, 1.695420967265722E9, 0.0, 2023-09-22 17:16:07.265
30.0, 22826.65196974897, 38011.108399761724, -41732.91972075936, -40736.613063408506, -25510.895313131252, -17434.07010246159, -187500.02235174447, -9661.653299528754, -2969.1386782096242, 16202.645445185359, -39072.21276428852, -35802.57723362175, -10890.909837592822, -34638.833658556185, -39896.03100967777, -38593.41604631139, 0.0, 0.9975, 0.185, 192.0, 0.0, 0.0, 0.0, 0.0, 0.0, 0.0, 0.0, 0.0, 0.0, 1.695420967325925E9, 0.0, 2023-09-22 17:16:07.325
32.0, 22822.203972602365, 38007.26389971541, -41716.42413335134, -40729.6616708829, -25484.050868040427, -17426.1128814355, -187500.02235174447, -9634.853557926841, -2960.44384961651, 16192.296587502551, -39057.99705481494, -35789.59087009321, -10879.845724087445, -34624.081507215684, -39882.93288742696, -38578.73095020425, -0.001, 0.99975, 0.1845, 192.0, 127.5, 120.0, 15.5, 40.0, 2.5, 96.0, 0.0, 0.0, 0.0, 1.695420967325944E9, 0.0, 2023-09-22 17:16:07.325
34.0, 22833.871583208034, 38019.06562078781, -41728.49407535721, -40735.9648628193, -25502.80398163843, -17430.73969253775, -187500.02235174447, -9655.014831425528, -2961.6508438170963, 16214.804794169046, -39064.43435721807, -35793.30125967279, -10881.29858747704, -34629.71414681842, -39886.03977990625, -38583.82714794006, -0.001, 0.99975, 0.1845, 192.0, 0.0, 0.0, 0.0, 0.0, 0.0, 0.0, 0.0, 0.0, 0.0, 1.695420967325948E9, 0.0, 2023-09-22 17:16:07.325
36.0, 22816.280760321708, 38001.02776301238, -41723.509636343675, -40736.613063408506, -25491.94103383315, -17431.276134404678, -187500.02235174447, -9642.43079929719, -2961.4943816059094, 16190.44139271276, -39059.405214715625, -35790.68610557152, -10879.666910131802, -34624.66265257152, -39881.90470718202, -38580.69790371632, -0.001, 0.99975, 0.1845, 192.0, 0.0, 0.0, 0.0, 0.0, 0.0, 0.0, 0.0, 0.0, 0.0, 1.695420967325952E9, 0.0, 2023-09-22 17:16:07.325
38.0, 22836.620847776037, 38022.507789433934, -41736.853627783494, -40743.653862911924, -25511.789382909465, -17440.775625798182, -187500.02235174447, -9662.904997218251, -2971.4856113774317, 16211.608494711936, -39071.698674166044, -35797.77160856385, -10892.139183537864, -34639.03482425628, -39892.41002707601, -38590.42091255438, -0.001, 0.99975, 0.1845, 192.0, 0.0, 0.0, 0.0, 0.0, 0.0, 0.0, 0.0, 0.0, 0.0, 1.695420967325955E9, 0.0, 2023-09-22 17:16:07.325
40.0, 22811.363376541543, 37996.28919318786, -41722.43675260982, -40731.44981043933, -25492.61158616681, -17428.482166347763, -187500.02235174447, -9644.174235364704, -2967.931684009038, 16184.58523566547, -39062.24388626145, -35792.58600385022, -10886.841820101956, -34628.171876451, -39887.1126636401, -38581.27904907215, -0.001, 0.99975, 0.1845, 192.0, 0.0, 0.0, 0.0, 0.0, 0.0, 0.0, 0.0, 0.0, 0.0, 1.695420967325959E9, 0.0, 2023-09-22 17:16:07.325
42.0, 22832.530478540717, 38019.71382137702, -41739.71465107377, -40750.2699792707, -25509.06247008592, -17447.25763169022, -187500.02235174447, -9666.034241441994, -2973.6537305895963, 16212.010826112131, -39075.9231538681, -35802.30901268828, -10892.630921915881, -34638.699548089455, -39892.00769567581, -38587.805758453105, -0.0025, 1.001875, 0.18325, 192.0, 127.5, 112.0, 15.5, 48.0, 2.5, 88.0, 0.0, 0.0, 0.0, 1.695420967325962E9, 0.0, 2023-09-22 17:16:07.325
44.0, 22800.254559547255, 37986.856757027716, -41740.07227898506, -40748.88417111447, -25507.542551462957, -17442.764931054706, -187500.02235174447, -9660.066325672427, -2981.3874341711326, 16174.951633805233, -39079.477081236495, -35813.26136747139, -10900.789308642068, -34639.92889403449, -39902.62477429209, -38595.09242714554, -0.0025, 1.001875, 0.18325, 192.0, 0.0, 0.0, 0.0, 0.0, 0.0, 0.0, 0.0, 0.0, 0.0, 1.695420967386153E9, 0.0, 2023-09-22 17:16:07.386
46.0, 22836.53144079822, 38021.390202211165, -41736.33953766102, -40745.93374084637, -25504.65917642822, -17438.02636123018, -187500.02235174447, -9656.847674470864, -2977.8335068027386, 16200.16440155082, -39085.04266560586, -35816.77059135087, -10897.950637096243, -34640.800612068255, -39903.29532662575, -38597.12643589097, -0.0025, 1.001875, 0.18325, 192.0, 0.0, 0.0, 0.0, 0.0, 0.0, 0.0, 0.0, 0.0, 0.0, 1.695420967386169E9, 0.0, 2023-09-22 17:16:07.386
48.0, 22805.32840553861, 37990.05305648483, -41722.5485113321, -40731.24864473923, -25498.601853680833, -17425.9117157354, -187500.02235174447, -9646.521168532512, -2965.987082241426, 16185.881636843878, -39069.59761018725, -35804.96887027846, -10887.467668946705, -34621.980443236884, -39892.47708230938, -38582.62015373947, -0.0025, 1.001875, 0.18325, 192.0, 0.0, 0.0, 0.0, 0.0, 0.0, 0.0, 0.0, 0.0, 0.0, 1.695420967386172E9, 0.0, 2023-09-22 17:16:07.386
50.0, 22842.65581877897, 38027.93926333657, -41727.13061894543, -40739.742307632245, -25502.312243260414, -17438.629858330474, -187500.02235174447, -9645.6270987543, -2969.5186578653647, 16218.626942470903, -39077.308962024326, -35805.28179470084, -10891.759203882124, -34626.96488225042, -39893.70642825442, -38581.793139194626, -0.0025, 1.001875, 0.18325, 192.0, 0.0, 0.0, 0.0, 0.0, 0.0, 0.0, 0.0, 0.0, 0.0, 1.695420967386176E9, 0.0, 2023-09-22 17:16:07.386
52.0, 22808.345891040077, 37992.735265819465, -41720.514502586666, -40729.37109820498, -25500.94878684864, -17428.63862855895, -187500.02235174447, -9647.705810988642, -2971.217390443968, 16191.246055513151, -39074.53734571187, -35805.59471912321, -10893.569695183003, -34623.90269326004, -39895.15929164401, -38582.46369152828, -0.0022500000000000003, 1.0019375, 0.18062499999999998, 192.0, 127.5, 120.0, 15.5, 40.0, 2.5, 72.0, 0.0, 0.0, 0.0, 1.695420967386179E9, 0.0, 2023-09-22 17:16:07.386
54.0, 22836.218516375844, 38024.85472260174, -41736.04896498311, -40751.856953127026, -25505.039156083963, -17450.722152080794, -187500.02235174447, -9657.942909949174, -2976.4253469020546, 16209.30626503304, -39087.34489528476, -35810.020364525364, -10897.34713999595, -34635.123268976604, -39899.49553006834, -38592.11964513298, -0.0022500000000000003, 1.0019375, 0.18062499999999998, 192.0, 0.0, 0.0, 0.0, 0.0, 0.0, 0.0, 0.0, 0.0, 0.0, 1.695420967386182E9, 0.0, 2023-09-22 17:16:07.386
56.0, 22804.188466571388, 37990.54479486284, -41726.48241835623, -40738.04357505364, -25502.04402232695, -17433.019570472192, -187500.02235174447, -9656.28888085948, -2973.989006756426, 16186.328671732983, -39083.36628477172, -35812.27789071535, -10892.049776560043, -34630.652920085544, -39899.651992279534, -38592.477273044264, -0.0022500000000000003, 1.0019375, 0.18062499999999998, 192.0, 0.0, 0.0, 0.0, 0.0, 0.0, 0.0, 0.0, 0.0, 0.0, 1.695420967386185E9, 0.0, 2023-09-22 17:16:07.386
58.0, 22833.46925180784, 38017.36688820921, -41736.96538650577, -40759.54595321965, -25496.992528080053, -17453.73963758226, -187500.02235174447, -9655.975956437107, -2970.8374107882278, 16200.454974228738, -39089.31184879683, -35815.831818083745, -10890.216933514706, -34636.33026317719, -39895.36045734411, -38593.77367422267, -0.0022500000000000003, 1.0019375, 0.18062499999999998, 192.0, 0.0, 0.0, 0.0, 0.0, 0.0, 0.0, 0.0, 0.0, 0.0, 1.695420967386189E9, 0.0, 2023-09-22 17:16:07.386
60.0, 22798.913454879937, 37988.17550995058, -41737.770049306164, -40747.90069435843, -25510.85060964234, -17440.574460098083, -187500.02235174447, -9663.217921640626, -2982.661483605085, 16172.269424470596, -39097.8278634343, -35827.45472520051, -10902.44333773176, -34647.081452260194, -39907.02806794978, -38604.860139472505, -0.0022500000000000003, 1.0019375, 0.18062499999999998, 192.0, 0.0, 0.0, 0.0, 0.0, 0.0, 0.0, 0.0, 0.0, 0.0, 1.695420967446308E9, 0.0, 2023-09-22 17:16:07.446
62.0, 22827.61309476055, 38018.86445508772, -41730.88571201393, -40753.39922349444, -25497.75248739153, -17450.23041370278, -187500.02235174447, -9652.846712213364, -2973.5196201228646, 16195.53759044857, -39085.60145921725, -35810.377992436646, -10891.178058526286, -34634.922103276505, -39892.70059975393, -38590.51031953219, -0.004125, 1.00296875, 0.1803125, 192.0, 127.5, 104.0, 15.5, 48.0, 2.5, 80.0, 0.0, 0.0, 0.0, 1.695420967446319E9, 0.0, 2023-09-22 17:16:07.446
64.0, 22804.27787354921, 37996.915042032604, -41733.34440390401, -40744.4138222234, -25516.259731800525, -17439.188651941855, -187500.02235174447, -9667.509456576045, -2982.3038556938, 16184.62993915438, -39090.18356683059, -35815.22832098345, -10901.079881319987, -34644.44394641447, -39906.44692259395, -38600.68036325936, -0.004125, 1.00296875, 0.1803125, 192.0, 0.0, 0.0, 0.0, 0.0, 0.0, 0.0, 0.0, 0.0, 0.0, 1.695420967446322E9, 0.0, 2023-09-22 17:16:07.446
66.0, 22828.0377779052, 38019.937338821575, -41723.46493285477, -40744.838505368054, -25489.66115589871, -17437.176994940877, -187500.02235174447, -9642.721371975109, -2968.915160765071, 16197.705709660735, -39077.6218864467, -35800.81144580978, -10890.038119559065, -34630.54116136327, -39891.0689224087, -38584.654162484905, -0.004125, 1.00296875, 0.1803125, 192.0, 0.0, 0.0, 0.0, 0.0, 0.0, 0.0, 0.0, 0.0, 0.0, 1.695420967446325E9, 0.0, 2023-09-22 17:16:07.446
68.0, 22810.514010252242, 38001.36303917921, -41732.472685870256, -40744.14560128994, -25509.956539864128, -17436.148814695935, -187500.02235174447, -9663.061459429438, -2972.6702538335626, 16192.140125291364, -39080.102930081244, -35806.91347204608, -10893.01090157162, -34635.36913816561, -39895.114588155106, -38587.62694449746, -0.004125, 1.00296875, 0.1803125, 192.0, 0.0, 0.0, 0.0, 0.0, 0.0, 0.0, 0.0, 0.0, 0.0, 1.695420967446329E9, 0.0, 2023-09-22 17:16:07.446
70.0, 22826.696673237882, 38014.95289980804, -41722.392049120914, -40747.520714702696, -25488.074182042383, -17440.373294397985, -187500.02235174447, -9640.5756045074, -2971.0609282327805, 16186.48513394417, -39077.6218864467, -35808.79101858032, -10892.228590515684, -34635.79382131026, -39891.89593695354, -38587.69399973083, -0.004125, 1.00296875, 0.1803125, 192.0, 0.0, 0.0, 0.0, 0.0, 0.0, 0.0, 0.0, 0.0, 0.0, 1.695420967446332E9, 0.0, 2023-09-22 17:16:07.446
72.0, 22815.207876587854, 38003.73232409148, -41731.24333992521, -40744.860857112515, -25508.727193919087, -17434.651247817426, -187500.02235174447, -9658.702869260655, -2970.725652065951, 16194.688224159268, -39080.527613225895, -35814.42365818306, -10893.055605060532, -34639.258341700835, -39893.907593954515, -38590.97970616576, -0.0050625, 1.004484375, 0.17915625, 192.0, 127.5, 104.0, 15.5, 56.0, 2.5, 72.0, 0.0, 0.0, 0.0, 1.695420967446335E9, 0.0, 2023-09-22 17:16:07.446
74.0, 22819.722928967825, 38010.88488231717, -41726.19184567832, -40744.52558094569, -25490.71168788811, -17433.868936761493, -187500.02235174447, -9638.563947506422, -2969.54100960982, 16184.384069965372, -39078.65006669165, -35810.17682673655, -10890.574561425992, -34632.50811487533, -39889.6160590191, -38583.26835432868, -0.0050625, 1.004484375, 0.17915625, 192.0, 0.0, 0.0, 0.0, 0.0, 0.0, 0.0, 0.0, 0.0, 0.0, 1.695420967505684E9, 0.0, 2023-09-22 17:16:07.505
76.0, 22824.99794065928, 38016.00343179744, -41734.88667427143, -40739.09410704304, -25515.38801376677, -17430.538526837652, -187500.02235174447, -9663.62025304082, -2973.92195152306, 16199.806773639533, -39083.83567140528, -35808.72396334696, -10899.515259208114, -34634.94445502096, -39897.50622481182, -38588.92334567587, -0.0050625, 1.004484375, 0.17915625, 192.0, 0.0, 0.0, 0.0, 0.0, 0.0, 0.0, 0.0, 0.0, 0.0, 1.695420967505696E9, 0.0, 2023-09-22 17:16:07.505
78.0, 22830.51882153974, 38021.30079523335, -41719.37456361944, -40732.835618595556, -25492.38806872226, -17428.191593669842, -187500.02235174447, -9641.022639396506, -2962.276692661845, 16196.945750349254, -39066.53542119687, -35788.339172403714, -10890.798078870544, -34618.42651586849, -39888.543175285246, -38578.97681939326, -0.0050625, 1.004484375, 0.17915625, 192.0, 0.0, 0.0, 0.0, 0.0, 0.0, 0.0, 0.0, 0.0, 0.0, 1.6954209675057E9, 0.0, 2023-09-22 17:16:07.505
80.0, 22840.554754800174, 38030.95674883804, -41735.467819627265, -40740.50226694373, -25517.44437425666, -17439.12159670849, -187500.02235174447, -9674.19262816818, -2969.4292508875433, 16217.084672103487, -39074.80556664534, -35792.11661721666, -10898.710596407724, -34629.267111929315, -39899.24966087934, -38592.07494164407, -0.0050625, 1.004484375, 0.17915625, 192.0, 0.0, 0.0, 0.0, 0.0, 0.0, 0.0, 0.0, 0.0, 0.0, 1.695420967505703E9, 0.0, 2023-09-22 17:16:07.505
82.0, 22829.021254661235, 38015.48934167497, -41721.25211015369, -40735.29431048564, -25491.292833243948, -17432.460776860808, -187500.02235174447, -9647.884624944285, -2960.689718805518, 16198.331558505484, -39063.49558395095, -35787.40039913659, -10888.428793958283, -34616.99600422335, -39890.04074216375, -38581.81549093908, -0.0045312500000000006, 1.0042421875, 0.18057812499999998, 192.0, 127.5, 112.0, 15.5, 48.0, 2.5, 88.0, 0.0, 0.0, 0.0, 1.695420967505707E9, 0.0, 2023-09-22 17:16:07.505
84.0, 22840.0406646777, 38027.22400751401, -41730.66219456938, -40741.552798933124, -25503.563940949913, -17435.813538529103, -187500.02235174447, -9665.408392597246, -2968.021090986859, 16210.982645867187, -39078.78417715838, -35803.47130339996, -10896.028387073087, -34633.2233706979, -39896.20982363341, -38590.37620906546, -0.0045312500000000006, 1.0042421875, 0.18057812499999998, 192.0, 0.0, 0.0, 0.0, 0.0, 0.0, 0.0, 0.0, 0.0, 0.0, 1.69542096750571E9, 0.0, 2023-09-22 17:16:07.505
86.0, 22815.11846961003, 38000.625431612185, -41733.16558994837, -40752.54985720514, -25501.351118248836, -17446.69883807884, -187500.02235174447, -9655.618328525821, -2963.1931141845125, 16184.16055252082, -39071.31869451031, -35802.08549524373, -10890.887485848367, -34628.060117728724, -39891.62771602008, -38584.944735162826, -0.0045312500000000006, 1.0042421875, 0.18057812499999998, 192.0, 0.0, 0.0, 0.0, 0.0, 0.0, 0.0, 0.0, 0.0, 0.0, 1.695420967505713E9, 0.0, 2023-09-22 17:16:07.505
88.0, 22839.392464088498, 38024.07241154581, -41738.53000861764, -40755.768508406705, -25516.505600989534, -17450.297468936144, -187500.02235174447, -9673.00798571205, -2975.1736492125574, 16198.130392805386, -39087.90368889614, -35816.81529483978, -10902.06335807602, -34648.46726041642, -39907.273937138794, -38600.4121423259, -0.0045312500000000006, 1.0042421875, 0.18057812499999998, 192.0, 0.0, 0.0, 0.0, 0.0, 0.0, 0.0, 0.0, 0.0, 0.0, 1.695420967505717E9, 0.0, 2023-09-22 17:16:07.505
90.0, 22815.207876587854, 37998.122036233195, -41722.01206946517, -40737.41772620889, -25499.115943803306, -17434.226564672776, -187500.02235174447, -9656.445343070667, -2966.501172363898, 16179.287872229563, -39073.26329627792, -35804.9018150451, -10893.72615739419, -34633.51394337582, -39901.4177800915, -38590.28680208764, -0.0045312500000000006, 1.0042421875, 0.18057812499999998, 192.0, 0.0, 0.0, 0.0, 0.0, 0.0, 0.0, 0.0, 0.0, 0.0, 1.695420967565605E9, 0.0, 2023-09-22 17:16:07.565
92.0, 22847.32733337013, 38034.28715876188, -41726.43771486732, -40744.30206350113, -25503.496885716544, -17440.954439753823, -187500.02235174447, -9664.022584441016, -2959.2368554159234, 16218.78340468209, -39069.485851464975, -35792.29543117231, -10885.880695090378, -34627.367213650614, -39894.51109105481, -38582.82131943957, -0.0032656250000000003, 1.00712109375, 0.1822890625, 192.0, 127.5, 120.0, 15.5, 72.0, 2.5, 96.0, 0.0, 0.0, 0.0, 1.695420967565616E9, 0.0, 2023-09-22 17:16:07.565
94.0, 22812.83859167559, 38001.76537057941, -41724.001374721694, -40741.66455765541, -25502.893388616252, -17437.713436807804, -187500.02235174447, -9655.841845970375, -2966.590579341719, 16188.742660134158, -39071.49750846595, -35794.7988265513, -10892.854439360433, -34627.724841561896, -39899.67434402399, -38585.570584007575, -0.0032656250000000003, 1.00712109375, 0.1822890625, 192.0, 0.0, 0.0, 0.0, 0.0, 0.0, 0.0, 0.0, 0.0, 0.0, 1.695420967565619E9, 0.0, 2023-09-22 17:16:07.565
96.0, 22848.735493270815, 38038.51163846393, -41724.02372646615, -40743.452697211826, -25503.116906060804, -17440.641515331452, -187500.02235174447, -9658.278186116004, -2972.2902741778225, 16211.049701100554, -39081.75695917093, -35799.470341142456, -10896.095442306452, -34633.20101895345, -39899.5178818128, -38586.889336930435, -0.0032656250000000003, 1.00712109375, 0.1822890625, 192.0, 0.0, 0.0, 0.0, 0.0, 0.0, 0.0, 0.0, 0.0, 0.0, 1.695420967565622E9, 0.0, 2023-09-22 17:16:07.565
98.0, 22817.59951324457, 38001.63126011268, -41715.5971188065, -40730.2651679832, -25501.57463569339, -17427.006951213712, -187500.02235174447, -9650.008040667539, -2970.502134621398, 16192.25188401364, -39073.173889300095, -35793.591832350714, -10892.29564574905, -34618.94060599096, -39893.12528289858, -38577.09927285901, -0.0032656250000000003, 1.00712109375, 0.1822890625, 192.0, 0.0, 0.0, 0.0, 0.0, 0.0, 0.0, 0.0, 0.0, 0.0, 1.695420967565626E9, 0.0, 2023-09-22 17:16:07.565
100.0, 22849.22723164883, 38033.48249596149, -41719.73219153073, -40741.10576404402, -25496.076106557382, -17437.69108506335, -187500.02235174447, -9650.879758701296, -2966.054137474792, 16223.678436717802, -39075.565525956816, -35792.65305908359, -10888.808773614022, -34618.96295773541, -39888.386713074055, -38575.02056062467, -0.0032656250000000003, 1.00712109375, 0.1822890625, 192.0, 0.0, 0.0, 0.0, 0.0, 0.0, 0.0, 0.0, 0.0, 0.0, 1.695420967565629E9, 0.0, 2023-09-22 17:16:07.565
102.0, 22804.70255669386, 37991.21534719651, -41726.370659633954, -40743.653862911924, -25510.895313131252, -17438.160471696912, -187500.02235174447, -9662.636776284788, -2976.8053265577946, 16190.06141305702, -39084.84149990577, -35806.57819587925, -10897.481250462683, -34626.00375723884, -39898.42264633449, -38584.96708690728, -0.0046328125, 1.005560546875, 0.18014453125, 192.0, 127.5, 104.0, 15.5, 48.0, 2.5, 72.0, 0.0, 0.0, 0.0, 1.695420967565632E9, 0.0, 2023-09-22 17:16:07.565
104.0, 22836.553792542672, 38023.40185921214, -41724.135485188424, -40749.44296472585, -25498.311281002916, -17443.435483388363, -187500.02235174447, -9654.85836921434, -2977.2076579579902, 16206.758166165135, -39091.435264520085, -35811.67439361506, -10897.190677784763, -34629.84825728515, -39899.42847483498, -38587.5598892641, -0.0046328125, 1.005560546875, 0.18014453125, 192.0, 0.0, 0.0, 0.0, 0.0, 0.0, 0.0, 0.0, 0.0, 0.0, 1.695420967625841E9, 0.0, 2023-09-22 17:16:07.625
106.0, 22804.501390993762, 37993.09289373075, -41725.43188636683, -40740.63637741046, -25509.04011834146, -17433.958343739312, -187500.02235174447, -9661.787409995486, -2976.3582916686883, 16190.351985734938, -39088.59659297426, -35812.054373270796, -10894.843744616956, -34625.89199851656, -39899.47317832389, -38584.87767992946, -0.0046328125, 1.005560546875, 0.18014453125, 192.0, 0.0, 0.0, 0.0, 0.0, 0.0, 0.0, 0.0, 0.0, 0.0, 1.695420967625857E9, 0.0, 2023-09-22 17:16:07.625
108.0, 22837.917248954447, 38029.28036800389, -41723.73315378823, -40747.364252491505, -25494.645594912243, -17441.55793685412, -187500.02235174447, -9650.969165679118, -2968.7139950649735, 16211.697901689757, -39084.59563071676, -35803.6501173556, -10889.099346291941, -34621.57811183669, -39893.348800343134, -38579.557964749096, -0.0046328125, 1.005560546875, 0.18014453125, 192.0, 0.0, 0.0, 0.0, 0.0, 0.0, 0.0, 0.0, 0.0, 0.0, 1.695420967625861E9, 0.0, 2023-09-22 17:16:07.625
110.0, 22807.340062539588, 38003.30764094683, -41729.14227594641, -40739.27292099869, -25517.48907774557, -17434.181861183868, -187500.02235174447, -9666.213055397637, -2980.269846948367, 16194.01767182561, -39093.33516279879, -35815.16126575009, -10901.750433653646, -34628.73067006239, -39905.68696328247, -38590.935002676844, -0.0046328125, 1.005560546875, 0.18014453125, 192.0, 0.0, 0.0, 0.0, 0.0, 0.0, 0.0, 0.0, 0.0, 0.0, 1.695420967625865E9, 0.0, 2023-09-22 17:16:07.625
112.0, 22834.318618097142, 38033.61660642822, -41724.716630544266, -40741.977482077775, -25500.85937987082, -17439.836852531058, -187500.02235174447, -9649.471598800612, -2978.2358382029342, 16207.093442331963, -39090.98822963098, -35806.13116099014, -10900.275218519595, -34622.60629208163, -39899.07084692369, -38581.793139194626, -0.00631640625, 1.0007802734375, 0.178072265625, 192.0, 127.5, 96.0, 15.5, 16.0, 2.5, 64.0, 0.0, 0.0, 0.0, 1.695420967625868E9, 0.0, 2023-09-22 17:16:07.625
114.0, 22818.381824300508, 38018.70799287653, -41722.816732265564, -40731.47216218378, -25517.109098089826, -17431.07496870458, -187500.02235174447, -9665.140171663783, -2974.9724835124593, 16205.81939289801, -39084.93090688359, -35799.8503207982, -10899.96229409722, -34620.5722833362, -39901.50718706932, -38582.46369152828, -0.00631640625, 1.0007802734375, 0.178072265625, 192.0, 0.0, 0.0, 0.0, 0.0, 0.0, 0.0, 0.0, 0.0, 0.0, 1.695420967625871E9, 0.0, 2023-09-22 17:16:07.625
116.0, 22842.365246101053, 38041.21619954303, -41717.02763045164, -40737.10480178652, -25497.014879824506, -17438.3169339081, -187500.02235174447, -9645.314174331925, -2967.6411113311187, 16211.899067389855, -39076.83957539077, -35791.80369279429, -10894.888448105867, -34615.1184576891, -39896.20982363341, -38577.0545693701, -0.00631640625, 1.0007802734375, 0.178072265625, 192.0, 0.0, 0.0, 0.0, 0.0, 0.0, 0.0, 0.0, 0.0, 0.0, 1.695420967625875E9, 0.0, 2023-09-22 17:16:07.625
118.0, 22828.32835058312, 38027.17930402509, -41723.576691577044, -40734.19907500733, -25519.634845213277, -17437.64638157444, -187500.02235174447, -9669.789334510486, -2968.892809020616, 16214.044834857565, -39077.4207207466, -35792.36248640567, -10898.308265007528, -34620.12524844709, -39901.97657370289, -38584.520052018175, -0.00631640625, 1.0007802734375, 0.178072265625, 192.0, 0.0, 0.0, 0.0, 0.0, 0.0, 0.0, 0.0, 0.0, 0.0, 1.695420967625878E9, 0.0, 2023-09-22 17:16:07.625
120.0, 22834.09510065259, 38028.98979532597, -41717.78758976312, -40741.150467532934, -25498.80301938093, -17442.9660967548, -187500.02235174447, -9651.326793590402, -2964.8471432742053, 16209.574485966503, -39074.42558698959, -35792.38483815013, -10893.927323094287, -34615.99017572286, -39896.925079455985, -38580.027351382654, -0.00631640625, 1.0007802734375, 0.178072265625, 192.0, 0.0, 0.0, 0.0, 0.0, 0.0, 0.0, 0.0, 0.0, 0.0, 1.695420967686165E9, 0.0, 2023-09-22 17:16:07.686
122.0, 22825.288513337196, 38020.16085626613, -41722.749677032196, -40734.9143308299, -25518.271388801502, -17435.768835040195, -187500.02235174447, -9673.477372345611, -2974.056061989792, 16205.528820220092, -39086.8755086512, -35809.528626147345, -10902.555096454036, -34629.736498562874, -39905.84342549365, -38591.02440965467, -0.006158203125, 1.00039013671875, 0.17603613281250002, 192.0, 127.5, 104.0, 15.5, 32.0, 2.5, 56.0, 0.0, 0.0, 0.0, 1.695420967686176E9, 0.0, 2023-09-22 17:16:07.686
124.0, 22826.51785928224, 38020.00439405494, -41705.53883380161, -40728.76760110469, -25488.09653378684, -17427.744558780738, -187500.02235174447, -9636.798159694454, -2956.532294336831, 16204.455936486238, -39066.15544154113, -35792.45189338349, -10884.226666000684, -34607.652975041034, -39884.497509538836, -38566.07986284255, -0.006158203125, 1.00039013671875, 0.17603613281250002, 192.0, 0.0, 0.0, 0.0, 0.0, 0.0, 0.0, 0.0, 0.0, 0.0, 1.69542096768618E9, 0.0, 2023-09-22 17:16:07.686
126.0, 22825.24380984829, 38019.11032427673, -41719.106342685984, -40736.56835991959, -25513.845743399354, -17435.63472457346, -187500.02235174447, -9663.530846063, -2971.3067974217893, 16210.78148016709, -39083.813319660825, -35810.8026755813, -10897.660064418324, -34627.590731095166, -39895.82984397768, -38580.943772905324, -0.006158203125, 1.00039013671875, 0.17603613281250002, 192.0, 0.0, 0.0, 0.0, 0.0, 0.0, 0.0, 0.0, 0.0, 0.0, 1.695420967686183E9, 0.0, 2023-09-22 17:16:07.686
128.0, 22818.1359551115, 38008.78381833837, -41711.86437748246, -40739.183514020864, -25495.22674026808, -17436.998180985236, -187500.02235174447, -9641.357915563336, -2963.1931141845125, 16193.7718026366, -39071.74337765496, -35802.01844001036, -10885.813639857011, -34615.9231204895, -39885.30217233922, -38570.036121611134, -0.006158203125, 1.00039013671875, 0.17603613281250002, 192.0, 0.0, 0.0, 0.0, 0.0, 0.0, 0.0, 0.0, 0.0, 0.0, 1.695420967686186E9, 0.0, 2023-09-22 17:16:07.686
130.0, 22833.335141341107, 38022.15016152265, -41716.804113007085, -40737.82005760909, -25505.843818884354, -17432.661942560906, -187500.02235174447, -9656.937081448685, -2973.9666550119705, 16202.868962629911, -39085.1767760726, -35812.92609130455, -10895.380186483882, -34630.11647821862, -39895.22634687738, -38582.35193280601, -0.006158203125, 1.00039013671875, 0.17603613281250002, 192.0, 0.0, 0.0, 0.0, 0.0, 0.0, 0.0, 0.0, 0.0, 0.0, 1.69542096768619E9, 0.0, 2023-09-22 17:16:07.686
132.0, 22812.391556786486, 38001.87712930168, -41721.85560725399, -40748.63830192546, -25499.071240314395, -17439.367465897496, -187500.02235174447, -9643.14605511976, -2968.982215998437, 16184.026442054088, -39076.68311317958, -35805.482960400936, -10891.178058526286, -34619.3205856467, -39887.29147759575, -38572.78538617914, -0.0020791015625, 0.999195068359375, 0.17801806640625, 192.0, 0.0, 8.0, 15.5, 24.0, 2.5, 80.0, 0.0, 0.0, 0.0, 1.695420967686193E9, 0.0, 2023-09-22 17:16:07.686
134.0, 22832.642237262993, 38024.09476329026, -41728.98581373523, -40749.57707519258, -25508.548379963446, -17438.40634088592, -187500.02235174447, -9662.323851862413, -2982.929704538549, 16202.287817274073, -39096.15148260015, -35815.09421051672, -10903.225648787697, -34634.005681753835, -39901.820111491696, -38587.179909608356, -0.0020791015625, 0.999195068359375, 0.17801806640625, 192.0, 0.0, 0.0, 0.0, 0.0, 0.0, 0.0, 0.0, 0.0, 0.0, 1.695420967746502E9, 0.0, 2023-09-22 17:16:07.746
136.0, 22807.809449173146, 37996.89269028815, -41721.22975840924, -40745.93374084637, -25492.85745535582, -17432.75134953873, -187500.02235174447, -9645.113008631828, -2976.4924021354204, 16182.618282153402, -39087.367247029215, -35806.399381923606, -10894.553171939036, -34620.12524844709, -39894.60049803263, -38578.9544676488, -0.0020791015625, 0.999195068359375, 0.17801806640625, 192.0, 0.0, 0.0, 0.0, 0.0, 0.0, 0.0, 0.0, 0.0, 0.0, 1.695420967746517E9, 0.0, 2023-09-22 17:16:07.746
138.0, 22834.18450763041, 38021.256091744435, -41724.135485188424, -40751.47697347128, -25500.099420559338, -17438.49574786374, -187500.02235174447, -9657.160598893237, -2973.92195152306, 16208.456898743738, -39094.94448839957, -35813.7531058494, -10890.932189337276, -34628.641263084566, -39897.46152132291, -38583.8047961956, -0.0020791015625, 0.999195068359375, 0.17801806640625, 192.0, 0.0, 0.0, 0.0, 0.0, 0.0, 0.0, 0.0, 0.0, 0.0, 1.695420967746521E9, 0.0, 2023-09-22 17:16:07.746
140.0, 22803.719079937826, 37986.856757027716, -41723.8449125105, -40754.87443862849, -25505.173266550693, -17446.36356191201, -187500.02235174447, -9657.741744249075, -2972.178515455546, 16176.829180339479, -39089.73653194148, -35816.591777395224, -10890.351043981438, -34625.28850141627, -39896.18747188896, -38581.234345583245, -0.0020791015625, 0.999195068359375, 0.17801806640625, 192.0, 0.0, 0.0, 0.0, 0.0, 0.0, 0.0, 0.0, 0.0, 0.0, 1.695420967746524E9, 0.0, 2023-09-22 17:16:07.746
142.0, 22841.22530713383, 38026.17347552461, -41718.122865929945, -40748.99592983675, -25506.782592151474, -17447.190576456855, -187500.02235174447, -9664.916654219229, -2976.626512602152, 16199.851477128444, -39094.475101766, -35820.9056640751, -10895.827221372989, -34636.464373643925, -39903.27297488129, -38590.39856080992, -0.00203955078125, 0.9995975341796874, 0.176009033203125, 192.0, 127.5, 120.0, 15.5, 32.0, 2.5, 56.0, 0.0, 0.0, 0.0, 1.695420967746527E9, 0.0, 2023-09-22 17:16:07.746
144.0, 22808.636463717994, 37995.6186408542, -41716.871168240454, -40744.436173967864, -25509.66596718621, -17445.424788644887, -187500.02235174447, -9665.877779230808, -2971.597370099708, 16182.886503086866, -39080.594668459256, -35811.27206221486, -10892.094480048952, -34622.963919992915, -39894.84636722164, -38581.01082813869, -0.00203955078125, 0.9995975341796874, 0.176009033203125, 192.0, 0.0, 0.0, 0.0, 0.0, 0.0, 0.0, 0.0, 0.0, 0.0, 1.69542096774653E9, 0.0, 2023-09-22 17:16:07.746
146.0, 22847.86377523706, 38030.822638371304, -41715.060676939574, -40745.73257514627, -25503.742754905554, -17445.849471789537, -187500.02235174447, -9662.681479773699, -2981.0968614932135, 16198.666834672313, -39090.228270319494, -35815.451838428, -10901.951599353742, -34633.737460820375, -39901.50718706932, -38586.15172936341, -0.00203955078125, 0.9995975341796874, 0.176009033203125, 192.0, 0.0, 0.0, 0.0, 0.0, 0.0, 0.0, 0.0, 0.0, 0.0, 1.695420967746533E9, 0.0, 2023-09-22 17:16:07.746
148.0, 22818.962969656346, 38000.983059523474, -41706.36584834645, -40733.75204011823, -25503.22866478308, -17433.086625705557, -187500.02235174447, -9654.366630836324, -2972.089108477725, 16183.557055420526, -39075.74433991246, -35802.73369583293, -10892.742680638157, -34621.93573974797, -39889.861928208105, -38573.36653153498, -0.00203955078125, 0.9995975341796874, 0.176009033203125, 192.0, 0.0, 0.0, 0.0, 0.0, 0.0, 0.0, 0.0, 0.0, 0.0, 1.695420967746536E9, 0.0, 2023-09-22 17:16:07.746
150.0, 22852.51293808376, 38036.6787954186, -41710.83619723752, -40745.754926890724, -25499.652385670233, -17444.68718107786, -187500.02235174447, -9652.734953491086, -2968.848105531705, 16210.893238889366, -39079.70059868105, -35800.14089347612, -10892.183887026775, -34625.400260138544, -39886.866794451096, -38571.10900534499, -0.00203955078125, 0.9995975341796874, 0.176009033203125, 192.0, 0.0, 0.0, 0.0, 0.0, 0.0, 0.0, 0.0, 0.0, 0.0, 1.695420967805817E9, 0.0, 2023-09-22 17:16:07.805
152.0, 22812.749184697772, 37999.6196031117, -41708.98100244773, -40735.406069207915, -25504.27919677248, -17434.49478560624, -187500.02235174447, -9659.731049505597, -2972.82671604475, 16183.624110653891, -39082.44986324905, -35806.533492390336, -10897.548305696047, -34628.99889099585, -39893.214689876404, -38577.34514204802, -0.00203955078125, 0.9995975341796874, 0.176009033203125, 192.0, 0.0, 0.0, 15.5, 32.0, 2.5, 80.0, 0.0, 0.0, 0.0, 1.695420967805829E9, 0.0, 2023-09-22 17:16:07.805
154.0, 22844.242792635298, 38028.98979532597, -41709.98683094822, -40744.95026409034, -25495.740830390554, -17444.50836712222, -187500.02235174447, -9651.885587201785, -2965.942378752515, 16209.082747588487, -39078.15832831363, -35801.45964639898, -10890.39574747035, -34625.71318456092, -39884.85513745012, -38570.170232077864, -0.00203955078125, 0.9995975341796874, 0.176009033203125, 192.0, 0.0, 0.0, 0.0, 0.0, 0.0, 0.0, 0.0, 0.0, 0.0, 1.695420967805833E9, 0.0, 2023-09-22 17:16:07.805
156.0, 22813.37503354252, 37993.18230070857, -41710.76914200415, -40734.981386063264, -25507.900179374243, -17434.427730372874, -187500.02235174447, -9659.999270439062, -2976.045367246314, 16188.563846178515, -39081.80166265985, -35810.62386162566, -10897.704767907235, -34629.267111929315, -39893.080579409674, -38576.09344435852, -0.00203955078125, 0.9995975341796874, 0.176009033203125, 192.0, 0.0, 0.0, 0.0, 0.0, 0.0, 0.0, 0.0, 0.0, 0.0, 1.695420967805836E9, 0.0, 2023-09-22 17:16:07.805
158.0, 22844.823937991136, 38023.96065282353, -41707.03640068012, -40742.87155185599, -25490.91285358821, -17446.475320634287, -187500.02235174447, -9648.62223251131, -2971.753832310895, 16205.059433586532, -39078.53830796937, -35805.617070867665, -10891.826259115489, -34624.930873504985, -39884.38575081656, -38569.99141812223, -0.00203955078125, 0.9995975341796874, 0.176009033203125, 192.0, 0.0, 0.0, 0.0, 0.0, 0.0, 0.0, 0.0, 0.0, 0.0, 1.695420967805839E9, 0.0, 2023-09-22 17:16:07.805
160.0, 22819.253542334267, 37999.84312055625, -41708.2433948807, -40736.07662154158, -25507.028461340484, -17439.993314742245, -187500.02235174447, -9664.894302474773, -2977.8111550582835, 16194.218837525706, -39080.48290973698, -35809.21570172497, -10896.765994640113, -34629.691795073966, -39890.75599798632, -38576.98751413674, -0.00203955078125, 0.9995975341796874, 0.176009033203125, 192.0, 0.0, 0.0, 0.0, 0.0, 0.0, 0.0, 0.0, 0.0, 0.0, 1.695420967805842E9, 0.0, 2023-09-22 17:16:07.805
162.0, 22845.025103691234, 38025.25705400194, -41705.65059252389, -40743.7656216342, -25487.537740175456, -17447.145872967943, -187500.02235174447, -9648.979860422596, -2971.239742188423, 16205.551171964547, -39074.716159667514, -35799.13506497563, -10889.971064325699, -34620.304062402734, -39881.99411415984, -38568.13622333243, -1.9775390624999882E-5, 0.9987987670898437, 0.1790045166015625, 192.0, 0.0, 8.0, 15.5, 24.0, 2.5, 88.0, 0.0, 0.0, 0.0, 1.695420967805846E9, 0.0, 2023-09-22 17:16:07.805
164.0, 22826.920190682435, 38007.17449273759, -41706.49995881319, -40732.38858370645, -25503.966272350106, -17437.244050174242, -187500.02235174447, -9664.134343163294, -2978.571114369764, 16196.67752941579, -39081.1758138151, -35804.45478015599, -10895.357834739427, -34625.08733571617, -39890.10779739712, -38574.81939492457, -1.9775390624999882E-5, 0.9987987670898437, 0.1790045166015625, 192.0, 0.0, 0.0, 0.0, 0.0, 0.0, 0.0, 0.0, 0.0, 0.0, 1.695420967865607E9, 0.0, 2023-09-22 17:16:07.865
166.0, 22844.93569671341, 38021.27844348889, -41694.96645867425, -40729.125229015975, -25477.121827259285, -17433.377198383474, -187500.02235174447, -9637.021677139006, -2970.2562654323897, 16206.042910342565, -39071.94454335506, -35792.049561983295, -10883.712575878213, -34613.28561464377, -39876.54028851274, -38561.31894127357, -1.9775390624999882E-5, 0.9987987670898437, 0.1790045166015625, 192.0, 0.0, 0.0, 0.0, 0.0, 0.0, 0.0, 0.0, 0.0, 0.0, 1.69542096786562E9, 0.0, 2023-09-22 17:16:07.865
168.0, 22841.359417600564, 38016.651632386645, -41692.753635973175, -40720.83273182306, -25491.3151849884, -17422.62600930047, -187500.02235174447, -9652.042049412972, -2970.3456724102107, 16213.217820312719, -39071.51986021041, -35792.898928272596, -10884.718404378702, -34614.783181522274, -39875.19918384543, -38559.86607788397, -1.9775390624999882E-5, 0.9987987670898437, 0.1790045166015625, 192.0, 0.0, 0.0, 0.0, 0.0, 0.0, 0.0, 0.0, 0.0, 0.0, 1.695420967865623E9, 0.0, 2023-09-22 17:16:07.865
170.0, 22850.881260738526, 38025.99466156896, -41686.98688590371, -40728.45467668232, -25471.288021956447, -17428.0127797142, -187500.02235174447, -9630.897299158252, -2956.375832125644, 16210.78148016709, -39056.63359840317, -35784.33821014622, -10872.134372250364, -34604.21080639491, -39863.5092214953, -38548.377281233945, -1.9775390624999882E-5, 0.9987987670898437, 0.1790045166015625, 192.0, 0.0, 0.0, 0.0, 0.0, 0.0, 0.0, 0.0, 0.0, 0.0, 1.695420967865627E9, 0.0, 2023-09-22 17:16:07.865
172.0, 22851.194185160897, 38027.693394147565, -41697.223984864235, -40728.54408366014, -25494.19856002314, -17425.330570379563, -187500.02235174447, -9654.970127936618, -2961.5614368392753, 16217.397596525861, -39067.76476714191, -35797.101056230196, -10879.711613620713, -34615.1184576891, -39876.428529790464, -38560.24605753971, -1.9775390624999882E-5, 0.9987987670898437, 0.1790045166015625, 192.0, 0.0, 0.0, 15.5, 48.0, 2.5, 96.0, 0.0, 0.0, 0.0, 1.69542096786563E9, 0.0, 2023-09-22 17:16:07.865
174.0, 22839.79479548869, 38018.19390275406, -41696.598136019486, -40736.881284341966, -25486.151932019227, -17438.339285652553, -187500.02235174447, -9651.19268312367, -2963.7519077958955, 16201.594913195959, -39069.03881657586, -35796.676373085545, -10882.39382295535, -34611.296309387246, -39879.378960058566, -38562.03419709614, -1.9775390624999882E-5, 0.9987987670898437, 0.1790045166015625, 192.0, 0.0, 0.0, 0.0, 0.0, 0.0, 0.0, 0.0, 0.0, 0.0, 1.695420967865633E9, 0.0, 2023-09-22 17:16:07.865
176.0, 22842.968743201345, 38027.201655769546, -41705.270612868146, -40739.83171461007, -25505.91087411772, -17443.07785547708, -187500.02235174447, -9676.830134013908, -2970.8374107882278, 16215.520049991615, -39078.6724184361, -35802.5995853662, -10887.91470383581, -34620.237007169366, -39891.98534393136, -38577.30043855911, -1.9775390624999882E-5, 0.9987987670898437, 0.1790045166015625, 192.0, 0.0, 0.0, 0.0, 0.0, 0.0, 0.0, 0.0, 0.0, 0.0, 1.695420967865636E9, 0.0, 2023-09-22 17:16:07.865
178.0, 22826.987245915803, 38011.15310325064, -41701.269650610644, -40744.14560128994, -25493.639766411754, -17448.79990205764, -187500.02235174447, -9658.725221005108, -2968.870457276161, 16196.96810209371, -39073.039778833365, -35800.27500394285, -10885.456011945727, -34614.89494024455, -39888.811396218705, -38574.05943561309, -1.9775390624999882E-5, 0.9987987670898437, 0.1790045166015625, 192.0, 0.0, 0.0, 0.0, 0.0, 0.0, 0.0, 0.0, 0.0, 0.0, 1.69542096786564E9, 0.0, 2023-09-22 17:16:07.865
180.0, 22840.130071655523, 38025.592330168765, -41708.53396755862, -40743.40799372292, -25505.6203014398, -17447.570556112594, -187500.02235174447, -9673.790296767986, -2970.770355554862, 16216.369416280917, -39079.94646787005, -35807.293451701815, -10891.267465504106, -34626.20492293894, -39895.60632653312, -38584.05066538461, -1.9775390624999882E-5, 0.9987987670898437, 0.1790045166015625, 192.0, 0.0, 0.0, 0.0, 0.0, 0.0, 0.0, 0.0, 0.0, 0.0, 1.69542096792579E9, 0.0, 2023-09-22 17:16:07.925
182.0, 22814.023234131724, 37999.50784438942, -41709.182168147825, -40748.63830192546, -25496.813714124408, -17451.526814881185, -187500.02235174447, -9656.62415702631, -2965.2047711854902, 16194.554113692537, -39072.905668366635, -35802.71134408848, -10885.947750323743, -34617.152466434534, -39887.7161607404, -38574.43941526883, -0.0010098876953125, 1.0013993835449218, 0.18050225830078126, 192.0, 127.5, 120.0, 15.5, 48.0, 2.5, 88.0, 0.0, 0.0, 0.0, 1.6954209679258E9, 0.0, 2023-09-22 17:16:07.925
184.0, 22835.86088846456, 38022.15016152265, -41717.87699674094, -40753.46627872781, -25509.531856719477, -17453.985506771267, -187500.02235174447, -9673.67853804571, -2982.214448715979, 16209.976817366698, -39094.38569478819, -35816.48001867295, -10900.856363875433, -34635.27973118779, -39901.03780043576, -38587.06815088608, -0.0010098876953125, 1.0013993835449218, 0.18050225830078126, 192.0, 0.0, 0.0, 0.0, 0.0, 0.0, 0.0, 0.0, 0.0, 0.0, 1.695420967925804E9, 0.0, 2023-09-22 17:16:07.925
186.0, 22808.927036395915, 37990.768312307395, -41715.77593276214, -40751.11934556, -25500.881731615274, -17447.011762501214, -187500.02235174447, -9661.183912895192, -2979.8675155481715, 16183.847628098445, -39087.61311621823, -35812.054373270796, -10899.06822431901, -34626.2719781723, -39897.95325970093, -38580.11675836048, -0.0010098876953125, 1.0013993835449218, 0.18050225830078126, 192.0, 0.0, 0.0, 0.0, 0.0, 0.0, 0.0, 0.0, 0.0, 0.0, 1.695420967925807E9, 0.0, 2023-09-22 17:16:07.925
188.0, 22835.391501830996, 38014.975251552496, -41727.35413638999, -40763.68102594388, -25507.833124140874, -17456.533605639175, -187500.02235174447, -9672.359785122846, -2981.186268471035, 16207.16049756533, -39095.905613411145, -35818.91635881858, -10901.146936553352, -34631.94932126395, -39899.786102746264, -38582.39663629492, -0.0010098876953125, 1.0013993835449218, 0.18050225830078126, 192.0, 0.0, 0.0, 0.0, 0.0, 0.0, 0.0, 0.0, 0.0, 0.0, 1.695420967925811E9, 0.0, 2023-09-22 17:16:07.925
190.0, 22798.3323095241, 37976.97728597847, -41726.46006661178, -40765.11153758902, -25503.116906060804, -17457.60648937303, -187500.02235174447, -9670.571645566422, -2988.0035505299034, 16170.101305258431, -39099.79481694637, -35830.226341512964, -10905.282009277584, -34636.75494632184, -39905.35168711563, -38587.872813686474, -0.0010098876953125, 1.0013993835449218, 0.18050225830078126, 192.0, 0.0, 0.0, 0.0, 0.0, 0.0, 0.0, 0.0, 0.0, 0.0, 1.695420967925814E9, 0.0, 2023-09-22 17:16:07.925
192.0, 22830.161193628453, 38010.773123594896, -41731.131581202935, -40776.60033423905, -25504.815638639408, -17468.55884415613, -187500.02235174447, -9676.316043891436, -2991.915105809582, 16190.709613646224, -39111.39537231867, -35840.150516051115, -10908.008922101131, -34649.49544066137, -39908.19035866146, -38595.67357250137, -0.0010098876953125, 1.0013993835449218, 0.18050225830078126, 192.0, 0.0, 0.0, 15.5, 56.0, 2.5, 88.0, 0.0, 0.0, 0.0, 1.695420967925817E9, 0.0, 2023-09-22 17:16:07.925
194.0, 22795.80656240065, 37980.10653020222, -41722.41440086537, -40759.7694706642, -25505.128563061782, -17454.79016957166, -187500.02235174447, -9672.225674656114, -2991.6468848761183, 16164.692183100247, -39105.56156701584, -35837.848286372224, -10908.59006745697, -34642.544048135765, -39907.7209720279, -38593.99719166722, -0.0010098876953125, 1.0013993835449218, 0.18050225830078126, 192.0, 0.0, 0.0, 0.0, 0.0, 0.0, 0.0, 0.0, 0.0, 0.0, 1.695420967986127E9, 0.0, 2023-09-22 17:16:07.986
196.0, 22836.196164631387, 38019.6244143992, -41717.38525836292, -40758.60717995252, -25498.244225769547, -17455.952460283337, -187500.02235174447, -9664.111991418838, -2981.052158004303, 16200.142049806364, -39096.978497145, -35823.297300731814, -10902.041006331565, -34634.83269629868, -39899.160253901515, -38584.27418282917, -0.0010098876953125, 1.0013993835449218, 0.18050225830078126, 192.0, 0.0, 0.0, 0.0, 0.0, 0.0, 0.0, 0.0, 0.0, 0.0, 1.695420967986158E9, 0.0, 2023-09-22 17:16:07.986
198.0, 22801.774478170217, 37984.979210493475, -41715.77593276214, -40752.23693278276, -25504.346252005846, -17450.54333812515, -187500.02235174447, -9669.834037999397, -2979.0628527477807, 16182.461819942215, -39089.28949705237, -35818.51402741838, -10903.471517976704, -34628.70831831793, -39898.64616377904, -38581.32375256107, -0.0010098876953125, 1.0013993835449218, 0.18050225830078126, 192.0, 0.0, 0.0, 0.0, 0.0, 0.0, 0.0, 0.0, 0.0, 0.0, 1.695420967986163E9, 0.0, 2023-09-22 17:16:07.986
200.0, 22835.436205319907, 38017.121019020204, -41717.83229325203, -40765.335055033574, -25500.211179281614, -17461.227471974787, -187500.02235174447, -9666.950662964662, -2978.63816960313, 16198.845648627956, -39094.296287810364, -35820.88331233065, -10904.544401710558, -34638.02899575579, -39899.36141960161, -38587.40342705291, -0.0010098876953125, 1.0013993835449218, 0.18050225830078126, 192.0, 0.0, 0.0, 0.0, 0.0, 0.0, 0.0, 0.0, 0.0, 0.0, 1.695420967986167E9, 0.0, 2023-09-22 17:16:07.986
202.0, 22801.03687060319, 37983.70516105952, -41712.11024667147, -40750.672310670896, -25504.502714217033, -17446.005934000725, -187500.02235174447, -9668.559988565445, -2979.956922525993, 16179.042003040553, -39092.21757557602, -35824.10196353221, -10904.29853252155, -34635.43619339898, -39897.95325970093, -38586.66581948588, -0.00350494384765625, 1.0006996917724609, 0.18025112915039063, 192.0, 127.5, 104.0, 15.5, 32.0, 2.5, 80.0, 0.0, 0.0, 0.0, 1.695420967986172E9, 0.0, 2023-09-22 17:16:07.986
204.0, 22833.022216918733, 38016.226949241995, -41710.38916234841, -40758.83069739708, -25492.924510589186, -17452.957326526324, -187500.02235174447, -9653.941947691674, -2973.0055300003924, 16201.080823073486, -39088.10485459624, -35815.78711459483, -10894.843744616956, -34625.93670200547, -39887.24677410684, -38574.05943561309, -0.00350494384765625, 1.0006996917724609, 0.18025112915039063, 192.0, 0.0, 0.0, 0.0, 0.0, 0.0, 0.0, 0.0, 0.0, 0.0, 1.695420967986177E9, 0.0, 2023-09-22 17:16:07.986
206.0, 22804.143763082477, 37986.90146051663, -41714.61364205046, -40754.0697758281, -25511.990548609563, -17450.006896258223, -187500.02235174447, -9672.024508956018, -2981.8121173157833, 16185.009918810121, -39096.08442736679, -35826.85122810021, -10907.740701167668, -34631.144658463556, -39900.970745202394, -38584.18477585135, -0.00350494384765625, 1.0006996917724609, 0.18025112915039063, 192.0, 0.0, 0.0, 0.0, 0.0, 0.0, 0.0, 0.0, 0.0, 0.0, 1.695420967986183E9, 0.0, 2023-09-22 17:16:07.986
208.0, 22836.173812886933, 38017.210425998026, -41700.085008154514, -40753.667444427905, -25483.76029536251, -17452.577346870585, -187500.02235174447, -9653.360802335836, -2972.3573294111884, 16200.991416095665, -39088.61894471871, -35816.81529483978, -10896.58718068447, -34621.82398102569, -39889.07961715217, -38574.61822922447, -0.00350494384765625, 1.0006996917724609, 0.18025112915039063, 192.0, 0.0, 0.0, 0.0, 0.0, 0.0, 0.0, 0.0, 0.0, 0.0, 1.695420967986196E9, 0.0, 2023-09-22 17:16:07.986
210.0, 22811.005748630258, 37993.40581815312, -41706.946993702295, -40752.058118827124, -25505.732060162078, -17451.88444279247, -187500.02235174447, -9676.494857847078, -2979.4204806590656, 16189.793192123556, -39092.53049999839, -35823.07378328726, -10901.079881319987, -34631.345824163654, -39896.366285844604, -38583.760092706696, -0.00350494384765625, 1.0006996917724609, 0.18025112915039063, 192.0, 0.0, 0.0, 0.0, 0.0, 0.0, 0.0, 0.0, 0.0, 0.0, 1.695420968047869E9, 0.0, 2023-09-22 17:16:08.047
212.0, 22830.921152939936, 38011.98011779549, -41702.78956923361, -40757.42253749639, -25486.531911674967, -17458.902890551435, -187500.02235174447, -9658.948738449662, -2969.8762857766496, 16195.179962537286, -39085.132072583685, -35815.09421051672, -10891.826259115489, -34625.31085316072, -39889.97368693038, -38575.422892024864, -0.003752471923828125, 1.0013498458862304, 0.1801255645751953, 192.0, 127.5, 112.0, 15.5, 40.0, 2.5, 80.0, 0.0, 0.0, 0.0, 1.695420968047884E9, 0.0, 2023-09-22 17:16:08.047
214.0, 22817.24188533329, 37997.27266994389, -41711.10441817098, -40752.28163627168, -25508.48132473008, -17453.94080328236, -187500.02235174447, -9683.982692239606, -2981.990931271426, 16187.669776400302, -39099.50424426845, -35829.44403045702, -10904.320884266006, -34639.10187948965, -39903.764713259305, -38589.10215963151, -0.003752471923828125, 1.0013498458862304, 0.1801255645751953, 192.0, 0.0, 0.0, 0.0, 0.0, 0.0, 0.0, 0.0, 0.0, 0.0, 1.695420968047889E9, 0.0, 2023-09-22 17:16:08.047
216.0, 22827.747205227282, 38007.688582860064, -41713.384296105425, -40765.64797945595, -25496.254920513027, -17467.68712612237, -187500.02235174447, -9668.045898442972, -2970.412727643577, 16192.140125291364, -39088.79775867436, -35817.97758555145, -10896.698939406746, -34626.674309572496, -39894.533442799264, -38578.46272927079, -0.003752471923828125, 1.0013498458862304, 0.1801255645751953, 192.0, 0.0, 0.0, 0.0, 0.0, 0.0, 0.0, 0.0, 0.0, 0.0, 1.695420968047895E9, 0.0, 2023-09-22 17:16:08.047
218.0, 22825.13205112601, 38004.201710725036, -41708.60102279199, -40748.68300541437, -25509.531856719477, -17450.40922765842, -187500.02235174447, -9679.668805559731, -2983.7343673389396, 16189.368508978905, -39102.812302447834, -35827.90176008961, -10909.998227357653, -34639.5265626343, -39911.43136160748, -38593.751322478216, -0.003752471923828125, 1.0013498458862304, 0.1801255645751953, 192.0, 0.0, 0.0, 0.0, 0.0, 0.0, 0.0, 0.0, 0.0, 0.0, 1.695420968047901E9, 0.0, 2023-09-22 17:16:08.047
220.0, 22830.787042473203, 38010.79547533935, -41692.30660108407, -40742.42451696689, -25485.257862241015, -17444.128387466477, -187500.02235174447, -9648.175197622204, -2966.9705589974596, 16193.570636936503, -39081.06405509282, -35806.33232669024, -10892.988549827165, -34616.258396656325, -39889.05726540772, -38570.751377433706, -0.003752471923828125, 1.0013498458862304, 0.1801255645751953, 192.0, 0.0, 0.0, 0.0, 0.0, 0.0, 0.0, 0.0, 0.0, 0.0, 1.695420968047906E9, 0.0, 2023-09-22 17:16:08.047
222.0, 22836.620847776037, 38016.51752191991, -41697.20163311978, -40741.083412299566, -25500.3676414928, -17441.803806043124, -187500.02235174447, -9663.933177463196, -2967.663463075574, 16208.769823166112, -39082.85219464925, -35806.533492390336, -10893.100308549441, -34620.929911247484, -39890.912460197505, -38572.80773792359, -0.004876235961914063, 1.0036749229431152, 0.18106278228759765, 192.0, 127.5, 104.0, 15.5, 56.0, 2.5, 88.0, 0.0, 0.0, 0.0, 1.695420968047912E9, 0.0, 2023-09-22 17:16:08.047
224.0, 22827.27781859372, 38007.487417159966, -41689.15500511587, -40743.22917976727, -25481.368658705793, -17440.954439753823, -187500.02235174447, -9643.436627797679, -2966.4788206194426, 16189.703785145735, -39079.342970769765, -35803.29248944431, -10890.842782359456, -34616.23604491187, -39886.12918688407, -38568.73972043273, -0.004876235961914063, 1.0036749229431152, 0.18106278228759765, 192.0, 0.0, 0.0, 0.0, 0.0, 0.0, 0.0, 0.0, 0.0, 0.0, 1.695420968105656E9, 0.0, 2023-09-22 17:16:08.105
226.0, 22837.537269298708, 38020.38437371068, -41701.984906433216, -40748.21361878081, -25497.439562969157, -17441.066198476103, -187500.02235174447, -9662.502665818056, -2973.5419718673197, 16206.936980120778, -39089.334200541285, -35805.684126101034, -10895.8719248619, -34625.064983971715, -39892.18650963146, -38579.625019982464, -0.004876235961914063, 1.0036749229431152, 0.18106278228759765, 192.0, 0.0, 0.0, 0.0, 0.0, 0.0, 0.0, 0.0, 0.0, 0.0, 1.695420968105672E9, 0.0, 2023-09-22 17:16:08.105
228.0, 22822.09221388009, 38004.961670036515, -41697.849833708984, -40745.553761190626, -25481.011030794507, -17437.64638157444, -187500.02235174447, -9643.838959197874, -2965.025957229848, 16195.001148581643, -39075.36436025672, -35789.59087009321, -10886.864171846411, -34610.9163297315, -39881.36826531509, -38570.52785998915, -0.004876235961914063, 1.0036749229431152, 0.18106278228759765, 192.0, 0.0, 0.0, 0.0, 0.0, 0.0, 0.0, 0.0, 0.0, 0.0, 1.695420968105677E9, 0.0, 2023-09-22 17:16:08.105
230.0, 22846.075635680634, 38025.56997842431, -41701.58257503302, -40740.88224659947, -25491.114019288307, -17433.93599199486, -187500.02235174447, -9660.848636728364, -2972.82671604475, 16210.625017955903, -39086.16025282863, -35794.82117829576, -10895.134317294875, -34627.791896795265, -39890.75599798632, -38584.76592120718, -0.004876235961914063, 1.0036749229431152, 0.18106278228759765, 192.0, 0.0, 0.0, 0.0, 0.0, 0.0, 0.0, 0.0, 0.0, 0.0, 1.695420968105684E9, 0.0, 2023-09-22 17:16:08.105
232.0, 22828.238943605298, 38000.647783356646, -41695.52525228563, -40738.356499476016, -25474.95370804712, -17431.387893126954, -187500.02235174447, -9643.883662686785, -2949.603253555686, 16196.833991626978, -39055.33719722476, -35771.26243963986, -10872.804924584023, -34607.742382018856, -39867.89016340854, -38565.34225527552, -0.004438117980957031, 1.0028374614715576, 0.18353139114379882, 192.0, 127.5, 112.0, 15.5, 40.0, 2.5, 104.0, 0.0, 0.0, 0.0, 1.695420968105689E9, 0.0, 2023-09-22 17:16:08.105
