%OpenBCI Raw EXG Data
%Number of channels = 16
%Sample Rate = 125 Hz
%Board = OpenBCI_GUI$BoardCytonSerialDaisy
Sample Index, EXG Channel 0, EXG Channel 1, EXG Channel 2, EXG Channel 3, EXG Channel 4, EXG Channel 5, EXG Channel 6, EXG Channel 7, EXG Channel 8, EXG Channel 9, EXG Channel 10, EXG Channel 11, EXG Channel 12, EXG Channel 13, EXG Channel 14, EXG Channel 15, Accel Channel 0, Accel Channel 1, Accel Channel 2, Other, Other, Other, Other, Other, Other, Other, Analog Channel 0, Analog Channel 1, Analog Channel 2, Timestamp, Other, Timestamp (Formatted)
12.0, -187500.02235174447, 9999.254047781713, -19168.40900998223, -43855.44137423532, -16763.160140891094, -36483.92545985287, -187500.02235174447, -40078.1083200107, 9202.459061438925, -3652.9455963308333, -51950.0138700025, -50133.44289463078, -29748.808413601928, -30084.03987694262, -47723.79073188195, -56086.56180936835, 0.0, 0.0, 0.0, 192.0, 0.0, 0.0, 0.0, 0.0, 0.0, 0.0, 0.0, 0.0, 0.0, 1.695674625795123E9, 0.0, 2023-09-25 15:43:45.795
14.0, -187500.02235174447, 10000.12576581547, -19179.27195778751, -43867.33250228554, -16774.31366137429, -36452.36479668198, -187500.02235174447, -40094.93918358555, 9241.619317724624, -3663.0262330801766, -51953.210169459606, -50138.3826301554, -29733.251599461033, -30081.782350752637, -47726.763513894504, -56071.87671326122, 0.0, 0.0, 0.0, 192.0, 0.0, 0.0, 0.0, 0.0, 0.0, 0.0, 0.0, 0.0, 0.0, 1.695674625795131E9, 0.0, 2023-09-25 15:43:45.795
16.0, -187500.02235174447, 9991.900323855916, -19172.812303639927, -43861.16342081588, -16777.308795131303, -36477.868137105484, -187500.02235174447, -40104.12575055668, 9212.986733077376, -3659.1370295449533, -51953.72425958208, -50141.087191234496, -29745.36624495581, -30094.791066025624, -47736.17359831019, -56084.0360622449, 0.0, 0.0, 0.0, 192.0, 0.0, 0.0, 0.0, 0.0, 0.0, 0.0, 0.0, 0.0, 0.0, 1.695674625795135E9, 0.0, 2023-09-25 15:43:45.795
18.0, -187500.02235174447, 9983.339605729534, -19189.687870703685, -43874.68622621134, -16792.262112171902, -36442.86530528848, -187500.02235174447, -40131.30547181433, 9226.487186728382, -3670.603474450526, -51959.73687884056, -50150.16199948335, -29749.747186869048, -30118.729784337258, -47737.44764774414, -56071.697899305575, 0.018000000000000002, 0.974, 0.31, 192.0, 0.0, 72.0, 15.0, 56.0, 4.5, 88.0, 0.0, 0.0, 0.0, 1.695674625795138E9, 0.0, 2023-09-25 15:43:45.795
20.0, -187500.02235174447, 9983.11608828498, -19184.23404505659, -43865.49965924021, -16784.394298123636, -36490.47452097828, -187500.02235174447, -40130.88078866968, 9209.29869524225, -3672.9057041294222, -51973.840829591856, -50157.15809549786, -29771.495434224064, -30105.2069789418, -47753.63031072978, -56059.270329388426, 0.018000000000000002, 0.974, 0.31, 192.0, 0.0, 0.0, 0.0, 0.0, 0.0, 0.0, 0.0, 0.0, 0.0, 1.695674625795142E9, 0.0, 2023-09-25 15:43:45.795
22.0, -187500.02235174447, 9974.823591092061, -19184.144638078767, -43860.11288882648, -16780.88507424415, -36459.87498281896, -187500.02235174447, -40081.21521248999, 9191.707872355923, -3670.692881428347, -51965.48127716557, -50147.74801108218, -29738.32544545239, -30106.30221442011, -47733.0667058309, -56091.72506233753, 0.018000000000000002, 0.974, 0.31, 192.0, 0.0, 0.0, 0.0, 0.0, 0.0, 0.0, 0.0, 0.0, 0.0, 1.695674625795145E9, 0.0, 2023-09-25 15:43:45.795
24.0, -187500.02235174447, 9991.654454666908, -19165.70444890314, -43847.081821809035, -16761.483760056944, -36480.37153248448, -187500.02235174447, -40055.44365113302, 9213.29965749975, -3670.625826194981, -51965.45892542112, -50150.00553727216, -29774.199995303155, -30099.842560272526, -47721.957888836616, -56064.03125095741, 0.018000000000000002, 0.974, 0.31, 192.0, 0.0, 0.0, 0.0, 0.0, 0.0, 0.0, 0.0, 0.0, 0.0, 1.695674625795148E9, 0.0, 2023-09-25 15:43:45.795
26.0, -187500.02235174447, 9973.728355613752, -19185.731611935094, -43870.43939476483, -16777.398202109125, -36446.17336346786, -187500.02235174447, -40083.49509042443, 9193.25014272334, -3680.2817797996736, -51961.54737014144, -50153.22418847373, -29747.84728859035, -30081.55883330808, -47713.35246722132, -56091.94857978208, 0.018000000000000002, 0.974, 0.31, 192.0, 0.0, 0.0, 0.0, 0.0, 0.0, 0.0, 0.0, 0.0, 0.0, 1.695674625795151E9, 0.0, 2023-09-25 15:43:45.795
28.0, -187500.02235174447, 9993.062614567592, -19170.308908260933, -43849.026423576644, -16757.68396349954, -36487.2111662878, -187500.02235174447, -40082.91394506859, 9226.241317539372, -3687.4790415142825, -51972.54442841344, -50167.93163632532, -29774.75878891454, -30112.180723211855, -47734.050182586936, -56048.78736123889, 0.022, 0.972, 0.312, 192.0, 0.0, 88.0, 15.0, 48.0, 4.5, 96.0, 0.0, 0.0, 0.0, 1.695674625795154E9, 0.0, 2023-09-25 15:43:45.795
0.0, -93750.01117587223, 4952.766591640305, -9544.731324283042, -21955.000991225363, -8413.755406588962, -18445.978277442253, -93750.01117587223, -20201.79721138444, 4567.847200375462, -1833.6477081355702, -25974.20227220086, -25074.566909619203, -14878.662214119699, -15046.948498123706, -23853.96049665934, -28063.844509583058, 0.024, 0.972, 0.308, 192.0, 0.0, 104.0, 15.0, 48.0, 4.5, 64.0, 0.0, 0.0, 0.0, 1.695674625950446E9, 0.0, 2023-09-25 15:43:45.950
2.0, -187500.02235174447, 9914.25036361818, -19095.721137013574, -43908.97380220578, -16836.18329002658, -36867.190822028024, -187500.02235174447, -40396.12894012081, 8459.352965277787, -3947.452181273959, -52085.71131059067, -50321.13049282199, -30312.161780853487, -30691.292070304404, -47617.776407930425, -54764.523180070304, 0.024, 0.972, 0.308, 192.0, 0.0, 0.0, 0.0, 0.0, 0.0, 0.0, 0.0, 0.0, 0.0, 1.695674625950458E9, 0.0, 2023-09-25 15:43:45.950
4.0, -187500.02235174447, 9911.3893403279, -19088.657985765694, -43895.00396192121, -16825.76737711041, -36893.38706652964, -187500.02235174447, -40379.54394573497, 8489.796041225916, -3947.653346974057, -52086.62773211333, -50317.42010324241, -30314.933397165943, -30677.12106431974, -47626.69475396809, -54737.72343846839, 0.024, 0.972, 0.308, 192.0, 0.0, 0.0, 0.0, 0.0, 0.0, 0.0, 0.0, 0.0, 0.0, 1.695674625950461E9, 0.0, 2023-09-25 15:43:45.950
6.0, -187500.02235174447, 9912.082244406014, -19100.72792777156, -43910.203148150824, -16846.420388987113, -36856.640798645116, -187500.02235174447, -40387.411759783245, 8464.33740429132, -3951.4084400425486, -52087.41004316927, -50321.84574864456, -30328.0091676723, -30686.419390013147, -47618.44696026408, -54753.74963924285, 0.024, 0.972, 0.308, 192.0, 0.0, 0.0, 0.0, 0.0, 0.0, 0.0, 0.0, 0.0, 0.0, 1.695674625950464E9, 0.0, 2023-09-25 15:43:45.950
8.0, -187500.02235174447, 9928.600183558487, -19074.57638675885, -43879.76007220269, -16810.814060069806, -36883.79816815832, -187500.02235174447, -40360.09792805886, 8494.646369772718, -3936.9245096355094, -52079.676339587735, -50317.93419336488, -30323.181190869953, -30656.803328609865, -47612.255527049965, -54711.6613044335, 0.028, 0.97, 0.292, 192.0, 0.0, 112.0, 15.0, 40.0, 4.5, 16.0, 0.0, 0.0, 0.0, 1.695674625950467E9, 0.0, 2023-09-25 15:43:45.950
10.0, -187500.02235174447, 9913.289238606601, -19113.64723606673, -43912.17010166289, -16846.33098200929, -36864.73213013794, -187500.02235174447, -40389.155195850755, 8454.033250097424, -3946.1781318400067, -52085.197220468195, -50322.73981842278, -30309.926606407957, -30699.092829119305, -47614.15542532867, -54746.8205984617, 0.028, 0.97, 0.292, 192.0, 0.0, 0.0, 0.0, 0.0, 0.0, 0.0, 0.0, 0.0, 0.0, 1.695674625950471E9, 0.0, 2023-09-25 15:43:45.950
12.0, -187500.02235174447, 9918.765415998152, -19091.63076777825, -43893.148767131424, -16831.95881032453, -36883.619354202674, -187500.02235174447, -40381.04151261348, 8507.856250745805, -3941.864245160132, -52085.331330934925, -50321.84574864456, -30327.38331882755, -30685.25709930147, -47624.548986500384, -54694.51751643629, 0.028, 0.97, 0.292, 192.0, 0.0, 0.0, 0.0, 0.0, 0.0, 0.0, 0.0, 0.0, 0.0, 1.695674625950474E9, 0.0, 2023-09-25 15:43:45.950
14.0, -187500.02235174447, 9886.668310960331, -19117.379977390763, -43917.24394765424, -16853.86351989073, -36862.27343824785, -187500.02235174447, -40412.42336182873, 8433.089665542802, -3951.8107714427438, -52096.21663048466, -50331.456998760346, -30334.714691008892, -30687.648735958188, -47623.09612311079, -54730.347362798144, 0.028, 0.97, 0.292, 192.0, 0.0, 0.0, 0.0, 0.0, 0.0, 0.0, 0.0, 0.0, 0.0, 1.695674625950477E9, 0.0, 2023-09-25 15:43:45.950
16.0, -187500.02235174447, 9900.928723922816, -19092.949520701113, -43893.52874678716, -16828.941324823063, -36880.93714486804, -187500.02235174447, -40388.0823121169, 8483.403442311697, -3955.1188296221294, -52103.369188710356, -50335.54736799567, -30342.33663586815, -30693.817817427855, -47627.991155146505, -54669.57296962416, 0.028, 0.97, 0.292, 192.0, 0.0, 0.0, 0.0, 0.0, 0.0, 0.0, 0.0, 0.0, 0.0, 1.695674626010824E9, 0.0, 2023-09-25 15:43:46.010
18.0, -187500.02235174447, 9907.164860625848, -19087.428639820653, -43889.505432785205, -16824.38156895418, -36876.846775632715, -187500.02235174447, -40385.601268482365, 8418.113996757746, -3937.662117202535, -52092.34977869389, -50325.377324268506, -30333.105365408108, -30672.606011939766, -47609.12628282622, -54727.911022652515, 0.028, 0.984, 0.28800000000000003, 192.0, 0.0, 112.0, 15.0, 96.0, 4.5, 0.0, 0.0, 0.0, 0.0, 1.695674626010845E9, 0.0, 2023-09-25 15:43:46.010
20.0, -187500.02235174447, 9895.586656997999, -19083.047697907412, -43888.0078659067, -16814.94913279404, -36875.28215352084, -187500.02235174447, -40361.528439703994, 8491.58418078234, -3926.3521345081494, -52089.68992110371, -50312.54742295115, -30320.655443746502, -30653.696436130576, -47602.688980423096, -54685.44270818743, 0.028, 0.984, 0.28800000000000003, 192.0, 0.0, 0.0, 0.0, 0.0, 0.0, 0.0, 0.0, 0.0, 0.0, 1.695674626010848E9, 0.0, 2023-09-25 15:43:46.010
22.0, -187500.02235174447, 9879.515752734633, -19105.24298015153, -43907.72210451628, -16835.445682459555, -36872.19761278601, -187500.02235174447, -40389.021085384025, 8412.213136221544, -3928.9225851205097, -52093.31090370547, -50320.884623632985, -30329.126754895064, -30661.45249145657, -47601.4372827336, -54732.649592477035, 0.028, 0.984, 0.28800000000000003, 192.0, 0.0, 0.0, 0.0, 0.0, 0.0, 0.0, 0.0, 0.0, 0.0, 1.695674626010852E9, 0.0, 2023-09-25 15:43:46.010
24.0, -187500.02235174447, 9891.496287762677, -19100.92909347166, -43900.97187769078, -16831.020037057406, -36869.94008659603, -187500.02235174447, -40387.411759783245, 8484.565733023373, -3955.1411813665845, -52114.902688849295, -50342.90109192146, -30339.497964322327, -30695.002459883985, -47623.40904753316, -54656.22897818434, 0.028, 0.984, 0.28800000000000003, 192.0, 0.0, 0.0, 0.0, 0.0, 0.0, 0.0, 0.0, 0.0, 0.0, 1.695674626010855E9, 0.0, 2023-09-25 15:43:46.010
26.0, -187500.02235174447, 9892.47976451871, -19109.132183686757, -43901.463616068795, -16833.456377203034, -36885.385142014646, -187500.02235174447, -40388.529347006006, 8400.053787237857, -3931.2918700327723, -52097.781252596535, -50328.26069930324, -30330.557266540203, -30671.197852039084, -47610.579146215816, -54711.03545558875, 0.028, 0.984, 0.28800000000000003, 192.0, 0.0, 0.0, 0.0, 0.0, 0.0, 0.0, 0.0, 0.0, 0.0, 1.695674626010858E9, 0.0, 2023-09-25 15:43:46.010
28.0, -187500.02235174447, 9895.184325597802, -19099.07389868187, -43894.80279622111, -16825.47680443249, -36872.17526104156, -187500.02235174447, -40386.33887604939, 8469.500657260496, -3941.573672482213, -52104.352665466395, -50332.39577202747, -30336.167554398486, -30671.376665994725, -47609.48391073751, -54664.38736491053, 0.022, 0.988, 0.28, 192.0, 0.0, 88.0, 15.0, 112.0, 4.0, 96.0, 0.0, 0.0, 0.0, 1.695674626010861E9, 0.0, 2023-09-25 15:43:46.010
30.0, -187500.02235174447, 9891.988026140694, -19105.935884229646, -43898.89316545644, -16830.371836468203, -36889.09553159423, -187500.02235174447, -40390.94333540718, 8408.2345257085, -3930.8895386325767, -52101.69280787621, -50326.629021958, -30338.738005010848, -30680.92086087714, -47602.06313157835, -54712.62242944508, 0.022, 0.988, 0.28, 192.0, 0.0, 0.0, 0.0, 0.0, 0.0, 0.0, 0.0, 0.0, 0.0, 1.695674626010864E9, 0.0, 2023-09-25 15:43:46.010
32.0, -187500.02235174447, 9910.137642638403, -19094.78236374645, -43885.2586013387, -16822.23580148647, -36867.906077850595, -187500.02235174447, -40380.639181213286, 8468.472477015554, -3939.562015481236, -52104.911459077775, -50328.7300859368, -30331.00430142931, -30682.709000433566, -47605.4382449911, -54674.40094642651, 0.022, 0.988, 0.28, 192.0, 0.0, 0.0, 0.0, 0.0, 0.0, 0.0, 0.0, 0.0, 0.0, 1.695674626070621E9, 0.0, 2023-09-25 15:43:46.070
34.0, -187500.02235174447, 9899.855840188962, -19094.1565149017, -43884.67745598286, -16818.52541190689, -36889.58726997224, -187500.02235174447, -40372.279628787, 8403.451252395065, -3925.815692641222, -52090.852211815385, -50317.733027664784, -30336.10049916512, -30659.6867036446, -47592.85421286276, -54721.049037104734, 0.022, 0.988, 0.28, 192.0, 0.0, 0.0, 0.0, 0.0, 0.0, 0.0, 0.0, 0.0, 0.0, 1.695674626070642E9, 0.0, 2023-09-25 15:43:46.070
36.0, -187500.02235174447, 9898.850011688473, -19108.215762164087, -43898.58024103406, -16834.931592337085, -36855.791432355814, -187500.02235174447, -40393.31262031944, 8472.540494506418, -3944.0323643722973, -52110.87937484734, -50334.34037379508, -30329.573789784172, -30690.688573204112, -47614.40129451767, -54685.040376787234, 0.022, 0.988, 0.28, 192.0, 0.0, 0.0, 0.0, 0.0, 0.0, 0.0, 0.0, 0.0, 0.0, 1.695674626070646E9, 0.0, 2023-09-25 15:43:46.070
38.0, -187500.02235174447, 9890.155183095358, -19101.219666149576, -43892.45586305331, -16829.85774634573, -36890.324877539264, -187500.02235174447, -40391.591535996384, 8422.986677049003, -3938.287966047283, -52111.28170624754, -50332.88751040548, -30355.39005463005, -30690.8450354153, -47618.67047770864, -54696.59622867063, 0.016, 0.99, 0.278, 192.0, 0.0, 64.0, 15.0, 120.0, 4.0, 88.0, 0.0, 0.0, 0.0, 1.695674626070649E9, 0.0, 2023-09-25 15:43:46.070
40.0, -187500.02235174447, 9902.605104756965, -19098.24688413702, -43888.812528707094, -16826.79555735535, -36870.85650811869, -187500.02235174447, -40393.37967555281, 8449.518197717452, -3939.7408294368784, -52105.42554920025, -50329.24417605927, -30339.229743388863, -30680.429122499125, -47619.85512016477, -54687.2084959994, 0.016, 0.99, 0.278, 192.0, 0.0, 0.0, 0.0, 0.0, 0.0, 0.0, 0.0, 0.0, 0.0, 1.695674626070652E9, 0.0, 2023-09-25 15:43:46.070
42.0, -187500.02235174447, 9901.375758811922, -19099.29741612642, -43887.82905195106, -16831.221202757504, -36900.94195615553, -187500.02235174447, -40394.16198660874, 8436.598889422285, -3919.8924803605655, -52099.47998517514, -50320.05760908814, -30342.20252540142, -30671.801349139376, -47621.73266669901, -54698.3620164826, 0.016, 0.99, 0.278, 192.0, 0.0, 0.0, 0.0, 0.0, 0.0, 0.0, 0.0, 0.0, 0.0, 1.695674626070655E9, 0.0, 2023-09-25 15:43:46.070
44.0, -187500.02235174447, 9911.702264750274, -19104.2595033955, -43884.67745598286, -16837.457339460532, -36866.140290038624, -187500.02235174447, -40393.44673078618, 8451.52985471843, -3927.939108364476, -52097.20010724069, -50322.38219051149, -30327.450374060914, -30681.300840532884, -47622.76084694396, -54691.65649314601, 0.016, 0.99, 0.278, 192.0, 0.0, 0.0, 0.0, 0.0, 0.0, 0.0, 0.0, 0.0, 0.0, 1.695674626070659E9, 0.0, 2023-09-25 15:43:46.070
46.0, -187500.02235174447, 9909.444738560289, -19104.103041184313, -43895.27218285468, -16844.319325008313, -36903.17713060106, -187500.02235174447, -40437.72553655214, 8437.627069667229, -3919.847776871655, -52096.84247932941, -50321.89045213348, -30348.77393827128, -30678.953907365074, -47626.2924225679, -54683.498106419815, 0.016, 0.99, 0.278, 192.0, 0.0, 0.0, 0.0, 0.0, 0.0, 0.0, 0.0, 0.0, 0.0, 1.695674626131643E9, 0.0, 2023-09-25 15:43:46.131
48.0, -187500.02235174447, 9891.362177295945, -19124.77840480547, -43913.80177900813, -16861.999554872462, -36884.06638909178, -187500.02235174447, -40473.13069976935, 8421.980848548514, -3941.2830998042946, -52114.16508128227, -50339.145998852975, -30343.923609724476, -30707.005346656486, -47661.83169625184, -54707.63799043155, 0.022, 0.992, 0.278, 192.0, 0.0, 88.0, 15.5, 0.0, 4.0, 88.0, 0.0, 0.0, 0.0, 1.695674626131655E9, 0.0, 2023-09-25 15:43:46.131
50.0, -187500.02235174447, 9909.645904260386, -19099.230360893056, -43894.98161017676, -16824.56038290982, -36895.42107527507, -187500.02235174447, -40344.18348600668, 8430.809787608361, -3922.0829513171857, -52101.73751136512, -50317.08482707558, -30336.52518230977, -30676.674029430633, -47622.42557077713, -54678.06663251718, 0.022, 0.992, 0.278, 192.0, 0.0, 0.0, 0.0, 0.0, 0.0, 0.0, 0.0, 0.0, 0.0, 1.695674626131658E9, 0.0, 2023-09-25 15:43:46.131
52.0, -187500.02235174447, 9913.289238606601, -19106.271160396478, -43908.88439522796, -16821.98993229746, -36857.91484807907, -187500.02235174447, -40324.02221250799, 8401.305484927356, -3924.1169600626185, -52106.31961897846, -50307.250059515245, -30332.233647374353, -30675.377628252227, -47607.76282641445, -54685.196838998425, 0.022, 0.992, 0.278, 192.0, 0.0, 0.0, 0.0, 0.0, 0.0, 0.0, 0.0, 0.0, 0.0, 1.695674626131661E9, 0.0, 2023-09-25 15:43:46.131
54.0, -187500.02235174447, 9890.825735429018, -19106.964064474592, -43917.08748544306, -16818.033673528873, -36876.1538715546, -187500.02235174447, -40341.613035394315, 8434.229604510023, -3921.4794542168925, -52097.53538340752, -50297.616457655015, -30321.325996080162, -30672.650715428677, -47598.062169320845, -54643.242614655814, 0.022, 0.992, 0.278, 192.0, 0.0, 0.0, 0.0, 0.0, 0.0, 0.0, 0.0, 0.0, 0.0, 1.695674626131665E9, 0.0, 2023-09-25 15:43:46.131
56.0, -187500.02235174447, 9889.52933425061, -19118.005826235512, -43936.17587520789, -16825.94619106605, -36859.41241495757, -187500.02235174447, -40364.65768392774, 8398.265647681434, -3925.882747874588, -52104.95616256668, -50297.72821637729, -30324.678757748457, -30704.278433832937, -47604.365361257245, -54658.08417297414, 0.022, 0.992, 0.278, 192.0, 0.0, 0.0, 0.0, 0.0, 0.0, 0.0, 0.0, 0.0, 0.0, 1.695674626131668E9, 0.0, 2023-09-25 15:43:46.131
58.0, -187500.02235174447, 9894.424366286323, -19113.669587811182, -43943.59665436705, -16821.542897408355, -36889.22964206096, -187500.02235174447, -40374.24658229906, 8441.33745924681, -3919.9818873383865, -52100.575220653445, -50285.85944007152, -30307.75848719579, -30667.710979904055, -47609.34980027078, -54626.56821329215, 0.022, 0.968, 0.28600000000000003, 192.0, 0.0, 88.0, 15.0, 32.0, 4.0, 120.0, 0.0, 0.0, 0.0, 1.695674626131671E9, 0.0, 2023-09-25 15:43:46.131
60.0, -187500.02235174447, 9910.651732760874, -19107.88048599726, -43938.67927058689, -16816.580810139276, -36874.611601187185, -187500.02235174447, -40368.7257014186, 8383.200571918556, -3900.58057315118, -52080.1904297102, -50270.14616371944, -30313.86051343209, -30659.239668755494, -47597.145747798175, -54682.64874013051, 0.022, 0.968, 0.28600000000000003, 192.0, 0.0, 0.0, 0.0, 0.0, 0.0, 0.0, 0.0, 0.0, 0.0, 1.695674626131674E9, 0.0, 2023-09-25 15:43:46.131
62.0, -187500.02235174447, 9907.678950748319, -19118.564619846897, -43945.04951775665, -16831.71294113552, -36874.65630467609, -187500.02235174447, -40393.71495171964, 8451.731020418527, -3912.9634395794205, -52088.92996179223, -50271.956655020316, -30310.57480699716, -30674.885889874207, -47613.0378381059, -54618.61099226606, 0.022, 0.968, 0.28600000000000003, 192.0, 0.0, 0.0, 0.0, 0.0, 0.0, 0.0, 0.0, 0.0, 0.0, 1.695674626191073E9, 0.0, 2023-09-25 15:43:46.191
64.0, -187500.02235174447, 9900.168764611337, -19132.065073497903, -43963.89203833247, -16848.34263901027, -36887.91088913809, -187500.02235174447, -40450.77895531404, 8384.787545774883, -3911.041189556264, -52091.25454321558, -50276.069376000094, -30316.743888466823, -30677.45634048657, -47635.52369302794, -54664.856751544095, 0.022, 0.968, 0.28600000000000003, 192.0, 0.0, 0.0, 0.0, 0.0, 0.0, 0.0, 0.0, 0.0, 0.0, 1.695674626191082E9, 0.0, 2023-09-25 15:43:46.191
66.0, -187500.02235174447, 9907.47778504822, -19113.088442455344, -43953.56553239412, -16839.737217394973, -36897.38802878714, -187500.02235174447, -40415.150274652275, 8441.471569713542, -3917.2102710259287, -52091.79098508251, -50273.81184981011, -30318.7555454678, -30670.035561327408, -47656.355518860284, -54636.22416689684, 0.022, 0.968, 0.28600000000000003, 192.0, 0.0, 0.0, 0.0, 0.0, 0.0, 0.0, 0.0, 0.0, 0.0, 1.695674626191086E9, 0.0, 2023-09-25 15:43:46.191
68.0, -187500.02235174447, 9895.67606397582, -19111.143840687735, -43954.79487833916, -16827.287295733368, -36882.30060127981, -187500.02235174447, -40343.579988906386, 8390.46488886653, -3919.691314660468, -52080.503354132576, -50266.54753286213, -30312.653519231502, -30679.758570165464, -47620.168044587146, -54674.53505689324, 0.014, 0.96, 0.296, 192.0, 0.0, 56.0, 15.0, 0.0, 4.5, 32.0, 0.0, 0.0, 0.0, 1.695674626191089E9, 0.0, 2023-09-25 15:43:46.191
70.0, -187500.02235174447, 9912.77514848413, -19101.890218483237, -43947.50820964673, -16811.775185081387, -36875.97505759896, -187500.02235174447, -40335.48865741357, 8468.092497359812, -3919.2219280269064, -52080.34689192139, -50264.401765394425, -30308.42903952945, -30662.45831995706, -47608.23221304801, -54608.57505900563, 0.014, 0.96, 0.296, 192.0, 0.0, 0.0, 0.0, 0.0, 0.0, 0.0, 0.0, 0.0, 0.0, 1.695674626191092E9, 0.0, 2023-09-25 15:43:46.191
72.0, -187500.02235174447, 9889.484630761699, -19128.958181018614, -43972.765680881224, -16844.386380241678, -36877.49497622192, -187500.02235174447, -40357.68393965768, 8390.71075805554, -3916.2491460143506, -52083.47613614514, -50263.060660727104, -30320.521333279772, -30669.365008993747, -47610.82501540483, -54656.743068306816, 0.014, 0.96, 0.296, 192.0, 0.0, 0.0, 0.0, 0.0, 0.0, 0.0, 0.0, 0.0, 0.0, 1.695674626191096E9, 0.0, 2023-09-25 15:43:46.191
74.0, -187500.02235174447, 9900.52639252262, -19117.469384368585, -43959.60050339705, -16830.215374257015, -36877.36086575519, -187500.02235174447, -40370.87146888632, 8447.081857571824, -3933.8623206451325, -52094.74141535061, -50280.18209697987, -30326.62335951607, -30694.108390105772, -47628.43819003561, -54588.34673027357, 0.014, 0.96, 0.296, 192.0, 0.0, 0.0, 0.0, 0.0, 0.0, 0.0, 0.0, 0.0, 0.0, 1.695674626191099E9, 0.0, 2023-09-25 15:43:46.191
76.0, -187500.02235174447, 9913.53510779561, -19119.011654736, -43958.48291617429, -16839.08901680577, -36896.98569738695, -187500.02235174447, -40390.71981796263, 8375.109240425736, -3925.838044385677, -52092.30507520498, -50277.1646114784, -30331.741908996333, -30692.811988927366, -47621.08446610981, -54633.54195756221, 0.014, 0.96, 0.296, 192.0, 0.0, 0.0, 0.0, 0.0, 0.0, 0.0, 0.0, 0.0, 0.0, 1.695674626250735E9, 0.0, 2023-09-25 15:43:46.250
78.0, -187500.02235174447, 9916.843165974995, -19107.612265063795, -43946.74825033525, -16832.33878998027, -36888.804958916306, -187500.02235174447, -40381.28738180249, 8433.134369031712, -3931.224814799406, -52086.47126990215, -50277.74575683424, -30307.66908021797, -30690.129779592728, -47623.006716132964, -54590.179573318914, 0.018000000000000002, 0.962, 0.304, 192.0, 0.0, 72.0, 15.0, 8.0, 4.5, 64.0, 0.0, 0.0, 0.0, 1.695674626250749E9, 0.0, 2023-09-25 15:43:46.250
80.0, -187500.02235174447, 9905.62259025843, -19092.033099178447, -43932.085505972565, -16818.61481888471, -36916.92345344108, -187500.02235174447, -40373.017236354026, 8360.625310018697, -3916.874994859099, -52076.97177850864, -50263.2618264272, -30320.655443746502, -30659.954924578065, -47602.91249786765, -54639.107541931575, 0.018000000000000002, 0.962, 0.304, 192.0, 0.0, 0.0, 0.0, 0.0, 0.0, 0.0, 0.0, 0.0, 0.0, 1.695674626250753E9, 0.0, 2023-09-25 15:43:46.250
82.0, -187500.02235174447, 9907.500136792676, -19099.185657404145, -43931.48200887228, -16827.086130033273, -36887.15092982661, -187500.02235174447, -40376.302942788956, 8423.701932871572, -3922.1500065505516, -52077.03883374201, -50266.18990495085, -30315.626301244058, -30693.616651727756, -47607.80752990336, -54612.196041607385, 0.018000000000000002, 0.962, 0.304, 192.0, 0.0, 0.0, 0.0, 0.0, 0.0, 0.0, 0.0, 0.0, 0.0, 1.695674626250756E9, 0.0, 2023-09-25 15:43:46.250
84.0, -187500.02235174447, 9897.777127954618, -19104.751241773516, -43943.26137820022, -16843.157034296637, -36901.4113427891, -187500.02235174447, -40389.356361550854, 8369.633063034185, -3930.4425037434703, -52083.20791521167, -50274.14712597694, -30332.792440985733, -30669.65558167167, -47606.935811869604, -54637.87819598654, 0.018000000000000002, 0.962, 0.304, 192.0, 0.0, 0.0, 0.0, 0.0, 0.0, 0.0, 0.0, 0.0, 0.0, 1.69567462625076E9, 0.0, 2023-09-25 15:43:46.250
86.0, -187500.02235174447, 9895.854877931462, -19113.49077385554, -43947.61996836901, -16849.750798910954, -36874.76806339837, -187500.02235174447, -40396.017181398536, 8416.974057790525, -3950.715535964434, -52097.73654910762, -50288.47459417279, -30339.8108887447, -30713.152076381695, -47625.44305627859, -54600.66254146845, 0.018000000000000002, 0.962, 0.304, 192.0, 0.0, 0.0, 0.0, 0.0, 0.0, 0.0, 0.0, 0.0, 0.0, 1.695674626250763E9, 0.0, 2023-09-25 15:43:46.250
88.0, -187500.02235174447, 9901.308703578557, -19101.621997549773, -43945.0718695011, -16831.623534157698, -36904.96527015749, -187500.02235174447, -40401.94039367919, 8384.988711474982, -3940.903120148554, -52100.97755205364, -50294.129585519986, -30345.845859747635, -30696.254157573483, -47625.42070453414, -54596.415710021945, 0.02, 0.966, 0.312, 192.0, 0.0, 80.0, 15.0, 24.0, 4.5, 96.0, 0.0, 0.0, 0.0, 1.69567462625077E9, 0.0, 2023-09-25 15:43:46.250
90.0, -187500.02235174447, 9901.733386723208, -19106.137049929745, -43943.50724738923, -16842.307668007335, -36869.94008659603, -187500.02235174447, -40354.04060531147, 8403.987694261992, -3944.769971939322, -52091.478060660134, -50291.447376185344, -30334.781746242257, -30672.024866583928, -47602.84544263428, -54579.40603249145, 0.02, 0.966, 0.312, 192.0, 0.0, 0.0, 0.0, 0.0, 0.0, 0.0, 0.0, 0.0, 0.0, 1.695674626250773E9, 0.0, 2023-09-25 15:43:46.250
92.0, -187500.02235174447, 9921.20175614378, -19097.26340738099, -43929.11272396001, -16828.114310278215, -36902.03719163385, -187500.02235174447, -40355.44876521215, 8387.290941153877, -3933.5493962227583, -52087.141822235804, -50287.44641392785, -30345.845859747635, -30709.642852502213, -47607.82988164781, -54572.633453921495, 0.02, 0.966, 0.312, 192.0, 0.0, 0.0, 0.0, 0.0, 0.0, 0.0, 0.0, 0.0, 0.0, 1.695674626311616E9, 0.0, 2023-09-25 15:43:46.311
94.0, -187500.02235174447, 9906.851936203473, -19103.76776501748, -43940.892093287956, -16837.457339460532, -36872.44348197502, -187500.02235174447, -40363.160117049236, 8402.691293083584, -3940.813713170733, -52086.71713909115, -50289.32396046209, -30325.550475782216, -30703.78669545492, -47603.24777403448, -54582.065890081634, 0.02, 0.966, 0.312, 192.0, 0.0, 0.0, 0.0, 0.0, 0.0, 0.0, 0.0, 0.0, 0.0, 1.695674626311626E9, 0.0, 2023-09-25 15:43:46.311
96.0, -187500.02235174447, 9895.988988398194, -19106.44997435212, -43937.36051766402, -16831.310609735323, -36904.451180035016, -187500.02235174447, -40376.772329422514, 8404.546487873375, -3937.2150823134284, -52086.56067687997, -50290.57565815159, -30339.565019555692, -30697.729372707534, -47605.8852798802, -54566.15144802946, 0.02, 0.966, 0.312, 192.0, 0.0, 0.0, 0.0, 0.0, 0.0, 0.0, 0.0, 0.0, 0.0, 1.69567462631163E9, 0.0, 2023-09-25 15:43:46.311
98.0, -187500.02235174447, 9895.139622108893, -19107.098174941322, -43950.88332305948, -16841.99474358496, -36875.05863607629, -187500.02235174447, -40379.05220735696, 8390.308426655343, -3950.9614051534422, -52090.33812169291, -50295.60480065404, -30348.14808942653, -30693.393134283204, -47605.70646592456, -54579.04840458017, 0.022, 0.968, 0.314, 192.0, 0.0, 88.0, 15.0, 32.0, 4.5, 104.0, 0.0, 0.0, 0.0, 1.695674626311633E9, 0.0, 2023-09-25 15:43:46.311
100.0, -187500.02235174447, 9916.06085491906, -19102.91839872818, -43931.102029216534, -16836.272697004402, -36915.89527319614, -187500.02235174447, -40387.411759783245, 8411.699046099073, -3939.316146292227, -52088.192354225204, -50291.51443141871, -30334.893504964533, -30704.45724778858, -47613.931907884114, -54557.21075024733, 0.022, 0.968, 0.314, 192.0, 0.0, 0.0, 0.0, 0.0, 0.0, 0.0, 0.0, 0.0, 0.0, 1.695674626311637E9, 0.0, 2023-09-25 15:43:46.311
102.0, -187500.02235174447, 9903.074491390526, -19109.467459853586, -43950.92802654839, -16834.19398477006, -36886.68154319305, -187500.02235174447, -40381.62265796932, 8385.100470197258, -3951.4084400425486, -52094.83082232843, -50302.44443445736, -30356.82056627519, -30705.55248326689, -47605.01356184645, -54592.638265208996, 0.022, 0.968, 0.314, 192.0, 0.0, 0.0, 0.0, 0.0, 0.0, 0.0, 0.0, 0.0, 0.0, 1.69567462631164E9, 0.0, 2023-09-25 15:43:46.311
104.0, -187500.02235174447, 9908.975351926727, -19094.33532885734, -43928.375116392985, -16822.61578114221, -36910.50850278241, -187500.02235174447, -40374.961838121635, 8423.813691593848, -3952.2801580763053, -52089.242886214604, -50301.81858561261, -30347.209316159406, -30705.753648966987, -47595.692884408585, -54543.86675880751, 0.022, 0.968, 0.314, 192.0, 0.0, 0.0, 0.0, 0.0, 0.0, 0.0, 0.0, 0.0, 0.0, 1.695674626311643E9, 0.0, 2023-09-25 15:43:46.311
106.0, -187500.02235174447, 9908.4389100598, -19099.140953915234, -43933.627776339985, -16820.38060669668, -36897.29862180932, -187500.02235174447, -40380.840346913385, 8373.075231680303, -3950.5590737532466, -52091.50041240459, -50306.87007985951, -30342.113118423596, -30706.491256534013, -47586.34985522626, -54592.638265208996, 0.022, 0.968, 0.314, 192.0, 0.0, 0.0, 0.0, 0.0, 0.0, 0.0, 0.0, 0.0, 0.0, 1.69567462637151E9, 0.0, 2023-09-25 15:43:46.371
108.0, -187500.02235174447, 9912.10459615047, -19091.563712544885, -43926.989308236756, -16824.13569976517, -36911.7602004719, -187500.02235174447, -40378.58282072339, 8425.244203238988, -3944.613509728135, -52090.159307737275, -50308.25588801574, -30343.85655449111, -30694.398962783693, -47593.48006170751, -54556.137866513476, 0.02, 0.966, 0.312, 192.0, 0.0, 80.0, 15.0, 24.0, 4.5, 96.0, 0.0, 0.0, 0.0, 1.695674626371547E9, 0.0, 2023-09-25 15:43:46.371
110.0, -187500.02235174447, 9906.561363525554, -19093.888293968237, -43931.43730538336, -16825.052121287838, -36896.73982819794, -187500.02235174447, -40371.60907645334, 8360.2229786185, -3938.7573526808446, -52086.13599373532, -50303.58437342458, -30346.494060336838, -30689.638041214712, -47588.205050016055, -54616.66639049845, 0.02, 0.966, 0.312, 192.0, 0.0, 0.0, 0.0, 0.0, 0.0, 0.0, 0.0, 0.0, 0.0, 1.69567462637155E9, 0.0, 2023-09-25 15:43:46.371
112.0, -187500.02235174447, 9902.918029179338, -19095.475267824564, -43918.33918313256, -16820.894696819152, -36901.92543291157, -187500.02235174447, -40369.3291985189, 8437.96234583406, -3949.486190019392, -52096.61896188486, -50310.625172928, -30349.891525494044, -30706.93829142312, -47592.87656460721, -54559.423572948406, 0.02, 0.966, 0.312, 192.0, 0.0, 0.0, 0.0, 0.0, 0.0, 0.0, 0.0, 0.0, 0.0, 1.695674626371553E9, 0.0, 2023-09-25 15:43:46.371
114.0, -187500.02235174447, 9897.330093065511, -19098.559808559396, -43935.03593624067, -16834.5739644258, -36891.39776127312, -187500.02235174447, -40376.83938465588, 8373.030528191392, -3932.1188845776182, -52084.9960547681, -50297.325884977094, -30337.262789876797, -30675.511738718957, -47582.84063134678, -54618.43217831042, 0.02, 0.966, 0.312, 192.0, 0.0, 0.0, 0.0, 0.0, 0.0, 0.0, 0.0, 0.0, 0.0, 1.695674626371556E9, 0.0, 2023-09-25 15:43:46.371
116.0, -187500.02235174447, 9892.613874985442, -19110.428584865163, -43940.53446537667, -16850.354296011246, -36888.26851704938, -187500.02235174447, -40402.454483801666, 8453.094476830302, -3957.465762789937, -52104.66558988877, -50315.073170074604, -30357.714636053403, -30717.488314806025, -47609.61802120424, -54548.20299723184, 0.02, 0.966, 0.312, 192.0, 0.0, 0.0, 0.0, 0.0, 0.0, 0.0, 0.0, 0.0, 0.0, 1.69567462637156E9, 0.0, 2023-09-25 15:43:46.371
118.0, -187500.02235174447, 9902.24747684568, -19104.2595033955, -43942.434363655375, -16831.735292879974, -36904.22766259046, -187500.02235174447, -40379.40983526824, 8358.032507661881, -3959.522123279825, -52108.21951725716, -50320.48229223279, -30370.477482137383, -30721.26575961897, -47615.31771604034, -54595.16401233245, 0.016, 0.964, 0.31, 192.0, 0.0, 64.0, 15.0, 16.0, 4.5, 88.0, 0.0, 0.0, 0.0, 1.695674626371563E9, 0.0, 2023-09-25 15:43:46.371
120.0, -187500.02235174447, 9920.687666021307, -19087.383936331742, -43914.87466274198, -16817.09490026175, -36902.640688734136, -187500.02235174447, -40360.12027980331, 8423.634877638207, -3939.964346881431, -52098.25063923009, -50307.875908359994, -30338.000397443822, -30692.744933694, -47595.11173905274, -54554.662651379425, 0.016, 0.964, 0.31, 192.0, 0.0, 0.0, 0.0, 0.0, 0.0, 0.0, 0.0, 0.0, 0.0, 1.695674626371566E9, 0.0, 2023-09-25 15:43:46.371
122.0, -187500.02235174447, 9894.58082849751, -19098.425698092666, -43928.241005926255, -16829.008380056428, -36904.09355212373, -187500.02235174447, -40357.10279430185, 8366.235597876977, -3941.0819341041965, -52089.68992110371, -50300.58923966757, -30362.52026111129, -30703.54082626591, -47584.04762554737, -54607.12219561604, 0.016, 0.964, 0.31, 192.0, 0.0, 0.0, 0.0, 0.0, 0.0, 0.0, 0.0, 0.0, 0.0, 1.69567462643172E9, 0.0, 2023-09-25 15:43:46.431
124.0, -187500.02235174447, 9907.656599003863, -19091.29549161142, -43921.334316889566, -16821.27467647489, -36893.81174967429, -187500.02235174447, -40361.394329237264, 8433.62610740973, -3954.06829763273, -52098.74237760811, -50310.111082805524, -30353.020769717787, -30718.918826451165, -47589.814375616836, -54549.52175015471, 0.016, 0.964, 0.31, 192.0, 0.0, 0.0, 0.0, 0.0, 0.0, 0.0, 0.0, 0.0, 0.0, 1.695674626431729E9, 0.0, 2023-09-25 15:43:46.431
126.0, -187500.02235174447, 9909.288276349102, -19086.31105259789, -43918.54034883265, -16821.587600897266, -36913.28011909487, -187500.02235174447, -40376.70527418915, 8356.423182061098, -3931.15775956604, -52087.141822235804, -50297.9740855663, -30352.014941217298, -30693.84016917231, -47582.34889296877, -54605.848146182085, 0.016, 0.964, 0.31, 192.0, 0.0, 0.0, 0.0, 0.0, 0.0, 0.0, 0.0, 0.0, 0.0, 1.695674626431733E9, 0.0, 2023-09-25 15:43:46.431
128.0, -187500.02235174447, 9909.042407160094, -19104.2595033955, -43929.157427448925, -16841.972391840507, -36877.71849366647, -187500.02235174447, -40386.94237314968, 8426.942935817593, -3939.584367225691, -52094.67436011724, -50302.89146934646, -30336.43577533195, -30699.852788430788, -47598.30803850985, -54571.67232890992, 0.02, 0.966, 0.306, 192.0, 0.0, 80.0, 15.0, 24.0, 4.5, 72.0, 0.0, 0.0, 0.0, 1.695674626431736E9, 0.0, 2023-09-25 15:43:46.431
130.0, -187500.02235174447, 9911.72461649473, -19086.691032253628, -43933.426610639886, -16839.111368550228, -36904.3617730572, -187500.02235174447, -40386.11535860483, 8361.228807118989, -3919.2889832602723, -52097.356569451884, -50299.069321044604, -30371.57271761569, -30690.241538315004, -47592.49658495148, -54594.67227395443, 0.02, 0.966, 0.306, 192.0, 0.0, 0.0, 0.0, 0.0, 0.0, 0.0, 0.0, 0.0, 0.0, 1.69567462643174E9, 0.0, 2023-09-25 15:43:46.431
132.0, -187500.02235174447, 9892.368005796434, -19082.980642674047, -43925.75996229172, -16826.102653277238, -36881.36182801269, -187500.02235174447, -40377.264067800534, 8414.828290322816, -3972.866114719643, -52107.32544747895, -50322.069266089115, -30359.793348287745, -30708.637024001724, -47591.58016342881, -54550.16995074391, 0.02, 0.966, 0.306, 192.0, 0.0, 0.0, 0.0, 0.0, 0.0, 0.0, 0.0, 0.0, 0.0, 1.695674626431743E9, 0.0, 2023-09-25 15:43:46.431
134.0, -187500.02235174447, 9896.458375031754, -19084.00882291899, -43925.96112799182, -16828.56134516732, -36914.15183712862, -187500.02235174447, -40375.20770731064, 8371.220036890512, -3955.834085444699, -52089.33229319243, -50310.535765950175, -30351.702016794923, -30716.68365200563, -47578.59379990027, -54586.80445990616, 0.02, 0.966, 0.306, 192.0, 0.0, 0.0, 0.0, 0.0, 0.0, 0.0, 0.0, 0.0, 0.0, 1.695674626431746E9, 0.0, 2023-09-25 15:43:46.431
136.0, -187500.02235174447, 9898.447680288278, -19091.67547126716, -43936.153523463436, -16842.642944174164, -36881.69710417952, -187500.02235174447, -40408.53415829351, 8419.678618869617, -3980.868039234643, -52102.877450332344, -50329.28887954818, -30356.798214530732, -30706.22303560055, -47595.60347743076, -54558.50715142574, 0.02, 0.966, 0.306, 192.0, 0.0, 0.0, 0.0, 0.0, 0.0, 0.0, 0.0, 0.0, 0.0, 1.69567462649124E9, 0.0, 2023-09-25 15:43:46.491
138.0, -187500.02235174447, 9889.127002850415, -19075.15753211469, -43922.54131109015, -16826.32617072179, -36925.864151223206, -187500.02235174447, -40381.667361458225, 8387.872086509715, -3964.5289140378136, -52093.82499382794, -50315.073170074604, -30363.21316518941, -30735.146192925717, -47605.192375802086, -54568.20780851934, 0.02, 0.966, 0.306, 192.0, 0.0, 80.0, 15.0, 24.0, 4.5, 72.0, 0.0, 0.0, 0.0, 1.695674626491254E9, 0.0, 2023-09-25 15:43:46.491
140.0, -187500.02235174447, 9869.658633429843, -19096.145820158225, -43931.41495363891, -16840.273659261904, -36890.14606358362, -187500.02235174447, -40378.13578583429, 8400.634932593695, -3971.3685478411376, -52094.920229306255, -50317.19658579786, -30343.498926579825, -30721.399870085705, -47592.965971585036, -54590.89482914148, 0.02, 0.966, 0.306, 192.0, 0.0, 0.0, 0.0, 0.0, 0.0, 0.0, 0.0, 0.0, 0.0, 1.695674626491258E9, 0.0, 2023-09-25 15:43:46.491
142.0, -187500.02235174447, 9881.683871946798, -19077.415058304676, -43912.68419178536, -16812.62455137069, -36921.997299432434, -187500.02235174447, -40362.51191646003, 8390.867220266726, -3979.638693289601, -52106.051398045, -50325.936117879886, -30355.993551730342, -30739.08009994985, -47594.53059369691, -54562.75398287225, 0.02, 0.966, 0.306, 192.0, 0.0, 0.0, 0.0, 0.0, 0.0, 0.0, 0.0, 0.0, 0.0, 1.695674626491261E9, 0.0, 2023-09-25 15:43:46.491
144.0, -187500.02235174447, 9887.785898183096, -19084.29939559691, -43926.005831480725, -16821.05115903034, -36902.148950356124, -187500.02235174447, -40382.159099836244, 8380.294845139366, -3972.9778734419197, -52094.04851127249, -50316.95071660885, -30353.57956332917, -30715.141381638216, -47577.587971399786, -54587.944398873384, 0.02, 0.966, 0.306, 192.0, 0.0, 0.0, 0.0, 0.0, 0.0, 0.0, 0.0, 0.0, 0.0, 1.695674626491264E9, 0.0, 2023-09-25 15:43:46.491
146.0, -187500.02235174447, 9904.952037924772, -19077.817389704873, -43907.83386323856, -16814.18917348256, -36935.60951180572, -187500.02235174447, -40385.82478592692, 8385.703967297552, -3967.524047794825, -52090.047549015, -50314.670838674414, -30362.877889022577, -30718.6506055177, -47580.583105156795, -54582.73644241529, 0.02, 0.966, 0.306, 192.0, 0.0, 0.0, 0.0, 0.0, 0.0, 0.0, 0.0, 0.0, 0.0, 1.695674626491267E9, 0.0, 2023-09-25 15:43:46.491
148.0, -187500.02235174447, 9880.990967868682, -19111.345006387834, -43941.2720729437, -16849.77315065541, -36896.02457237537, -187500.02235174447, -40423.37571661183, 8370.03539443438, -3973.7378327534, -52103.704464877184, -50325.26556554623, -30358.87692676508, -30725.73610851003, -47598.66566642114, -54605.982256648815, 0.02, 0.968, 0.304, 192.0, 0.0, 80.0, 15.0, 32.0, 4.5, 64.0, 0.0, 0.0, 0.0, 1.69567462649127E9, 0.0, 2023-09-25 15:43:46.491
150.0, -187500.02235174447, 9875.96182536624, -19096.369337602777, -43926.18464543637, -16844.162862797126, -36930.379203603174, -187500.02235174447, -40442.03942323201, 8395.538734857886, -3985.6289608036236, -52112.242831259115, -50338.56485349713, -30377.741799085357, -30738.163678427183, -47620.011582375955, -54562.39635496096, 0.02, 0.968, 0.304, 192.0, 0.0, 0.0, 0.0, 0.0, 0.0, 0.0, 0.0, 0.0, 0.0, 1.695674626491273E9, 0.0, 2023-09-25 15:43:46.491
152.0, -187500.02235174447, 9877.839371900483, -19086.378107831253, -43921.200206422836, -16834.19398477006, -36898.84089217674, -187500.02235174447, -40350.844305854356, 8345.806103444827, -3974.83306823171, -52100.53051716453, -50324.23738530128, -30362.743778555847, -30709.151114124194, -47604.52182346843, -54602.964771147344, 0.02, 0.968, 0.304, 192.0, 0.0, 0.0, 0.0, 0.0, 0.0, 0.0, 0.0, 0.0, 0.0, 1.695674626550871E9, 0.0, 2023-09-25 15:43:46.550
154.0, -187500.02235174447, 9893.016206385637, -19077.884444938238, -43904.54815680363, -16815.88790606116, -36921.103229654225, -187500.02235174447, -40353.571218677906, 8391.358958644743, -3978.2081816444615, -52099.90466831979, -50324.68442019039, -30361.603839588624, -30727.121916666263, -47591.60251517326, -54552.494532167264, 0.02, 0.968, 0.304, 192.0, 0.0, 0.0, 0.0, 0.0, 0.0, 0.0, 0.0, 0.0, 0.0, 1.69567462655088E9, 0.0, 2023-09-25 15:43:46.550
156.0, -187500.02235174447, 9893.731462208207, -19086.10988689779, -43917.467465098794, -16827.823737600298, -36901.05371487781, -187500.02235174447, -40367.60811419584, 8328.59526021424, -3964.685376249001, -52088.21470596966, -50312.27920201769, -30350.115042938596, -30730.07234693436, -47578.86202083374, -54611.23491659581, 0.02, 0.968, 0.304, 192.0, 0.0, 0.0, 0.0, 0.0, 0.0, 0.0, 0.0, 0.0, 0.0, 1.695674626550884E9, 0.0, 2023-09-25 15:43:46.550
158.0, -187500.02235174447, 9884.410784770345, -19091.183732889145, -43925.75996229172, -16831.176499268593, -36923.047831421834, -187500.02235174447, -40391.77034995203, 8395.337569157788, -3980.7562805123666, -52103.45859568818, -50333.3792487835, -30364.64367683455, -30709.665204246667, -47604.700637424074, -54554.30502346814, 0.016, 0.966, 0.296, 192.0, 0.0, 64.0, 15.0, 24.0, 4.5, 32.0, 0.0, 0.0, 0.0, 1.695674626550887E9, 0.0, 2023-09-25 15:43:46.550
160.0, -187500.02235174447, 9879.694566690274, -19104.88535224025, -43931.72787806128, -16845.369856997713, -36900.53962475534, -187500.02235174447, -40410.3893530833, 8326.65065844663, -3978.5211060668357, -52100.5975723979, -50334.318022050626, -30366.230650690875, -30748.020797731973, -47606.4887769805, -54604.28352407021, 0.016, 0.966, 0.296, 192.0, 0.0, 0.0, 0.0, 0.0, 0.0, 0.0, 0.0, 0.0, 0.0, 1.69567462655089E9, 0.0, 2023-09-25 15:43:46.550
162.0, -187500.02235174447, 9884.679005703809, -19102.180791161158, -43923.770657035195, -16843.916993608116, -36919.87388370918, -187500.02235174447, -40422.369888111345, 8399.070310481824, -3994.1896789300063, -52114.58976442692, -50341.448228531866, -30380.468711908903, -30753.809899545897, -47624.548986500384, -54532.154444712934, 0.016, 0.966, 0.296, 192.0, 0.0, 0.0, 0.0, 0.0, 0.0, 0.0, 0.0, 0.0, 0.0, 1.695674626550893E9, 0.0, 2023-09-25 15:43:46.550
164.0, -187500.02235174447, 9887.651787716364, -19102.136087672247, -43922.63071806797, -16844.028752330392, -36931.653253037126, -187500.02235174447, -40434.77510628404, 8309.417463471587, -3972.0614519192522, -52096.90953456277, -50328.5289202367, -30358.85457502062, -30732.106355679796, -47613.70839043956, -54605.89284967099, 0.016, 0.966, 0.296, 192.0, 0.0, 0.0, 0.0, 0.0, 0.0, 0.0, 0.0, 0.0, 0.0, 1.695674626550896E9, 0.0, 2023-09-25 15:43:46.550
166.0, -187500.02235174447, 9898.738252966197, -19090.714346255583, -43914.44997959733, -16839.983086583983, -36925.64063377865, -187500.02235174447, -40419.95589971017, 8407.921601286125, -3985.3830916146153, -52105.98434281163, -50338.45309477486, -30381.452188664938, -30744.80214653041, -47622.604384732775, -54545.52078789721, 0.016, 0.966, 0.296, 192.0, 0.0, 0.0, 0.0, 0.0, 0.0, 0.0, 0.0, 0.0, 0.0, 1.695674626611101E9, 0.0, 2023-09-25 15:43:46.611
168.0, -187500.02235174447, 9913.021017673138, -19081.706593240095, -43901.038932924144, -16830.193022512558, -36933.17317166009, -187500.02235174447, -40395.883070931806, 8325.086036334758, -3962.427850059015, -52092.01450252706, -50318.85061488755, -30382.882700310078, -30720.59520728531, -47599.872660621724, -54603.52356475873, 0.016, 0.974, 0.29, 192.0, 0.0, 64.0, 15.0, 56.0, 4.5, 8.0, 0.0, 0.0, 0.0, 1.695674626611113E9, 0.0, 2023-09-25 15:43:46.611
170.0, -187500.02235174447, 9888.143526094382, -19094.514142812986, -43914.27116564169, -16831.33296147978, -36897.34332529823, -187500.02235174447, -40397.537100021495, 8402.266609938933, -3974.2966263647827, -52098.11652876336, -50322.04691434466, -30367.370589658094, -30730.184105656637, -47598.39744548767, -54555.69083162437, 0.016, 0.974, 0.29, 192.0, 0.0, 0.0, 0.0, 0.0, 0.0, 0.0, 0.0, 0.0, 0.0, 1.695674626611117E9, 0.0, 2023-09-25 15:43:46.611
172.0, -187500.02235174447, 9887.607084227453, -19088.83679972134, -43913.93588947486, -16827.6225719002, -36923.45016282203, -187500.02235174447, -40397.49239653259, 8331.07630384878, -3968.619283273135, -52099.591743897414, -50328.75243768125, -30376.758322329322, -30736.196724915117, -47597.771596642924, -54589.66548319644, 0.016, 0.974, 0.29, 192.0, 0.0, 0.0, 0.0, 0.0, 0.0, 0.0, 0.0, 0.0, 0.0, 1.69567462661112E9, 0.0, 2023-09-25 15:43:46.611
174.0, -187500.02235174447, 9883.472011503221, -19098.001014948015, -43916.37222962049, -16839.75956913943, -36904.250014334924, -187500.02235174447, -40406.500149548076, 8407.116938485735, -3986.098347437185, -52107.30309573449, -50337.670783718924, -30374.836072306167, -30740.80118427291, -47604.96885835753, -54545.18551173038, 0.016, 0.974, 0.29, 192.0, 0.0, 0.0, 0.0, 0.0, 0.0, 0.0, 0.0, 0.0, 0.0, 1.695674626611123E9, 0.0, 2023-09-25 15:43:46.611
176.0, -187500.02235174447, 9890.62456972892, -19091.67547126716, -43904.50345331472, -16834.81983361481, -36925.59593028974, -187500.02235174447, -40386.5847452384, 8333.55734748332, -3965.0877076491965, -52092.37213043834, -50322.091617833576, -30375.081941495177, -30729.580608556345, -47597.235154776, -54593.107651842554, 0.016, 0.974, 0.29, 192.0, 0.0, 0.0, 0.0, 0.0, 0.0, 0.0, 0.0, 0.0, 0.0, 1.695674626611126E9, 0.0, 2023-09-25 15:43:46.611
178.0, -187500.02235174447, 9895.027863386615, -19092.72600325656, -43905.82220623758, -16834.19398477006, -36906.82046494728, -187500.02235174447, -40418.81596074295, 8406.468737896532, -3984.4443183474923, -52096.95423805169, -50328.797141170166, -30366.72238906889, -30747.976094243062, -47601.057303077854, -54549.67821236589, 0.014, 0.982, 0.28600000000000003, 192.0, 0.0, 56.0, 15.0, 88.0, 4.0, 120.0, 0.0, 0.0, 0.0, 1.695674626611129E9, 0.0, 2023-09-25 15:43:46.611
180.0, -187500.02235174447, 9896.4360232873, -19098.291587625932, -43918.16036917691, -16843.17938604109, -36931.60854954822, -187500.02235174447, -40404.91317569175, 8348.600071501742, -3974.676606020523, -52098.6976741192, -50329.82532141511, -30381.452188664938, -30740.264742405983, -47604.45476823506, -54579.80836389165, 0.014, 0.982, 0.28600000000000003, 192.0, 0.0, 0.0, 0.0, 0.0, 0.0, 0.0, 0.0, 0.0, 0.0, 1.695674626611132E9, 0.0, 2023-09-25 15:43:46.611
182.0, -187500.02235174447, 9890.222238328724, -19098.939788215135, -43913.2653371412, -16841.301839506847, -36905.63582249115, -187500.02235174447, -40407.01423967055, 8389.794336532872, -3987.2829898933164, -52104.419720699756, -50345.695059978374, -30377.048895007243, -30756.313294924894, -47609.70742818206, -54549.58880538808, 0.014, 0.982, 0.28600000000000003, 192.0, 0.0, 0.0, 0.0, 0.0, 0.0, 0.0, 0.0, 0.0, 0.0, 1.6956746266714E9, 0.0, 2023-09-25 15:43:46.671
184.0, -187500.02235174447, 9877.749964922663, -19100.72792777156, -43913.578261563576, -16844.542842452865, -36929.8651134807, -187500.02235174447, -40412.75863799556, 8347.974222656992, -3970.295664107283, -52097.87065957435, -50334.09450460607, -30382.614479376614, -30738.14132668273, -47603.89597462368, -54568.61013991954, 0.014, 0.982, 0.28600000000000003, 192.0, 0.0, 0.0, 0.0, 0.0, 0.0, 0.0, 0.0, 0.0, 0.0, 1.695674626671411E9, 0.0, 2023-09-25 15:43:46.671
186.0, -187500.02235174447, 9878.912255634339, -19104.527724328964, -43918.048610454636, -16850.75662741144, -36898.77383694337, -187500.02235174447, -40416.2902136195, 8384.161696930134, -3993.1838504295174, -52114.23213651564, -50349.5842635136, -30382.34625844315, -30758.79433855943, -47617.79875967488, -54539.55287212764, 0.014, 0.982, 0.28600000000000003, 192.0, 0.0, 0.0, 0.0, 0.0, 0.0, 0.0, 0.0, 0.0, 0.0, 1.695674626671414E9, 0.0, 2023-09-25 15:43:46.671
188.0, -187500.02235174447, 9886.62360747142, -19105.846477251827, -43907.25271788272, -16843.84993837475, -36931.04975593684, -187500.02235174447, -40413.272728118034, 8360.670013507606, -3978.4093473445596, -52107.97364806815, -50342.25289133226, -30388.090656768163, -30745.98678898654, -47607.919288625635, -54542.9726890293, 0.016, 0.99, 0.28800000000000003, 192.0, 0.0, 64.0, 15.0, 120.0, 4.5, 0.0, 0.0, 0.0, 0.0, 1.695674626671418E9, 0.0, 2023-09-25 15:43:46.671
190.0, -187500.02235174447, 9897.15127910987, -19081.63953800673, -43891.897069441926, -16829.947153323552, -36903.959441657, -187500.02235174447, -40391.65859122975, 8370.482429323487, -3973.871943220132, -52099.70350261969, -50335.14503659547, -30376.11012174012, -30734.520344080967, -47591.04372156188, -54549.36528794352, 0.016, 0.99, 0.28800000000000003, 192.0, 0.0, 0.0, 0.0, 0.0, 0.0, 0.0, 0.0, 0.0, 0.0, 1.695674626671421E9, 0.0, 2023-09-25 15:43:46.671
192.0, -187500.02235174447, 9900.638151244897, -19089.373241588266, -43887.82905195106, -16827.354350966736, -36941.30920664182, -187500.02235174447, -40394.407855797755, 8369.051917678347, -3964.1489343820735, -52090.18165948173, -50324.81853065712, -30389.096485268652, -30731.36874811277, -47579.957256312046, -54557.523674669705, 0.016, 0.99, 0.28800000000000003, 192.0, 0.0, 0.0, 0.0, 0.0, 0.0, 0.0, 0.0, 0.0, 0.0, 1.695674626671424E9, 0.0, 2023-09-25 15:43:46.671
194.0, -187500.02235174447, 9891.004549384661, -19110.048605209424, -43911.253680140224, -16849.23670878848, -36908.988584159444, -187500.02235174447, -40420.51469332155, 8361.318214096811, -3977.8729054776322, -52103.77152011055, -50337.26845231873, -30384.223804977395, -30750.814765788888, -47594.75411114146, -54576.27678826771, 0.016, 0.99, 0.28800000000000003, 192.0, 0.0, 0.0, 0.0, 0.0, 0.0, 0.0, 0.0, 0.0, 0.0, 1.695674626671427E9, 0.0, 2023-09-25 15:43:46.671
196.0, -187500.02235174447, 9886.914180149339, -19110.048605209424, -43909.17496790588, -16851.561290211834, -36928.859284980215, -187500.02235174447, -40427.30962363596, 8377.61263580473, -3982.253847390872, -52110.52174693606, -50345.44919078937, -30381.0722090092, -30749.920696010675, -47604.43241649061, -54542.70446809584, 0.016, 0.99, 0.28800000000000003, 192.0, 0.0, 0.0, 0.0, 0.0, 0.0, 0.0, 0.0, 0.0, 0.0, 1.695674626731673E9, 0.0, 2023-09-25 15:43:46.731
198.0, -187500.02235174447, 9874.5313137211, -19120.44216638114, -43927.30223265913, -16863.117142095227, -36915.47059005148, -187500.02235174447, -40471.87900207985, 8348.108333123724, -3985.3607398701597, -52112.93573533723, -50349.696022235876, -30388.224767234897, -30765.969248529585, -47611.070884593835, -54563.60334916155, 0.02, 0.994, 0.28600000000000003, 192.0, 0.0, 80.0, 15.5, 8.0, 4.0, 120.0, 0.0, 0.0, 0.0, 1.695674626731688E9, 0.0, 2023-09-25 15:43:46.731
200.0, -187500.02235174447, 9881.013319613137, -19102.58312256135, -43907.85621498302, -16845.995705842462, -36949.57935209028, -187500.02235174447, -40431.08706844891, 8376.56210381533, -3989.5852195722127, -52124.84921513191, -50358.52496129572, -30411.336471001683, -30744.71273955259, -47622.98436438851, -54526.23123243228, 0.02, 0.994, 0.28600000000000003, 192.0, 0.0, 0.0, 0.0, 0.0, 0.0, 0.0, 0.0, 0.0, 0.0, 1.695674626731691E9, 0.0, 2023-09-25 15:43:46.731
202.0, -187500.02235174447, 9879.113421334438, -19099.11860217078, -43911.3654388625, -16838.15024353865, -36924.14306690014, -187500.02235174447, -40392.2844400745, 8333.825568416783, -3979.2810653783163, -52103.39154045481, -50340.55415875366, -30385.877834067087, -30768.539699141944, -47589.32263723882, -54574.46629696683, 0.02, 0.994, 0.28600000000000003, 192.0, 0.0, 0.0, 0.0, 0.0, 0.0, 0.0, 0.0, 0.0, 0.0, 1.695674626731695E9, 0.0, 2023-09-25 15:43:46.731
204.0, -187500.02235174447, 9872.787877653585, -19107.344044130332, -43921.87075875649, -16840.877156362196, -36939.766936274405, -187500.02235174447, -40415.41849558574, 8382.75353702945, -3989.004074216375, -52111.974610325655, -50351.61827225903, -30388.0236015348, -30768.85262356432, -47597.45867222055, -54529.852215034036, 0.02, 0.994, 0.28600000000000003, 192.0, 0.0, 0.0, 0.0, 0.0, 0.0, 0.0, 0.0, 0.0, 0.0, 1.695674626731698E9, 0.0, 2023-09-25 15:43:46.731
206.0, -187500.02235174447, 9875.648900943865, -19109.087480197846, -43926.38581113647, -16847.493272720967, -36931.34032861475, -187500.02235174447, -40412.19984438418, 8320.749797910428, -3987.461803848959, -52119.21657552917, -50356.66976650593, -30397.16546501702, -30774.641725378246, -47595.02233207492, -54572.2311225213, 0.02, 0.994, 0.28600000000000003, 192.0, 0.0, 0.0, 0.0, 0.0, 0.0, 0.0, 0.0, 0.0, 0.0, 1.695674626731701E9, 0.0, 2023-09-25 15:43:46.731
208.0, -187500.02235174447, 9894.87140117543, -19104.281855139954, -43914.204110408326, -16841.74887439595, -36946.51716309991, -187500.02235174447, -40417.9889461981, 8385.815726019828, -4001.386940644615, -52124.29042152053, -50364.67169102093, -30404.45213370945, -30775.245222478537, -47612.23317530551, -54512.373150869986, 0.018000000000000002, 0.982, 0.28600000000000003, 192.0, 0.0, 72.0, 15.0, 88.0, 4.0, 120.0, 0.0, 0.0, 0.0, 1.695674626731704E9, 0.0, 2023-09-25 15:43:46.731
210.0, -187500.02235174447, 9876.341805021979, -19104.77359351797, -43930.87851177198, -16850.175482055605, -36933.664910038104, -187500.02235174447, -40431.57880682693, 8314.133681551657, -3976.062414176752, -52103.704464877184, -50347.952586168365, -30391.175197502995, -30744.556277341402, -47592.58599192929, -54577.595541190574, 0.018000000000000002, 0.982, 0.28600000000000003, 192.0, 0.0, 0.0, 0.0, 0.0, 0.0, 0.0, 0.0, 0.0, 0.0, 1.695674626731707E9, 0.0, 2023-09-25 15:43:46.731
212.0, -187500.02235174447, 9869.882150874395, -19123.638465838252, -43941.540293877166, -16866.29108980788, -36930.42390709209, -187500.02235174447, -40450.35427216939, 8390.822516777816, -4003.3315424122266, -52128.02316284456, -50367.75623175577, -30404.8768168541, -30797.57461518939, -47615.831806162816, -54496.03402567316, 0.018000000000000002, 0.982, 0.28600000000000003, 192.0, 0.0, 0.0, 0.0, 0.0, 0.0, 0.0, 0.0, 0.0, 0.0, 1.69567462679106E9, 0.0, 2023-09-25 15:43:46.791
214.0, -187500.02235174447, 9852.894825088362, -19123.68316932716, -43941.22736945479, -16861.463113005535, -36945.46663111051, -187500.02235174447, -40447.806173301484, 8303.40484421311, -4017.2790309523384, -52144.831674674955, -50383.536563341215, -30426.714471186933, -30799.921548357197, -47626.98532664601, -54517.625810816986, 0.018000000000000002, 0.982, 0.28600000000000003, 192.0, 0.0, 0.0, 0.0, 0.0, 0.0, 0.0, 0.0, 0.0, 0.0, 1.695674626791072E9, 0.0, 2023-09-25 15:43:46.791
216.0, -187500.02235174447, 9874.799534654563, -19104.371262117776, -43915.27699414218, -16842.3747232407, -36944.796078776846, -187500.02235174447, -40429.94712948169, 8355.350298327243, -4001.7222168114445, -52125.184491298736, -50365.05167067667, -30393.81270334872, -30772.5630131439, -47603.158367056654, -54484.63463600095, 0.018000000000000002, 0.982, 0.28600000000000003, 192.0, 0.0, 0.0, 0.0, 0.0, 0.0, 0.0, 0.0, 0.0, 0.0, 1.695674626791076E9, 0.0, 2023-09-25 15:43:46.791
218.0, -187500.02235174447, 9881.616816713431, -19097.39751784772, -43919.07679069958, -16842.79940638535, -36957.96125626103, -187500.02235174447, -40428.918949236744, 8285.232875970945, -3983.259675891361, -52115.21561327167, -50357.74265023979, -30406.59790117716, -30757.587344358846, -47599.85030887727, -54541.251604706245, 0.016, 0.984, 0.28400000000000003, 192.0, 0.0, 64.0, 15.0, 96.0, 4.0, 112.0, 0.0, 0.0, 0.0, 1.695674626791079E9, 0.0, 2023-09-25 15:43:46.791
220.0, -187500.02235174447, 9886.847124915974, -19098.425698092666, -43911.946584218334, -16847.47092097651, -36937.867037995704, -187500.02235174447, -40438.75371679708, 8350.812894202816, -3977.1576496550624, -52106.76665386756, -50346.99146115679, -30378.68057235248, -30756.737978069545, -47595.80464313086, -54514.78713927116, 0.016, 0.984, 0.28400000000000003, 192.0, 0.0, 0.0, 0.0, 0.0, 0.0, 0.0, 0.0, 0.0, 0.0, 1.695674626791082E9, 0.0, 2023-09-25 15:43:46.791
222.0, -187500.02235174447, 9868.76456365163, -19107.2099336636, -43926.497569858744, -16861.060781605338, -36947.50063985594, -187500.02235174447, -40458.06562400647, 8303.136623279646, -3989.1828881720176, -52121.98819184163, -50362.570627042136, -30417.483200726892, -30777.212175990604, -47617.53053874142, -54541.65393610644, 0.016, 0.984, 0.28400000000000003, 192.0, 0.0, 0.0, 0.0, 0.0, 0.0, 0.0, 0.0, 0.0, 0.0, 1.695674626791086E9, 0.0, 2023-09-25 15:43:46.791
224.0, -187500.02235174447, 9886.847124915974, -19085.461686308587, -43902.15652014691, -16833.232859758482, -36938.917569985104, -187500.02235174447, -40438.97723424163, 8359.664185007117, -3993.1838504295174, -52117.473139461654, -50359.21786537384, -30404.07215405371, -30788.23158600707, -47609.77448341543, -54491.809545971104, 0.016, 0.984, 0.28400000000000003, 192.0, 0.0, 0.0, 0.0, 0.0, 0.0, 0.0, 0.0, 0.0, 0.0, 1.695674626791089E9, 0.0, 2023-09-25 15:43:46.791
226.0, -187500.02235174447, 9886.377738282412, -19085.52874154195, -43901.21774687979, -16836.786787126875, -36972.10991050123, -187500.02235174447, -40436.965577240655, 8290.820812084772, -3967.971082683931, -52096.68601711822, -50338.90012966396, -30384.067342766208, -30756.60386760281, -47589.50145119446, -54547.264223964725, 0.016, 0.984, 0.28400000000000003, 192.0, 0.0, 0.0, 0.0, 0.0, 0.0, 0.0, 0.0, 0.0, 0.0, 1.695674626850753E9, 0.0, 2023-09-25 15:43:46.850
228.0, -187500.02235174447, 9886.757717938151, -19103.723061528573, -43914.42762785288, -16848.879080877196, -36938.73875602946, -187500.02235174447, -40431.77997252702, 8345.426123789088, -3976.6659112770453, -52103.25742998808, -50343.79516169967, -30371.371551915596, -30762.14710022773, -47599.112701310245, -54528.868738278004, 0.014, 0.984, 0.29, 192.0, 0.0, 56.0, 15.0, 96.0, 4.5, 8.0, 0.0, 0.0, 0.0, 1.695674626850767E9, 0.0, 2023-09-25 15:43:46.850
230.0, -187500.02235174447, 9869.703336918752, -19111.367358132287, -43923.368325635, -16851.404828000646, -36958.564753361316, -187500.02235174447, -40442.1958854432, 8303.807175613305, -3984.6901875365006, -52123.39635174231, -50353.36170832655, -30388.358877701627, -30773.94882130013, -47615.16125382915, -54531.19331970136, 0.014, 0.984, 0.29, 192.0, 0.0, 0.0, 0.0, 0.0, 0.0, 0.0, 0.0, 0.0, 0.0, 1.69567462685077E9, 0.0, 2023-09-25 15:43:46.850
232.0, -187500.02235174447, 9870.28448227459, -19105.26533189599, -43935.14769496294, -16850.220185544513, -36933.15081991563, -187500.02235174447, -40420.559396810466, 8315.944172852538, -3980.7339287679115, -52111.86285160337, -50340.01771688673, -30379.26171770832, -30763.644667106233, -47610.95912587156, -54522.5208428527, 0.014, 0.984, 0.29, 192.0, 0.0, 0.0, 0.0, 0.0, 0.0, 0.0, 0.0, 0.0, 0.0, 1.695674626850773E9, 0.0, 2023-09-25 15:43:46.850
234.0, -187500.02235174447, 9872.38554625339, -19096.548151558418, -43923.480084357274, -16831.131795779682, -36955.614323093214, -187500.02235174447, -40395.36898080933, 8291.02197778487, -3970.519181551836, -52115.819110371966, -50331.12172259352, -30386.25781372283, -30741.00234997301, -47609.12628282622, -54527.348819655046, 0.014, 0.984, 0.29, 192.0, 0.0, 0.0, 0.0, 0.0, 0.0, 0.0, 0.0, 0.0, 0.0, 1.695674626850776E9, 0.0, 2023-09-25 15:43:46.850
236.0, -187500.02235174447, 9870.552703208054, -19103.83482025085, -43935.05828798512, -16834.305743492336, -36924.92537795608, -187500.02235174447, -40406.23192861461, 8307.428158215065, -3973.223742630928, -52104.88910733332, -50308.50175720474, -30351.67966505047, -30766.304524696414, -47592.116605295734, -54527.12530221049, 0.014, 0.984, 0.29, 192.0, 0.0, 0.0, 0.0, 0.0, 0.0, 0.0, 0.0, 0.0, 0.0, 1.69567462685078E9, 0.0, 2023-09-25 15:43:46.850
238.0, -187500.02235174447, 9877.213523055736, -19088.34506134332, -43916.416933109394, -16818.23483922897, -36956.93307601608, -187500.02235174447, -40394.43020754221, 8300.83439360075, -3970.0274431738194, -52108.197165512705, -50307.09359730406, -30369.11402572561, -30745.964437242084, -47595.55877394185, -54532.33325866858, 0.014, 0.976, 0.29, 192.0, 0.0, 56.0, 15.0, 64.0, 4.5, 8.0, 0.0, 0.0, 0.0, 1.695674626850783E9, 0.0, 2023-09-25 15:43:46.850
240.0, -187500.02235174447, 9858.348650735457, -19113.133145944255, -43951.240950970765, -16846.643906431666, -36909.435619048556, -187500.02235174447, -40419.30769912097, 8312.770225139884, -3965.6017977716683, -52097.06599677396, -50291.64854188544, -30342.62720854607, -30742.6563790627, -47585.70165463706, -54544.69377335236, 0.014, 0.976, 0.29, 192.0, 0.0, 0.0, 0.0, 0.0, 0.0, 0.0, 0.0, 0.0, 0.0, 1.695674626850786E9, 0.0, 2023-09-25 15:43:46.850
242.0, -187500.02235174447, 9859.600348424954, -19108.55103833092, -43944.75894507873, -16843.358199996735, -36943.387918876164, -187500.02235174447, -40423.263957889554, 8325.711885179506, -3986.3442166261934, -52118.63543017333, -50311.452187472845, -30372.466787393903, -30763.957591528608, -47614.624811962225, -54500.906705964415, 0.014, 0.976, 0.29, 192.0, 0.0, 0.0, 0.0, 0.0, 0.0, 0.0, 0.0, 0.0, 0.0, 1.695674626911117E9, 0.0, 2023-09-25 15:43:46.911
244.0, -187500.02235174447, 9860.405011225344, -19111.83674476585, -43958.7734888522, -16849.57198495531, -36924.25482562242, -187500.02235174447, -40438.57490284144, 8291.513716162886, -3983.863172991654, -52107.68307539023, -50304.00905656923, -30366.09654022414, -30775.602850389823, -47600.923192611124, -54530.00867724523, 0.014, 0.976, 0.29, 192.0, 0.0, 0.0, 0.0, 0.0, 0.0, 0.0, 0.0, 0.0, 0.0, 1.695674626911127E9, 0.0, 2023-09-25 15:43:46.911
246.0, -187500.02235174447, 9871.71499391973, -19113.200201177624, -43961.9250848204, -16853.349429768256, -36970.388826178176, -187500.02235174447, -40488.88867961034, 8312.07732106177, -3988.154707927073, -52112.15342428129, -50310.15578629444, -30370.38807515956, -30768.830271819865, -47620.436265520606, -54502.76190075421, 0.014, 0.976, 0.29, 192.0, 0.0, 0.0, 0.0, 0.0, 0.0, 0.0, 0.0, 0.0, 0.0, 1.695674626911131E9, 0.0, 2023-09-25 15:43:46.911
248.0, -187500.02235174447, 9865.657671172343, -19125.851288539325, -43976.766643138726, -16878.15986611365, -36945.846610766246, -187500.02235174447, -40457.61858911736, 8268.312605418278, -3990.83691726171, -52113.226308015146, -50313.061513073626, -30358.273429664783, -30770.99839103203, -47638.36236457376, -54546.191340230864, 0.018000000000000002, 0.978, 0.296, 192.0, 0.0, 72.0, 15.0, 72.0, 4.5, 32.0, 0.0, 0.0, 0.0, 1.695674626911134E9, 0.0, 2023-09-25 15:43:46.911
250.0, -187500.02235174447, 9871.513828219633, -19100.280892882456, -43956.53831440667, -16834.14928128115, -36965.6726080981, -187500.02235174447, -40424.739173023605, 8320.258059532413, -3994.1226236966404, -52118.76954064007, -50311.83216712859, -30362.453205877926, -30774.28409746696, -47630.025163891936, -54492.83772621605, 0.018000000000000002, 0.978, 0.296, 192.0, 0.0, 0.0, 0.0, 0.0, 0.0, 0.0, 0.0, 0.0, 0.0, 1.695674626911137E9, 0.0, 2023-09-25 15:43:46.911
252.0, -187500.02235174447, 9860.606176925443, -19103.231323150554, -43959.33228246359, -16827.84608934475, -36944.55020958784, -187500.02235174447, -40363.0260065825, 8271.464201386476, -3980.577466556724, -52101.55869740948, -50295.38128320948, -30369.248136192342, -30755.910963524697, -47586.12633778171, -54541.02808726169, 0.018000000000000002, 0.978, 0.296, 192.0, 0.0, 0.0, 0.0, 0.0, 0.0, 0.0, 0.0, 0.0, 0.0, 1.695674626911141E9, 0.0, 2023-09-25 15:43:46.911
254.0, -187500.02235174447, 9862.394316481867, -19092.323671856364, -43962.10389877605, -16828.404882956136, -36950.76399454642, -187500.02235174447, -40365.50705021704, 8337.111274851713, -3990.9933794728972, -52108.55479342399, -50301.729178634785, -30375.573679873192, -30761.722417083078, -47582.99709355797, -54480.65602548791, 0.018000000000000002, 0.978, 0.296, 192.0, 0.0, 0.0, 0.0, 0.0, 0.0, 0.0, 0.0, 0.0, 0.0, 1.695674626911144E9, 0.0, 2023-09-25 15:43:46.911
0.0, -187500.02235174447, 9853.341859977469, -19111.45676511011, -43988.143681066475, -16842.33001975179, -36933.17317166009, -187500.02235174447, -40391.524480763015, 8270.54777986381, -3994.4131963745594, -52102.676284632245, -50300.34337047856, -30363.63784833406, -30749.496012866024, -47573.00586378645, -54528.2205376888, 0.018000000000000002, 0.978, 0.296, 192.0, 0.0, 0.0, 0.0, 0.0, 0.0, 0.0, 0.0, 0.0, 0.0, 1.695674626972913E9, 0.0, 2023-09-25 15:43:46.972
2.0, -187500.02235174447, 9879.471049245722, -19098.649215537218, -43955.68894811737, -16825.94619106605, -36954.98847424847, -187500.02235174447, -40387.545870249975, 8328.952888125526, -3990.83691726171, -52107.481909690134, -50305.797196125655, -30369.20343270343, -30763.97994327306, -47575.46455567653, -54467.44614451482, 0.018000000000000002, 0.962, 0.308, 192.0, 0.0, 72.0, 15.0, 8.0, 4.5, 80.0, 0.0, 0.0, 0.0, 1.695674626972926E9, 0.0, 2023-09-25 15:43:46.972
4.0, -187500.02235174447, 9868.026956084605, -19115.2118581786, -43969.144698279466, -16843.38055174119, -36948.573523589796, -187500.02235174447, -40409.651745516276, 8261.54002684832, -3990.2781236503274, -52104.129148021835, -50305.84189961456, -30367.951735013932, -30759.129614726262, -47568.53551489538, -54527.63939233296, 0.018000000000000002, 0.962, 0.308, 192.0, 0.0, 0.0, 0.0, 0.0, 0.0, 0.0, 0.0, 0.0, 0.0, 1.69567462697293E9, 0.0, 2023-09-25 15:43:46.972
6.0, -187500.02235174447, 9868.161066551336, -19117.02234947948, -43974.26324775973, -16842.28531626288, -36947.14301194465, -187500.02235174447, -40426.43790560221, 8331.992725371449, -4005.9466965134975, -52114.187433026724, -50313.977934596296, -30370.119854226097, -30787.113998784305, -47572.067090519326, -54476.02921438566, 0.018000000000000002, 0.962, 0.308, 192.0, 0.0, 0.0, 0.0, 0.0, 0.0, 0.0, 0.0, 0.0, 0.0, 1.695674626972933E9, 0.0, 2023-09-25 15:43:46.972
8.0, -187500.02235174447, 9858.326298991002, -19123.37024490479, -43981.728730407805, -16855.495197235967, -36969.13712848868, -187500.02235174447, -40464.234705476134, 8245.893805729605, -3996.4472051199923, -52117.562546439476, -50314.91670786342, -30377.227708962884, -30766.997428774528, -47579.51022142294, -54527.12530221049, 0.018000000000000002, 0.962, 0.308, 192.0, 0.0, 0.0, 0.0, 0.0, 0.0, 0.0, 0.0, 0.0, 0.0, 1.695674626972936E9, 0.0, 2023-09-25 15:43:46.972
10.0, -187500.02235174447, 9848.80445585304, -19131.640390353252, -43982.71220716384, -16866.20168283006, -36951.970988747, -187500.02235174447, -40444.11813546636, 8315.474786218976, -4004.873812779643, -52117.003752828095, -50313.66501017392, -30370.81275830421, -30766.528042140966, -47592.51893669593, -54489.59672327003, 0.018000000000000002, 0.962, 0.308, 192.0, 0.0, 0.0, 0.0, 0.0, 0.0, 0.0, 0.0, 0.0, 0.0, 1.695674626972939E9, 0.0, 2023-09-25 15:43:46.972
12.0, -187500.02235174447, 9847.619813396908, -19128.578201362874, -43980.812308885135, -16852.120083823214, -36962.38690166317, -187500.02235174447, -40421.40876309977, 8245.58088130723, -4003.353894156682, -52127.46436923318, -50321.242251544274, -30394.7738283603, -30782.844815593344, -47589.07676804981, -54511.07674969158, 0.018000000000000002, 0.96, 0.316, 192.0, 0.0, 72.0, 15.0, 0.0, 4.5, 112.0, 0.0, 0.0, 0.0, 1.695674626972942E9, 0.0, 2023-09-25 15:43:46.972
14.0, -187500.02235174447, 9851.441961698767, -19133.20501246512, -43979.359445495546, -16844.09580756376, -36942.762070031415, -187500.02235174447, -40408.33299259341, 8313.2619635179, -4011.288763438316, -52127.620831444365, -50323.29861203416, -30373.9196507835, -30783.537719671458, -47580.91838132362, -54459.10894383299, 0.018000000000000002, 0.96, 0.316, 192.0, 0.0, 0.0, 0.0, 0.0, 0.0, 0.0, 0.0, 0.0, 0.0, 1.695674626972946E9, 0.0, 2023-09-25 15:43:46.972
16.0, -187500.02235174447, 9883.270845803125, -19087.674509009663, -43941.62970085498, -16813.719786848997, -36973.16044249063, -187500.02235174447, -40354.86761985631, 8244.284480128823, -3993.317960896249, -52115.953220838695, -50311.34042875057, -30382.234499720875, -30768.360885186303, -47566.30034044985, -54495.85521171751, 0.018000000000000002, 0.96, 0.316, 192.0, 0.0, 0.0, 0.0, 0.0, 0.0, 0.0, 0.0, 0.0, 0.0, 1.695674627033165E9, 0.0, 2023-09-25 15:43:47.033
18.0, -187500.02235174447, 9890.401052284367, -19116.485907612554, -43962.17095400941, -16832.361141724723, -36939.275197896386, -187500.02235174447, -40389.5351755065, 8309.50687044941, -3985.6960160369895, -52096.95423805169, -50294.129585519986, -30350.42796736097, -30753.675789079167, -47552.621072843205, -54487.138031379945, 0.018000000000000002, 0.96, 0.316, 192.0, 0.0, 0.0, 0.0, 0.0, 0.0, 0.0, 0.0, 0.0, 0.0, 1.695674627033175E9, 0.0, 2023-09-25 15:43:47.033
20.0, -187500.02235174447, 9879.180476567803, -19106.002939463015, -43961.34393946457, -16833.545784180857, -36968.488927899474, -187500.02235174447, -40390.272783073524, 8268.06673622927, -3989.004074216375, -52110.83467135843, -50307.29476300416, -30381.139264242564, -30757.36382691429, -47570.480116663, -54506.69580777834, 0.018000000000000002, 0.96, 0.316, 192.0, 0.0, 0.0, 0.0, 0.0, 0.0, 0.0, 0.0, 0.0, 0.0, 1.695674627033178E9, 0.0, 2023-09-25 15:43:47.033
22.0, -187500.02235174447, 9845.876377329396, -19133.339122931855, -43982.66750367493, -16864.502950251455, -36929.619244291694, -187500.02235174447, -40425.58853931291, 8303.248382001922, -4003.644466834601, -52113.76274988207, -50311.519242706214, -30377.76415082981, -30777.838024835353, -47582.617113902226, -54481.57244701057, 0.014, 0.962, 0.324, 192.0, 0.0, 56.0, 15.0, 8.0, 5.0, 16.0, 0.0, 0.0, 0.0, 1.695674627033181E9, 0.0, 2023-09-25 15:43:47.033
24.0, -187500.02235174447, 9855.174703022803, -19124.890163527747, -43969.39056746847, -16857.37274377021, -36964.286799941874, -187500.02235174447, -40426.348498624386, 8258.142561691113, -4013.3451239282044, -52124.58099419845, -50324.23738530128, -30404.943872087464, -30789.70680114112, -47600.25264027747, -54476.990339397234, 0.014, 0.962, 0.324, 192.0, 0.0, 0.0, 0.0, 0.0, 0.0, 0.0, 0.0, 0.0, 0.0, 1.695674627033184E9, 0.0, 2023-09-25 15:43:47.033
26.0, -187500.02235174447, 9864.09304906047, -19116.999997735023, -43960.405166197444, -16851.360124511735, -36950.9204567576, -187500.02235174447, -40434.08220220592, 8277.92385553406, -4009.4112169040704, -52114.902688849295, -50313.66501017392, -30395.466732438414, -30786.286984239458, -47593.83768961879, -54475.962159152295, 0.014, 0.962, 0.324, 192.0, 0.0, 0.0, 0.0, 0.0, 0.0, 0.0, 0.0, 0.0, 0.0, 1.695674627033188E9, 0.0, 2023-09-25 15:43:47.033
28.0, -187500.02235174447, 9866.060002572538, -19110.897971498725, -43947.30704394663, -16843.447606974558, -36979.396579193664, -187500.02235174447, -40415.865530474846, 8266.21154143948, -4005.5667168577575, -52115.3497237384, -50318.940021865375, -30393.276261481795, -30779.872033580785, -47593.25654426296, -54487.205086613314, 0.014, 0.962, 0.324, 192.0, 0.0, 0.0, 0.0, 0.0, 0.0, 0.0, 0.0, 0.0, 0.0, 1.695674627033191E9, 0.0, 2023-09-25 15:43:47.033
30.0, -187500.02235174447, 9876.85589514445, -19122.230305937566, -43950.99508178176, -16852.81298790133, -36937.12943042868, -187500.02235174447, -40433.702222550186, 8282.081280002747, -4003.5997633456905, -52104.486775933125, -50307.540632193166, -30383.55325264374, -30775.446388178636, -47580.717215623525, -54501.51020306471, 0.014, 0.962, 0.324, 192.0, 0.0, 0.0, 0.0, 0.0, 0.0, 0.0, 0.0, 0.0, 0.0, 1.695674627091199E9, 0.0, 2023-09-25 15:43:47.091
32.0, -187500.02235174447, 9863.28838626008, -19110.83091626536, -43943.753116578235, -16837.747912138453, -36960.82227955131, -187500.02235174447, -40404.108512891355, 8290.574942895764, -4014.261545450872, -52117.4507877172, -50329.60180397055, -30402.88751159758, -30791.226719764083, -47581.99126505748, -54467.78142068165, 0.018000000000000002, 0.964, 0.322, 192.0, 0.0, 72.0, 15.0, 16.0, 5.0, 8.0, 0.0, 0.0, 0.0, 1.695674627091211E9, 0.0, 2023-09-25 15:43:47.091
34.0, -187500.02235174447, 9856.71697339022, -19113.624884322275, -43945.78712532367, -16835.132758037184, -36935.83302925027, -187500.02235174447, -40388.261126072546, 8270.748945563906, -4010.4170454045593, -52116.13203479434, -50329.40063827046, -30398.05953479523, -30782.353077215324, -47565.09334624927, -54480.633673743454, 0.018000000000000002, 0.964, 0.322, 192.0, 0.0, 0.0, 0.0, 0.0, 0.0, 0.0, 0.0, 0.0, 0.0, 1.695674627091214E9, 0.0, 2023-09-25 15:43:47.091
36.0, -187500.02235174447, 9866.417630483822, -19104.505372584506, -43939.84156129856, -16829.164842267615, -36969.11477674422, -187500.02235174447, -40386.27182081602, 8290.776108595861, -3998.6600278210676, -52110.78996786952, -50322.33748702258, -30385.34139220016, -30773.47943466657, -47569.58604688478, -54472.028252128155, 0.018000000000000002, 0.964, 0.322, 192.0, 0.0, 0.0, 0.0, 0.0, 0.0, 0.0, 0.0, 0.0, 0.0, 1.695674627091218E9, 0.0, 2023-09-25 15:43:47.091
38.0, -187500.02235174447, 9867.803438640052, -19116.575314590373, -43954.3254917056, -16842.218261029513, -36933.84372399375, -187500.02235174447, -40387.90349816126, 8269.229026940946, -4004.65029533509, -52113.24865975961, -50327.54544348067, -30391.15284575854, -30753.09464372333, -47572.692939364075, -54511.34497062505, 0.018000000000000002, 0.964, 0.322, 192.0, 0.0, 0.0, 0.0, 0.0, 0.0, 0.0, 0.0, 0.0, 0.0, 1.695674627091221E9, 0.0, 2023-09-25 15:43:47.091
40.0, -187500.02235174447, 9876.341805021979, -19111.63557906575, -43937.829904297585, -16842.86646161872, -36955.9719510045, -187500.02235174447, -40405.36021058085, 8304.12010003568, -4001.2528301778834, -52121.0047150856, -50328.86419640353, -30405.145037787563, -30790.08678079686, -47578.81731734482, -54471.961196894794, 0.018000000000000002, 0.964, 0.322, 192.0, 0.0, 0.0, 0.0, 0.0, 0.0, 0.0, 0.0, 0.0, 0.0, 1.695674627091224E9, 0.0, 2023-09-25 15:43:47.091
42.0, -187500.02235174447, 9847.731572119186, -19130.88043104177, -43961.90273307595, -16863.58652872879, -36929.283968124866, -187500.02235174447, -40442.82173428795, 8262.277634415344, -4013.7251035839445, -52126.83852038843, -50336.17321684041, -30398.953604573442, -30796.255862266527, -47583.377073213705, -54504.10300542152, 0.018000000000000002, 0.962, 0.322, 192.0, 0.0, 72.0, 15.0, 8.0, 5.0, 8.0, 0.0, 0.0, 0.0, 1.695674627091227E9, 0.0, 2023-09-25 15:43:47.091
44.0, -187500.02235174447, 9868.630453184898, -19114.004863978014, -43939.59569210955, -16846.10746456474, -36961.44812839605, -187500.02235174447, -40420.04530668799, 8293.033634785848, -4014.7532838288885, -52130.66066869029, -50339.43657153089, -30397.12076152811, -30806.269443782505, -47596.67636116462, -54453.87863563045, 0.018000000000000002, 0.962, 0.322, 192.0, 0.0, 0.0, 0.0, 0.0, 0.0, 0.0, 0.0, 0.0, 0.0, 1.69567462709123E9, 0.0, 2023-09-25 15:43:47.091
46.0, -187500.02235174447, 9844.915252317816, -19126.678303084173, -43966.17191626691, -16859.67497344911, -36936.01184320591, -187500.02235174447, -40410.255242616564, 8237.422494581044, -4005.454958135481, -52122.301116264, -50327.2772225472, -30409.21305527843, -30787.80690286242, -47587.04275930438, -54502.02429318718, 0.018000000000000002, 0.962, 0.322, 192.0, 0.0, 0.0, 0.0, 0.0, 0.0, 0.0, 0.0, 0.0, 0.0, 1.695674627150981E9, 0.0, 2023-09-25 15:43:47.150
48.0, -187500.02235174447, 9849.586766908977, -19122.632637337763, -43959.86872433052, -16851.47188323401, -36950.942808502055, -187500.02235174447, -40417.72072526464, 8304.634190158153, -4029.79600784731, -52136.852101904406, -50345.04685938917, -30426.35684327565, -30808.504618228035, -47590.88725935069, -54426.20717599478, 0.018000000000000002, 0.962, 0.322, 192.0, 0.0, 0.0, 0.0, 0.0, 0.0, 0.0, 0.0, 0.0, 0.0, 1.695674627150991E9, 0.0, 2023-09-25 15:43:47.150
50.0, -187500.02235174447, 9858.61687166892, -19124.465480383096, -43955.97952079529, -16849.3261157663, -36949.78051779038, -187500.02235174447, -40422.88397823381, 8230.046418910792, -4008.897126781598, -52126.21267154368, -50331.2781848047, -30411.11295355713, -30793.43954246516, -47581.45482319055, -54474.7104614628, 0.018000000000000002, 0.962, 0.322, 192.0, 0.0, 0.0, 0.0, 0.0, 0.0, 0.0, 0.0, 0.0, 0.0, 1.695674627150994E9, 0.0, 2023-09-25 15:43:47.150
52.0, -187500.02235174447, 9877.4817439892, -19113.06609071089, -43939.618043854, -16839.178423783593, -36967.438395910074, -187500.02235174447, -40417.65367003127, 8305.528259936364, -4008.4500918924923, -52131.08535183494, -50329.691210948375, -30404.228616264896, -30793.86422560981, -47586.90864883765, -54420.306315458576, 0.02, 0.966, 0.328, 192.0, 0.0, 80.0, 15.0, 24.0, 5.0, 32.0, 0.0, 0.0, 0.0, 1.695674627150998E9, 0.0, 2023-09-25 15:43:47.150
54.0, -187500.02235174447, 9879.538104479088, -19110.920323243183, -43956.918294062416, -16843.939345352574, -36956.86602078271, -187500.02235174447, -40393.37967555281, 8228.615907265652, -3989.786385272311, -52118.14369179532, -50321.08578933308, -30410.710622156934, -30765.835138062852, -47576.112756265735, -54491.608380271005, 0.02, 0.966, 0.328, 192.0, 0.0, 0.0, 0.0, 0.0, 0.0, 0.0, 0.0, 0.0, 0.0, 1.695674627151001E9, 0.0, 2023-09-25 15:43:47.151
56.0, -187500.02235174447, 9847.32924071899, -19122.945561760138, -43961.36629120902, -16848.119121565716, -36944.12552644319, -187500.02235174447, -40422.03461194451, 8309.819794871783, -4018.6648391085673, -52124.960973854184, -50334.13920809498, -30405.748534887858, -30798.826312878886, -47586.14868952617, -54424.553146905084, 0.02, 0.966, 0.328, 192.0, 0.0, 0.0, 0.0, 0.0, 0.0, 0.0, 0.0, 0.0, 0.0, 1.695674627151004E9, 0.0, 2023-09-25 15:43:47.151
58.0, -187500.02235174447, 9857.834560612984, -19119.190468691646, -43959.3769859525, -16849.81785414432, -36964.53266913089, -187500.02235174447, -40413.02685892902, 8221.508052528865, -4027.3820194461373, -52126.48089247714, -50341.381173298505, -30416.946758859965, -30798.245167523048, -47587.24392500448, -54467.289682303635, 0.02, 0.966, 0.328, 192.0, 0.0, 0.0, 0.0, 0.0, 0.0, 0.0, 0.0, 0.0, 0.0, 1.695674627151008E9, 0.0, 2023-09-25 15:43:47.151
60.0, -187500.02235174447, 9867.311700262035, -19119.63750358075, -43949.922198047905, -16839.066665061317, -36960.35289291774, -187500.02235174447, -40428.024879458535, 8290.731405106952, -4010.2158797044613, -52118.72483715115, -50328.663030703436, -30400.071191796207, -30809.018708350508, -47584.65112264766, -54442.79217038061, 0.02, 0.966, 0.328, 192.0, 0.0, 0.0, 0.0, 0.0, 0.0, 0.0, 0.0, 0.0, 0.0, 1.695674627211177E9, 0.0, 2023-09-25 15:43:47.211
62.0, -187500.02235174447, 9848.04449654156, -19136.222497966588, -43963.24383774326, -16864.19002582908, -36974.166270991125, -187500.02235174447, -40437.65848131877, 8222.133901373614, -4018.731894341933, -52124.84921513191, -50337.022583129714, -30406.262625010328, -30813.91374038622, -47587.60155291576, -54489.61907501448, 0.022, 0.964, 0.32, 192.0, 0.0, 88.0, 15.0, 16.0, 5.0, 0.0, 0.0, 0.0, 0.0, 1.69567462721119E9, 0.0, 2023-09-25 15:43:47.211
64.0, -187500.02235174447, 9864.718897905219, -19119.2128204361, -43955.13015450599, -16852.14243556767, -36964.33150343079, -187500.02235174447, -40428.40485911428, 8276.761564822384, -4029.7513043584, -52133.052305347, -50346.119743123025, -30417.43849723798, -30796.61349017781, -47600.20793678855, -54433.91852783186, 0.022, 0.964, 0.32, 192.0, 0.0, 0.0, 0.0, 0.0, 0.0, 0.0, 0.0, 0.0, 0.0, 1.695674627211194E9, 0.0, 2023-09-25 15:43:47.211
66.0, -187500.02235174447, 9843.618851139408, -19130.254582197023, -43962.75209936525, -16855.38343851369, -36980.55886990534, -187500.02235174447, -40419.4418095877, 8219.161119361057, -4017.5025483968916, -52130.10187507891, -50344.91274892244, -30421.68532868449, -30805.129504815282, -47587.154518026655, -54469.726022449264, 0.022, 0.964, 0.32, 192.0, 0.0, 0.0, 0.0, 0.0, 0.0, 0.0, 0.0, 0.0, 0.0, 1.695674627211197E9, 0.0, 2023-09-25 15:43:47.211
68.0, -187500.02235174447, 9865.121229305414, -19112.149669188224, -43944.4236689119, -16833.657542903133, -36959.65998883963, -187500.02235174447, -40401.22513785662, 8280.673120102063, -4029.6842491250336, -52139.020221116574, -50347.55025476817, -30414.39865999206, -30823.301473057447, -47588.11564303823, -54428.66586788486, 0.022, 0.964, 0.32, 192.0, 0.0, 0.0, 0.0, 0.0, 0.0, 0.0, 0.0, 0.0, 0.0, 1.6956746272112E9, 0.0, 2023-09-25 15:43:47.211
70.0, -187500.02235174447, 9864.696546160763, -19111.59087557684, -43939.41687815391, -16836.071531304304, -36984.22455599601, -187500.02235174447, -40387.99290513908, 8227.721837487441, -3998.928248754531, -52111.72874113664, -50320.86227188853, -30393.700944626446, -30783.604774904823, -47560.04185200237, -54479.00199639821, 0.022, 0.964, 0.32, 192.0, 0.0, 0.0, 0.0, 0.0, 0.0, 0.0, 0.0, 0.0, 0.0, 1.695674627211203E9, 0.0, 2023-09-25 15:43:47.211
72.0, -187500.02235174447, 9856.135828034381, -19127.550021117928, -43958.68408187438, -16859.406752515646, -36935.36364261671, -187500.02235174447, -40422.14637066679, 8288.898562061615, -4026.1079700121845, -52126.7044099217, -50341.31411806514, -30404.832113365188, -30809.465743239612, -47587.95918082705, -54445.83200762654, 0.02, 0.966, 0.32, 192.0, 0.0, 80.0, 15.0, 24.0, 5.0, 0.0, 0.0, 0.0, 0.0, 1.695674627211206E9, 0.0, 2023-09-25 15:43:47.211
74.0, -187500.02235174447, 9854.347688477956, -19118.676378569173, -43948.82696256959, -16853.081208834792, -36979.262468726934, -187500.02235174447, -40416.58078629742, 8243.278651628334, -4013.6580483505786, -52124.893918620815, -50339.19070234188, -30437.420956781025, -30798.222815778594, -47590.12730003921, -54444.93793784833, 0.02, 0.966, 0.32, 192.0, 0.0, 0.0, 0.0, 0.0, 0.0, 0.0, 0.0, 0.0, 0.0, 1.69567462721121E9, 0.0, 2023-09-25 15:43:47.211
76.0, -187500.02235174447, 9847.932737819283, -19121.49269837054, -43956.04657602866, -16858.132703081694, -36945.131354943675, -187500.02235174447, -40436.63030107383, 8261.472971614954, -4030.9582985589864, -52133.40993325829, -50348.01964140173, -30430.7824886778, -30821.71449920112, -47595.84934661977, -54437.092475544516, 0.02, 0.966, 0.32, 192.0, 0.0, 0.0, 0.0, 0.0, 0.0, 0.0, 0.0, 0.0, 0.0, 1.695674627271526E9, 0.0, 2023-09-25 15:43:47.271
78.0, -187500.02235174447, 9851.956051821238, -19116.77648029047, -43950.14571549246, -16864.122970595716, -36985.94564031907, -187500.02235174447, -40435.66917606225, 8237.91423295906, -4018.731894341933, -52128.55960471149, -50343.83986518859, -30433.64351196808, -30810.918606629206, -47598.620962932226, -54437.986545322725, 0.02, 0.966, 0.32, 192.0, 0.0, 0.0, 0.0, 0.0, 0.0, 0.0, 0.0, 0.0, 0.0, 1.695674627271536E9, 0.0, 2023-09-25 15:43:47.271
80.0, -187500.02235174447, 9852.134865776881, -19122.29736117093, -43957.90177081845, -16863.854749662252, -36952.99916899195, -187500.02235174447, -40453.43881290422, 8238.338916103712, -4023.8504438221985, -52124.044552331514, -50341.26941457623, -30426.625064209114, -30810.516275229013, -47597.10104430927, -54451.1517228069, 0.02, 0.966, 0.32, 192.0, 0.0, 0.0, 0.0, 0.0, 0.0, 0.0, 0.0, 0.0, 0.0, 1.69567462727154E9, 0.0, 2023-09-25 15:43:47.271
82.0, -187500.02235174447, 9829.224327710192, -19125.9630472616, -43965.70252963335, -16871.297880565868, -36983.48694842899, -187500.02235174447, -40465.88873456582, 8260.355384392189, -4034.5569294162906, -52138.528482738555, -50354.166371126936, -30441.153698105063, -30818.29468229946, -47601.079654822315, -54415.25482121168, 0.018000000000000002, 0.97, 0.31, 192.0, 0.0, 72.0, 15.0, 40.0, 4.5, 88.0, 0.0, 0.0, 0.0, 1.695674627271543E9, 0.0, 2023-09-25 15:43:47.271
84.0, -187500.02235174447, 9837.315659203012, -19127.013579251, -43968.47414594581, -16878.428087047112, -36966.320808687306, -187500.02235174447, -40456.903333294795, 8226.760712475862, -4040.9942318194194, -52141.03187811755, -50360.13428689651, -30443.92531441752, -30817.19944682115, -47611.964954372044, -54431.81746385306, 0.018000000000000002, 0.97, 0.31, 192.0, 0.0, 0.0, 0.0, 0.0, 0.0, 0.0, 0.0, 0.0, 0.0, 1.695674627271546E9, 0.0, 2023-09-25 15:43:47.271
86.0, -187500.02235174447, 9853.85595009994, -19113.26725641099, -43949.58692188108, -16861.038429860884, -36984.73864611848, -187500.02235174447, -40424.98504221261, 8250.20769240948, -4039.809589363288, -52136.27095654857, -50358.54731304018, -30434.06819511273, -30834.410290051736, -47602.17489030062, -54400.592076848996, 0.018000000000000002, 0.97, 0.31, 192.0, 0.0, 0.0, 0.0, 0.0, 0.0, 0.0, 0.0, 0.0, 0.0, 1.69567462727155E9, 0.0, 2023-09-25 15:43:47.271
88.0, -187500.02235174447, 9829.380789921379, -19125.22543969458, -43962.17095400941, -16864.033563617893, -36959.190602206065, -187500.02235174447, -40426.549664324484, 8218.602325749674, -4040.569548674768, -52133.78991291403, -50359.86606596304, -30430.380157277606, -30834.05266214045, -47591.64721866217, -54435.9972400662, 0.018000000000000002, 0.97, 0.31, 192.0, 0.0, 0.0, 0.0, 0.0, 0.0, 0.0, 0.0, 0.0, 0.0, 1.695674627271553E9, 0.0, 2023-09-25 15:43:47.271
90.0, -187500.02235174447, 9841.227214482691, -19114.474250611576, -43954.05727077214, -16853.371781512713, -36982.30230597285, -187500.02235174447, -40420.335879365906, 8261.785896037329, -4043.0058888203966, -52135.242776303625, -50362.21299913085, -30439.052634126263, -30828.934112660187, -47585.38873021468, -54391.00317847767, 0.018000000000000002, 0.97, 0.31, 192.0, 0.0, 0.0, 0.0, 0.0, 0.0, 0.0, 0.0, 0.0, 0.0, 1.695674627331746E9, 0.0, 2023-09-25 15:43:47.331
92.0, -187500.02235174447, 9834.253470212636, -19135.104910743823, -43968.094166290066, -16872.01313638844, -36965.09146274227, -187500.02235174447, -40437.63612957432, 8201.547944730275, -4043.095295798218, -52141.27774730656, -50363.755269498266, -30432.816497423235, -30833.53857201798, -47589.76967212793, -54435.84077785502, 0.018000000000000002, 0.976, 0.312, 192.0, 0.0, 72.0, 15.0, 64.0, 4.5, 96.0, 0.0, 0.0, 0.0, 1.695674627331761E9, 0.0, 2023-09-25 15:43:47.331
94.0, -187500.02235174447, 9856.940490834771, -19104.795945262427, -43940.065078743115, -16852.701229179052, -36998.46261721404, -187500.02235174447, -40455.53987688302, 8249.470084842455, -4039.7648858743773, -52137.835578660444, -50359.73195549631, -30443.098299872676, -30818.898179399752, -47601.2361170335, -54395.47352736873, 0.018000000000000002, 0.976, 0.312, 192.0, 0.0, 0.0, 0.0, 0.0, 0.0, 0.0, 0.0, 0.0, 0.0, 1.695674627331765E9, 0.0, 2023-09-25 15:43:47.331
96.0, -187500.02235174447, 9849.765580864618, -19116.35179714582, -43944.177799722886, -16868.079229364306, -36972.758111090436, -187500.02235174447, -40415.798475241485, 8187.846325379172, -4017.8601763081765, -52118.88129936234, -50341.649394231965, -30433.531753245803, -30811.991490363063, -47582.0806720353, -54470.7542026942, 0.018000000000000002, 0.976, 0.312, 192.0, 0.0, 0.0, 0.0, 0.0, 0.0, 0.0, 0.0, 0.0, 0.0, 1.695674627331768E9, 0.0, 2023-09-25 15:43:47.331
98.0, -187500.02235174447, 9864.115400804925, -19109.73568078705, -43938.88043628698, -16857.484502492487, -36978.72602686001, -187500.02235174447, -40432.00348997158, 8260.020108225359, -4028.7901793468213, -52130.68302043474, -50349.3830978135, -30435.252837568863, -30826.073089369907, -47595.71523615304, -54403.743672817196, 0.018000000000000002, 0.976, 0.312, 192.0, 0.0, 0.0, 0.0, 0.0, 0.0, 0.0, 0.0, 0.0, 0.0, 1.695674627331771E9, 0.0, 2023-09-25 15:43:47.331
100.0, -187500.02235174447, 9868.451639229255, -19112.88727675525, -43940.91444503242, -16862.08896185028, -36981.34118096127, -187500.02235174447, -40437.3455568964, 8185.4323369779995, -4015.0215047623524, -52122.79285464202, -50344.06338263314, -30435.588113735692, -30811.544455473955, -47591.66957040663, -54465.92622589186, 0.018000000000000002, 0.976, 0.312, 192.0, 0.0, 0.0, 0.0, 0.0, 0.0, 0.0, 0.0, 0.0, 0.0, 1.695674627331775E9, 0.0, 2023-09-25 15:43:47.331
102.0, -187500.02235174447, 9863.646014171365, -19111.322654643376, -43943.12726773349, -16862.51364499493, -36973.85334656875, -187500.02235174447, -40457.26096120608, 8269.184323452035, -4023.2469467219053, -52125.96680235468, -50344.800990200165, -30414.465715225426, -30822.675624212698, -47593.39065472969, -54424.15081550489, 0.018000000000000002, 0.974, 0.31, 192.0, 0.0, 72.0, 15.0, 56.0, 4.5, 88.0, 0.0, 0.0, 0.0, 1.695674627331778E9, 0.0, 2023-09-25 15:43:47.331
104.0, -187500.02235174447, 9862.729592648697, -19104.281855139954, -43942.300253188645, -16863.72063919552, -36974.76976809141, -187500.02235174447, -40435.06567896195, 8203.894877898083, -4020.2071094759835, -52119.28363076254, -50343.683402977396, -30444.059424884254, -30820.08282185588, -47585.209916259046, -54466.12739159196, 0.018000000000000002, 0.974, 0.31, 192.0, 0.0, 0.0, 0.0, 0.0, 0.0, 0.0, 0.0, 0.0, 0.0, 1.695674627331781E9, 0.0, 2023-09-25 15:43:47.331
106.0, -187500.02235174447, 9870.105668318947, -19096.88342772525, -43922.27309015669, -16859.205586815548, -36959.50352662844, -187500.02235174447, -40439.066641219455, 8267.709108317984, -4008.7853680593216, -52117.94252609522, -50337.871949419015, -30432.54827648977, -30820.440449767168, -47583.7794046139, -54412.594963621494, 0.018000000000000002, 0.974, 0.31, 192.0, 0.0, 0.0, 0.0, 0.0, 0.0, 0.0, 0.0, 0.0, 0.0, 1.695674627391284E9, 0.0, 2023-09-25 15:43:47.391
108.0, -187500.02235174447, 9857.342822234968, -19109.556866831408, -43942.81434331112, -16881.19970335957, -36965.27027669791, -187500.02235174447, -40464.592333387416, 8205.079520354215, -4008.9865337594197, -52118.188395284225, -50336.419086029426, -30450.139099376098, -30807.901121127743, -47592.07190180682, -54442.948632591804, 0.018000000000000002, 0.974, 0.31, 192.0, 0.0, 0.0, 0.0, 0.0, 0.0, 0.0, 0.0, 0.0, 0.0, 1.695674627391294E9, 0.0, 2023-09-25 15:43:47.391
110.0, -187500.02235174447, 9849.787932609073, -19111.143840687735, -43941.42853515489, -16873.398944544668, -36955.07788122629, -187500.02235174447, -40453.327054181944, 8262.367041393167, -4027.3149642127714, -52129.27486053406, -50349.49485653578, -30440.281980071308, -30819.881656155787, -47603.717160668035, -54394.69121631279, 0.018000000000000002, 0.974, 0.31, 192.0, 0.0, 0.0, 0.0, 0.0, 0.0, 0.0, 0.0, 0.0, 0.0, 1.695674627391298E9, 0.0, 2023-09-25 15:43:47.391
112.0, -187500.02235174447, 9842.814188339018, -19112.619055821786, -43946.144753234956, -16879.299805080867, -36982.74934086196, -187500.02235174447, -40455.226952460645, 8194.820069649228, -4033.059362537785, -52140.56249148399, -50360.87189446353, -30455.659980256558, -30835.438470296678, -47606.68994268059, -54419.23343172472, 0.026000000000000002, 0.974, 0.306, 192.0, 0.0, 104.0, 15.0, 56.0, 4.5, 72.0, 0.0, 0.0, 0.0, 1.695674627391301E9, 0.0, 2023-09-25 15:43:47.391
114.0, -187500.02235174447, 9840.936641804772, -19117.98347449106, -43954.817230083616, -16876.505837023957, -36978.636619882185, -187500.02235174447, -40481.378493473356, 8239.143578904102, -4044.682269654545, -52149.68200322175, -50368.359728856056, -30446.16048886305, -30852.112871660338, -47612.03200960541, -54381.794259762086, 0.026000000000000002, 0.974, 0.306, 192.0, 0.0, 0.0, 0.0, 0.0, 0.0, 0.0, 0.0, 0.0, 0.0, 1.695674627391304E9, 0.0, 2023-09-25 15:43:47.391
116.0, -187500.02235174447, 9867.982252595693, -19092.860113723294, -43928.397468137446, -16859.540862982376, -37021.0378791139, -187500.02235174447, -40448.856705290884, 8164.756973356841, -4022.1740629880505, -52132.82878790245, -50357.16150488395, -30458.856279713666, -30822.675624212698, -47600.67732342212, -54428.688219629315, 0.026000000000000002, 0.974, 0.306, 192.0, 0.0, 0.0, 0.0, 0.0, 0.0, 0.0, 0.0, 0.0, 0.0, 1.695674627391308E9, 0.0, 2023-09-25 15:43:47.391
118.0, -187500.02235174447, 9849.162083764326, -19125.873640283782, -43957.61119814053, -16889.089869152293, -36970.6793988561, -187500.02235174447, -40469.19679274521, 8229.577032277231, -4032.7911416043216, -52138.819055416476, -50363.35293809807, -30446.808689452257, -30850.123566403818, -47608.45573049256, -54409.15279497538, 0.026000000000000002, 0.974, 0.306, 192.0, 0.0, 0.0, 0.0, 0.0, 0.0, 0.0, 0.0, 0.0, 0.0, 1.695674627391311E9, 0.0, 2023-09-25 15:43:47.391
120.0, -187500.02235174447, 9842.590670894466, -19117.670550068684, -43951.375061437495, -16873.354241055757, -37008.36444000774, -187500.02235174447, -40451.42715590324, 8177.050432807259, -4037.7755806178548, -52147.53623575404, -50375.93697022641, -30467.752274006878, -30848.44718556967, -47618.44696026408, -54411.835004310014, 0.026000000000000002, 0.974, 0.306, 192.0, 0.0, 0.0, 0.0, 0.0, 0.0, 0.0, 0.0, 0.0, 0.0, 1.69567462745088E9, 0.0, 2023-09-25 15:43:47.450
122.0, -187500.02235174447, 9851.732534376686, -19101.867866738783, -43932.13020946148, -16867.90041540866, -36965.4267389091, -187500.02235174447, -40448.54378086851, 8207.046473866281, -4033.1487695156065, -52137.14267458233, -50360.00017642977, -30456.107015145662, -30844.468575056624, -47605.28178277991, -54393.68538781231, 0.024, 0.976, 0.298, 192.0, 0.0, 96.0, 15.0, 64.0, 4.5, 40.0, 0.0, 0.0, 0.0, 1.695674627450894E9, 0.0, 2023-09-25 15:43:47.450
124.0, -187500.02235174447, 9857.94631933526, -19098.515105070484, -43926.05053496963, -16872.549578255366, -36999.06611431434, -187500.02235174447, -40491.369723244876, 8180.336139242189, -4014.2838971953274, -52124.08925582043, -50344.7339349668, -30460.510308803357, -30811.43269675168, -47595.42466347512, -54397.172259947336, 0.024, 0.976, 0.298, 192.0, 0.0, 0.0, 0.0, 0.0, 0.0, 0.0, 0.0, 0.0, 0.0, 1.695674627450898E9, 0.0, 2023-09-25 15:43:47.450
126.0, -187500.02235174447, 9851.263147743124, -19113.1107941998, -43929.80562803813, -16887.033508662404, -36956.59779984925, -187500.02235174447, -40463.474746164655, 8189.6568166800525, -4021.347048443204, -52131.040648346025, -50348.980766413304, -30455.659980256558, -30827.28008357049, -47601.41493098914, -54403.5425071171, 0.024, 0.976, 0.298, 192.0, 0.0, 0.0, 0.0, 0.0, 0.0, 0.0, 0.0, 0.0, 0.0, 1.695674627450901E9, 0.0, 2023-09-25 15:43:47.450
128.0, -187500.02235174447, 9878.845200400972, -19089.127372399256, -43907.94562196083, -16856.299860036357, -36992.248832255464, -187500.02235174447, -40444.22989418863, 8198.373997017623, -4018.5530803862907, -52136.852101904406, -50352.37823157051, -30467.93108796252, -30834.611455751834, -47600.67732342212, -54365.25396886516, 0.024, 0.976, 0.298, 192.0, 0.0, 0.0, 0.0, 0.0, 0.0, 0.0, 0.0, 0.0, 0.0, 1.695674627450904E9, 0.0, 2023-09-25 15:43:47.450
130.0, -187500.02235174447, 9877.168819566825, -19086.176942131155, -43901.70948525781, -16860.457284505046, -36955.68137832658, -187500.02235174447, -40423.040440445, 8191.221438791924, -3994.8602312636654, -52107.280743990035, -50325.44437950187, -30442.36069230565, -30808.169342061206, -47570.36835794072, -54391.919600000336, 0.024, 0.976, 0.298, 192.0, 0.0, 0.0, 0.0, 0.0, 0.0, 0.0, 0.0, 0.0, 0.0, 1.695674627450907E9, 0.0, 2023-09-25 15:43:47.450
132.0, -187500.02235174447, 9892.47976451871, -19077.213892604577, -43883.49281352673, -16840.698342406555, -36991.82414911081, -187500.02235174447, -40417.76542875355, 8208.074654111226, -3995.039045219308, -52117.4507877172, -50329.46769350382, -30459.638590769602, -30806.492961227057, -47583.95821856955, -54367.08681191049, 0.022, 0.972, 0.294, 192.0, 0.0, 88.0, 15.0, 48.0, 4.5, 24.0, 0.0, 0.0, 0.0, 1.69567462745091E9, 0.0, 2023-09-25 15:43:47.450
134.0, -187500.02235174447, 9894.379662797412, -19081.907758940193, -43889.21486010729, -16845.503967464443, -36954.854363781735, -187500.02235174447, -40415.97728919712, 8174.368223472622, -3976.9564839549644, -52090.561639137464, -50307.51828044871, -30426.69211944248, -30797.216987278105, -47555.012709499926, -54427.794149851106, 0.022, 0.972, 0.294, 192.0, 0.0, 0.0, 0.0, 0.0, 0.0, 0.0, 0.0, 0.0, 0.0, 1.695674627450914E9, 0.0, 2023-09-25 15:43:47.450
136.0, -187500.02235174447, 9902.694511734786, -19082.1536281292, -43895.60745902151, -16848.052066332348, -36978.03312278189, -187500.02235174447, -40433.054021960976, 8218.803491449773, -3984.421966603037, -52104.68794163322, -50321.62223120001, -30438.7844131928, -30801.57557744689, -47570.390709685176, -54392.120765700434, 0.022, 0.972, 0.294, 192.0, 0.0, 0.0, 0.0, 0.0, 0.0, 0.0, 0.0, 0.0, 0.0, 1.695674627511198E9, 0.0, 2023-09-25 15:43:47.511
138.0, -187500.02235174447, 9868.205770040247, -19116.68707331265, -43925.49174135825, -16886.13943888419, -36939.45401185203, -187500.02235174447, -40466.71574911067, 8178.100964796658, -3992.088614951207, -52114.54506093801, -50334.49683600627, -30449.06621564224, -30808.728135672587, -47586.61807615973, -54418.987562535716, 0.022, 0.972, 0.294, 192.0, 0.0, 0.0, 0.0, 0.0, 0.0, 0.0, 0.0, 0.0, 0.0, 1.695674627511209E9, 0.0, 2023-09-25 15:43:47.511
140.0, -187500.02235174447, 9866.61879618392, -19122.565582104395, -43925.111761702516, -16891.034470919905, -36965.82907030929, -187500.02235174447, -40491.19090928923, 8220.166947861546, -4010.9534872714867, -52139.511959494586, -50352.80291471516, -30461.89611695959, -30840.42290931021, -47617.75405618597, -54350.121837868915, 0.022, 0.972, 0.294, 192.0, 0.0, 0.0, 0.0, 0.0, 0.0, 0.0, 0.0, 0.0, 0.0, 1.695674627511212E9, 0.0, 2023-09-25 15:43:47.511
142.0, -187500.02235174447, 9870.597406696965, -19106.405270863208, -43922.78718027916, -16868.77213344242, -36970.70175060055, -187500.02235174447, -40496.77884540306, 8147.255557448335, -4005.2090889464725, -52134.72868618115, -50349.65131874697, -30460.130329147618, -30834.43264179619, -47610.936774127105, -54395.31706515754, 0.022, 0.98, 0.28600000000000003, 192.0, 0.0, 88.0, 15.0, 80.0, 4.0, 120.0, 0.0, 0.0, 0.0, 1.695674627511215E9, 0.0, 2023-09-25 15:43:47.511
144.0, -187500.02235174447, 9905.53318328061, -19077.079782137847, -43887.04674089512, -16837.792615627364, -36987.06322754183, -187500.02235174447, -40417.20663514217, 8201.212668563447, -3996.849536520188, -52126.302078521505, -50339.19070234188, -30436.30336955826, -30819.23345556658, -47592.87656460721, -54357.47556179471, 0.022, 0.98, 0.28600000000000003, 192.0, 0.0, 0.0, 0.0, 0.0, 0.0, 0.0, 0.0, 0.0, 0.0, 1.695674627511219E9, 0.0, 2023-09-25 15:43:47.511
146.0, -187500.02235174447, 9898.268866332635, -19080.365488572777, -43897.73087474476, -16844.72165640851, -36972.13226224569, -187500.02235174447, -40419.39710609879, 8133.509234608321, -3962.8301814592105, -52099.30117121949, -50310.28989676117, -30413.21401753593, -30799.854493123832, -47561.18179096959, -54438.18771102282, 0.022, 0.98, 0.28600000000000003, 192.0, 0.0, 0.0, 0.0, 0.0, 0.0, 0.0, 0.0, 0.0, 0.0, 1.695674627511222E9, 0.0, 2023-09-25 15:43:47.511
148.0, -187500.02235174447, 9881.125078335415, -19090.62493927776, -43908.526767316675, -16857.37274377021, -36965.762015075925, -187500.02235174447, -40452.32122568145, 8216.747130959884, -3983.3490828691824, -52111.907555092286, -50318.29182127617, -30413.12461055811, -30818.71936544411, -47585.32167498132, -54385.77287027513, 0.022, 0.98, 0.28600000000000003, 192.0, 0.0, 0.0, 0.0, 0.0, 0.0, 0.0, 0.0, 0.0, 0.0, 1.695674627511225E9, 0.0, 2023-09-25 15:43:47.511
150.0, -187500.02235174447, 9864.785953138586, -19107.098174941322, -43936.19822695234, -16875.76822945693, -36963.99622726396, -187500.02235174447, -40468.45918517819, 8151.860016806128, -3982.812641002255, -52117.31667725047, -50316.14605380846, -30420.59009320618, -30813.57846421939, -47596.27402976442, -54426.788321350614, 0.022, 0.98, 0.28600000000000003, 192.0, 0.0, 0.0, 0.0, 0.0, 0.0, 0.0, 0.0, 0.0, 0.0, 1.695674627571459E9, 0.0, 2023-09-25 15:43:47.571
152.0, -187500.02235174447, 9879.269883545623, -19097.106945169802, -43925.15646519142, -16871.230825332503, -36969.673570355604, -187500.02235174447, -40461.95482754169, 8225.017276408349, -3994.323789396738, -52132.02412510206, -50320.16936781041, -30422.378232762607, -30836.62311275281, -47611.47321599403, -54356.80500946105, 0.028, 0.982, 0.28400000000000003, 192.0, 0.0, 112.0, 15.0, 88.0, 4.0, 112.0, 0.0, 0.0, 0.0, 1.695674627571472E9, 0.0, 2023-09-25 15:43:47.571
154.0, -187500.02235174447, 9867.825790384506, -19104.326558628865, -43928.93391000437, -16881.467924293032, -36970.098253500255, -187500.02235174447, -40461.55249614149, 8155.637461619075, -3984.0643386917523, -52122.18935754173, -50301.39390246796, -30419.8301338947, -30812.684394441178, -47607.09227408079, -54402.827251294526, 0.028, 0.982, 0.28400000000000003, 192.0, 0.0, 0.0, 0.0, 0.0, 0.0, 0.0, 0.0, 0.0, 0.0, 1.695674627571475E9, 0.0, 2023-09-25 15:43:47.571
156.0, -187500.02235174447, 9883.494363247677, -19086.333404342342, -43916.37222962049, -16863.474770006513, -36958.900029528144, -187500.02235174447, -40447.09091747891, 8227.967706676449, -3986.6571410485676, -52111.684037647734, -50291.15680350743, -30409.481276211893, -30796.926414600184, -47606.0864455803, -54350.63592799139, 0.028, 0.982, 0.28400000000000003, 192.0, 0.0, 0.0, 0.0, 0.0, 0.0, 0.0, 0.0, 0.0, 0.0, 1.695674627571479E9, 0.0, 2023-09-25 15:43:47.571
158.0, -187500.02235174447, 9875.090107332482, -19088.903854954704, -43923.39067737945, -16868.973299142515, -36975.52972740289, -187500.02235174447, -40449.39314715781, 8158.252615720346, -3973.581370542213, -52097.46832817416, -50273.498925387736, -30408.83307562269, -30808.348156016847, -47590.10494829476, -54411.969114776744, 0.028, 0.982, 0.28400000000000003, 192.0, 0.0, 0.0, 0.0, 0.0, 0.0, 0.0, 0.0, 0.0, 0.0, 1.695674627571482E9, 0.0, 2023-09-25 15:43:47.571
160.0, -187500.02235174447, 9875.403031754855, -19088.233302621044, -43926.47521811428, -16863.877101406706, -36956.12841321569, -187500.02235174447, -40456.32218793895, 8233.332125345722, -4002.4374726340143, -52114.92504059375, -50288.7204633618, -30403.24513950886, -30821.71449920112, -47609.32744852632, -54353.45224779275, 0.028, 0.982, 0.28400000000000003, 192.0, 0.0, 0.0, 0.0, 0.0, 0.0, 0.0, 0.0, 0.0, 0.0, 1.695674627571485E9, 0.0, 2023-09-25 15:43:47.571
162.0, -187500.02235174447, 9897.19598259878, -19070.664831479175, -43918.47329359929, -16843.894641863662, -36992.829977611305, -187500.02235174447, -40438.440792374706, 8160.756011099341, -3970.005091429364, -52093.19914498319, -50266.88280902896, -30404.943872087464, -30777.36863820179, -47586.90864883765, -54405.21888795125, 0.02, 0.984, 0.28400000000000003, 192.0, 0.0, 80.0, 15.0, 96.0, 4.0, 112.0, 0.0, 0.0, 0.0, 1.695674627571488E9, 0.0, 2023-09-25 15:43:47.571
164.0, -187500.02235174447, 9872.698470675763, -19105.77942201846, -43950.816267826114, -16868.05687761985, -36950.60753233523, -187500.02235174447, -40469.062682278476, 8229.979363677427, -3989.674626550034, -52105.98434281163, -50279.645655112945, -30398.55127317325, -30802.38024024728, -47597.10104430927, -54376.876875981914, 0.02, 0.984, 0.28400000000000003, 192.0, 0.0, 0.0, 0.0, 0.0, 0.0, 0.0, 0.0, 0.0, 0.0, 1.695674627571491E9, 0.0, 2023-09-25 15:43:47.571
166.0, -187500.02235174447, 9878.5322759786, -19095.698785269116, -43946.39062242396, -16862.491293250478, -36985.18568100759, -187500.02235174447, -40462.33480719743, 8173.3400432276785, -3998.0565307207744, -52118.3001540065, -50294.17428900889, -30411.291767512772, -30816.01480436502, -47607.20403280306, -54380.69902428377, 0.02, 0.984, 0.28400000000000003, 192.0, 0.0, 0.0, 0.0, 0.0, 0.0, 0.0, 0.0, 0.0, 0.0, 1.695674627631733E9, 0.0, 2023-09-25 15:43:47.631
168.0, -187500.02235174447, 9877.749964922663, -19093.798886990415, -43950.3245294481, -16859.85378740475, -36962.81158480782, -187500.02235174447, -40478.87509809436, 8202.687883697496, -4003.420949390048, -52117.763712139575, -50289.68158837338, -30418.153753060553, -30818.764068933022, -47604.72298916853, -54361.76709673013, 0.02, 0.984, 0.28400000000000003, 192.0, 0.0, 0.0, 0.0, 0.0, 0.0, 0.0, 0.0, 0.0, 0.0, 1.695674627631743E9, 0.0, 2023-09-25 15:43:47.631
170.0, -187500.02235174447, 9874.263092787634, -19087.316881098377, -43942.25554969973, -16854.355258268744, -36989.16429152063, -187500.02235174447, -40438.97723424163, 8173.138877527581, -3995.709597552967, -52109.940601580216, -50288.18402149487, -30421.484162984394, -30812.393821763257, -47598.822128632324, -54366.259797365645, 0.02, 0.984, 0.28400000000000003, 192.0, 0.0, 0.0, 0.0, 0.0, 0.0, 0.0, 0.0, 0.0, 0.0, 1.695674627631746E9, 0.0, 2023-09-25 15:43:47.631
172.0, -187500.02235174447, 9872.38554625339, -19106.651140052218, -43955.711299861825, -16864.94998514056, -36970.76880583391, -187500.02235174447, -40453.550571626496, 8198.977494117915, -4002.3480656561933, -52116.31084874998, -50291.58148665208, -30407.089639555175, -30824.687281213675, -47599.62679143272, -54362.32589034151, 0.018000000000000002, 0.988, 0.28200000000000003, 192.0, 0.0, 72.0, 15.0, 112.0, 4.0, 104.0, 0.0, 0.0, 0.0, 1.695674627631749E9, 0.0, 2023-09-25 15:43:47.631
174.0, -187500.02235174447, 9875.939473621784, -19103.79011676194, -43952.11266900452, -16862.044258361373, -37005.70458241756, -187500.02235174447, -40459.987874029626, 8180.067918308726, -4002.4374726340143, -52121.63056393035, -50294.17428900889, -30418.93606411649, -30823.10030735735, -47614.200128817574, -54371.937140457296, 0.018000000000000002, 0.988, 0.28200000000000003, 192.0, 0.0, 0.0, 0.0, 0.0, 0.0, 0.0, 0.0, 0.0, 0.0, 1.695674627631753E9, 0.0, 2023-09-25 15:43:47.631
176.0, -187500.02235174447, 9882.779107425107, -19099.476230082062, -43952.60440738254, -16860.367877527224, -36975.39561693616, -187500.02235174447, -40454.06466174897, 8175.038775806282, -3996.1342806976177, -52108.15246202379, -50286.708806360824, -30405.457962209937, -30817.110039843326, -47600.52086121093, -54387.1363266869, 0.018000000000000002, 0.988, 0.28200000000000003, 192.0, 0.0, 0.0, 0.0, 0.0, 0.0, 0.0, 0.0, 0.0, 0.0, 1.695674627631756E9, 0.0, 2023-09-25 15:43:47.631
178.0, -187500.02235174447, 9887.316511549534, -19088.054488665402, -43934.745363562746, -16839.08901680577, -37000.451922470565, -187500.02235174447, -40433.94809173919, 8185.231171277902, -4000.7610917998663, -52117.38373248384, -50293.43668144187, -30421.059479839743, -30805.800057148943, -47599.49268096599, -54364.00227117566, 0.018000000000000002, 0.988, 0.28200000000000003, 192.0, 0.0, 0.0, 0.0, 0.0, 0.0, 0.0, 0.0, 0.0, 0.0, 1.695674627631759E9, 0.0, 2023-09-25 15:43:47.631
180.0, -187500.02235174447, 9888.992892383683, -19092.010747433993, -43947.97759628029, -16850.019019844418, -36967.75132033245, -187500.02235174447, -40444.76633605556, 8168.623825147609, -3995.642542319601, -52100.48581367562, -50282.95371329233, -30399.870026096112, -30805.934167615673, -47576.13510801019, -54399.85446928197, 0.018000000000000002, 0.988, 0.28200000000000003, 192.0, 0.0, 0.0, 0.0, 0.0, 0.0, 0.0, 0.0, 0.0, 0.0, 1.695674627692222E9, 0.0, 2023-09-25 15:43:47.692
182.0, -187500.02235174447, 9882.175610324814, -19093.217741634577, -43945.00481426773, -16848.38734249918, -36995.60159392376, -187500.02235174447, -40455.29400769401, 8189.075671324214, -3997.609495831668, -52111.974610325655, -50289.68158837338, -30420.277168783807, -30816.417135765212, -47587.62390466022, -54368.494971811175, 0.022, 0.982, 0.28600000000000003, 192.0, 0.0, 88.0, 15.0, 88.0, 4.0, 120.0, 0.0, 0.0, 0.0, 1.695674627692235E9, 0.0, 2023-09-25 15:43:47.692
184.0, -187500.02235174447, 9865.121229305414, -19124.510183872007, -43988.858936889046, -16882.96549117154, -36970.16530873362, -187500.02235174447, -40538.8671802124, 8161.158342499536, -4015.423836162548, -52126.16796805477, -50303.0255798132, -30414.64452918107, -30808.079935083384, -47603.69480892358, -54393.77479479013, 0.022, 0.982, 0.28600000000000003, 192.0, 0.0, 0.0, 0.0, 0.0, 0.0, 0.0, 0.0, 0.0, 0.0, 1.695674627692239E9, 0.0, 2023-09-25 15:43:47.692
186.0, -187500.02235174447, 9885.751889437663, -19094.625901535263, -43949.22929396979, -16852.65652569014, -37007.626832440714, -187500.02235174447, -40466.17930724374, 8192.942523114983, -4025.4597694229806, -52136.11449433738, -50317.7777311537, -30442.651264983568, -30843.97683667861, -47626.96297490156, -54350.61357624693, 0.022, 0.982, 0.28600000000000003, 192.0, 0.0, 0.0, 0.0, 0.0, 0.0, 0.0, 0.0, 0.0, 0.0, 1.695674627692242E9, 0.0, 2023-09-25 15:43:47.692
188.0, -187500.02235174447, 9879.739270179185, -19091.362546844786, -43942.07673574409, -16842.464130218523, -36986.75030311946, -187500.02235174447, -40394.07257963093, 8134.179786941981, -3997.7883097873105, -52104.285610233026, -50285.23359122677, -30416.700889670956, -30803.743696659054, -47576.69390162157, -54410.47154789824, 0.022, 0.982, 0.28600000000000003, 192.0, 0.0, 0.0, 0.0, 0.0, 0.0, 0.0, 0.0, 0.0, 0.0, 1.695674627692245E9, 0.0, 2023-09-25 15:43:47.692
190.0, -187500.02235174447, 9874.91129337684, -19094.73766025754, -43950.99508178176, -16842.777054640897, -36983.397541451166, -187500.02235174447, -40410.344649594386, 8200.966799374437, -4013.5909931172127, -52113.69569464871, -50296.700036132344, -30406.329680243696, -30848.20131638066, -47567.90966605063, -54350.70298322475, 0.022, 0.982, 0.28600000000000003, 192.0, 0.0, 0.0, 0.0, 0.0, 0.0, 0.0, 0.0, 0.0, 0.0, 1.695674627692248E9, 0.0, 2023-09-25 15:43:47.692
192.0, -187500.02235174447, 9870.887979374884, -19091.63076777825, -43952.17972423789, -16844.587545941777, -36973.78629133538, -187500.02235174447, -40421.05113518848, 8139.27598467779, -4021.682324610034, -52114.99209582712, -50302.13151003498, -30418.667843183022, -30833.85149644035, -47568.66962536212, -54385.415242363844, 0.018000000000000002, 0.976, 0.29, 192.0, 0.0, 72.0, 15.0, 64.0, 4.5, 8.0, 0.0, 0.0, 0.0, 1.695674627692251E9, 0.0, 2023-09-25 15:43:47.692
194.0, -187500.02235174447, 9885.058985359548, -19088.233302621044, -43946.83765731307, -16837.457339460532, -36982.99521005097, -187500.02235174447, -40432.15995218277, 8206.711197699451, -4009.522975626347, -52113.04749405951, -50294.95660006483, -30433.755270690355, -30825.111964358326, -47566.7250235945, -54328.574756213995, 0.018000000000000002, 0.976, 0.29, 192.0, 0.0, 0.0, 0.0, 0.0, 0.0, 0.0, 0.0, 0.0, 0.0, 1.695674627692255E9, 0.0, 2023-09-25 15:43:47.692
196.0, -187500.02235174447, 9871.871456130917, -19098.336291114843, -43962.79680285416, -16857.283336792392, -36973.383959935185, -187500.02235174447, -40450.130754724836, 8140.997069000849, -4010.349990171193, -52105.380845711334, -50289.30160871764, -30429.77666017731, -30824.173191091206, -47563.75224158195, -54379.20145740527, 0.018000000000000002, 0.976, 0.29, 192.0, 0.0, 0.0, 0.0, 0.0, 0.0, 0.0, 0.0, 0.0, 0.0, 1.695674627751013E9, 0.0, 2023-09-25 15:43:47.751
198.0, -187500.02235174447, 9886.422441771323, -19093.01657593448, -43950.88332305948, -16849.214357044024, -36981.81056759484, -187500.02235174447, -40452.47768789264, 8207.381750033112, -4024.6327548781346, -52114.142729537816, -50303.4726147023, -30432.995311378876, -30837.695996486666, -47580.06901503432, -54308.100558292936, 0.018000000000000002, 0.976, 0.29, 192.0, 0.0, 0.0, 0.0, 0.0, 0.0, 0.0, 0.0, 0.0, 0.0, 1.695674627751041E9, 0.0, 2023-09-25 15:43:47.751
200.0, -187500.02235174447, 9886.71301444924, -19084.388802574733, -43943.30608168913, -16846.599202942754, -36992.56175667784, -187500.02235174447, -40447.314434923464, 8124.099150192636, -4022.1070077546847, -52113.82980511544, -50303.49496644676, -30433.50940150135, -30824.463763769123, -47581.343064468274, -54356.693250738776, 0.018000000000000002, 0.976, 0.29, 192.0, 0.0, 0.0, 0.0, 0.0, 0.0, 0.0, 0.0, 0.0, 0.0, 1.695674627751045E9, 0.0, 2023-09-25 15:43:47.751
202.0, -187500.02235174447, 9871.71499391973, -19091.07197416687, -43950.50334340374, -16861.619575216722, -36978.52486115991, -187500.02235174447, -40490.58741218894, 8201.525592985821, -4030.712429369978, -52116.84729061691, -50307.607687426535, -30434.537581746292, -30816.506542743035, -47589.523802938915, -54315.431930474275, 0.022, 0.98, 0.3, 192.0, 0.0, 88.0, 15.0, 80.0, 4.5, 48.0, 0.0, 0.0, 0.0, 1.695674627751048E9, 0.0, 2023-09-25 15:43:47.751
204.0, -187500.02235174447, 9871.983214853193, -19080.20902636159, -43939.66274734292, -16851.71775242302, -36994.305192745356, -187500.02235174447, -40458.847935062404, 8122.243955402846, -4019.514205397869, -52109.82884285794, -50307.898260104455, -30439.20909633745, -30825.04490912496, -47585.813413359334, -54365.768058987625, 0.022, 0.98, 0.3, 192.0, 0.0, 0.0, 0.0, 0.0, 0.0, 0.0, 0.0, 0.0, 0.0, 1.695674627751051E9, 0.0, 2023-09-25 15:43:47.751
206.0, -187500.02235174447, 9885.036633615093, -19090.714346255583, -43943.52959913368, -16855.13756932468, -36979.79891059386, -187500.02235174447, -40474.33769396993, 8190.7744039028175, -4029.773656102855, -52120.31181100748, -50312.16744329542, -30434.537581746292, -30846.457880313144, -47579.9796080565, -54317.64475317535, 0.022, 0.98, 0.3, 192.0, 0.0, 0.0, 0.0, 0.0, 0.0, 0.0, 0.0, 0.0, 0.0, 1.695674627751054E9, 0.0, 2023-09-25 15:43:47.751
208.0, -187500.02235174447, 9881.438002757788, -19081.036040906434, -43939.99802350975, -16848.297935521357, -37011.069001086835, -187500.02235174447, -40450.64484484731, 8121.238126902357, -4011.7357983274223, -52114.81328187147, -50308.83703337157, -30447.25572434136, -30808.7728391615, -47579.331407467296, -54361.34241358548, 0.022, 0.98, 0.3, 192.0, 0.0, 0.0, 0.0, 0.0, 0.0, 0.0, 0.0, 0.0, 0.0, 1.695674627751058E9, 0.0, 2023-09-25 15:43:47.751
210.0, -187500.02235174447, 9880.09689809047, -19079.225549605555, -43937.964014764315, -16832.607010913733, -36973.227497724, -187500.02235174447, -40405.7401902366, 8196.921133628028, -4041.933005086542, -52120.51297670758, -50315.788425897175, -30433.196477078975, -30852.425796082713, -47569.250770717954, -54320.34931425445, 0.022, 0.98, 0.3, 192.0, 0.0, 0.0, 0.0, 0.0, 0.0, 0.0, 0.0, 0.0, 0.0, 1.695674627811416E9, 0.0, 2023-09-25 15:43:47.811
212.0, -187500.02235174447, 9893.239723830191, -19071.71536346857, -43925.13411344697, -16827.868441089206, -36998.552024191864, -187500.02235174447, -40392.35149530786, 8138.091342221659, -4014.909746040076, -52112.734569637134, -50300.23161175628, -30439.11968935963, -30812.14795257425, -47547.74839255195, -54351.06061113604, 0.024, 0.978, 0.304, 192.0, 0.0, 96.0, 15.0, 72.0, 4.5, 64.0, 0.0, 0.0, 0.0, 1.695674627811429E9, 0.0, 2023-09-25 15:43:47.811
214.0, -187500.02235174447, 9878.24170330068, -19096.905779469704, -43956.44890742885, -16848.76732215492, -36955.88254402668, -187500.02235174447, -40428.516617836554, 8195.043587093782, -4026.84557757921, -52113.02514231505, -50304.99253332526, -30428.055575854254, -30848.313075102935, -47547.45781987403, -54321.444549732754, 0.024, 0.978, 0.304, 192.0, 0.0, 0.0, 0.0, 0.0, 0.0, 0.0, 0.0, 0.0, 0.0, 1.695674627811432E9, 0.0, 2023-09-25 15:43:47.811
216.0, -187500.02235174447, 9881.259188802147, -19079.35966007229, -43942.3226049331, -16833.054045802837, -37001.74832364897, -187500.02235174447, -40417.407800842266, 8144.439237646966, -4031.6064991481903, -52131.01829660157, -50320.258774788235, -30456.8893262016, -30827.548304503955, -47562.99228227047, -54323.56796545601, 0.024, 0.978, 0.304, 192.0, 0.0, 0.0, 0.0, 0.0, 0.0, 0.0, 0.0, 0.0, 0.0, 1.695674627811435E9, 0.0, 2023-09-25 15:43:47.811
218.0, -187500.02235174447, 9853.252452999646, -19107.813430763894, -43966.26132324473, -16859.116179837725, -36957.35775916073, -187500.02235174447, -40437.92670225223, 8173.943540327971, -4032.9252520710534, -52117.27197376156, -50312.27920201769, -30421.148886817562, -30829.671720227212, -47554.25275018845, -54323.38915150036, 0.024, 0.978, 0.304, 192.0, 0.0, 0.0, 0.0, 0.0, 0.0, 0.0, 0.0, 0.0, 0.0, 1.695674627811439E9, 0.0, 2023-09-25 15:43:47.811
220.0, -187500.02235174447, 9873.704299176252, -19080.745468228517, -43948.75990733623, -16831.623534157698, -37005.190492295085, -187500.02235174447, -40424.62741430133, 8146.473246392399, -4032.969955559964, -52128.85017738941, -50317.71067592033, -30455.369407578637, -30823.56969399091, -47569.74250909597, -54322.159805555326, 0.024, 0.978, 0.304, 192.0, 0.0, 0.0, 0.0, 0.0, 0.0, 0.0, 0.0, 0.0, 0.0, 1.695674627811442E9, 0.0, 2023-09-25 15:43:47.811
222.0, -187500.02235174447, 9847.463351185723, -19106.159401674202, -43968.60825641254, -16855.361086769233, -36959.28000918389, -187500.02235174447, -40468.61564738937, 8166.679223379997, -4038.803760862799, -52127.330258766444, -50318.40357999845, -30449.06621564224, -30840.601723265856, -47563.104040992745, -54323.09857882245, 0.016, 0.966, 0.31, 192.0, 0.0, 64.0, 15.0, 24.0, 4.5, 88.0, 0.0, 0.0, 0.0, 1.695674627811445E9, 0.0, 2023-09-25 15:43:47.811
224.0, -187500.02235174447, 9859.466237958222, -19093.664776523685, -43954.19138123887, -16849.19200529957, -36995.08750380129, -187500.02235174447, -40459.764356585074, 8150.004822016338, -4043.743496387422, -52142.61885197388, -50326.629021958, -30469.60746879667, -30842.792194222475, -47583.3323697248, -54295.94120930925, 0.016, 0.966, 0.31, 192.0, 0.0, 0.0, 0.0, 0.0, 0.0, 0.0, 0.0, 0.0, 0.0, 1.695674627811448E9, 0.0, 2023-09-25 15:43:47.811
226.0, -187500.02235174447, 9867.937549106784, -19098.649215537218, -43959.80166909715, -16845.727484909, -36971.88639305668, -187500.02235174447, -40466.29106596602, 8145.623880103098, -4033.4393421935256, -52127.44201748873, -50316.59308869757, -30438.247971325873, -30828.017691137517, -47572.491773663976, -54315.09665430745, 0.016, 0.966, 0.31, 192.0, 0.0, 0.0, 0.0, 0.0, 0.0, 0.0, 0.0, 0.0, 0.0, 1.69567462787145E9, 0.0, 2023-09-25 15:43:47.871
228.0, -187500.02235174447, 9865.501208961155, -19089.485000310542, -43945.78712532367, -16839.647810417155, -37010.89018713119, -187500.02235174447, -40463.36298744238, 8157.2020837309465, -4027.9184613130647, -52129.20780530069, -50315.11787356352, -30445.556991762758, -30828.129449859793, -47582.393596457674, -54306.915915836806, 0.016, 0.966, 0.31, 192.0, 0.0, 0.0, 0.0, 0.0, 0.0, 0.0, 0.0, 0.0, 0.0, 1.69567462787146E9, 0.0, 2023-09-25 15:43:47.871
230.0, -187500.02235174447, 9845.250528484647, -19106.092346440833, -43974.79968962666, -16855.58460421379, -36977.51903265942, -187500.02235174447, -40467.76628110007, 8133.620993330597, -4035.652164894601, -52134.16989256977, -50319.32000152111, -30453.760081977856, -30834.54440051847, -47580.49369817897, -54341.874044164906, 0.016, 0.966, 0.31, 192.0, 0.0, 0.0, 0.0, 0.0, 0.0, 0.0, 0.0, 0.0, 0.0, 1.695674627871464E9, 0.0, 2023-09-25 15:43:47.871
232.0, -187500.02235174447, 9882.890866147383, -19076.163360615177, -43936.868779286, -16822.772243353396, -37002.84355912728, -187500.02235174447, -40398.297059332974, 8166.56746465772, -4038.915519585076, -52139.64606996132, -50325.779655668695, -30457.06814015724, -30838.76888022052, -47577.52091616642, -54292.722558107685, 0.014, 0.966, 0.324, 192.0, 0.0, 56.0, 15.0, 24.0, 5.0, 16.0, 0.0, 0.0, 0.0, 1.695674627871467E9, 0.0, 2023-09-25 15:43:47.871
234.0, -187500.02235174447, 9879.42634575681, -19074.64344199222, -43939.19336070935, -16826.303818977336, -36966.2761051984, -187500.02235174447, -40391.591535996384, 8131.050542718237, -4013.7921588173103, -52109.02418005755, -50292.14028026346, -30431.855372411654, -30805.53183621548, -47544.41798262811, -54342.16461684283, 0.014, 0.966, 0.324, 192.0, 0.0, 0.0, 0.0, 0.0, 0.0, 0.0, 0.0, 0.0, 0.0, 1.69567462787147E9, 0.0, 2023-09-25 15:43:47.871
236.0, -187500.02235174447, 9872.989043353682, -19081.796000217917, -43944.13309623398, -16834.976295825996, -36975.350913447255, -187500.02235174447, -40415.66436477475, 8186.326406756211, -4028.186682246528, -52113.49452894861, -50300.74570187875, -30444.685273729003, -30839.64059825428, -47556.465572889516, -54297.08114827647, 0.014, 0.966, 0.324, 192.0, 0.0, 0.0, 0.0, 0.0, 0.0, 0.0, 0.0, 0.0, 0.0, 1.695674627871473E9, 0.0, 2023-09-25 15:43:47.871
238.0, -187500.02235174447, 9858.326298991002, -19088.81444797688, -43954.884285316984, -16839.96073483953, -36958.0730149833, -187500.02235174447, -40422.772219511535, 8131.765798540807, -4033.4616939379807, -52125.34095350993, -50307.272411259706, -30451.055520898764, -30837.20425810865, -47558.209008957034, -54328.53005272509, 0.014, 0.966, 0.324, 192.0, 0.0, 0.0, 0.0, 0.0, 0.0, 0.0, 0.0, 0.0, 0.0, 1.695674627871476E9, 0.0, 2023-09-25 15:43:47.871
240.0, -187500.02235174447, 9854.861778600429, -19096.34698585832, -43946.36827067951, -16842.598240685253, -36977.04964602586, -187500.02235174447, -40448.25320819059, 8184.404156733055, -4046.738630144433, -52134.01343035859, -50318.11300732053, -30455.995256423386, -30839.707653487643, -47580.04666328987, -54263.26295891559, 0.014, 0.966, 0.324, 192.0, 0.0, 0.0, 0.0, 0.0, 0.0, 0.0, 0.0, 0.0, 0.0, 1.695674627931724E9, 0.0, 2023-09-25 15:43:47.931
242.0, -187500.02235174447, 9858.527464691098, -19089.77557298846, -43952.89498006046, -16838.932554594583, -36975.44032042508, -187500.02235174447, -40459.00439727359, 8097.2100016129025, -4026.2420804789167, -52120.51297670758, -50304.29962924715, -30451.882535443612, -30825.223723080606, -47564.48984914897, -54326.00430560164, 0.022, 0.962, 0.326, 192.0, 0.0, 88.0, 15.0, 8.0, 5.0, 24.0, 0.0, 0.0, 0.0, 1.695674627931735E9, 0.0, 2023-09-25 15:43:47.931
