%OpenBCI Raw EXG Data
%Number of channels = 16
%Sample Rate = 125 Hz
%Board = OpenBCI_GUI$BoardCytonSerialDaisy
Sample Index, EXG Channel 0, EXG Channel 1, EXG Channel 2, EXG Channel 3, EXG Channel 4, EXG Channel 5, EXG Channel 6, EXG Channel 7, EXG Channel 8, EXG Channel 9, EXG Channel 10, EXG Channel 11, EXG Channel 12, EXG Channel 13, EXG Channel 14, EXG Channel 15, Accel Channel 0, Accel Channel 1, Accel Channel 2, Other, Other, Other, Other, Other, Other, Other, Analog Channel 0, Analog Channel 1, Analog Channel 2, Timestamp, Other, Timestamp (Formatted)
208.0, -27182.7163914104, 73474.87789092993, -6328.7399803090075, 19258.173615714742, 55956.98874676094, 47981.03695881808, -187500.02235174447, 55289.58800906992, 66534.90710674609, 72214.21715190615, 42201.68050547606, 10593.117546214766, 61026.43144445794, 38289.11939729684, 13746.926337114137, 38592.25375559971, 0.0, 0.0, 0.0, 192.0, 0.0, 0.0, 0.0, 0.0, 0.0, 0.0, 0.0, 0.0, 0.0, 1.695422969871388E9, 0.0, 2023-09-22 17:49:29.871
210.0, -26993.28535715167, 73619.8736572115, -6343.9391665386165, 19314.075328597468, 55944.4047146326, 47984.88145886439, -187500.02235174447, 55365.74040242915, 66654.24307039299, 72268.01780081008, 42194.68440946155, 10583.61805482126, 61020.84350834412, 38271.66268487724, 13834.299306189932, 38672.47416644981, 0.0, 0.0, 0.0, 192.0, 0.0, 0.0, 0.0, 0.0, 0.0, 0.0, 0.0, 0.0, 0.0, 1.695422969871396E9, 0.0, 2023-09-22 17:49:29.871
212.0, -27200.642490463557, 73469.71463796076, -6331.578651854832, 19228.065815933445, 55955.379421160156, 47974.26438024812, -187500.02235174447, 55265.045793658, 66565.10431350522, 72224.2530851666, 42190.75050243742, 10570.944615715101, 61017.289580975725, 38274.05432153396, 13753.475398239541, 38606.00007843973, 0.0, 0.0, 0.0, 192.0, 0.0, 0.0, 0.0, 0.0, 0.0, 0.0, 0.0, 0.0, 0.0, 1.6954229698714E9, 0.0, 2023-09-22 17:49:29.871
214.0, -27021.336796443084, 73608.69778498386, -6346.621375873253, 19305.91694187128, 55949.2550431794, 47985.1273280534, -187500.02235174447, 55350.563567944, 66599.83892438877, 72256.14902450431, 42192.315124549285, 10581.80756352038, 61029.35952298159, 38268.01935053102, 13794.222628381567, 38642.88045679098, 0.168, 1.004, -0.016, 192.0, 2.5, 32.0, 15.5, 48.0, 127.5, 64.0, 0.0, 0.0, 0.0, 1.695422969871403E9, 0.0, 2023-09-22 17:49:29.871
216.0, -27190.964185114408, 73484.846768957, -6330.505768120977, 19227.395263599785, 55949.299746668315, 47960.24983647464, -187500.02235174447, 55258.18380811022, 66592.73106965197, 72230.10924221388, 42184.60377271221, 10569.0447174364, 61015.36733095257, 38263.45959466214, 13767.355831546287, 38620.863988502504, 0.168, 1.004, -0.016, 192.0, 0.0, 0.0, 0.0, 0.0, 0.0, 0.0, 0.0, 0.0, 0.0, 1.695422969871406E9, 0.0, 2023-09-22 17:49:29.871
218.0, -27021.91794179892, 73613.54811353065, -6337.144236224203, 19313.91886638628, 55961.459095652, 47991.0281885896, -187500.02235174447, 55351.47998946667, 66579.85646484571, 72246.87305055535, 42190.95166813752, 10581.38288037573, 61025.38091246854, 38269.76278659854, 13794.647311526218, 38638.5218666222, 0.168, 1.004, -0.016, 192.0, 0.0, 0.0, 0.0, 0.0, 0.0, 0.0, 0.0, 0.0, 0.0, 1.69542296987141E9, 0.0, 2023-09-22 17:49:29.871
220.0, -27188.75136241333, 73491.41818182686, -6322.68265756162, 19222.209658886153, 55950.685554824544, 47970.174011012794, -187500.02235174447, 55257.803828454475, 66624.8728781787, 72239.51932662957, 42182.122729077666, 10567.636557535716, 61013.534487907236, 38267.549963897465, 13788.902913201204, 38633.20215144183, 0.168, 1.004, -0.016, 192.0, 0.0, 0.0, 0.0, 0.0, 0.0, 0.0, 0.0, 0.0, 0.0, 1.695422969871413E9, 0.0, 2023-09-22 17:49:29.871
222.0, -27035.19487800537, 73610.26240709572, -6343.738000838519, 19326.659360725804, 55956.74287757193, 48004.12631084041, -187500.02235174447, 55369.69666119775, 66539.62332482617, 72239.72049232967, 42193.87974666116, 10584.37801413274, 61026.722017135864, 38280.62573440382, 13777.838799695826, 38620.662822802406, 0.168, 1.004, -0.016, 192.0, 0.0, 0.0, 0.0, 0.0, 0.0, 0.0, 0.0, 0.0, 0.0, 1.695422969871416E9, 0.0, 2023-09-22 17:49:29.871
224.0, -27146.864193304085, 73527.33743516654, -6326.840082030307, 19236.112443937356, 55934.681705794545, 47974.510249437124, -187500.02235174447, 55287.08461369093, 66676.34894565928, 72257.13250126035, 42178.702912176006, 10568.485923825017, 61002.78329882423, 38266.87941156381, 13832.153538722223, 38667.780300114195, 0.166, 1.01, -0.022, 192.0, 2.5, 24.0, 15.5, 72.0, 127.5, 40.0, 0.0, 0.0, 0.0, 1.69542296987142E9, 0.0, 2023-09-22 17:49:29.871
0.0, -13568.805285549795, 36776.107463372646, -3181.904933679692, 9591.021787049984, 27953.13631929592, 24015.76477477131, -93750.01117587223, 27534.30933169238, 33218.91674028835, 36097.66496392071, 21100.717318143525, 5295.888220773723, 30512.41105942858, 19145.029085281978, 6866.969986792802, 19289.890741096824, 0.17, 1.008, -0.018, 192.0, 2.5, 56.0, 15.5, 56.0, 127.5, 72.0, 0.0, 0.0, 0.0, 1.695422970015904E9, 0.0, 2023-09-22 17:49:30.015
2.0, -26932.84624014452, 73704.00562334128, -6381.780669901451, 19279.94421481421, 55902.60695250118, 48045.1417619159, -187500.02235174447, 55170.16263844522, 66584.43857245905, 72134.60023815634, 41890.11953951354, 10580.488810597517, 60984.41016488197, 38186.390779780246, 13833.1146637338, 38774.24165895482, 0.17, 1.008, -0.018, 192.0, 0.0, 0.0, 0.0, 0.0, 0.0, 0.0, 0.0, 0.0, 0.0, 1.695422970015915E9, 0.0, 2023-09-22 17:49:30.015
4.0, -27062.531061474212, 73608.16134311692, -6356.389088200222, 19180.83657989938, 55877.77416441133, 48012.97760164471, -187500.02235174447, 55078.81105885638, 66724.96398984957, 72155.81204364444, 41882.274077209724, 10566.18369414612, 60970.55208331968, 38174.007913352005, 13870.93381535218, 38816.0617728307, 0.17, 1.008, -0.018, 192.0, 0.0, 0.0, 0.0, 0.0, 0.0, 0.0, 0.0, 0.0, 0.0, 1.695422970015919E9, 0.0, 2023-09-22 17:49:30.015
6.0, -26944.782071683654, 73695.40020172599, -6377.958521599594, 19278.603110146894, 55894.51562100835, 48026.07572389552, -187500.02235174447, 55175.70587107014, 66567.87592981767, 72118.01524377051, 41893.315838970644, 10571.861037237768, 60988.12055446155, 38176.93599187565, 13819.614210082795, 38766.10562397309, 0.17, 1.008, -0.018, 192.0, 0.0, 0.0, 0.0, 0.0, 0.0, 0.0, 0.0, 0.0, 0.0, 1.695422970015922E9, 0.0, 2023-09-22 17:49:30.015
8.0, -27044.001465320765, 73622.68997701288, -6356.389088200222, 19179.98721361008, 55873.572036453734, 47998.80659566005, -187500.02235174447, 55085.42717521515, 66762.47021704557, 72156.81787214492, 41871.52288812672, 10550.04573464939, 60969.345089119095, 38164.19549753612, 13894.26903656352, 38828.9140258925, 0.17, 1.014, -0.016, 192.0, 2.5, 40.0, 15.5, 88.0, 127.5, 64.0, 0.0, 0.0, 0.0, 1.695422970015925E9, 0.0, 2023-09-22 17:49:30.015
10.0, -26971.604165030025, 73679.91044281847, -6393.336521784845, 19279.206607247186, 55888.30183604978, 48034.32351759953, -187500.02235174447, 55161.57956857438, 66544.6524673286, 72119.49045890456, 41885.24685922228, 10571.346947115297, 60980.230388668824, 38182.255707056014, 13799.2070673951, 38747.53132433073, 0.17, 1.014, -0.016, 192.0, 0.0, 0.0, 0.0, 0.0, 0.0, 0.0, 0.0, 0.0, 0.0, 1.695422970015928E9, 0.0, 2023-09-22 17:49:30.015
12.0, -27031.35037795906, 73635.81045100815, -6371.007129073993, 19197.242760329576, 55869.25814977386, 48014.653982478856, -187500.02235174447, 55092.31151250738, 66771.43326657216, 72173.89460490878, 41870.91939102643, 10559.321708598342, 60964.87474022803, 38175.617238952786, 13888.569341727418, 38831.48447650486, 0.17, 1.014, -0.016, 192.0, 0.0, 0.0, 0.0, 0.0, 0.0, 0.0, 0.0, 0.0, 0.0, 1.695422970015931E9, 0.0, 2023-09-22 17:49:30.015
14.0, -26994.201778674338, 73666.43234091191, -6399.013864876493, 19283.00640380459, 55891.63224597362, 48038.79386649059, -187500.02235174447, 55161.71367904111, 66524.37943510765, 72114.32720593539, 41885.1351005, 10574.342080872308, 60976.475295600336, 38186.14491059124, 13778.911683429682, 38736.221341636345, 0.17, 1.014, -0.016, 192.0, 0.0, 0.0, 0.0, 0.0, 0.0, 0.0, 0.0, 0.0, 0.0, 1.695422970015934E9, 0.0, 2023-09-22 17:49:30.015
16.0, -26976.499197065736, 73674.68013461592, -6378.696129166619, 19218.27575186202, 55861.122114792124, 48012.351752799965, -187500.02235174447, 55125.682666979155, 66794.25439766102, 72192.4912562956, 41865.979655501804, 10557.33240334182, 60954.078847656114, 38165.42484348117, 13915.95022868517, 38862.35223559764, 0.17, 1.014, -0.016, 192.0, 0.0, 0.0, 0.0, 0.0, 0.0, 0.0, 0.0, 0.0, 0.0, 1.695422970076256E9, 0.0, 2023-09-22 17:49:30.076
18.0, -26999.85677002153, 73655.0329512397, -6393.224763062569, 19270.779999587536, 55889.62058897264, 48025.136950628395, -187500.02235174447, 55153.53294057047, 66538.81866202578, 72124.38549094027, 41883.99516153278, 10574.945577972601, 60971.580263564625, 38181.38398902226, 13795.854305726803, 38755.73441454583, 0.176, 1.008, -0.02, 192.0, 2.5, 64.0, 15.5, 64.0, 127.5, 48.0, 0.0, 0.0, 0.0, 1.695422970076266E9, 0.0, 2023-09-22 17:49:30.076
20.0, -26961.367066069495, 73682.43618994192, -6373.734041897541, 19222.254362375064, 55862.70908864845, 48005.33330504099, -187500.02235174447, 55129.035428647454, 66788.9123307362, 72191.4407243062, 41873.28867593869, 10564.306147611875, 60960.806722737165, 38168.196459793624, 13917.067815907934, 38858.21716287341, 0.176, 1.008, -0.02, 192.0, 0.0, 0.0, 0.0, 0.0, 0.0, 0.0, 0.0, 0.0, 0.0, 1.69542297007627E9, 0.0, 2023-09-22 17:49:30.076
22.0, -27044.984942076797, 73619.33721534458, -6377.287969265934, 19255.849034291394, 55895.029711130825, 48027.238014607196, -187500.02235174447, 55128.78955945845, 66515.952827448, 72116.29415944745, 41887.929068556914, 10577.247807651498, 60975.53652233321, 38184.624991968274, 13772.317918815366, 38731.57217878964, 0.176, 1.008, -0.02, 192.0, 0.0, 0.0, 0.0, 0.0, 0.0, 0.0, 0.0, 0.0, 0.0, 1.695422970076273E9, 0.0, 2023-09-22 17:49:30.076
24.0, -26937.696568691325, 73694.5955389256, -6360.4347539466335, 19239.129929438823, 55871.04628933028, 48007.8814039089, -187500.02235174447, 55145.24044337755, 66771.94735669463, 72187.12683762632, 41873.132213727506, 10564.261444122963, 60965.34412686159, 38163.524945202465, 13910.742272227082, 38854.506773293826, 0.176, 1.008, -0.02, 192.0, 0.0, 0.0, 0.0, 0.0, 0.0, 0.0, 0.0, 0.0, 0.0, 1.695422970076276E9, 0.0, 2023-09-22 17:49:30.076
26.0, -27056.5854974491, 73607.06610763862, -6357.819599845362, 19248.160034198765, 55896.72844370943, 48019.057276136555, -187500.02235174447, 55122.553422755416, 66531.08495844423, 72098.52452260548, 41892.80174884817, 10580.131182686233, 60978.08462120112, 38177.98652386505, 13780.722174730561, 38741.20578064988, 0.176, 1.008, -0.02, 192.0, 0.0, 0.0, 0.0, 0.0, 0.0, 0.0, 0.0, 0.0, 0.0, 1.695422970076279E9, 0.0, 2023-09-22 17:49:30.076
28.0, -26902.403164196392, 73718.10957409258, -6355.696184122108, 19263.269813450555, 55866.75475439486, 48014.45281677876, -187500.02235174447, 55165.26760640951, 66763.02901065696, 72174.85572992035, 41875.926181784416, 10571.749278515492, 60970.12740017503, 38162.183840535145, 13916.397263574276, 38860.98877918587, 0.17, 1.008, -0.02, 192.0, 2.5, 40.0, 15.5, 64.0, 127.5, 48.0, 0.0, 0.0, 0.0, 1.695422970076282E9, 0.0, 2023-09-22 17:49:30.076
30.0, -27057.501918971768, 73602.26048258072, -6354.466838177066, 19240.828662017426, 55894.87324891964, 48023.34881107197, -187500.02235174447, 55111.556364483404, 66569.86523507419, 72102.12315346279, 41878.653094607966, 10570.072897681344, 60972.69785078739, 38169.78343364995, 13805.420852353676, 38767.42437689595, 0.17, 1.008, -0.02, 192.0, 0.0, 0.0, 0.0, 0.0, 0.0, 0.0, 0.0, 0.0, 0.0, 1.695422970136558E9, 0.0, 2023-09-22 17:49:30.136
32.0, -26880.207881952272, 73734.2028301004, -6370.6495011627085, 19282.2017410042, 55867.358251495156, 48022.25357559366, -187500.02235174447, 55182.389042662275, 66748.09804536082, 72174.29693630898, 41880.105957997555, 10571.928092471135, 60965.768810006244, 38164.48607021404, 13910.09407163788, 38868.275447878295, 0.17, 1.008, -0.02, 192.0, 0.0, 0.0, 0.0, 0.0, 0.0, 0.0, 0.0, 0.0, 0.0, 1.695422970136574E9, 0.0, 2023-09-22 17:49:30.136
34.0, -27076.947936647888, 73591.0175551197, -6365.910931338183, 19240.001647472578, 55883.652673203076, 48027.6850494963, -187500.02235174447, 55105.208469058096, 66582.02458405789, 72121.79268858346, 41890.52187091373, 10582.656929809682, 60966.752286762276, 38185.94374489114, 13798.290645872432, 38774.331065932645, 0.17, 1.008, -0.02, 192.0, 0.0, 0.0, 0.0, 0.0, 0.0, 0.0, 0.0, 0.0, 0.0, 1.695422970136578E9, 0.0, 2023-09-22 17:49:30.136
36.0, -26931.41572849938, 73703.06685007416, -6367.49790519451, 19286.15799977279, 55875.51663822134, 48040.26908162464, -187500.02235174447, 55164.46294360911, 66696.91255055816, 72177.04620087698, 41885.828004578114, 10586.568485089361, 60963.82420823863, 38179.528794232465, 13875.784143898982, 38845.38726155606, 0.17, 1.008, -0.02, 192.0, 0.0, 0.0, 0.0, 0.0, 0.0, 0.0, 0.0, 0.0, 0.0, 1.695422970136581E9, 0.0, 2023-09-22 17:49:30.136
38.0, -27125.764146538277, 73565.2683455072, -6375.432774476144, 19233.966676469645, 55872.63326318661, 48029.27202335263, -187500.02235174447, 55086.23183801554, 66565.57370013878, 72125.79365084096, 41891.97473430332, 10588.826011279347, 60969.70271703038, 38190.65996297121, 13770.619186236763, 38762.05995822668, 0.17, 1.002, -0.018000000000000002, 192.0, 2.5, 40.0, 15.5, 40.0, 127.5, 56.0, 0.0, 0.0, 0.0, 1.695422970136584E9, 0.0, 2023-09-22 17:49:30.136
40.0, -26916.7529841367, 73714.48859149082, -6390.766071172485, 19293.66818590977, 55865.36894623863, 48026.545110529085, -187500.02235174447, 55183.1266502293, 66661.73090478551, 72161.48938673608, 41874.316856183636, 10568.061240680367, 60955.889338957, 38156.41709046568, 13865.122361793801, 38844.33672956666, 0.17, 1.002, -0.018000000000000002, 192.0, 0.0, 0.0, 0.0, 0.0, 0.0, 0.0, 0.0, 0.0, 0.0, 1.695422970136588E9, 0.0, 2023-09-22 17:49:30.136
42.0, -27110.922588219953, 73570.72217115428, -6368.995472073016, 19202.51777202103, 55870.33103350771, 48008.95428764276, -187500.02235174447, 55074.81009659888, 66628.6279712472, 72127.96177005312, 41868.95243751436, 10563.099153411289, 60954.503530800765, 38160.35099748981, 13816.619076325784, 38798.940336577936, 0.17, 1.002, -0.018000000000000002, 192.0, 0.0, 0.0, 0.0, 0.0, 0.0, 0.0, 0.0, 0.0, 0.0, 1.695422970136591E9, 0.0, 2023-09-22 17:49:30.136
44.0, -26925.291350518626, 73711.09112633362, -6387.50271648201, 19293.10939229839, 55864.49722820488, 48027.05920065155, -187500.02235174447, 55174.02949023599, 66627.21981134651, 72154.89562212177, 41876.70849284035, 10575.593778561804, 60960.82907448162, 38161.66975041268, 13846.54806215144, 38822.007336855815, 0.17, 1.002, -0.018000000000000002, 192.0, 0.0, 0.0, 0.0, 0.0, 0.0, 0.0, 0.0, 0.0, 0.0, 1.695422970136594E9, 0.0, 2023-09-22 17:49:30.136
46.0, -27107.212198640373, 73579.03702009167, -6364.346309226312, 19196.303987062453, 55865.07837356072, 48010.831834177, -187500.02235174447, 55071.97142505305, 66658.86988149522, 72145.55259293945, 41867.70073982486, 10562.942691200102, 60954.59293777859, 38161.133308545745, 13827.079692730867, 38805.556452936704, 0.17, 1.002, -0.018000000000000002, 192.0, 0.0, 0.0, 0.0, 0.0, 0.0, 0.0, 0.0, 0.0, 0.0, 1.695422970196801E9, 0.0, 2023-09-22 17:49:30.196
48.0, -26933.22621980026, 73702.28453901822, -6389.044986849426, 19282.984052060136, 55861.74796363687, 48019.83958719249, -187500.02235174447, 55167.92746399969, 66608.13142158168, 72142.11042429334, 41868.66186483644, 10558.092362653299, 60962.907786715965, 38147.722261872565, 13836.73564633556, 38809.423304727476, 0.176, 1.006, -0.016, 192.0, 2.5, 64.0, 15.5, 56.0, 127.5, 64.0, 0.0, 0.0, 0.0, 1.695422970196812E9, 0.0, 2023-09-22 17:49:30.196
50.0, -27092.661212999967, 73585.09434283905, -6346.956652040083, 19184.278748545497, 55863.357289237654, 48006.8308719195, -187500.02235174447, 55066.78582033942, 66696.66668136916, 72147.81011912944, 41861.91163801094, 10546.022420647434, 60962.03606868221, 38147.11876477227, 13842.144768493745, 38814.60890944111, 0.176, 1.006, -0.016, 192.0, 0.0, 0.0, 0.0, 0.0, 0.0, 0.0, 0.0, 0.0, 0.0, 1.695422970196815E9, 0.0, 2023-09-22 17:49:30.196
52.0, -26968.7654934842, 73679.28459397372, -6366.179152271647, 19287.94613932921, 55880.12109757914, 48040.04556418009, -187500.02235174447, 55165.58053083188, 66568.16650249559, 72136.76835736852, 41876.261457951245, 10563.56854004485, 60979.85040901309, 38162.02737832396, 13812.327541390365, 38786.49041491633, 0.176, 1.006, -0.016, 192.0, 0.0, 0.0, 0.0, 0.0, 0.0, 0.0, 0.0, 0.0, 0.0, 1.695422970196818E9, 0.0, 2023-09-22 17:49:30.196
54.0, -27084.435771040415, 73597.45485752284, -6359.361870212779, 19206.98812091209, 55854.77421936682, 48017.76087495815, -187500.02235174447, 55088.86934386127, 66709.96596932007, 72170.72065719613, 41866.65020783546, 10562.227435377532, 60965.96997570634, 38169.13523306075, 13860.160274524722, 38832.40089802753, 0.176, 1.006, -0.016, 192.0, 0.0, 0.0, 0.0, 0.0, 0.0, 0.0, 0.0, 0.0, 0.0, 1.695422970196822E9, 0.0, 2023-09-22 17:49:30.196
56.0, -26953.454548532314, 73693.9920418253, -6385.580466458853, 19314.164735575287, 55869.74988815188, 48046.03583169411, -187500.02235174447, 55185.85356305284, 66554.21901395547, 72140.25522950354, 41865.711434568344, 10570.765801759459, 60958.59390003609, 38169.7610819055, 13816.954352492614, 38802.695429646425, 0.176, 1.006, -0.016, 192.0, 0.0, 0.0, 0.0, 0.0, 0.0, 0.0, 0.0, 0.0, 0.0, 1.695422970196825E9, 0.0, 2023-09-22 17:49:30.196
58.0, -27037.228886750807, 73631.94359921737, -6359.719498124064, 19229.63043804532, 55859.736306635896, 48032.78124723211, -187500.02235174447, 55110.259963305, 66754.93767916414, 72191.97716617312, 41862.29161766668, 10568.575330802838, 60951.41899006593, 38175.70664593061, 13893.106745851845, 38873.662218292025, 0.17200000000000001, 1.004, -0.02, 192.0, 2.5, 48.0, 15.5, 48.0, 127.5, 48.0, 0.0, 0.0, 0.0, 1.695422970196828E9, 0.0, 2023-09-22 17:49:30.196
60.0, -26991.34075538406, 73663.28074494371, -6375.119850053769, 19311.43782275174, 55890.492307006396, 48062.665529568854, -187500.02235174447, 55172.97895824659, 66536.02469396887, 72140.05406380344, 41881.9835045318, 10585.786174033425, 60965.32177511714, 38184.53558499045, 13803.409195352699, 38790.156101007, 0.17200000000000001, 1.004, -0.02, 192.0, 0.0, 0.0, 0.0, 0.0, 0.0, 0.0, 0.0, 0.0, 0.0, 1.695422970256932E9, 0.0, 2023-09-22 17:49:30.256
62.0, -26996.95104324234, 73651.72489306032, -6368.92841683965, 19241.32040039544, 55855.98121356741, 48029.16026463035, -187500.02235174447, 55122.262850077495, 66766.1135513918, 72204.36003260137, 41867.119594469026, 10573.313900627363, 60951.6872109994, 38171.348055761824, 13904.394376801774, 38877.05968344923, 0.17200000000000001, 1.004, -0.02, 192.0, 0.0, 0.0, 0.0, 0.0, 0.0, 0.0, 0.0, 0.0, 0.0, 1.695422970256946E9, 0.0, 2023-09-22 17:49:30.256
64.0, -27005.44470613536, 73643.61120982304, -6370.269521506968, 19299.658453423795, 55893.95682739697, 48053.30014864208, -187500.02235174447, 55150.18017890218, 66531.48728984443, 72145.99962782855, 41885.984466789305, 10587.9989967345, 60968.20515015187, 38183.2615355565, 13806.001997709513, 38784.0540747707, 0.17200000000000001, 1.004, -0.02, 192.0, 0.0, 0.0, 0.0, 0.0, 0.0, 0.0, 0.0, 0.0, 0.0, 1.69542297025695E9, 0.0, 2023-09-22 17:49:30.256
66.0, -26974.308726109117, 73665.56062287815, -6361.932320825139, 19248.070627220946, 55849.47685593091, 48025.5839855175, -187500.02235174447, 55117.09959710832, 66777.17766489717, 72223.6495880663, 41881.06708300913, 10583.081612954333, 60963.600690794075, 38177.51713723149, 13914.922048440225, 38884.279296908295, 0.17200000000000001, 1.004, -0.02, 192.0, 0.0, 0.0, 0.0, 0.0, 0.0, 0.0, 0.0, 0.0, 0.0, 1.695422970256953E9, 0.0, 2023-09-22 17:49:30.256
68.0, -27027.371767446017, 73621.7288520013, -6372.661158163686, 19283.118162526865, 55874.82373414323, 48039.93380545781, -187500.02235174447, 55115.825547674365, 66527.64278979812, 72143.71974989412, 41885.17980398891, 10586.85905776728, 60969.83682749711, 38179.43938725464, 13789.327596345855, 38776.00744676679, 0.17, 1.006, -0.016, 192.0, 2.5, 40.0, 15.5, 56.0, 127.5, 64.0, 0.0, 0.0, 0.0, 1.695422970256956E9, 0.0, 2023-09-22 17:49:30.256
70.0, -26956.203813100317, 73666.36528567855, -6358.110172523281, 19243.71203705216, 55845.92292856252, 48015.72686621271, -187500.02235174447, 55106.19194581413, 66776.99885094153, 72217.43580310771, 41865.018530490226, 10567.435391835617, 60957.67747851342, 38157.579381177355, 13907.2330483476, 38887.49794810986, 0.17, 1.006, -0.016, 192.0, 0.0, 0.0, 0.0, 0.0, 0.0, 0.0, 0.0, 0.0, 0.0, 1.695422970256959E9, 0.0, 2023-09-22 17:49:30.256
72.0, -27059.982962606307, 73589.0729533521, -6350.152951497192, 19266.913147796768, 55882.87036214714, 48044.51591307115, -187500.02235174447, 55094.032596830446, 66513.4941355579, 72134.86845908982, 41879.48010915281, 10580.958197231079, 60971.46850484235, 38174.38789300775, 13769.233378080533, 38766.32914141764, 0.17, 1.006, -0.016, 192.0, 0.0, 0.0, 0.0, 0.0, 0.0, 0.0, 0.0, 0.0, 0.0, 1.695422970256962E9, 0.0, 2023-09-22 17:49:30.256
74.0, -26937.495402991226, 73673.87547181553, -6342.598061871298, 19265.61674661836, 55852.02495479881, 48034.6364420219, -187500.02235174447, 55127.716675724594, 66753.26129832999, 72216.18410541823, 41868.795975303176, 10576.934883229123, 60963.35482160507, 38165.64836092572, 13905.824888446914, 38887.34148589867, 0.17, 1.006, -0.016, 192.0, 0.0, 0.0, 0.0, 0.0, 0.0, 0.0, 0.0, 0.0, 0.0, 1.695422970256965E9, 0.0, 2023-09-22 17:49:30.256
76.0, -27073.97515463533, 73574.52196771168, -6350.6893933641195, 19268.366011186365, 55878.06473708925, 48039.822046735535, -187500.02235174447, 55098.92762886616, 66520.57963855025, 72140.94813358165, 41881.06708300913, 10586.61318857827, 60974.68715604391, 38184.9602681351, 13778.844628196315, 38771.33593217563, 0.17, 1.006, -0.016, 192.0, 0.0, 0.0, 0.0, 0.0, 0.0, 0.0, 0.0, 0.0, 0.0, 1.69542297031597E9, 0.0, 2023-09-22 17:49:30.315
78.0, -26877.45861738427, 73703.82680938565, -6375.343367498323, 19283.47579043815, 55829.13676847658, 48019.347848814476, -187500.02235174447, 55160.6184435628, 66760.99500191152, 72214.61948330635, 41852.702719295354, 10561.176903388132, 60943.752341717765, 38155.4559654541, 13928.601316046872, 38898.1820819595, 0.17, 1.006, -0.016, 192.0, 2.5, 40.0, 15.5, 56.0, 127.5, 64.0, 0.0, 0.0, 0.0, 1.695422970315981E9, 0.0, 2023-09-22 17:49:30.315
80.0, -27071.40470402297, 73557.84756634803, -6361.7311551250405, 19244.38258938582, 55861.479742703414, 48031.52954954262, -187500.02235174447, 55077.4028989557, 66554.82251105577, 72138.24357250257, 41869.04184449218, 10572.71040352707, 60960.35968784806, 38178.16533782069, 13794.602608037307, 38773.1017199876, 0.17, 1.006, -0.016, 192.0, 0.0, 0.0, 0.0, 0.0, 0.0, 0.0, 0.0, 0.0, 0.0, 1.695422970315985E9, 0.0, 2023-09-22 17:49:30.315
82.0, -26889.528559390135, 73686.48185568833, -6380.081937322848, 19283.028755549047, 55831.707219088945, 48030.30020359757, -187500.02235174447, 55144.39107708825, 66720.47128921405, 72200.31436685496, 41857.55304784216, 10560.66281326566, 60947.97682141982, 38158.272285255465, 13893.576132485407, 38868.99070370087, 0.17, 1.006, -0.016, 192.0, 0.0, 0.0, 0.0, 0.0, 0.0, 0.0, 0.0, 0.0, 0.0, 1.695422970315989E9, 0.0, 2023-09-22 17:49:30.315
84.0, -27110.542608564214, 73528.0526909891, -6372.21412327458, 19226.031807188014, 55860.83154211421, 48030.858997208954, -187500.02235174447, 55060.3485179363, 66548.02758074136, 72134.35436896734, 41870.29354218168, 10574.766764016958, 60961.90195821547, 38185.809634424404, 13762.371392532754, 38764.00455999429, 0.17, 1.006, -0.016, 192.0, 0.0, 0.0, 0.0, 0.0, 0.0, 0.0, 0.0, 0.0, 0.0, 1.695422970315992E9, 0.0, 2023-09-22 17:49:30.315
86.0, -26905.71122237578, 73675.03776252721, -6391.0119403614935, 19286.62738640635, 55843.1289605056, 48025.338116328494, -187500.02235174447, 55159.43380110667, 66663.51904434193, 72193.3406225849, 41855.94372224137, 10563.725002256037, 60949.764960976245, 38162.27324751297, 13852.65008838774, 38850.729328480884, 0.17, 1.006, -0.016, 192.0, 0.0, 0.0, 0.0, 0.0, 0.0, 0.0, 0.0, 0.0, 0.0, 1.695422970315996E9, 0.0, 2023-09-22 17:49:30.315
88.0, -27104.26176837227, 73525.99633049921, -6375.075146564859, 19209.156240124255, 55855.601233911664, 48011.05535162155, -187500.02235174447, 55064.68475636063, 66579.52118867889, 72137.79653761347, 41860.23525717679, 10559.813446976357, 60950.815492965645, 38165.31308475889, 13779.91751193017, 38787.675057372464, 0.17400000000000002, 1.0, -0.02, 192.0, 2.5, 56.0, 15.5, 32.0, 127.5, 48.0, 0.0, 0.0, 0.0, 1.695422970316E9, 0.0, 2023-09-22 17:49:30.316
90.0, -26908.99692881071, 73665.7841403227, -6386.318074025879, 19283.319328226964, 55847.66636463003, 48023.05823839406, -187500.02235174447, 55172.308405912925, 66637.72513124051, 72175.59333748739, 41856.211943174836, 10561.780400488426, 60953.944737189384, 38158.02641606646, 13838.590841125351, 38837.18417134097, 0.17400000000000002, 1.0, -0.02, 192.0, 0.0, 0.0, 0.0, 0.0, 0.0, 0.0, 0.0, 0.0, 0.0, 1.695422970376124E9, 0.0, 2023-09-22 17:49:30.376
92.0, -27108.709765518877, 73520.20722868529, -6361.217065002569, 19195.65578647325, 55853.4331146995, 48003.187537573285, -187500.02235174447, 55075.79357335491, 66613.04880536185, 72148.77124414101, 41855.31787339662, 10553.08557189531, 60950.90489994346, 38161.11095680129, 13789.796982979416, 38797.68863888844, 0.17400000000000002, 1.0, -0.02, 192.0, 0.0, 0.0, 0.0, 0.0, 0.0, 0.0, 0.0, 0.0, 0.0, 1.695422970376141E9, 0.0, 2023-09-22 17:49:30.376
94.0, -26905.487704931227, 73665.7394368338, -6374.203428531102, 19294.115220798878, 55855.400068211566, 48022.99118316069, -187500.02235174447, 55190.30156019945, 66606.90207563664, 72168.84311066188, 41856.681329808394, 10554.13610388471, 60953.09537090008, 38148.32575897286, 13824.77746305197, 38829.02578461478, 0.17400000000000002, 1.0, -0.02, 192.0, 0.0, 0.0, 0.0, 0.0, 0.0, 0.0, 0.0, 0.0, 0.0, 1.695422970376145E9, 0.0, 2023-09-22 17:49:30.376
96.0, -27082.06648612815, 73529.57260961206, -6341.145198481703, 19194.09116436138, 55856.00356531186, 48005.24389806317, -187500.02235174447, 55082.409689713684, 66663.89902399767, 72160.01417160203, 41853.66384430693, 10549.75516197147, 60950.70373424337, 38153.28784624193, 13825.515070618996, 38829.629281715075, 0.17400000000000002, 1.0, -0.02, 192.0, 0.0, 0.0, 0.0, 0.0, 0.0, 0.0, 0.0, 0.0, 0.0, 1.695422970376149E9, 0.0, 2023-09-22 17:49:30.376
98.0, -26923.413803984382, 73644.84055576808, -6356.411439944678, 19304.82170639297, 55876.3883562551, 48042.481904325716, -187500.02235174447, 55191.84383056687, 66579.05180204533, 72156.66140993375, 41868.57245785862, 10561.311013854864, 60968.20515015187, 38159.16635503368, 13820.865907772293, 38814.56420595219, 0.17200000000000001, 1.006, -0.024, 192.0, 2.5, 48.0, 15.5, 56.0, 127.5, 32.0, 0.0, 0.0, 0.0, 1.695422970376152E9, 0.0, 2023-09-22 17:49:30.376
100.0, -27079.093704115596, 73531.09252823502, -6344.855588061284, 19212.46429830364, 55858.261091501845, 48024.712267483745, -187500.02235174447, 55087.9529223386, 66689.6929370991, 72183.79642770249, 41863.49861186727, 10563.479133067029, 60959.35385934757, 38175.41607325269, 13851.554852909429, 38849.43292730247, 0.17200000000000001, 1.006, -0.024, 192.0, 0.0, 0.0, 0.0, 0.0, 0.0, 0.0, 0.0, 0.0, 0.0, 1.695422970376155E9, 0.0, 2023-09-22 17:49:30.376
102.0, -26956.404978800416, 73624.9251514584, -6371.700033152108, 19307.30275002751, 55875.85191438817, 48046.48286658322, -187500.02235174447, 55179.3268536719, 66541.41146438259, 72168.70900019514, 41859.408242631944, 10567.457743580073, 60960.29263261469, 38173.42676799617, 13808.080709943857, 38812.53019720676, 0.17200000000000001, 1.006, -0.024, 192.0, 0.0, 0.0, 0.0, 0.0, 0.0, 0.0, 0.0, 0.0, 0.0, 1.695422970376158E9, 0.0, 2023-09-22 17:49:30.376
104.0, -27072.745808690288, 73540.72613009527, -6355.539721910921, 19215.727652994115, 55848.64984138607, 48016.64328773538, -187500.02235174447, 55093.07147181887, 66688.1953702206, 72205.63408203532, 41851.78629777268, 10564.95434820108, 60947.99917316427, 38178.85824189881, 13850.79489359795, 38856.674892505995, 0.17200000000000001, 1.006, -0.024, 192.0, 0.0, 0.0, 0.0, 0.0, 0.0, 0.0, 0.0, 0.0, 0.0, 1.695422970376162E9, 0.0, 2023-09-22 17:49:30.376
106.0, -27004.908264268433, 73595.51025575522, -6362.312300480879, 19304.24056103713, 55882.244513302394, 48044.80648574907, -187500.02235174447, 55163.54652208645, 66495.79155394931, 72165.69151469368, 41871.47818463781, 10583.819220521358, 60956.403429079466, 38187.21779432509, 13781.325671830855, 38797.889804588536, 0.17200000000000001, 1.006, -0.024, 192.0, 0.0, 0.0, 0.0, 0.0, 0.0, 0.0, 0.0, 0.0, 0.0, 1.69542297043646E9, 0.0, 2023-09-22 17:49:30.436
108.0, -27036.20070650586, 73572.37620024398, -6365.598006915809, 19233.497289836087, 55846.57112915172, 48007.814348675536, -187500.02235174447, 55122.66518147769, 66699.97473954853, 72221.66028280977, 41869.131251470004, 10576.71136578457, 60947.798007464175, 38182.74744543403, 13861.926062336692, 38869.79536650126, 0.17, 1.014, -0.022, 192.0, 2.5, 40.0, 15.5, 88.0, 127.5, 40.0, 0.0, 0.0, 0.0, 1.695422970436471E9, 0.0, 2023-09-22 17:49:30.436
110.0, -26984.277604136183, 73607.46843903881, -6376.304492509901, 19295.053994066002, 55876.43305974401, 48026.79097971809, -187500.02235174447, 55172.800144290944, 66512.62241752415, 72150.6264389308, 41864.035053734195, 10568.016537191455, 60948.60267026457, 38177.87476514278, 13801.06226218489, 38806.04819131472, 0.17, 1.014, -0.022, 192.0, 0.0, 0.0, 0.0, 0.0, 0.0, 0.0, 0.0, 0.0, 0.0, 1.695422970436475E9, 0.0, 2023-09-22 17:49:30.436
112.0, -27006.00349974674, 73591.33047954208, -6361.798210358407, 19226.612952543852, 55864.00548982686, 48007.07674110851, -187500.02235174447, 55115.04323661843, 66732.11654807527, 72209.21036114817, 41861.732824055296, 10565.580197045827, 60952.38011507751, 38189.3635617928, 13884.635434703283, 38874.80215725925, 0.17, 1.014, -0.022, 192.0, 0.0, 0.0, 0.0, 0.0, 0.0, 0.0, 0.0, 0.0, 0.0, 1.695422970436479E9, 0.0, 2023-09-22 17:49:30.436
114.0, -26995.67699380839, 73594.50442725474, -6376.304492509901, 19278.75957235808, 55896.54962975379, 48030.36725883094, -187500.02235174447, 55162.026603463484, 66502.27355984134, 72144.61381967233, 41864.63855083448, 10566.720136013048, 60958.90682445846, 38197.58900375236, 13789.864038212781, 38787.63035388355, 0.17, 1.014, -0.022, 192.0, 0.0, 0.0, 0.0, 0.0, 0.0, 0.0, 0.0, 0.0, 0.0, 1.695422970436482E9, 0.0, 2023-09-22 17:49:30.436
116.0, -26974.75576099822, 73613.45870655283, -6348.5212741519545, 19227.015283944045, 55878.53412372281, 48017.04561913558, -187500.02235174447, 55125.77207395698, 66739.20205106761, 72218.30752114148, 41868.12542296951, 10574.90087448369, 60961.74549600429, 38205.054486400426, 13893.643187718772, 38877.10438693815, 0.17, 1.014, -0.022, 192.0, 0.0, 0.0, 0.0, 0.0, 0.0, 0.0, 0.0, 0.0, 0.0, 1.695422970436486E9, 0.0, 2023-09-22 17:49:30.436
118.0, -27022.789659832677, 73585.83195040608, -6349.482399163533, 19275.160941500777, 55918.83431897573, 48039.41971533534, -187500.02235174447, 55144.145207899244, 66486.62733872262, 72152.41457848724, 41881.20119347587, 10594.838630537824, 60975.290653144206, 38221.95240520864, 13772.63084323774, 38772.67703684295, 0.168, 1.014, -0.024, 192.0, 2.5, 32.0, 15.5, 88.0, 127.5, 32.0, 0.0, 0.0, 0.0, 1.695422970436489E9, 0.0, 2023-09-22 17:49:30.436
120.0, -26939.462356503293, 73648.21566918083, -6340.854625803784, 19243.734388796616, 55894.96265589746, 48030.50136929767, -187500.02235174447, 55149.2190538906, 66749.08152211685, 72240.23458245213, 41865.75613805725, 10589.317749657363, 60961.47727507082, 38211.24591961455, 13909.244705348578, 38891.498910367365, 0.168, 1.014, -0.024, 192.0, 0.0, 0.0, 0.0, 0.0, 0.0, 0.0, 0.0, 0.0, 0.0, 1.695422970496757E9, 0.0, 2023-09-22 17:49:30.496
122.0, -27028.15407850195, 73583.10503758253, -6367.140277283225, 19259.872348293346, 55918.655505020084, 48043.8900642264, -187500.02235174447, 55139.9654316861, 66502.0947458857, 72155.11913956632, 41876.4849753958, 10596.313845671875, 60968.428667596425, 38225.50633257703, 13778.487000285031, 38776.409778166984, 0.168, 1.014, -0.024, 192.0, 0.0, 0.0, 0.0, 0.0, 0.0, 0.0, 0.0, 0.0, 0.0, 1.695422970496768E9, 0.0, 2023-09-22 17:49:30.496
124.0, -26909.399260210903, 73668.9357362909, -6367.6543674056975, 19251.065760977956, 55895.3426355532, 48032.64713676538, -187500.02235174447, 55149.37551610178, 66749.32739130585, 72228.61167533537, 41858.00008273126, 10585.406194377685, 60949.85436795407, 38211.335326592365, 13916.732539741104, 38896.03631449179, 0.168, 1.014, -0.024, 192.0, 0.0, 0.0, 0.0, 0.0, 0.0, 0.0, 0.0, 0.0, 0.0, 1.695422970496772E9, 0.0, 2023-09-22 17:49:30.496
126.0, -27067.001410365276, 73561.58030767206, -6371.387108729734, 19242.929725996226, 55927.21622314647, 48046.885197983414, -187500.02235174447, 55102.99564635702, 66512.4436035685, 72161.37762801381, 41869.220658447826, 10600.29245618492, 60962.39369659349, 38235.9222454932, 13773.033174637936, 38772.922906031956, 0.168, 1.014, -0.024, 192.0, 0.0, 0.0, 0.0, 0.0, 0.0, 0.0, 0.0, 0.0, 0.0, 1.695422970496776E9, 0.0, 2023-09-22 17:49:30.496
128.0, -26925.313702263084, 73671.08150375861, -6371.230646518547, 19262.46515065016, 55909.67010374906, 48050.6402910519, -187500.02235174447, 55152.70592602562, 66712.6928821436, 72236.30067542799, 41866.1808212019, 10599.644255595715, 60958.437437824905, 38228.747335523054, 13891.36330978433, 38877.283200893784, 0.16, 1.006, -0.024, 192.0, 2.5, 0.0, 15.5, 56.0, 127.5, 32.0, 0.0, 0.0, 0.0, 1.695422970496779E9, 0.0, 2023-09-22 17:49:30.496
130.0, -27077.59613723709, 73563.45785420631, -6388.21797230458, 19234.74898752558, 55917.98495268643, 48039.17384614633, -187500.02235174447, 55103.5544399684, 66527.32986537575, 72164.81979665993, 41873.06515849414, 10604.919267287169, 60962.50545531577, 38236.54809433795, 13777.81644795137, 38780.99188578032, 0.16, 1.006, -0.024, 192.0, 0.0, 0.0, 0.0, 0.0, 0.0, 0.0, 0.0, 0.0, 0.0, 1.695422970496783E9, 0.0, 2023-09-22 17:49:30.496
132.0, -26880.744323819203, 73703.08920181861, -6396.0634346083925, 19276.122066512355, 55899.991798399904, 48041.69959326978, -187500.02235174447, 55169.00034773354, 66705.02623379543, 72223.73899504411, 41852.836829762084, 10592.737566559026, 60949.54144353169, 38217.12442840629, 13900.281655821998, 38888.190852187974, 0.16, 1.006, -0.024, 192.0, 0.0, 0.0, 0.0, 0.0, 0.0, 0.0, 0.0, 0.0, 0.0, 1.695422970496786E9, 0.0, 2023-09-22 17:49:30.496
134.0, -27084.033439640218, 73553.0642930346, -6384.9099141251945, 19212.37489132582, 55920.130720154135, 48038.88327346841, -187500.02235174447, 55078.18521001163, 66565.39488618313, 72166.51852923853, 41859.8776292655, 10600.270104440464, 60959.66678376994, 38237.062184460425, 13795.831953982348, 38800.50495868981, 0.16, 1.006, -0.024, 192.0, 0.0, 0.0, 0.0, 0.0, 0.0, 0.0, 0.0, 0.0, 0.0, 1.695422970496789E9, 0.0, 2023-09-22 17:49:30.496
136.0, -26877.771541806644, 73701.7928006402, -6399.840879421339, 19273.126932755345, 55910.34065608271, 48043.42067759284, -187500.02235174447, 55179.304501927436, 66663.63080306421, 72206.34933785789, 41851.92040823941, 10585.741470544514, 60957.83394072461, 38215.671565016695, 13876.879379377293, 38869.325979867695, 0.16, 1.006, -0.024, 192.0, 0.0, 0.0, 0.0, 0.0, 0.0, 0.0, 0.0, 0.0, 0.0, 1.695422970557097E9, 0.0, 2023-09-22 17:49:30.557
138.0, -27111.436678342427, 73533.75238582521, -6364.882751093239, 19185.731611935094, 55921.91885971056, 48037.296299612084, -187500.02235174447, 55074.452468687596, 66582.53867418035, 72156.10261632236, 41860.36936764352, 10586.926113000645, 60969.747420519285, 38230.55782682393, 13798.938846461637, 38798.31448773319, 0.168, 1.0, -0.024, 192.0, 2.5, 32.0, 15.5, 32.0, 127.5, 32.0, 0.0, 0.0, 0.0, 1.695422970557107E9, 0.0, 2023-09-22 17:49:30.557
140.0, -26909.332204977538, 73688.20294001138, -6384.55228621391, 19274.758610100584, 55911.63705726112, 48043.241863637195, -187500.02235174447, 55191.39679567776, 66609.20430531554, 72182.32121256844, 41856.122536197014, 10586.881409511734, 60973.055478698676, 38217.25853887302, 13849.587899397362, 38841.90038942103, 0.168, 1.0, -0.024, 192.0, 0.0, 0.0, 0.0, 0.0, 0.0, 0.0, 0.0, 0.0, 0.0, 1.695422970557111E9, 0.0, 2023-09-22 17:49:30.557
142.0, -27083.653459984478, 73558.87574659297, -6366.693242394119, 19188.235007314088, 55912.57583052824, 48028.19913961877, -187500.02235174447, 55097.161841054185, 66625.20815434554, 72160.61766870233, 41837.48118132129, 10569.938787214613, 60963.44422858289, 38212.92230044869, 13836.467425402097, 38827.39410726954, 0.168, 1.0, -0.024, 192.0, 0.0, 0.0, 0.0, 0.0, 0.0, 0.0, 0.0, 0.0, 0.0, 1.695422970557114E9, 0.0, 2023-09-22 17:49:30.557
144.0, -26892.7472105917, 73699.51292270576, -6388.419138004678, 19283.92282532726, 55913.67106600655, 48051.422602107836, -187500.02235174447, 55207.87003134132, 66602.18585755657, 72177.3367735549, 41838.151733654944, 10571.19048490411, 60965.1876646504, 38214.50927430502, 13867.916329850714, 38846.59425575665, 0.168, 1.0, -0.024, 192.0, 0.0, 0.0, 0.0, 0.0, 0.0, 0.0, 0.0, 0.0, 0.0, 1.695422970557117E9, 0.0, 2023-09-22 17:49:30.557
146.0, -27055.579668948612, 73580.9145666259, -6367.162629027681, 19187.676213702707, 55906.25028684739, 48030.724886742224, -187500.02235174447, 55104.31439927989, 66672.4373903796, 72179.34843055588, 41833.5249225527, 10568.687089525116, 60952.11189414405, 38219.247844129546, 13871.179684541188, 38849.70114823594, 0.168, 1.0, -0.024, 192.0, 0.0, 0.0, 0.0, 0.0, 0.0, 0.0, 0.0, 0.0, 0.0, 1.69542297055712E9, 0.0, 2023-09-22 17:49:30.557
148.0, -26888.433323911828, 73702.21748378486, -6392.397748517722, 19293.645834165316, 55918.253173619894, 48051.2437881522, -187500.02235174447, 55203.17616500571, 66575.85550258822, 72177.24736657708, 41846.91361748143, 10585.42854612214, 60960.56085354816, 38218.46553307361, 13856.941623323159, 38836.42421202949, 0.17, 1.002, -0.026000000000000002, 192.0, 2.5, 40.0, 15.5, 40.0, 127.5, 24.0, 0.0, 0.0, 0.0, 1.695422970557124E9, 0.0, 2023-09-22 17:49:30.557
150.0, -27040.000503063264, 73591.4198865199, -6366.581483671843, 19190.55958873744, 55908.73133048193, 48032.043639665084, -187500.02235174447, 55088.57877118335, 66698.61128313676, 72197.49804705358, 41845.7289750253, 10585.76382228897, 60950.033181909705, 38220.23132088558, 13890.603350472851, 38863.536878053776, 0.17, 1.002, -0.026000000000000002, 192.0, 0.0, 0.0, 0.0, 0.0, 0.0, 0.0, 0.0, 0.0, 0.0, 1.695422970617273E9, 0.0, 2023-09-22 17:49:30.617
152.0, -26920.7539463942, 73681.65387888598, -6397.203373575613, 19288.974319574158, 55921.337714354726, 48060.25154116769, -187500.02235174447, 55180.04210949446, 66534.21420266798, 72164.14924432627, 41856.077832708106, 10597.856116039291, 60955.554062790165, 38219.247844129546, 13837.182681224667, 38812.19492103993, 0.17, 1.002, -0.026000000000000002, 192.0, 0.0, 0.0, 0.0, 0.0, 0.0, 0.0, 0.0, 0.0, 0.0, 1.695422970617287E9, 0.0, 2023-09-22 17:49:30.617
154.0, -27038.659398395946, 73598.9747761458, -6364.59217841532, 19195.432269028697, 55907.18906011451, 48039.35266010197, -187500.02235174447, 55078.87811408975, 66704.10981227277, 72197.47569530913, 41853.61914081802, 10592.71521481457, 60948.87089119803, 38218.24201562906, 13888.055251604945, 38860.63115127458, 0.17, 1.002, -0.026000000000000002, 192.0, 0.0, 0.0, 0.0, 0.0, 0.0, 0.0, 0.0, 0.0, 0.0, 1.695422970617292E9, 0.0, 2023-09-22 17:49:30.617
156.0, -26953.18632759885, 73664.13011123301, -6397.404539275711, 19291.790639375526, 55921.2483073769, 48060.92209350134, -187500.02235174447, 55154.96345221561, 66501.13362087413, 72150.69349416417, 41865.82319329062, 10599.979531762545, 60967.869873985044, 38223.4723238316, 13810.1594221782, 38795.25229874281, 0.17, 1.002, -0.026000000000000002, 192.0, 0.0, 0.0, 0.0, 0.0, 0.0, 0.0, 0.0, 0.0, 0.0, 1.695422970617297E9, 0.0, 2023-09-22 17:49:30.617
158.0, -26992.145418184453, 73633.64233179597, -6372.437640719133, 19198.069774874424, 55887.81009767176, 48032.334212343005, -187500.02235174447, 55085.963617082074, 66748.27685931645, 72198.79444823199, 41835.49187606476, 10570.18465640362, 60940.48898702729, 38201.79113170995, 13924.242725878088, 38894.292878424276, 0.166, 1.006, -0.022, 192.0, 2.5, 24.0, 15.5, 56.0, 127.5, 40.0, 0.0, 0.0, 0.0, 1.695422970617302E9, 0.0, 2023-09-22 17:49:30.617
160.0, -26994.04531646315, 73638.04562545367, -6383.6805681801525, 19272.545787399507, 55922.67881902204, 48059.536285345115, -187500.02235174447, 55131.94115542664, 66483.56514973225, 72142.51275569353, 41870.02532124821, 10603.511107386483, 60974.82126651064, 38227.16036166673, 13791.652177769207, 38774.465176399375, 0.166, 1.006, -0.022, 192.0, 0.0, 0.0, 0.0, 0.0, 0.0, 0.0, 0.0, 0.0, 0.0, 1.695422970617307E9, 0.0, 2023-09-22 17:49:30.617
162.0, -26972.14060689695, 73650.92023025993, -6362.334652225334, 19211.726690736617, 55890.73817619541, 48030.657831508855, -187500.02235174447, 55101.94511436762, 66751.00377214, 72212.38430886083, 41847.405355859446, 10579.930016986134, 60950.70373424337, 38197.65605898572, 13922.365179343842, 38894.762265057834, 0.166, 1.006, -0.022, 192.0, 0.0, 0.0, 0.0, 0.0, 0.0, 0.0, 0.0, 0.0, 0.0, 1.695422970617313E9, 0.0, 2023-09-22 17:49:30.617
164.0, -27012.619616105512, 73620.90183745645, -6363.139315025725, 19263.15805472828, 55926.65742953509, 48052.048450952585, -187500.02235174447, 55117.434873275146, 66486.51558000036, 72138.3776829693, 41861.19638218837, 10596.112679971777, 60975.268301399745, 38215.62686152779, 13797.396576094221, 38780.880127058044, 0.166, 1.006, -0.022, 192.0, 0.0, 0.0, 0.0, 0.0, 0.0, 0.0, 0.0, 0.0, 0.0, 1.695422970617318E9, 0.0, 2023-09-22 17:49:30.617
166.0, -26961.545880025136, 73659.57035536414, -6354.533893410432, 19222.634342030804, 55893.93447565252, 48028.82498846352, -187500.02235174447, 55099.531125966445, 66744.07473135887, 72215.98293971813, 41849.081736693595, 10580.600569319793, 60967.17696990693, 38198.43837004166, 13920.822908976426, 38890.91776501152, 0.166, 1.006, -0.022, 192.0, 0.0, 0.0, 0.0, 0.0, 0.0, 0.0, 0.0, 0.0, 0.0, 1.695422970676081E9, 0.0, 2023-09-22 17:49:30.676
168.0, -27016.709985340833, 73615.96210193183, -6371.230646518547, 19257.503063381086, 55915.70507475198, 48042.481904325716, -187500.02235174447, 55110.39407377173, 66507.43681281053, 72139.07058704742, 41853.23916116228, 10581.271121653454, 60971.44615309789, 38197.32078281889, 13813.109852446301, 38793.754731864305, 0.164, 1.008, -0.016, 192.0, 2.5, 16.0, 15.5, 64.0, 127.5, 64.0, 0.0, 0.0, 0.0, 1.69542297067609E9, 0.0, 2023-09-22 17:49:30.676
170.0, -26932.24274304423, 73676.6917916169, -6367.877884850251, 19234.816042758946, 55893.219219829945, 48034.3905728329, -187500.02235174447, 55117.434873275146, 66759.58684201085, 72218.55339033049, 41845.55016106965, 10575.906702984179, 60965.85821698407, 38193.07395137238, 13938.525490585029, 38903.77001807332, 0.164, 1.008, -0.016, 192.0, 0.0, 0.0, 0.0, 0.0, 0.0, 0.0, 0.0, 0.0, 0.0, 1.695422970676094E9, 0.0, 2023-09-22 17:49:30.676
172.0, -27053.992695092285, 73589.9223196414, -6378.651425677708, 19246.550708597984, 55920.46599632096, 48041.900758969874, -187500.02235174447, 55095.7536811535, 66511.81775472376, 72141.05989230394, 41848.791164015674, 10583.439240865617, 60972.474333342834, 38210.17303588069, 13803.29743663042, 38784.38935093753, 0.164, 1.008, -0.016, 192.0, 0.0, 0.0, 0.0, 0.0, 0.0, 0.0, 0.0, 0.0, 0.0, 1.695422970676098E9, 0.0, 2023-09-22 17:49:30.676
174.0, -26897.84340832751, 73700.78697213971, -6382.0935943238255, 19255.29024068001, 55885.26199880386, 48033.876482710424, -187500.02235174447, 55135.78565547296, 66746.91340290468, 72217.32404438544, 41828.741649239266, 10571.034022692922, 60949.429684809416, 38193.54333800594, 13940.626554563827, 38904.03823900679, 0.164, 1.008, -0.016, 192.0, 0.0, 0.0, 0.0, 0.0, 0.0, 0.0, 0.0, 0.0, 0.0, 1.695422970676101E9, 0.0, 2023-09-22 17:49:30.676
176.0, -27048.874145612022, 73587.6647934514, -6380.774841400962, 19243.980257985622, 55915.7497782409, 48041.74429675869, -187500.02235174447, 55086.9023903492, 66524.31237987427, 72146.44666271766, 41847.606521559544, 10588.200162434598, 60963.176007649425, 38223.74054476506, 13807.2089919101, 38784.72462710436, 0.164, 1.008, -0.016, 192.0, 0.0, 0.0, 0.0, 0.0, 0.0, 0.0, 0.0, 0.0, 0.0, 1.695422970676104E9, 0.0, 2023-09-22 17:49:30.676
178.0, -26843.439262323292, 73729.48661202034, -6385.535762969943, 19275.518569412063, 55886.8936761491, 48035.329346100014, -187500.02235174447, 55152.01302194751, 66751.31669656238, 72217.32404438544, 41823.86896894801, 10568.32946161383, 60943.953507417864, 38197.54430026344, 13958.329136172431, 38914.32004145623, 0.17400000000000002, 1.004, -0.02, 192.0, 2.5, 56.0, 15.5, 48.0, 127.5, 48.0, 0.0, 0.0, 0.0, 1.695422970676107E9, 0.0, 2023-09-22 17:49:30.676
180.0, -27044.515555443235, 73581.3168980261, -6371.252998263001, 19228.75872001156, 55917.135586397126, 48044.001822948674, -187500.02235174447, 55061.1978842256, 66566.31130770581, 72151.2299360311, 41851.316911139125, 10590.480040369039, 60967.60165305158, 38224.09817267635, 13825.537422363452, 38801.68960114594, 0.17400000000000002, 1.004, -0.02, 192.0, 0.0, 0.0, 0.0, 0.0, 0.0, 0.0, 0.0, 0.0, 0.0, 1.69542297073645E9, 0.0, 2023-09-22 17:49:30.736
182.0, -26837.337236086994, 73731.14064111002, -6381.333635012345, 19285.3533369724, 55897.46605127645, 48042.72777351472, -187500.02235174447, 55148.63790853476, 66708.69191988611, 72213.50189608359, 41845.75132676975, 10578.857133252279, 60961.20905413736, 38198.818349697394, 13929.048350935978, 38892.63884933458, 0.17400000000000002, 1.004, -0.02, 192.0, 0.0, 0.0, 0.0, 0.0, 0.0, 0.0, 0.0, 0.0, 0.0, 1.695422970736461E9, 0.0, 2023-09-22 17:49:30.736
184.0, -27021.716776098823, 73593.5209504987, -6359.987719057527, 19222.455528075163, 55910.2959525938, 48030.21079661975, -187500.02235174447, 55068.439849429116, 66603.39285175716, 72158.89658437927, 41852.345091384064, 10580.779383275436, 60966.2381966398, 38203.869843944296, 13846.615117384807, 38820.64388044404, 0.17400000000000002, 1.004, -0.02, 192.0, 0.0, 0.0, 0.0, 0.0, 0.0, 0.0, 0.0, 0.0, 0.0, 1.695422970736465E9, 0.0, 2023-09-22 17:49:30.736
186.0, -26826.720157470725, 73733.3087603222, -6355.472666677555, 19288.34847072941, 55909.20071711549, 48041.632538036414, -187500.02235174447, 55152.08007718088, 66686.96602427555, 72202.08015466692, 41855.362576885535, 10580.980548975534, 60966.126437917526, 38192.112826360804, 13922.789862488493, 38885.91097425354, 0.17400000000000002, 1.004, -0.02, 192.0, 0.0, 0.0, 0.0, 0.0, 0.0, 0.0, 0.0, 0.0, 0.0, 1.695422970736468E9, 0.0, 2023-09-22 17:49:30.736
188.0, -27048.427110722914, 73576.39951424593, -6333.165625711158, 19207.41280405674, 55923.46113007798, 48032.78124723211, -187500.02235174447, 55048.90442477518, 66610.61246521623, 72163.92572688172, 41865.063233979134, 10592.111717714277, 60980.386850880015, 38215.112771405315, 13841.138939993256, 38810.85381637261, 0.17, 1.01, -0.022, 192.0, 2.5, 40.0, 15.5, 72.0, 127.5, 40.0, 0.0, 0.0, 0.0, 1.695422970736471E9, 0.0, 2023-09-22 17:49:30.736
190.0, -26826.943674915277, 73736.01332140127, -6368.414326717178, 19305.313444770985, 55911.83822296122, 48040.313785113554, -187500.02235174447, 55167.212208177116, 66630.729035226, 72195.53109354152, 41860.257608921245, 10592.312883414375, 60977.995214223294, 38202.03700089896, 13896.593617986873, 38856.7195959949, 0.17, 1.01, -0.022, 192.0, 0.0, 0.0, 0.0, 0.0, 0.0, 0.0, 0.0, 0.0, 0.0, 1.695422970736474E9, 0.0, 2023-09-22 17:49:30.736
192.0, -27038.190011762385, 73579.97579335878, -6343.916814794161, 19199.477934775106, 55915.61566777417, 48035.619918777935, -187500.02235174447, 55044.165854950654, 66655.20419540456, 72173.11229385284, 41854.04382396267, 10590.055357224388, 60968.853350741076, 38213.369335337804, 13876.097068321356, 38839.53110450877, 0.17, 1.01, -0.022, 192.0, 0.0, 0.0, 0.0, 0.0, 0.0, 0.0, 0.0, 0.0, 0.0, 1.695422970736477E9, 0.0, 2023-09-22 17:49:30.736
194.0, -26874.575242349536, 73703.55858845217, -6376.349195998811, 19305.67107268227, 55924.77988300084, 48065.347738903496, -187500.02235174447, 55152.68357428117, 66579.45413344553, 72181.3824393013, 41864.75030955676, 10601.275932940953, 60976.27412990024, 38221.03598368597, 13862.395448970254, 38834.12198235059, 0.17, 1.01, -0.022, 192.0, 0.0, 0.0, 0.0, 0.0, 0.0, 0.0, 0.0, 0.0, 0.0, 1.69542297073648E9, 0.0, 2023-09-22 17:49:30.736
196.0, -27035.77602336121, 73586.10017133954, -6360.255939990991, 19212.061966903446, 55911.1453188831, 48038.615052534944, -187500.02235174447, 55055.766410322954, 66666.89415775468, 72184.66814573624, 41849.841696005074, 10588.937770001623, 60961.61138553756, 38220.41013484122, 13875.605329943339, 38854.015034915814, 0.17, 1.01, -0.022, 192.0, 0.0, 0.0, 0.0, 0.0, 0.0, 0.0, 0.0, 0.0, 0.0, 1.69542297079675E9, 0.0, 2023-09-22 17:49:30.796
198.0, -26886.533425633126, 73694.90846334797, -6380.394861745222, 19315.997578620623, 55921.58358354373, 48060.162134189864, -187500.02235174447, 55158.3162138839, 66554.44253140004, 72170.65360196277, 41855.47433560781, 10597.498488128005, 60966.77463850673, 38217.5714632954, 13853.87943433278, 38834.07727886168, 0.168, 1.012, -0.018000000000000002, 192.0, 2.5, 32.0, 15.5, 80.0, 127.5, 56.0, 0.0, 0.0, 0.0, 1.695422970796759E9, 0.0, 2023-09-22 17:49:30.796
200.0, -27018.25225570825, 73599.08653486807, -6357.059640533882, 19215.124155893824, 55910.20654561598, 48032.065991409545, -187500.02235174447, 55048.18916895261, 66699.05831802587, 72193.72060224065, 41843.65026279095, 10584.020386221455, 60954.97291743433, 38211.93882369266, 13899.097013365867, 38873.863383992124, 0.168, 1.012, -0.018000000000000002, 192.0, 0.0, 0.0, 0.0, 0.0, 0.0, 0.0, 0.0, 0.0, 0.0, 1.695422970796762E9, 0.0, 2023-09-22 17:49:30.796
202.0, -26907.52171367666, 73681.94445156389, -6388.7320624270515, 19309.493220984128, 55919.52722305385, 48052.00374746368, -187500.02235174447, 55130.7118094816, 66517.62920828215, 72161.24351754707, 41854.62496931851, 10592.737566559026, 60967.55694956267, 38209.94951843614, 13831.393579410742, 38815.72649666387, 0.168, 1.012, -0.018000000000000002, 192.0, 0.0, 0.0, 0.0, 0.0, 0.0, 0.0, 0.0, 0.0, 0.0, 1.695422970796765E9, 0.0, 2023-09-22 17:49:30.796
204.0, -26988.926766982888, 73617.90670369944, -6366.380317971745, 19204.216504599633, 55884.85966740366, 48020.733656970704, -187500.02235174447, 55043.85293052828, 66726.9532951061, 72201.70017501118, 41835.33541385358, 10572.151609915687, 60945.272260340724, 38193.722151961585, 13921.113481654345, 38890.64954407806, 0.168, 1.012, -0.018000000000000002, 192.0, 0.0, 0.0, 0.0, 0.0, 0.0, 0.0, 0.0, 0.0, 0.0, 1.695422970796768E9, 0.0, 2023-09-22 17:49:30.796
206.0, -26927.928856364353, 73657.67045708543, -6386.541591470432, 19288.236712007132, 55914.38632182912, 48043.733602015214, -187500.02235174447, 55114.707960451604, 66501.22302785194, 72138.98118006959, 41861.129326955, 10590.301226413398, 60967.91457747395, 38199.44419854214, 13816.462614114596, 38794.1570632645, 0.168, 1.012, -0.018000000000000002, 192.0, 0.0, 0.0, 0.0, 0.0, 0.0, 0.0, 0.0, 0.0, 0.0, 1.695422970796772E9, 0.0, 2023-09-22 17:49:30.796
208.0, -26965.30097309363, 73627.09327067056, -6362.267596991968, 19203.07656563241, 55881.73042317992, 48015.07866562351, -187500.02235174447, 55047.9432997636, 66748.36626629428, 72180.77894220101, 41839.40343134444, 10564.820237734348, 60943.64058299549, 38173.3597127628, 13924.555650300463, 38888.95081149945, 0.166, 1.008, -0.018000000000000002, 192.0, 2.5, 24.0, 15.5, 64.0, 127.5, 56.0, 0.0, 0.0, 0.0, 1.695422970796775E9, 0.0, 2023-09-22 17:49:30.796
210.0, -26962.641115503448, 73626.71329101484, -6366.335614482834, 19275.831493834437, 55912.03938866132, 48051.31084338556, -187500.02235174447, 55100.64871318921, 66491.32120505825, 72111.8685140453, 41855.87666700801, 10580.511162341973, 60968.40631585197, 38193.11865486129, 13800.950503462615, 38774.308714188184, 0.166, 1.008, -0.018000000000000002, 192.0, 0.0, 0.0, 0.0, 0.0, 0.0, 0.0, 0.0, 0.0, 0.0, 1.695422970856984E9, 0.0, 2023-09-22 17:49:30.856
212.0, -26993.53122634068, 73604.65211923745, -6345.324974694846, 19203.99298715508, 55891.45343201798, 48031.37308733143, -187500.02235174447, 55050.15612246467, 66731.42364399716, 72179.16961660024, 41837.548236554656, 10566.407211590673, 60963.91361521645, 38187.53071874747, 13905.288446579987, 38869.10246242314, 0.166, 1.008, -0.018000000000000002, 192.0, 0.0, 0.0, 0.0, 0.0, 0.0, 0.0, 0.0, 0.0, 0.0, 1.695422970856995E9, 0.0, 2023-09-22 17:49:30.856
214.0, -27024.30957845564, 73588.38004927398, -6380.0372338339375, 19264.990897773612, 55909.245420604406, 48049.00861370667, -187500.02235174447, 55096.245419531515, 66459.24645176488, 72107.39816515424, 41845.81838200312, 10574.81146750587, 60969.92623447493, 38195.4655880291, 13771.133276359235, 38760.29417041471, 0.166, 1.008, -0.018000000000000002, 192.0, 0.0, 0.0, 0.0, 0.0, 0.0, 0.0, 0.0, 0.0, 0.0, 1.695422970856999E9, 0.0, 2023-09-22 17:49:30.856
216.0, -26934.500269234213, 73651.07669247112, -6375.075146564859, 19235.911278237258, 55873.48262947591, 48031.998936176176, -187500.02235174447, 55095.91014336469, 66738.93383013413, 72180.533073012, 41823.60074801454, 10558.13706614221, 60946.16633011894, 38173.78439590745, 13919.370045586831, 38892.21416618993, 0.166, 1.008, -0.018000000000000002, 192.0, 0.0, 0.0, 0.0, 0.0, 0.0, 0.0, 0.0, 0.0, 0.0, 1.695422970857002E9, 0.0, 2023-09-22 17:49:30.857
218.0, -27004.483581123783, 73599.55592150163, -6385.446355992121, 19265.303822195987, 55899.20948734397, 48045.43233459382, -187500.02235174447, 55094.97137009756, 66500.97715866294, 72102.59254009635, 41836.02831793169, 10572.263368637965, 60953.52005404473, 38189.63178272626, 13800.905799973703, 38789.686714373434, 0.17400000000000002, 1.006, -0.016, 192.0, 2.5, 56.0, 15.5, 56.0, 127.5, 64.0, 0.0, 0.0, 0.0, 1.695422970857005E9, 0.0, 2023-09-22 17:49:30.857
220.0, -26912.50615269019, 73665.47121590034, -6369.040175561926, 19249.32232491044, 55870.085164318705, 48035.12818039992, -187500.02235174447, 55098.502945721506, 66739.69378944562, 72191.10544813937, 41829.61336727302, 10573.179790160631, 60947.39567606398, 38181.87572740027, 13922.164013643744, 38895.611631347136, 0.17400000000000002, 1.006, -0.016, 192.0, 0.0, 0.0, 0.0, 0.0, 0.0, 0.0, 0.0, 0.0, 0.0, 1.695422970857008E9, 0.0, 2023-09-22 17:49:30.857
222.0, -27032.91500007093, 73575.48309272327, -6379.769012900474, 19252.160996456267, 55892.63807447411, 48045.09705842699, -187500.02235174447, 55072.88784657572, 66504.46403079797, 72118.01524377051, 41837.95056795485, 10581.069955953355, 60956.403429079466, 38193.69980021713, 13789.148782390212, 38783.74115034832, 0.17400000000000002, 1.006, -0.016, 192.0, 0.0, 0.0, 0.0, 0.0, 0.0, 0.0, 0.0, 0.0, 0.0, 1.695422970857012E9, 0.0, 2023-09-22 17:49:30.857
224.0, -26872.720047559746, 73685.90071033248, -6384.462879236088, 19258.218319203654, 55865.14542879408, 48033.74237224369, -187500.02235174447, 55122.262850077495, 66731.51305097497, 72192.40184931777, 41824.49481779275, 10569.84938023679, 60940.757207960756, 38174.96903836358, 13919.191231631188, 38900.41725640503, 0.17400000000000002, 1.006, -0.016, 192.0, 0.0, 0.0, 0.0, 0.0, 0.0, 0.0, 0.0, 0.0, 0.0, 1.695422970857015E9, 0.0, 2023-09-22 17:49:30.857
226.0, -27049.812918879143, 73555.97001981379, -6371.364756985278, 19227.350560110877, 55895.1414698531, 48041.18550314731, -187500.02235174447, 55063.388355182215, 66529.07330144326, 72120.36217693832, 41835.35776559803, 10572.799810504892, 60951.32958308811, 38187.55307049192, 13798.312997616888, 38792.32422021916, 0.17400000000000002, 1.006, -0.016, 192.0, 0.0, 0.0, 0.0, 0.0, 0.0, 0.0, 0.0, 0.0, 0.0, 1.69542297091625E9, 0.0, 2023-09-22 17:49:30.916
228.0, -26875.60342259448, 73682.27972773073, -6377.489134966032, 19264.05212450649, 55871.67213817503, 48042.52660781462, -187500.02235174447, 55136.67972525117, 66696.95725404707, 72190.90428243927, 41832.58614928558, 10571.436354093117, 60949.87671969852, 38172.42093949568, 13905.89194368028, 38884.905145753044, 0.17200000000000001, 1.01, -0.02, 192.0, 2.5, 48.0, 15.5, 72.0, 127.5, 48.0, 0.0, 0.0, 0.0, 1.695422970916261E9, 0.0, 2023-09-22 17:49:30.916
230.0, -27043.35326473156, 73562.72024663929, -6370.291873251424, 19225.22714438762, 55887.22895231593, 48033.89883445488, -187500.02235174447, 55082.81202111388, 66555.62717385616, 72121.94915079465, 41835.24600687576, 10568.485923825017, 60951.19547262138, 38178.59002096534, 13807.991302966037, 38800.77317962327, 0.17200000000000001, 1.01, -0.02, 192.0, 0.0, 0.0, 0.0, 0.0, 0.0, 0.0, 0.0, 0.0, 0.0, 1.695422970916265E9, 0.0, 2023-09-22 17:49:30.916
232.0, -26837.560753531547, 73709.92883562193, -6364.860399348784, 19281.330022970444, 55875.42723124352, 48033.094171654484, -187500.02235174447, 55160.4172778627, 66703.19339075011, 72175.77215144303, 41827.691117249866, 10560.998089432489, 60949.16146387595, 38157.9593608331, 13919.593563031383, 38893.443512134974, 0.17200000000000001, 1.01, -0.02, 192.0, 0.0, 0.0, 0.0, 0.0, 0.0, 0.0, 0.0, 0.0, 0.0, 1.695422970916268E9, 0.0, 2023-09-22 17:49:30.916
234.0, -27053.05392182516, 73549.06333077709, -6340.25112870349, 19206.876362189814, 55890.64876921759, 48028.37795357442, -187500.02235174447, 55040.880148515724, 66604.26456979092, 72127.29121771947, 41838.64347203296, 10568.731793014025, 60963.891263471996, 38178.768834920986, 13828.286686931455, 38812.75371465131, 0.17200000000000001, 1.01, -0.02, 192.0, 0.0, 0.0, 0.0, 0.0, 0.0, 0.0, 0.0, 0.0, 0.0, 1.695422970916271E9, 0.0, 2023-09-22 17:49:30.916
236.0, -26875.31284991656, 73679.48575967381, -6364.413364459678, 19284.749839872104, 55873.77320215383, 48037.20689263426, -187500.02235174447, 55113.67978020666, 66648.96805870153, 72161.51173848055, 41836.05066967615, 10572.598644804793, 60968.51807457425, 38173.940858118636, 13875.27005377651, 38853.47859304889, 0.17200000000000001, 1.01, -0.02, 192.0, 0.0, 0.0, 0.0, 0.0, 0.0, 0.0, 0.0, 0.0, 0.0, 1.695422970916274E9, 0.0, 2023-09-22 17:49:30.916
238.0, -27050.77404389072, 73552.57255465658, -6359.853608590795, 19211.32435933642, 55864.698393904975, 48013.111712111444, -187500.02235174447, 55020.674171528124, 66625.476375279, 72131.02395904351, 41829.568663784106, 10566.831894735324, 60955.44230406789, 38172.59975345132, 13827.034989241958, 38820.62152869958, 0.17200000000000001, 1.008, -0.022, 192.0, 2.5, 48.0, 15.5, 64.0, 127.5, 40.0, 0.0, 0.0, 0.0, 1.695422970916277E9, 0.0, 2023-09-22 17:49:30.916
240.0, -26880.744323819203, 73682.68205913092, -6372.728213397052, 19303.860581381392, 55867.492361961886, 48043.8900642264, -187500.02235174447, 55107.53305048145, 66623.19649734456, 72160.39415125777, 41841.102163923046, 10580.980548975534, 60960.13617040351, 38178.07593084287, 13855.60051865584, 38850.528162780785, 0.17200000000000001, 1.008, -0.022, 192.0, 0.0, 0.0, 0.0, 0.0, 0.0, 0.0, 0.0, 0.0, 0.0, 1.695422970976073E9, 0.0, 2023-09-22 17:49:30.976
242.0, -27059.02183759473, 73555.4559296913, -6355.539721910921, 19216.733481494604, 55860.11628629164, 48026.20983436225, -187500.02235174447, 55005.36322657624, 66659.69689604007, 72159.29891577947, 41841.57155055661, 10582.52281934295, 60953.85533021156, 38190.39174203775, 13839.127282992278, 38843.2191423439, 0.17200000000000001, 1.008, -0.022, 192.0, 0.0, 0.0, 0.0, 0.0, 0.0, 0.0, 0.0, 0.0, 0.0, 1.695422970976087E9, 0.0, 2023-09-22 17:49:30.976
244.0, -26902.917254318865, 73674.32250670463, -6377.6903006661305, 19317.472793754674, 55872.588559697695, 48047.086363683506, -187500.02235174447, 55107.175422570166, 66586.09260154875, 72158.20368030116, 41846.064251192125, 10592.402290392196, 60958.59390003609, 38188.29067805895, 13831.393579410742, 38840.78280219827, 0.17200000000000001, 1.008, -0.022, 192.0, 0.0, 0.0, 0.0, 0.0, 0.0, 0.0, 0.0, 0.0, 0.0, 1.69542297097609E9, 0.0, 2023-09-22 17:49:30.976
246.0, -27056.74195966029, 73566.34122924105, -6363.698108637108, 19218.007530928557, 55859.043402557785, 48018.78905520309, -187500.02235174447, 55006.771386476925, 66692.53160864492, 72165.98208737161, 41833.055535919135, 10579.95236873059, 60947.73095223081, 38179.819366910386, 13851.398390698241, 38863.15689839803, 0.17200000000000001, 1.008, -0.022, 192.0, 0.0, 0.0, 0.0, 0.0, 0.0, 0.0, 0.0, 0.0, 0.0, 1.695422970976093E9, 0.0, 2023-09-22 17:49:30.976
248.0, -26911.45562070079, 73673.80841658216, -6388.396786260222, 19316.9587036322, 55871.87330387513, 48041.02904093612, -187500.02235174447, 55114.39503602923, 66573.95560430952, 72143.45152896065, 41834.91073070893, 10582.209894920576, 60953.09537090008, 38171.482166228554, 13824.97862875207, 38836.35715679612, 0.17200000000000001, 1.006, -0.026000000000000002, 192.0, 2.5, 48.0, 15.5, 56.0, 127.5, 24.0, 0.0, 0.0, 0.0, 1.695422970976097E9, 0.0, 2023-09-22 17:49:30.976
250.0, -27036.558334417146, 73580.35577301453, -6365.329785982345, 19213.648940759773, 55854.550701922264, 48019.0349243921, -187500.02235174447, 55025.74801751948, 66731.75892016398, 72166.40677051626, 41823.71250673682, 10570.586987803816, 60944.7358184738, 38170.92337261717, 13872.900768864247, 38881.44062536248, 0.17200000000000001, 1.006, -0.026000000000000002, 192.0, 0.0, 0.0, 0.0, 0.0, 0.0, 0.0, 0.0, 0.0, 0.0, 1.6954229709761E9, 0.0, 2023-09-22 17:49:30.976
252.0, -26946.23493507325, 73649.84734652608, -6383.613512946787, 19305.24638953762, 55875.40487949907, 48033.07181991003, -187500.02235174447, 55108.628285959756, 66548.98870575294, 72129.57109565391, 41830.86506496252, 10576.33138612883, 60949.22851910932, 38169.87284062777, 13806.516087831986, 38822.63318570056, 0.17200000000000001, 1.006, -0.026000000000000002, 192.0, 0.0, 0.0, 0.0, 0.0, 0.0, 0.0, 0.0, 0.0, 0.0, 1.695422970976103E9, 0.0, 2023-09-22 17:49:30.976
254.0, -27026.142421500972, 73591.26342430871, -6346.330803195335, 19218.94630419568, 55861.01035606985, 48008.26138356464, -187500.02235174447, 55037.01329672495, 66751.51786226248, 72175.57098574293, 41831.312099851624, 10566.787191246414, 60942.210071350346, 38163.524945202465, 13882.199094557654, 38891.16363420053, 0.17200000000000001, 1.006, -0.026000000000000002, 192.0, 0.0, 0.0, 0.0, 0.0, 0.0, 0.0, 0.0, 0.0, 0.0, 1.695422970976106E9, 0.0, 2023-09-22 17:49:30.976
0.0, -26987.451551848837, 73622.64527352396, -6354.198617243603, 19306.743956416125, 55885.82079241524, 48041.632538036414, -187500.02235174447, 55106.79544291442, 66519.26088562737, 72117.50115364805, 41851.92040823941, 10583.305130398885, 60962.39369659349, 38175.17020406368, 13785.237227110532, 38801.82371161267, 0.17200000000000001, 1.006, -0.026000000000000002, 192.0, 0.0, 0.0, 0.0, 0.0, 0.0, 0.0, 0.0, 0.0, 0.0, 1.69542297103649E9, 0.0, 2023-09-22 17:49:31.036
2.0, -26986.468075092802, 73621.66179676793, -6351.024669530949, 19241.432159117718, 55851.935547821, 48018.05144763606, -187500.02235174447, 55077.91698907816, 66765.28653684695, 72181.09186662339, 41827.08762014957, 10567.413040091162, 60944.378190562515, 38162.809689379894, 13899.968731399624, 38902.98770701739, 0.17200000000000001, 1.004, -0.016, 192.0, 2.5, 48.0, 15.5, 48.0, 127.5, 64.0, 0.0, 0.0, 0.0, 1.695422971036518E9, 0.0, 2023-09-22 17:49:31.036
4.0, -26992.570101329104, 73614.75510773124, -6372.795268630418, 19299.524342957062, 55884.81496391475, 48046.54992181658, -187500.02235174447, 55116.71961745258, 66525.09469093021, 72110.46035414463, 41822.863140447516, 10569.111772669767, 60952.82714996662, 38174.45494824111, 13796.904837716203, 38805.89172910353, 0.17200000000000001, 1.004, -0.016, 192.0, 0.0, 0.0, 0.0, 0.0, 0.0, 0.0, 0.0, 0.0, 0.0, 1.695422971036522E9, 0.0, 2023-09-22 17:49:31.036
6.0, -26946.81608042909, 73644.34881739007, -6365.30743423789, 19248.495310365597, 55853.25430074386, 48025.94161342879, -187500.02235174447, 55094.68079741965, 66780.39631609873, 72174.92278515373, 41803.26066056021, 10555.56661552985, 60933.53759450169, 38161.69210215713, 13921.784033988004, 38914.65531762306, 0.17200000000000001, 1.004, -0.016, 192.0, 0.0, 0.0, 0.0, 0.0, 0.0, 0.0, 0.0, 0.0, 0.0, 1.695422971036525E9, 0.0, 2023-09-22 17:49:31.036
8.0, -27010.831476549087, 73597.23134007827, -6369.576617428854, 19288.9519678297, 55885.887847648606, 48049.41094510686, -187500.02235174447, 55104.44850974662, 66517.11511815967, 72100.96086275112, 41819.51037877922, 10578.253636151987, 60949.45203655387, 38179.70760818811, 13790.95927369109, 38800.23673775634, 0.17200000000000001, 1.004, -0.016, 192.0, 0.0, 0.0, 0.0, 0.0, 0.0, 0.0, 0.0, 0.0, 0.0, 1.695422971036528E9, 0.0, 2023-09-22 17:49:31.036
10.0, -26933.986179111744, 73647.25454416926, -6362.938149325628, 19258.441836648206, 55856.67411764552, 48030.27785185312, -187500.02235174447, 55109.678817949156, 66764.12424613527, 72186.21041610366, 41814.749457210244, 10572.732755271525, 60939.77373120472, 38167.39179699324, 13913.960923428647, 38911.92840479951, 0.17200000000000001, 1.004, -0.016, 192.0, 0.0, 0.0, 0.0, 0.0, 0.0, 0.0, 0.0, 0.0, 0.0, 1.695422971036531E9, 0.0, 2023-09-22 17:49:31.036
12.0, -27069.795378422186, 73552.32668546757, -6359.808905101884, 19270.400019931796, 55887.31835929375, 48046.97460496123, -187500.02235174447, 55081.40386121319, 66504.44167905352, 72108.87338028829, 41831.35680334053, 10585.09326995531, 60954.995269178784, 38189.58707923735, 13774.463686283076, 38791.49720567432, 0.168, 1.006, -0.014, 192.0, 2.5, 32.0, 15.5, 56.0, 127.5, 72.0, 0.0, 0.0, 0.0, 1.695422971036535E9, 0.0, 2023-09-22 17:49:31.036
14.0, -26938.0094931137, 73648.64035232548, -6371.990605830027, 19273.01517403307, 55842.99485003887, 48029.22731986372, -187500.02235174447, 55112.24926856152, 66738.28562954493, 72198.34741334288, 41819.711544479316, 10578.231284407531, 60941.29364982768, 38172.197422051126, 13901.84627793387, 38910.922576299025, 0.168, 1.006, -0.014, 192.0, 0.0, 0.0, 0.0, 0.0, 0.0, 0.0, 0.0, 0.0, 0.0, 1.695422971096805E9, 0.0, 2023-09-22 17:49:31.096
16.0, -27079.920718660444, 73545.06236851959, -6375.902161109706, 19257.301897680987, 55868.67700441802, 48029.51789254164, -187500.02235174447, 55064.796515082904, 66525.96640896397, 72123.6255316288, 41823.71250673682, 10575.23615065052, 60944.177024862416, 38173.247954040526, 13780.051622396903, 38801.55549067921, 0.168, 1.006, -0.014, 192.0, 0.0, 0.0, 0.0, 0.0, 0.0, 0.0, 0.0, 0.0, 0.0, 1.695422971096818E9, 0.0, 2023-09-22 17:49:31.096
18.0, -26921.178629538852, 73657.24577394078, -6374.717518653574, 19275.67503162325, 55842.21253898294, 48025.628689006415, -187500.02235174447, 55110.39407377173, 66738.46444350058, 72190.3901923168, 41814.50358802123, 10566.362508101764, 60936.9350596589, 38154.47248869807, 13901.04161513348, 38898.29384068178, 0.168, 1.006, -0.014, 192.0, 0.0, 0.0, 0.0, 0.0, 0.0, 0.0, 0.0, 0.0, 0.0, 1.695422971096821E9, 0.0, 2023-09-22 17:49:31.096
20.0, -27082.357058806072, 73538.69212134983, -6365.598006915809, 19246.684819064718, 55864.00548982686, 48025.27106109513, -187500.02235174447, 55056.10168648979, 66558.19762446852, 72114.90835129123, 41819.30921307913, 10568.821199991848, 60943.08178938411, 38164.97780859206, 13785.371337577266, 38799.566185422686, 0.168, 1.006, -0.014, 192.0, 0.0, 0.0, 0.0, 0.0, 0.0, 0.0, 0.0, 0.0, 0.0, 1.695422971096824E9, 0.0, 2023-09-22 17:49:31.096
22.0, -26895.250605970694, 73672.55671889267, -6368.056698805893, 19286.269758495066, 55838.45744591444, 48024.77932271711, -187500.02235174447, 55131.628231004266, 66727.69090267312, 72172.32998279692, 41806.009925128215, 10559.835798720813, 60931.83886192308, 38148.99631130652, 13905.199039602167, 38902.808893061745, 0.168, 1.004, -0.014, 192.0, 2.5, 32.0, 15.5, 48.0, 127.5, 72.0, 0.0, 0.0, 0.0, 1.695422971096827E9, 0.0, 2023-09-22 17:49:31.096
24.0, -27116.912855733975, 73517.100336206, -6356.903178322695, 19229.1386996673, 55863.75962063785, 48026.612165762446, -187500.02235174447, 55044.36702065075, 66572.6144996422, 72116.83060131439, 41821.54438752466, 10569.536455814417, 60947.2839173417, 38174.298486029926, 13786.935959689137, 38800.57201392317, 0.168, 1.004, -0.014, 192.0, 0.0, 0.0, 0.0, 0.0, 0.0, 0.0, 0.0, 0.0, 0.0, 1.695422971096831E9, 0.0, 2023-09-22 17:49:31.096
26.0, -26924.17376329586, 73659.99503850879, -6380.752489656507, 19299.122011556865, 55845.92292856252, 48034.859959466456, -187500.02235174447, 55130.309478081406, 66669.86693976723, 72178.09673286638, 41814.61534674351, 10569.0447174364, 60940.06430388264, 38157.46762245508, 13865.971728083103, 38871.158822913036, 0.168, 1.004, -0.014, 192.0, 0.0, 0.0, 0.0, 0.0, 0.0, 0.0, 0.0, 0.0, 0.0, 1.695422971096834E9, 0.0, 2023-09-22 17:49:31.096
28.0, -27134.481326875848, 73508.31610063507, -6377.556190199398, 19225.405958343265, 55850.39327745358, 48017.582061002504, -187500.02235174447, 55032.565299578346, 66582.29280499135, 72139.51762193652, 41815.95645141083, 10568.463572080562, 60938.566737004134, 38163.32377950237, 13784.812543965882, 38804.99765932532, 0.168, 1.004, -0.014, 192.0, 0.0, 0.0, 0.0, 0.0, 0.0, 0.0, 0.0, 0.0, 0.0, 1.695422971096837E9, 0.0, 2023-09-22 17:49:31.096
30.0, -26893.41776292536, 73677.49645441728, -6410.2120888486015, 19309.3591105174, 55828.44386439847, 48019.951345914764, -187500.02235174447, 55151.07424868039, 66652.34317211428, 72161.35527626936, 41793.560003466606, 10549.486941038007, 60915.41032974843, 38134.646491366206, 13865.45763796063, 38878.423139861006, 0.168, 1.004, -0.014, 192.0, 0.0, 0.0, 0.0, 0.0, 0.0, 0.0, 0.0, 0.0, 0.0, 1.695422971156396E9, 0.0, 2023-09-22 17:49:31.156
32.0, -27095.857512457074, 73526.5551241106, -6377.019748332471, 19210.94437968068, 55841.51963490482, 48017.1350261134, -187500.02235174447, 55040.36605839325, 66647.02345693391, 72133.97438931161, 41802.70186694883, 10555.007821918467, 60921.33354202909, 38151.276189240954, 13821.514108361496, 38838.59233124165, 0.17200000000000001, 1.0, -0.018000000000000002, 192.0, 2.5, 48.0, 15.5, 32.0, 127.5, 56.0, 0.0, 0.0, 0.0, 1.695422971156408E9, 0.0, 2023-09-22 17:49:31.156
34.0, -26918.719937648766, 73658.89980303048, -6401.092577110837, 19304.1064505704, 55848.3816204526, 48043.375974103925, -187500.02235174447, 55148.883777723764, 66607.34911052574, 72150.87230811981, 41813.7212769653, 10566.541322057405, 60936.0856933696, 38153.69017764213, 13827.482024131063, 38845.07433713369, 0.17200000000000001, 1.0, -0.018000000000000002, 192.0, 0.0, 0.0, 0.0, 0.0, 0.0, 0.0, 0.0, 0.0, 0.0, 1.695422971156412E9, 0.0, 2023-09-22 17:49:31.156
36.0, -27098.98675668082, 73526.68923457734, -6374.5834081868425, 19204.194152855176, 55842.72662910541, 48022.72296222722, -187500.02235174447, 55046.64689858519, 66666.7376955435, 72142.06572080443, 41805.451131516835, 10556.751257985981, 60931.19066133388, 38153.08668054184, 13821.245887428033, 38843.0179766438, 0.17200000000000001, 1.0, -0.018000000000000002, 192.0, 0.0, 0.0, 0.0, 0.0, 0.0, 0.0, 0.0, 0.0, 0.0, 1.695422971156415E9, 0.0, 2023-09-22 17:49:31.156
38.0, -26938.94826638082, 73645.26523891273, -6393.984722374049, 19305.82753489346, 55848.64984138607, 48040.15732290236, -187500.02235174447, 55141.060667164405, 66574.46969443199, 72132.47682243309, 41816.11291362201, 10566.697784268592, 60940.64544923848, 38148.05753803939, 13809.198297166622, 38834.70312770642, 0.17200000000000001, 1.0, -0.018000000000000002, 192.0, 0.0, 0.0, 0.0, 0.0, 0.0, 0.0, 0.0, 0.0, 0.0, 1.695422971156418E9, 0.0, 2023-09-22 17:49:31.156
40.0, -27077.014991881253, 73544.79414758613, -6365.530951682443, 19207.926894179214, 55833.316544689726, 48006.45089226376, -187500.02235174447, 55036.23098566902, 66706.68026288513, 72151.56521219794, 41805.518186750196, 10553.934938184613, 60933.49289101278, 38138.46863966807, 13844.782274339472, 38871.71761652442, 0.17200000000000001, 1.0, -0.018000000000000002, 192.0, 0.0, 0.0, 0.0, 0.0, 0.0, 0.0, 0.0, 0.0, 0.0, 1.695422971156422E9, 0.0, 2023-09-22 17:49:31.156
42.0, -26947.263115318194, 73638.67147429842, -6378.383204744245, 19305.58166570445, 55854.32718447771, 48030.6354797644, -187500.02235174447, 55129.460111792105, 66558.93523203555, 72123.53612465097, 41815.151788610434, 10565.42373483464, 60948.26739409774, 38140.18972399113, 13802.939808719137, 38828.51169449231, 0.166, 1.002, -0.022, 192.0, 2.5, 24.0, 15.5, 40.0, 127.5, 40.0, 0.0, 0.0, 0.0, 1.695422971156425E9, 0.0, 2023-09-22 17:49:31.156
44.0, -27067.157872576463, 73551.72318836728, -6348.16364624067, 19209.066833146433, 55837.96570753643, 48015.12336911242, -187500.02235174447, 55043.91998576165, 66732.18360330863, 72160.52826172451, 41810.59203274155, 10560.126371398732, 60943.4841207843, 38142.84958158131, 13856.896919834247, 38876.16561367102, 0.166, 1.002, -0.022, 192.0, 0.0, 0.0, 0.0, 0.0, 0.0, 0.0, 0.0, 0.0, 0.0, 1.695422971216709E9, 0.0, 2023-09-22 17:49:31.216
46.0, -27001.399040388947, 73608.69778498386, -6374.292835508923, 19306.945122116224, 55854.75186762236, 48049.3438898735, -187500.02235174447, 55127.9625449136, 66518.21035363799, 72118.3281681929, 41828.585187028075, 10579.818258263858, 60958.370382591536, 38159.63574166724, 13768.182846091135, 38802.67307790197, 0.166, 1.002, -0.022, 192.0, 0.0, 0.0, 0.0, 0.0, 0.0, 0.0, 0.0, 0.0, 0.0, 1.695422971216755E9, 0.0, 2023-09-22 17:49:31.216
48.0, -27048.82944212311, 73570.1633775429, -6363.049908047904, 19228.535202567007, 55827.39333240907, 48026.58981401799, -187500.02235174447, 55080.465087946075, 66740.58785922383, 72174.78867468699, 41807.03810537316, 10563.90381621168, 60939.46080678234, 38151.902038085704, 13864.809437371427, 38890.11310221113, 0.166, 1.002, -0.022, 192.0, 0.0, 0.0, 0.0, 0.0, 0.0, 0.0, 0.0, 0.0, 0.0, 1.69542297121676E9, 0.0, 2023-09-22 17:49:31.216
50.0, -27024.242523222274, 73587.35186902904, -6379.16551580018, 19299.233770279145, 55851.15323676506, 48053.97070097574, -187500.02235174447, 55132.07526589338, 66515.7963652368, 72111.44383090065, 41810.94966065284, 10573.0456796939, 60945.47342604082, 38158.04876781091, 13775.514218272474, 38811.30085126172, 0.166, 1.002, -0.022, 192.0, 0.0, 0.0, 0.0, 0.0, 0.0, 0.0, 0.0, 0.0, 0.0, 1.695422971216764E9, 0.0, 2023-09-22 17:49:31.216
52.0, -27044.20263102086, 73575.17016830089, -6363.966329570571, 19233.51964158054, 55819.86079452763, 48028.26619485214, -187500.02235174447, 55078.83341060083, 66736.76571092197, 72180.287203823, 41807.328678051075, 10576.75606927348, 60940.91367017194, 38159.50163120051, 13863.490684448563, 38888.86140452164, 0.166, 1.004, -0.022, 192.0, 2.5, 24.0, 15.5, 48.0, 127.5, 40.0, 0.0, 0.0, 0.0, 1.695422971216768E9, 0.0, 2023-09-22 17:49:31.216
54.0, -27057.613677694048, 73566.87767110797, -6382.004187346004, 19293.042337065024, 55852.69550713248, 48043.35362235947, -187500.02235174447, 55108.91885863768, 66489.13073410162, 72108.0687174879, 41812.60368974253, 10584.087441454822, 60947.239213852794, 38166.63183768175, 13753.073066839346, 38790.20080449591, 0.166, 1.004, -0.022, 192.0, 0.0, 0.0, 0.0, 0.0, 0.0, 0.0, 0.0, 0.0, 0.0, 1.695422971216772E9, 0.0, 2023-09-22 17:49:31.216
56.0, -27008.797467803655, 73600.38293604647, -6365.933283082639, 19244.516699852553, 55830.74609407737, 48018.699648225265, -187500.02235174447, 55084.04136705892, 66747.8521761718, 72183.95288991366, 41801.45016925933, 10571.302243626385, 60936.10804511405, 38159.14400328923, 13880.992100357069, 38904.932308785, 0.166, 1.004, -0.022, 192.0, 0.0, 0.0, 0.0, 0.0, 0.0, 0.0, 0.0, 0.0, 0.0, 1.695422971216783E9, 0.0, 2023-09-22 17:49:31.216
58.0, -27038.949971073864, 73576.26540377921, -6389.290856038435, 19281.19591250371, 55856.09297228968, 48023.97465991672, -187500.02235174447, 55105.275524291465, 66511.3930715791, 72109.02984249948, 41810.59203274155, 10573.827990749836, 60938.522033515226, 38165.71541615909, 13769.859226925282, 38808.55158669372, 0.166, 1.004, -0.022, 192.0, 0.0, 0.0, 0.0, 0.0, 0.0, 0.0, 0.0, 0.0, 0.0, 1.695422971216787E9, 0.0, 2023-09-22 17:49:31.216
60.0, -26960.80827245811, 73633.15059341796, -6374.270483764468, 19243.890851007804, 55834.79175982378, 48013.804616189555, -187500.02235174447, 55092.8032508854, 66765.57710952486, 72192.53595978451, 41803.014791371206, 10566.943653457602, 60934.29755381317, 38167.436500482145, 13898.068833120924, 38918.92450081402, 0.166, 1.004, -0.022, 192.0, 0.0, 0.0, 0.0, 0.0, 0.0, 0.0, 0.0, 0.0, 0.0, 1.695422971276978E9, 0.0, 2023-09-22 17:49:31.276
62.0, -27075.137445347005, 73549.21979298828, -6372.549399441409, 19253.256231934578, 55869.14639105158, 48025.896909939875, -187500.02235174447, 55067.523427906446, 66511.16955413455, 72107.97931051008, 41811.240233330755, 10571.771630259947, 60953.09537090008, 38183.0603698564, 13758.035154108424, 38789.57495565116, 0.17, 1.006, -0.02, 192.0, 2.5, 40.0, 15.5, 56.0, 127.5, 48.0, 0.0, 0.0, 0.0, 1.695422971276989E9, 0.0, 2023-09-22 17:49:31.276
64.0, -26922.497382461715, 73655.4352826399, -6362.379355714244, 19255.938441269212, 55855.86945484513, 48019.28079358111, -187500.02235174447, 55106.10253883631, 66751.49551051803, 72176.44270377669, 41795.28108778967, 10556.483037052518, 60949.63085050951, 38168.03999758244, 13896.772431942516, 38908.03920126429, 0.17, 1.006, -0.02, 192.0, 0.0, 0.0, 0.0, 0.0, 0.0, 0.0, 0.0, 0.0, 0.0, 1.695422971276993E9, 0.0, 2023-09-22 17:49:31.276
66.0, -27107.770992251753, 73528.56678111157, -6357.551378911899, 19234.123138680832, 55896.571981498244, 48034.435276321805, -187500.02235174447, 55042.31066016086, 66531.24142065542, 72105.25239768653, 41817.76694271171, 10582.880447254234, 60969.27803388573, 38199.82417819789, 13770.52977925894, 38795.498167931815, 0.17, 1.006, -0.02, 192.0, 0.0, 0.0, 0.0, 0.0, 0.0, 0.0, 0.0, 0.0, 0.0, 1.695422971276996E9, 0.0, 2023-09-22 17:49:31.276
68.0, -26951.487595020248, 73651.99311399378, -6381.959483857094, 19267.986031530625, 55876.07543183272, 48035.37404958893, -187500.02235174447, 55108.829451659854, 66703.28279772792, 72184.06464863595, 41809.20622458532, 10583.86392401027, 60956.20226337937, 38192.381047294264, 13872.721954908606, 38886.98385798739, 0.17, 1.006, -0.02, 192.0, 0.0, 0.0, 0.0, 0.0, 0.0, 0.0, 0.0, 0.0, 0.0, 1.695422971276999E9, 0.0, 2023-09-22 17:49:31.276
70.0, -27120.019748213264, 73535.54052538163, -6383.92643736916, 19236.090092192902, 55892.459260518466, 48044.158285159865, -187500.02235174447, 55060.48262840303, 66541.09853996022, 72122.1279647503, 41807.127512350984, 10587.417851378663, 60950.99430692128, 38205.52387303399, 13773.793133949415, 38800.37084822307, 0.17, 1.006, -0.02, 192.0, 0.0, 0.0, 0.0, 0.0, 0.0, 0.0, 0.0, 0.0, 0.0, 1.695422971277002E9, 0.0, 2023-09-22 17:49:31.277
72.0, -26921.916237105877, 73681.85504458607, -6394.4094055187, 19292.48354345364, 55876.96950161094, 48054.95417773178, -187500.02235174447, 55149.19670214614, 66693.78330633442, 72190.70311673917, 41805.18291058337, 10589.630674079737, 60943.66293473994, 38200.89706193174, 13883.115516080323, 38897.39977090356, 0.162, 1.006, -0.02, 192.0, 2.5, 8.0, 15.5, 56.0, 127.5, 48.0, 0.0, 0.0, 0.0, 1.695422971277006E9, 0.0, 2023-09-22 17:49:31.277
74.0, -27117.98573946783, 73542.78249058516, -6378.763184399985, 19234.346656125388, 55898.181307099025, 48056.317634143554, -187500.02235174447, 55065.69058486111, 66580.97405206849, 72138.19886901365, 41809.854425174526, 10598.549020117405, 60948.40150456447, 38217.79498073995, 13799.229419139556, 38826.94707238043, 0.162, 1.006, -0.02, 192.0, 0.0, 0.0, 0.0, 0.0, 0.0, 0.0, 0.0, 0.0, 0.0, 1.695422971337228E9, 0.0, 2023-09-22 17:49:31.337
76.0, -26907.99110031022, 73695.13198079253, -6396.443414264133, 19300.48546796864, 55887.36306278266, 48051.22143640774, -187500.02235174447, 55161.91484474121, 66673.19734969108, 72189.9431574277, 41799.438512258355, 10598.638427095226, 60943.86410044004, 38201.09822763184, 13881.617949201816, 38902.8312448062, 0.162, 1.006, -0.02, 192.0, 0.0, 0.0, 0.0, 0.0, 0.0, 0.0, 0.0, 0.0, 0.0, 1.695422971337241E9, 0.0, 2023-09-22 17:49:31.337
78.0, -27102.02659392674, 73554.71832212429, -6381.668911179175, 19216.062929160944, 55901.08703387821, 48038.10096241248, -187500.02235174447, 55064.05890751588, 66618.48027926449, 72151.14052905329, 41799.997305869736, 10600.71713932957, 60951.97778367732, 38211.760009737016, 13820.798852538926, 38844.76141271131, 0.162, 1.006, -0.02, 192.0, 0.0, 0.0, 0.0, 0.0, 0.0, 0.0, 0.0, 0.0, 0.0, 1.695422971337244E9, 0.0, 2023-09-22 17:49:31.337
80.0, -26898.536312405624, 73703.69269891891, -6397.806870675907, 19292.34943298691, 55897.17547859854, 48060.07272721204, -187500.02235174447, 55169.40267913374, 66651.5832128028, 72174.20752933115, 41798.544442480146, 10600.068938740365, 60953.83297846711, 38202.32757357688, 13878.689870678172, 38887.76616904332, 0.162, 1.006, -0.02, 192.0, 0.0, 0.0, 0.0, 0.0, 0.0, 0.0, 0.0, 0.0, 0.0, 1.695422971337247E9, 0.0, 2023-09-22 17:49:31.337
82.0, -27071.561166234158, 73575.81836889009, -6382.428870490655, 19201.735460965094, 55892.28044656282, 48043.532436315116, -187500.02235174447, 55071.07735527484, 66661.79796001887, 72143.85386036085, 41800.93607913686, 10594.995092749012, 60954.369420334035, 38210.66477425871, 13844.849329572837, 38854.015034915814, 0.166, 1.002, -0.016, 192.0, 2.5, 24.0, 15.5, 40.0, 127.5, 64.0, 0.0, 0.0, 0.0, 1.695422971337251E9, 0.0, 2023-09-22 17:49:31.337
84.0, -26882.13013197543, 73710.33116702213, -6389.581428716354, 19286.985014317634, 55900.68470247802, 48059.6927475563, -187500.02235174447, 55165.26760640951, 66637.63572426268, 72148.4806714631, 41802.858329160015, 10591.95525550309, 60953.20712962236, 38194.86209092881, 13876.253530532544, 38878.26667764982, 0.166, 1.002, -0.016, 192.0, 0.0, 0.0, 0.0, 0.0, 0.0, 0.0, 0.0, 0.0, 0.0, 1.695422971337254E9, 0.0, 2023-09-22 17:49:31.337
86.0, -27073.41636102395, 73574.92429911188, -6348.454218918589, 19183.36232702283, 55904.81977520225, 48042.14662815889, -187500.02235174447, 55042.780046794425, 66694.90089355718, 72151.52050870901, 41803.73004719377, 10588.535438601428, 60964.584167550114, 38202.953422421626, 13860.115571035813, 38856.183154127975, 0.166, 1.002, -0.016, 192.0, 0.0, 0.0, 0.0, 0.0, 0.0, 0.0, 0.0, 0.0, 0.0, 1.695422971337257E9, 0.0, 2023-09-22 17:49:31.337
88.0, -26918.697585904312, 73690.61692841255, -6371.297701751912, 19294.048165565513, 55913.53695553982, 48061.61499757946, -187500.02235174447, 55143.519359054495, 66576.28018573287, 72144.45735746114, 41810.614384486005, 10601.700616085604, 60977.01173746726, 38203.60162301083, 13837.674419602683, 38828.13171483656, 0.166, 1.002, -0.016, 192.0, 0.0, 0.0, 0.0, 0.0, 0.0, 0.0, 0.0, 0.0, 0.0, 1.69542297133726E9, 0.0, 2023-09-22 17:49:31.337
90.0, -27066.487320242803, 73585.3178602836, -6351.784628842429, 19196.95218765166, 55895.25322857538, 48044.56061656006, -187500.02235174447, 55032.11826468924, 66715.17392577814, 72171.90529965227, 41801.830148915076, 10595.732700316037, 60963.64539428299, 38205.65798350072, 13880.120382323312, 38862.128718153086, 0.166, 1.002, -0.016, 192.0, 0.0, 0.0, 0.0, 0.0, 0.0, 0.0, 0.0, 0.0, 0.0, 1.695422971396753E9, 0.0, 2023-09-22 17:49:31.396
92.0, -26949.878269419467, 73674.97070729383, -6389.916704883183, 19302.58653194744, 55903.59042925721, 48059.78215453412, -187500.02235174447, 55125.23563209005, 66539.10923470369, 72147.89952610726, 41816.761114211215, 10608.942581289122, 60973.055478698676, 38212.05058241494, 13818.49662286003, 38806.830502370656, 0.168, 1.008, -0.016, 192.0, 2.5, 32.0, 15.5, 64.0, 127.5, 64.0, 0.0, 0.0, 0.0, 1.695422971396762E9, 0.0, 2023-09-22 17:49:31.396
94.0, -27071.382352278513, 73590.90579639743, -6360.770030113463, 19202.47306853212, 55891.475783762435, 48044.3370991155, -187500.02235174447, 55025.77036926393, 66723.1982020376, 72188.22207310464, 41800.53374773666, 10597.744357317015, 60958.79506573619, 38210.97769868108, 13884.434269003186, 38869.43773858997, 0.168, 1.008, -0.016, 192.0, 0.0, 0.0, 0.0, 0.0, 0.0, 0.0, 0.0, 0.0, 0.0, 1.695422971396766E9, 0.0, 2023-09-22 17:49:31.396
96.0, -26990.737258283767, 73651.79194829368, -6401.897239911228, 19299.144363301322, 55904.21627810196, 48064.81129703657, -187500.02235174447, 55117.233707575055, 66500.97715866294, 72136.00839805703, 41807.328678051075, 10604.941619031622, 60968.3392606186, 38216.49857956154, 13791.942750447126, 38791.27368822976, 0.168, 1.008, -0.016, 192.0, 0.0, 0.0, 0.0, 0.0, 0.0, 0.0, 0.0, 0.0, 0.0, 1.695422971396769E9, 0.0, 2023-09-22 17:49:31.396
98.0, -27043.912058342943, 73612.00584316324, -6382.898257124217, 19211.10084189187, 55880.25520804587, 48044.62767179342, -187500.02235174447, 55048.39033465271, 66737.36920802227, 72183.19293060219, 41783.85934637301, 10586.412022878174, 60948.20033886437, 38208.25078585753, 13894.067870863424, 38882.51350909633, 0.168, 1.008, -0.016, 192.0, 0.0, 0.0, 0.0, 0.0, 0.0, 0.0, 0.0, 0.0, 0.0, 1.695422971396772E9, 0.0, 2023-09-22 17:49:31.396
100.0, -27019.615712120023, 73630.44603233886, -6402.5230887559765, 19284.593377660916, 55901.958751911974, 48063.4925441137, -187500.02235174447, 55104.58262021335, 66495.65744348257, 72119.80338332694, 41797.38215176847, 10599.487793384527, 60960.49379831479, 38213.25757661552, 13788.478230056553, 38795.29700223172, 0.168, 1.008, -0.016, 192.0, 0.0, 0.0, 0.0, 0.0, 0.0, 0.0, 0.0, 0.0, 0.0, 1.695422971396776E9, 0.0, 2023-09-22 17:49:31.396
102.0, -26997.643947320455, 73644.92996274591, -6385.714576925586, 19217.538144294995, 55868.85581837366, 48036.22341587823, -187500.02235174447, 55073.6478058872, 66759.89976643321, 72190.16667487225, 41781.69122716084, 10580.265293152965, 60947.44037955289, 38191.777550193976, 13914.743234484582, 38906.094599496675, 0.168, 1.006, -0.016, 192.0, 2.5, 32.0, 15.5, 56.0, 127.5, 64.0, 0.0, 0.0, 0.0, 1.695422971396779E9, 0.0, 2023-09-22 17:49:31.396
104.0, -27031.372729703515, 73621.17005838991, -6394.767033429985, 19261.638136105317, 55898.65069373258, 48053.590721320004, -187500.02235174447, 55099.57582945536, 66508.42028956655, 72112.38260416778, 41795.37049476749, 10589.988301991023, 60961.25375762627, 38196.247899085036, 13794.267331870476, 38799.901461589514, 0.168, 1.006, -0.016, 192.0, 0.0, 0.0, 0.0, 0.0, 0.0, 0.0, 0.0, 0.0, 0.0, 1.695422971456332E9, 0.0, 2023-09-22 17:49:31.456
106.0, -26946.860783918, 73679.57516665163, -6380.6854344231415, 19223.126080408823, 55864.273710760324, 48027.41682856284, -187500.02235174447, 55100.805175400405, 66778.98815619804, 72187.26094809306, 41783.94875335083, 10577.225455907042, 60946.6357167525, 38176.69012268664, 13929.674199780728, 38916.53286415731, 0.168, 1.006, -0.016, 192.0, 0.0, 0.0, 0.0, 0.0, 0.0, 0.0, 0.0, 0.0, 0.0, 1.695422971456344E9, 0.0, 2023-09-22 17:49:31.456
108.0, -27046.616619422035, 73606.21674134932, -6360.412402202178, 19246.394246386797, 55909.379531071136, 48052.56254107506, -187500.02235174447, 55086.83533511584, 66528.67097004307, 72102.32431916289, 41803.99826812724, 10592.223476436553, 60966.66287978445, 38194.30329731743, 13797.217762138578, 38799.43207495595, 0.168, 1.006, -0.016, 192.0, 0.0, 0.0, 0.0, 0.0, 0.0, 0.0, 0.0, 0.0, 0.0, 1.695422971456347E9, 0.0, 2023-09-22 17:49:31.456
110.0, -26928.37589125346, 73686.23598649932, -6354.936224810627, 19238.302914893975, 55882.75860342486, 48038.50329381267, -187500.02235174447, 55107.53305048145, 66765.75592348051, 72182.00828814605, 41789.67079993139, 10581.76286003147, 60962.147827404486, 38181.24987855552, 13924.80151948947, 38909.737933842895, 0.168, 1.006, -0.016, 192.0, 0.0, 0.0, 0.0, 0.0, 0.0, 0.0, 0.0, 0.0, 0.0, 1.695422971456351E9, 0.0, 2023-09-22 17:49:31.456
112.0, -27053.813881136644, 73589.117656841, -6357.529027167443, 19233.184365413712, 55906.362045569665, 48050.14855267388, -187500.02235174447, 55071.61379714177, 66537.63401956964, 72093.5177318475, 41784.686360917854, 10577.38191811823, 60968.96510946335, 38189.743541448544, 13811.58993382334, 38806.562281437196, 0.162, 1.008, -0.02, 192.0, 2.5, 8.0, 15.5, 64.0, 127.5, 48.0, 0.0, 0.0, 0.0, 1.695422971456354E9, 0.0, 2023-09-22 17:49:31.456
114.0, -26887.40514366688, 73709.57120771066, -6376.349195998811, 19255.267888935556, 55872.454449230965, 48049.00861370667, -187500.02235174447, 55129.594222258835, 66751.36140005129, 72172.88877640829, 41777.1091195475, 10571.056374437378, 60959.44326632539, 38178.210041309605, 13932.37876085982, 38915.974070545926, 0.162, 1.008, -0.02, 192.0, 0.0, 0.0, 0.0, 0.0, 0.0, 0.0, 0.0, 0.0, 0.0, 1.695422971456357E9, 0.0, 2023-09-22 17:49:31.456
116.0, -27042.816822864632, 73593.99033713226, -6370.582445929343, 19229.00458920057, 55893.33097855222, 48056.33998588801, -187500.02235174447, 55073.960730309576, 66567.11597050619, 72104.33597616387, 41781.93709634985, 10571.659871537671, 60958.52684480272, 38189.00593388152, 13826.364436908298, 38827.505865991814, 0.162, 1.008, -0.02, 192.0, 0.0, 0.0, 0.0, 0.0, 0.0, 0.0, 0.0, 0.0, 0.0, 1.69542297145636E9, 0.0, 2023-09-22 17:49:31.456
118.0, -26873.88233827142, 73718.02016711477, -6372.616454674775, 19264.230938462133, 55873.14735330908, 48060.83268652352, -187500.02235174447, 55135.7633037285, 66743.73945519203, 72179.99663114508, 41783.16644229489, 10575.794944261903, 60955.06232441215, 38183.70857044561, 13937.385551617808, 38920.53382641481, 0.162, 1.008, -0.02, 192.0, 0.0, 0.0, 0.0, 0.0, 0.0, 0.0, 0.0, 0.0, 0.0, 1.695422971456363E9, 0.0, 2023-09-22 17:49:31.456
120.0, -27072.87991915702, 73571.83975837706, -6372.16941978567, 19222.321417608433, 55894.44856577499, 48064.140744702905, -187500.02235174447, 55054.06767774435, 66573.57562465378, 72119.84808681585, 41794.364666267, 10587.887238012223, 60963.71244951635, 38209.68129750268, 13815.702654803117, 38817.53698796475, 0.162, 1.008, -0.02, 192.0, 0.0, 0.0, 0.0, 0.0, 0.0, 0.0, 0.0, 0.0, 0.0, 1.695422971516619E9, 0.0, 2023-09-22 17:49:31.516
122.0, -26841.762881489147, 73734.87338243406, -6401.092577110837, 19295.43397372174, 55870.59925444118, 48063.42548888034, -187500.02235174447, 55150.60486204683, 66708.73662337502, 72176.19683458768, 41774.203392768315, 10573.559769816371, 60947.306269086155, 38187.93305014766, 13921.716978754637, 38908.7321053424, 0.166, 1.01, -0.022, 192.0, 2.5, 24.0, 15.5, 72.0, 127.5, 40.0, 0.0, 0.0, 0.0, 1.695422971516628E9, 0.0, 2023-09-22 17:49:31.516
124.0, -27074.01985812424, 73564.17311002887, -6362.155838269692, 19208.59744651287, 55897.53310650982, 48060.63152082342, -187500.02235174447, 55030.35247687728, 66620.8272124323, 72120.2727699605, 41773.3093229901, 10575.034984950422, 60952.290708099696, 38202.819311954896, 13843.59763188334, 38837.89942716354, 0.166, 1.01, -0.022, 192.0, 0.0, 0.0, 0.0, 0.0, 0.0, 0.0, 0.0, 0.0, 0.0, 1.695422971516632E9, 0.0, 2023-09-22 17:49:31.516
126.0, -26870.775445792133, 73718.13192583703, -6389.044986849426, 19291.522418442062, 55880.232856301416, 48065.057166225575, -187500.02235174447, 55134.82453046138, 66664.25665190896, 72167.32319203892, 41786.80977664111, 10589.362453146274, 60961.5890337931, 38196.91845141869, 13884.590731214374, 38879.78659627278, 0.166, 1.01, -0.022, 192.0, 0.0, 0.0, 0.0, 0.0, 0.0, 0.0, 0.0, 0.0, 0.0, 1.695422971516635E9, 0.0, 2023-09-22 17:49:31.516
128.0, -27044.046168809673, 73588.44710450734, -6372.459992463589, 19207.882190690303, 55876.3883562551, 48040.582006047014, -187500.02235174447, 55040.880148515724, 66646.79993948936, 72134.08614803388, 41778.07024455908, 10576.286682639919, 60949.49674004278, 38189.45296877062, 13855.891091333759, 38855.80317447224, 0.166, 1.01, -0.022, 192.0, 0.0, 0.0, 0.0, 0.0, 0.0, 0.0, 0.0, 0.0, 0.0, 1.695422971516638E9, 0.0, 2023-09-22 17:49:31.516
130.0, -26866.238041667708, 73718.28838804823, -6378.047928577415, 19286.850903850904, 55884.63614995911, 48056.78702077711, -187500.02235174447, 55125.414446045696, 66646.50936681144, 72154.9850290996, 41785.04398882914, 10585.652063566693, 60964.025373938726, 38183.77562567897, 13886.46827774862, 38880.61361081763, 0.166, 1.01, -0.022, 192.0, 0.0, 0.0, 0.0, 0.0, 0.0, 0.0, 0.0, 0.0, 0.0, 1.695422971516642E9, 0.0, 2023-09-22 17:49:31.516
132.0, -27066.01793360924, 73573.22556653328, -6354.869169577261, 19183.474085745107, 55885.28435054831, 48032.22245362073, -187500.02235174447, 55006.0337789099, 66665.95538448756, 72144.03267431649, 41776.12564279147, 10577.136048929222, 60961.90195821547, 38185.474358257576, 13843.93290805017, 38847.30951157922, 0.168, 1.012, -0.02, 192.0, 2.5, 32.0, 15.5, 80.0, 127.5, 48.0, 0.0, 0.0, 0.0, 1.695422971516645E9, 0.0, 2023-09-22 17:49:31.516
134.0, -26893.97655653674, 73701.07754481764, -6375.544533198421, 19281.218264248164, 55895.3426355532, 48048.494523584195, -187500.02235174447, 55122.97810590007, 66596.95554935402, 72144.61381967233, 41774.29279974614, 10581.584046075826, 60962.79602799369, 38175.17020406368, 13842.390637682753, 38839.329938808674, 0.168, 1.012, -0.02, 192.0, 0.0, 0.0, 0.0, 0.0, 0.0, 0.0, 0.0, 0.0, 0.0, 1.695422971576973E9, 0.0, 2023-09-22 17:49:31.576
136.0, -27052.182203791406, 73583.57442421609, -6365.9556348270935, 19184.770486923517, 55880.3893185126, 48026.56746227354, -187500.02235174447, 55031.42536061113, 66693.47038191205, 72143.80915687194, 41775.76801488019, 10579.550037330395, 60958.66095526946, 38179.037055854445, 13861.926062336692, 38854.573828527195, 0.168, 1.012, -0.02, 192.0, 0.0, 0.0, 0.0, 0.0, 0.0, 0.0, 0.0, 0.0, 0.0, 1.695422971576987E9, 0.0, 2023-09-22 17:49:31.576
138.0, -26913.95901607979, 73683.93375682042, -6399.729120699063, 19285.800371861504, 55884.77026042584, 48049.27683464013, -187500.02235174447, 55128.43193154716, 66565.66310711659, 72131.11336602132, 41773.06345380109, 10580.66762455316, 60960.06911517014, 38175.63959069724, 13826.319733419388, 38823.99664211233, 0.168, 1.012, -0.02, 192.0, 0.0, 0.0, 0.0, 0.0, 0.0, 0.0, 0.0, 0.0, 0.0, 1.695422971576991E9, 0.0, 2023-09-22 17:49:31.576
140.0, -27011.30086318265, 73602.372241303, -6392.26363805099, 19188.65969045874, 55852.13671352109, 48021.87359593792, -187500.02235174447, 55043.80822703937, 66736.34102777732, 72150.31351450844, 41756.67962511535, 10558.56174928686, 60940.91367017194, 38163.30142775791, 13885.641263203772, 38882.401750374054, 0.168, 1.012, -0.02, 192.0, 0.0, 0.0, 0.0, 0.0, 0.0, 0.0, 0.0, 0.0, 0.0, 1.695422971576994E9, 0.0, 2023-09-22 17:49:31.576
142.0, -26899.072754272554, 73676.53532940571, -6407.596934747331, 19285.71096488368, 55877.19301905549, 48055.73648878771, -187500.02235174447, 55131.53882402645, 66569.30644146282, 72102.88311277427, 41757.37252919347, 10563.367374344753, 60947.77565571972, 38165.1566225477, 13832.287649188955, 38834.07727886168, 0.162, 1.014, -0.022, 192.0, 2.5, 8.0, 15.5, 88.0, 127.5, 40.0, 0.0, 0.0, 0.0, 1.695422971576998E9, 0.0, 2023-09-22 17:49:31.576
144.0, -26982.042429690653, 73610.86590419602, -6381.758318156996, 19195.0299376285, 55862.50792294835, 48037.56452054555, -187500.02235174447, 55050.75961956497, 66769.55572003791, 72152.8839651208, 41753.32686344706, 10557.958252186567, 60942.32183007262, 38169.805785394405, 13905.109632624344, 38897.82445404821, 0.162, 1.014, -0.022, 192.0, 0.0, 0.0, 0.0, 0.0, 0.0, 0.0, 0.0, 0.0, 0.0, 1.695422971577001E9, 0.0, 2023-09-22 17:49:31.577
146.0, -26948.33599905205, 73636.77157601972, -6397.31513229789, 19279.899511325304, 55889.799402928285, 48068.61109359397, -187500.02235174447, 55111.33284703885, 66535.5553073353, 72097.40693538272, 41767.18494500935, 10571.771630259947, 60957.453961068866, 38184.37912277927, 13801.799869751916, 38808.73040064936, 0.162, 1.014, -0.022, 192.0, 0.0, 0.0, 0.0, 0.0, 0.0, 0.0, 0.0, 0.0, 0.0, 1.695422971577005E9, 0.0, 2023-09-22 17:49:31.577
148.0, -26972.878214463977, 73616.94557868787, -6375.678643665153, 19207.479859290106, 55861.68090840351, 48037.74333450119, -187500.02235174447, 55055.27467194494, 66769.28749910445, 72153.95684885465, 41756.97019779327, 10556.661851008159, 60941.67362948342, 38174.566706963386, 13902.27096107852, 38902.13834072809, 0.162, 1.014, -0.022, 192.0, 0.0, 0.0, 0.0, 0.0, 0.0, 0.0, 0.0, 0.0, 0.0, 1.695422971577009E9, 0.0, 2023-09-22 17:49:31.577
150.0, -26974.77811274268, 73615.4256600649, -6392.93419038465, 19270.847054820904, 55880.72459467943, 48056.92113124384, -187500.02235174447, 55090.52337295096, 66515.37168209215, 72085.53815907695, 41774.27044800168, 10568.910606969668, 60954.861158712054, 38178.03122735396, 13784.611378265785, 38799.63324065605, 0.162, 1.014, -0.022, 192.0, 0.0, 0.0, 0.0, 0.0, 0.0, 0.0, 0.0, 0.0, 0.0, 1.69542297163731E9, 0.0, 2023-09-22 17:49:31.637
152.0, -26932.04157734413, 73645.77932903521, -6379.210219289091, 19215.750004738573, 55846.50407391835, 48031.909529198354, -187500.02235174447, 55070.96559655257, 66784.9113684787, 72151.11817730882, 41753.81860182507, 10558.517045797951, 60938.00794339275, 38159.00989282249, 13914.854993206858, 38918.52216941383, 0.168, 1.01, -0.024, 192.0, 2.5, 32.0, 15.5, 72.0, 127.5, 32.0, 0.0, 0.0, 0.0, 1.69542297163732E9, 0.0, 2023-09-22 17:49:31.637
154.0, -26986.333964626072, 73606.06027913812, -6377.332672754846, 19253.390342401308, 55879.36113826765, 48049.969738718246, -187500.02235174447, 55078.58754141183, 66533.4542433565, 72074.13876940474, 41774.069282301585, 10575.884351239723, 60955.03997266769, 38171.79509065093, 13790.512238801986, 38805.33293549215, 0.168, 1.01, -0.024, 192.0, 0.0, 0.0, 0.0, 0.0, 0.0, 0.0, 0.0, 0.0, 0.0, 1.695422971637324E9, 0.0, 2023-09-22 17:49:31.637
156.0, -26905.957091564786, 73662.09610248759, -6364.368660970767, 19225.361254854353, 55844.87239657312, 48033.92118619933, -187500.02235174447, 55075.45829718808, 66782.98911845555, 72160.34944776887, 41763.96629380778, 10571.101077926289, 60947.61919350853, 38158.31698874438, 13916.553725785463, 38915.90701531256, 0.168, 1.01, -0.024, 192.0, 0.0, 0.0, 0.0, 0.0, 0.0, 0.0, 0.0, 0.0, 0.0, 1.695422971637327E9, 0.0, 2023-09-22 17:49:31.637
158.0, -26990.178464672383, 73599.377107546, -6377.131507054747, 19254.843205790905, 55873.10264982017, 48054.61890156495, -187500.02235174447, 55077.62641640025, 66533.72246428997, 72081.47014158609, 41773.55519217911, 10584.71329029957, 60961.25375762627, 38176.08662558635, 13788.969968434569, 38798.62741215556, 0.168, 1.01, -0.024, 192.0, 0.0, 0.0, 0.0, 0.0, 0.0, 0.0, 0.0, 0.0, 0.0, 1.69542297163733E9, 0.0, 2023-09-22 17:49:31.637
160.0, -26861.208899165264, 73684.76077136527, -6372.504695952499, 19243.779092285527, 55845.38648669559, 48040.42554383583, -187500.02235174447, 55097.027730587455, 66797.1154209513, 72162.07053209192, 41761.28408447315, 10565.334327856819, 60945.719295229836, 38157.60173292181, 13942.593508075895, 38929.94391083049, 0.168, 1.01, -0.024, 192.0, 0.0, 0.0, 0.0, 0.0, 0.0, 0.0, 0.0, 0.0, 0.0, 1.695422971637333E9, 0.0, 2023-09-22 17:49:31.637
162.0, -27032.937351815388, 73561.40149371642, -6370.850666862806, 19234.436063103207, 55875.87426613263, 48056.20587542128, -187500.02235174447, 55033.816997267844, 66549.07811273076, 72084.50997883201, 41793.40354125542, 10586.90376125619, 60969.345089119095, 38187.8659949143, 13788.969968434569, 38793.84413884213, 0.176, 1.01, -0.026000000000000002, 192.0, 2.5, 64.0, 15.5, 72.0, 127.5, 24.0, 0.0, 0.0, 0.0, 1.695422971637337E9, 0.0, 2023-09-22 17:49:31.637
164.0, -26867.64620156839, 73681.40800969697, -6386.139260070237, 19258.643002348304, 55839.753847092856, 48049.7909247626, -187500.02235174447, 55081.20269551309, 66761.0620571449, 72166.76439842753, 41782.89822136143, 10579.281816396931, 60956.604594779565, 38166.07304407037, 13905.55666751345, 38899.27731743781, 0.176, 1.01, -0.026000000000000002, 192.0, 0.0, 0.0, 0.0, 0.0, 0.0, 0.0, 0.0, 0.0, 0.0, 1.695422971696669E9, 0.0, 2023-09-22 17:49:31.696
166.0, -27050.59522993508, 73554.20423200181, -6375.946864598616, 19227.685836277706, 55864.139600293594, 48048.092192184, -187500.02235174447, 54998.948275917566, 66578.64947064513, 72093.83065626987, 41786.40744524091, 10583.685110054626, 60962.34899310458, 38174.767872663484, 13789.975796935058, 38796.36988596558, 0.176, 1.01, -0.026000000000000002, 192.0, 0.0, 0.0, 0.0, 0.0, 0.0, 0.0, 0.0, 0.0, 0.0, 1.695422971696682E9, 0.0, 2023-09-22 17:49:31.696
168.0, -26886.578129122037, 73679.35164920708, -6379.366681500278, 19279.653642136294, 55843.1289605056, 48054.32832888703, -187500.02235174447, 55060.28146270293, 66731.2001265526, 72160.86353789133, 41784.52989870666, 10590.502392113494, 60960.180873892416, 38177.18186106466, 13879.002795100547, 38880.993590473365, 0.176, 1.01, -0.026000000000000002, 192.0, 0.0, 0.0, 0.0, 0.0, 0.0, 0.0, 0.0, 0.0, 0.0, 1.695422971696686E9, 0.0, 2023-09-22 17:49:31.696
170.0, -27077.21615758135, 73544.74944409722, -6376.572713443365, 19232.04442644649, 55853.20959725495, 48049.9920904627, -187500.02235174447, 54997.02602589441, 66588.39483122765, 72103.6654238302, 41784.97693359577, 10588.33427290133, 60958.81741748064, 38184.13325359026, 13782.242093353521, 38806.003487825816, 0.176, 1.01, -0.026000000000000002, 192.0, 0.0, 0.0, 0.0, 0.0, 0.0, 0.0, 0.0, 0.0, 0.0, 1.695422971696689E9, 0.0, 2023-09-22 17:49:31.696
172.0, -26870.73074230322, 73692.87445460254, -6390.319036283378, 19286.24740675061, 55833.49535864536, 48046.48286658322, -187500.02235174447, 55091.17157354017, 66707.70844313008, 72156.0802645779, 41778.07024455908, 10577.448973351595, 60950.033181909705, 38155.344206731825, 13883.36138526933, 38894.09171272418, 0.17400000000000002, 1.0, -0.02, 192.0, 2.5, 56.0, 15.5, 32.0, 127.5, 48.0, 0.0, 0.0, 0.0, 1.695422971696692E9, 0.0, 2023-09-22 17:49:31.696
174.0, -27086.715648974856, 73536.90398179341, -6363.698108637108, 19200.61787374233, 55851.555568165255, 48034.25646236616, -187500.02235174447, 54996.757804960944, 66624.78347120089, 72101.67611857368, 41783.99345683974, 10578.879484996734, 60956.31402210165, 38163.390834735736, 13809.175945422166, 38822.54377872274, 0.17400000000000002, 1.0, -0.02, 192.0, 0.0, 0.0, 0.0, 0.0, 0.0, 0.0, 0.0, 0.0, 0.0, 1.695422971696695E9, 0.0, 2023-09-22 17:49:31.696
176.0, -26891.406105924383, 73680.13396026302, -6379.545495455921, 19279.787752603024, 55847.778123352306, 48044.65002353788, -187500.02235174447, 55100.06756783338, 66667.89998625517, 72134.44377594517, 41783.12173880598, 10579.997072219501, 60958.68330701391, 38149.041014795424, 13865.859969360825, 38862.77691874229, 0.17400000000000002, 1.0, -0.02, 192.0, 0.0, 0.0, 0.0, 0.0, 0.0, 0.0, 0.0, 0.0, 0.0, 1.695422971696699E9, 0.0, 2023-09-22 17:49:31.696
178.0, -27061.92756437392, 73554.69597037983, -6368.414326717178, 19194.538199250484, 55848.09104777468, 48020.376029059415, -187500.02235174447, 55006.145537632176, 66665.62010832073, 72108.89573203275, 41773.286971245645, 10567.90477846918, 60951.97778367732, 38150.002139807, 13831.34887592183, 38834.50196200633, 0.17400000000000002, 1.0, -0.02, 192.0, 0.0, 0.0, 0.0, 0.0, 0.0, 0.0, 0.0, 0.0, 0.0, 1.695422971696702E9, 0.0, 2023-09-22 17:49:31.696
180.0, -26888.36626867846, 73683.66553588695, -6380.730137912052, 19281.732354370637, 55858.35049847967, 48047.8910264839, -187500.02235174447, 55099.888753877734, 66649.43744533509, 72125.01133978502, 41774.73983463524, 10573.939749472112, 60958.48214131381, 38147.90107582821, 13860.763771625016, 38861.078186163686, 0.17400000000000002, 1.0, -0.02, 192.0, 0.0, 0.0, 0.0, 0.0, 0.0, 0.0, 0.0, 0.0, 0.0, 1.695422971756478E9, 0.0, 2023-09-22 17:49:31.756
182.0, -27060.07236958413, 73556.23824074725, -6373.331710497345, 19188.0785451029, 55841.87726281611, 48028.57911927452, -187500.02235174447, 55003.10570038625, 66692.12927724472, 72124.85487757385, 41758.84774432752, 10569.178827903132, 60949.899071442975, 38153.5560671754, 13847.196262740645, 38854.59618027165, 0.17400000000000002, 1.002, -0.022, 192.0, 2.5, 56.0, 15.5, 40.0, 127.5, 40.0, 0.0, 0.0, 0.0, 1.695422971756488E9, 0.0, 2023-09-22 17:49:31.756
184.0, -26875.6928295723, 73683.01733529774, -6406.412292291199, 19282.693479382215, 55841.76550409383, 48051.57906431903, -187500.02235174447, 55116.451396519114, 66624.53760201187, 72116.62943561429, 41751.73988959073, 10559.925205698635, 60941.785388205695, 38138.33452920133, 13856.963975067614, 38863.76039549833, 0.17400000000000002, 1.002, -0.022, 192.0, 0.0, 0.0, 0.0, 0.0, 0.0, 0.0, 0.0, 0.0, 0.0, 1.695422971756491E9, 0.0, 2023-09-22 17:49:31.756
186.0, -27050.371712490527, 73557.28877273665, -6378.673777422164, 19180.70246943265, 55836.51284414683, 48036.02225017813, -187500.02235174447, 55002.27868584141, 66717.67732115714, 72127.20181074165, 41756.32199720407, 10556.237167863508, 60945.361667318546, 38152.72905263055, 13859.042687301957, 38863.60393328714, 0.17400000000000002, 1.002, -0.022, 192.0, 0.0, 0.0, 0.0, 0.0, 0.0, 0.0, 0.0, 0.0, 0.0, 1.695422971756494E9, 0.0, 2023-09-22 17:49:31.756
188.0, -26914.47310620226, 73657.24577394078, -6401.561963744398, 19290.963624830678, 55849.11922801963, 48062.397308635394, -187500.02235174447, 55100.84987888931, 66573.57562465378, 72103.62072034129, 41760.8594013285, 10562.56271154436, 60951.06136215465, 38153.08668054184, 13820.35181764982, 38831.81975267169, 0.17400000000000002, 1.002, -0.022, 192.0, 0.0, 0.0, 0.0, 0.0, 0.0, 0.0, 0.0, 0.0, 0.0, 1.695422971756498E9, 0.0, 2023-09-22 17:49:31.756
190.0, -27020.44272666487, 73576.33245901257, -6371.208294774091, 19201.824867942916, 55830.2767074438, 48038.30212811258, -187500.02235174447, 55020.5847645503, 66747.4498447716, 72134.30966547843, 41753.97506403626, 10558.025307419934, 60940.06430388264, 38151.18678226314, 13884.590731214374, 38887.989686487876, 0.17400000000000002, 1.002, -0.022, 192.0, 0.0, 0.0, 0.0, 0.0, 0.0, 0.0, 0.0, 0.0, 0.0, 1.695422971756501E9, 0.0, 2023-09-22 17:49:31.756
192.0, -26928.733519164743, 73645.46640461283, -6389.089690338336, 19298.943197601224, 55851.28734723179, 48056.96583473276, -187500.02235174447, 55115.199698829616, 66549.59220285324, 72088.84621725634, 41775.231573013254, 10574.856170994779, 60955.17408313443, 38153.22079100857, 13811.433471612154, 38818.38635425405, 0.17400000000000002, 1.006, -0.02, 192.0, 2.5, 56.0, 15.5, 56.0, 127.5, 48.0, 0.0, 0.0, 0.0, 1.695422971756504E9, 0.0, 2023-09-22 17:49:31.756
194.0, -27020.82270632061, 73578.61233694702, -6351.8069805868845, 19202.964806910135, 55828.265050442824, 48032.80359897657, -187500.02235174447, 55027.379694864714, 66758.73747572154, 72146.67018016221, 41767.49786943172, 10567.033060435422, 60947.41802780844, 38141.73199435854, 13893.620835974318, 38892.75060805686, 0.17400000000000002, 1.006, -0.02, 192.0, 0.0, 0.0, 0.0, 0.0, 0.0, 0.0, 0.0, 0.0, 0.0, 1.69542297181673E9, 0.0, 2023-09-22 17:49:31.816
196.0, -26990.893720494954, 73605.79205820466, -6373.242303519524, 19290.42718296375, 55853.12019027713, 48049.76857301815, -187500.02235174447, 55092.73619565203, 66505.78278372083, 72088.4662376006, 41787.212108041305, 10583.171019932153, 60968.62983329652, 38151.96909331907, 13775.827142694849, 38790.08904577363, 0.17400000000000002, 1.006, -0.02, 192.0, 0.0, 0.0, 0.0, 0.0, 0.0, 0.0, 0.0, 0.0, 0.0, 1.695422971816743E9, 0.0, 2023-09-22 17:49:31.816
198.0, -26994.179426929884, 73607.35668031653, -6352.321070709357, 19218.499269306572, 55823.794701551764, 48021.158340115355, -187500.02235174447, 55049.686735831114, 66763.8113217129, 72154.67210467721, 41764.92741881936, 10562.518008055451, 60949.273222598225, 38129.88556979723, 13896.951245898157, 38899.76905581583, 0.17400000000000002, 1.006, -0.02, 192.0, 0.0, 0.0, 0.0, 0.0, 0.0, 0.0, 0.0, 0.0, 0.0, 1.695422971816747E9, 0.0, 2023-09-22 17:49:31.816
200.0, -26991.988955973266, 73611.35764257403, -6375.87980936525, 19281.307671225986, 55848.73924836388, 48032.37891583192, -187500.02235174447, 55092.91500960768, 66524.44649034101, 72085.85108349932, 41782.96527659479, 10577.583083818326, 60960.650260525974, 38138.490991412524, 13792.367433591777, 38804.77414188077, 0.17400000000000002, 1.006, -0.02, 192.0, 0.0, 0.0, 0.0, 0.0, 0.0, 0.0, 0.0, 0.0, 0.0, 1.69542297181675E9, 0.0, 2023-09-22 17:49:31.816
202.0, -26931.169859310372, 73649.66853257043, -6370.381280229245, 19227.641132788794, 55813.33408514668, 48011.144758599374, -187500.02235174447, 55073.15606750919, 66805.67613907768, 72160.37179951332, 41757.52899140465, 10557.310051597364, 60939.907841671455, 38116.183950446124, 13938.23491790711, 38929.20630326346, 0.182, 1.004, -0.026000000000000002, 192.0, 2.5, 88.0, 15.5, 48.0, 127.5, 24.0, 0.0, 0.0, 0.0, 1.695422971816763E9, 0.0, 2023-09-22 17:49:31.816
204.0, -27007.00932824723, 73594.616185977, -6388.0838618378475, 19255.200833702187, 55846.83935008518, 48036.13400890041, -187500.02235174447, 55073.06666053137, 66541.47851961595, 72082.20774915311, 41770.73887237774, 10573.023327949444, 60953.65416451146, 38137.61927337877, 13803.29743663042, 38802.002525568314, 0.182, 1.004, -0.026000000000000002, 192.0, 0.0, 0.0, 0.0, 0.0, 0.0, 0.0, 0.0, 0.0, 0.0, 1.695422971816767E9, 0.0, 2023-09-22 17:49:31.816
206.0, -26924.352577251506, 73652.35074190507, -6388.150917071213, 19233.921972980737, 55815.077521214196, 48021.44891279327, -187500.02235174447, 55074.296006476405, 66776.84238873034, 72160.30474427996, 41754.422098925366, 10566.720136013048, 60942.45594053936, 38129.57264537486, 13911.636342005295, 38899.07615173771, 0.182, 1.004, -0.026000000000000002, 192.0, 0.0, 0.0, 0.0, 0.0, 0.0, 0.0, 0.0, 0.0, 0.0, 1.69542297181677E9, 0.0, 2023-09-22 17:49:31.816
208.0, -27028.82463083561, 73574.5666712006, -6394.498812496521, 19251.155167955778, 55836.468140657926, 48038.54799730158, -187500.02235174447, 55053.86651204425, 66538.81866202578, 72078.6091182958, 41760.0547385281, 10567.27892962443, 60946.52395803022, 38137.61927337877, 13781.482134042042, 38790.469025429375, 0.182, 1.004, -0.026000000000000002, 192.0, 0.0, 0.0, 0.0, 0.0, 0.0, 0.0, 0.0, 0.0, 0.0, 1.695422971816773E9, 0.0, 2023-09-22 17:49:31.816
210.0, -26905.800629353602, 73660.33031467561, -6393.291818295935, 19252.67508657874, 55809.71310254492, 48034.569386788535, -187500.02235174447, 55081.783840868935, 66764.57128102437, 72160.72942742461, 41753.59508438052, 10564.440258078606, 60940.42193179393, 38139.58622689083, 13901.46629827813, 38899.29966918226, 0.182, 1.004, -0.026000000000000002, 192.0, 0.0, 0.0, 0.0, 0.0, 0.0, 0.0, 0.0, 0.0, 0.0, 1.69542297187745E9, 0.0, 2023-09-22 17:49:31.877
212.0, -27084.681640229424, 73526.39866189941, -6385.066376336382, 19234.011379958556, 55839.038591270284, 48046.102886927474, -187500.02235174447, 55024.27280238543, 66536.35997013569, 72083.39239160925, 41755.98672103724, 10566.966005202057, 60946.2333853523, 38158.18287827765, 13767.467590268565, 38791.13957776303, 0.178, 0.998, -0.016, 192.0, 2.5, 72.0, 15.5, 24.0, 127.5, 64.0, 0.0, 0.0, 0.0, 1.69542297187746E9, 0.0, 2023-09-22 17:49:31.877
214.0, -26895.340012948516, 73662.81135831015, -6395.147013085725, 19274.24451997811, 55807.74614903285, 48040.246729880186, -187500.02235174447, 55107.42129175917, 66724.8969346162, 72157.60018320086, 41744.564979620576, 10562.38389758872, 60937.11387361454, 38142.98369204804, 13879.963920112124, 38897.75739881485, 0.178, 0.998, -0.016, 192.0, 0.0, 0.0, 0.0, 0.0, 0.0, 0.0, 0.0, 0.0, 0.0, 1.695422971877464E9, 0.0, 2023-09-22 17:49:31.877
216.0, -27069.72832318882, 73534.71351083678, -6376.237437276535, 19236.492423593096, 55827.41568415352, 48039.039735679595, -187500.02235174447, 55038.309697903365, 66569.64171762964, 72085.00171721002, 41750.13056398995, 10562.987394689011, 60938.32086781513, 38142.469601925564, 13787.651215511707, 38814.47479897437, 0.178, 0.998, -0.016, 192.0, 0.0, 0.0, 0.0, 0.0, 0.0, 0.0, 0.0, 0.0, 0.0, 1.695422971877467E9, 0.0, 2023-09-22 17:49:31.877
218.0, -26892.881321058434, 73664.6889048444, -6377.600893688309, 19280.01127004758, 55809.57899207819, 48041.565482803046, -187500.02235174447, 55112.02575111696, 66711.61999840975, 72141.41752021523, 41756.232590226246, 10568.95531045858, 60943.28295508421, 38132.411316920676, 13879.628643945294, 38896.34923891416, 0.178, 0.998, -0.016, 192.0, 0.0, 0.0, 0.0, 0.0, 0.0, 0.0, 0.0, 0.0, 0.0, 1.69542297187747E9, 0.0, 2023-09-22 17:49:31.877
220.0, -27079.11605586005, 73524.72228106526, -6366.268559249468, 19222.85785947536, 55821.648934084056, 48032.37891583192, -187500.02235174447, 55039.27082291494, 66586.56198818231, 72084.42057185419, 41758.400709438414, 10566.586025546316, 60945.384019063, 38141.150849002704, 13784.834895710337, 38814.92183386348, 0.178, 0.998, -0.016, 192.0, 0.0, 0.0, 0.0, 0.0, 0.0, 0.0, 0.0, 0.0, 0.0, 1.695422971877473E9, 0.0, 2023-09-22 17:49:31.877
222.0, -26879.067942985053, 73663.48191064381, -6372.772916885962, 19286.359165472888, 55804.54984957574, 48039.10679091296, -187500.02235174447, 55129.884794936755, 66688.70946034306, 72128.09588051986, 41755.249113470214, 10562.227435377532, 60942.902975428464, 38123.001232505, 13876.432344488187, 38894.04700923527, 0.176, 1.0, -0.02, 192.0, 2.5, 64.0, 15.5, 32.0, 127.5, 48.0, 0.0, 0.0, 0.0, 1.695422971877476E9, 0.0, 2023-09-22 17:49:31.877
224.0, -27101.020765426252, 73495.08386791752, -6371.029480818449, 19199.2320655861, 55807.63439031057, 48018.40907554735, -187500.02235174447, 55021.14355816169, 66616.91565715261, 72078.25149038453, 41760.32295946157, 10562.003917932978, 60946.546309774676, 38136.16640998917, 13798.335349361343, 38821.40383975552, 0.176, 1.0, -0.02, 192.0, 0.0, 0.0, 0.0, 0.0, 0.0, 0.0, 0.0, 0.0, 0.0, 1.695422971937314E9, 0.0, 2023-09-22 17:49:31.937
226.0, -26918.89875160441, 73624.7239857583, -6405.786443446451, 19270.802351331993, 55804.75101527584, 48027.238014607196, -187500.02235174447, 55109.29883829342, 66631.84662244876, 72099.08331621687, 41740.31814817407, 10546.648269492181, 60935.281030569204, 38112.74178180001, 13838.099102747334, 38848.60591275763, 0.176, 1.0, -0.02, 192.0, 0.0, 0.0, 0.0, 0.0, 0.0, 0.0, 0.0, 0.0, 0.0, 1.695422971937345E9, 0.0, 2023-09-22 17:49:31.937
228.0, -27099.07616365864, 73488.87008295895, -6398.097443353826, 19185.105763090345, 55802.73935827486, 48008.32843879801, -187500.02235174447, 55012.49343305748, 66631.39958755966, 72074.47404557158, 41732.472685870256, 10538.109903110255, 60931.950620645366, 38109.43372362062, 13801.084613929346, 38820.21919729939, 0.176, 1.0, -0.02, 192.0, 0.0, 0.0, 0.0, 0.0, 0.0, 0.0, 0.0, 0.0, 0.0, 1.695422971937349E9, 0.0, 2023-09-22 17:49:31.937
230.0, -26906.001795053697, 73623.24877062425, -6416.157652873713, 19291.075383552958, 55810.33895138967, 48036.7375060007, -187500.02235174447, 55126.24146059054, 66607.08088959228, 72081.35838286381, 41727.555302090084, 10536.56763274284, 60931.14595784497, 38108.226729420036, 13837.696771347139, 38847.46597379041, 0.176, 1.0, -0.02, 192.0, 0.0, 0.0, 0.0, 0.0, 0.0, 0.0, 0.0, 0.0, 0.0, 1.695422971937352E9, 0.0, 2023-09-22 17:49:31.937
232.0, -27063.805110908164, 73501.67763253185, -6401.494908511032, 19205.065870888935, 55798.0231401948, 48023.12529362742, -187500.02235174447, 55028.7878547654, 66674.31493691384, 72088.71210678961, 41727.1976741788, 10540.814464189347, 60922.38407401849, 38128.41035466318, 13840.423684170686, 38855.78082272778, 0.17400000000000002, 1.002, -0.022, 192.0, 2.5, 56.0, 15.5, 40.0, 127.5, 40.0, 0.0, 0.0, 0.0, 1.695422971937355E9, 0.0, 2023-09-22 17:49:31.937
234.0, -26903.6995653748, 73611.44704955186, -6420.784463975962, 19303.122973814367, 55809.28841940027, 48041.67724152532, -187500.02235174447, 55125.10152162332, 66575.25200548793, 72080.15138866323, 41731.98094749224, 10543.65313573517, 60929.60368747755, 38130.42201166416, 13824.643352585239, 38843.77793595528, 0.17400000000000002, 1.002, -0.022, 192.0, 0.0, 0.0, 0.0, 0.0, 0.0, 0.0, 0.0, 0.0, 0.0, 1.695422971937359E9, 0.0, 2023-09-22 17:49:31.937
236.0, -27026.38829068998, 73516.31802515007, -6390.095518838825, 19202.47306853212, 55794.49156457085, 48006.22737481921, -187500.02235174447, 55035.225157168534, 66714.5480769334, 72096.02112722649, 41719.329860130536, 10526.934030882601, 60918.24900129426, 38118.03914523592, 13867.64810891725, 38880.83712826218, 0.17400000000000002, 1.002, -0.022, 192.0, 0.0, 0.0, 0.0, 0.0, 0.0, 0.0, 0.0, 0.0, 0.0, 1.695422971937368E9, 0.0, 2023-09-22 17:49:31.937
238.0, -26916.775335881157, 73595.28673831066, -6398.231553820558, 19293.064688809478, 55815.65866657003, 48033.250633865675, -187500.02235174447, 55121.43583553265, 66552.2073569545, 72062.18058612116, 41738.5523603621, 10543.429618290618, 60937.7844259482, 38117.748572558, 13817.356683892809, 38828.66815670349, 0.17400000000000002, 1.002, -0.022, 192.0, 0.0, 0.0, 0.0, 0.0, 0.0, 0.0, 0.0, 0.0, 0.0, 1.695422971937371E9, 0.0, 2023-09-22 17:49:31.937
240.0, -27006.606996847036, 73527.42684214436, -6368.839009861828, 19194.985234139593, 55793.463384325914, 48002.74050268418, -187500.02235174447, 55037.393276380695, 66736.43043475514, 72105.07358373089, 41732.13740970343, 10535.204176331064, 60933.15761484595, 38108.31613639786, 13883.875475391804, 38884.68162830849, 0.17400000000000002, 1.002, -0.022, 192.0, 0.0, 0.0, 0.0, 0.0, 0.0, 0.0, 0.0, 0.0, 0.0, 1.695422971997055E9, 0.0, 2023-09-22 17:49:31.997
242.0, -26934.992007612233, 73580.2663660367, -6387.480364737555, 19283.587549160427, 55815.56925959221, 48030.90370069787, -187500.02235174447, 55109.544707482426, 66525.60878105268, 72058.1125686303, 41749.5047151452, 10553.622013762239, 60952.96126043335, 38120.6990028261, 13795.966064449081, 38806.3611157371, 0.17400000000000002, 1.004, -0.022, 192.0, 2.5, 56.0, 15.5, 48.0, 127.5, 40.0, 0.0, 0.0, 0.0, 1.695422971997069E9, 0.0, 2023-09-22 17:49:31.997
244.0, -26978.779075000177, 73538.53565913864, -6364.167495270669, 19198.114478363335, 55790.244733124346, 48011.144758599374, -187500.02235174447, 55040.120189204245, 66759.76565596649, 72114.64013035776, 41736.093668472015, 10536.478225765017, 60940.37722830501, 38107.39971487519, 13895.36427204183, 38896.528052869806, 0.17400000000000002, 1.004, -0.022, 192.0, 0.0, 0.0, 0.0, 0.0, 0.0, 0.0, 0.0, 0.0, 0.0, 1.695422971997075E9, 0.0, 2023-09-22 17:49:31.997
246.0, -26957.567269512092, 73555.76885411369, -6385.714576925586, 19274.892720567314, 55817.26799217081, 48032.24480536518, -187500.02235174447, 55098.57000095487, 66512.8012314798, 72056.68205698516, 41752.83512506904, 10550.403362560673, 60958.415086080444, 38118.91086326967, 13785.930131188648, 38799.700295889415, 0.17400000000000002, 1.004, -0.022, 192.0, 0.0, 0.0, 0.0, 0.0, 0.0, 0.0, 0.0, 0.0, 0.0, 1.695422971997079E9, 0.0, 2023-09-22 17:49:31.997
248.0, -26943.128042593962, 73561.33443848306, -6374.78457388694, 19211.257304103056, 55785.75203248883, 48005.89209865238, -187500.02235174447, 55063.50011390449, 66773.13199915076, 72123.98315954008, 41734.03730798213, 10539.607469988761, 60935.81747243613, 38103.06347645086, 13909.46822279313, 38908.84386406468, 0.17400000000000002, 1.004, -0.022, 192.0, 0.0, 0.0, 0.0, 0.0, 0.0, 0.0, 0.0, 0.0, 0.0, 1.695422971997082E9, 0.0, 2023-09-22 17:49:31.997
250.0, -26988.54678732715, 73528.34326366702, -6389.246152549524, 19262.10752273888, 55821.04543698376, 48035.17288388883, -187500.02235174447, 55083.61668391427, 66507.5485715328, 72046.46730976908, 41749.3035494451, 10553.80082771788, 60949.94377493188, 38120.96722375956, 13780.163381119179, 38792.54773766372, 0.17400000000000002, 1.004, -0.022, 192.0, 0.0, 0.0, 0.0, 0.0, 0.0, 0.0, 0.0, 0.0, 0.0, 1.695422971997086E9, 0.0, 2023-09-22 17:49:31.997
252.0, -26937.405996013404, 73566.58709843006, -6381.467745479077, 19227.395263599785, 55788.210724378914, 48017.04561913558, -187500.02235174447, 55075.79357335491, 66753.3060018189, 72129.1240607648, 41738.909988273386, 10549.598699760283, 60936.420969536426, 38112.25004342199, 13900.169897099722, 38903.47944539541, 0.176, 1.006, -0.022, 192.0, 2.5, 64.0, 15.5, 56.0, 127.5, 40.0, 0.0, 0.0, 0.0, 1.69542297199709E9, 0.0, 2023-09-22 17:49:31.997
254.0, -27018.274607452706, 73510.59597856952, -6395.526992741465, 19269.30478445349, 55818.02795148229, 48036.9386717008, -187500.02235174447, 55085.53893393742, 66495.43392603802, 72059.02899015296, 41747.291892444126, 10561.355717343775, 60945.1828533629, 38131.62900586474, 13771.401497292698, 38799.49913018932, 0.176, 1.006, -0.022, 192.0, 0.0, 0.0, 0.0, 0.0, 0.0, 0.0, 0.0, 0.0, 0.0, 1.695422971997093E9, 0.0, 2023-09-22 17:49:31.997
0.0, -26917.66940565937, 73581.94274687085, -6390.766071172485, 19254.418522646254, 55781.48284929787, 48021.44891279327, -187500.02235174447, 55098.23472478804, 66745.34878079282, 72137.99770331357, 41720.380392119936, 10548.503464281972, 60928.30728629915, 38121.52601737095, 13904.774356457516, 38923.21603574944, 0.176, 1.006, -0.022, 192.0, 0.0, 0.0, 0.0, 0.0, 0.0, 0.0, 0.0, 0.0, 0.0, 1.695422972057337E9, 0.0, 2023-09-22 17:49:32.057
