%OpenBCI Raw EXG Data
%Number of channels = 16
%Sample Rate = 125 Hz
%Board = OpenBCI_GUI$BoardCytonSerialDaisy
Sample Index, EXG Channel 0, EXG Channel 1, EXG Channel 2, EXG Channel 3, EXG Channel 4, EXG Channel 5, EXG Channel 6, EXG Channel 7, EXG Channel 8, EXG Channel 9, EXG Channel 10, EXG Channel 11, EXG Channel 12, EXG Channel 13, EXG Channel 14, EXG Channel 15, Accel Channel 0, Accel Channel 1, Accel Channel 2, Other, Other, Other, Other, Other, Other, Other, Analog Channel 0, Analog Channel 1, Analog Channel 2, Timestamp, Other, Timestamp (Formatted)
238.0, 36238.771526667064, 22079.790780519343, -66714.97276007805, -57688.04194784665, -23151.44516842904, -30753.27345767897, -187500.02235174447, -52562.384612844544, -30211.198951148865, -30319.515504779283, -62131.14406241704, -78861.93887733686, -18064.612813545802, -187500.02235174447, -52593.31942717069, -38533.33455721552, 0.0, 0.0, 0.0, 192.0, 0.0, 0.0, 0.0, 0.0, 0.0, 0.0, 0.0, 0.0, 0.0, 1.695336959430821E9, 0.0, 2023-09-21 17:55:59.430
240.0, 36266.84531770293, 22095.727574315977, -66705.47326868454, -57665.779610369165, -23166.48789244746, -30728.46302133358, -187500.02235174447, -52542.13393236804, -30234.355358404562, -30330.825487473667, -62157.2732516853, -78886.52579623769, -17980.41379218266, -187500.02235174447, -52558.182484886944, -38497.61646957594, 0.0, 0.0, 0.0, 192.0, 0.0, 0.0, 0.0, 0.0, 0.0, 0.0, 0.0, 0.0, 0.0, 1.69533695943083E9, 0.0, 2023-09-21 17:55:59.430
242.0, 36209.46838968615, 22108.021033766396, -66679.6346520942, -57645.640688614934, -23134.72606357647, -30712.79444847041, -187500.02235174447, -52523.47022574786, -30190.523587527703, -30303.95869063839, -62110.33458832915, -78842.04582477163, -18073.62056656129, -187500.02235174447, -52589.96666550239, -38535.368565960955, 0.0, 0.0, 0.0, 192.0, 0.0, 0.0, 0.0, 0.0, 0.0, 0.0, 0.0, 0.0, 0.0, 1.695336959430834E9, 0.0, 2023-09-21 17:55:59.430
244.0, 36267.51587003659, 22094.185303948558, -66720.82891712534, -57681.3140727656, -23159.335334221763, -30750.077158221862, -187500.02235174447, -52561.04350817722, -30217.233922151798, -30307.959652895886, -62141.515271844306, -78867.34799949503, -17998.250484257995, -187500.02235174447, -52542.71507772387, -38501.6397835779, 0.018000000000000002, 1.004, 0.08600000000000001, 192.0, 0.0, 72.0, 15.5, 48.0, 1.0, 88.0, 0.0, 0.0, 0.0, 1.695336959430838E9, 0.0, 2023-09-21 17:55:59.430
246.0, 36201.06413377096, 22091.726612058475, -66702.3440244608, -57664.48320919075, -23159.692962133046, -30732.84396324682, -187500.02235174447, -52537.998859643805, -30214.59641630607, -30326.511600793794, -62133.02160895129, -78867.03507507266, -18060.947127455132, -187500.02235174447, -52598.12505222858, -38530.898217069895, 0.018000000000000002, 1.004, 0.08600000000000001, 192.0, 0.0, 0.0, 0.0, 0.0, 0.0, 0.0, 0.0, 0.0, 0.0, 1.695336959430841E9, 0.0, 2023-09-21 17:55:59.430
248.0, 36267.292352592034, 22095.52640861588, -66717.6996729016, -57676.35198549652, -23163.96214532401, -30744.243352919028, -187500.02235174447, -52557.69074650893, -30221.346643131572, -30317.861475689588, -62143.325763145185, -78870.90192686343, -18003.883123860734, -187500.02235174447, -52557.37782208656, -38502.86912952294, 0.018000000000000002, 1.004, 0.08600000000000001, 192.0, 0.0, 0.0, 0.0, 0.0, 0.0, 0.0, 0.0, 0.0, 0.0, 1.695336959430845E9, 0.0, 2023-09-21 17:55:59.430
250.0, 36179.9417352607, 22123.644903140656, -66670.49278861198, -57631.447330885814, -23144.784348581357, -30704.926634422143, -187500.02235174447, -52510.70737966387, -30172.083398352075, -30294.839178900624, -62086.57468397316, -78822.73391756225, -18069.127865925773, -187500.02235174447, -52592.33595041466, -38532.798115348596, 0.018000000000000002, 1.004, 0.08600000000000001, 192.0, 0.0, 0.0, 0.0, 0.0, 0.0, 0.0, 0.0, 0.0, 0.0, 1.695336959430848E9, 0.0, 2023-09-21 17:55:59.430
252.0, 36263.112576378895, 22103.841257553253, -66729.99313235201, -57691.72998568178, -23161.771674367392, -30762.594135116833, -187500.02235174447, -52573.11345018309, -30218.999709963766, -30312.98879539833, -62140.934126488464, -78870.07491231858, -18022.725644436556, -187500.02235174447, -52542.62567074605, -38508.76999005914, 0.018000000000000002, 1.004, 0.08600000000000001, 192.0, 0.0, 0.0, 0.0, 0.0, 0.0, 0.0, 0.0, 0.0, 0.0, 1.695336959430852E9, 0.0, 2023-09-21 17:55:59.430
254.0, 36178.175947448726, 22096.219312693993, -66723.08644331532, -57684.35391001152, -23180.39067749866, -30753.005236745506, -187500.02235174447, -52560.149438399014, -30207.64502378047, -30324.790516470734, -62122.02455067928, -78857.5132319347, -18057.169682642187, -187500.02235174447, -52593.87822078207, -38532.68635662632, 0.02, 1.004, 0.08600000000000001, 192.0, 0.0, 80.0, 15.5, 48.0, 1.0, 88.0, 0.0, 0.0, 0.0, 1.695336959430855E9, 0.0, 2023-09-21 17:55:59.430
0.0, 18461.669202049878, 11004.724920359246, -33343.19243945985, -28748.143166082285, -11685.246132045524, -15486.316738881676, -93750.01117587223, -26302.88467441615, -15113.422586133789, -15164.921005358818, -31075.272688302124, -39439.787201856045, -9035.066847213131, -93750.01117587223, -26294.793342923327, -19267.00255477459, 0.016, 1.0070000000000001, 0.083, 192.0, 0.0, 48.0, 15.5, 72.0, 1.0, 64.0, 0.0, 0.0, 0.0, 1.695336959567872E9, 0.0, 2023-09-21 17:55:59.567
2.0, 36863.838060359725, 21996.284663234313, -66682.16039921765, -57486.026881459584, -23414.12286926781, -30953.343922298423, -187500.02235174447, -52585.675130566975, -30308.674908718458, -30403.178084275496, -62150.50067311534, -78732.05289030707, -19793.900226819544, -187500.02235174447, -52602.528345886276, -38488.876937493915, 0.016, 1.0070000000000001, 0.083, 192.0, 0.0, 0.0, 0.0, 0.0, 0.0, 0.0, 0.0, 0.0, 0.0, 1.695336959567888E9, 0.0, 2023-09-21 17:55:59.567
4.0, 36861.69229289202, 21986.628709629622, -66697.35958544727, -57510.94907652725, -23388.86539803331, -30985.306916869515, -187500.02235174447, -52611.31258145721, -30292.29108003272, -30393.38802020407, -62133.20042290693, -78715.73611685469, -19877.763972015855, -187500.02235174447, -52636.5253492028, -38523.81271407756, 0.016, 1.0070000000000001, 0.083, 192.0, 0.0, 0.0, 0.0, 0.0, 0.0, 0.0, 0.0, 0.0, 0.0, 1.695336959567892E9, 0.0, 2023-09-21 17:55:59.567
6.0, 36858.42893820154, 21997.40225045708, -66677.26536718194, -57480.438945345755, -23409.652520376745, -30950.751119941608, -187500.02235174447, -52583.2611421658, -30314.128734365553, -30412.8787413691, -62155.127484217584, -78740.72536715573, -19796.62713964309, -187500.02235174447, -52608.876241311584, -38485.65828629235, 0.016, 1.0070000000000001, 0.083, 192.0, 0.0, 0.0, 0.0, 0.0, 0.0, 0.0, 0.0, 0.0, 0.0, 1.695336959567896E9, 0.0, 2023-09-21 17:55:59.567
8.0, 36839.362900181164, 21985.39936368458, -66688.73181208751, -57503.014207245615, -23379.120037450797, -30972.477015552166, -187500.02235174447, -52596.69454058344, -30276.331934491627, -30384.73789509987, -62115.45313780942, -78701.43100040329, -19881.876692995633, -187500.02235174447, -52633.776084634796, -38522.31514719906, 0.014, 1.012, 0.08, 192.0, 0.0, 56.0, 15.5, 80.0, 1.0, 64.0, 0.0, 0.0, 0.0, 1.695336959567899E9, 0.0, 2023-09-21 17:55:59.567
10.0, 36865.13446153813, 21993.200122499482, -66690.3411376883, -57489.15612568333, -23413.318206467415, -30948.851221662906, -187500.02235174447, -52580.86950550908, -30333.9100282085, -30431.363634033638, -62177.83685658418, -78759.41142552036, -19778.522226634293, -187500.02235174447, -52594.347607415635, -38474.37065534242, 0.014, 1.012, 0.08, 192.0, 0.0, 0.0, 0.0, 0.0, 0.0, 0.0, 0.0, 0.0, 0.0, 1.695336959567903E9, 0.0, 2023-09-21 17:55:59.567
12.0, 36816.921748748035, 21991.411982943057, -66678.76293406045, -57488.396166371844, -23381.086990962864, -30955.757910699598, -187500.02235174447, -52581.204781675915, -30274.00735306828, -30393.790351604268, -62115.497841298326, -78701.20748295874, -19881.40730636207, -187500.02235174447, -52636.346535247154, -38519.74469658669, 0.014, 1.012, 0.08, 192.0, 0.0, 0.0, 0.0, 0.0, 0.0, 0.0, 0.0, 0.0, 0.0, 1.695336959567906E9, 0.0, 2023-09-21 17:55:59.567
14.0, 36859.61358065767, 21987.679241619022, -66697.06901276935, -57496.04046297556, -23404.601026129847, -30962.105806124906, -187500.02235174447, -52592.872392281584, -30324.90227519301, -30425.82040140872, -62170.05844951373, -78749.53195447111, -19798.638796644067, -187500.02235174447, -52593.25237193732, -38479.66801877833, 0.014, 1.012, 0.08, 192.0, 0.0, 0.0, 0.0, 0.0, 0.0, 0.0, 0.0, 0.0, 0.0, 1.695336959567909E9, 0.0, 2023-09-21 17:55:59.567
16.0, 36799.33092586171, 21982.404229927568, -66694.45385866807, -57496.800422287044, -23394.833313802876, -30964.206870103702, -187500.02235174447, -52593.31942717069, -30294.66036494498, -30411.135305301585, -62139.79418752125, -78719.55826515655, -19873.763009758357, -187500.02235174447, -52635.89950035805, -38516.637804107406, 0.014, 1.012, 0.08, 192.0, 0.0, 0.0, 0.0, 0.0, 0.0, 0.0, 0.0, 0.0, 0.0, 1.695336959628123E9, 0.0, 2023-09-21 17:55:59.628
18.0, 36856.082005033735, 21996.73169812342, -66694.69972785708, -57487.65855880482, -23393.246339946552, -30945.40905301679, -187500.02235174447, -52572.01821470478, -30308.786667440734, -30415.516247214826, -62163.21881571041, -78739.65248342187, -19793.63200588608, -187500.02235174447, -52597.85683129512, -38483.40076010236, 0.012, 1.014, 0.078, 192.0, 0.0, 48.0, 15.5, 88.0, 1.0, 56.0, 0.0, 0.0, 0.0, 1.695336959628128E9, 0.0, 2023-09-21 17:55:59.628
20.0, 36778.76732096283, 21989.24386373089, -66684.17205621864, -57484.32814888098, -23394.051002746943, -30950.773471686065, -187500.02235174447, -52571.95115947141, -30280.51171070477, -30402.149904030553, -62133.20042290693, -78713.0315557756, -19857.513291539348, -187500.02235174447, -52632.300869500745, -38513.66502209485, 0.012, 1.014, 0.078, 192.0, 0.0, 0.0, 0.0, 0.0, 0.0, 0.0, 0.0, 0.0, 0.0, 1.695336959628132E9, 0.0, 2023-09-21 17:55:59.628
22.0, 36846.47075491795, 21990.763782353853, -66692.28573945591, -57496.53220135358, -23385.467932876105, -30966.21852710468, -187500.02235174447, -52593.587648104156, -30302.505827248795, -30413.035203580286, -62160.06721974221, -78738.62430317693, -19806.73012813689, -187500.02235174447, -52598.8626597956, -38491.93912648429, 0.012, 1.014, 0.078, 192.0, 0.0, 0.0, 0.0, 0.0, 0.0, 0.0, 0.0, 0.0, 0.0, 1.695336959628136E9, 0.0, 2023-09-21 17:55:59.628
24.0, 36771.92768715951, 21967.00387799786, -66702.79105934991, -57505.29408518006, -23405.04806101895, -30970.957096929207, -187500.02235174447, -52592.40300564802, -30291.262899787773, -30417.706718171445, -62143.526928845284, -78728.56601817203, -19853.042942648288, -187500.02235174447, -52629.95393633294, -38516.637804107406, 0.012, 1.014, 0.078, 192.0, 0.0, 0.0, 0.0, 0.0, 0.0, 0.0, 0.0, 0.0, 0.0, 1.695336959628139E9, 0.0, 2023-09-21 17:55:59.628
26.0, 36850.2481997309, 21980.794904326787, -66704.93682681762, -57503.66240783482, -23393.894540535755, -30970.197137617724, -187500.02235174447, -52590.92779051397, -30326.176324626962, -30439.45496552646, -62183.46949618692, -78762.38420753292, -19808.048881059753, -187500.02235174447, -52601.79073831925, -38493.81667301854, 0.012, 1.014, 0.078, 192.0, 0.0, 0.0, 0.0, 0.0, 0.0, 0.0, 0.0, 0.0, 0.0, 1.695336959628143E9, 0.0, 2023-09-21 17:55:59.628
28.0, 36746.379643247084, 22018.770518156354, -66633.83592770528, -57431.1086453329, -23375.923737993686, -30901.800799584486, -187500.02235174447, -52525.99597287131, -30256.483585415317, -30391.77869460329, -62104.83605919315, -78691.75269505414, -19845.085721622196, -187500.02235174447, -52626.020029308806, -38519.00708901967, 0.014, 1.012, 0.088, 192.0, 0.0, 56.0, 15.5, 80.0, 1.0, 96.0, 0.0, 0.0, 0.0, 1.695336959628147E9, 0.0, 2023-09-21 17:55:59.628
30.0, 36834.22199895645, 21992.73073586592, -66697.33723370281, -57501.538992111564, -23371.922775736188, -30971.493538796134, -187500.02235174447, -52591.59834284763, -30273.962649579367, -30377.853557807633, -62128.506556571316, -78706.81777081703, -19824.54446846777, -187500.02235174447, -52578.410813619, -38512.502731383174, 0.014, 1.012, 0.088, 192.0, 0.0, 0.0, 0.0, 0.0, 0.0, 0.0, 0.0, 0.0, 0.0, 1.695336959688423E9, 0.0, 2023-09-21 17:55:59.688
32.0, 36747.6760444255, 21985.39936368458, -66684.26146319645, -57482.85293374693, -23406.813848830923, -30952.51690775358, -187500.02235174447, -52579.01431071929, -30292.559300966182, -30417.282035026794, -62141.31410614421, -78726.75552687116, -19821.526982966305, -187500.02235174447, -52614.2183082364, -38512.27921393862, 0.014, 1.012, 0.088, 192.0, 0.0, 0.0, 0.0, 0.0, 0.0, 0.0, 0.0, 0.0, 0.0, 1.695336959688431E9, 0.0, 2023-09-21 17:55:59.688
34.0, 36832.83619080022, 21973.508235634356, -66722.63940842621, -57522.63903887738, -23395.928549281187, -30995.23109140767, -187500.02235174447, -52614.73239835887, -30312.340594809128, -30419.74072691688, -62168.4714756574, -78747.22972479221, -19829.81948015922, -187500.02235174447, -52606.66341861051, -38510.64753659339, 0.014, 1.012, 0.088, 192.0, 0.0, 0.0, 0.0, 0.0, 0.0, 0.0, 0.0, 0.0, 0.0, 1.695336959688435E9, 0.0, 2023-09-21 17:55:59.688
36.0, 36742.959826345425, 21982.426581672025, -66689.67058535464, -57481.6682912908, -23421.141317026773, -30958.7083409677, -187500.02235174447, -52586.83742127865, -30302.014088870776, -30427.45207875396, -62149.62895508158, -78732.79049787408, -19823.359826011638, -187500.02235174447, -52628.858700854624, -38509.32878367052, 0.014, 1.012, 0.088, 192.0, 0.0, 0.0, 0.0, 0.0, 0.0, 0.0, 0.0, 0.0, 0.0, 1.695336959688439E9, 0.0, 2023-09-21 17:55:59.688
38.0, 36808.76336202185, 21978.20210196997, -66717.14087929021, -57515.41942541831, -23390.988813756565, -30993.957041973717, -187500.02235174447, -52615.20178499244, -30303.064620860176, -30414.063383825232, -62152.10999871612, -78730.75648912866, -19854.808730460256, -187500.02235174447, -52624.388351963564, -38523.45508616627, 0.026000000000000002, 1.006, 0.092, 192.0, 0.0, 104.0, 15.5, 56.0, 1.0, 112.0, 0.0, 0.0, 0.0, 1.695336959688442E9, 0.0, 2023-09-21 17:55:59.688
40.0, 36734.39910821904, 21986.136971251606, -66692.35279468927, -57484.32814888098, -23422.90710483874, -30958.618933989877, -187500.02235174447, -52586.50214511182, -30304.875112161055, -30430.268398555327, -62149.24897542584, -78733.79632637458, -19815.02262532981, -187500.02235174447, -52634.13371254608, -38508.81469354805, 0.026000000000000002, 1.006, 0.092, 192.0, 0.0, 0.0, 0.0, 0.0, 0.0, 0.0, 0.0, 0.0, 0.0, 1.695336959688446E9, 0.0, 2023-09-21 17:55:59.688
42.0, 36789.71967574593, 21981.73367759391, -66716.76089963448, -57515.262963207126, -23393.35809866883, -30989.106713426914, -187500.02235174447, -52607.95981978891, -30293.31926027766, -30405.7261831434, -62139.68242879897, -78718.15010525586, -19866.342230599195, -187500.02235174447, -52633.70902940143, -38531.658176381374, 0.026000000000000002, 1.006, 0.092, 192.0, 0.0, 0.0, 0.0, 0.0, 0.0, 0.0, 0.0, 0.0, 0.0, 1.69533695968845E9, 0.0, 2023-09-21 17:55:59.688
44.0, 36734.62262566359, 21990.87554107613, -66693.87271331224, -57480.2154279012, -23429.612628175335, -30945.721977439163, -187500.02235174447, -52564.82095299017, -30320.700147235413, -30438.382081792606, -62161.81065580972, -78742.64761717888, -19796.20245649844, -187500.02235174447, -52626.914099087015, -38507.09360922499, 0.026000000000000002, 1.006, 0.092, 192.0, 0.0, 0.0, 0.0, 0.0, 0.0, 0.0, 0.0, 0.0, 0.0, 1.695336959688453E9, 0.0, 2023-09-21 17:55:59.688
46.0, 36769.44664352496, 21985.421715429035, -66721.7006351591, -57521.23087897669, -23396.040308003463, -30992.861806495406, -187500.02235174447, -52610.55262214573, -30289.072428831154, -30404.809761620734, -62132.73103627337, -78711.22106447471, -19867.88450096661, -187500.02235174447, -52632.94907008995, -38536.709670628275, 0.026000000000000002, 1.006, 0.092, 192.0, 0.0, 0.0, 0.0, 0.0, 0.0, 0.0, 0.0, 0.0, 0.0, 1.695336959748706E9, 0.0, 2023-09-21 17:55:59.748
48.0, 36730.04051805026, 22011.796773886297, -66676.81833229284, -57468.16783763979, -23420.470764693113, -30947.89009665133, -187500.02235174447, -52576.35445312911, -30316.430964044448, -30438.06915737023, -62159.28490868628, -78742.91583811234, -19793.743764608356, -187500.02235174447, -52621.99671530685, -38508.322955170035, 0.024, 1.008, 0.09, 192.0, 0.0, 96.0, 15.5, 64.0, 1.0, 104.0, 0.0, 0.0, 0.0, 1.695336959748717E9, 0.0, 2023-09-21 17:55:59.748
50.0, 36743.116288556615, 22023.039701347316, -66675.41017239215, -57474.7168987652, -23368.078275689873, -30954.662675221287, -187500.02235174447, -52571.772345515776, -30258.338780205107, -30382.50272065434, -62100.79039344673, -78684.3766193839, -19868.733867255913, -187500.02235174447, -52631.250337511345, -38549.405461478884, 0.024, 1.008, 0.09, 192.0, 0.0, 0.0, 0.0, 0.0, 0.0, 0.0, 0.0, 0.0, 0.0, 1.695336959748721E9, 0.0, 2023-09-21 17:55:59.748
52.0, 36727.090087782155, 22024.134936825627, -66680.05933523885, -57470.581826040965, -23404.958654041133, -30951.46637576418, -187500.02235174447, -52575.818011262185, -30275.482568202326, -30397.187816761474, -62118.58238203316, -78702.50388413714, -19775.415334155005, -187500.02235174447, -52598.34856967313, -38521.01874602065, 0.024, 1.008, 0.09, 192.0, 0.0, 0.0, 0.0, 0.0, 0.0, 0.0, 0.0, 0.0, 0.0, 1.695336959748725E9, 0.0, 2023-09-21 17:55:59.748
54.0, 36727.53712267127, 22005.180657527526, -66706.99318730751, -57503.70711132373, -23389.58065385588, -30991.341887872448, -187500.02235174447, -52606.81988082169, -30276.622507169548, -30400.607633663138, -62118.58238203316, -78700.24635794717, -19853.19940485947, -187500.02235174447, -52632.03264856728, -38551.372414990954, 0.024, 1.008, 0.09, 192.0, 0.0, 0.0, 0.0, 0.0, 0.0, 0.0, 0.0, 0.0, 0.0, 1.695336959748728E9, 0.0, 2023-09-21 17:55:59.748
56.0, 36737.21542802041, 22012.154401797583, -66697.65015812518, -57487.41268961581, -23420.850744348856, -30970.778282973562, -187500.02235174447, -52591.486584125356, -30309.390164541026, -30430.804840422257, -62152.10999871612, -78736.8808671094, -19763.43479912696, -187500.02235174447, -52606.52930814378, -38509.52994937062, 0.024, 1.008, 0.09, 192.0, 0.0, 0.0, 0.0, 0.0, 0.0, 0.0, 0.0, 0.0, 0.0, 1.695336959748731E9, 0.0, 2023-09-21 17:55:59.748
58.0, 36713.12024749759, 21999.570369669244, -66705.40621345118, -57500.6225705889, -23397.046136503952, -30981.864748223397, -187500.02235174447, -52593.162964959505, -30284.937356106922, -30406.575549432702, -62122.58334429066, -78705.90134929435, -19855.523986282824, -187500.02235174447, -52635.9218521025, -38547.57261843355, 0.018000000000000002, 1.004, 0.088, 192.0, 0.0, 72.0, 15.5, 48.0, 1.0, 96.0, 0.0, 0.0, 0.0, 1.695336959748735E9, 0.0, 2023-09-21 17:55:59.748
60.0, 36748.79363164826, 21997.26813999035, -66712.8940478437, -57499.326169410495, -23422.996511816564, -30980.054256922514, -187500.02235174447, -52600.89666854104, -30319.984891412845, -30433.665863712537, -62161.363620920616, -78742.06647182304, -19772.599014353636, -187500.02235174447, -52594.615828349095, -38505.08195222401, 0.018000000000000002, 1.004, 0.088, 192.0, 0.0, 0.0, 0.0, 0.0, 0.0, 0.0, 0.0, 0.0, 0.0, 1.695336959808912E9, 0.0, 2023-09-21 17:55:59.808
62.0, 36698.703372323915, 21995.524703922834, -66704.78036460643, -57494.498192608145, -23405.763316841523, -30977.75202724362, -187500.02235174447, -52593.38648240406, -30289.318298020164, -30417.237331537883, -62129.892364727544, -78713.56799764252, -19863.637669520103, -187500.02235174447, -52636.81592188072, -38545.53860968812, 0.018000000000000002, 1.004, 0.088, 192.0, 0.0, 0.0, 0.0, 0.0, 0.0, 0.0, 0.0, 0.0, 0.0, 1.695336959808922E9, 0.0, 2023-09-21 17:55:59.808
64.0, 36753.107518328135, 21992.127238765628, -66723.86875437126, -57504.33296016848, -23422.48242169409, -30984.032867435562, -187500.02235174447, -52602.64010460855, -30317.481496033848, -30424.54635197477, -62162.30239418774, -78740.32303575553, -19785.361860437617, -187500.02235174447, -52594.95110451592, -38511.5416063716, 0.018000000000000002, 1.004, 0.088, 192.0, 0.0, 0.0, 0.0, 0.0, 0.0, 0.0, 0.0, 0.0, 0.0, 1.695336959808926E9, 0.0, 2023-09-21 17:55:59.808
66.0, 36692.89191876554, 21980.906663049063, -66722.9523328486, -57507.52925962559, -23419.353177470348, -30990.783094261064, -187500.02235174447, -52600.33787492965, -30303.288138304728, -30425.88745664209, -62141.716437544404, -78723.46982043622, -19860.530777040814, -187500.02235174447, -52631.94324158946, -38539.05660379608, 0.018000000000000002, 1.004, 0.088, 192.0, 0.0, 0.0, 0.0, 0.0, 0.0, 0.0, 0.0, 0.0, 0.0, 1.69533695980893E9, 0.0, 2023-09-21 17:55:59.808
68.0, 36750.17943980449, 21990.31674746475, -66718.5490391909, -57496.018111231104, -23423.667064150224, -30982.535300557054, -187500.02235174447, -52598.08034873967, -30328.25503686131, -30437.35390154766, -62169.76787683581, -78749.19667830429, -19798.616444899613, -187500.02235174447, -52603.847098809136, -38510.51342612665, 0.018000000000000002, 1.004, 0.08, 192.0, 0.0, 72.0, 15.5, 48.0, 1.0, 64.0, 0.0, 0.0, 0.0, 1.695336959808934E9, 0.0, 2023-09-21 17:55:59.808
70.0, 36662.87352596206, 22004.152477282583, -66680.55107361688, -57457.75192472362, -23405.718613352612, -30949.812346674487, -187500.02235174447, -52562.809295989195, -30284.490321217814, -30405.212093020928, -62117.53185004376, -78700.71574458072, -19865.671678265535, -187500.02235174447, -52637.620584681106, -38546.45503121079, 0.018000000000000002, 1.004, 0.08, 192.0, 0.0, 0.0, 0.0, 0.0, 0.0, 0.0, 0.0, 0.0, 0.0, 1.695336959808938E9, 0.0, 2023-09-21 17:55:59.808
72.0, 36739.674119910494, 22005.560637183265, -66705.58502740682, -57477.577922055476, -23395.481514392082, -30978.914317955296, -187500.02235174447, -52597.476851639374, -30303.891635405023, -30402.082848797185, -62144.39864687904, -78718.99947154516, -19812.630988673092, -187500.02235174447, -52585.33985440015, -38520.415248920355, 0.018000000000000002, 1.004, 0.08, 192.0, 0.0, 0.0, 0.0, 0.0, 0.0, 0.0, 0.0, 0.0, 0.0, 1.695336959808941E9, 0.0, 2023-09-21 17:55:59.808
74.0, 36661.510069550284, 21990.003823042374, -66712.87169609925, -57485.08810819246, -23416.380395457792, -30983.429370335267, -187500.02235174447, -52596.35926441661, -30282.880995617033, -30403.513360442324, -62121.33164660116, -78701.90038703685, -19851.858300192154, -187500.02235174447, -52620.81207285072, -38533.51337117116, 0.018000000000000002, 1.004, 0.08, 192.0, 0.0, 0.0, 0.0, 0.0, 0.0, 0.0, 0.0, 0.0, 0.0, 1.695336959808945E9, 0.0, 2023-09-21 17:55:59.808
76.0, 36739.02591932129, 22005.851209861186, -66710.18948676462, -57478.15906741132, -23402.075279006396, -30970.867689951385, -187500.02235174447, -52584.66930206648, -30323.784687970245, -30423.40641300755, -62166.25865295633, -78740.85947762245, -19823.06925333372, -187500.02235174447, -52601.90249704153, -38507.85356853647, 0.018000000000000002, 1.004, 0.08, 192.0, 0.0, 0.0, 0.0, 0.0, 0.0, 0.0, 0.0, 0.0, 0.0, 1.695336959868319E9, 0.0, 2023-09-21 17:55:59.868
78.0, 36647.92020892146, 21999.54801792479, -66694.63267262372, -57467.586692283956, -23418.481459436593, -30970.621820762375, -187500.02235174447, -52586.68095906746, -30290.23471954283, -30404.273319753807, -62125.26555362529, -78706.63895686138, -19855.07695139372, -187500.02235174447, -52628.92575608799, -38518.64946110838, 0.014, 1.006, 0.08600000000000001, 192.0, 0.0, 56.0, 15.5, 56.0, 1.0, 88.0, 0.0, 0.0, 0.0, 1.695336959868327E9, 0.0, 2023-09-21 17:55:59.868
80.0, 36733.84031460766, 21997.804581857275, -66720.33717874732, -57498.275637421095, -23406.567979641914, -30995.074629196482, -187500.02235174447, -52601.85779355262, -30313.99462389882, -30419.651319939057, -62156.26742318481, -78732.56698042953, -19841.844718676177, -187500.02235174447, -52600.60609586312, -38506.53481561361, 0.014, 1.006, 0.08600000000000001, 192.0, 0.0, 0.0, 0.0, 0.0, 0.0, 0.0, 0.0, 0.0, 0.0, 1.69533695986833E9, 0.0, 2023-09-21 17:55:59.868
82.0, 36652.569371768164, 21995.323538222736, -66705.60737915128, -57478.963730211704, -23436.385206745294, -30976.880309209864, -187500.02235174447, -52585.65277882252, -30305.56801623917, -30422.266474040327, -62141.17999567748, -78723.08984078048, -19843.655209977056, -187500.02235174447, -52628.56812817671, -38513.39680116139, 0.014, 1.006, 0.08600000000000001, 192.0, 0.0, 0.0, 0.0, 0.0, 0.0, 0.0, 0.0, 0.0, 0.0, 1.695336959868334E9, 0.0, 2023-09-21 17:55:59.868
84.0, 36735.136715786066, 21988.34979395268, -66737.68213244464, -57515.3747219294, -23416.20158150215, -31015.459420139723, -187500.02235174447, -52622.242584495856, -30325.57282752667, -30428.12263108762, -62165.699859344946, -78739.87600086642, -19855.658096749557, -187500.02235174447, -52615.4700059259, -38512.21215870525, 0.014, 1.006, 0.08600000000000001, 192.0, 0.0, 0.0, 0.0, 0.0, 0.0, 0.0, 0.0, 0.0, 0.0, 1.695336959868337E9, 0.0, 2023-09-21 17:55:59.868
86.0, 36652.63642700153, 22003.996015071396, -66692.71042260056, -57467.63139577286, -23433.792404388478, -30967.492576538632, -187500.02235174447, -52580.26600840879, -30313.41347854298, -30432.660035212048, -62145.11390270161, -78727.04609954907, -19834.379236028104, -187500.02235174447, -52633.79843637925, -38507.58534760301, 0.014, 1.006, 0.08600000000000001, 192.0, 0.0, 0.0, 0.0, 0.0, 0.0, 0.0, 0.0, 0.0, 0.0, 1.695336959868341E9, 0.0, 2023-09-21 17:55:59.868
88.0, 36723.536160413765, 21990.29439572029, -66732.80945215338, -57519.599201631456, -23403.5728458849, -31031.485620914176, -187500.02235174447, -52636.25712826933, -30306.752658695303, -30406.01675582132, -62140.26357415481, -78716.80900058855, -19866.006954432363, -187500.02235174447, -52625.55064267524, -38526.31610945656, 0.012, 1.006, 0.092, 192.0, 0.0, 48.0, 15.5, 56.0, 1.0, 112.0, 0.0, 0.0, 0.0, 1.695336959868344E9, 0.0, 2023-09-21 17:55:59.868
90.0, 36656.07859564765, 22011.953236097484, -66690.2964341994, -57464.4127445713, -23430.529049698, -30958.976561901163, -187500.02235174447, -52570.65475829301, -30319.783725712747, -30434.671692213025, -62148.19844343644, -78728.99070131668, -19807.06540430372, -187500.02235174447, -52632.50203520084, -38510.87105403794, 0.012, 1.006, 0.092, 192.0, 0.0, 0.0, 0.0, 0.0, 0.0, 0.0, 0.0, 0.0, 0.0, 1.695336959928154E9, 0.0, 2023-09-21 17:55:59.928
92.0, 36707.867587550594, 22012.333215753224, -66710.94944607609, -57493.157087940825, -23389.781819555978, -30993.08532393996, -187500.02235174447, -52600.24846795183, -30290.65940268748, -30399.91472958502, -62123.879745469065, -78699.82167480252, -19861.000163674376, -187500.02235174447, -52625.70710488643, -38532.68635662632, 0.012, 1.006, 0.092, 192.0, 0.0, 0.0, 0.0, 0.0, 0.0, 0.0, 0.0, 0.0, 0.0, 1.69533695992818E9, 0.0, 2023-09-21 17:55:59.928
94.0, 36659.52076429377, 22003.68309064902, -66702.38872794971, -57481.08714593496, -23428.49504095257, -30979.80838773351, -187500.02235174447, -52594.66053183801, -30306.23856857283, -30419.11487807213, -62141.224699166385, -78720.85466633496, -19797.521209421302, -187500.02235174447, -52614.061846025215, -38506.87009178044, 0.012, 1.006, 0.092, 192.0, 0.0, 0.0, 0.0, 0.0, 0.0, 0.0, 0.0, 0.0, 0.0, 1.695336959928188E9, 0.0, 2023-09-21 17:55:59.928
96.0, 36704.42541890447, 21981.86778806064, -66735.91634463267, -57525.36595170092, -23415.039290790475, -31022.701385343244, -187500.02235174447, -52638.13467480358, -30321.214237357886, -30431.8330206672, -62163.8223128107, -78738.66900666583, -19867.07983816622, -187500.02235174447, -52627.09291304266, -38535.12269677195, 0.012, 1.006, 0.092, 192.0, 0.0, 0.0, 0.0, 0.0, 0.0, 0.0, 0.0, 0.0, 0.0, 1.695336959928192E9, 0.0, 2023-09-21 17:55:59.928
98.0, 36674.49643307882, 22009.047509318294, -66677.01949799294, -57458.46718054619, -23421.610703660335, -30953.03099787605, -187500.02235174447, -52573.69459553893, -30300.874149903557, -30420.12070657262, -62143.92926024548, -78724.47564893671, -19800.091660033664, -187500.02235174447, -52615.89468907055, -38509.015859248146, 0.008, 1.006, 0.092, 192.0, 0.0, 32.0, 15.5, 56.0, 1.0, 112.0, 0.0, 0.0, 0.0, 1.695336959928195E9, 0.0, 2023-09-21 17:55:59.928
100.0, 36702.25729969231, 21962.95821225145, -66731.08836783032, -57529.031637791595, -23419.152011770253, -31028.71400460172, -187500.02235174447, -52635.81009338023, -30303.891635405023, -30412.610520435635, -62151.01476323781, -78726.46495419323, -19871.32666961273, -187500.02235174447, -52623.069599040704, -38536.03911829461, 0.008, 1.006, 0.092, 192.0, 0.0, 0.0, 0.0, 0.0, 0.0, 0.0, 0.0, 0.0, 0.0, 1.695336959928198E9, 0.0, 2023-09-21 17:55:59.928
102.0, 36690.50028210882, 21991.25552073187, -66678.36060266025, -57472.07939291947, -23434.01592183303, -30976.14270164284, -187500.02235174447, -52594.59347660464, -30328.43385081695, -30450.69789298748, -62176.45104842795, -78757.2433063082, -19781.942043535953, -187500.02235174447, -52615.805282092726, -38498.62229807643, 0.008, 1.006, 0.092, 192.0, 0.0, 0.0, 0.0, 0.0, 0.0, 0.0, 0.0, 0.0, 0.0, 1.695336959928202E9, 0.0, 2023-09-21 17:55:59.928
104.0, 36683.59359307213, 21985.444067173492, -66680.34990791678, -57486.78684077106, -23395.302700436438, -30988.950251215727, -187500.02235174447, -52595.12991847157, -30275.214347268862, -30401.054668552242, -62125.44436758094, -78707.35421268395, -19867.325707355227, -187500.02235174447, -52636.39123873607, -38545.49390619921, 0.008, 1.006, 0.092, 192.0, 0.0, 0.0, 0.0, 0.0, 0.0, 0.0, 0.0, 0.0, 0.0, 1.695336959928205E9, 0.0, 2023-09-21 17:55:59.928
106.0, 36698.97159325738, 22003.906608093574, -66649.43744533509, -57449.41472404179, -23405.830372074888, -30950.84052691943, -187500.02235174447, -52561.73641225534, -30298.61662371357, -30413.68340416949, -62150.92535625999, -78730.64473040638, -19776.15294172203, -187500.02235174447, -52598.16975571749, -38508.81469354805, 0.008, 1.006, 0.092, 192.0, 0.0, 0.0, 0.0, 0.0, 0.0, 0.0, 0.0, 0.0, 0.0, 1.695336959988435E9, 0.0, 2023-09-21 17:55:59.988
108.0, 36676.195165657424, 21993.82597134423, -66654.75716051545, -57464.12217189338, -23384.037421230965, -30975.449797564725, -187500.02235174447, -52582.948217743426, -30266.31835297565, -30388.62709863509, -62118.58238203316, -78698.97230851321, -19862.7883032308, -187500.02235174447, -52624.23188975238, -38551.595932435506, 0.008, 1.006, 0.08600000000000001, 192.0, 0.0, 32.0, 15.5, 56.0, 1.0, 88.0, 0.0, 0.0, 0.0, 1.695336959988441E9, 0.0, 2023-09-21 17:55:59.988
110.0, 36720.07164002319, 21990.517913164844, -66665.32953564281, -57466.5138085501, -23409.83133433239, -30970.264192851093, -187500.02235174447, -52580.86950550908, -30296.62731845705, -30397.29957548375, -62154.03224873928, -78728.29779723857, -19775.281223688275, -187500.02235174447, -52582.657645065505, -38517.73303958571, 0.008, 1.006, 0.08600000000000001, 192.0, 0.0, 0.0, 0.0, 0.0, 0.0, 0.0, 0.0, 0.0, 0.0, 1.695336959988445E9, 0.0, 2023-09-21 17:55:59.988
112.0, 36685.06880820618, 21969.90960477705, -66675.25371018097, -57484.082279691975, -23404.533970896482, -30986.245690136635, -187500.02235174447, -52594.83934579365, -30288.312469519675, -30401.702869141445, -62144.06337071221, -78717.8818843224, -19848.438483290494, -187500.02235174447, -52619.11334027211, -38553.607589436484, 0.008, 1.006, 0.08600000000000001, 192.0, 0.0, 0.0, 0.0, 0.0, 0.0, 0.0, 0.0, 0.0, 0.0, 1.695336959988449E9, 0.0, 2023-09-21 17:55:59.988
114.0, 36751.02880609379, 21981.554863638266, -66674.04671598038, -57476.54974181054, -23414.391090201272, -30975.807425476007, -187500.02235174447, -52588.13382245706, -30311.446525030915, -30416.142096059575, -62174.75231584935, -78745.17336430233, -19768.620403840592, -187500.02235174447, -52589.27376142428, -38521.97987103223, 0.008, 1.006, 0.08600000000000001, 192.0, 0.0, 0.0, 0.0, 0.0, 0.0, 0.0, 0.0, 0.0, 0.0, 1.695336959988453E9, 0.0, 2023-09-21 17:55:59.988
116.0, 36699.37392465758, 21980.45962815996, -66658.19932916157, -57467.38552658386, -23403.05875576243, -30975.874480709375, -187500.02235174447, -52575.79565951773, -30285.026763084745, -30401.233482507883, -62140.48709159936, -78714.7749918431, -19843.49874776587, -187500.02235174447, -52624.56716591921, -38556.759185404684, 0.008, 1.006, 0.08600000000000001, 192.0, 0.0, 0.0, 0.0, 0.0, 0.0, 0.0, 0.0, 0.0, 0.0, 1.695336959988457E9, 0.0, 2023-09-21 17:55:59.988
118.0, 36787.708018744954, 21977.419790914035, -66685.4908091415, -57487.18917217126, -23412.06650877792, -30995.566367574498, -187500.02235174447, -52599.60026736263, -30312.698222720413, -30411.87291286861, -62174.841722827165, -78743.85461137946, -19782.38907842506, -187500.02235174447, -52583.708177054905, -38528.26071122417, 0.01, 1.006, 0.08600000000000001, 192.0, 0.0, 40.0, 15.5, 56.0, 1.0, 88.0, 0.0, 0.0, 0.0, 1.69533695998846E9, 0.0, 2023-09-21 17:55:59.988
120.0, 36719.93752955646, 21984.147665995082, -66655.22654714901, -57459.09302939094, -23404.176342985196, -30964.296277081525, -187500.02235174447, -52567.4584588359, -30279.52823394874, -30399.467694695915, -62136.128501430576, -78710.88578830789, -19839.140157597085, -187500.02235174447, -52629.35043923264, -38556.51331621568, 0.01, 1.006, 0.08600000000000001, 192.0, 0.0, 0.0, 0.0, 0.0, 0.0, 0.0, 0.0, 0.0, 0.0, 1.695336960048641E9, 0.0, 2023-09-21 17:56:00.048
122.0, 36804.963565464444, 21996.128201023126, -66669.28579441141, -57471.58765454146, -23394.363927169317, -30967.760797472096, -187500.02235174447, -52574.16398217249, -30295.37562076755, -30408.25193026685, -62164.91754828901, -78737.81964037653, -19789.943968050953, -187500.02235174447, -52590.03372073576, -38531.345251959, 0.01, 1.006, 0.08600000000000001, 192.0, 0.0, 0.0, 0.0, 0.0, 0.0, 0.0, 0.0, 0.0, 0.0, 1.695336960048654E9, 0.0, 2023-09-21 17:56:00.048
124.0, 36724.89961682554, 21996.351718467682, -66639.42386381912, -57440.29521230402, -23388.48541837757, -30939.418785502767, -187500.02235174447, -52541.552787012195, -30256.572992393136, -30379.06055200822, -62112.36859707459, -78689.13754095287, -19827.897230136066, -187500.02235174447, -52617.638125138066, -38555.39572899291, 0.01, 1.006, 0.08600000000000001, 192.0, 0.0, 0.0, 0.0, 0.0, 0.0, 0.0, 0.0, 0.0, 0.0, 1.695336960048658E9, 0.0, 2023-09-21 17:56:00.048
126.0, 36827.203551197475, 21980.079648504216, -66688.8882742987, -57486.98800647116, -23392.754601568533, -30989.576100060476, -187500.02235174447, -52602.394235419546, -30318.643786745524, -30407.380212233093, -62172.673603615, -78737.46201246524, -19790.659223873525, -187500.02235174447, -52576.91324674049, -38533.80394384908, 0.01, 1.006, 0.08600000000000001, 192.0, 0.0, 0.0, 0.0, 0.0, 0.0, 0.0, 0.0, 0.0, 0.0, 1.695336960048662E9, 0.0, 2023-09-21 17:56:00.048
128.0, 36752.45931773893, 21984.393535184092, -66663.22847166401, -57454.89090143334, -23417.63209314729, -30951.332265297446, -187500.02235174447, -52560.864694221586, -30309.233702329842, -30408.40839247804, -62154.30046967274, -78726.7331751267, -19808.942950837965, -187500.02235174447, -52616.3193722152, -38543.37049047595, 0.012, 1.01, 0.088, 192.0, 0.0, 48.0, 15.5, 72.0, 1.0, 96.0, 0.0, 0.0, 0.0, 1.695336960048666E9, 0.0, 2023-09-21 17:56:00.048
130.0, 36848.21419098547, 21976.190444968994, -66692.01751852245, -57488.95495998323, -23393.983947513574, -30995.27579489658, -187500.02235174447, -52601.07548249668, -30319.13552512354, -30393.83505509318, -62164.850493055645, -78729.95182632827, -19811.044014816765, -187500.02235174447, -52597.11922372809, -38536.15087701689, 0.012, 1.01, 0.088, 192.0, 0.0, 0.0, 0.0, 0.0, 0.0, 0.0, 0.0, 0.0, 0.0, 1.69533696004867E9, 0.0, 2023-09-21 17:56:00.048
132.0, 36774.16286160504, 21978.984413025908, -66662.44616060807, -57456.96961366769, -23423.01886356102, -30964.85507069291, -187500.02235174447, -52578.99195897484, -30322.175362369464, -30408.8777791116, -62160.00016450884, -78732.05289030707, -19798.080003032686, -187500.02235174447, -52615.89468907055, -38533.51337117116, 0.012, 1.01, 0.088, 192.0, 0.0, 0.0, 0.0, 0.0, 0.0, 0.0, 0.0, 0.0, 0.0, 1.695336960048674E9, 0.0, 2023-09-21 17:56:00.048
134.0, 36860.86527834717, 21966.802712297766, -66698.7453936035, -57496.12986995338, -23405.405688930237, -30997.42156236429, -187500.02235174447, -52606.35049418813, -30325.95280718241, -30399.467694695915, -62168.82910356869, -78734.80215487507, -19818.531849209292, -187500.02235174447, -52603.82474706468, -38546.00799632168, 0.012, 1.01, 0.088, 192.0, 0.0, 0.0, 0.0, 0.0, 0.0, 0.0, 0.0, 0.0, 0.0, 1.695336960048677E9, 0.0, 2023-09-21 17:56:00.048
136.0, 36793.20654788095, 21984.751163095378, -66650.86795698023, -57439.71406694819, -23430.506697953548, -30937.541238968523, -187500.02235174447, -52553.68978425143, -30341.95665621241, -30422.82526765171, -62175.758144349835, -78744.16753580184, -19785.272453459795, -187500.02235174447, -52615.7158751149, -38532.842818837504, 0.012, 1.01, 0.088, 192.0, 0.0, 0.0, 0.0, 0.0, 0.0, 0.0, 0.0, 0.0, 0.0, 1.695336960109035E9, 0.0, 2023-09-21 17:56:00.109
138.0, 36858.16071726808, 21992.909549821565, -66660.1886344181, -57457.55075902352, -23372.056886202918, -30960.787053202042, -187500.02235174447, -52571.191200159934, -30280.42230372695, -30360.95563899942, -62120.37052158958, -78687.03647697407, -19835.943858139977, -187500.02235174447, -52600.44963365193, -38556.46861272676, 0.014, 1.008, 0.092, 192.0, 0.0, 56.0, 15.5, 64.0, 1.0, 112.0, 0.0, 0.0, 0.0, 1.695336960109044E9, 0.0, 2023-09-21 17:56:00.109
140.0, 36808.07045794374, 21979.096171748184, -66662.15558793016, -57446.263128073595, -23422.34831122736, -30952.44985252021, -187500.02235174447, -52568.64310129203, -30315.91687392198, -30396.025526049798, -62152.10999871612, -78722.68750938028, -19776.130589977576, -187500.02235174447, -52588.29028466825, -38529.490057169205, 0.014, 1.008, 0.092, 192.0, 0.0, 0.0, 0.0, 0.0, 0.0, 0.0, 0.0, 0.0, 0.0, 1.695336960109047E9, 0.0, 2023-09-21 17:56:00.109
142.0, 36852.371615454154, 21988.908587564063, -66655.07008493782, -57447.49247401863, -23369.262918146007, -30958.440120034233, -187500.02235174447, -52561.468191321874, -30295.33091727864, -30373.740836827856, -62133.111015929106, -78701.76627657012, -19838.715474452434, -187500.02235174447, -52597.8121278062, -38557.07210982706, 0.014, 1.008, 0.092, 192.0, 0.0, 0.0, 0.0, 0.0, 0.0, 0.0, 0.0, 0.0, 0.0, 1.695336960109051E9, 0.0, 2023-09-21 17:56:00.109
144.0, 36809.12098993314, 22006.410003472567, -66623.7776427004, -57410.14270903382, -23386.116133465308, -30920.375099226847, -187500.02235174447, -52530.667487462466, -30298.638975458027, -30378.38999967456, -62135.63676305256, -78705.38725917188, -19762.58543283766, -187500.02235174447, -52574.92394148397, -38528.6406908799, 0.014, 1.008, 0.092, 192.0, 0.0, 0.0, 0.0, 0.0, 0.0, 0.0, 0.0, 0.0, 0.0, 1.695336960109055E9, 0.0, 2023-09-21 17:56:00.109
146.0, 36843.16269673857, 21999.056279546774, -66645.97292494452, -57443.49151176113, -23350.018066169985, -30956.473166522166, -187500.02235174447, -52561.82581923316, -30271.928640833932, -30350.316208638695, -62111.60863776311, -78680.97915422669, -19829.64066620358, -187500.02235174447, -52581.42829912047, -38558.18969704982, 0.014, 1.008, 0.092, 192.0, 0.0, 0.0, 0.0, 0.0, 0.0, 0.0, 0.0, 0.0, 0.0, 1.695336960109058E9, 0.0, 2023-09-21 17:56:00.109
148.0, 36832.523266377844, 21980.280814204314, -66663.1837681751, -57447.20190134071, -23400.465953405615, -30961.010570646595, -187500.02235174447, -52571.30295888221, -30312.698222720413, -30387.844787579157, -62149.78541729277, -78720.36292795693, -19744.838147740145, -187500.02235174447, -52566.810258246696, -38519.208254719764, 0.014, 1.008, 0.092, 192.0, 0.0, 56.0, 15.5, 64.0, 1.0, 112.0, 0.0, 0.0, 0.0, 1.695336960109061E9, 0.0, 2023-09-21 17:56:00.109
150.0, 36849.86822007516, 21958.845491271673, -66696.75608834697, -57488.37381462739, -23391.592310856857, -31003.367126389403, -187500.02235174447, -52607.31161919971, -30319.00141465681, -30397.54544467276, -62154.25576618383, -78725.39207045938, -19825.25972429034, -187500.02235174447, -52603.17654647548, -38554.188734792326, 0.014, 1.008, 0.092, 192.0, 0.0, 0.0, 0.0, 0.0, 0.0, 0.0, 0.0, 0.0, 0.0, 1.69533696016843E9, 0.0, 2023-09-21 17:56:00.168
152.0, 36856.90901957858, 21962.086494217696, -66687.21189346456, -57472.682890019765, -23425.81283161793, -30982.445893579235, -187500.02235174447, -52597.54390687274, -30348.416310359993, -30428.74847993237, -62186.44227819947, -78759.23261156472, -19742.088883172142, -187500.02235174447, -52585.22809567787, -38523.63390012192, 0.014, 1.008, 0.092, 192.0, 0.0, 0.0, 0.0, 0.0, 0.0, 0.0, 0.0, 0.0, 0.0, 1.695336960168445E9, 0.0, 2023-09-21 17:56:00.168
154.0, 36844.1461734946, 21967.897947776073, -66681.26632943944, -57473.26403537561, -23392.48638063507, -30982.915280212794, -187500.02235174447, -52586.725662556375, -30304.718649949868, -30399.221825506906, -62144.35394339013, -78719.40180294536, -19835.250954061863, -187500.02235174447, -52620.141520517056, -38566.7057116873, 0.014, 1.008, 0.092, 192.0, 0.0, 0.0, 0.0, 0.0, 0.0, 0.0, 0.0, 0.0, 0.0, 1.695336960168449E9, 0.0, 2023-09-21 17:56:00.168
156.0, 36871.14708079661, 21971.273061188826, -66691.50342839997, -57468.6148725289, -23419.86726759282, -30970.621820762375, -187500.02235174447, -52582.70234855442, -30327.38331882755, -30411.627043679604, -62172.0254030258, -78744.2345910352, -19753.398865866526, -187500.02235174447, -52584.73635729985, -38529.646519380396, 0.014, 1.008, 0.092, 192.0, 0.0, 0.0, 0.0, 0.0, 0.0, 0.0, 0.0, 0.0, 0.0, 1.695336960168453E9, 0.0, 2023-09-21 17:56:00.168
158.0, 36837.17242922454, 21967.11563672014, -66694.31974820135, -57475.61096854341, -23406.657386619736, -30988.167940159794, -187500.02235174447, -52587.73149105686, -30308.026708129255, -30407.290805255274, -62153.36169640562, -78725.4814774372, -19840.347151797672, -187500.02235174447, -52625.68475314197, -38564.22466805275, 0.016, 1.006, 0.092, 192.0, 0.0, 64.0, 15.5, 56.0, 1.0, 112.0, 0.0, 0.0, 0.0, 1.695336960168456E9, 0.0, 2023-09-21 17:56:00.168
160.0, 36884.334610025246, 21970.3342879217, -66697.0913645138, -57472.92875920877, -23424.382319972792, -30993.84528325144, -187500.02235174447, -52600.5166888853, -30329.998472928823, -30417.930235616, -62179.893217074066, -78749.30843702656, -19759.76911303629, -187500.02235174447, -52593.27472368178, -38528.90891181337, 0.016, 1.006, 0.092, 192.0, 0.0, 0.0, 0.0, 0.0, 0.0, 0.0, 0.0, 0.0, 0.0, 1.69533696016846E9, 0.0, 2023-09-21 17:56:00.168
162.0, 36828.7905250538, 21980.97371828243, -66669.73282930051, -57453.21452059919, -23405.159819741228, -30981.194195889737, -187500.02235174447, -52580.17660143097, -30297.499036490804, -30401.524055185804, -62141.00118172183, -78715.82552383251, -19839.16250934154, -187500.02235174447, -52630.53508168877, -38565.4540139978, 0.016, 1.006, 0.092, 192.0, 0.0, 0.0, 0.0, 0.0, 0.0, 0.0, 0.0, 0.0, 0.0, 1.695336960168464E9, 0.0, 2023-09-21 17:56:00.168
164.0, 36890.615450217185, 21983.87944506162, -66683.993242263, -57465.32916609397, -23415.06164253493, -30994.515835585098, -187500.02235174447, -52597.54390687274, -30314.1063826211, -30394.751476615846, -62160.178978464486, -78728.32014898302, -19766.25111892833, -187500.02235174447, -52587.99971199033, -38534.094516527, 0.016, 1.006, 0.092, 192.0, 0.0, 0.0, 0.0, 0.0, 0.0, 0.0, 0.0, 0.0, 0.0, 1.695336960168468E9, 0.0, 2023-09-21 17:56:00.168
166.0, 36820.922711005536, 21982.20306422747, -66666.11184669875, -57450.64406998683, -23409.25018897655, -30975.94153594274, -187500.02235174447, -52573.82870600566, -30294.682716689436, -30392.650412637046, -62131.70285602842, -78706.39308767238, -19837.754349440856, -187500.02235174447, -52633.641974168066, -38563.28589478563, 0.016, 1.006, 0.092, 192.0, 0.0, 0.0, 0.0, 0.0, 0.0, 0.0, 0.0, 0.0, 0.0, 1.695336960228226E9, 0.0, 2023-09-21 17:56:00.228
168.0, 36897.43273227605, 21979.76672408184, -66680.37225966124, -57465.84325621644, -23407.082069764387, -30997.645079808844, -187500.02235174447, -52594.66053183801, -30316.408612299994, -30400.652337152045, -62161.87771104309, -78729.34832922797, -19781.226787713385, -187500.02235174447, -52592.82768879267, -38532.48519092622, 0.016, 1.006, 0.092, 192.0, 0.0, 64.0, 15.5, 56.0, 1.0, 112.0, 0.0, 0.0, 0.0, 1.695336960228234E9, 0.0, 2023-09-21 17:56:00.228
170.0, 36824.85661802967, 21956.319744148226, -66693.2468644675, -57476.99677669964, -23432.004264832052, -31014.833571294974, -187500.02235174447, -52605.41172092101, -30319.113173379086, -30418.086697827184, -62158.48024588588, -78728.52131468312, -19829.886535392587, -187500.02235174447, -52626.19884326444, -38554.56871444806, 0.016, 1.006, 0.092, 192.0, 0.0, 0.0, 0.0, 0.0, 0.0, 0.0, 0.0, 0.0, 0.0, 1.695336960228238E9, 0.0, 2023-09-21 17:56:00.228
172.0, 36910.28498533786, 21962.131197706607, -66700.28766397091, -57484.88694249236, -23423.48825019458, -31021.4720393982, -187500.02235174447, -52616.27466872629, -30349.511545838304, -30428.54731423227, -62194.37714748111, -78761.37837903242, -19791.463886673915, -187500.02235174447, -52598.192107461946, -38531.38995544791, 0.016, 1.006, 0.092, 192.0, 0.0, 0.0, 0.0, 0.0, 0.0, 0.0, 0.0, 0.0, 0.0, 1.695336960228242E9, 0.0, 2023-09-21 17:56:00.228
174.0, 36818.464019115454, 21982.158360738562, -66647.64930577866, -57432.11447383338, -23419.30847398144, -30970.80063471802, -187500.02235174447, -52558.49540930932, -30291.66523118797, -30390.951680058442, -62126.897230970535, -78702.7274015817, -19828.72424468091, -187500.02235174447, -52629.79747412175, -38557.49679297171, 0.016, 1.006, 0.092, 192.0, 0.0, 0.0, 0.0, 0.0, 0.0, 0.0, 0.0, 0.0, 0.0, 1.695336960228245E9, 0.0, 2023-09-21 17:56:00.228
176.0, 36914.19654061753, 21968.50144487637, -66688.77651557644, -57472.14644815284, -23417.654444891745, -31007.010460735615, -187500.02235174447, -52600.89666854104, -30331.47368806287, -30406.9778808329, -62172.83006582619, -78737.19379153178, -19800.58339841168, -187500.02235174447, -52587.21740093439, -38537.55903691758, 0.016, 1.006, 0.092, 192.0, 0.0, 0.0, 0.0, 0.0, 0.0, 0.0, 0.0, 0.0, 0.0, 1.695336960228248E9, 0.0, 2023-09-21 17:56:00.228
178.0, 36831.56214136626, 21967.361505909146, -66667.20708217706, -57449.0123926416, -23433.121852054817, -30988.145588415337, -187500.02235174447, -52581.29418865373, -30302.12584759305, -30400.33941272967, -62138.989524720855, -78709.32116619601, -19811.468697961416, -187500.02235174447, -52616.5205379153, -38547.08088005554, 0.016, 1.008, 0.092, 192.0, 0.0, 64.0, 15.5, 64.0, 1.0, 112.0, 0.0, 0.0, 0.0, 1.695336960228252E9, 0.0, 2023-09-21 17:56:00.228
180.0, 36908.92152892608, 21983.007727027863, -66666.64828856567, -57450.53231126456, -23402.656424362234, -30985.84335873644, -187500.02235174447, -52573.515781583286, -30321.28129259125, -30406.17321803251, -62163.41998141051, -78727.31432048253, -19809.524096193803, -187500.02235174447, -52594.548773115734, -38540.73298463023, 0.016, 1.008, 0.092, 192.0, 0.0, 0.0, 0.0, 0.0, 0.0, 0.0, 0.0, 0.0, 0.0, 1.695336960288494E9, 0.0, 2023-09-21 17:56:00.288
182.0, 36831.78565881082, 21982.11365724965, -66650.04094243539, -57430.41574125478, -23420.135488526284, -30974.667486508788, -187500.02235174447, -52566.34087161313, -30291.061734087674, -30388.358877701627, -62128.28303912676, -78697.31827942352, -19800.941026322966, -187500.02235174447, -52602.796566819736, -38543.683414898325, 0.016, 1.008, 0.092, 192.0, 0.0, 0.0, 0.0, 0.0, 0.0, 0.0, 0.0, 0.0, 0.0, 1.695336960288517E9, 0.0, 2023-09-21 17:56:00.288
184.0, 36907.91570042559, 21982.67245086103, -66673.68908806909, -57458.44482880174, -23393.425153902193, -31003.367126389403, -187500.02235174447, -52589.229057935365, -30306.551492995204, -30391.689287625468, -62148.33255390317, -78712.80803833104, -19822.15283181105, -187500.02235174447, -52588.64791257953, -38547.28204575563, 0.016, 1.008, 0.092, 192.0, 0.0, 0.0, 0.0, 0.0, 0.0, 0.0, 0.0, 0.0, 0.0, 1.695336960288521E9, 0.0, 2023-09-21 17:56:00.288
186.0, 36837.32889143573, 22001.246750503393, -66633.05361664935, -57410.47798520065, -23412.737061111577, -30943.352692526903, -187500.02235174447, -52539.384667800034, -30291.08408583213, -30384.91670905551, -62126.91958271499, -78696.71478232322, -19784.221921470395, -187500.02235174447, -52595.42049114949, -38533.33455721552, 0.016, 1.008, 0.092, 192.0, 0.0, 0.0, 0.0, 0.0, 0.0, 0.0, 0.0, 0.0, 0.0, 1.695336960288525E9, 0.0, 2023-09-21 17:56:00.288
188.0, 36895.48813050844, 22001.939654581507, -66654.06425643734, -57437.32243029147, -23375.09672344884, -30973.974582430674, -187500.02235174447, -52561.78111574425, -30284.28915551772, -30368.085845480666, -62121.48810881235, -78686.65649731833, -19823.762157411835, -187500.02235174447, -52581.69652005393, -38544.95746433228, 0.014, 1.01, 0.09, 192.0, 0.0, 56.0, 15.5, 72.0, 1.0, 104.0, 0.0, 0.0, 0.0, 1.695336960288528E9, 0.0, 2023-09-21 17:56:00.288
190.0, 36841.70983334897, 21996.88816033461, -66651.47145408051, -57427.62177319787, -23420.24724724856, -30970.59946901792, -187500.02235174447, -52567.19023790243, -30295.19680681191, -30384.603784633135, -62127.74659725984, -78698.21234920173, -19755.745799034336, -187500.02235174447, -52573.582836816655, -38522.67277511034, 0.014, 1.01, 0.09, 192.0, 0.0, 0.0, 0.0, 0.0, 0.0, 0.0, 0.0, 0.0, 0.0, 1.695336960288532E9, 0.0, 2023-09-21 17:56:00.288
192.0, 36884.58047921425, 21991.322575965238, -66670.67160256763, -57457.05902064551, -23381.891653763254, -30994.89581524084, -187500.02235174447, -52575.259217650804, -30294.99564111181, -30385.140226500065, -62128.03716993776, -78697.54179686807, -19811.267532261318, -187500.02235174447, -52587.08329046766, -38545.225685265745, 0.014, 1.01, 0.09, 192.0, 0.0, 0.0, 0.0, 0.0, 0.0, 0.0, 0.0, 0.0, 0.0, 1.695336960288536E9, 0.0, 2023-09-21 17:56:00.288
194.0, 36853.17627825454, 21989.86971257564, -66669.41990487813, -57444.005601883604, -23428.338578741383, -30978.75785574411, -187500.02235174447, -52572.465249593886, -30321.86243794709, -30413.7281076584, -62153.98754525037, -78724.94503557027, -19720.787670706235, -187500.02235174447, -52575.41567986199, -38509.775818559625, 0.014, 1.01, 0.09, 192.0, 0.0, 0.0, 0.0, 0.0, 0.0, 0.0, 0.0, 0.0, 0.0, 1.695336960288539E9, 0.0, 2023-09-21 17:56:00.288
196.0, 36883.127615824655, 21974.581119368213, -66697.96308254756, -57485.6692535483, -23404.310453451926, -31031.485620914176, -187500.02235174447, -52614.71004661442, -30303.17637958245, -30396.360802216626, -62135.90498398602, -78707.4212679173, -19793.520247163804, -187500.02235174447, -52598.50503188432, -38544.44337420981, 0.014, 1.01, 0.09, 192.0, 0.0, 0.0, 0.0, 0.0, 0.0, 0.0, 0.0, 0.0, 0.0, 1.695336960349788E9, 0.0, 2023-09-21 17:56:00.349
198.0, 36865.0003510714, 21995.480000433923, -66667.54235834388, -57441.79277918253, -23429.187945030684, -30982.46824532369, -187500.02235174447, -52578.36611013009, -30323.85174320361, -30423.249950796362, -62155.95449876243, -78732.36581472943, -19709.477688011848, -187500.02235174447, -52584.08815671065, -38516.52604538513, 0.016, 1.01, 0.088, 192.0, 0.0, 64.0, 15.5, 72.0, 1.0, 96.0, 0.0, 0.0, 0.0, 1.695336960349802E9, 0.0, 2023-09-21 17:56:00.349
200.0, 36873.136386053135, 21968.434389643, -66702.36637620526, -57485.49043959266, -23408.33376745388, -31022.36610917641, -187500.02235174447, -52604.02591276478, -30303.42224877146, -30402.26166275283, -62133.043960695744, -78706.7283638392, -19796.604787898636, -187500.02235174447, -52608.13863374456, -38557.943827860814, 0.016, 1.01, 0.088, 192.0, 0.0, 0.0, 0.0, 0.0, 0.0, 0.0, 0.0, 0.0, 0.0, 1.695336960349808E9, 0.0, 2023-09-21 17:56:00.349
202.0, 36882.18884255753, 21975.832817057708, -66687.12248648674, -57457.863683445896, -23438.441567235182, -30996.572196074987, -187500.02235174447, -52590.637217836054, -30354.987723229853, -30449.69206448699, -62186.665795644025, -78760.35019878748, -19701.654577452493, -187500.02235174447, -52581.67416830947, -38515.11788548445, 0.016, 1.01, 0.088, 192.0, 0.0, 0.0, 0.0, 0.0, 0.0, 0.0, 0.0, 0.0, 0.0, 1.695336960349814E9, 0.0, 2023-09-21 17:56:00.349
204.0, 36858.026606801344, 21966.556843108756, -66697.0913645138, -57480.12602092338, -23408.95961629863, -31025.316539444513, -187500.02235174447, -52609.21151747841, -30300.89650164801, -30405.837941865677, -62130.07117868319, -78706.34838418345, -19798.705851877436, -187500.02235174447, -52617.056979782225, -38562.280066285144, 0.016, 1.01, 0.088, 192.0, 0.0, 0.0, 0.0, 0.0, 0.0, 0.0, 0.0, 0.0, 0.0, 1.69533696034982E9, 0.0, 2023-09-21 17:56:00.349
206.0, 36883.127615824655, 21971.496578633378, -66701.62876863823, -57472.10174466393, -23438.55332595746, -31011.10082997094, -187500.02235174447, -52599.75672957382, -30349.24332490484, -30440.617256238136, -62180.34025196317, -78753.4435097508, -19709.477688011848, -187500.02235174447, -52582.255313665315, -38520.95169078728, 0.016, 1.01, 0.088, 192.0, 0.0, 0.0, 0.0, 0.0, 0.0, 0.0, 0.0, 0.0, 0.0, 1.695336960349834E9, 0.0, 2023-09-21 17:56:00.349
208.0, 36829.10344947618, 21989.64619513109, -66669.79988453387, -57445.43611352875, -23403.505790651536, -30990.827797749975, -187500.02235174447, -52572.398194360525, -30301.32118479266, -30413.459886724937, -62129.422978093986, -78708.1812272288, -19802.460944945928, -187500.02235174447, -52624.23188975238, -38560.961313362284, 0.012, 1.012, 0.088, 192.0, 0.0, 48.0, 15.5, 80.0, 1.0, 96.0, 0.0, 0.0, 0.0, 1.69533696034984E9, 0.0, 2023-09-21 17:56:00.349
210.0, 36868.08489180623, 22013.07082332025, -66660.32274488482, -57429.87929938785, -23396.889674292765, -30968.766625972585, -187500.02235174447, -52563.569255300674, -30297.23081555734, -30387.889491068065, -62128.95359146042, -78700.11224748043, -19721.972313162365, -187500.02235174447, -52572.71111878289, -38528.32776645753, 0.012, 1.012, 0.088, 192.0, 0.0, 0.0, 0.0, 0.0, 0.0, 0.0, 0.0, 0.0, 0.0, 1.695336960349845E9, 0.0, 2023-09-21 17:56:00.349
212.0, 36803.62246079713, 21994.340061466704, -66669.55401534487, -57444.6090989839, -23396.040308003463, -30984.859881980406, -187500.02235174447, -52574.25338915031, -30286.770199152255, -30390.862273080624, -62113.86616395309, -78691.32801190949, -19794.146096008553, -187500.02235174447, -52602.03660750826, -38557.29562727161, 0.012, 1.012, 0.088, 192.0, 0.0, 0.0, 0.0, 0.0, 0.0, 0.0, 0.0, 0.0, 0.0, 1.695336960409978E9, 0.0, 2023-09-21 17:56:00.409
214.0, 36862.988694070424, 22001.73848888141, -66678.62882359372, -57448.140674607836, -23408.669043620714, -30991.74421927264, -187500.02235174447, -52588.15617420151, -30315.358080310594, -30408.296633755763, -62149.56189984822, -78722.08401228, -19724.8556881971, -187500.02235174447, -52570.74416527083, -38522.2927954546, 0.012, 1.012, 0.088, 192.0, 0.0, 0.0, 0.0, 0.0, 0.0, 0.0, 0.0, 0.0, 0.0, 1.695336960409994E9, 0.0, 2023-09-21 17:56:00.409
216.0, 36781.60599250865, 22007.706404650977, -66652.52198606991, -57427.28649703104, -23391.637014345768, -30967.60433526091, -187500.02235174447, -52554.47209530736, -30274.387332724018, -30385.453150922436, -62104.27726558176, -78681.78381702707, -19784.892473804055, -187500.02235174447, -52607.44572966644, -38549.4501649678, 0.012, 1.012, 0.088, 192.0, 0.0, 0.0, 0.0, 0.0, 0.0, 0.0, 0.0, 0.0, 0.0, 1.69533696041E9, 0.0, 2023-09-21 17:56:00.410
218.0, 36861.13349928064, 21998.899817335587, -66689.15649523216, -57459.69652649123, -23397.940206282165, -31002.65187056683, -187500.02235174447, -52601.343703430146, -30308.8537226741, -30398.55127317325, -62147.39378063605, -78716.29491046607, -19723.849859696613, -187500.02235174447, -52559.322423854166, -38519.81175182006, 0.01, 1.01, 0.08600000000000001, 192.0, 0.0, 40.0, 15.5, 72.0, 1.0, 88.0, 0.0, 0.0, 0.0, 1.695336960410005E9, 0.0, 2023-09-21 17:56:00.410
220.0, 36771.637114481586, 21998.5421894243, -66666.69299205458, -57435.26606980158, -23403.282273206984, -30975.874480709375, -187500.02235174447, -52557.64604302002, -30279.684696159926, -30390.7728661028, -62112.18978311894, -78686.25416591814, -19766.7652090508, -187500.02235174447, -52603.89180229805, -38543.45989745377, 0.01, 1.01, 0.08600000000000001, 192.0, 0.0, 0.0, 0.0, 0.0, 0.0, 0.0, 0.0, 0.0, 0.0, 1.695336960410015E9, 0.0, 2023-09-21 17:56:00.410
222.0, 36854.69619687751, 21992.328404465727, -66696.8454953248, -57461.4623143032, -23406.322110452904, -31005.445838623746, -187500.02235174447, -52596.158098716514, -30324.81286821519, -30409.88360761209, -62163.91171978852, -78727.89546583837, -19731.024769666765, -187500.02235174447, -52570.297130381725, -38516.68250759632, 0.01, 1.01, 0.08600000000000001, 192.0, 0.0, 0.0, 0.0, 0.0, 0.0, 0.0, 0.0, 0.0, 0.0, 1.69533696041002E9, 0.0, 2023-09-21 17:56:00.410
224.0, 36764.43985276698, 21995.658814389564, -66668.95051824457, -57427.17473830876, -23420.29195073747, -30974.622783019877, -187500.02235174447, -52564.23980763434, -30290.525292220747, -30397.836017350677, -62124.237373380354, -78696.22304394521, -19766.67580207298, -187500.02235174447, -52611.55845064622, -38534.98858630521, 0.01, 1.01, 0.08600000000000001, 192.0, 0.0, 0.0, 0.0, 0.0, 0.0, 0.0, 0.0, 0.0, 0.0, 1.695336960410025E9, 0.0, 2023-09-21 17:56:00.410
226.0, 36850.33760670872, 21981.554863638266, -66707.10494602978, -57468.413706828804, -23410.613645388323, -31021.51674288711, -187500.02235174447, -52603.2659534533, -30322.86826644758, -30407.35786048864, -62162.70472558794, -78722.46399193573, -19751.789540265745, -187500.02235174447, -52579.863677008594, -38519.02944076413, 0.01, 1.01, 0.08600000000000001, 192.0, 0.0, 0.0, 0.0, 0.0, 0.0, 0.0, 0.0, 0.0, 0.0, 1.695336960469389E9, 0.0, 2023-09-21 17:56:00.469
228.0, 36753.75571891734, 22006.7452796394, -66653.30429712585, -57411.03677881203, -23413.228799489596, -30958.194250845227, -187500.02235174447, -52541.32926956764, -30291.776989910246, -30398.59597666216, -62126.56195480371, -78693.65259333284, -19758.91974674699, -187500.02235174447, -52607.95981978891, -38525.310280956066, 0.008, 1.008, 0.088, 192.0, 0.0, 32.0, 15.5, 64.0, 1.0, 96.0, 0.0, 0.0, 0.0, 1.695336960469423E9, 0.0, 2023-09-21 17:56:00.469
230.0, 36828.38819365361, 21998.29632023529, -66695.30322495737, -57458.5118840351, -23394.14040972476, -31007.345736902447, -187500.02235174447, -52587.485621867854, -30289.452408486894, -30383.44149392146, -62134.42976885197, -78696.71478232322, -19775.52709287728, -187500.02235174447, -52582.2106101764, -38531.27819672563, 0.008, 1.008, 0.088, 192.0, 0.0, 0.0, 0.0, 0.0, 0.0, 0.0, 0.0, 0.0, 0.0, 1.695336960469429E9, 0.0, 2023-09-21 17:56:00.469
232.0, 36742.13281180058, 22018.07761407824, -66649.05746567935, -57405.02415955355, -23412.06650877792, -30952.762776942585, -187500.02235174447, -52542.44685679041, -30285.764370651767, -30393.745648115357, -62119.3646930891, -78690.36688689791, -19759.09856070263, -187500.02235174447, -52599.4661568959, -38525.84672282299, 0.008, 1.008, 0.088, 192.0, 0.0, 0.0, 0.0, 0.0, 0.0, 0.0, 0.0, 0.0, 0.0, 1.695336960469434E9, 0.0, 2023-09-21 17:56:00.469
234.0, 36810.2385771559, 22017.07178557775, -66680.55107361688, -57440.65284021531, -23379.58942408436, -30989.352582615924, -187500.02235174447, -52571.39236586003, -30281.472835716348, -30372.48913913836, -62116.79424247673, -78680.95680248224, -19791.061555273718, -187500.02235174447, -52578.410813619, -38533.37926070443, 0.008, 1.008, 0.088, 192.0, 0.0, 0.0, 0.0, 0.0, 0.0, 0.0, 0.0, 0.0, 0.0, 1.695336960469439E9, 0.0, 2023-09-21 17:56:00.469
236.0, 36746.06671882471, 22011.819125630755, -66667.96704148853, -57420.670380672265, -23416.96154081363, -30968.811329461496, -187500.02235174447, -52554.96383368538, -30287.820731141655, -30390.884624825077, -62114.46966105339, -78683.70606705023, -19744.793444251234, -187500.02235174447, -52583.41760437699, -38514.402629661876, 0.008, 1.008, 0.088, 192.0, 0.0, 0.0, 0.0, 0.0, 0.0, 0.0, 0.0, 0.0, 0.0, 1.695336960469447E9, 0.0, 2023-09-21 17:56:00.469
238.0, 36811.60203356767, 21988.081573019215, -66719.62192292475, -57477.82379124449, -23406.187999986174, -31032.87142907041, -187500.02235174447, -52612.05018902424, -30324.119964137077, -30407.11199129963, -62148.980754492375, -78709.075297007, -19791.57564539619, -187500.02235174447, -52586.45744162291, -38526.74079260121, 0.012, 1.004, 0.08600000000000001, 192.0, 0.0, 48.0, 15.5, 48.0, 1.0, 88.0, 0.0, 0.0, 0.0, 1.695336960469452E9, 0.0, 2023-09-21 17:56:00.469
240.0, 36751.69935842745, 22019.172849556548, -66663.42963736411, -57412.154366034796, -23423.890581594776, -30964.385684059347, -187500.02235174447, -52549.77822897175, -30318.979062912356, -30417.572607704715, -62140.64355381055, -78706.81777081703, -19733.01407492329, -187500.02235174447, -52590.61486609159, -38505.864263279946, 0.012, 1.004, 0.08600000000000001, 192.0, 0.0, 0.0, 0.0, 0.0, 0.0, 0.0, 0.0, 0.0, 0.0, 1.695336960469457E9, 0.0, 2023-09-21 17:56:00.469
242.0, 36784.3329053322, 22013.093175064707, -66683.81442830735, -57441.34574429342, -23386.026726487486, -30994.538187329556, -187500.02235174447, -52571.88410423805, -30277.114245547564, -30366.185947201964, -62098.97990214585, -78660.01321792761, -19805.500782191848, -187500.02235174447, -52593.07355798168, -38536.57556016154, 0.012, 1.004, 0.08600000000000001, 192.0, 0.0, 0.0, 0.0, 0.0, 0.0, 0.0, 0.0, 0.0, 0.0, 1.695336960529179E9, 0.0, 2023-09-21 17:56:00.529
244.0, 36765.93741964548, 21982.87361656113, -66713.6987106441, -57462.87047420388, -23448.343390028884, -31019.438030652767, -187500.02235174447, -52610.32910470118, -30339.542667811238, -30423.898151385565, -62160.53660637577, -78723.3357099695, -19720.47474628386, -187500.02235174447, -52573.851057750115, -38495.35894338595, 0.012, 1.004, 0.08600000000000001, 192.0, 0.0, 0.0, 0.0, 0.0, 0.0, 0.0, 0.0, 0.0, 0.0, 1.695336960529205E9, 0.0, 2023-09-21 17:56:00.529
246.0, 36781.337771575185, 21986.382840440612, -66712.4917164435, -57468.88309346236, -23421.72246238261, -31023.99778652165, -187500.02235174447, -52607.28926745526, -30330.311397351194, -30421.998253106864, -62150.3665626486, -78715.28908196559, -19805.880761847588, -187500.02235174447, -52616.20761349292, -38528.05954552407, 0.012, 1.004, 0.08600000000000001, 192.0, 0.0, 0.0, 0.0, 0.0, 0.0, 0.0, 0.0, 0.0, 0.0, 1.695336960529212E9, 0.0, 2023-09-21 17:56:00.529
248.0, 36760.95298063195, 22017.518820466856, -66666.3353641433, -57412.51199394608, -23432.54070669898, -30962.061102635995, -187500.02235174447, -52554.94148194093, -30320.521333279772, -30414.95745360344, -62139.123635187585, -78705.4766661497, -19728.566077776683, -187500.02235174447, -52594.43701439346, -38497.2364899202, 0.012, 1.008, 0.09, 192.0, 0.0, 48.0, 15.5, 64.0, 1.0, 104.0, 0.0, 0.0, 0.0, 1.695336960529218E9, 0.0, 2023-09-21 17:56:00.529
250.0, 36756.884963141085, 21996.82110510124, -66696.06318426886, -57455.53910202254, -23405.763316841523, -31022.477867898688, -187500.02235174447, -52606.23873546586, -30283.059809572675, -30376.892432796056, -62101.371538802574, -78665.4670435747, -19818.48714572038, -187500.02235174447, -52607.95981978891, -38535.43562119432, 0.012, 1.008, 0.09, 192.0, 0.0, 0.0, 0.0, 0.0, 0.0, 0.0, 0.0, 0.0, 0.0, 1.695336960529229E9, 0.0, 2023-09-21 17:56:00.529
252.0, 36767.09971035716, 22008.55577094028, -66683.32268992934, -57432.963840122684, -23437.771014901522, -30994.448780351733, -187500.02235174447, -52581.29418865373, -30332.99360668583, -30421.908846129045, -62151.97588824939, -78715.9819860437, -19719.915952672476, -187500.02235174447, -52585.02692997777, -38494.822501519026, 0.012, 1.008, 0.09, 192.0, 0.0, 0.0, 0.0, 0.0, 0.0, 0.0, 0.0, 0.0, 0.0, 1.695336960529235E9, 0.0, 2023-09-21 17:56:00.529
254.0, 36737.03661406477, 21999.54801792479, -66689.64823361019, -57448.99004089714, -23423.510601939037, -31014.252425939136, -187500.02235174447, -52592.55946785921, -30303.154027837998, -30399.847674351655, -62118.3141610997, -78684.46602636171, -19807.8253636152, -187500.02235174447, -52625.01420080831, -38537.91666482886, 0.012, 1.008, 0.09, 192.0, 0.0, 0.0, 0.0, 0.0, 0.0, 0.0, 0.0, 0.0, 0.0, 1.69533696052924E9, 0.0, 2023-09-21 17:56:00.529
0.0, 36773.26879182682, 21995.658814389564, -66703.3945564502, -57454.06388688849, -23439.939134113687, -31017.873408540894, -187500.02235174447, -52607.490433155355, -30326.533952538248, -30415.471543725915, -62145.58328933517, -78707.6224336174, -19720.944132917422, -187500.02235174447, -52586.05511022271, -38500.410437632854, 0.012, 1.008, 0.09, 192.0, 0.0, 0.0, 0.0, 0.0, 0.0, 0.0, 0.0, 0.0, 0.0, 1.695336960589562E9, 0.0, 2023-09-21 17:56:00.589
2.0, 36728.006509304825, 21984.997032284384, -66704.60155065078, -57460.70235499172, -23435.804061389455, -31026.679995856288, -187500.02235174447, -52610.44086342346, -30317.57090301167, -30422.199418806962, -62135.52500433028, -78701.00631725864, -19803.24325600186, -187500.02235174447, -52632.21146252292, -38530.741754858704, 0.014, 1.008, 0.088, 192.0, 0.0, 56.0, 15.5, 64.0, 1.0, 96.0, 0.0, 0.0, 0.0, 1.695336960589587E9, 0.0, 2023-09-21 17:56:00.589
4.0, 36776.442739539474, 21995.234131244913, -66703.10398377228, -57448.006564141106, -23442.48723298159, -31012.307824171523, -187500.02235174447, -52595.68871208295, -30337.776879999266, -30432.0341863673, -62164.20229246644, -78725.77205011512, -19740.658371527003, -187500.02235174447, -52596.26985743879, -38495.42599861932, 0.014, 1.008, 0.088, 192.0, 0.0, 0.0, 0.0, 0.0, 0.0, 0.0, 0.0, 0.0, 0.0, 1.695336960589594E9, 0.0, 2023-09-21 17:56:00.589
6.0, 36701.69850608093, 21998.67629989103, -66684.66379459665, -57434.28259304555, -23426.148107784764, -30998.18152167577, -187500.02235174447, -52577.06970895168, -30304.964519138877, -30407.693136655467, -62124.43853908045, -78686.96942174071, -19828.92541038101, -187500.02235174447, -52632.3232212452, -38530.20531299178, 0.014, 1.008, 0.088, 192.0, 0.0, 0.0, 0.0, 0.0, 0.0, 0.0, 0.0, 0.0, 0.0, 1.695336960589601E9, 0.0, 2023-09-21 17:56:00.589
8.0, 36764.66337021153, 21994.384764955612, -66706.61320765177, -57448.6100612414, -23425.522258940015, -31009.24563518115, -187500.02235174447, -52592.13478471456, -30320.99071991333, -30408.006061077842, -62148.846644025645, -78704.40378241584, -19772.82253179819, -187500.02235174447, -52589.89961026903, -38506.087780724505, 0.014, 1.008, 0.088, 192.0, 0.0, 0.0, 0.0, 0.0, 0.0, 0.0, 0.0, 0.0, 0.0, 1.695336960589621E9, 0.0, 2023-09-21 17:56:00.589
10.0, 36687.236927418344, 21992.17194225454, -66691.8387045668, -57436.249546557614, -23434.172384044217, -30999.544978087542, -187500.02235174447, -52586.65860732301, -30317.28033033375, -30413.884569869588, -62137.89428924255, -78695.19486370026, -19819.49297422087, -187500.02235174447, -52627.31643048721, -38524.52796990013, 0.014, 1.008, 0.088, 192.0, 0.0, 0.0, 0.0, 0.0, 0.0, 0.0, 0.0, 0.0, 0.0, 1.695336960589628E9, 0.0, 2023-09-21 17:56:00.589
12.0, 36758.0249021083, 22019.44107049001, -66674.56080610285, -57420.42451148326, -23403.036404017974, -30981.88709996785, -187500.02235174447, -52567.011423946795, -30317.257978589296, -30403.40160172005, -62139.481263098874, -78693.47377937721, -19771.68259283097, -187500.02235174447, -52591.687749825454, -38510.088742982, 0.012, 1.012, 0.084, 192.0, 0.0, 48.0, 15.5, 80.0, 1.0, 80.0, 0.0, 0.0, 0.0, 1.695336960589635E9, 0.0, 2023-09-21 17:56:00.589
14.0, 36670.38371209904, 22011.43914597501, -66669.17403568912, -57419.821014382964, -23418.25794199204, -30988.637326793356, -187500.02235174447, -52571.95115947141, -30276.197824024897, -30377.58533687417, -62093.01198637629, -78652.97241842418, -19809.345282238162, -187500.02235174447, -52607.08810175516, -38535.12269677195, 0.012, 1.012, 0.084, 192.0, 0.0, 0.0, 0.0, 0.0, 0.0, 0.0, 0.0, 0.0, 0.0, 1.695336960589642E9, 0.0, 2023-09-21 17:56:00.589
16.0, 36749.50888747083, 22019.619884445656, -66680.4393148946, -57427.308848775494, -23406.50092440855, -30990.045486694038, -187500.02235174447, -52576.46621185139, -30313.68169947645, -30400.093543540665, -62141.73878928886, -78696.71478232322, -19776.376459166582, -187500.02235174447, -52577.78496477425, -38515.028478506625, 0.012, 1.012, 0.084, 192.0, 0.0, 0.0, 0.0, 0.0, 0.0, 0.0, 0.0, 0.0, 0.0, 1.69533696064984E9, 0.0, 2023-09-21 17:56:00.649
18.0, 36654.51397353577, 22024.090233336716, -66647.11286391174, -57398.96683680616, -23401.248264461552, -30969.50423353961, -187500.02235174447, -52553.242749362325, -30248.593419622594, -30356.351179641628, -62067.91097735298, -78629.77130767958, -19802.706814134934, -187500.02235174447, -52601.477813896876, -38528.10424901298, 0.012, 1.012, 0.084, 192.0, 0.0, 0.0, 0.0, 0.0, 0.0, 0.0, 0.0, 0.0, 0.0, 1.695336960649855E9, 0.0, 2023-09-21 17:56:00.649
20.0, 36747.63134093658, 21995.345889967193, -66707.88725708572, -57454.46621828869, -23413.20644774514, -31020.443859153256, -187500.02235174447, -52597.85683129512, -30329.7079002509, -30407.693136655467, -62154.434580139474, -78706.30368069455, -19786.479447660382, -187500.02235174447, -52570.34183387063, -38505.28311792411, 0.012, 1.012, 0.084, 192.0, 0.0, 0.0, 0.0, 0.0, 0.0, 0.0, 0.0, 0.0, 0.0, 1.695336960649861E9, 0.0, 2023-09-21 17:56:00.649
22.0, 36659.34195033812, 22010.522724452345, -66667.76587578843, -57413.22724976865, -23431.467822965125, -30978.98137318866, -187500.02235174447, -52562.0046331888, -30295.55443472319, -30401.63581390808, -62114.5590680312, -78673.15604366733, -19791.77681109629, -187500.02235174447, -52609.25622096732, -38512.21215870525, 0.014, 1.012, 0.082, 192.0, 0.0, 56.0, 15.5, 80.0, 1.0, 72.0, 0.0, 0.0, 0.0, 1.695336960649867E9, 0.0, 2023-09-21 17:56:00.649
24.0, 36739.13767804357, 22004.06307030476, -66697.58310289182, -57452.052229887515, -23404.533970896482, -31024.578931877488, -187500.02235174447, -52606.97634303288, -30309.99366164132, -30398.461866195426, -62131.94872521744, -78687.05882871852, -19800.672805389502, -187500.02235174447, -52593.87822078207, -38514.71555408425, 0.014, 1.012, 0.082, 192.0, 0.0, 0.0, 0.0, 0.0, 0.0, 0.0, 0.0, 0.0, 0.0, 1.695336960649873E9, 0.0, 2023-09-21 17:56:00.649
26.0, 36660.21366837188, 22017.719986166954, -66663.67550655312, -57408.22045901066, -23425.857535106843, -30978.243765621635, -187500.02235174447, -52555.83555171914, -30293.34161202212, -30399.95943307393, -62109.261704595294, -78670.69735177724, -19773.20251145393, -187500.02235174447, -52604.85292730963, -38507.80886504756, 0.014, 1.012, 0.082, 192.0, 0.0, 0.0, 0.0, 0.0, 0.0, 0.0, 0.0, 0.0, 0.0, 1.695336960649878E9, 0.0, 2023-09-21 17:56:00.649
28.0, 36723.245587735844, 22009.60630292968, -66702.96987330556, -57448.31948856348, -23404.86924706331, -31023.595455121453, -187500.02235174447, -52597.633313850565, -30307.89259766252, -30397.433685950484, -62126.38314084806, -78681.0685612045, -19802.840924601667, -187500.02235174447, -52594.548773115734, -38517.17424597433, 0.014, 1.012, 0.082, 192.0, 0.0, 0.0, 0.0, 0.0, 0.0, 0.0, 0.0, 0.0, 0.0, 1.695336960649884E9, 0.0, 2023-09-21 17:56:00.649
30.0, 36662.73941549533, 22004.30893949377, -66695.23616972401, -57429.633430198846, -23447.628134206312, -31008.75389680313, -187500.02235174447, -52592.090081225644, -30320.275464090762, -30415.628005937102, -62135.65911479702, -78693.40672414383, -19751.655429799015, -187500.02235174447, -52603.37771217558, -38501.95270800027, 0.014, 1.012, 0.082, 192.0, 0.0, 0.0, 0.0, 0.0, 0.0, 0.0, 0.0, 0.0, 0.0, 1.695336960709407E9, 0.0, 2023-09-21 17:56:00.709
32.0, 36720.33986095666, 21987.478075918923, -66728.47321372906, -57474.18045689827, -23428.53974444148, -31047.355359477446, -187500.02235174447, -52621.259107739825, -30332.39010958554, -30420.21011355044, -62149.42778938148, -78705.6778318498, -19801.276302489794, -187500.02235174447, -52609.25622096732, -38523.566844888555, 0.014, 1.016, 0.08600000000000001, 192.0, 0.0, 56.0, 15.5, 96.0, 1.0, 88.0, 0.0, 0.0, 0.0, 1.695336960709425E9, 0.0, 2023-09-21 17:56:00.709
34.0, 36665.89101146353, 22029.74522468391, -66661.55209082986, -57400.464403684666, -23442.420177748227, -30968.56546027249, -187500.02235174447, -52552.885121451036, -30335.206429386908, -30434.649340468568, -62149.5171963593, -78712.85274181995, -19729.750720232812, -187500.02235174447, -52601.92484878598, -38499.69518181028, 0.014, 1.016, 0.08600000000000001, 192.0, 0.0, 0.0, 0.0, 0.0, 0.0, 0.0, 0.0, 0.0, 0.0, 1.695336960709429E9, 0.0, 2023-09-21 17:56:00.709
36.0, 36690.34381989763, 22024.6490269481, -66680.75223931698, -57435.64604945732, -23394.453334147136, -31004.194140934247, -187500.02235174447, -52578.38846187454, -30270.386370466516, -30372.24326994935, -62089.74863168581, -78652.30186609052, -19813.122727051108, -187500.02235174447, -52603.55652613122, -38542.27525499764, 0.014, 1.016, 0.08600000000000001, 192.0, 0.0, 0.0, 0.0, 0.0, 0.0, 0.0, 0.0, 0.0, 0.0, 1.695336960709433E9, 0.0, 2023-09-21 17:56:00.709
38.0, 36670.38371209904, 22024.760785670376, -66675.11959971423, -57419.821014382964, -23435.87111662282, -30987.296222126035, -187500.02235174447, -52572.93463622745, -30298.929548135944, -30403.960395331433, -62123.07508266868, -78685.78477928457, -19733.215240623384, -187500.02235174447, -52578.99195897484, -38509.99933600418, 0.014, 1.016, 0.08600000000000001, 192.0, 0.0, 0.0, 0.0, 0.0, 0.0, 0.0, 0.0, 0.0, 0.0, 1.695336960709437E9, 0.0, 2023-09-21 17:56:00.709
40.0, 36694.18831994395, 22001.291453992304, -66708.71427163057, -57458.80245671302, -23429.702035153157, -31030.502144158145, -187500.02235174447, -52607.98217153337, -30302.729344693347, -30407.670784911013, -62132.37340836209, -78692.91498576582, -19802.907979835032, -187500.02235174447, -52608.69742735594, -38539.078955540535, 0.014, 1.016, 0.08600000000000001, 192.0, 0.0, 0.0, 0.0, 0.0, 0.0, 0.0, 0.0, 0.0, 0.0, 1.69533696070944E9, 0.0, 2023-09-21 17:56:00.709
42.0, 36698.52455836828, 22005.69474765, -66686.742506831, -57429.11934007637, -23460.189814590194, -30997.958004231215, -187500.02235174447, -52583.082328210156, -30319.917836179477, -30418.041994338277, -62153.0711237277, -78711.84691331946, -19717.61372299358, -187500.02235174447, -52596.06869173869, -38498.2870219096, 0.012, 1.018, 0.088, 192.0, 0.0, 48.0, 15.5, 104.0, 1.0, 96.0, 0.0, 0.0, 0.0, 1.695336960709446E9, 0.0, 2023-09-21 17:56:00.709
44.0, 36691.52846235377, 21993.803619599774, -66688.1953702206, -57445.30200306202, -23436.25109627856, -31010.743202059653, -187500.02235174447, -52584.04345322173, -30297.409629512982, -30400.004136562842, -62130.942896716944, -78689.96455549772, -19813.502706706848, -187500.02235174447, -52630.15510203304, -38537.22376075074, 0.012, 1.018, 0.088, 192.0, 0.0, 0.0, 0.0, 0.0, 0.0, 0.0, 0.0, 0.0, 0.0, 1.69533696070945E9, 0.0, 2023-09-21 17:56:00.709
46.0, 36722.552683657734, 21986.5393026518, -66687.92714928713, -57440.98811638214, -23467.677648982724, -31008.955062503228, -187500.02235174447, -52590.50310736932, -30337.329845110162, -30427.139154331584, -62173.00887978183, -78729.48243969471, -19725.839164953133, -187500.02235174447, -52591.37482540308, -38497.59411783148, 0.012, 1.018, 0.088, 192.0, 0.0, 0.0, 0.0, 0.0, 0.0, 0.0, 0.0, 0.0, 0.0, 1.695336960769801E9, 0.0, 2023-09-21 17:56:00.769
48.0, 36690.99202048684, 21983.410058428057, -66666.42477112112, -57430.259279043596, -23434.194735788675, -31002.718925800196, -187500.02235174447, -52575.192162417436, -30309.32310930766, -30409.905959356543, -62143.68339105647, -78702.30271843704, -19814.262666018327, -187500.02235174447, -52630.40097122204, -38537.29081598411, 0.012, 1.018, 0.088, 192.0, 0.0, 0.0, 0.0, 0.0, 0.0, 0.0, 0.0, 0.0, 0.0, 1.695336960769813E9, 0.0, 2023-09-21 17:56:00.769
50.0, 36734.62262566359, 21986.695764862987, -66664.74839028697, -57424.447825485215, -23435.759357900544, -31000.66256531031, -187500.02235174447, -52576.242694406836, -30309.859551174588, -30398.707735384436, -62149.94187950395, -78705.16374172733, -19734.824566224168, -187500.02235174447, -52581.8082787762, -38505.014896990644, 0.012, 1.018, 0.088, 192.0, 0.0, 0.0, 0.0, 0.0, 0.0, 0.0, 0.0, 0.0, 0.0, 1.695336960769817E9, 0.0, 2023-09-21 17:56:00.769
52.0, 36697.11639846759, 21966.288622175292, -66679.52289337193, -57444.38558153935, -23443.26954403753, -31027.171734234304, -187500.02235174447, -52600.27081969629, -30313.771106454267, -30413.035203580286, -62154.16635920601, -78709.09764875146, -19804.204381013442, -187500.02235174447, -52617.3699042046, -38535.301510727586, 0.014, 1.012, 0.092, 192.0, 0.0, 56.0, 15.5, 80.0, 1.0, 112.0, 0.0, 0.0, 0.0, 1.695336960769821E9, 0.0, 2023-09-21 17:56:00.769
54.0, 36762.0258643658, 21985.30995670676, -66670.02340197843, -57426.83946214193, -23443.984799860096, -31004.730582801174, -187500.02235174447, -52571.83940074914, -30332.39010958554, -30416.186799548486, -62177.63569088408, -78726.44260244878, -19723.447528296416, -187500.02235174447, -52588.15617420151, -38502.35503940046, 0.014, 1.012, 0.092, 192.0, 0.0, 0.0, 0.0, 0.0, 0.0, 0.0, 0.0, 0.0, 0.0, 1.695336960769824E9, 0.0, 2023-09-21 17:56:00.769
56.0, 36709.58867187365, 21979.274985703825, -66664.59192807578, -57429.8569476434, -23437.994532346074, -31012.75485906063, -187500.02235174447, -52579.662511308496, -30292.872225388557, -30390.079962024687, -62131.72520777288, -78684.48837810617, -19787.30646220523, -187500.02235174447, -52619.850947839135, -38539.570693918555, 0.014, 1.012, 0.092, 192.0, 0.0, 0.0, 0.0, 0.0, 0.0, 0.0, 0.0, 0.0, 0.0, 1.695336960769828E9, 0.0, 2023-09-21 17:56:00.769
58.0, 36796.738123504896, 21975.20696821296, -66684.239111452, -57443.402104783316, -23450.243288307585, -31026.769402834107, -187500.02235174447, -52603.04243600875, -30346.561115570203, -30424.054613596752, -62190.64440615707, -78740.61360843344, -19718.060757882686, -187500.02235174447, -52583.30584565471, -38504.27728942362, 0.014, 1.012, 0.092, 192.0, 0.0, 0.0, 0.0, 0.0, 0.0, 0.0, 0.0, 0.0, 0.0, 1.695336960769831E9, 0.0, 2023-09-21 17:56:00.769
60.0, 36728.18532326047, 21968.456741387457, -66657.6852390391, -57421.18447079474, -23435.379378244805, -30997.980355975673, -187500.02235174447, -52560.81999073267, -30286.501978218792, -30386.794255589757, -62122.426882079475, -78680.06273270401, -19778.790447567757, -187500.02235174447, -52624.388351963564, -38538.453106695786, 0.014, 1.012, 0.092, 192.0, 0.0, 0.0, 0.0, 0.0, 0.0, 0.0, 0.0, 0.0, 0.0, 1.695336960829996E9, 0.0, 2023-09-21 17:56:00.829
62.0, 36819.22397842693, 21969.6860873325, -66676.39364914819, -57435.780159924056, -23431.646636920766, -31023.483696399177, -187500.02235174447, -52598.90736328452, -30341.308455623206, -30418.64549143857, -62181.636653141584, -78730.28710249509, -19732.120005145076, -187500.02235174447, -52589.720796313384, -38514.44733315078, 0.018000000000000002, 1.008, 0.094, 192.0, 0.0, 72.0, 15.5, 64.0, 1.0, 120.0, 0.0, 0.0, 0.0, 1.695336960830009E9, 0.0, 2023-09-21 17:56:00.830
64.0, 36744.166820546016, 21970.11077047715, -66660.85918675175, -57418.25639227109, -23437.994532346074, -31002.875388011384, -187500.02235174447, -52572.12997342706, -30298.393106269017, -30393.186854503972, -62130.808786250214, -78683.10256994994, -19779.01396501231, -187500.02235174447, -52623.65074439654, -38543.415193964865, 0.018000000000000002, 1.008, 0.094, 192.0, 0.0, 0.0, 0.0, 0.0, 0.0, 0.0, 0.0, 0.0, 0.0, 1.695336960830013E9, 0.0, 2023-09-21 17:56:00.830
66.0, 36840.1452112371, 21964.67929657451, -66694.45385866807, -57450.82288394248, -23426.416328718227, -31029.049280768548, -187500.02235174447, -52605.14349998755, -30337.62041778808, -30400.227654007394, -62170.997222780854, -78714.75264009865, -19762.5630810932, -187500.02235174447, -52591.97832250337, -38523.38803093291, 0.018000000000000002, 1.008, 0.094, 192.0, 0.0, 0.0, 0.0, 0.0, 0.0, 0.0, 0.0, 0.0, 0.0, 1.695336960830017E9, 0.0, 2023-09-21 17:56:00.830
68.0, 36756.50498348534, 21981.465456660448, -66650.17505290211, -57404.13008977534, -23437.480442223605, -30979.115483655394, -187500.02235174447, -52550.04644990522, -30312.944091909423, -30396.807837105735, -62136.128501430576, -78689.09283746396, -19789.005194783833, -187500.02235174447, -52620.968535061904, -38529.31124321357, 0.018000000000000002, 1.008, 0.094, 192.0, 0.0, 0.0, 0.0, 0.0, 0.0, 0.0, 0.0, 0.0, 0.0, 1.695336960830021E9, 0.0, 2023-09-21 17:56:00.830
70.0, 36845.308464206275, 21970.624860599622, -66683.00976550695, -57442.12805534936, -23417.721500125113, -31019.885065541872, -187500.02235174447, -52595.2640289383, -30331.496039807327, -30396.651374894547, -62160.804827309235, -78705.83429406099, -19793.81081984172, -187500.02235174447, -52588.24558117933, -38527.50075191269, 0.018000000000000002, 1.008, 0.094, 192.0, 0.0, 0.0, 0.0, 0.0, 0.0, 0.0, 0.0, 0.0, 0.0, 1.695336960830026E9, 0.0, 2023-09-21 17:56:00.830
72.0, 36762.048216110255, 21990.67437537603, -66637.32279984032, -57392.86481056987, -23430.126718297808, -30974.779245231064, -187500.02235174447, -52553.60037727361, -30308.652556974004, -30391.8233980922, -62128.88653622706, -78683.34843913895, -19787.328813949684, -187500.02235174447, -52609.01035177831, -38531.032327536625, 0.018000000000000002, 1.012, 0.09, 192.0, 0.0, 72.0, 15.5, 80.0, 1.0, 104.0, 0.0, 0.0, 0.0, 1.695336960830031E9, 0.0, 2023-09-21 17:56:00.830
74.0, 36842.22392347144, 21983.49946540588, -66666.96121298806, -57430.594555210424, -23402.29879645095, -31017.09109748496, -187500.02235174447, -52582.30001715422, -30306.48443776184, -30370.58924085966, -62130.49586182784, -78678.58751756996, -19807.668901404013, -187500.02235174447, -52588.200877690426, -38540.464763696764, 0.018000000000000002, 1.012, 0.09, 192.0, 0.0, 0.0, 0.0, 0.0, 0.0, 0.0, 0.0, 0.0, 0.0, 1.695336960830034E9, 0.0, 2023-09-21 17:56:00.830
76.0, 36791.50781530235, 21960.946555250473, -66677.42182939313, -57434.55081397901, -23452.679628453214, -31020.868542297907, -187500.02235174447, -52597.78977606175, -30333.217124130384, -30405.525017443302, -62151.93118476048, -78706.70601209474, -19769.983860252367, -187500.02235174447, -52597.767424317295, -38521.599891376485, 0.018000000000000002, 1.012, 0.09, 192.0, 0.0, 0.0, 0.0, 0.0, 0.0, 0.0, 0.0, 0.0, 0.0, 1.695336960890304E9, 0.0, 2023-09-21 17:56:00.890
78.0, 36855.07617653324, 21968.54614836528, -66680.05933523885, -57442.03864837154, -23414.458145434637, -31024.914208044316, -187500.02235174447, -52594.36995916009, -30336.43577533195, -30407.40256397755, -62158.010859252325, -78709.2764627071, -19814.82145962971, -187500.02235174447, -52610.619677379094, -38534.63095839393, 0.018000000000000002, 1.012, 0.09, 192.0, 0.0, 0.0, 0.0, 0.0, 0.0, 0.0, 0.0, 0.0, 0.0, 1.695336960890318E9, 0.0, 2023-09-21 17:56:00.890
80.0, 36800.068533428734, 21978.58208162571, -66648.99041044599, -57408.3992729663, -23432.361892743338, -30990.783094261064, -187500.02235174447, -52566.16205765749, -30313.10055412061, -30394.907938827033, -62130.741731016846, -78686.65649731833, -19773.224863198386, -187500.02235174447, -52605.7693488323, -38522.47160941024, 0.018000000000000002, 1.012, 0.09, 192.0, 0.0, 0.0, 0.0, 0.0, 0.0, 0.0, 0.0, 0.0, 0.0, 1.695336960890322E9, 0.0, 2023-09-21 17:56:00.890
82.0, 36853.13157476563, 21971.63068910011, -66671.69978281257, -57438.93175589225, -23400.801229572444, -31027.864638312418, -187500.02235174447, -52592.29124692574, -30303.779876682747, -30381.67570610949, -62124.12561465808, -78678.60986931442, -19837.39672152957, -187500.02235174447, -52611.334933201666, -38549.78544113463, 0.014, 1.01, 0.098, 192.0, 0.0, 56.0, 15.5, 72.0, 1.5, 8.0, 0.0, 0.0, 0.0, 1.695336960890325E9, 0.0, 2023-09-21 17:56:00.890
84.0, 36832.97030126695, 21958.040828471283, -66680.14874221668, -57433.813206411985, -23451.87496565282, -31020.309748686523, -187500.02235174447, -52589.05024397973, -30333.708862508403, -30409.01188957833, -62151.93118476048, -78705.76723882763, -19755.879909501065, -187500.02235174447, -52594.28055218227, -38518.58240587502, 0.014, 1.01, 0.098, 192.0, 0.0, 0.0, 0.0, 0.0, 0.0, 0.0, 0.0, 0.0, 0.0, 1.695336960890329E9, 0.0, 2023-09-21 17:56:00.890
86.0, 36864.463909204474, 21963.76287505184, -66678.09238172679, -57438.59647972542, -23419.889619337275, -31028.825763323995, -187500.02235174447, -52596.20280220542, -30319.694318734924, -30404.988575576375, -62140.71060904391, -78691.21625318722, -19826.287904535282, -187500.02235174447, -52621.48262518438, -38549.87484811245, 0.014, 1.01, 0.098, 192.0, 0.0, 0.0, 0.0, 0.0, 0.0, 0.0, 0.0, 0.0, 0.0, 1.695336960890332E9, 0.0, 2023-09-21 17:56:00.890
88.0, 36854.71854862196, 21971.809503055752, -66670.22456767852, -57419.08340681594, -23445.59412546088, -31015.548827117545, -187500.02235174447, -52589.05024397973, -30323.874094948067, -30404.54154068727, -62144.666867812506, -78695.19486370026, -19741.507737816304, -187500.02235174447, -52595.68871208295, -38516.995432018695, 0.014, 1.01, 0.098, 192.0, 0.0, 0.0, 0.0, 0.0, 0.0, 0.0, 0.0, 0.0, 0.0, 1.695336960890336E9, 0.0, 2023-09-21 17:56:00.890
90.0, 36859.32300797976, 21971.16130246655, -66672.2362246795, -57426.99592435312, -23407.015014531018, -31028.691652857266, -187500.02235174447, -52584.98222648886, -30304.249263316306, -30393.87975858209, -62122.851565224126, -78672.2172704002, -19816.564895697225, -187500.02235174447, -52616.721703615396, -38549.070185312055, 0.014, 1.01, 0.098, 192.0, 0.0, 0.0, 0.0, 0.0, 0.0, 0.0, 0.0, 0.0, 0.0, 1.695336960949682E9, 0.0, 2023-09-21 17:56:00.949
92.0, 36876.19857504351, 21951.983505723896, -66694.67737611262, -57440.78695068204, -23449.706846440655, -31036.671225627808, -187500.02235174447, -52604.204726720425, -30341.24140038984, -30417.952587360454, -62159.262556941816, -78707.80124757305, -19730.28716209974, -187500.02235174447, -52578.72373804137, -38506.847740035984, 0.018000000000000002, 1.014, 0.094, 192.0, 0.0, 72.0, 15.5, 88.0, 1.0, 120.0, 0.0, 0.0, 0.0, 1.6953369609497E9, 0.0, 2023-09-21 17:56:00.949
94.0, 36858.875973090646, 21955.693895303477, -66685.98254751951, -57436.02602911306, -23429.6796834087, -31034.994844793662, -187500.02235174447, -52597.11922372809, -30336.748699754324, -30420.74655541737, -62149.62895508158, -78702.34742192595, -19828.903058636555, -187500.02235174447, -52624.3212967302, -38546.00799632168, 0.018000000000000002, 1.014, 0.094, 192.0, 0.0, 0.0, 0.0, 0.0, 0.0, 0.0, 0.0, 0.0, 0.0, 1.695336960949704E9, 0.0, 2023-09-21 17:56:00.949
96.0, 36874.67865642055, 21984.10296250617, -66648.72218951251, -57390.00378727959, -23418.88379083679, -30985.84335873644, -187500.02235174447, -52559.2553686208, -30314.084030876642, -30391.10814226963, -62127.187803648456, -78679.19101467026, -19753.443569355437, -187500.02235174447, -52581.87533400957, -38517.28600469661, 0.018000000000000002, 1.014, 0.094, 192.0, 0.0, 0.0, 0.0, 0.0, 0.0, 0.0, 0.0, 0.0, 0.0, 1.695336960949708E9, 0.0, 2023-09-21 17:56:00.949
98.0, 36831.942121022, 21978.693840347987, -66648.05163717885, -57397.26810422756, -23395.414459158714, -30997.175693175283, -187500.02235174447, -52563.0551651782, -30291.151141065497, -30376.78067407378, -62102.53382951425, -78657.48747080416, -19828.16545106953, -187500.02235174447, -52600.24846795183, -38553.78640339213, 0.018000000000000002, 1.014, 0.094, 192.0, 0.0, 0.0, 0.0, 0.0, 0.0, 0.0, 0.0, 0.0, 0.0, 1.695336960949711E9, 0.0, 2023-09-21 17:56:00.949
100.0, 36874.23162153144, 21986.762820096355, -66657.52877682791, -57394.63059838183, -23409.25018897655, -30983.585832546454, -187500.02235174447, -52551.23109236135, -30298.23664405783, -30375.596031617646, -62115.67665525397, -78667.47870057568, -19749.733179775856, -187500.02235174447, -52553.98035692935, -38515.22964420672, 0.018000000000000002, 1.014, 0.094, 192.0, 0.0, 0.0, 0.0, 0.0, 0.0, 0.0, 0.0, 0.0, 0.0, 1.695336960949715E9, 0.0, 2023-09-21 17:56:00.949
102.0, 36829.237559942914, 21960.611279083645, -66678.91939627164, -57420.91624986127, -23421.96833157162, -31018.678071341288, -187500.02235174447, -52582.90351425452, -30307.84789417361, -30392.985688803878, -62122.73980650185, -78671.85964248893, -19823.091605078174, -187500.02235174447, -52590.12312771358, -38543.16932477586, 0.012, 1.01, 0.09, 192.0, 0.0, 48.0, 15.5, 72.0, 1.0, 104.0, 0.0, 0.0, 0.0, 1.695336960949719E9, 0.0, 2023-09-21 17:56:00.949
104.0, 36899.9584793995, 21960.901851761562, -66689.22355046554, -57426.45948248619, -23434.574715444414, -31024.71304234422, -187500.02235174447, -52587.08329046766, -30342.224877145873, -30407.290805255274, -62162.39180116556, -78705.94605278326, -19755.85755775661, -187500.02235174447, -52561.73641225534, -38508.41236214786, 0.012, 1.01, 0.09, 192.0, 0.0, 0.0, 0.0, 0.0, 0.0, 0.0, 0.0, 0.0, 0.0, 1.695336960949722E9, 0.0, 2023-09-21 17:56:00.949
106.0, 36838.602940869685, 21944.115691675626, -66693.9397685456, -57436.76363668009, -23438.039235834985, -31039.219324495712, -187500.02235174447, -52602.662456353006, -30319.85078094611, -30397.54544467276, -62131.658152539516, -78680.71093329322, -19822.912791122533, -187500.02235174447, -52607.2669157108, -38539.213066007265, 0.012, 1.01, 0.09, 192.0, 0.0, 0.0, 0.0, 0.0, 0.0, 0.0, 0.0, 0.0, 0.0, 1.695336961009324E9, 0.0, 2023-09-21 17:56:01.009
108.0, 36911.939014427546, 21946.373217865614, -66696.35375694677, -57434.7072761902, -23436.765186401033, -31038.81699309552, -187500.02235174447, -52607.84806106664, -30366.700037324434, -30426.714471186933, -62182.53072291979, -78727.42607920482, -19763.323040404684, -187500.02235174447, -52584.04345322173, -38513.553263372574, 0.012, 1.01, 0.09, 192.0, 0.0, 0.0, 0.0, 0.0, 0.0, 0.0, 0.0, 0.0, 0.0, 1.695336961009335E9, 0.0, 2023-09-21 17:56:01.009
110.0, 36819.67101331604, 21968.34498266518, -66642.3295905983, -57383.14180173181, -23411.597122144358, -30979.093131910937, -187500.02235174447, -52541.79865620121, -30303.936338893935, -30386.414275934017, -62110.91573368499, -78663.70125576273, -19818.800070142755, -187500.02235174447, -52618.35338096063, -38547.72908064474, 0.012, 1.01, 0.09, 192.0, 0.0, 0.0, 0.0, 0.0, 0.0, 0.0, 0.0, 0.0, 0.0, 1.695336961009339E9, 0.0, 2023-09-21 17:56:01.009
112.0, 36911.514331282895, 21952.698761546464, -66692.59866387829, -57434.03672385654, -23412.088860522374, -31034.301940715548, -187500.02235174447, -52600.5166888853, -30336.458127076403, -30390.884624825077, -62150.7688940488, -78692.33384040998, -19780.06449700171, -187500.02235174447, -52568.061955936195, -38521.465780909755, 0.01, 1.008, 0.084, 192.0, 0.0, 40.0, 15.5, 64.0, 1.0, 80.0, 0.0, 0.0, 0.0, 1.695336961009342E9, 0.0, 2023-09-21 17:56:01.009
114.0, 36827.628234342126, 21955.649191814566, -66662.42380886362, -57404.64417989781, -23427.042177562977, -31000.886082754863, -187500.02235174447, -52568.86661873658, -30325.036385659743, -30399.378287718093, -62133.37923686257, -78682.90140424985, -19803.10914553513, -187500.02235174447, -52607.17750873298, -38531.50171417018, 0.01, 1.008, 0.084, 192.0, 0.0, 0.0, 0.0, 0.0, 0.0, 0.0, 0.0, 0.0, 0.0, 1.695336961009346E9, 0.0, 2023-09-21 17:56:01.009
116.0, 36916.78934297435, 21946.5296800768, -66700.82410583783, -57444.34087805043, -23423.91293333923, -31038.504068673145, -187500.02235174447, -52605.83640406566, -30345.063548691698, -30397.433685950484, -62158.1226179746, -78699.1734742133, -19788.781677339277, -187500.02235174447, -52577.71790954089, -38519.09649599749, 0.01, 1.008, 0.084, 192.0, 0.0, 0.0, 0.0, 0.0, 0.0, 0.0, 0.0, 0.0, 0.0, 1.695336961009349E9, 0.0, 2023-09-21 17:56:01.009
118.0, 36843.699138605494, 21937.030188683297, -66690.65406211067, -57431.913308133284, -23465.08484662591, -31031.396213936358, -187500.02235174447, -52598.43797665095, -30359.01103723181, -30426.714471186933, -62165.87867330059, -78713.18801798679, -19785.58537788217, -187500.02235174447, -52607.199860477434, -38518.53770238611, 0.01, 1.008, 0.084, 192.0, 0.0, 0.0, 0.0, 0.0, 0.0, 0.0, 0.0, 0.0, 0.0, 1.695336961009353E9, 0.0, 2023-09-21 17:56:01.009
120.0, 36928.233436135466, 21949.122482433617, -66699.68416687062, -57440.809302426496, -23431.266657265027, -31049.590533922976, -187500.02235174447, -52617.45931118242, -30348.908048738012, -30405.882645354588, -62161.005993009334, -78702.10155273695, -19798.437630943972, -187500.02235174447, -52595.9122295275, -38518.85062680848, 0.01, 1.008, 0.084, 192.0, 0.0, 0.0, 0.0, 0.0, 0.0, 0.0, 0.0, 0.0, 0.0, 1.695336961069625E9, 0.0, 2023-09-21 17:56:01.069
122.0, 36851.7010631205, 21962.131197706607, -66663.1837681751, -57398.07276702795, -23455.317134298937, -31005.155265945825, -187500.02235174447, -52568.01725244728, -30326.57865602716, -30401.099372041153, -62133.468643840395, -78680.15213968184, -19784.244273214852, -187500.02235174447, -52605.61288662111, -38517.86715005245, 0.006, 1.008, 0.08600000000000001, 192.0, 0.0, 24.0, 15.5, 64.0, 1.0, 88.0, 0.0, 0.0, 0.0, 1.695336961069638E9, 0.0, 2023-09-21 17:56:01.069
124.0, 36921.304395354324, 21964.29931691877, -66680.61812885024, -57411.729682890145, -23423.60000891686, -31025.920036544805, -187500.02235174447, -52587.8656015236, -30338.559191055203, -30399.06536329572, -62149.65130682604, -78692.04326773206, -19814.39677648506, -187500.02235174447, -52588.75967130181, -38529.95944380277, 0.006, 1.008, 0.08600000000000001, 192.0, 0.0, 0.0, 0.0, 0.0, 0.0, 0.0, 0.0, 0.0, 0.0, 1.695336961069642E9, 0.0, 2023-09-21 17:56:01.069
126.0, 36843.2968072053, 21986.561654396257, -66633.85827944973, -57360.968871232144, -23426.528087440503, -30976.835605720953, -187500.02235174447, -52539.36231605558, -30294.168626566963, -30372.556194371726, -62100.14219285753, -78650.49137478965, -19789.74280235086, -187500.02235174447, -52589.47492712438, -38531.25584498118, 0.006, 1.008, 0.08600000000000001, 192.0, 0.0, 0.0, 0.0, 0.0, 0.0, 0.0, 0.0, 0.0, 0.0, 1.695336961069646E9, 0.0, 2023-09-21 17:56:01.069
128.0, 36911.961366172, 21965.528662863813, -66681.62395735073, -57418.36815099337, -23416.313340224428, -31038.168792506316, -187500.02235174447, -52595.15227021602, -30309.501923263306, -30375.39486591755, -62117.733015743856, -78664.52827030758, -19829.64066620358, -187500.02235174447, -52574.275740894765, -38544.21985676526, 0.006, 1.008, 0.08600000000000001, 192.0, 0.0, 0.0, 0.0, 0.0, 0.0, 0.0, 0.0, 0.0, 0.0, 1.695336961069649E9, 0.0, 2023-09-21 17:56:01.069
130.0, 36875.61742968767, 21954.509252847347, -66683.36739341824, -57409.829784611444, -23468.8399396944, -31031.910304058827, -187500.02235174447, -52597.02981675027, -30347.254019648317, -30416.83500013769, -62151.97588824939, -78703.15208472635, -19756.63986881255, -187500.02235174447, -52577.96377872989, -38507.42888539182, 0.006, 1.008, 0.08600000000000001, 192.0, 0.0, 0.0, 0.0, 0.0, 0.0, 0.0, 0.0, 0.0, 0.0, 1.695336961069653E9, 0.0, 2023-09-21 17:56:01.069
132.0, 36913.905967939616, 21940.852336985154, -66703.77453610594, -57439.49054950364, -23436.899296867767, -31057.57010669352, -187500.02235174447, -52615.49235767035, -30340.973179456378, -30410.39769773456, -62146.79028353576, -78698.01118350163, -19825.952628368454, -187500.02235174447, -52598.14740397304, -38529.221836235745, 0.008, 1.01, 0.08600000000000001, 192.0, 0.0, 32.0, 15.5, 72.0, 1.0, 88.0, 0.0, 0.0, 0.0, 1.695336961069656E9, 0.0, 2023-09-21 17:56:01.069
134.0, 36872.845813375214, 21974.558767623756, -66655.71828552704, -57377.68797608471, -23447.091692339385, -30986.156283158816, -187500.02235174447, -52553.376859829055, -30332.881847963556, -30408.8777791116, -62135.3685421191, -78689.76338979762, -19755.946964734434, -187500.02235174447, -52590.61486609159, -38505.931318513314, 0.008, 1.01, 0.08600000000000001, 192.0, 0.0, 0.0, 0.0, 0.0, 0.0, 0.0, 0.0, 0.0, 0.0, 1.69533696106966E9, 0.0, 2023-09-21 17:56:01.069
136.0, 36890.97307812847, 21968.88142453211, -66671.67743106812, -57405.73941537612, -23413.228799489596, -31025.025966766592, -187500.02235174447, -52583.35054914362, -30302.036440615233, -30374.72431358389, -62106.44538479393, -78661.75665399512, -19833.395759272073, -187500.02235174447, -52596.04633999424, -38543.50460094269, 0.008, 1.01, 0.08600000000000001, 192.0, 0.0, 0.0, 0.0, 0.0, 0.0, 0.0, 0.0, 0.0, 0.0, 1.695336961129925E9, 0.0, 2023-09-21 17:56:01.129
138.0, 36887.24033680443, 21964.455779129956, -66670.80571303437, -57394.11650825936, -23452.97020113113, -30997.622728064387, -187500.02235174447, -52566.43027859095, -30334.222952630873, -30399.06536329572, -62139.883594499064, -78691.86445377642, -19741.843013983133, -187500.02235174447, -52560.574121543665, -38502.2879841671, 0.008, 1.01, 0.08600000000000001, 192.0, 0.0, 0.0, 0.0, 0.0, 0.0, 0.0, 0.0, 0.0, 0.0, 1.69533696112993E9, 0.0, 2023-09-21 17:56:01.129
140.0, 36886.68154319305, 21942.506366074846, -66699.21478023706, -57430.7063139327, -23437.078110823408, -31049.29996124506, -187500.02235174447, -52611.24552622384, -30320.342519324127, -30388.381229446084, -62122.53864080175, -78675.65943904633, -19820.409395743536, -187500.02235174447, -52593.20766844841, -38530.87586532544, 0.008, 1.01, 0.08600000000000001, 192.0, 0.0, 0.0, 0.0, 0.0, 0.0, 0.0, 0.0, 0.0, 0.0, 1.695336961129934E9, 0.0, 2023-09-21 17:56:01.129
142.0, 36893.07414210727, 21965.372200652626, -66669.59871883377, -57387.72390934514, -23455.607706976858, -31000.260233910114, -187500.02235174447, -52567.52551406927, -30350.070339449685, -30417.706718171445, -62151.93118476048, -78702.9285672818, -19729.32603708816, -187500.02235174447, -52571.39236586003, -38491.29092589509, 0.008, 1.016, 0.08600000000000001, 192.0, 0.0, 32.0, 15.5, 96.0, 1.0, 88.0, 0.0, 0.0, 0.0, 1.695336961129937E9, 0.0, 2023-09-21 17:56:01.129
144.0, 36874.96922909847, 21944.58507830919, -66696.8454953248, -57420.93860160573, -23440.16265155824, -31039.688711129274, -187500.02235174447, -52602.2154214639, -30323.42706005896, -30392.11397077012, -62124.95262920292, -78673.6701337898, -19822.264590533327, -187500.02235174447, -52598.259162695314, -38524.90794955587, 0.008, 1.016, 0.08600000000000001, 192.0, 0.0, 0.0, 0.0, 0.0, 0.0, 0.0, 0.0, 0.0, 0.0, 1.695336961129941E9, 0.0, 2023-09-21 17:56:01.129
146.0, 36900.09258986623, 21963.494654118378, -66671.99035549049, -57388.17094423425, -23441.615514947836, -30995.83458850796, -187500.02235174447, -52568.24076989183, -30335.29583636473, -30399.221825506906, -62139.86124275461, -78688.19876768575, -19742.066531427685, -187500.02235174447, -52565.44680183492, -38486.59705955948, 0.008, 1.016, 0.08600000000000001, 192.0, 0.0, 0.0, 0.0, 0.0, 0.0, 0.0, 0.0, 0.0, 0.0, 1.695336961129945E9, 0.0, 2023-09-21 17:56:01.129
148.0, 36851.92458056505, 21956.58796508169, -66674.62786133622, -57395.0999850154, -23428.07035780792, -31002.89773975584, -187500.02235174447, -52565.31269136819, -30315.156914610496, -30390.34818295815, -62117.0624634102, -78666.45052033073, -19829.998294114863, -187500.02235174447, -52599.89084004055, -38522.091629754505, 0.008, 1.016, 0.08600000000000001, 192.0, 0.0, 0.0, 0.0, 0.0, 0.0, 0.0, 0.0, 0.0, 0.0, 1.695336961129949E9, 0.0, 2023-09-21 17:56:01.129
150.0, 36908.69801148153, 21952.00585746835, -66697.0466610249, -57410.9026683453, -23445.080035338407, -31023.19312372126, -187500.02235174447, -52585.69748231143, -30347.365778370593, -30409.45892446744, -62156.20036795144, -78701.52040738112, -19748.23561289735, -187500.02235174447, -52559.34477559862, -38481.14323391238, 0.008, 1.016, 0.08600000000000001, 192.0, 0.0, 0.0, 0.0, 0.0, 0.0, 0.0, 0.0, 0.0, 0.0, 1.695336961190347E9, 0.0, 2023-09-21 17:56:01.190
152.0, 36844.83907757272, 21956.431502870502, -66686.92132078664, -57404.33125547544, -23439.02271259102, -31018.18633296327, -187500.02235174447, -52576.108583940106, -30310.731269208347, -30386.146055000554, -62111.452175551916, -78659.49912780513, -19824.07508183421, -187500.02235174447, -52599.48850864035, -38510.401667404374, 0.012, 1.012, 0.09, 192.0, 0.0, 48.0, 15.5, 80.0, 1.0, 104.0, 0.0, 0.0, 0.0, 1.695336961190366E9, 0.0, 2023-09-21 17:56:01.190
154.0, 36907.49101728094, 21965.282793674804, -66695.7949633354, -57412.04260731252, -23454.40071277627, -31030.345681946957, -187500.02235174447, -52598.90736328452, -30359.569830843193, -30414.17514254751, -62169.20908322443, -78712.15983774184, -19755.14230193404, -187500.02235174447, -52565.893836724026, -38474.79533848707, 0.012, 1.012, 0.09, 192.0, 0.0, 0.0, 0.0, 0.0, 0.0, 0.0, 0.0, 0.0, 0.0, 1.69533696119037E9, 0.0, 2023-09-21 17:56:01.190
156.0, 36821.30269066128, 21958.309049404746, -66664.90485249816, -57386.695729100196, -23433.032445077, -31006.429315379777, -187500.02235174447, -52557.66839476447, -30292.492245732814, -30383.933232299478, -62093.43666952094, -78646.3115985765, -19832.993427871876, -187500.02235174447, -52603.19889821993, -38512.033344749616, 0.012, 1.012, 0.09, 192.0, 0.0, 0.0, 0.0, 0.0, 0.0, 0.0, 0.0, 0.0, 0.0, 1.695336961190374E9, 0.0, 2023-09-21 17:56:01.190
158.0, 36901.05371487781, 21943.221621897417, -66702.92516981663, -57421.76561615057, -23445.705884183157, -31044.360225720433, -187500.02235174447, -52600.136709229555, -30358.586354087158, -30431.6318549671, -62165.54339713376, -78711.15400924135, -19781.226787713385, -187500.02235174447, -52557.556636042194, -38482.61844904643, 0.012, 1.012, 0.09, 192.0, 0.0, 0.0, 0.0, 0.0, 0.0, 0.0, 0.0, 0.0, 0.0, 1.695336961190377E9, 0.0, 2023-09-21 17:56:01.190
160.0, 36803.98008870841, 21964.76870355233, -66652.90196572566, -57374.71519407215, -23434.194735788675, -30998.539149587054, -187500.02235174447, -52556.08142090815, -30300.382411525537, -30396.271395238808, -62100.589227746634, -78654.40293006932, -19829.998294114863, -187500.02235174447, -52599.39910166253, -38509.46289413725, 0.012, 1.012, 0.09, 192.0, 0.0, 0.0, 0.0, 0.0, 0.0, 0.0, 0.0, 0.0, 0.0, 1.695336961190381E9, 0.0, 2023-09-21 17:56:01.190
162.0, 36883.842871647226, 21949.256592900347, -66691.57048363335, -57412.64610441281, -23427.757433385545, -31040.24750474066, -187500.02235174447, -52604.00356102033, -30330.49021130684, -30407.670784911013, -62139.39185612105, -78688.48934036367, -19795.777773353788, -187500.02235174447, -52559.098906409614, -38492.49792009567, 0.014, 1.008, 0.09, 192.0, 0.0, 56.0, 15.5, 64.0, 1.0, 104.0, 0.0, 0.0, 0.0, 1.695336961190385E9, 0.0, 2023-09-21 17:56:01.190
164.0, 36791.37370483562, 21958.845491271673, -66661.95442223006, -57380.54899937499, -23445.281201038506, -31000.03671646556, -187500.02235174447, -52549.331194082646, -30307.825542429156, -30401.904034841544, -62107.51826852778, -78661.62254352838, -19815.693177663466, -187500.02235174447, -52590.95014225843, -38501.77389404463, 0.014, 1.008, 0.09, 192.0, 0.0, 0.0, 0.0, 0.0, 0.0, 0.0, 0.0, 0.0, 0.0, 1.695336961190389E9, 0.0, 2023-09-21 17:56:01.190
166.0, 36872.26466801938, 21951.223546412417, -66701.20408549358, -57421.18447079474, -23431.199602031662, -31045.902496087852, -187500.02235174447, -52597.141575472546, -30321.48245829135, -30404.139209287074, -62131.21111765041, -78678.67692454779, -19813.659168918035, -187500.02235174447, -52569.537171070246, -38491.894422995385, 0.014, 1.008, 0.09, 192.0, 0.0, 0.0, 0.0, 0.0, 0.0, 0.0, 0.0, 0.0, 0.0, 1.695336961249664E9, 0.0, 2023-09-21 17:56:01.249
168.0, 36786.74689373337, 21955.448026114467, -66675.47722762552, -57392.68599661422, -23453.26077380905, -31015.861751539916, -187500.02235174447, -52570.07361293717, -30310.887731419534, -30413.906921614045, -62115.65430350952, -78671.814939, -19812.228657272895, -187500.02235174447, -52594.2134969489, -38496.81180677555, 0.014, 1.008, 0.09, 192.0, 0.0, 0.0, 0.0, 0.0, 0.0, 0.0, 0.0, 0.0, 0.0, 1.695336961249673E9, 0.0, 2023-09-21 17:56:01.249
170.0, 36876.46679597697, 21923.887362943577, -66738.03976035592, -57458.40012531282, -23451.763206930544, -31080.748865693673, -187500.02235174447, -52636.99473583636, -30342.33663586815, -30423.093488585175, -62155.149835962045, -78703.1744364708, -19813.63681717358, -187500.02235174447, -52572.86758099408, -38494.01783871864, 0.014, 1.008, 0.09, 192.0, 0.0, 0.0, 0.0, 0.0, 0.0, 0.0, 0.0, 0.0, 0.0, 1.695336961249678E9, 0.0, 2023-09-21 17:56:01.249
172.0, 36787.17157687802, 21954.799825525264, -66672.77266654643, -57381.28660694201, -23466.627116993324, -31003.52358860059, -187500.02235174447, -52566.27381637977, -30344.013016702298, -30439.27615157082, -62150.27715567079, -78704.06850624902, -19775.90707253302, -187500.02235174447, -52604.74116858735, -38483.82544324701, 0.016, 1.008, 0.09, 192.0, 0.0, 64.0, 15.5, 64.0, 1.0, 104.0, 0.0, 0.0, 0.0, 1.695336961249681E9, 0.0, 2023-09-21 17:56:01.249
174.0, 36844.123821750145, 21953.123444691115, -66694.65502436817, -57407.86283109937, -23420.806040859945, -31030.85977206943, -187500.02235174447, -52575.57214207317, -30307.982004640344, -30387.733028856877, -62116.57072503218, -78665.31058136352, -19818.68831142048, -187500.02235174447, -52589.69844456893, -38505.730152813216, 0.016, 1.008, 0.09, 192.0, 0.0, 0.0, 0.0, 0.0, 0.0, 0.0, 0.0, 0.0, 0.0, 1.695336961249684E9, 0.0, 2023-09-21 17:56:01.249
176.0, 36784.221146609925, 21939.935915462484, -66704.66860588416, -57413.048435813005, -23463.69903846968, -31038.325254717503, -187500.02235174447, -52592.89474402604, -30319.470801290372, -30409.68244191199, -62122.560992546205, -78673.80424425653, -19766.809912539713, -187500.02235174447, -52582.54588634323, -38484.80892000305, 0.016, 1.008, 0.09, 192.0, 0.0, 0.0, 0.0, 0.0, 0.0, 0.0, 0.0, 0.0, 0.0, 1.695336961249688E9, 0.0, 2023-09-21 17:56:01.249
178.0, 36839.76523158136, 21927.061310656227, -66730.19429805211, -57439.959936137195, -23457.418198277737, -31067.986019609692, -187500.02235174447, -52618.107511771625, -30361.29091516625, -30441.51132601635, -62170.14785649155, -78715.40084068786, -19810.619331672115, -187500.02235174447, -52597.05216849472, -38496.1859579308, 0.016, 1.008, 0.09, 192.0, 0.0, 0.0, 0.0, 0.0, 0.0, 0.0, 0.0, 0.0, 0.0, 1.695336961249691E9, 0.0, 2023-09-21 17:56:01.249
180.0, 36795.15114964857, 21930.704645002443, -66719.26429501346, -57424.06784582947, -23493.27039638405, -31047.645932155363, -187500.02235174447, -52603.154194731025, -30350.62913306107, -30430.22369506642, -62154.68044932848, -78699.79932305805, -19759.187967680453, -187500.02235174447, -52597.09687198364, -38476.918754210325, 0.016, 1.008, 0.09, 192.0, 0.0, 0.0, 0.0, 0.0, 0.0, 0.0, 0.0, 0.0, 0.0, 1.69533696130928E9, 0.0, 2023-09-21 17:56:01.309
182.0, 36819.40279238258, 21944.07098818672, -66712.91639958815, -57421.095063816916, -23445.10238708286, -31045.500164687655, -187500.02235174447, -52600.33787492965, -30341.643731790035, -30423.96520661893, -62146.16443469101, -78688.75756129713, -19836.659113962545, -187500.02235174447, -52614.10654951412, -38507.85356853647, 0.012, 1.002, 0.092, 192.0, 0.0, 48.0, 15.5, 40.0, 1.0, 112.0, 0.0, 0.0, 0.0, 1.695336961309295E9, 0.0, 2023-09-21 17:56:01.309
184.0, 36791.843091469185, 21940.71822651842, -66707.44022219662, -57407.32638923245, -23481.155750889273, -31024.534228388577, -187500.02235174447, -52582.657645065505, -30355.94884824143, -30434.179953835006, -62159.620184853105, -78701.49805563665, -19766.519339861792, -187500.02235174447, -52579.41664211949, -38476.24820187667, 0.012, 1.002, 0.092, 192.0, 0.0, 0.0, 0.0, 0.0, 0.0, 0.0, 0.0, 0.0, 0.0, 1.695336961309299E9, 0.0, 2023-09-21 17:56:01.309
186.0, 36785.76341697734, 21957.929069749007, -66684.0379457519, -57398.38569145033, -23429.143241541773, -31022.701385343244, -187500.02235174447, -52573.53813332774, -30315.246321588318, -30403.289842997772, -62115.363730831596, -78661.17550863928, -19855.993372916386, -187500.02235174447, -52597.476851639374, -38514.0897052395, 0.012, 1.002, 0.092, 192.0, 0.0, 0.0, 0.0, 0.0, 0.0, 0.0, 0.0, 0.0, 0.0, 1.695336961309303E9, 0.0, 2023-09-21 17:56:01.309
188.0, 36776.04040813928, 21963.248784929372, -66681.0875154838, -57381.35366217538, -23458.87106166733, -31004.70823105672, -187500.02235174447, -52564.485676823344, -30343.163650412997, -30420.478334483905, -62142.18582417796, -78685.29304090656, -19771.280261430773, -187500.02235174447, -52556.32729009716, -38478.528079811105, 0.012, 1.002, 0.092, 192.0, 0.0, 0.0, 0.0, 0.0, 0.0, 0.0, 0.0, 0.0, 0.0, 1.695336961309306E9, 0.0, 2023-09-21 17:56:01.309
190.0, 36757.46610849692, 21967.92029952053, -66684.21675970755, -57397.22340073865, -23424.33761648388, -31030.680958113786, -187500.02235174447, -52591.84421203664, -30295.62148995656, -30386.39192418956, -62092.006157875796, -78638.19791533923, -19857.625050261624, -187500.02235174447, -52586.0104067338, -38519.00708901967, 0.012, 1.002, 0.092, 192.0, 0.0, 0.0, 0.0, 0.0, 0.0, 0.0, 0.0, 0.0, 0.0, 1.69533696130931E9, 0.0, 2023-09-21 17:56:01.309
192.0, 36778.85672794065, 21963.449950629467, -66693.51508540096, -57397.26810422756, -23454.847747665375, -31026.814106323018, -187500.02235174447, -52580.44482236443, -30334.155897397508, -30411.269415768318, -62132.61927755109, -78676.821729758, -19756.57281357918, -187500.02235174447, -52551.566368528176, -38474.214193131236, 0.01, 1.006, 0.094, 192.0, 0.0, 40.0, 15.5, 56.0, 1.0, 120.0, 0.0, 0.0, 0.0, 1.695336961309313E9, 0.0, 2023-09-21 17:56:01.309
194.0, 36758.494288741866, 21924.356749577135, -66730.08253932983, -57444.430285028255, -23460.480387268115, -31079.810092426553, -187500.02235174447, -52632.45733171193, -30354.38422612956, -30435.588113735692, -62150.34421090415, -78694.92664276679, -19823.15866031154, -187500.02235174447, -52591.97832250337, -38499.024629476626, 0.01, 1.006, 0.094, 192.0, 0.0, 0.0, 0.0, 0.0, 0.0, 0.0, 0.0, 0.0, 0.0, 1.695336961309317E9, 0.0, 2023-09-21 17:56:01.309
196.0, 36791.91014670255, 21955.49272960338, -66698.63363488122, -57404.5994764089, -23465.64364023729, -31029.451612168745, -187500.02235174447, -52584.93752299995, -30369.873985037088, -30452.687198244003, -62168.04679251275, -78713.94797729826, -19740.636019782545, -187500.02235174447, -52572.75582227181, -38463.28419009259, 0.01, 1.006, 0.094, 192.0, 0.0, 0.0, 0.0, 0.0, 0.0, 0.0, 0.0, 0.0, 0.0, 1.695336961369713E9, 0.0, 2023-09-21 17:56:01.369
198.0, 36730.308738983724, 21965.327497163715, -66682.16039921765, -57397.2010489942, -23429.523221197513, -31027.551713890043, -187500.02235174447, -52585.20574393341, -30306.506789506293, -30402.663994153023, -62100.72333821337, -78649.64200850035, -19828.21015455844, -187500.02235174447, -52603.288305197755, -38503.003239989666, 0.01, 1.006, 0.094, 192.0, 0.0, 0.0, 0.0, 0.0, 0.0, 0.0, 0.0, 0.0, 0.0, 1.695336961369732E9, 0.0, 2023-09-21 17:56:01.369
200.0, 36793.20654788095, 21958.06318021574, -66710.10007978679, -57417.76465389308, -23450.332695285404, -31043.823783853506, -187500.02235174447, -52594.01233124881, -30359.882755265568, -30430.64837821107, -62158.32378367469, -78702.36977367042, -19749.80023500922, -187500.02235174447, -52553.7568394848, -38460.46787029122, 0.01, 1.006, 0.094, 192.0, 0.0, 0.0, 0.0, 0.0, 0.0, 0.0, 0.0, 0.0, 0.0, 1.695336961369736E9, 0.0, 2023-09-21 17:56:01.369
202.0, 36717.232968477365, 21978.7385438369, -66671.99035549049, -57382.44889765369, -23435.334674755894, -31012.106658471428, -187500.02235174447, -52566.45263033541, -30317.660309989493, -30409.481276211893, -62111.00514066281, -78660.88493596137, -19818.710663164933, -187500.02235174447, -52594.66053183801, -38490.37450437242, 0.012, 1.012, 0.092, 192.0, 0.0, 48.0, 15.5, 80.0, 1.0, 112.0, 0.0, 0.0, 0.0, 1.695336961369739E9, 0.0, 2023-09-21 17:56:01.369
204.0, 36784.779940221306, 21982.91832005004, -66690.43054466612, -57399.23505773963, -23433.45712822165, -31031.910304058827, -187500.02235174447, -52583.32819739917, -30312.05002213121, -30388.06830502371, -62112.078024396666, -78657.24160161515, -19761.95958399291, -187500.02235174447, -52544.45851379139, -38472.53781229709, 0.012, 1.012, 0.092, 192.0, 0.0, 0.0, 0.0, 0.0, 0.0, 0.0, 0.0, 0.0, 0.0, 1.695336961369743E9, 0.0, 2023-09-21 17:56:01.369
206.0, 36715.4671806654, 21964.16520645204, -66697.22547498053, -57406.208802009685, -23459.631020978813, -31041.81212685253, -187500.02235174447, -52589.519630613286, -30326.57865602716, -30418.131401316095, -62122.44923382393, -78673.69248553425, -19802.550351923746, -187500.02235174447, -52581.160078187, -38492.20734741776, 0.012, 1.012, 0.092, 192.0, 0.0, 0.0, 0.0, 0.0, 0.0, 0.0, 0.0, 0.0, 0.0, 1.695336961369747E9, 0.0, 2023-09-21 17:56:01.369
208.0, 36798.99564969488, 21972.502407133867, -66711.12826003174, -57417.31761900397, -23454.512471498547, -31057.011313082137, -187500.02235174447, -52607.624543622085, -30343.141298668543, -30421.014776350832, -62143.325763145185, -78689.76338979762, -19751.364857121094, -187500.02235174447, -52556.55080754171, -38471.75550124115, 0.012, 1.012, 0.092, 192.0, 0.0, 0.0, 0.0, 0.0, 0.0, 0.0, 0.0, 0.0, 0.0, 1.69533696136975E9, 0.0, 2023-09-21 17:56:01.369
210.0, 36708.560491628705, 21988.863884075152, -66670.98452699001, -57376.749202817584, -23456.747645944077, -31016.107620728926, -187500.02235174447, -52571.14649667103, -30310.507751763795, -30412.29759601326, -62105.48425978235, -78658.47094756018, -19775.48238938837, -187500.02235174447, -52588.960837001905, -38491.82736776202, 0.012, 1.012, 0.092, 192.0, 0.0, 0.0, 0.0, 0.0, 0.0, 0.0, 0.0, 0.0, 0.0, 1.695336961430066E9, 0.0, 2023-09-21 17:56:01.430
212.0, 36797.766303749835, 21967.20504369796, -66723.86875437126, -57434.90844189029, -23454.266602309537, -31072.568127223032, -187500.02235174447, -52620.923831572996, -30329.95376943991, -30410.375345990105, -62131.25582113932, -78675.74884602414, -19746.648639041025, -187500.02235174447, -52551.23109236135, -38482.81961474653, 0.008, 1.012, 0.096, 192.0, 0.0, 32.0, 15.5, 80.0, 1.5, 0.0, 0.0, 0.0, 0.0, 1.695336961430082E9, 0.0, 2023-09-21 17:56:01.430
214.0, 36700.73738106935, 21985.77934334032, -66671.16334094564, -57373.418792893746, -23461.687381468702, -31012.03960323806, -187500.02235174447, -52564.59743554562, -30322.53299028075, -30426.759174675844, -62122.73980650185, -78674.98888671266, -19757.690400801945, -187500.02235174447, -52587.485621867854, -38495.873033508426, 0.008, 1.012, 0.096, 192.0, 0.0, 0.0, 0.0, 0.0, 0.0, 0.0, 0.0, 0.0, 0.0, 1.695336961430086E9, 0.0, 2023-09-21 17:56:01.430
216.0, 36782.96944892043, 21976.615128113644, -66709.54128617542, -57418.65872367129, -23434.619418933326, -31062.28632477359, -187500.02235174447, -52601.053130752225, -30308.563149996182, -30399.44534295146, -62119.6105622781, -78665.51174706362, -19762.093694459643, -187500.02235174447, -52556.88608370854, -38496.87886200892, 0.008, 1.012, 0.096, 192.0, 0.0, 0.0, 0.0, 0.0, 0.0, 0.0, 0.0, 0.0, 0.0, 1.69533696143009E9, 0.0, 2023-09-21 17:56:01.430
218.0, 36700.84913979163, 21986.896930563085, -66678.80763754935, -57382.31478718696, -23463.721390214134, -31025.04831851105, -187500.02235174447, -52575.661549050994, -30311.55828375319, -30419.67367168351, -62112.770928474776, -78665.62350578589, -19748.36972336408, -187500.02235174447, -52573.13580192754, -38488.49695783818, 0.008, 1.012, 0.096, 192.0, 0.0, 0.0, 0.0, 0.0, 0.0, 0.0, 0.0, 0.0, 0.0, 1.695336961430093E9, 0.0, 2023-09-21 17:56:01.430
220.0, 36771.36889354812, 21991.322575965238, -66700.53353315992, -57405.38178746484, -23430.216125275627, -31046.48364144369, -187500.02235174447, -52591.21836319189, -30319.493153034826, -30412.92344485801, -62122.09160591264, -78669.49035757665, -19772.62136609809, -187500.02235174447, -52560.507066310296, -38496.54358584208, 0.008, 1.012, 0.096, 192.0, 0.0, 0.0, 0.0, 0.0, 0.0, 0.0, 0.0, 0.0, 0.0, 1.695336961430097E9, 0.0, 2023-09-21 17:56:01.430
222.0, 36700.513863624794, 21989.288567219803, -66688.95532953207, -57388.237999467616, -23462.559099502458, -31028.602245879443, -187500.02235174447, -52579.371938630575, -30310.99949014181, -30410.040069823277, -62108.032358650256, -78656.72751149267, -19745.911031474, -187500.02235174447, -52566.43027859095, -38485.54652757008, 0.014, 1.012, 0.096, 192.0, 0.0, 56.0, 15.5, 80.0, 1.5, 0.0, 0.0, 0.0, 0.0, 1.6953369614301E9, 0.0, 2023-09-21 17:56:01.430
224.0, 36758.963675375424, 21992.663680632555, -66704.64625413969, -57409.22628751115, -23432.339540998884, -31058.598286938464, -187500.02235174447, -52603.37771217558, -30323.941150181432, -30414.82334313671, -62124.57264954718, -78667.12107266439, -19782.67965110298, -187500.02235174447, -52568.28547338075, -38498.51053935415, 0.014, 1.012, 0.096, 192.0, 0.0, 0.0, 0.0, 0.0, 0.0, 0.0, 0.0, 0.0, 0.0, 1.695336961430104E9, 0.0, 2023-09-21 17:56:01.430
226.0, 36705.83357880516, 21987.41102068556, -66702.41107969417, -57397.78219435003, -23478.339431087905, -31044.270818742614, -187500.02235174447, -52590.99484574734, -30334.44647007543, -30429.77666017731, -62130.58526880566, -78676.84408150245, -19719.871249183565, -187500.02235174447, -52564.843304734626, -38480.070350178525, 0.014, 1.012, 0.096, 192.0, 0.0, 0.0, 0.0, 0.0, 0.0, 0.0, 0.0, 0.0, 0.0, 1.695336961490354E9, 0.0, 2023-09-21 17:56:01.490
228.0, 36750.78293690478, 21989.713250364453, -66712.33525423233, -57417.49643295961, -23447.65048595077, -31059.917039861328, -187500.02235174447, -52606.864584310606, -30332.077185163165, -30428.8825903991, -62128.79712924924, -78673.60307855644, -19777.650508600535, -187500.02235174447, -52577.136764185045, -38502.39974288938, 0.014, 1.012, 0.096, 192.0, 0.0, 0.0, 0.0, 0.0, 0.0, 0.0, 0.0, 0.0, 0.0, 1.695336961490366E9, 0.0, 2023-09-21 17:56:01.490
230.0, 36705.58770961615, 22011.372090741646, -66675.8348555368, -57371.183618448216, -23466.157730359762, -31017.89576028535, -187500.02235174447, -52567.50316232481, -30329.976121184365, -30425.50747698635, -62121.73397800136, -78669.2668401321, -19718.865420683076, -187500.02235174447, -52564.32921461215, -38476.27055362112, 0.014, 1.012, 0.096, 192.0, 0.0, 0.0, 0.0, 0.0, 0.0, 0.0, 0.0, 0.0, 0.0, 1.69533696149037E9, 0.0, 2023-09-21 17:56:01.490
232.0, 36731.98511981787, 21989.668546875542, -66706.56850416286, -57415.79770038101, -23430.819622375922, -31068.030723098604, -187500.02235174447, -52613.52540415829, -30304.897463905512, -30395.802008605246, -62098.018777134275, -78642.17652585226, -19798.68350013298, -187500.02235174447, -52571.21355190439, -38505.439580135295, 0.016, 1.01, 0.092, 192.0, 0.0, 64.0, 15.5, 72.0, 1.0, 112.0, 0.0, 0.0, 0.0, 1.695336961490374E9, 0.0, 2023-09-21 17:56:01.490
234.0, 36715.80245683223, 21999.92799758053, -66686.27312019744, -57383.70059534319, -23469.711657728156, -31029.272798213104, -187500.02235174447, -52582.0094444763, -30361.380322144072, -30445.31112257375, -62151.75237080483, -78698.07823873499, -19710.528220001248, -187500.02235174447, -52556.662566263985, -38465.07232964901, 0.016, 1.01, 0.092, 192.0, 0.0, 0.0, 0.0, 0.0, 0.0, 0.0, 0.0, 0.0, 0.0, 1.695336961490377E9, 0.0, 2023-09-21 17:56:01.490
236.0, 36720.675137123486, 21989.73560210891, -66707.48492568552, -57417.85406087089, -23440.25205853606, -31067.494281231677, -187500.02235174447, -52612.34076170216, -30315.223969843864, -30406.083811054687, -62108.0100069058, -78653.39710156883, -19804.71847113591, -187500.02235174447, -52579.97543573087, -38505.61839409094, 0.016, 1.01, 0.092, 192.0, 0.0, 0.0, 0.0, 0.0, 0.0, 0.0, 0.0, 0.0, 0.0, 1.695336961490381E9, 0.0, 2023-09-21 17:56:01.490
238.0, 36728.67706163848, 21995.859980089663, -66693.60449237877, -57394.78706059302, -23472.103294384873, -31033.698443615252, -187500.02235174447, -52588.91613351299, -30354.406577874015, -30439.03028238181, -62152.333516160674, -78700.73809632518, -19725.481537041847, -187500.02235174447, -52554.002708673805, -38462.85950694794, 0.016, 1.01, 0.092, 192.0, 0.0, 0.0, 0.0, 0.0, 0.0, 0.0, 0.0, 0.0, 0.0, 1.695336961490384E9, 0.0, 2023-09-21 17:56:01.490
240.0, 36711.30975619671, 21996.82110510124, -66677.91356777115, -57395.926999560244, -23438.68743642419, -31040.85100184095, -187500.02235174447, -52593.47588938187, -30305.590367983626, -30404.720354642912, -62106.04305339373, -78653.93354343576, -19828.50072723636, -187500.02235174447, -52583.0599764657, -38501.10334171097, 0.016, 1.01, 0.092, 192.0, 0.0, 0.0, 0.0, 0.0, 0.0, 0.0, 0.0, 0.0, 0.0, 1.695336961549692E9, 0.0, 2023-09-21 17:56:01.549
242.0, 36750.6264746936, 21980.750200837876, -66693.6938993566, -57408.24281075512, -23476.12660838683, -31040.67218788531, -187500.02235174447, -52595.77811906077, -30348.57277257118, -30430.670729955524, -62156.736809818365, -78700.24635794717, -19736.880926714057, -187500.02235174447, -52543.29622307971, -38459.439690046274, 0.01, 1.006, 0.092, 192.0, 0.0, 40.0, 15.5, 56.0, 1.0, 112.0, 0.0, 0.0, 0.0, 1.695336961549711E9, 0.0, 2023-09-21 17:56:01.549
244.0, 36723.75967785832, 21957.72790404891, -66701.53936166041, -57429.74518892112, -23478.987631677108, -31076.81495866954, -187500.02235174447, -52625.19301476396, -30340.57084805618, -30432.369462534127, -62147.14791144704, -78691.84210203197, -19812.8768578621, -187500.02235174447, -52587.57502884568, -38492.76614102914, 0.01, 1.006, 0.092, 192.0, 0.0, 0.0, 0.0, 0.0, 0.0, 0.0, 0.0, 0.0, 0.0, 1.695336961549716E9, 0.0, 2023-09-21 17:56:01.549
