%OpenBCI Raw EXG Data
%Number of channels = 16
%Sample Rate = 125 Hz
%Board = OpenBCI_GUI$BoardCytonSerialDaisy
Sample Index, EXG Channel 0, EXG Channel 1, EXG Channel 2, EXG Channel 3, EXG Channel 4, EXG Channel 5, EXG Channel 6, EXG Channel 7, EXG Channel 8, EXG Channel 9, EXG Channel 10, EXG Channel 11, EXG Channel 12, EXG Channel 13, EXG Channel 14, EXG Channel 15, Accel Channel 0, Accel Channel 1, Accel Channel 2, Other, Other, Other, Other, Other, Other, Other, Analog Channel 0, Analog Channel 1, Analog Channel 2, Timestamp, Other, Timestamp (Formatted)
0.0, 36535.75915524473, 22935.907296646514, -66672.83972177979, -59010.907591689545, -22193.76232549695, -29521.580579469275, -187500.02235174447, -52203.72852131469, 0.0, 0.0, 0.0, 0.0, 0.0, 0.0, 0.0, 0.0, 0.012, 0.504, 0.039, 192.0, 0.0, 96.0, 15.5, 64.0, 1.0, 56.0, 0.0, 0.0, 0.0, 1.695336927842491E9, 0.0, 2023-09-21 17:55:27.842
254.0, 36560.03314972319, 22939.796500181736, -66657.21585240554, -58980.95625411943, -22225.92648576814, -29483.962593550994, -187500.02235174447, -52174.49243956715, -29605.399621176675, -29949.97411369969, -62328.62172467968, -79882.94421231082, -17436.931125751868, -187500.02235174447, -52358.49199992323, -38703.87836740952, 0.012, 0.504, 0.039, 192.0, 0.0, 0.0, 0.0, 0.0, 0.0, 0.0, 0.0, 0.0, 0.0, 1.6953369278425E9, 0.0, 2023-09-21 17:55:27.842
0.0, 36536.29559711165, 22919.54581970523, -66673.35381190227, -59009.007693410844, -22199.81964824434, -29521.31235853581, -187500.02235174447, -52198.20764043422, -29544.781690213884, -29897.87219737437, -62261.49943608039, -79820.0464034136, -17533.155385631966, -187500.02235174447, -52391.08084333907, -38742.27866438373, 0.012, 0.504, 0.039, 192.0, 0.0, 0.0, 0.0, 0.0, 0.0, 0.0, 0.0, 0.0, 0.0, 1.695336927842504E9, 0.0, 2023-09-21 17:55:27.842
2.0, 36572.103091729055, 22935.370854779587, -66648.6774860236, -58978.34110001816, -22207.173372170135, -29485.415456940587, -187500.02235174447, -52168.54687554204, -29589.440475635587, -29934.417299558798, -62307.47697442496, -79866.80625281409, -17438.74161705275, -187500.02235174447, -52359.609587146, -38703.34192554258, 0.012, 0.504, 0.039, 192.0, 0.0, 0.0, 0.0, 0.0, 0.0, 0.0, 0.0, 0.0, 0.0, 1.695336927842508E9, 0.0, 2023-09-21 17:55:27.842
4.0, 36511.351050299534, 22958.370799824097, -66623.19649734456, -58956.90577708552, -22173.131665364705, -29461.789663051328, -187500.02235174447, -52143.781142685555, -29520.88767539116, -29882.15892102229, -62238.477139291426, -79800.51097875964, -17531.523708286728, -187500.02235174447, -52393.65129395143, -38752.62752206654, 0.012, 0.504, 0.039, 192.0, 0.0, 0.0, 0.0, 0.0, 0.0, 0.0, 0.0, 0.0, 0.0, 1.695336927842511E9, 0.0, 2023-09-21 17:55:27.842
6.0, 36579.14389123248, 22954.995686411345, -66655.3830093602, -58982.096193086654, -22184.441648059088, -29483.001468539416, -187500.02235174447, -52171.877285465875, -29551.934248439582, -29893.468903716675, -62275.245758920406, -79829.05415642908, -17458.902890551435, -187500.02235174447, -52338.84481654702, -38718.04937339418, 0.014, 0.756, 0.0595, 192.0, 0.0, 64.0, 15.5, 64.0, 1.0, 64.0, 0.0, 0.0, 0.0, 1.695336927842515E9, 0.0, 2023-09-21 17:55:27.842
8.0, 36516.13432361297, 22945.92087816249, -66646.35290460025, -58975.50242847233, -22188.777886483418, -29481.012163282892, -187500.02235174447, -52174.045404678036, -29546.860402448227, -29906.0082323561, -62264.65103204859, -79821.47691505872, -17522.448900037874, -187500.02235174447, -52376.440450720846, -38742.45747833938, 0.014, 0.756, 0.0595, 192.0, 0.0, 0.0, 0.0, 0.0, 0.0, 0.0, 0.0, 0.0, 0.0, 1.695336927842518E9, 0.0, 2023-09-21 17:55:27.842
10.0, 36584.70947560185, 22964.428122571484, -66638.97682893001, -58964.01363182231, -22181.06653464634, -29462.63902934063, -187500.02235174447, -52158.22036960368, -29558.013922931426, -29899.906206119802, -62278.21854093296, -79829.38943259591, -17460.31105045212, -187500.02235174447, -52337.23549094624, -38712.28262332471, 0.014, 0.756, 0.0595, 192.0, 0.0, 0.0, 0.0, 0.0, 0.0, 0.0, 0.0, 0.0, 0.0, 1.695336927842522E9, 0.0, 2023-09-21 17:55:27.842
12.0, 36510.032297376674, 22942.92574440548, -66648.56572730133, -58975.14480056105, -22199.260854632957, -29483.78377959535, -187500.02235174447, -52172.27961686607, -29535.79628894285, -29887.94802283621, -62250.010639430366, -79806.6353567404, -17509.954274887357, -187500.02235174447, -52366.73979362724, -38736.40015559199, 0.014, 0.756, 0.0595, 192.0, 0.0, 0.0, 0.0, 0.0, 0.0, 0.0, 0.0, 0.0, 0.0, 1.695336927842526E9, 0.0, 2023-09-21 17:55:27.842
0.0, 18207.686329804223, 11393.332349459213, -33328.44028811935, -29380.317554511734, -11203.543687289202, -14866.771086069475, -93750.01117587223, -26136.654750902027, -14795.06668985685, -14960.760171504042, -31153.101462495502, -39928.35163216015, -8707.971418854167, -93750.01117587223, -26167.522509994807, -19348.921698203292, 0.012, 1.006, 0.078, 192.0, 0.0, 48.0, 15.5, 56.0, 1.0, 56.0, 0.0, 0.0, 0.0, 1.695336927984945E9, 0.0, 2023-09-21 17:55:27.984
2.0, 36498.87877689347, 22787.871693119014, -66684.39557366319, -58787.188981436375, -22402.080583820414, -29761.57125968591, -187500.02235174447, -52311.709798778276, -29624.711528386062, -29939.0664624055, -62263.57814831474, -79669.26153531809, -16690.472267922436, -187500.02235174447, -52443.80860850914, -38716.66356523795, 0.012, 1.006, 0.078, 192.0, 0.0, 0.0, 0.0, 0.0, 0.0, 0.0, 0.0, 0.0, 0.0, 1.695336927984959E9, 0.0, 2023-09-21 17:55:27.984
4.0, 36415.35030786399, 22779.288623248176, -66683.34504167379, -58783.18801917887, -22440.950267428194, -29764.678152165194, -187500.02235174447, -52316.02368545815, -29637.496726214496, -29967.36377088592, -62271.42361061855, -79681.73380872415, -16687.655948121064, -187500.02235174447, -52468.44023089889, -38722.20679786287, 0.012, 1.006, 0.078, 192.0, 0.0, 0.0, 0.0, 0.0, 0.0, 0.0, 0.0, 0.0, 0.0, 1.695336927984963E9, 0.0, 2023-09-21 17:55:27.984
6.0, 36495.213090802805, 22789.79394314217, -66690.72111734404, -58794.185077450886, -22413.815249659452, -29775.31758252592, -187500.02235174447, -52328.6524210754, -29651.175993821147, -29969.21896567571, -62293.17185797356, -79698.78818974354, -16694.361471457658, -187500.02235174447, -52457.5325796047, -38723.369088574545, 0.012, 1.006, 0.078, 192.0, 0.0, 0.0, 0.0, 0.0, 0.0, 0.0, 0.0, 0.0, 0.0, 1.695336927984967E9, 0.0, 2023-09-21 17:55:27.984
8.0, 36416.289081131115, 22791.783248398693, -66676.12542821473, -58777.331862131585, -22438.849203449394, -29755.022198560502, -187500.02235174447, -52308.334685365524, -29627.460792954065, -29955.78556725807, -62262.75113376989, -79673.39660804231, -16685.97956728692, -187500.02235174447, -52471.68123384491, -38722.85499845207, 0.01, 1.01, 0.074, 192.0, 0.0, 40.0, 15.5, 72.0, 1.0, 40.0, 0.0, 0.0, 0.0, 1.69533692798497E9, 0.0, 2023-09-21 17:55:27.984
10.0, 36496.263622792205, 22780.16034128193, -66713.85517285528, -58817.944981806875, -22422.264209063556, -29793.198978090168, -187500.02235174447, -52341.79524681512, -29649.946647876102, -29964.65920980683, -62288.96973001597, -79694.40724783031, -16719.55188745879, -187500.02235174447, -52459.968919750325, -38721.80446646267, 0.01, 1.01, 0.074, 192.0, 0.0, 0.0, 0.0, 0.0, 0.0, 0.0, 0.0, 0.0, 0.0, 1.695336927984974E9, 0.0, 2023-09-21 17:55:27.984
12.0, 36420.267691644156, 22785.301242506655, -66683.03211725141, -58778.15887667643, -22453.668410023263, -29755.111605538325, -187500.02235174447, -52304.75840625267, -29652.494746744007, -29977.60086984645, -62286.04165149232, -79696.03892517554, -16679.899892795074, -187500.02235174447, -52476.79978332517, -38709.511007012254, 0.01, 1.01, 0.074, 192.0, 0.0, 0.0, 0.0, 0.0, 0.0, 0.0, 0.0, 0.0, 0.0, 1.695336927984978E9, 0.0, 2023-09-21 17:55:27.984
14.0, 36487.166462798894, 22766.928108564392, -66725.41102473867, -58828.07032204513, -22432.098976623893, -29806.922949185726, -187500.02235174447, -52352.90406380941, -29649.141985075712, -29966.559108085527, -62287.04747999281, -79691.07683790647, -16735.68984695552, -187500.02235174447, -52472.19532396738, -38730.11931540004, 0.01, 1.01, 0.074, 192.0, 0.0, 0.0, 0.0, 0.0, 0.0, 0.0, 0.0, 0.0, 0.0, 1.695336927984981E9, 0.0, 2023-09-21 17:55:27.984
16.0, 36425.54270333561, 22793.9290158664, -66671.65507932367, -58768.70408877183, -22441.68787499522, -29749.27780023549, -187500.02235174447, -52298.49991780519, -29645.096319329303, -29978.114959968923, -62280.85604677869, -79694.11667515239, -16675.74246832639, -187500.02235174447, -52475.59278912459, -38713.82489369212, 0.01, 1.01, 0.074, 192.0, 0.0, 0.0, 0.0, 0.0, 0.0, 0.0, 0.0, 0.0, 0.0, 1.695336928045528E9, 0.0, 2023-09-21 17:55:28.045
18.0, 36464.07711077656, 22803.540265982185, -66681.735716073, -58785.60200758005, -22391.038822059494, -29763.314695753423, -187500.02235174447, -52305.54071730861, -29616.463734682053, -29946.084910164467, -62252.53638655382, -79662.8018811705, -16750.844329696218, -187500.02235174447, -52469.96014952185, -38740.356414360576, 0.006, 1.01, 0.07200000000000001, 192.0, 0.0, 24.0, 15.5, 72.0, 1.0, 32.0, 0.0, 0.0, 0.0, 1.695336928045537E9, 0.0, 2023-09-21 17:55:28.045
20.0, 36426.906159747385, 22807.13889683949, -66672.16916944613, -58768.21235039382, -22431.271962079045, -29748.897820579747, -187500.02235174447, -52296.39885382639, -29637.094394814303, -29968.011971475124, -62270.95422398499, -79684.2595558476, -16671.942671768986, -187500.02235174447, -52449.977689978805, -38713.17669310292, 0.006, 1.01, 0.07200000000000001, 192.0, 0.0, 0.0, 0.0, 0.0, 0.0, 0.0, 0.0, 0.0, 0.0, 1.69533692804554E9, 0.0, 2023-09-21 17:55:28.045
22.0, 36459.204430485304, 22786.709402407338, -66715.75507113399, -58819.64371438548, -22413.614083959354, -29804.844236951383, -187500.02235174447, -52339.18009271385, -29621.492877184497, -29954.489166079664, -62256.35853485567, -79666.73578819464, -16747.066884883272, -187500.02235174447, -52466.00389075326, -38739.97643470483, 0.006, 1.01, 0.07200000000000001, 192.0, 0.0, 0.0, 0.0, 0.0, 0.0, 0.0, 0.0, 0.0, 0.0, 1.695336928045544E9, 0.0, 2023-09-21 17:55:28.045
24.0, 36455.2034682278, 22787.469361718817, -66709.0942512863, -58797.470783885816, -22465.581889817942, -29782.537195984984, -187500.02235174447, -52331.78166529914, -29684.01070642599, -30004.914701570837, -62315.61300940669, -79722.79396328855, -16641.790168498777, -187500.02235174447, -52456.21382668184, -38692.70249518186, 0.006, 1.01, 0.07200000000000001, 192.0, 0.0, 0.0, 0.0, 0.0, 0.0, 0.0, 0.0, 0.0, 0.0, 1.695336928045548E9, 0.0, 2023-09-21 17:55:28.045
26.0, 36455.2034682278, 22790.978585598303, -66709.25071349749, -58802.90225778845, -22434.736482469616, -29793.958937401647, -187500.02235174447, -52337.23549094624, -29657.076854357347, -29975.589212845473, -62285.50520962539, -79691.36741058438, -16729.40900676358, -187500.02235174447, -52491.976617810324, -38726.163056631456, 0.006, 1.01, 0.07200000000000001, 192.0, 0.0, 0.0, 0.0, 0.0, 0.0, 0.0, 0.0, 0.0, 0.0, 1.695336928045552E9, 0.0, 2023-09-21 17:55:28.045
28.0, 36457.796270584615, 22813.75501319826, -66685.22258820804, -58774.64965279694, -22440.45852905018, -29768.455596978143, -187500.02235174447, -52309.742845266206, -29645.029264095934, -29958.780701015083, -62272.295328652304, -79678.7610267116, -16644.67354353351, -187500.02235174447, -52458.784277294195, -38700.011515618746, 0.012, 1.014, 0.07200000000000001, 192.0, 0.0, 48.0, 15.5, 88.0, 1.0, 32.0, 0.0, 0.0, 0.0, 1.695336928045555E9, 0.0, 2023-09-21 17:55:28.045
30.0, 36433.54462785061, 22802.355623526055, -66691.70459410007, -58785.75846979123, -22418.06208110596, -29781.017277362025, -187500.02235174447, -52329.85941527598, -29624.309196985865, -29946.26372412011, -62249.20597662997, -79654.79995665551, -16733.45467250999, -187500.02235174447, -52478.654978114966, -38739.1941236489, 0.012, 1.014, 0.07200000000000001, 192.0, 0.0, 0.0, 0.0, 0.0, 0.0, 0.0, 0.0, 0.0, 0.0, 1.695336928104747E9, 0.0, 2023-09-21 17:55:28.104
32.0, 36461.41725318638, 22799.293434535677, -66686.25076845298, -58772.16860916241, -22436.59167725941, -29771.85306213535, -187500.02235174447, -52334.95561301179, -29662.128348604245, -29971.83411977698, -62288.56739861577, -79693.7590472411, -16637.208060885438, -187500.02235174447, -52446.557873077145, -38701.79965517517, 0.012, 1.014, 0.07200000000000001, 192.0, 0.0, 0.0, 0.0, 0.0, 0.0, 0.0, 0.0, 0.0, 0.0, 1.695336928104754E9, 0.0, 2023-09-21 17:55:28.104
34.0, 36409.695316516794, 22806.55775148365, -66661.70855304105, -58752.61083276401, -22401.544141953487, -29743.175773999188, -187500.02235174447, -52286.5417345216, -29600.281071696412, -29924.604883742915, -62219.32169429323, -79629.60954065438, -16731.577125975746, -187500.02235174447, -52478.11853624804, -38742.435126594915, 0.012, 1.014, 0.07200000000000001, 192.0, 0.0, 0.0, 0.0, 0.0, 0.0, 0.0, 0.0, 0.0, 0.0, 1.695336928104758E9, 0.0, 2023-09-21 17:55:28.104
36.0, 36466.66991313337, 22785.971794840312, -66699.90768431517, -58783.344481390064, -22426.28752306551, -29774.579974958895, -187500.02235174447, -52321.81278727207, -29640.089528571312, -29950.935238711267, -62266.774447771844, -79672.055503375, -16648.741561024377, -187500.02235174447, -52427.76005599023, -38699.162149329444, 0.012, 1.014, 0.07200000000000001, 192.0, 0.0, 0.0, 0.0, 0.0, 0.0, 0.0, 0.0, 0.0, 0.0, 1.695336928104762E9, 0.0, 2023-09-21 17:55:28.104
38.0, 36414.00920319667, 22754.94757353635, -66720.47128921405, -58809.138394491485, -22438.4468720492, -29804.66542299574, -187500.02235174447, -52345.662098605884, -29638.63666518172, -29966.246183663156, -62267.02031696085, -79673.01662838658, -16722.703483426987, -187500.02235174447, -52481.44894617188, -38733.7402980018, 0.01, 1.016, 0.074, 192.0, 0.0, 40.0, 15.5, 96.0, 1.0, 40.0, 0.0, 0.0, 0.0, 1.695336928104766E9, 0.0, 2023-09-21 17:55:28.104
40.0, 36484.50660520871, 22769.967945810313, -66716.40327172319, -58793.11219371703, -22442.2466686066, -29782.112512840333, -187500.02235174447, -52327.49013036372, -29681.708476747095, -29996.331631699995, -62314.16014601709, -79718.07774520847, -16651.937860481485, -187500.02235174447, -52453.77748653621, -38699.60918421855, 0.01, 1.016, 0.074, 192.0, 0.0, 0.0, 0.0, 0.0, 0.0, 0.0, 0.0, 0.0, 0.0, 1.69533692810477E9, 0.0, 2023-09-21 17:55:28.104
42.0, 36409.94118570581, 22772.40428595594, -66694.47621041253, -58777.600083065045, -22433.574191757943, -29765.974553343603, -187500.02235174447, -52308.28998187662, -29625.784412119916, -29959.9206399823, -62252.60344178718, -79664.05357886, -16723.3963875051, -187500.02235174447, -52485.3381497071, -38729.98520493331, 0.01, 1.016, 0.074, 192.0, 0.0, 0.0, 0.0, 0.0, 0.0, 0.0, 0.0, 0.0, 0.0, 1.695336928104774E9, 0.0, 2023-09-21 17:55:28.104
44.0, 36492.70969542381, 22775.13119877949, -66714.07869029984, -58796.95669376334, -22437.195174359702, -29782.917175640727, -187500.02235174447, -52328.965345497774, -29657.52388924645, -29980.439541392272, -62291.98721551743, -79698.98935544364, -16674.31195668125, -187500.02235174447, -52444.747381776266, -38701.956117386355, 0.01, 1.016, 0.074, 192.0, 0.0, 0.0, 0.0, 0.0, 0.0, 0.0, 0.0, 0.0, 0.0, 1.695336928104778E9, 0.0, 2023-09-21 17:55:28.104
46.0, 36408.42126708284, 22778.84158835907, -66694.38680343471, -58776.23662665327, -22437.843374948905, -29760.2748585075, -187500.02235174447, -52302.29971436259, -29625.896170842192, -29961.328799882987, -62251.530558053324, -79663.09245384843, -16717.964913602464, -187500.02235174447, -52476.59861762507, -38726.073649653634, 0.01, 1.016, 0.074, 192.0, 0.0, 0.0, 0.0, 0.0, 0.0, 0.0, 0.0, 0.0, 0.0, 1.695336928164725E9, 0.0, 2023-09-21 17:55:28.164
48.0, 36502.87973915097, 22764.916451563415, -66731.87067888626, -58815.17336549442, -22436.234049348124, -29797.51286477004, -187500.02235174447, -52342.64461310442, -29665.68227597264, -29982.36179141543, -62294.825887063256, -79697.98352694315, -16684.258482963858, -187500.02235174447, -52442.19928290836, -38705.95707964386, 0.014, 1.012, 0.07, 192.0, 0.0, 56.0, 15.5, 80.0, 1.0, 24.0, 0.0, 0.0, 0.0, 1.695336928164737E9, 0.0, 2023-09-21 17:55:28.164
50.0, 36410.410572339366, 22773.03013480069, -66694.990300535, -58775.25314989724, -22455.25538387959, -29763.046474819956, -187500.02235174447, -52303.30554286308, -29650.17016532066, -29987.65915485134, -62274.66461356457, -79685.310087837, -16699.92705582703, -187500.02235174447, -52479.39258568199, -38718.407001305466, 0.014, 1.012, 0.07, 192.0, 0.0, 0.0, 0.0, 0.0, 0.0, 0.0, 0.0, 0.0, 0.0, 1.695336928164741E9, 0.0, 2023-09-21 17:55:28.164
52.0, 36498.923480382386, 22771.666678388916, -66729.81431839637, -58812.96054279334, -22435.988180159115, -29806.90059744127, -187500.02235174447, -52348.52312189616, -29654.86403165627, -29972.79524478856, -62286.287520681326, -79689.24399486113, -16700.754070371877, -187500.02235174447, -52451.6317190685, -38712.66260298045, 0.014, 1.012, 0.07, 192.0, 0.0, 0.0, 0.0, 0.0, 0.0, 0.0, 0.0, 0.0, 0.0, 1.695336928164744E9, 0.0, 2023-09-21 17:55:28.164
54.0, 36412.75750550717, 22772.292527233665, -66702.79105934991, -58787.16662969192, -22460.552747315498, -29777.239832549076, -187500.02235174447, -52321.43280761634, -29641.005950093982, -29974.44927387825, -62266.70739253848, -79679.02924764506, -16697.53541917031, -187500.02235174447, -52476.35274843607, -38717.75880071626, 0.014, 1.012, 0.07, 192.0, 0.0, 0.0, 0.0, 0.0, 0.0, 0.0, 0.0, 0.0, 0.0, 1.695336928164748E9, 0.0, 2023-09-21 17:55:28.164
56.0, 36496.55419547012, 22781.23322501579, -66717.87848685724, -58804.5786386226, -22438.223354604645, -29799.390411304288, -187500.02235174447, -52353.5075609097, -29667.87274692926, -29982.8758815379, -62297.50809639789, -79703.88438747935, -16712.756957144375, -187500.02235174447, -52457.64433832697, -38715.724791970824, 0.014, 1.012, 0.07, 192.0, 0.0, 0.0, 0.0, 0.0, 0.0, 0.0, 0.0, 0.0, 0.0, 1.695336928164752E9, 0.0, 2023-09-21 17:55:28.164
58.0, 36406.47666531523, 22797.862922890537, -66670.64925082317, -58749.012201906706, -22446.471148308654, -29743.108718765823, -187500.02235174447, -52293.40372006938, -29622.409298707164, -29957.752520770136, -62245.00384867238, -79658.13036657934, -16694.49558192439, -187500.02235174447, -52471.12244023353, -38721.245672851284, 0.01, 1.012, 0.068, 192.0, 0.0, 40.0, 15.5, 80.0, 1.0, 16.0, 0.0, 0.0, 0.0, 1.695336928164755E9, 0.0, 2023-09-21 17:55:28.164
60.0, 36485.132454053455, 22766.23520448628, -66743.94062089213, -58825.67868538841, -22435.831717947927, -29818.70231851367, -187500.02235174447, -52354.51338941019, -29637.116746558757, -29953.460985834718, -62263.57814831474, -79666.3558085389, -16735.399274277603, -187500.02235174447, -52450.15650393445, -38731.34866134509, 0.01, 1.012, 0.068, 192.0, 0.0, 0.0, 0.0, 0.0, 0.0, 0.0, 0.0, 0.0, 0.0, 1.69533692822503E9, 0.0, 2023-09-21 17:55:28.225
62.0, 36421.184113166826, 22762.74833235125, -66729.43433874063, -58804.06454850013, -22484.06678248248, -29786.024068120012, -187500.02235174447, -52331.066409476574, -29683.183691881146, -30012.670756896827, -62306.04646277982, -79713.04860270604, -16672.88144503611, -187500.02235174447, -52470.585998366594, -38706.292355810685, 0.01, 1.012, 0.068, 192.0, 0.0, 0.0, 0.0, 0.0, 0.0, 0.0, 0.0, 0.0, 0.0, 1.695336928225043E9, 0.0, 2023-09-21 17:55:28.225
64.0, 36481.04208481814, 22775.734695879783, -66736.96687662207, -58819.86723183003, -22446.135872141826, -29803.90546368426, -187500.02235174447, -52347.74081084023, -29655.802804923394, -29994.45408516575, -62292.9036370401, -79698.34115485444, -16737.008599878383, -187500.02235174447, -52489.85320208707, -38731.818047978646, 0.01, 1.012, 0.068, 192.0, 0.0, 0.0, 0.0, 0.0, 0.0, 0.0, 0.0, 0.0, 0.0, 1.695336928225047E9, 0.0, 2023-09-21 17:55:28.225
66.0, 36433.45522087279, 22797.594701957074, -66691.70459410007, -58763.04909742464, -22461.759741516085, -29747.93669556817, -187500.02235174447, -52291.52617353513, -29652.919429888658, -29985.491035639174, -62264.60632855968, -79670.22266032966, -16668.50050312287, -187500.02235174447, -52469.3343006771, -38708.57223374513, 0.01, 1.012, 0.068, 192.0, 0.0, 0.0, 0.0, 0.0, 0.0, 0.0, 0.0, 0.0, 0.0, 1.69533692822505E9, 0.0, 2023-09-21 17:55:28.225
68.0, 36465.015884043685, 22804.344928782575, -66704.46744018406, -58782.91979824541, -22422.10774685237, -29777.888033138282, -187500.02235174447, -52316.69423779181, -29626.29850224239, -29954.55622131303, -62242.83572946021, -79641.81359312696, -16745.770483704866, -187500.02235174447, -52468.641396598985, -38737.31657711465, 0.014, 1.012, 0.064, 192.0, 0.0, 56.0, 15.5, 80.0, 1.0, 0.0, 0.0, 0.0, 0.0, 1.695336928225054E9, 0.0, 2023-09-21 17:55:28.225
70.0, 36447.89444779092, 22797.527646723705, -66705.78619310692, -58771.67687078439, -22467.34767762991, -29761.41479747472, -187500.02235174447, -52305.965400453264, -29673.795959209918, -29984.1275792274, -62283.8511805357, -79677.7551982111, -16657.972831484418, -187500.02235174447, -52442.780428264196, -38697.39636151747, 0.014, 1.012, 0.064, 192.0, 0.0, 0.0, 0.0, 0.0, 0.0, 0.0, 0.0, 0.0, 0.0, 1.695336928225058E9, 0.0, 2023-09-21 17:55:28.225
72.0, 36458.422119429364, 22818.940617911892, -66688.6424051097, -58762.75852474672, -22418.978502628626, -29763.627620175794, -187500.02235174447, -52303.70787426327, -29631.886438356214, -29939.11116589441, -62238.1418631246, -79627.62023539784, -16747.133940116637, -187500.02235174447, -52463.612254096544, -38724.889007197504, 0.014, 1.012, 0.064, 192.0, 0.0, 0.0, 0.0, 0.0, 0.0, 0.0, 0.0, 0.0, 0.0, 1.695336928225061E9, 0.0, 2023-09-21 17:55:28.225
74.0, 36466.11111952199, 22785.591815184573, -66723.17585029315, -58793.15689720594, -22477.562424845986, -29796.931719414202, -187500.02235174447, -52338.487188635736, -29680.143854635222, -29980.17132045881, -62285.862837536675, -79677.17405285526, -16662.510235608846, -187500.02235174447, -52436.633698538986, -38683.56063169964, 0.014, 1.012, 0.064, 192.0, 0.0, 0.0, 0.0, 0.0, 0.0, 0.0, 0.0, 0.0, 0.0, 1.695336928225065E9, 0.0, 2023-09-21 17:55:28.225
76.0, 36451.26956120367, 22803.47321074882, -66695.83966682431, -58772.88386498498, -22443.297200596, -29779.251489550054, -187500.02235174447, -52321.4998628497, -29660.116691603267, -29979.679582080793, -62267.37794487214, -79662.6007154704, -16763.182492635548, -187500.02235174447, -52479.973731037826, -38718.83168445012, 0.014, 1.012, 0.064, 192.0, 0.0, 0.0, 0.0, 0.0, 0.0, 0.0, 0.0, 0.0, 0.0, 1.695336928285215E9, 0.0, 2023-09-21 17:55:28.285
78.0, 36463.16068925389, 22832.686940751904, -66672.34798340178, -58731.66724820939, -22450.986200688625, -29725.920227279694, -187500.02235174447, -52279.09860361798, -29660.049636369902, -29968.9730964867, -62267.89203499461, -79661.17020382527, -16680.25752070636, -187500.02235174447, -52434.68909677138, -38683.60533518855, 0.014, 1.014, 0.066, 192.0, 0.0, 56.0, 15.5, 88.0, 1.0, 8.0, 0.0, 0.0, 0.0, 1.695336928285228E9, 0.0, 2023-09-21 17:55:28.285
80.0, 36430.10245920449, 22831.524650040228, -66683.50150388498, -58755.9188909434, -22421.48189800762, -29763.918192853715, -187500.02235174447, -52310.18988015531, -29589.70869656905, -29912.981976626157, -62197.59579868267, -79593.15384544777, -16775.833579997252, -187500.02235174447, -52455.364460392535, -38721.75976297376, 0.014, 1.014, 0.066, 192.0, 0.0, 0.0, 0.0, 0.0, 0.0, 0.0, 0.0, 0.0, 0.0, 1.695336928285232E9, 0.0, 2023-09-21 17:55:28.285
82.0, 36472.414311458386, 22841.18060364492, -66690.20702722156, -58757.30469909963, -22445.174747130248, -29767.60623068884, -187500.02235174447, -52321.72338029425, -29643.129365817236, -29957.998389959146, -62258.37019185665, -79649.77081415306, -16676.413020660046, -187500.02235174447, -52420.31692508661, -38677.078625807604, 0.014, 1.014, 0.066, 192.0, 0.0, 0.0, 0.0, 0.0, 0.0, 0.0, 0.0, 0.0, 0.0, 1.695336928285236E9, 0.0, 2023-09-21 17:55:28.285
84.0, 36431.95765399429, 22806.75891718375, -66726.12628056125, -58801.78467056569, -22449.958020443682, -29810.61098702085, -187500.02235174447, -52346.19854047281, -29624.800935363884, -29953.528041068083, -62239.192395114, -79634.43751745672, -16754.375905320157, -187500.02235174447, -52464.41691689693, -38712.12616111352, 0.014, 1.014, 0.066, 192.0, 0.0, 0.0, 0.0, 0.0, 0.0, 0.0, 0.0, 0.0, 0.0, 1.695336928285239E9, 0.0, 2023-09-21 17:55:28.285
86.0, 36503.50558799572, 22799.13697232449, -66749.3050395614, -58809.563077636136, -22486.905454028303, -29810.61098702085, -187500.02235174447, -52349.730116096755, -29694.29250887543, -30008.379221961408, -62311.746157615926, -79702.58798630095, -16660.699744307967, -187500.02235174447, -52447.4295911109, -38674.75404438425, 0.014, 1.014, 0.066, 192.0, 0.0, 0.0, 0.0, 0.0, 0.0, 0.0, 0.0, 0.0, 0.0, 1.695336928285243E9, 0.0, 2023-09-21 17:55:28.285
88.0, 36431.801191783095, 22829.177716872422, -66694.76678309045, -58763.58553929157, -22454.070741423457, -29774.69173368117, -187500.02235174447, -52311.53098482263, -29631.305293000376, -29963.474567350695, -62239.12533988063, -79638.5949419254, -16738.863794668174, -187500.02235174447, -52493.58594341111, -38711.545015757685, 0.016, 1.012, 0.062, 192.0, 0.0, 64.0, 15.5, 80.0, 0.5, 120.0, 0.0, 0.0, 0.0, 1.695336928285246E9, 0.0, 2023-09-21 17:55:28.285
90.0, 36501.04689610564, 22839.37011234404, -66702.99222505001, -58766.357155604026, -22444.1465668853, -29777.59746046036, -187500.02235174447, -52315.77781626914, -29646.63858969672, -29960.010046960124, -62258.07961917873, -79651.78247115403, -16683.11854399664, -187500.02235174447, -52438.28772762868, -38689.34973351356, 0.016, 1.012, 0.062, 192.0, 0.0, 0.0, 0.0, 0.0, 0.0, 0.0, 0.0, 0.0, 0.0, 1.695336928345629E9, 0.0, 2023-09-21 17:55:28.345
92.0, 36419.1948079103, 22834.51978379724, -66683.65796609616, -58748.49811178424, -22439.743273227607, -29762.331218997388, -187500.02235174447, -52301.80797598457, -29608.104182255767, -29940.1169943949, -62215.387787269094, -79613.38217417982, -16741.948335403005, -187500.02235174447, -52467.36734716503, -38719.435181550405, 0.016, 1.012, 0.062, 192.0, 0.0, 0.0, 0.0, 0.0, 0.0, 0.0, 0.0, 0.0, 0.0, 1.695336928345647E9, 0.0, 2023-09-21 17:55:28.345
94.0, 36509.048820620636, 22811.497487008273, -66731.87067888626, -58795.61558909602, -22452.930802456238, -29808.889902697792, -187500.02235174447, -52349.864226563484, -29659.87082241426, -29967.408474374828, -62271.445962363, -79661.14785208082, -16691.612206889655, -187500.02235174447, -52426.687172256374, -38690.75789341425, 0.016, 1.012, 0.062, 192.0, 0.0, 0.0, 0.0, 0.0, 0.0, 0.0, 0.0, 0.0, 0.0, 1.695336928345651E9, 0.0, 2023-09-21 17:55:28.345
96.0, 36416.80317125359, 22820.795812701683, -66693.73860284551, -58758.62345202249, -22454.02603793455, -29773.46238773613, -187500.02235174447, -52315.330781380035, -29628.891304599205, -29958.0207417036, -62230.67638047652, -79629.9448168212, -16717.294361268803, -187500.02235174447, -52472.217675711836, -38710.561539001654, 0.016, 1.012, 0.062, 192.0, 0.0, 0.0, 0.0, 0.0, 0.0, 0.0, 0.0, 0.0, 0.0, 1.695336928345655E9, 0.0, 2023-09-21 17:55:28.345
98.0, 36510.76990494369, 22803.875542149013, -66732.63063819775, -58797.739004819276, -22454.02603793455, -29809.64986200927, -187500.02235174447, -52352.92641555386, -29667.179842851147, -29971.521195354606, -62277.88326476613, -79665.77466318305, -16686.940692298496, -187500.02235174447, -52442.31104163064, -38694.64709694947, 0.014, 1.01, 0.06, 192.0, 0.0, 56.0, 15.5, 72.0, 0.5, 112.0, 0.0, 0.0, 0.0, 1.695336928345658E9, 0.0, 2023-09-21 17:55:28.345
100.0, 36416.624357297944, 22822.38278655801, -66685.02142250794, -58748.00637340622, -22463.59258456142, -29762.577088186397, -187500.02235174447, -52311.598040056, -29633.00402557898, -29961.641724305362, -62240.06411314775, -79636.60563666889, -16699.97175931594, -187500.02235174447, -52476.84448681409, -38704.839492421095, 0.014, 1.01, 0.06, 192.0, 0.0, 0.0, 0.0, 0.0, 0.0, 0.0, 0.0, 0.0, 0.0, 1.695336928345661E9, 0.0, 2023-09-21 17:55:28.345
102.0, 36505.9195763969, 22817.04071963319, -66714.07869029984, -58779.29881564365, -22441.285543595022, -29789.600347232863, -187500.02235174447, -52339.26949969167, -29649.991351365014, -29959.540660326562, -62264.963956470965, -79655.96224736718, -16707.459593708467, -187500.02235174447, -52447.13901843298, -38703.56544298714, 0.014, 1.01, 0.06, 192.0, 0.0, 0.0, 0.0, 0.0, 0.0, 0.0, 0.0, 0.0, 0.0, 1.695336928345665E9, 0.0, 2023-09-21 17:55:28.345
104.0, 36425.4979998467, 22820.52759176822, -66680.2828526834, -58750.845044952046, -22463.123197927856, -29767.025085333004, -187500.02235174447, -52323.64563031741, -29625.449135953088, -29952.92454396779, -62238.7900637138, -79636.40447096879, -16689.01940453284, -187500.02235174447, -52463.29932967417, -38704.817140676634, 0.014, 1.01, 0.06, 192.0, 0.0, 0.0, 0.0, 0.0, 0.0, 0.0, 0.0, 0.0, 0.0, 1.695336928345668E9, 0.0, 2023-09-21 17:55:28.345
106.0, 36515.30730906812, 22801.17098106992, -66720.29247525841, -58797.4260803969, -22444.660657007775, -29804.553664273462, -187500.02235174447, -52351.56295914209, -29647.264438541468, -29957.663113792314, -62269.166084428565, -79661.81840441447, -16708.197201275492, -187500.02235174447, -52448.12249518901, -38706.09119011059, 0.014, 1.01, 0.06, 192.0, 0.0, 0.0, 0.0, 0.0, 0.0, 0.0, 0.0, 0.0, 0.0, 1.695336928405797E9, 0.0, 2023-09-21 17:55:28.405
108.0, 36450.17432572536, 22778.103980792046, -66710.3459489758, -58788.64184482597, -22496.293186699535, -29794.137751357288, -187500.02235174447, -52340.297679936615, -29671.985467909035, -29991.280137453097, -62291.741346328425, -79690.00395417261, -16664.231319931903, -187500.02235174447, -52464.931007019404, -38688.88034688, 0.01, 1.014, 0.062, 192.0, 0.0, 40.0, 15.5, 88.0, 0.5, 120.0, 0.0, 0.0, 0.0, 1.695336928405808E9, 0.0, 2023-09-21 17:55:28.405
110.0, 36515.4190677904, 22797.684108934893, -66697.20312323608, -58785.73611804678, -22447.946363442705, -29797.80343744796, -187500.02235174447, -52344.142179982926, -29664.34117130532, -29977.377352401898, -62290.064965494275, -79683.29843083602, -16717.897858369095, -187500.02235174447, -52474.74342283529, -38707.5887569891, 0.01, 1.014, 0.062, 192.0, 0.0, 0.0, 0.0, 0.0, 0.0, 0.0, 0.0, 0.0, 0.0, 1.695336928405812E9, 0.0, 2023-09-21 17:55:28.405
112.0, 36460.12085200797, 22806.04366136118, -66669.44225662258, -58753.68371649787, -22470.231052664647, -29768.813224889425, -187500.02235174447, -52310.502804577685, -29640.737729160515, -29959.94299172676, -62263.37698261464, -79657.10218633439, -16673.328479925214, -187500.02235174447, -52468.32847217661, -38699.877405152016, 0.01, 1.014, 0.062, 192.0, 0.0, 0.0, 0.0, 0.0, 0.0, 0.0, 0.0, 0.0, 0.0, 1.695336928405816E9, 0.0, 2023-09-21 17:55:28.405
114.0, 36523.33158532758, 22788.85516987505, -66701.2934924714, -58795.39207165147, -22449.153357643292, -29807.548798030475, -187500.02235174447, -52347.58434862904, -29660.139043347725, -29972.057637221533, -62286.75690731489, -79675.6541342323, -16735.98041963344, -187500.02235174447, -52471.792992567185, -38717.624690249526, 0.01, 1.014, 0.062, 192.0, 0.0, 0.0, 0.0, 0.0, 0.0, 0.0, 0.0, 0.0, 0.0, 1.695336928405819E9, 0.0, 2023-09-21 17:55:28.405
116.0, 36496.86711989249, 22783.13312329449, -66691.81635282235, -58778.74002203227, -22494.30388144301, -29792.930757156704, -187500.02235174447, -52343.96336602728, -29685.664735515686, -29998.477399167707, -62310.3603494597, -79701.33628861145, -16658.799846029266, -187500.02235174447, -52463.612254096544, -38685.885213122994, 0.01, 1.014, 0.062, 192.0, 0.0, 0.0, 0.0, 0.0, 0.0, 0.0, 0.0, 0.0, 0.0, 1.695336928405823E9, 0.0, 2023-09-21 17:55:28.405
118.0, 36529.97005343081, 22784.27306226171, -66690.72111734404, -58785.11026920203, -22447.320514597955, -29803.301966583964, -187500.02235174447, -52347.494941651225, -29651.645380454705, -29966.380294129885, -62276.47510486545, -79665.77466318305, -16750.397294807113, -187500.02235174447, -52490.322588720635, -38723.86082695256, 0.016, 1.012, 0.066, 192.0, 0.0, 64.0, 15.5, 80.0, 1.0, 8.0, 0.0, 0.0, 0.0, 1.695336928405826E9, 0.0, 2023-09-21 17:55:28.405
120.0, 36519.107105625524, 22796.343004267575, -66662.46851235253, -58745.793550705144, -22469.269927653066, -29762.51003295303, -187500.02235174447, -52304.17726089684, -29664.78820619443, -29976.438579134774, -62287.94154977102, -79677.308163322, -16670.512160123846, -187500.02235174447, -52466.02624249771, -38694.200062060365, 0.016, 1.012, 0.066, 192.0, 0.0, 0.0, 0.0, 0.0, 0.0, 0.0, 0.0, 0.0, 0.0, 1.695336928465265E9, 0.0, 2023-09-21 17:55:28.465
122.0, 36528.71835574131, 22799.74046942478, -66658.66871579512, -58751.5155972857, -22426.511040510064, -29779.2291378056, -187500.02235174447, -52322.393932627914, -29627.95253133208, -29942.46392756271, -62251.93288945352, -79639.6454739148, -16762.82486472426, -187500.02235174447, -52478.5879228816, -38730.342832844595, 0.016, 1.012, 0.066, 192.0, 0.0, 0.0, 0.0, 0.0, 0.0, 0.0, 0.0, 0.0, 0.0, 1.695336928465281E9, 0.0, 2023-09-21 17:55:28.465
124.0, 36532.51815229871, 22807.496524750775, -66645.25766912194, -58729.45442550832, -22447.45462506469, -29758.151442784245, -187500.02235174447, -52304.78075799713, -29642.615275694763, -29947.02368343159, -62266.72974428294, -79652.54243046552, -16673.999032258875, -187500.02235174447, -52440.58995730757, -38696.36818127253, 0.016, 1.012, 0.066, 192.0, 0.0, 0.0, 0.0, 0.0, 0.0, 0.0, 0.0, 0.0, 0.0, 1.695336928465285E9, 0.0, 2023-09-21 17:55:28.465
126.0, 36518.10127712504, 22806.133068339, -66653.25959363695, -58743.46896928179, -22413.92700838173, -29771.808358646438, -187500.02235174447, -52310.27928713313, -29603.365612431244, -29918.4134505288, -62225.51312750735, -79612.21988346815, -16770.357402605703, -187500.02235174447, -52471.48006814481, -38737.964777703855, 0.016, 1.012, 0.066, 192.0, 0.0, 0.0, 0.0, 0.0, 0.0, 0.0, 0.0, 0.0, 0.0, 1.695336928465289E9, 0.0, 2023-09-21 17:55:28.465
128.0, 36556.009835721234, 22789.74923965326, -66672.77266654643, -58751.806169963624, -22453.1990233897, -29772.36715225782, -187500.02235174447, -52311.73215052273, -29672.92424117616, -29967.229660419187, -62298.22335222046, -79681.68910523524, -16672.568520613735, -187500.02235174447, -52435.87373922751, -38692.41192250394, 0.016, 1.01, 0.064, 192.0, 0.0, 64.0, 15.5, 72.0, 1.0, 0.0, 0.0, 0.0, 0.0, 1.695336928465293E9, 0.0, 2023-09-21 17:55:28.465
130.0, 36524.426820805886, 22781.74731513826, -66671.65507932367, -58764.01022243622, -22430.936685912216, -29791.2320245781, -187500.02235174447, -52323.89149950642, -29632.691101156608, -29943.559163041016, -62253.631622032124, -79640.07015705945, -16757.438094310535, -187500.02235174447, -52469.04372799918, -38730.499295055786, 0.016, 1.01, 0.064, 192.0, 0.0, 0.0, 0.0, 0.0, 0.0, 0.0, 0.0, 0.0, 0.0, 1.695336928465297E9, 0.0, 2023-09-21 17:55:28.465
132.0, 36579.25564995476, 22787.447009974363, -66672.48209386852, -58759.62928052298, -22452.506119311587, -29782.492492496076, -187500.02235174447, -52326.797226285606, -29686.91643320518, -29983.36761991592, -62309.19805874802, -79692.50734955161, -16660.54328209678, -187500.02235174447, -52440.32173637411, -38689.0815125801, 0.016, 1.01, 0.064, 192.0, 0.0, 0.0, 0.0, 0.0, 0.0, 0.0, 0.0, 0.0, 0.0, 1.695336928465301E9, 0.0, 2023-09-21 17:55:28.465
134.0, 36514.569701501096, 22802.37797527051, -66640.80967197534, -58731.0637511091, -22419.67140670674, -29750.66360839172, -187500.02235174447, -52287.502859533175, -29612.932159058117, -29931.10924137941, -62227.68124671951, -79613.44922941318, -16748.765617461875, -187500.02235174447, -52480.86780081604, -38730.11931540004, 0.016, 1.01, 0.064, 192.0, 0.0, 0.0, 0.0, 0.0, 0.0, 0.0, 0.0, 0.0, 0.0, 1.695336928465305E9, 0.0, 2023-09-21 17:55:28.465
136.0, 36590.14094950449, 22803.763783426737, -66668.50348335547, -58751.62735600798, -22437.48574703762, -29774.669381936717, -187500.02235174447, -52314.347304624, -29674.1535871212, -29961.418206860806, -62290.981387016946, -79668.63568647334, -16668.835779289697, -187500.02235174447, -52429.212919379825, -38689.4838439803, 0.016, 1.01, 0.064, 192.0, 0.0, 0.0, 0.0, 0.0, 0.0, 0.0, 0.0, 0.0, 0.0, 1.695336928525526E9, 0.0, 2023-09-21 17:55:28.525
138.0, 36524.6726899949, 22794.890140877982, -66667.54235834388, -58754.51073104271, -22435.004703403083, -29785.17470183071, -187500.02235174447, -52325.59023208502, -29634.032205823925, -29939.625256016883, -62241.896956193086, -79624.62510164084, -16732.69471319851, -187500.02235174447, -52471.301254189166, -38719.81516120615, 0.012, 1.014, 0.068, 192.0, 0.0, 48.0, 15.5, 88.0, 1.0, 16.0, 0.0, 0.0, 0.0, 1.695336928525538E9, 0.0, 2023-09-21 17:55:28.525
140.0, 36600.91449033195, 22798.064088590632, -66670.53749210089, -58754.77895197618, -22435.407034803276, -29787.298117553964, -187500.02235174447, -52334.39681940041, -29673.59479350982, -29959.808881260025, -62286.75690731489, -79664.5006137491, -16669.998070001373, -187500.02235174447, -52444.41210560943, -38691.13787306999, 0.012, 1.014, 0.068, 192.0, 0.0, 0.0, 0.0, 0.0, 0.0, 0.0, 0.0, 0.0, 0.0, 1.695336928525542E9, 0.0, 2023-09-21 17:55:28.525
142.0, 36516.42489629089, 22805.0825363496, -66636.74165448447, -58726.638105706945, -22434.28944758051, -29751.758843870026, -187500.02235174447, -52288.37457756694, -29635.507420957976, -29940.631084517372, -62240.80172071478, -79623.30634871798, -16723.21757354946, -187500.02235174447, -52474.72107109083, -38716.775323960224, 0.012, 1.014, 0.068, 192.0, 0.0, 0.0, 0.0, 0.0, 0.0, 0.0, 0.0, 0.0, 0.0, 1.695336928525546E9, 0.0, 2023-09-21 17:55:28.525
144.0, 36608.312917746654, 22798.84639964657, -66670.87276826773, -58760.94803344584, -22425.77343294304, -29795.501207769063, -187500.02235174447, -52327.53483385263, -29652.15947057718, -29943.49210780765, -62266.39446811611, -79641.83594487142, -16685.085497508706, -187500.02235174447, -52433.973840948805, -38695.876442894514, 0.012, 1.014, 0.068, 192.0, 0.0, 0.0, 0.0, 0.0, 0.0, 0.0, 0.0, 0.0, 0.0, 1.695336928525549E9, 0.0, 2023-09-21 17:55:28.525
146.0, 36518.19068410286, 22811.676300963914, -66631.39958755966, -58720.26785853718, -22430.176726600734, -29751.93765782567, -187500.02235174447, -52282.20549609727, -29628.667787154653, -29946.867221220404, -62237.69482823549, -79623.59692139589, -16707.30313149728, -187500.02235174447, -52468.52963787671, -38710.80740819066, 0.012, 1.014, 0.068, 192.0, 0.0, 0.0, 0.0, 0.0, 0.0, 0.0, 0.0, 0.0, 0.0, 1.695336928525553E9, 0.0, 2023-09-21 17:55:28.525
148.0, 36604.24490025579, 22811.922170152924, -66655.71828552704, -58749.72745772928, -22409.05432809047, -29787.47693150961, -187500.02235174447, -52324.20442392879, -29636.893229114205, -29939.245276361144, -62252.91636620955, -79633.9904825676, -16698.004805803874, -187500.02235174447, -52437.61717529502, -38702.872538909025, 0.012, 1.014, 0.068, 192.0, 0.0, 48.0, 15.5, 88.0, 1.0, 16.0, 0.0, 0.0, 0.0, 1.695336928525556E9, 0.0, 2023-09-21 17:55:28.525
150.0, 36515.53082651267, 22799.874579891515, -66641.21200337553, -58734.50591975522, -22440.950267428194, -29764.253469020543, -187500.02235174447, -52295.77300498164, -29634.009854079468, -29955.74086376916, -62245.115607394655, -79632.64937790029, -16699.435317449013, -187500.02235174447, -52464.796896552674, -38707.81227443365, 0.012, 1.014, 0.068, 192.0, 0.0, 0.0, 0.0, 0.0, 0.0, 0.0, 0.0, 0.0, 0.0, 1.69533692858524E9, 0.0, 2023-09-21 17:55:28.585
152.0, 36612.20212128188, 22777.88046334749, -66695.90672205767, -58796.33084491859, -22438.379816815832, -29837.835411767413, -187500.02235174447, -52369.734927384256, -29661.72601720405, -29968.07902670849, -62278.598520588705, -79658.42093925727, -16702.65396865058, -187500.02235174447, -52450.380021379, -38702.26904180873, 0.012, 1.014, 0.068, 192.0, 0.0, 0.0, 0.0, 0.0, 0.0, 0.0, 0.0, 0.0, 0.0, 1.695336928585253E9, 0.0, 2023-09-21 17:55:28.585
154.0, 36527.578416774086, 22792.69966992136, -66649.482148824, -58742.10551287002, -22462.00561070509, -29772.32244876891, -187500.02235174447, -52299.28222886113, -29656.138081090223, -29984.038172249577, -62265.880377993635, -79651.80482289848, -16677.17297997153, -187500.02235174447, -52478.073832759124, -38700.19032957439, 0.012, 1.014, 0.068, 192.0, 0.0, 0.0, 0.0, 0.0, 0.0, 0.0, 0.0, 0.0, 0.0, 1.695336928585257E9, 0.0, 2023-09-21 17:55:28.585
156.0, 36600.981545565315, 22799.829876402604, -66666.35771588776, -58764.21138813632, -22428.05331087748, -29801.290309582986, -187500.02235174447, -52332.27340367716, -29655.892211901217, -29971.342381398965, -62270.73070654043, -79650.17314555326, -16718.70252116949, -187500.02235174447, -52463.411088396446, -38709.2874895677, 0.012, 1.014, 0.068, 192.0, 0.0, 0.0, 0.0, 0.0, 0.0, 0.0, 0.0, 0.0, 0.0, 1.69533692858526E9, 0.0, 2023-09-21 17:55:28.585
158.0, 36527.578416774086, 22807.36241428404, -66639.35680858574, -58732.49426275424, -22451.5002908111, -29763.35939924233, -187500.02235174447, -52298.67873176083, -29629.047766810392, -29954.511517824118, -62240.60055501468, -79626.83792434192, -16689.198218488484, -187500.02235174447, -52462.47231512932, -38701.35262028607, 0.01, 1.016, 0.066, 192.0, 0.0, 40.0, 15.5, 96.0, 1.0, 8.0, 0.0, 0.0, 0.0, 1.695336928585264E9, 0.0, 2023-09-21 17:55:28.585
160.0, 36595.39360945149, 22800.209856058344, -66669.88929151169, -58766.223045137296, -22428.67915972223, -29795.054172879958, -187500.02235174447, -52329.59119434252, -29645.275133284944, -29961.887593494368, -62260.87358723564, -79641.59007568241, -16743.043570881317, -187500.02235174447, -52451.587015579586, -38714.49544602579, 0.01, 1.016, 0.066, 192.0, 0.0, 0.0, 0.0, 0.0, 0.0, 0.0, 0.0, 0.0, 0.0, 1.695336928585267E9, 0.0, 2023-09-21 17:55:28.585
162.0, 36526.90786444043, 22841.89585946749, -66606.56679946982, -58693.73633786874, -22438.491575538108, -29728.177753469678, -187500.02235174447, -52270.940216891795, -29617.268397482443, -29946.196668886743, -62228.754130453366, -79616.04203177, -16684.146724241582, -187500.02235174447, -52448.010736466735, -38694.31182078264, 0.01, 1.016, 0.066, 192.0, 0.0, 0.0, 0.0, 0.0, 0.0, 0.0, 0.0, 0.0, 0.0, 1.69533692858527E9, 0.0, 2023-09-21 17:55:28.585
164.0, 36576.95342027586, 22816.258408577254, -66660.41215186265, -58755.22598686528, -22409.63547344631, -29793.55660600145, -187500.02235174447, -52318.124749436945, -29596.48127513901, -29914.233674315656, -62211.02919710031, -79591.49981635807, -16763.204844380005, -187500.02235174447, -52439.40531485144, -38722.27385309623, 0.01, 1.016, 0.066, 192.0, 0.0, 0.0, 0.0, 0.0, 0.0, 0.0, 0.0, 0.0, 0.0, 1.695336928585274E9, 0.0, 2023-09-21 17:55:28.585
166.0, 36552.65707405294, 22802.713251437337, -66663.22847166401, -58745.950012916335, -22471.482750354142, -29783.475969252107, -187500.02235174447, -52323.73503729523, -29680.188558124133, -29993.202387476253, -62292.434250406535, -79674.3577330539, -16669.90866302355, -187500.02235174447, -52434.06324792663, -38682.48774796579, 0.01, 1.016, 0.066, 192.0, 0.0, 0.0, 0.0, 0.0, 0.0, 0.0, 0.0, 0.0, 0.0, 1.695336928645468E9, 0.0, 2023-09-21 17:55:28.645
168.0, 36568.37035040502, 22806.222475316823, -66662.22264316352, -58754.130751386976, -22425.326398053934, -29791.455542022653, -187500.02235174447, -52321.96924948326, -29627.036109809414, -29942.910962451813, -62238.5888980137, -79618.59013063791, -16764.992983936427, -187500.02235174447, -52463.96988200783, -38722.5420740297, 0.008, 1.018, 0.066, 192.0, 0.0, 32.0, 15.5, 104.0, 1.0, 8.0, 0.0, 0.0, 0.0, 1.695336928645479E9, 0.0, 2023-09-21 17:55:28.645
170.0, 36559.027321222704, 22808.100021851067, -66655.9865064605, -58745.100646627034, -22461.513872327076, -29782.31367854043, -187500.02235174447, -52322.37158088345, -29668.185671351635, -29976.59504134596, -62277.615043832666, -79657.41511075677, -16668.67931707851, -187500.02235174447, -52439.09239042907, -38686.444006734375, 0.008, 1.018, 0.066, 192.0, 0.0, 0.0, 0.0, 0.0, 0.0, 0.0, 0.0, 0.0, 0.0, 1.695336928645482E9, 0.0, 2023-09-21 17:55:28.645
172.0, 36562.64830382446, 22787.312899507633, -66683.94853877409, -58779.991719721766, -22451.5002908111, -29818.210580135656, -187500.02235174447, -52344.07512474956, -29653.835851411328, -29970.291849409565, -62265.05336344879, -79645.88161061784, -16751.31371632978, -187500.02235174447, -52470.183666966404, -38720.86569319555, 0.008, 1.018, 0.066, 192.0, 0.0, 0.0, 0.0, 0.0, 0.0, 0.0, 0.0, 0.0, 0.0, 1.695336928645486E9, 0.0, 2023-09-21 17:55:28.645
174.0, 36574.5841353636, 22791.98441409879, -66667.31884089933, -58751.78381821917, -22484.02207899357, -29793.66836472373, -187500.02235174447, -52332.40751414389, -29696.505331576507, -30004.825294593014, -62307.4546226805, -79684.39366631432, -16655.178863427504, -187500.02235174447, -52451.83288476859, -38684.65586717795, 0.008, 1.018, 0.066, 192.0, 0.0, 0.0, 0.0, 0.0, 0.0, 0.0, 0.0, 0.0, 0.0, 1.695336928645489E9, 0.0, 2023-09-21 17:55:28.645
176.0, 36547.493821083764, 22801.41685025893, -66651.73967501399, -58743.78189370417, -22444.52654654104, -29791.008507133545, -187500.02235174447, -52324.71851405127, -29633.562819190363, -29951.158756155823, -62240.913479437055, -79620.22180798314, -16756.141693132126, -187500.02235174447, -52481.40424268297, -38728.308824099164, 0.008, 1.018, 0.066, 192.0, 0.0, 0.0, 0.0, 0.0, 0.0, 0.0, 0.0, 0.0, 0.0, 1.695336928645493E9, 0.0, 2023-09-21 17:55:28.645
178.0, 36577.10988248705, 22809.37407128502, -66638.37333182972, -58723.26299229419, -22458.138758914323, -29768.74616965606, -187500.02235174447, -52305.85364173099, -29661.413092781677, -29964.21217491772, -62270.08250595123, -79646.68627341822, -16667.44997113347, -187500.02235174447, -52437.460713083834, -38688.969753857826, 0.014, 1.014, 0.066, 192.0, 0.0, 56.0, 15.5, 88.0, 1.0, 8.0, 0.0, 0.0, 0.0, 1.695336928645496E9, 0.0, 2023-09-21 17:55:28.645
180.0, 36532.89813195445, 22795.98537635629, -66645.14591039967, -58736.04819012263, -22445.97940993064, -29778.536233727486, -187500.02235174447, -52303.28319111862, -29633.00402557898, -29948.16362239881, -62238.387732313604, -79616.4443631702, -16756.544024532323, -187500.02235174447, -52468.75315532126, -38729.314652599656, 0.014, 1.014, 0.066, 192.0, 0.0, 0.0, 0.0, 0.0, 0.0, 0.0, 0.0, 0.0, 0.0, 1.695336928705742E9, 0.0, 2023-09-21 17:55:28.705
182.0, 36587.212870980846, 22789.79394314217, -66659.02634370641, -58747.402876305925, -22462.184424660736, -29787.566338487428, -187500.02235174447, -52319.15292968189, -29671.404322553197, -29978.517291369117, -62283.18062820204, -79657.75038692361, -16673.6861078365, -187500.02235174447, -52429.928175202396, -38690.221451547324, 0.014, 1.014, 0.066, 192.0, 0.0, 0.0, 0.0, 0.0, 0.0, 0.0, 0.0, 0.0, 0.0, 1.695336928705757E9, 0.0, 2023-09-21 17:55:28.705
184.0, 36519.956471914826, 22797.147667067966, -66635.89228819517, -58728.64976270792, -22443.319552340457, -29773.90942262524, -187500.02235174447, -52301.4950515622, -29633.831040123827, -29958.579535314984, -62239.95235442548, -79619.48420041612, -16750.844329696218, -187500.02235174447, -52471.70358558936, -38726.163056631456, 0.014, 1.014, 0.066, 192.0, 0.0, 0.0, 0.0, 0.0, 0.0, 0.0, 0.0, 0.0, 0.0, 1.695336928705761E9, 0.0, 2023-09-21 17:55:28.705
186.0, 36591.34794370508, 22801.03687060319, -66654.01955294842, -58741.14438785844, -22448.616915776365, -29787.923966398714, -187500.02235174447, -52314.97315346875, -29661.05546487039, -29970.78358778758, -62272.13886644112, -79646.86508737387, -16681.77743932932, -187500.02235174447, -52428.095332157056, -38693.82008240463, 0.014, 1.014, 0.066, 192.0, 0.0, 0.0, 0.0, 0.0, 0.0, 0.0, 0.0, 0.0, 0.0, 1.695336928705764E9, 0.0, 2023-09-21 17:55:28.705
188.0, 36510.12170435449, 22806.669510205928, -66629.61144800323, -58718.97145735878, -22447.83460472043, -29770.84723363486, -187500.02235174447, -52305.83128998653, -29631.797031378395, -29958.89245973736, -62235.59376425669, -79616.60082538138, -16738.41675977907, -187500.02235174447, -52468.2837686877, -38722.296204840684, 0.016, 1.016, 0.07, 192.0, 0.0, 64.0, 15.5, 96.0, 1.0, 24.0, 0.0, 0.0, 0.0, 1.695336928705768E9, 0.0, 2023-09-21 17:55:28.705
190.0, 36586.76583609174, 22812.257446319752, -66659.27221289542, -58744.51950127119, -22446.717017497664, -29792.729591456606, -187500.02235174447, -52317.856528503486, -29649.276095542446, -29955.718512024705, -62258.07961917873, -79630.97299706614, -16693.467401679445, -187500.02235174447, -52428.89999495745, -38704.16894008743, 0.016, 1.016, 0.07, 192.0, 0.0, 0.0, 0.0, 0.0, 0.0, 0.0, 0.0, 0.0, 0.0, 1.695336928705772E9, 0.0, 2023-09-21 17:55:28.705
192.0, 36506.254852563725, 22811.296321308175, -66652.477282581, -58739.646820979935, -22464.10667468389, -29789.063905365936, -187500.02235174447, -52318.482377348235, -29639.955418104582, -29968.704875553238, -62247.79781672929, -79627.44142144221, -16731.84534690921, -187500.02235174447, -52464.39456515248, -38724.263158352755, 0.016, 1.016, 0.07, 192.0, 0.0, 0.0, 0.0, 0.0, 0.0, 0.0, 0.0, 0.0, 0.0, 1.695336928705775E9, 0.0, 2023-09-21 17:55:28.705
194.0, 36596.511196674255, 22799.047565346667, -66681.17692246163, -58764.50196081424, -22454.338962356924, -29813.360251588852, -187500.02235174447, -52342.44344740432, -29679.78622672394, -29981.378314659396, -62285.99694800341, -79655.02347410006, -16701.06699479425, -187500.02235174447, -52442.288689886176, -38706.96290814435, 0.016, 1.016, 0.07, 192.0, 0.0, 0.0, 0.0, 0.0, 0.0, 0.0, 0.0, 0.0, 0.0, 1.695336928705778E9, 0.0, 2023-09-21 17:55:28.705
196.0, 36502.3656490285, 22809.41877477393, -66641.45787256454, -58720.51372772619, -22463.726695028152, -29772.65772493574, -187500.02235174447, -52304.579592297036, -29654.416996767166, -29972.728189555193, -62254.52569181034, -79629.87776158784, -16719.842460136708, -187500.02235174447, -52478.16323973695, -38723.1902746189, 0.016, 1.016, 0.07, 192.0, 0.0, 0.0, 0.0, 0.0, 0.0, 0.0, 0.0, 0.0, 0.0, 1.695336928765187E9, 0.0, 2023-09-21 17:55:28.765
198.0, 36594.43248443991, 22786.530588451697, -66684.73084983001, -58769.844027739055, -22444.48184305213, -29822.52446681553, -187500.02235174447, -52351.74177309773, -29675.807616210896, -29977.60086984645, -62283.8511805357, -79653.25768628808, -16716.892029868606, -187500.02235174447, -52447.96603297783, -38719.90456818397, 0.016, 1.016, 0.066, 192.0, 0.0, 64.0, 15.5, 96.0, 1.0, 8.0, 0.0, 0.0, 0.0, 1.695336928765198E9, 0.0, 2023-09-21 17:55:28.765
200.0, 36503.12560833998, 22800.94746362537, -66642.06136966484, -58719.440843992335, -22455.121273412857, -29762.532384697486, -187500.02235174447, -52295.03539741461, -29651.555973476887, -29971.78941628807, -62251.73172375342, -79629.11780227635, -16721.4964892264, -187500.02235174447, -52478.364405437045, -38728.57704503263, 0.016, 1.016, 0.066, 192.0, 0.0, 0.0, 0.0, 0.0, 0.0, 0.0, 0.0, 0.0, 0.0, 1.695336928765201E9, 0.0, 2023-09-21 17:55:28.765
202.0, 36582.96603953434, 22791.51502746523, -66670.40338163417, -58753.281385097675, -22434.959999914172, -29804.53131252901, -187500.02235174447, -52333.860377533485, -29653.701740944594, -29958.490128337162, -62259.10779942368, -79629.296616232, -16748.385637806135, -187500.02235174447, -52452.2799196577, -38729.00172817728, 0.016, 1.016, 0.066, 192.0, 0.0, 0.0, 0.0, 0.0, 0.0, 0.0, 0.0, 0.0, 0.0, 1.695336928765205E9, 0.0, 2023-09-21 17:55:28.765
204.0, 36503.63969846245, 22784.89891110646, -66644.34124759928, -58724.35822777251, -22473.047372466015, -29778.04449534947, -187500.02235174447, -52313.60969705698, -29662.709493960083, -29980.238375692177, -62262.75113376989, -79640.6960059042, -16715.461518223467, -187500.02235174447, -52462.3829081515, -38721.4915420403, 0.016, 1.016, 0.066, 192.0, 0.0, 0.0, 0.0, 0.0, 0.0, 0.0, 0.0, 0.0, 0.0, 1.695336928765208E9, 0.0, 2023-09-21 17:55:28.765
206.0, 36566.917487015424, 22796.007728100747, -66646.46466332253, -58732.62837322097, -22424.05234861998, -29780.100855839355, -187500.02235174447, -52302.5455835516, -29641.788261149915, -29955.338532368965, -62243.86390970516, -79619.46184867166, -16765.976460692462, -187500.02235174447, -52454.872722014516, -38733.494428812795, 0.016, 1.016, 0.066, 192.0, 0.0, 0.0, 0.0, 0.0, 0.0, 0.0, 0.0, 0.0, 0.0, 1.695336928765212E9, 0.0, 2023-09-21 17:55:28.765
208.0, 36501.44922750583, 22789.056335575144, -66637.21104111803, -58713.89761136742, -22458.384628103333, -29762.35357074184, -187500.02235174447, -52293.6942927473, -29638.279037270433, -29956.187898658267, -62237.426607302026, -79614.52211314705, -16720.73652991492, -187500.02235174447, -52445.574396321106, -38713.60137624757, 0.018000000000000002, 1.014, 0.064, 192.0, 0.0, 72.0, 15.5, 88.0, 1.0, 0.0, 0.0, 0.0, 0.0, 1.695336928765215E9, 0.0, 2023-09-21 17:55:28.765
210.0, 36553.23821940878, 22780.18269302639, -66662.06618095233, -58743.93835591536, -22428.142717855302, -29806.498266041075, -187500.02235174447, -52338.59894735801, -29640.827136138338, -29950.756424755626, -62246.74728473989, -79619.14892424928, -16776.101800930715, -187500.02235174447, -52449.86593125653, -38730.74516424479, 0.018000000000000002, 1.014, 0.064, 192.0, 0.0, 0.0, 0.0, 0.0, 0.0, 0.0, 0.0, 0.0, 0.0, 1.695336928825001E9, 0.0, 2023-09-21 17:55:28.825
212.0, 36497.80589315962, 22786.93291985189, -66625.00698864544, -58697.8043553596, -22444.52654654104, -29748.31667522391, -187500.02235174447, -52274.9411791493, -29632.355824989776, -29954.15388991283, -62236.35372356817, -79615.1926654807, -16703.749204128886, -187500.02235174447, -52441.90871023044, -38712.01440239124, 0.018000000000000002, 1.014, 0.064, 192.0, 0.0, 0.0, 0.0, 0.0, 0.0, 0.0, 0.0, 0.0, 0.0, 1.695336928825016E9, 0.0, 2023-09-21 17:55:28.825
214.0, 36536.83203897858, 22771.867844089014, -66656.52294832742, -58736.852852923024, -22419.11261309536, -29797.423457792218, -187500.02235174447, -52321.85749076099, -29631.57351393384, -29957.126671925387, -62236.82311020173, -79612.71162184616, -16777.107629431204, -187500.02235174447, -52450.80470452365, -38737.00365269228, 0.018000000000000002, 1.014, 0.064, 192.0, 0.0, 0.0, 0.0, 0.0, 0.0, 0.0, 0.0, 0.0, 0.0, 1.69533692882502E9, 0.0, 2023-09-21 17:55:28.825
216.0, 36509.76407644321, 22790.531550709195, -66627.86801193572, -58694.78686985814, -22452.95315420069, -29754.865736349315, -187500.02235174447, -52286.452327543775, -29644.604580951283, -29972.549375599552, -62248.78129348532, -79627.48612493112, -16689.91347431105, -187500.02235174447, -52438.13126541749, -38703.297222053676, 0.018000000000000002, 1.014, 0.064, 192.0, 0.0, 0.0, 0.0, 0.0, 0.0, 0.0, 0.0, 0.0, 0.0, 1.695336928825023E9, 0.0, 2023-09-21 17:55:28.825
218.0, 36525.834980706575, 22782.17199828291, -66660.85918675175, -58736.20465233382, -22423.15827884177, -29800.351536315866, -187500.02235174447, -52318.52708083714, -29603.65618510916, -29936.74188098215, -62210.89508663358, -79583.65435405426, -16779.923949232572, -187500.02235174447, -52451.40820162394, -38738.27770212623, 0.012, 1.014, 0.066, 192.0, 0.0, 48.0, 15.5, 88.0, 1.0, 8.0, 0.0, 0.0, 0.0, 1.695336928825027E9, 0.0, 2023-09-21 17:55:28.825
220.0, 36530.77471623119, 22774.59475691256, -66670.11280895624, -58732.09193135404, -22469.560500330987, -29789.42153327722, -187500.02235174447, -52327.66894431936, -29663.044770126915, -29986.20629146174, -62270.1495611846, -79639.53371519253, -16683.34206144119, -187500.02235174447, -52429.81641648012, -38692.68014343741, 0.012, 1.014, 0.066, 192.0, 0.0, 0.0, 0.0, 0.0, 0.0, 0.0, 0.0, 0.0, 0.0, 1.69533692882503E9, 0.0, 2023-09-21 17:55:28.825
222.0, 36537.7261087568, 22741.916506518904, -66717.2973415014, -58788.39597563696, -22478.568253346475, -29854.62157185335, -187500.02235174447, -52388.398634004436, -29672.834834198336, -30001.02549803561, -62282.599482846206, -79650.553125209, -16769.820960738776, -187500.02235174447, -52471.927103033915, -38727.50416129878, 0.012, 1.014, 0.066, 192.0, 0.0, 0.0, 0.0, 0.0, 0.0, 0.0, 0.0, 0.0, 0.0, 1.695336928825033E9, 0.0, 2023-09-21 17:55:28.825
224.0, 36558.60263807805, 22763.061256773624, -66685.46845739704, -58743.24545183724, -22494.2591779541, -29798.719858970628, -187500.02235174447, -52329.457083875786, -29691.386782096244, -30019.622149422426, -62301.35259644421, -79672.8601661754, -16677.01651776034, -187500.02235174447, -52461.24296918428, -38689.39443700248, 0.012, 1.014, 0.066, 192.0, 0.0, 0.0, 0.0, 0.0, 0.0, 0.0, 0.0, 0.0, 0.0, 1.695336928825036E9, 0.0, 2023-09-21 17:55:28.825
226.0, 36523.68921323886, 22768.872710332, -66679.5899486053, -58745.43592279386, -22464.50900608409, -29807.392335819288, -187500.02235174447, -52333.5027496222, -29647.934990875125, -29987.435637406787, -62253.60927028767, -79627.91080807577, -16779.27574864337, -187500.02235174447, -52490.70256837637, -38726.83360896511, 0.012, 1.014, 0.066, 192.0, 0.0, 0.0, 0.0, 0.0, 0.0, 0.0, 0.0, 0.0, 0.0, 1.695336928885223E9, 0.0, 2023-09-21 17:55:28.885
228.0, 36562.84946952456, 22770.236166743776, -66686.49663764199, -58748.20753910632, -22477.137741701335, -29803.726649728615, -187500.02235174447, -52327.95951699728, -29669.23620334103, -29998.343288700973, -62278.50911361088, -79649.41318624177, -16708.197201275492, -187500.02235174447, -52453.64337606948, -38695.29529753868, 0.014, 1.008, 0.07200000000000001, 192.0, 0.0, 56.0, 15.5, 64.0, 1.0, 32.0, 0.0, 0.0, 0.0, 1.695336928885239E9, 0.0, 2023-09-21 17:55:28.885
230.0, 36511.30634681063, 22761.586041639574, -66687.25659695346, -58755.58361477657, -22467.660602052285, -29814.500190556075, -187500.02235174447, -52339.8506450475, -29642.659979183674, -29987.256823451142, -62247.50724405137, -79623.23929348461, -16799.012338997407, -187500.02235174447, -52492.401300954974, -38733.71794625735, 0.014, 1.008, 0.07200000000000001, 192.0, 0.0, 0.0, 0.0, 0.0, 0.0, 0.0, 0.0, 0.0, 0.0, 1.695336928885242E9, 0.0, 2023-09-21 17:55:28.885
232.0, 36572.527774873706, 22771.30905047763, -66692.28573945591, -58748.520463528694, -22488.06774473998, -29808.71108874215, -187500.02235174447, -52340.52119738117, -29694.203101897612, -30014.57065517553, -62305.33120695725, -79673.77658769806, -16716.467346723955, -187500.02235174447, -52455.67738481491, -38694.51298648274, 0.014, 1.008, 0.07200000000000001, 192.0, 0.0, 0.0, 0.0, 0.0, 0.0, 0.0, 0.0, 0.0, 0.0, 1.695336928885246E9, 0.0, 2023-09-21 17:55:28.885
234.0, 36494.87781463597, 22789.88335011999, -66656.90292798316, -58719.2620300367, -22460.440988593222, -29785.934661142193, -187500.02235174447, -52314.771987768654, -29620.688214384107, -29956.657285291825, -62223.25560131736, -79596.55131060498, -16803.415632655102, -187500.02235174447, -52496.4916701903, -38735.97547244734, 0.014, 1.008, 0.07200000000000001, 192.0, 0.0, 0.0, 0.0, 0.0, 0.0, 0.0, 0.0, 0.0, 0.0, 1.695336928885249E9, 0.0, 2023-09-21 17:55:28.885
236.0, 36566.47045212632, 22792.52085596572, -66679.74641081649, -58735.936431400354, -22457.803482747495, -29805.827713707415, -187500.02235174447, -52335.89438627892, -29652.96413337757, -29970.381256387387, -62261.36532561366, -79626.54735166399, -16749.771445962364, -187500.02235174447, -52447.8319225111, -38710.22626283482, 0.014, 1.008, 0.07200000000000001, 192.0, 0.0, 0.0, 0.0, 0.0, 0.0, 0.0, 0.0, 0.0, 0.0, 1.695336928885253E9, 0.0, 2023-09-21 17:55:28.885
238.0, 36481.98085808526, 22793.884312377493, -66663.16141643065, -58718.189146302844, -22460.753913015596, -29787.432228020698, -187500.02235174447, -52307.015932442664, -29632.467583712052, -29966.112073196422, -62234.07384563373, -79604.4414763977, -16803.08035648827, -187500.02235174447, -52483.10297526157, -38737.338928859106, 0.014, 1.012, 0.066, 192.0, 0.0, 56.0, 15.5, 80.0, 1.0, 8.0, 0.0, 0.0, 0.0, 1.695336928885256E9, 0.0, 2023-09-21 17:55:28.885
240.0, 36569.21971669432, 22783.401344227954, -66705.69678612909, -58761.037440423665, -22463.190253161225, -29831.778089020027, -187500.02235174447, -52353.66402312089, -29664.2517643275, -29980.1266169699, -62273.927005997546, -79639.35490123689, -16757.706315244, -187500.02235174447, -52443.0262974532, -38717.490579782796, 0.014, 1.012, 0.066, 192.0, 0.0, 0.0, 0.0, 0.0, 0.0, 0.0, 0.0, 0.0, 0.0, 1.695336928945413E9, 0.0, 2023-09-21 17:55:28.945
242.0, 36479.32100049508, 22788.83281813059, -66676.39364914819, -58729.45442550832, -22477.361259145888, -29797.646975236774, -187500.02235174447, -52322.796264028104, -29662.709493960083, -29997.73979160068, -62264.65103204859, -79638.30436924749, -16776.906463731106, -187500.02235174447, -52485.226390984826, -38733.33796660161, 0.014, 1.012, 0.066, 192.0, 0.0, 0.0, 0.0, 0.0, 0.0, 0.0, 0.0, 0.0, 0.0, 1.695336928945427E9, 0.0, 2023-09-21 17:55:28.945
244.0, 36561.396606134964, 22797.348832768064, -66695.81731507985, -58753.147274630945, -22453.73546525663, -29820.021071436535, -187500.02235174447, -52344.87978754995, -29657.881517157737, -29976.036247734577, -62263.04170644781, -79628.08962203142, -16762.489588557433, -187500.02235174447, -52458.67251857192, -38725.76072523126, 0.014, 1.012, 0.066, 192.0, 0.0, 0.0, 0.0, 0.0, 0.0, 0.0, 0.0, 0.0, 0.0, 1.695336928945431E9, 0.0, 2023-09-21 17:55:28.945
246.0, 36480.57269818457, 22786.37412624051, -66699.86298082626, -58752.923757186385, -22490.437029652243, -29825.832524994916, -187500.02235174447, -52349.394839929926, -29675.0029534105, -30000.37729744641, -62272.83177051923, -79642.61825592736, -16769.17276014957, -187500.02235174447, -52480.174896737924, -38730.72281250034, 0.014, 1.012, 0.066, 192.0, 0.0, 0.0, 0.0, 0.0, 0.0, 0.0, 0.0, 0.0, 0.0, 1.695336928945434E9, 0.0, 2023-09-21 17:55:28.945
248.0, 36564.10116721406, 22811.318673052632, -66690.1399719882, -58743.75954195971, -22461.44681709371, -29810.61098702085, -187500.02235174447, -52333.74861881121, -29687.78815123894, -30001.874864324913, -62288.67915733805, -79655.78343341153, -16765.08239091425, -187500.02235174447, -52462.09233547358, -38723.23497810781, 0.016, 1.014, 0.07, 192.0, 0.0, 64.0, 15.5, 88.0, 1.0, 24.0, 0.0, 0.0, 0.0, 1.695336928945438E9, 0.0, 2023-09-21 17:55:28.945
250.0, 36474.91770683738, 22809.284664307197, -66670.58219558981, -58724.64880045043, -22482.34569815942, -29797.55756825895, -187500.02235174447, -52325.7019908073, -29646.10214782979, -29975.477454123196, -62241.472273048435, -79612.8904358018, -16754.353553575704, -187500.02235174447, -52469.51311463274, -38726.94536768739, 0.016, 1.014, 0.07, 192.0, 0.0, 0.0, 0.0, 0.0, 0.0, 0.0, 0.0, 0.0, 0.0, 1.695336928945441E9, 0.0, 2023-09-21 17:55:28.945
252.0, 36553.3276263866, 22791.55973095414, -66701.18173374912, -58755.24833860974, -22463.547881072507, -29823.28442612701, -187500.02235174447, -52347.58434862904, -29673.237165598533, -29983.88171003839, -62273.65878506408, -79638.81845936996, -16779.611024810198, -187500.02235174447, -52459.834809283595, -38731.30395785617, 0.016, 1.014, 0.07, 192.0, 0.0, 0.0, 0.0, 0.0, 0.0, 0.0, 0.0, 0.0, 0.0, 1.695336928945445E9, 0.0, 2023-09-21 17:55:28.945
254.0, 36474.716541137284, 22802.310920037144, -66661.66384955215, -58708.77906188716, -22486.793695306027, -29773.28357378049, -187500.02235174447, -52295.147156136896, -29663.78237769394, -29987.323878684507, -62256.67145927805, -79626.30148247498, -16746.061056382783, -187500.02235174447, -52469.267245443734, -38720.351603073075, 0.016, 1.014, 0.07, 192.0, 0.0, 0.0, 0.0, 0.0, 0.0, 0.0, 0.0, 0.0, 0.0, 1.695336928945448E9, 0.0, 2023-09-21 17:55:28.945
0.0, 36543.38110010399, 22792.207931543344, -66704.42273669514, -58760.545702045645, -22458.317572869968, -29832.76156577606, -187500.02235174447, -52347.85256956251, -29653.925258389147, -29971.923526754803, -62254.5927470437, -79619.37244169383, -16802.968597765994, -187500.02235174447, -52456.88437901549, -38735.662548024964, 0.016, 1.014, 0.07, 192.0, 0.0, 0.0, 0.0, 0.0, 0.0, 0.0, 0.0, 0.0, 0.0, 1.695336929005718E9, 0.0, 2023-09-21 17:55:29.005
2.0, 36486.29474476513, 22798.868751391026, -66676.59481484829, -58723.12888182746, -22498.39425067833, -29793.84717867937, -187500.02235174447, -52324.53970009562, -29678.82510171236, -30009.720326628725, -62279.98432874493, -79649.54729670851, -16738.103835356695, -187500.02235174447, -52463.0311087407, -38709.868634923536, 0.016, 1.014, 0.07, 192.0, 0.0, 64.0, 15.5, 88.0, 1.0, 24.0, 0.0, 0.0, 0.0, 1.69533692900573E9, 0.0, 2023-09-21 17:55:29.005
4.0, 36521.85637019353, 22808.837629418093, -66678.36060266025, -58732.315448798596, -22443.63247676283, -29807.19117011919, -187500.02235174447, -52326.864281518974, -29627.77371737644, -29959.40654985983, -62230.74343570989, -79597.31126991645, -16818.927743307086, -187500.02235174447, -52471.97180652283, -38741.675167283436, 0.016, 1.014, 0.07, 192.0, 0.0, 0.0, 0.0, 0.0, 0.0, 0.0, 0.0, 0.0, 0.0, 1.695336929005734E9, 0.0, 2023-09-21 17:55:29.005
6.0, 36487.725256410275, 22791.760896654236, -66683.92618702963, -58726.68280919586, -22491.554616875008, -29799.591577004383, -187500.02235174447, -52322.9974297282, -29662.620086982264, -29994.431733421297, -62266.37211637165, -79632.67172964475, -16751.93956517453, -187500.02235174447, -52452.32462314661, -38713.221396591834, 0.016, 1.014, 0.07, 192.0, 0.0, 0.0, 0.0, 0.0, 0.0, 0.0, 0.0, 0.0, 0.0, 1.695336929005737E9, 0.0, 2023-09-21 17:55:29.005
8.0, 36519.12945736998, 22791.425620487407, -66691.81635282235, -58743.33485881506, -22456.10475016889, -29823.463240082652, -187500.02235174447, -52339.31420318058, -29649.633723453728, -29981.31125942603, -62251.41879933105, -79616.86904631485, -16832.182327769082, -187500.02235174447, -52473.84935305707, -38737.070707925646, 0.016, 1.014, 0.07, 192.0, 0.0, 0.0, 0.0, 0.0, 0.0, 0.0, 0.0, 0.0, 0.0, 1.695336929005741E9, 0.0, 2023-09-21 17:55:29.005
10.0, 36501.784503672665, 22801.32744328111, -66668.05644846636, -58711.684788666345, -22482.30099467051, -29790.606175733352, -187500.02235174447, -52311.93331622283, -29656.830985168337, -29989.51434964113, -62256.40323834458, -79623.39575569579, -16748.27387908386, -187500.02235174447, -52453.15163769146, -38702.20198657537, 0.016, 1.014, 0.07, 192.0, 0.0, 0.0, 0.0, 0.0, 0.0, 0.0, 0.0, 0.0, 0.0, 1.695336929005745E9, 0.0, 2023-09-21 17:55:29.005
12.0, 36509.965242143306, 22795.314824022633, -66680.57342536133, -58733.54479474363, -22455.076569923945, -29826.86070523986, -187500.02235174447, -52343.33751718253, -29638.01081633697, -29974.31516341152, -62235.03497064531, -79604.6873455867, -16840.273659261904, -187500.02235174447, -52477.805611825665, -38738.05418468168, 0.016, 1.014, 0.062, 192.0, 0.0, 64.0, 15.5, 88.0, 0.5, 120.0, 0.0, 0.0, 0.0, 1.695336929005748E9, 0.0, 2023-09-21 17:55:29.005
14.0, 36510.18875958786, 22821.354606313063, -66644.94474469958, -58685.73441335373, -22464.710171784183, -29773.484739480587, -187500.02235174447, -52294.5436590366, -29645.87863038524, -29970.872994765403, -62239.61707825865, -79608.66595609975, -16756.991059421427, -187500.02235174447, -52450.80470452365, -38710.38272504601, 0.016, 1.014, 0.062, 192.0, 0.0, 0.0, 0.0, 0.0, 0.0, 0.0, 0.0, 0.0, 0.0, 1.695336929066008E9, 0.0, 2023-09-21 17:55:29.066
16.0, 36500.04106760515, 22802.489733992785, -66673.84555028028, -58725.67698069537, -22445.95705818618, -29822.055080181966, -187500.02235174447, -52341.59408111502, -29629.539505188408, -29953.460985834718, -62219.813432671246, -79584.79429302148, -16843.112330807726, -187500.02235174447, -52468.931969276906, -38744.67030104045, 0.016, 1.014, 0.062, 192.0, 0.0, 0.0, 0.0, 0.0, 0.0, 0.0, 0.0, 0.0, 0.0, 1.695336929066022E9, 0.0, 2023-09-21 17:55:29.066
18.0, 36525.209131861826, 22809.79875442967, -66664.65898330916, -58706.40977697489, -22467.526491585555, -29800.060963637945, -187500.02235174447, -52323.04213321712, -29662.709493960083, -29978.763160558126, -62254.3915813436, -79622.34522370639, -16742.5518325033, -187500.02235174447, -52443.898015486964, -38706.09119011059, 0.016, 1.014, 0.062, 192.0, 0.0, 0.0, 0.0, 0.0, 0.0, 0.0, 0.0, 0.0, 0.0, 1.695336929066026E9, 0.0, 2023-09-21 17:55:29.066
20.0, 36473.42013995888, 22840.979437944825, -66623.19649734456, -58673.64211960341, -22426.4439852767, -29769.863756878825, -187500.02235174447, -52284.843001942994, -29609.512342156453, -29940.474622306185, -62195.31592074823, -79567.33758060189, -16830.125967279193, -187500.02235174447, -52477.04565251418, -38746.74901327479, 0.016, 1.014, 0.062, 192.0, 0.0, 0.0, 0.0, 0.0, 0.0, 0.0, 0.0, 0.0, 0.0, 1.695336929066029E9, 0.0, 2023-09-21 17:55:29.066
22.0, 36530.439440064365, 22824.215629603343, -66666.08949495429, -58713.94231485633, -22454.02603793455, -29805.71595498514, -187500.02235174447, -52320.20346167129, -29641.609447194274, -29949.616485788407, -62232.531575266315, -79595.32196465993, -16747.670381983564, -187500.02235174447, -52418.28291634118, -38706.5382249997, 0.01, 1.016, 0.064, 192.0, 0.0, 40.0, 15.5, 96.0, 1.0, 0.0, 0.0, 0.0, 0.0, 1.695336929066033E9, 0.0, 2023-09-21 17:55:29.066
24.0, 36483.6125354305, 22810.245789318775, -66671.67743106812, -58725.67698069537, -22461.58092756044, -29816.824771979427, -187500.02235174447, -52334.26270893368, -29643.3975867507, -29963.809843517527, -62231.70456072147, -79598.5853193504, -16818.23483922897, -187500.02235174447, -52467.747326820776, -38732.6897660124, 0.01, 1.016, 0.064, 192.0, 0.0, 0.0, 0.0, 0.0, 0.0, 0.0, 0.0, 0.0, 0.0, 1.695336929066036E9, 0.0, 2023-09-21 17:55:29.066
26.0, 36560.12255670101, 22804.85901890505, -66683.8367800518, -58735.35528604452, -22481.183407447745, -29825.385490105808, -187500.02235174447, -52351.56295914209, -29680.657944757695, -29979.50076812515, -62278.21854093296, -79638.46083145868, -16742.417722036567, -187500.02235174447, -52440.70171602985, -38694.356524271556, 0.01, 1.016, 0.064, 192.0, 0.0, 0.0, 0.0, 0.0, 0.0, 0.0, 0.0, 0.0, 0.0, 1.69533692906604E9, 0.0, 2023-09-21 17:55:29.066
28.0, 36483.79134938614, 22815.14082135449, -66637.23339286249, -58696.66441639238, -22466.520663085066, -29789.198015832666, -187500.02235174447, -52313.989676712714, -29637.876705870236, -29955.78556725807, -62232.21865084394, -79600.95460426266, -16811.95399903703, -187500.02235174447, -52484.511135162255, -38726.3418705871, 0.01, 1.016, 0.064, 192.0, 0.0, 0.0, 0.0, 0.0, 0.0, 0.0, 0.0, 0.0, 0.0, 1.695336929066043E9, 0.0, 2023-09-21 17:55:29.066
30.0, 36550.86893449652, 22833.89393495249, -66621.7212822105, -58685.13091625344, -22441.73257848413, -29781.71018144014, -187500.02235174447, -52302.947914951794, -29630.25476101098, -29940.295808350544, -62236.085502634705, -79601.80397055198, -16772.994908451426, -187500.02235174447, -52442.13222767499, -38707.94638490038, 0.01, 1.016, 0.064, 192.0, 0.0, 0.0, 0.0, 0.0, 0.0, 0.0, 0.0, 0.0, 0.0, 1.69533692912501E9, 0.0, 2023-09-21 17:55:29.125
32.0, 36472.39195971393, 22837.671379765437, -66602.16350581212, -58669.48469513473, -22436.144642370302, -29755.111605538325, -187500.02235174447, -52272.884818659404, -29595.22957744951, -29927.130630866366, -62198.35575799415, -79570.3774178478, -16824.672141632098, -187500.02235174447, -52464.26045468575, -38731.21455087836, 0.014, 1.01, 0.066, 192.0, 0.0, 56.0, 15.5, 72.0, 1.0, 8.0, 0.0, 0.0, 0.0, 1.695336929125024E9, 0.0, 2023-09-21 17:55:29.125
34.0, 36575.20998420835, 22808.36824278453, -66659.42867510661, -58729.297963297126, -22446.02411341955, -29824.871399983338, -187500.02235174447, -52336.81080780159, -29640.089528571312, -29954.444462590753, -62250.68119176402, -79613.51628464655, -16778.739306776442, -187500.02235174447, -52418.99817216375, -38699.49742549627, 0.014, 1.01, 0.066, 192.0, 0.0, 0.0, 0.0, 0.0, 0.0, 0.0, 0.0, 0.0, 0.0, 1.695336929125027E9, 0.0, 2023-09-21 17:55:29.125
36.0, 36493.46965473529, 22810.402251529962, -66622.5259450109, -58687.16492499888, -22466.565366573974, -29783.36421052983, -187500.02235174447, -52291.5932287685, -29644.02343559545, -29980.752465814647, -62246.52376729534, -79616.57847363692, -16790.921007504585, -187500.02235174447, -52466.138001219995, -38709.64511747898, 0.014, 1.01, 0.066, 192.0, 0.0, 0.0, 0.0, 0.0, 0.0, 0.0, 0.0, 0.0, 0.0, 1.695336929125031E9, 0.0, 2023-09-21 17:55:29.125
38.0, 36579.76974007723, 22816.95131265537, -66633.61241026073, -58699.927771082854, -22442.403130817787, -29799.65863223775, -187500.02235174447, -52310.77102551115, -29641.877668127738, -29955.316180624508, -62253.20693888747, -79613.22571196863, -16788.37290863668, -187500.02235174447, -52440.79112300767, -38702.89489065348, 0.014, 1.01, 0.066, 192.0, 0.0, 0.0, 0.0, 0.0, 0.0, 0.0, 0.0, 0.0, 0.0, 1.695336929125034E9, 0.0, 2023-09-21 17:55:29.125
40.0, 36501.80685541712, 22811.631597475007, -66617.720319953, -58683.298073208105, -22467.861767752383, -29789.309774554942, -187500.02235174447, -52297.96347593826, -29633.54046744591, -29961.082930693978, -62240.846424203686, -79605.58141536491, -16786.22714116897, -187500.02235174447, -52460.57241685062, -38712.461437280355, 0.014, 1.01, 0.066, 192.0, 0.0, 0.0, 0.0, 0.0, 0.0, 0.0, 0.0, 0.0, 0.0, 1.695336929125037E9, 0.0, 2023-09-21 17:55:29.125
42.0, 36598.589908908594, 22806.222475316823, -66653.10313142576, -58720.849003893025, -22448.169880887257, -29829.699376785684, -187500.02235174447, -52336.36377291248, -29656.383950279233, -29969.889518009368, -62270.417782118064, -79628.46960168715, -16791.099821460226, -187500.02235174447, -52445.797913765666, -38711.120332613034, 0.014, 1.006, 0.064, 192.0, 0.0, 56.0, 15.5, 56.0, 1.0, 0.0, 0.0, 0.0, 0.0, 1.695336929125041E9, 0.0, 2023-09-21 17:55:29.125
44.0, 36518.280091080676, 22817.957141155857, -66608.0196628594, -58670.82579980204, -22461.87150023836, -29775.13876857028, -187500.02235174447, -52274.49414426019, -29635.10508955778, -29966.760273785625, -62243.10395039368, -79607.97305202164, -16772.27965262886, -187500.02235174447, -52461.48883837329, -38710.76270470175, 0.014, 1.006, 0.064, 192.0, 0.0, 0.0, 0.0, 0.0, 0.0, 0.0, 0.0, 0.0, 0.0, 1.69533692918522E9, 0.0, 2023-09-21 17:55:29.185
46.0, 36593.1360832615, 22817.17483009992, -66630.19259335907, -58699.41368096038, -22426.399281787788, -29802.407896805755, -187500.02235174447, -52303.32789460754, -29632.57934243433, -29950.532907311073, -62246.300249850785, -79603.68151708621, -16810.65759785862, -187500.02235174447, -52445.10500968755, -38719.99397516179, 0.014, 1.006, 0.064, 192.0, 0.0, 0.0, 0.0, 0.0, 0.0, 0.0, 0.0, 0.0, 0.0, 1.695336929185235E9, 0.0, 2023-09-21 17:55:29.185
48.0, 36526.95256792934, 22822.963931913848, -66608.91373263762, -58669.1494189679, -22458.16111065878, -29771.85306213535, -187500.02235174447, -52285.31238857656, -29636.490897714008, -29966.000314474146, -62246.233194617416, -79608.82241831094, -16762.377829835157, -187500.02235174447, -52444.523864331706, -38700.59266097459, 0.014, 1.006, 0.064, 192.0, 0.0, 0.0, 0.0, 0.0, 0.0, 0.0, 0.0, 0.0, 0.0, 1.695336929185239E9, 0.0, 2023-09-21 17:55:29.185
50.0, 36595.97475480733, 22805.0825363496, -66664.6366315647, -58729.20855631931, -22445.77824423054, -29833.27565589853, -187500.02235174447, -52337.12373222396, -29637.58613319232, -29954.757387013127, -62249.25068011889, -79606.31902293194, -16820.648827630142, -187500.02235174447, -52441.439323596875, -38714.406039047964, 0.014, 1.006, 0.064, 192.0, 0.0, 0.0, 0.0, 0.0, 0.0, 0.0, 0.0, 0.0, 0.0, 1.695336929185243E9, 0.0, 2023-09-21 17:55:29.185
52.0, 36541.88353322548, 22815.006710887756, -66627.01864564641, -58680.99584352921, -22483.910320271294, -29780.637297706286, -187500.02235174447, -52294.61071426996, -29663.469453271566, -29989.201425218755, -62268.71904953946, -79631.21886625515, -16756.186396621037, -187500.02235174447, -52450.894111501475, -38689.32738176911, 0.012, 1.01, 0.07, 192.0, 0.0, 48.0, 15.5, 72.0, 1.0, 24.0, 0.0, 0.0, 0.0, 1.695336929185246E9, 0.0, 2023-09-21 17:55:29.185
54.0, 36585.91646980244, 22795.60539670055, -66662.04382920788, -58726.90632664041, -22451.455587322187, -29831.576923319928, -187500.02235174447, -52334.754447311694, -29646.169203063157, -29961.641724305362, -62253.96689819895, -79611.34816543439, -16839.267830761415, -187500.02235174447, -52464.32750991911, -38721.02215540673, 0.012, 1.01, 0.07, 192.0, 0.0, 0.0, 0.0, 0.0, 0.0, 0.0, 0.0, 0.0, 0.0, 1.69533692918525E9, 0.0, 2023-09-21 17:55:29.185
56.0, 36554.44521360937, 22805.440164260886, -66627.51038402443, -58689.69067212233, -22470.052238709002, -29794.65184147976, -187500.02235174447, -52307.3959120984, -29661.144871848213, -29987.59209961797, -62266.305061138286, -79629.25191274309, -16759.337992589237, -187500.02235174447, -52452.25756791324, -38693.03777134869, 0.012, 1.01, 0.07, 192.0, 0.0, 0.0, 0.0, 0.0, 0.0, 0.0, 0.0, 0.0, 0.0, 1.695336929185253E9, 0.0, 2023-09-21 17:55:29.185
58.0, 36588.6880861149, 22770.41498069942, -66674.85137878078, -58744.16187335991, -22458.697552525708, -29842.171650191744, -187500.02235174447, -52340.722363081266, -29664.475281772055, -29983.725247827202, -62270.46248560697, -79631.0400522995, -16846.95683085404, -187500.02235174447, -52464.39456515248, -38720.37395481753, 0.012, 1.01, 0.07, 192.0, 0.0, 0.0, 0.0, 0.0, 0.0, 0.0, 0.0, 0.0, 0.0, 1.695336929185257E9, 0.0, 2023-09-21 17:55:29.185
60.0, 36574.91941153043, 22795.40423100045, -66631.06431139282, -58689.55656165559, -22475.081381211447, -29792.03668737849, -187500.02235174447, -52301.40564458438, -29674.287697587934, -29995.79518983307, -62276.74332579891, -79642.01475882706, -16759.874434456164, -187500.02235174447, -52448.56953007812, -38688.00862884625, 0.012, 1.01, 0.07, 192.0, 0.0, 0.0, 0.0, 0.0, 0.0, 0.0, 0.0, 0.0, 0.0, 1.695336929245526E9, 0.0, 2023-09-21 17:55:29.245
62.0, 36572.751292318266, 22784.965966339823, -66650.80090174686, -58720.87135563748, -22442.91722094026, -29827.821830251436, -187500.02235174447, -52329.16651119787, -29635.57447619134, -29957.50665158113, -62236.66664799055, -79603.10037173038, -16862.737162439487, -187500.02235174447, -52469.87074254403, -38729.448763066386, 0.012, 1.008, 0.062, 192.0, 0.0, 48.0, 15.5, 64.0, 0.5, 120.0, 0.0, 0.0, 0.0, 1.69533692924554E9, 0.0, 2023-09-21 17:55:29.245
64.0, 36585.93882154689, 22797.79586765717, -66630.01377940342, -58690.80825934509, -22466.92299448526, -29795.814132191437, -187500.02235174447, -52309.02758944364, -29680.881462202247, -29993.78353283209, -62279.76081130038, -79645.546334451, -16767.116399659684, -187500.02235174447, -52443.78625676469, -38686.95809685685, 0.012, 1.008, 0.062, 192.0, 0.0, 0.0, 0.0, 0.0, 0.0, 0.0, 0.0, 0.0, 0.0, 1.695336929245544E9, 0.0, 2023-09-21 17:55:29.245
66.0, 36563.05063522466, 22795.538341467185, -66634.26061084993, -58704.93456184084, -22440.413825561267, -29804.03957415099, -187500.02235174447, -52309.87695573294, -29632.981673834525, -29952.902192223337, -62230.74343570989, -79594.27143267053, -16861.48546474999, -187500.02235174447, -52472.17297222292, -38726.54303628719, 0.012, 1.008, 0.062, 192.0, 0.0, 0.0, 0.0, 0.0, 0.0, 0.0, 0.0, 0.0, 0.0, 1.695336929245547E9, 0.0, 2023-09-21 17:55:29.245
68.0, 36595.34890596258, 22808.859981162546, -66628.89619218066, -58689.35539595549, -22456.909412969282, -29787.588690231885, -187500.02235174447, -52304.62429578594, -29664.318819560867, -29972.83994827747, -62266.439171605016, -79626.90497957528, -16767.205806637503, -187500.02235174447, -52433.59386129306, -38686.9804486013, 0.012, 1.008, 0.062, 192.0, 0.0, 0.0, 0.0, 0.0, 0.0, 0.0, 0.0, 0.0, 0.0, 1.695336929245551E9, 0.0, 2023-09-21 17:55:29.245
70.0, 36560.45783286784, 22786.59764368506, -66655.20419540456, -58727.487471996246, -22456.39532284681, -29831.822792508938, -187500.02235174447, -52335.98379325674, -29631.327644744833, -29950.44350033325, -62233.31388632225, -79591.29865065798, -16847.649734932154, -187500.02235174447, -52466.62973959801, -38724.33021358612, 0.012, 1.008, 0.062, 192.0, 0.0, 0.0, 0.0, 0.0, 0.0, 0.0, 0.0, 0.0, 0.0, 1.695336929245554E9, 0.0, 2023-09-21 17:55:29.245
72.0, 36620.96400510836, 22791.023289087214, -66657.41701810564, -58714.411701489895, -22481.026945236557, -29814.477838811617, -187500.02235174447, -52328.92064200886, -29700.64040430074, -30007.97689056121, -62312.148489016115, -79667.22752657265, -16751.716047729977, -187500.02235174447, -52442.04282069717, -38677.011570574236, 0.016, 1.012, 0.064, 192.0, 0.0, 64.0, 15.5, 80.0, 1.0, 0.0, 0.0, 0.0, 0.0, 1.695336929245558E9, 0.0, 2023-09-21 17:55:29.245
74.0, 36557.82032702212, 22774.907681334935, -66655.3830093602, -58718.16679455838, -22468.889947997326, -29832.448641353687, -187500.02235174447, -52341.3035084371, -29649.745482176007, -29967.54258484156, -62244.825034716734, -79604.86615954235, -16831.08709229077, -187500.02235174447, -52486.03105378521, -38715.92595767092, 0.016, 1.012, 0.064, 192.0, 0.0, 0.0, 0.0, 0.0, 0.0, 0.0, 0.0, 0.0, 0.0, 1.695336929305747E9, 0.0, 2023-09-21 17:55:29.305
76.0, 36633.74920293679, 22775.667640646418, -66680.46166663905, -58731.15315808692, -22486.860750539396, -29841.411690880264, -187500.02235174447, -52353.708726609795, -29713.22443642908, -30003.528893414605, -62309.04159653683, -79664.14298583783, -16738.88614641263, -187500.02235174447, -52453.08458245809, -38682.91243111044, 0.016, 1.012, 0.064, 192.0, 0.0, 0.0, 0.0, 0.0, 0.0, 0.0, 0.0, 0.0, 0.0, 1.695336929305761E9, 0.0, 2023-09-21 17:55:29.305
78.0, 36541.99529194776, 22809.664643962937, -66618.68144496459, -58672.34571842501, -22456.48472982463, -29784.928832641705, -187500.02235174447, -52297.225868371235, -29641.005950093982, -29957.08196843648, -62232.01748514384, -79595.65724082675, -16778.918120732083, -187500.02235174447, -52496.0893387901, -38718.541111772196, 0.016, 1.012, 0.064, 192.0, 0.0, 0.0, 0.0, 0.0, 0.0, 0.0, 0.0, 0.0, 0.0, 1.695336929305765E9, 0.0, 2023-09-21 17:55:29.305
80.0, 36626.708403433375, 22790.732716409293, -66660.1886344181, -58712.7576724002, -22459.435160092733, -29820.870437725836, -187500.02235174447, -52333.94978451131, -29664.363523049775, -29960.524137082593, -62263.55579657028, -79621.33939520591, -16710.58883793221, -187500.02235174447, -52442.89218698647, -38694.133006827, 0.016, 1.012, 0.064, 192.0, 0.0, 0.0, 0.0, 0.0, 0.0, 0.0, 0.0, 0.0, 0.0, 1.695336929305768E9, 0.0, 2023-09-21 17:55:29.305
82.0, 36540.2742076247, 22796.432411245398, -66636.80870971784, -58689.62361688896, -22466.520663085066, -29805.93947242969, -187500.02235174447, -52322.23747041672, -29644.850450140293, -29967.766102286114, -62239.70648523647, -79604.6426420978, -16716.489698468413, -187500.02235174447, -52476.66567285844, -38708.4381232784, 0.018000000000000002, 1.01, 0.068, 192.0, 0.0, 72.0, 15.5, 72.0, 1.0, 16.0, 0.0, 0.0, 0.0, 1.695336929305771E9, 0.0, 2023-09-21 17:55:29.305
84.0, 36626.23901679981, 22797.929978123902, -66664.97190773152, -58714.05407357861, -22463.279660139044, -29823.016205193548, -187500.02235174447, -52330.26174667618, -29676.656982500197, -29977.377352401898, -62276.296290909806, -79633.3422819784, -16671.45093339097, -187500.02235174447, -52439.65118404045, -38684.94643985587, 0.018000000000000002, 1.01, 0.068, 192.0, 0.0, 0.0, 0.0, 0.0, 0.0, 0.0, 0.0, 0.0, 0.0, 1.695336929305775E9, 0.0, 2023-09-21 17:55:29.305
86.0, 36537.61435003452, 22788.050507074655, -66657.6852390391, -58706.83446011954, -22486.771343561573, -29818.836428980405, -187500.02235174447, -52327.780703041644, -29654.953438634093, -29974.583384344984, -62248.17779638503, -79614.52211314705, -16673.909625281052, -187500.02235174447, -52467.81438205414, -38694.334172527095, 0.018000000000000002, 1.01, 0.068, 192.0, 0.0, 0.0, 0.0, 0.0, 0.0, 0.0, 0.0, 0.0, 0.0, 1.695336929305778E9, 0.0, 2023-09-21 17:55:29.305
88.0, 36632.25163605829, 22772.40428595594, -66694.65502436817, -58744.407742548916, -22477.316555656977, -29860.76830157856, -187500.02235174447, -52377.40157573242, -29698.49463683303, -30003.059506781043, -62298.022186520364, -79657.32570377896, -16655.134159938592, -187500.02235174447, -52452.52578884671, -38685.34877125607, 0.018000000000000002, 1.01, 0.068, 192.0, 0.0, 0.0, 0.0, 0.0, 0.0, 0.0, 0.0, 0.0, 0.0, 1.695336929305781E9, 0.0, 2023-09-21 17:55:29.305
90.0, 36547.85144899505, 22773.99125981227, -66665.26248040945, -58708.91317235389, -22501.143515246335, -29820.46810632564, -187500.02235174447, -52340.2529764477, -29668.275078329454, -29988.732038585193, -62261.63354654713, -79625.07213652994, -16635.554031795746, -187500.02235174447, -52486.76866135224, -38693.70832368235, 0.018000000000000002, 1.01, 0.068, 192.0, 0.0, 0.0, 0.0, 0.0, 0.0, 0.0, 0.0, 0.0, 0.0, 1.695336929366021E9, 0.0, 2023-09-21 17:55:29.366
92.0, 36617.901816117985, 22805.730736938804, -66650.7338465135, -58692.81991634607, -22458.094055425412, -29801.37971656081, -187500.02235174447, -52316.13544418043, -29675.15941562169, -29982.98764026018, -62273.502322852895, -79630.50361043258, -16648.33922962418, -187500.02235174447, -52476.24098971379, -38697.843396406584, 0.016, 1.014, 0.062, 192.0, 0.0, 64.0, 15.5, 88.0, 0.5, 120.0, 0.0, 0.0, 0.0, 1.695336929366058E9, 0.0, 2023-09-21 17:55:29.366
94.0, 36539.33543435758, 22808.435298017896, -66635.51230853943, -58679.252407461696, -22471.05806720949, -29791.880225167304, -187500.02235174447, -52310.48045283323, -29628.466621454554, -29944.54263979705, -62223.61322922865, -79585.50954884406, -16626.479223546892, -187500.02235174447, -52470.742460577785, -38699.27390805172, 0.016, 1.014, 0.062, 192.0, 0.0, 0.0, 0.0, 0.0, 0.0, 0.0, 0.0, 0.0, 0.0, 1.695336929366063E9, 0.0, 2023-09-21 17:55:29.366
96.0, 36612.447990470886, 22799.919283380426, -66662.06618095233, -58713.6070386895, -22446.02411341955, -29832.985083220614, -187500.02235174447, -52348.00903177369, -29664.49763351651, -29969.464834864717, -62263.51109308137, -79621.74172660611, -16653.748351782364, -187500.02235174447, -52457.867855771525, -38707.61110873355, 0.016, 1.014, 0.062, 192.0, 0.0, 0.0, 0.0, 0.0, 0.0, 0.0, 0.0, 0.0, 0.0, 1.695336929366067E9, 0.0, 2023-09-21 17:55:29.366
98.0, 36552.813536264126, 22781.546149438163, -66659.62984080671, -58702.878201350955, -22493.901550042814, -29816.578902790417, -187500.02235174447, -52338.01780200217, -29666.308124817388, -29978.27142218011, -62262.34880236969, -79623.70868011817, -16592.213999296906, -187500.02235174447, -52459.14190520548, -38692.18840505939, 0.016, 1.014, 0.062, 192.0, 0.0, 0.0, 0.0, 0.0, 0.0, 0.0, 0.0, 0.0, 0.0, 1.69533692936607E9, 0.0, 2023-09-21 17:55:29.366
100.0, 36599.52868217572, 22799.427545002407, -66651.60556454725, -58698.698425137816, -22444.884174452327, -29823.552647060475, -187500.02235174447, -52342.175226470856, -29654.461700256077, -29960.904116738337, -62251.955241197975, -79608.4871421441, -16648.182767412993, -187500.02235174447, -52471.56947512263, -38713.40021054747, 0.016, 1.014, 0.062, 192.0, 0.0, 0.0, 0.0, 0.0, 0.0, 0.0, 0.0, 0.0, 0.0, 1.695336929366073E9, 0.0, 2023-09-21 17:55:29.366
102.0, 36557.5297543442, 22796.05243158966, -66651.94084071409, -58688.08134652154, -22483.798561549018, -29805.447734051675, -187500.02235174447, -52323.46681636177, -29659.937877647626, -29965.910907496323, -62255.97855519993, -79611.52697939002, -16577.126571789573, -187500.02235174447, -52455.02918422571, -38692.30016378166, 0.018000000000000002, 1.014, 0.068, 192.0, 0.0, 72.0, 15.5, 88.0, 1.0, 16.0, 0.0, 0.0, 0.0, 1.695336929366077E9, 0.0, 2023-09-21 17:55:29.366
104.0, 36599.32751647562, 22791.31386176513, -66680.41696315014, -58728.82857666357, -22459.12223567036, -29858.24255445511, -187500.02235174447, -52374.69701465333, -29660.42961602564, -29973.01876223311, -62259.1972064015, -79615.05855501397, -16641.946630709965, -187500.02235174447, -52471.4353646559, -38721.2903763402, 0.018000000000000002, 1.014, 0.068, 192.0, 0.0, 0.0, 0.0, 0.0, 0.0, 0.0, 0.0, 0.0, 0.0, 1.695336929425508E9, 0.0, 2023-09-21 17:55:29.425
106.0, 36573.645362096475, 22813.017405631235, -66642.95543944305, -58681.73345109623, -22490.012346507592, -29802.296138083475, -187500.02235174447, -52319.82348201555, -29677.43929355613, -29994.83406482149, -62275.22340717595, -79634.57162792345, -16546.16940571897, -187500.02235174447, -52462.628777340506, -38690.489672480784, 0.018000000000000002, 1.014, 0.068, 192.0, 0.0, 0.0, 0.0, 0.0, 0.0, 0.0, 0.0, 0.0, 0.0, 1.695336929425523E9, 0.0, 2023-09-21 17:55:29.425
108.0, 36586.05058026917, 22809.910513151946, -66664.01078271995, -58714.344646256526, -22458.78695950353, -29838.640074567807, -187500.02235174447, -52348.92545329636, -29629.025415065935, -29948.275381121086, -62227.18950834149, -79585.82247326642, -16635.509328306835, -187500.02235174447, -52477.26916995874, -38728.264120610256, 0.018000000000000002, 1.014, 0.068, 192.0, 0.0, 0.0, 0.0, 0.0, 0.0, 0.0, 0.0, 0.0, 0.0, 1.695336929425527E9, 0.0, 2023-09-21 17:55:29.425
110.0, 36586.788187836195, 22816.839553933092, -66651.8290819918, -58694.11631752447, -22492.985128520148, -29814.3884318338, -187500.02235174447, -52340.54354912562, -29681.68612500264, -29990.095494996967, -62277.77150604386, -79635.13042153484, -16537.854556781596, -187500.02235174447, -52451.788181279684, -38686.3322480121, 0.018000000000000002, 1.014, 0.068, 192.0, 0.0, 0.0, 0.0, 0.0, 0.0, 0.0, 0.0, 0.0, 0.0, 1.69533692942553E9, 0.0, 2023-09-21 17:55:29.425
112.0, 36573.779472563205, 22812.995053886778, -66663.94372748658, -58715.08225382355, -22466.16303517378, -29843.445699625696, -187500.02235174447, -52361.93416856935, -29649.700778687096, -29964.25687840663, -62244.40035157208, -79602.22865369663, -16634.235278872882, -187500.02235174447, -52483.035920028204, -38730.834571222615, 0.012, 1.014, 0.076, 192.0, 0.0, 48.0, 15.5, 88.0, 1.0, 48.0, 0.0, 0.0, 0.0, 1.695336929425534E9, 0.0, 2023-09-21 17:55:29.425
114.0, 36589.04571402618, 22832.485775051806, -66637.50161379596, -58679.78884932862, -22473.78498003304, -29797.89284442578, -187500.02235174447, -52314.61552555746, -29663.15652884919, -29972.683486066282, -62259.21955814595, -79618.07604051543, -16551.444417410425, -187500.02235174447, -52453.35280339156, -38695.20589056086, 0.012, 1.014, 0.076, 192.0, 0.0, 0.0, 0.0, 0.0, 0.0, 0.0, 0.0, 0.0, 0.0, 1.695336929425538E9, 0.0, 2023-09-21 17:55:29.425
116.0, 36558.893210755974, 22820.929923168413, -66650.84560523578, -58701.00065481671, -22456.82000599146, -29819.99871969208, -187500.02235174447, -52338.97892701375, -29629.62891216623, -29950.734073011172, -62220.908668149554, -79582.76028427605, -16642.505424321345, -187500.02235174447, -52476.95624553636, -38729.06878341064, 0.012, 1.014, 0.076, 192.0, 0.0, 0.0, 0.0, 0.0, 0.0, 0.0, 0.0, 0.0, 0.0, 1.695336929425541E9, 0.0, 2023-09-21 17:55:29.425
118.0, 36598.880481586515, 22827.635446505006, -66646.82229123382, -58689.109526766486, -22477.182445190247, -29802.676117739218, -187500.02235174447, -52322.17041518336, -29671.53843301993, -29982.182977459786, -62263.73461052592, -79623.03812778452, -16552.629059866555, -187500.02235174447, -52442.71337303083, -38687.3827800015, 0.012, 1.014, 0.076, 192.0, 0.0, 0.0, 0.0, 0.0, 0.0, 0.0, 0.0, 0.0, 0.0, 1.695336929425545E9, 0.0, 2023-09-21 17:55:29.425
120.0, 36545.30335012714, 22819.745280712283, -66646.39760808917, -58695.882105336445, -22467.146511929812, -29817.584731290906, -187500.02235174447, -52340.07416249206, -29635.261551768966, -29963.74278828416, -62225.401368785075, -79588.81760702343, -16640.516119064825, -187500.02235174447, -52477.9844257813, -38726.81125722066, 0.012, 1.014, 0.076, 192.0, 0.0, 0.0, 0.0, 0.0, 0.0, 0.0, 0.0, 0.0, 0.0, 1.695336929485176E9, 0.0, 2023-09-21 17:55:29.485
122.0, 36604.0884380446, 22822.606304002562, -66656.0312099494, -58694.78686985814, -22477.048334723513, -29806.677079996716, -187500.02235174447, -52320.60579307149, -29664.09530211631, -29978.427884391294, -62254.615098788156, -79613.85156081337, -16562.88851057154, -187500.02235174447, -52436.16431190543, -38692.121349826026, 0.014, 1.014, 0.076, 192.0, 0.0, 56.0, 15.5, 88.0, 1.0, 48.0, 0.0, 0.0, 0.0, 1.695336929485188E9, 0.0, 2023-09-21 17:55:29.485
124.0, 36533.61338777702, 22818.627693489518, -66645.05650342185, -58689.55656165559, -22475.930747500748, -29814.544894044986, -187500.02235174447, -52329.43473213133, -29636.96028434757, -29969.531890098086, -62222.1380140946, -79588.59408957888, -16628.557935781235, -187500.02235174447, -52477.67150135893, -38723.54790253018, 0.014, 1.014, 0.076, 192.0, 0.0, 0.0, 0.0, 0.0, 0.0, 0.0, 0.0, 0.0, 0.0, 1.695336929485192E9, 0.0, 2023-09-21 17:55:29.485
126.0, 36607.552958435175, 22817.353644055565, -66667.43059962161, -58705.51570719668, -22477.137741701335, -29829.878190741325, -187500.02235174447, -52350.31126145259, -29669.34796206331, -29983.211157704733, -62261.43238084703, -79622.41227893977, -16566.062458284196, -187500.02235174447, -52440.746419518764, -38694.982373116305, 0.014, 1.014, 0.076, 192.0, 0.0, 0.0, 0.0, 0.0, 0.0, 0.0, 0.0, 0.0, 0.0, 1.695336929485196E9, 0.0, 2023-09-21 17:55:29.485
128.0, 36519.93412017037, 22827.970722671835, -66635.55701202834, -58674.491485892715, -22464.48665433963, -29799.099838626367, -187500.02235174447, -52311.03924644462, -29623.325720229834, -29958.51248008162, -62207.58702845419, -79575.5853743059, -16624.020531656806, -187500.02235174447, -52481.42659442742, -38725.38074557552, 0.014, 1.014, 0.076, 192.0, 0.0, 0.0, 0.0, 0.0, 0.0, 0.0, 0.0, 0.0, 0.0, 1.695336929485199E9, 0.0, 2023-09-21 17:55:29.485
130.0, 36608.804656124674, 22826.42845230442, -66668.50348335547, -58703.66051240689, -22465.87246249586, -29827.866533740347, -187500.02235174447, -52344.768028827675, -29661.81542418187, -29976.326820412498, -62253.89984296559, -79612.13047649032, -16576.6124816671, -187500.02235174447, -52438.53359681769, -38696.77051267272, 0.014, 1.014, 0.076, 192.0, 0.0, 0.0, 0.0, 0.0, 0.0, 0.0, 0.0, 0.0, 0.0, 1.695336929485202E9, 0.0, 2023-09-21 17:55:29.485
132.0, 36514.74851545674, 22828.66362674995, -66633.05361664935, -58666.176636955344, -22469.985183475637, -29796.194111847177, -187500.02235174447, -52310.502804577685, -29623.549237674386, -29960.54648882705, -62209.799851155265, -79576.72531327311, -16610.162450094514, -187500.02235174447, -52472.77646932322, -38715.81419894865, 0.018000000000000002, 1.01, 0.076, 192.0, 0.0, 72.0, 15.5, 72.0, 1.0, 48.0, 0.0, 0.0, 0.0, 1.695336929485206E9, 0.0, 2023-09-21 17:55:29.485
134.0, 36605.809522367665, 22788.27402451921, -66681.64630909519, -58713.69644566732, -22467.34767762991, -29850.933534018226, -187500.02235174447, -52365.398688959925, -29657.00979912398, -29967.676695308295, -62251.01646793085, -79607.21309271015, -16590.872894629585, -187500.02235174447, -52439.89705322946, -38701.263213308244, 0.018000000000000002, 1.01, 0.076, 192.0, 0.0, 0.0, 0.0, 0.0, 0.0, 0.0, 0.0, 0.0, 0.0, 1.6953369295455E9, 0.0, 2023-09-21 17:55:29.545
136.0, 36516.111971868515, 22779.51214069273, -66657.50642508345, -58682.98514878573, -22494.192122720735, -29813.069678910935, -187500.02235174447, -52325.120845451456, -29649.633723453728, -29976.684448323784, -62236.443130545995, -79599.5911478509, -16599.880647645074, -187500.02235174447, -52474.318739690636, -38709.10867561206, 0.018000000000000002, 1.01, 0.076, 192.0, 0.0, 0.0, 0.0, 0.0, 0.0, 0.0, 0.0, 0.0, 0.0, 1.695336929545513E9, 0.0, 2023-09-21 17:55:29.545
138.0, 36595.34890596258, 22778.75218138125, -66673.95730900257, -58698.4525559488, -22462.095017682914, -29825.765469761547, -187500.02235174447, -52341.21410145928, -29647.778528663937, -29963.295753395054, -62240.488796292404, -79596.66306932725, -16612.263514073315, -187500.02235174447, -52453.77748653621, -38704.75008544327, 0.018000000000000002, 1.01, 0.076, 192.0, 0.0, 0.0, 0.0, 0.0, 0.0, 0.0, 0.0, 0.0, 0.0, 1.695336929545517E9, 0.0, 2023-09-21 17:55:29.545
140.0, 36508.333564798064, 22795.158361811446, -66640.94378244207, -58659.96285199677, -22490.437029652243, -29785.152350086257, -187500.02235174447, -52302.612638784965, -29645.409243751677, -29968.50370985314, -62236.21961310144, -79597.42302863873, -16598.67365344449, -187500.02235174447, -52470.78716406669, -38699.27390805172, 0.018000000000000002, 1.01, 0.076, 192.0, 0.0, 0.0, 0.0, 0.0, 0.0, 0.0, 0.0, 0.0, 0.0, 1.695336929545521E9, 0.0, 2023-09-21 17:55:29.545
142.0, 36582.161376733944, 22807.76474568424, -66671.11863745673, -58694.60805590249, -22455.277735624044, -29835.71199604416, -187500.02235174447, -52349.03721201864, -29626.253798753478, -29931.466869290696, -62219.05347335977, -79573.17138590472, -16637.990371941374, -187500.02235174447, -52448.14484693347, -38708.0357918782, 0.02, 1.016, 0.07, 192.0, 0.0, 80.0, 15.5, 96.0, 1.0, 24.0, 0.0, 0.0, 0.0, 1.695336929545525E9, 0.0, 2023-09-21 17:55:29.545
144.0, 36509.808779932115, 22817.331292311108, -66645.97292494452, -58658.26411941816, -22493.25334945361, -29783.878300652304, -187500.02235174447, -52298.276400360635, -29646.72799667454, -29962.960477228222, -62233.49270027789, -79588.03529596751, -16593.84567664214, -187500.02235174447, -52458.918387760925, -38691.49550098128, 0.02, 1.016, 0.07, 192.0, 0.0, 0.0, 0.0, 0.0, 0.0, 0.0, 0.0, 0.0, 0.0, 1.695336929545528E9, 0.0, 2023-09-21 17:55:29.545
146.0, 36570.87374578402, 22832.552830285174, -66662.15558793016, -58681.197009229305, -22452.796691989504, -29809.538103286995, -187500.02235174447, -52318.79530177061, -29622.56576091835, -29932.383290813363, -62213.33142677921, -79563.76130148904, -16646.215813900926, -187500.02235174447, -52458.80662903865, -38704.57127148763, 0.02, 1.016, 0.07, 192.0, 0.0, 0.0, 0.0, 0.0, 0.0, 0.0, 0.0, 0.0, 0.0, 1.695336929545532E9, 0.0, 2023-09-21 17:55:29.545
148.0, 36512.64745147794, 22819.789984201194, -66656.6794105386, -58667.629500344934, -22494.661509354297, -29797.244643836577, -187500.02235174447, -52311.21806040026, -29645.25278154049, -29958.69129403726, -62234.36441831165, -79589.55521459047, -16581.932196847465, -187500.02235174447, -52454.91742550343, -38677.74917814126, 0.02, 1.016, 0.07, 192.0, 0.0, 0.0, 0.0, 0.0, 0.0, 0.0, 0.0, 0.0, 0.0, 1.695336929545535E9, 0.0, 2023-09-21 17:55:29.545
150.0, 36560.368425890025, 22805.484867749798, -66688.28477719841, -58707.75088164221, -22466.96769797417, -29849.27950492853, -187500.02235174447, -52361.7106511248, -29640.178935549135, -29951.2705148781, -62231.972781654935, -79585.53190058851, -16650.64145930308, -187500.02235174447, -52466.00389075326, -38703.47603600932, 0.02, 1.016, 0.07, 192.0, 0.0, 0.0, 0.0, 0.0, 0.0, 0.0, 0.0, 0.0, 0.0, 1.695336929605728E9, 0.0, 2023-09-21 17:55:29.605
152.0, 36525.09737313955, 22808.211780573343, -66673.17499794663, -58681.57698888505, -22508.005500794116, -29818.434097580208, -187500.02235174447, -52329.032400731136, -29670.130273119245, -29986.36275367293, -62260.0465726908, -79616.93610154821, -16568.05176354072, -187500.02235174447, -52460.37125115052, -38673.97173332831, 0.014, 1.008, 0.07, 192.0, 0.0, 56.0, 15.5, 64.0, 1.0, 24.0, 0.0, 0.0, 0.0, 1.69533692960574E9, 0.0, 2023-09-21 17:55:29.605
154.0, 36547.96320771733, 22814.984359143302, -66672.48209386852, -58690.33887271153, -22462.765570016574, -29822.680929026716, -187500.02235174447, -52332.809845544085, -29634.590999435306, -29956.992561458657, -62224.66376121805, -79578.82637725191, -16647.020476701317, -187500.02235174447, -52479.07966125962, -38707.767570944736, 0.014, 1.008, 0.07, 192.0, 0.0, 0.0, 0.0, 0.0, 0.0, 0.0, 0.0, 0.0, 0.0, 1.695336929605745E9, 0.0, 2023-09-21 17:55:29.605
156.0, 36534.26158836622, 22805.864847405537, -66673.37616364672, -58683.722756352756, -22498.014271022592, -29811.773277732525, -187500.02235174447, -52327.132502452434, -29651.3995112657, -29965.732093540682, -62241.829900959725, -79595.41137163775, -16558.99930703632, -187500.02235174447, -52451.00587022375, -38675.75987288474, 0.014, 1.008, 0.07, 192.0, 0.0, 0.0, 0.0, 0.0, 0.0, 0.0, 0.0, 0.0, 0.0, 1.695336929605748E9, 0.0, 2023-09-21 17:55:29.605
158.0, 36541.03416693618, 22790.375088498007, -66684.55203587438, -58707.39325373093, -22474.991974233624, -29841.791670536004, -187500.02235174447, -52357.84379933403, -29654.81932816736, -29972.571727344006, -62243.37217132714, -79599.05470598397, -16634.99523818436, -187500.02235174447, -52477.76090833675, -38709.153379100964, 0.014, 1.008, 0.07, 192.0, 0.0, 0.0, 0.0, 0.0, 0.0, 0.0, 0.0, 0.0, 0.0, 1.695336929605752E9, 0.0, 2023-09-21 17:55:29.605
160.0, 36553.1264606865, 22785.681222162395, -66688.50829464296, -58701.112413538984, -22511.894704329337, -29834.750871032582, -187500.02235174447, -52349.104267252005, -29677.573404022864, -29995.057582266043, -62265.455694848984, -79621.78643009502, -16532.132510201038, -187500.02235174447, -52450.7823527792, -38673.90467809495, 0.014, 1.008, 0.07, 192.0, 0.0, 0.0, 0.0, 0.0, 0.0, 0.0, 0.0, 0.0, 0.0, 1.695336929605755E9, 0.0, 2023-09-21 17:55:29.605
162.0, 36530.305329597635, 22787.581120441097, -66680.86399803925, -58701.894724594924, -22487.97833776216, -29836.80723152247, -187500.02235174447, -52344.67862184985, -29652.494746744007, -29983.99346876067, -62237.44895904648, -79598.29474667249, -16619.505479276835, -187500.02235174447, -52489.45087068688, -38711.27679482422, 0.012, 1.008, 0.07, 192.0, 0.0, 48.0, 15.5, 64.0, 1.0, 24.0, 0.0, 0.0, 0.0, 1.695336929605759E9, 0.0, 2023-09-21 17:55:29.605
164.0, 36554.624027565005, 22800.589835714083, -66675.32076541433, -58694.38453845794, -22505.97149204868, -29837.075452455934, -187500.02235174447, -52358.536703412145, -29675.65115399971, -29995.951652044256, -62258.83957849021, -79619.52890390503, -16534.792367791222, -187500.02235174447, -52458.292538916176, -38677.86093686354, 0.012, 1.008, 0.07, 192.0, 0.0, 0.0, 0.0, 0.0, 0.0, 0.0, 0.0, 0.0, 0.0, 1.69533692966622E9, 0.0, 2023-09-21 17:55:29.666
166.0, 36517.5201317692, 22787.447009974363, -66684.8426085523, -58712.40004448892, -22494.840323309938, -29850.642961340305, -187500.02235174447, -52363.2082180033, -29657.3003718019, -29988.84379730747, -62234.7891014563, -79599.47938912862, -16625.629857257587, -187500.02235174447, -52495.99993181228, -38720.061030395154, 0.012, 1.008, 0.07, 192.0, 0.0, 0.0, 0.0, 0.0, 0.0, 0.0, 0.0, 0.0, 0.0, 1.695336929666236E9, 0.0, 2023-09-21 17:55:29.666
168.0, 36558.267361911225, 22818.873562678524, -66664.2343001645, -58682.26989296316, -22489.475904640665, -29815.126039400824, -187500.02235174447, -52333.94978451131, -29663.625915482753, -29983.009992004634, -62242.29928759328, -79605.26849094254, -16546.28116444125, -187500.02235174447, -52458.940739505386, -38690.44496899188, 0.012, 1.008, 0.07, 192.0, 0.0, 0.0, 0.0, 0.0, 0.0, 0.0, 0.0, 0.0, 0.0, 1.69533692966624E9, 0.0, 2023-09-21 17:55:29.666
170.0, 36494.922518124884, 22828.641275005495, -66649.37039010173, -58671.80927655808, -22470.119293942367, -29807.66055675275, -187500.02235174447, -52318.70589479279, -29613.58035964732, -29945.59317178645, -62187.33634797768, -79552.47367053911, -16631.553069538244, -187500.02235174447, -52484.13115550651, -38726.96771943184, 0.012, 1.008, 0.07, 192.0, 0.0, 0.0, 0.0, 0.0, 0.0, 0.0, 0.0, 0.0, 0.0, 1.695336929666244E9, 0.0, 2023-09-21 17:55:29.666
172.0, 36567.27511492671, 22813.240923075788, -66691.7940010779, -58706.43212871935, -22497.16490473329, -29841.746967047093, -187500.02235174447, -52356.435639433344, -29687.229357627555, -29993.78353283209, -62265.7462675269, -79622.72520336213, -16548.918670286974, -187500.02235174447, -52435.4267043384, -38686.309896267645, 0.006, 1.014, 0.064, 192.0, 0.0, 24.0, 15.5, 88.0, 1.0, 0.0, 0.0, 0.0, 0.0, 1.695336929666247E9, 0.0, 2023-09-21 17:55:29.666
174.0, 36490.675686678376, 22802.22151305932, -66683.25563469596, -58705.13572754094, -22494.527398887563, -29836.58371407792, -187500.02235174447, -52346.62322361746, -29648.896115886702, -29980.93127977029, -62222.942676894985, -79588.01294422304, -16617.180897853483, -187500.02235174447, -52486.45573692986, -38719.65869899496, 0.006, 1.014, 0.064, 192.0, 0.0, 0.0, 0.0, 0.0, 0.0, 0.0, 0.0, 0.0, 0.0, 1.69533692966625E9, 0.0, 2023-09-21 17:55:29.666
176.0, 36555.80867002114, 22830.541173284197, -66666.08949495429, -58686.315558709575, -22471.952136987704, -29818.94818770268, -187500.02235174447, -52335.93908976783, -29672.812482453883, -29989.69316359677, -62251.23998537541, -79612.8457323129, -16566.978879806862, -187500.02235174447, -52455.47621911481, -38694.71415218284, 0.006, 1.014, 0.064, 192.0, 0.0, 0.0, 0.0, 0.0, 0.0, 0.0, 0.0, 0.0, 0.0, 1.695336929666254E9, 0.0, 2023-09-21 17:55:29.666
178.0, 36476.63879116044, 22813.911475409448, -66676.77362880393, -58699.7042536383, -22489.453552896208, -29831.465164597652, -187500.02235174447, -52341.124694481456, -29646.86210714127, -29967.721398797203, -62220.685150705, -79584.70488604366, -16613.783432696277, -187500.02235174447, -52474.56460887964, -38718.16113211645, 0.006, 1.014, 0.064, 192.0, 0.0, 0.0, 0.0, 0.0, 0.0, 0.0, 0.0, 0.0, 0.0, 1.695336929666257E9, 0.0, 2023-09-21 17:55:29.666
180.0, 36561.88834451298, 22813.0844608646, -66703.21574249456, -58720.60313470401, -22487.12897147286, -29850.33003691793, -187500.02235174447, -52357.419116189376, -29687.519930305476, -29993.627070620903, -62269.12138093965, -79623.23929348461, -16575.293728744236, -187500.02235174447, -52447.36253587753, -38696.09996033907, 0.006, 1.014, 0.064, 192.0, 0.0, 0.0, 0.0, 0.0, 0.0, 0.0, 0.0, 0.0, 0.0, 1.695336929725949E9, 0.0, 2023-09-21 17:55:29.725
182.0, 36470.112081779494, 22820.08055687911, -66673.57732934682, -58689.19893374431, -22497.075497755468, -29817.85295222437, -187500.02235174447, -52330.50761586519, -29651.712435688074, -29983.36761991592, -62228.73177870891, -79589.62226982383, -16598.204266810928, -187500.02235174447, -52481.091318260595, -38711.16503610194, 0.01, 1.018, 0.066, 192.0, 0.0, 40.0, 15.5, 104.0, 1.0, 8.0, 0.0, 0.0, 0.0, 1.695336929725966E9, 0.0, 2023-09-21 17:55:29.725
184.0, 36560.72605380131, 22822.94158016939, -66698.0971930143, -58712.26593402219, -22486.726640072662, -29847.781938050026, -187500.02235174447, -52357.061488278094, -29683.094284903324, -29998.857378823446, -62268.115552439165, -79622.74755510659, -16589.55414170672, -187500.02235174447, -52454.00100398076, -38697.9328033844, 0.01, 1.018, 0.066, 192.0, 0.0, 0.0, 0.0, 0.0, 0.0, 0.0, 0.0, 0.0, 0.0, 1.69533692972597E9, 0.0, 2023-09-21 17:55:29.725
186.0, 36474.47067194828, 22823.3886150585, -66679.3887829052, -58688.72954711074, -22503.93748330325, -29825.318434872443, -187500.02235174447, -52337.48136013524, -29644.24695304, -29984.261689694133, -62226.76482519684, -79589.35404889037, -16594.583284209166, -187500.02235174447, -52478.69968160387, -38707.40994303345, 0.01, 1.018, 0.066, 192.0, 0.0, 0.0, 0.0, 0.0, 0.0, 0.0, 0.0, 0.0, 0.0, 1.695336929725974E9, 0.0, 2023-09-21 17:55:29.725
188.0, 36560.14490844547, 22810.312844552143, -66713.56460017737, -58728.247431307725, -22490.12410522987, -29866.557403392486, -187500.02235174447, -52373.110040797, -29674.57827026585, -29994.141160743377, -62264.22634890394, -79619.37244169383, -16603.680444202477, -187500.02235174447, -52460.6841755729, -38702.604317975565, 0.01, 1.018, 0.066, 192.0, 0.0, 0.0, 0.0, 0.0, 0.0, 0.0, 0.0, 0.0, 0.0, 1.695336929725977E9, 0.0, 2023-09-21 17:55:29.725
190.0, 36476.258811504704, 22819.70057722337, -66671.69978281257, -58680.52645689565, -22512.811125852004, -29825.09491742789, -187500.02235174447, -52334.03919148913, -29656.33924679032, -29996.957480544745, -62241.539328281804, -79604.57558686443, -16582.915673603497, -187500.02235174447, -52478.40910892595, -38703.67720170942, 0.01, 1.018, 0.066, 192.0, 0.0, 0.0, 0.0, 0.0, 0.0, 0.0, 0.0, 0.0, 0.0, 1.695336929725981E9, 0.0, 2023-09-21 17:55:29.725
192.0, 36549.43842285137, 22826.115527882044, -66688.12831498722, -58702.05118680611, -22474.433180622244, -29851.648789840794, -187500.02235174447, -52357.79909584512, -29646.72799667454, -29972.057637221533, -62235.236136345404, -79592.08096171392, -16625.741615979867, -187500.02235174447, -52464.39456515248, -38717.0882483826, 0.018000000000000002, 1.014, 0.062, 192.0, 0.0, 72.0, 15.5, 88.0, 0.5, 120.0, 0.0, 0.0, 0.0, 1.695336929725984E9, 0.0, 2023-09-21 17:55:29.725
194.0, 36493.20143380183, 22808.390594528984, -66694.11858250125, -58699.63719840493, -22519.270779999588, -29839.780013535026, -187500.02235174447, -52353.32874695406, -29658.57442123585, -29988.08383799599, -62243.573337027236, -79601.71456357415, -16582.401583481023, -187500.02235174447, -52465.04276574168, -38701.129102841514, 0.018000000000000002, 1.014, 0.062, 192.0, 0.0, 0.0, 0.0, 0.0, 0.0, 0.0, 0.0, 0.0, 0.0, 1.695336929725988E9, 0.0, 2023-09-21 17:55:29.725
196.0, 36553.08175719759, 22810.491658507784, -66711.93292283213, -58719.19497480333, -22497.16490473329, -29868.278487715543, -187500.02235174447, -52374.5629041866, -29676.522872033463, -29996.51044565564, -62262.572319814244, -79615.796162581, -16635.688142262476, -187500.02235174447, -52473.3352629346, -38718.608167005565, 0.018000000000000002, 1.014, 0.062, 192.0, 0.0, 0.0, 0.0, 0.0, 0.0, 0.0, 0.0, 0.0, 0.0, 1.69533692978624E9, 0.0, 2023-09-21 17:55:29.786
198.0, 36494.855462891515, 22833.22338261883, -66659.24986115097, -58660.76751479716, -22506.35147170442, -29813.00262367757, -187500.02235174447, -52321.477511105244, -29651.01953160996, -29977.869090779914, -62230.83284268771, -79588.34822038987, -16581.015775324795, -187500.02235174447, -52471.07773674461, -38704.16894008743, 0.018000000000000002, 1.014, 0.062, 192.0, 0.0, 0.0, 0.0, 0.0, 0.0, 0.0, 0.0, 0.0, 0.0, 1.695336929786252E9, 0.0, 2023-09-21 17:55:29.786
200.0, 36541.86118148103, 22817.219533588832, -66698.43246918112, -58708.93552409834, -22476.333078900945, -29860.947115534203, -187500.02235174447, -52358.22377898977, -29638.793127392906, -29960.524137082593, -62218.5840867262, -79572.92551671571, -16653.52483433781, -187500.02235174447, -52467.09912623157, -38724.2408066083, 0.018000000000000002, 1.014, 0.062, 192.0, 0.0, 0.0, 0.0, 0.0, 0.0, 0.0, 0.0, 0.0, 0.0, 1.695336929786256E9, 0.0, 2023-09-21 17:55:29.786
202.0, 36513.89914916744, 22830.85409770657, -66668.05644846636, -58668.56827361206, -22511.090041528947, -29819.127001658322, -187500.02235174447, -52331.334630410034, -29676.947555178114, -29997.292756711577, -62251.30704060877, -79608.285976444, -16561.122722759574, -187500.02235174447, -52456.79497203767, -38685.66169567844, 0.014, 1.012, 0.062, 192.0, 0.0, 56.0, 15.5, 80.0, 0.5, 120.0, 0.0, 0.0, 0.0, 1.695336929786267E9, 0.0, 2023-09-21 17:55:29.786
204.0, 36532.07111740961, 22819.007673145257, -66696.01848077995, -58704.46517520728, -22483.038602237535, -29853.705150330683, -187500.02235174447, -52358.58140690105, -29643.1964210506, -29959.987695215666, -62216.14774658057, -79569.50569981405, -16646.551090067755, -187500.02235174447, -52471.90475128946, -38720.0386786507, 0.014, 1.012, 0.062, 192.0, 0.0, 0.0, 0.0, 0.0, 0.0, 0.0, 0.0, 0.0, 0.0, 1.695336929786271E9, 0.0, 2023-09-21 17:55:29.786
206.0, 36526.259663851226, 22821.444013290886, -66689.15649523216, -58690.80825934509, -22525.46221321371, -29829.878190741325, -187500.02235174447, -52345.57269162806, -29683.854244214803, -29990.430771163796, -62261.70060178049, -79614.43270616922, -16554.908937800996, -187500.02235174447, -52457.733745304795, -38682.1301200545, 0.014, 1.012, 0.062, 192.0, 0.0, 0.0, 0.0, 0.0, 0.0, 0.0, 0.0, 0.0, 0.0, 1.695336929786275E9, 0.0, 2023-09-21 17:55:29.786
208.0, 36518.79418120315, 22813.37503354252, -66676.50540787047, -58689.71302386678, -22482.949195259716, -29829.9899494636, -187500.02235174447, -52334.82150254506, -29641.564743705363, -29972.705837810736, -62219.589915226694, -79577.06058943995, -16648.227470901904, -187500.02235174447, -52491.12725152102, -38721.13391412901, 0.014, 1.012, 0.062, 192.0, 0.0, 0.0, 0.0, 0.0, 0.0, 0.0, 0.0, 0.0, 0.0, 1.69533692978628E9, 0.0, 2023-09-21 17:55:29.786
210.0, 36526.41612606241, 22831.79287097369, -66649.61625929073, -58661.08043921953, -22495.153247732313, -29799.70333572666, -187500.02235174447, -52306.188917897816, -29657.16626133517, -29979.679582080793, -62240.08646489221, -79598.16063620575, -16557.434684924447, -187500.02235174447, -52452.74930629126, -38685.77345440072, 0.014, 1.012, 0.062, 192.0, 0.0, 0.0, 0.0, 0.0, 0.0, 0.0, 0.0, 0.0, 0.0, 1.695336929846426E9, 0.0, 2023-09-21 17:55:29.846
212.0, 36506.120742096995, 22796.0300798452, -66678.87469278273, -58706.96857058628, -22487.5089511286, -29854.129833475334, -187500.02235174447, -52352.88171206495, -29622.498705684986, -29956.83609924747, -62211.967970367434, -79572.74670276007, -16643.846528988663, -187500.02235174447, -52475.88336180251, -38725.76072523126, 0.014, 1.016, 0.07, 192.0, 0.0, 56.0, 15.5, 96.0, 1.0, 24.0, 0.0, 0.0, 0.0, 1.695336929846443E9, 0.0, 2023-09-21 17:55:29.846
214.0, 36542.107050670034, 22804.41198401594, -66654.1313116707, -58678.961834783775, -22501.411736179798, -29831.822792508938, -187500.02235174447, -52339.42596190285, -29671.337267319832, -30000.332593957497, -62263.04170644781, -79624.20041849618, -16550.304478443202, -187500.02235174447, -52453.50926560274, -38687.360428257045, 0.014, 1.016, 0.07, 192.0, 0.0, 0.0, 0.0, 0.0, 0.0, 0.0, 0.0, 0.0, 0.0, 1.695336929846448E9, 0.0, 2023-09-21 17:55:29.846
216.0, 36507.28303280867, 22781.2779285047, -66668.32466939982, -58703.86167810699, -22499.84711406793, -29852.60991485237, -187500.02235174447, -52352.948767298316, -29651.01953160996, -29986.563919373028, -62242.232232359915, -79604.35206941988, -16638.035075430285, -187500.02235174447, -52493.138908522, -38724.57608277513, 0.014, 1.016, 0.07, 192.0, 0.0, 0.0, 0.0, 0.0, 0.0, 0.0, 0.0, 0.0, 0.0, 1.695336929846451E9, 0.0, 2023-09-21 17:55:29.846
218.0, 36568.884440527494, 22792.856132132547, -66661.61914606323, -58692.127012267956, -22510.88887582885, -29835.95786523317, -187500.02235174447, -52344.70097359431, -29684.54714829292, -30005.406439948852, -62286.57809335925, -79644.0040640836, -16557.479388413358, -187500.02235174447, -52461.75705930675, -38687.40513174595, 0.014, 1.016, 0.07, 192.0, 0.0, 0.0, 0.0, 0.0, 0.0, 0.0, 0.0, 0.0, 0.0, 1.695336929846454E9, 0.0, 2023-09-21 17:55:29.846
220.0, 36507.32773629758, 22776.0252685577, -66655.8300442493, -58695.85975359199, -22501.478791413163, -29846.597295593896, -187500.02235174447, -52349.59600563002, -29631.126479044735, -29972.303506410542, -62233.49270027789, -79595.45607512667, -16636.313991107225, -187500.02235174447, -52497.05046380168, -38724.57608277513, 0.014, 1.016, 0.07, 192.0, 0.0, 0.0, 0.0, 0.0, 0.0, 0.0, 0.0, 0.0, 0.0, 1.695336929846458E9, 0.0, 2023-09-21 17:55:29.846
222.0, 36589.26923147073, 22751.03601825667, -66675.11959971423, -58710.634256676945, -22510.97828280667, -29859.918935289257, -187500.02235174447, -52364.057584292605, -29688.39164833923, -30011.799038863068, -62296.25639870839, -79653.66001768828, -16563.67082162748, -187500.02235174447, -52461.9805767513, -38689.05916083565, 0.01, 1.014, 0.068, 192.0, 0.0, 40.0, 15.5, 88.0, 1.0, 16.0, 0.0, 0.0, 0.0, 1.695336929846462E9, 0.0, 2023-09-21 17:55:29.846
224.0, 36518.54831201414, 22752.93591653537, -66647.67165752313, -58681.42052667386, -22507.89374207184, -29831.576923319928, -187500.02235174447, -52333.03336298864, -29649.656075198185, -29991.16837873082, -62253.58691854322, -79614.36565093586, -16618.298485076248, -187500.02235174447, -52502.280772004226, -38716.90943442696, 0.01, 1.014, 0.068, 192.0, 0.0, 0.0, 0.0, 0.0, 0.0, 0.0, 0.0, 0.0, 0.0, 1.695336929846465E9, 0.0, 2023-09-21 17:55:29.846
226.0, 36603.2390717553, 22764.670582374405, -66652.41022734765, -58684.773288342156, -22492.44868665322, -29842.685740314217, -187500.02235174447, -52348.52312189616, -29657.993275880013, -29978.919622769314, -62265.031011704334, -79618.03133702652, -16569.124647274573, -187500.02235174447, -52459.09720171657, -38696.88227139501, 0.01, 1.014, 0.068, 192.0, 0.0, 0.0, 0.0, 0.0, 0.0, 0.0, 0.0, 0.0, 0.0, 1.695336929906818E9, 0.0, 2023-09-21 17:55:29.906
228.0, 36522.92925392738, 22760.714323605815, -66638.39568357417, -58674.82676205954, -22508.229018238668, -29833.879152998827, -187500.02235174447, -52326.28313616313, -29634.3451302463, -29973.84577677796, -62236.42077880154, -79594.40554313727, -16603.076947102185, -187500.02235174447, -52485.31579796265, -38718.69757398338, 0.01, 1.014, 0.068, 192.0, 0.0, 0.0, 0.0, 0.0, 0.0, 0.0, 0.0, 0.0, 0.0, 1.695336929906828E9, 0.0, 2023-09-21 17:55:29.906
230.0, 36621.612205697566, 22755.93105029238, -66674.5384543584, -58709.36020724299, -22509.234846739157, -29864.277525458045, -187500.02235174447, -52363.923473825875, -29678.020438911968, -29999.61733813493, -62284.4993811249, -79634.16929652325, -16567.492969929335, -187500.02235174447, -52456.973785993316, -38699.47507375182, 0.01, 1.014, 0.068, 192.0, 0.0, 0.0, 0.0, 0.0, 0.0, 0.0, 0.0, 0.0, 0.0, 1.695336929906832E9, 0.0, 2023-09-21 17:55:29.906
232.0, 36541.88353322548, 22762.36835269551, -66649.34803835726, -58678.13482023893, -22530.69252141625, -29833.677987298728, -187500.02235174447, -52336.96727001277, -29666.844566684314, -30008.066297539033, -62266.68504079402, -79621.49585741709, -16571.33746997565, -187500.02235174447, -52493.049501544185, -38707.47699826682, 0.01, 1.014, 0.076, 192.0, 0.0, 40.0, 15.5, 88.0, 1.0, 48.0, 0.0, 0.0, 0.0, 1.695336929906836E9, 0.0, 2023-09-21 17:55:29.906
234.0, 36627.893045889505, 22776.382896468986, -66659.65219255116, -58693.17754425735, -22490.54878837452, -29857.10261548789, -187500.02235174447, -52358.98373830125, -29658.797938680404, -29985.80396006155, -62260.65006979109, -79609.22474971114, -16568.85642634111, -187500.02235174447, -52465.66861458643, -38704.75008544327, 0.01, 1.014, 0.076, 192.0, 0.0, 0.0, 0.0, 0.0, 0.0, 0.0, 0.0, 0.0, 0.0, 1.69533692990684E9, 0.0, 2023-09-21 17:55:29.906
236.0, 36554.378158376, 22765.899928319446, -66659.1828059176, -58691.76938435667, -22531.474832472188, -29847.983103750124, -187500.02235174447, -52349.90893005239, -29656.763929934972, -29995.75048634416, -62249.83182547472, -79605.42495315374, -16550.863272054587, -187500.02235174447, -52476.0845275026, -38704.92889939891, 0.01, 1.014, 0.076, 192.0, 0.0, 0.0, 0.0, 0.0, 0.0, 0.0, 0.0, 0.0, 0.0, 1.695336929906844E9, 0.0, 2023-09-21 17:55:29.906
238.0, 36646.89202867651, 22758.568556138107, -66702.81341109436, -58729.00739061921, -22527.518573703597, -29886.606918168894, -187500.02235174447, -52390.767918916696, -29716.219570186087, -30036.855344397467, -62312.75198611641, -79659.98556136913, -16556.920594801973, -187500.02235174447, -52472.37413792302, -38697.39636151747, 0.01, 1.014, 0.076, 192.0, 0.0, 0.0, 0.0, 0.0, 0.0, 0.0, 0.0, 0.0, 0.0, 1.695336929906848E9, 0.0, 2023-09-21 17:55:29.906
240.0, 36563.922353258415, 22798.26525429073, -66641.52492779792, -58658.73350605172, -22527.65268417033, -29816.891827212792, -187500.02235174447, -52322.72920879474, -29674.801787710407, -30013.855399352957, -62265.455694848984, -79621.27233997254, -16533.160690445984, -187500.02235174447, -52492.91539107745, -38694.71415218284, 0.01, 1.014, 0.076, 192.0, 0.0, 0.0, 0.0, 0.0, 0.0, 0.0, 0.0, 0.0, 0.0, 1.695336929967064E9, 0.0, 2023-09-21 17:55:29.967
242.0, 36634.97854888184, 22787.379954740998, -66687.61422486475, -58711.30480901061, -22495.13089598786, -29876.593336652917, -187500.02235174447, -52376.12752629847, -29660.742540448016, -29982.853529793447, -62254.43628483252, -79603.74857231959, -16582.736859647855, -187500.02235174447, -52473.78229782371, -38712.34967855808, 0.01, 1.018, 0.078, 192.0, 0.0, 40.0, 15.5, 104.0, 1.0, 56.0, 0.0, 0.0, 0.0, 1.695336929967078E9, 0.0, 2023-09-21 17:55:29.967
244.0, 36575.34409467508, 22800.94746362537, -66648.69983776806, -58662.6450613314, -22525.819841124994, -29828.648844796284, -187500.02235174447, -52332.63103158844, -29673.21481385408, -30002.8806928254, -62259.35366861268, -79611.54933113449, -16533.8535945241, -187500.02235174447, -52479.973731037826, -38697.17284407292, 0.01, 1.018, 0.078, 192.0, 0.0, 0.0, 0.0, 0.0, 0.0, 0.0, 0.0, 0.0, 0.0, 1.695336929967082E9, 0.0, 2023-09-21 17:55:29.967
246.0, 36638.10779310558, 22774.304184234643, -66698.41011743667, -58716.37865500196, -22507.46905892719, -29884.48350244564, -187500.02235174447, -52384.12945081347, -29679.674468001664, -29996.979832289202, -62268.540235583816, -79612.06342125696, -16600.148868578537, -187500.02235174447, -52477.89501880348, -38715.00953614826, 0.01, 1.018, 0.078, 192.0, 0.0, 0.0, 0.0, 0.0, 0.0, 0.0, 0.0, 0.0, 0.0, 1.695336929967085E9, 0.0, 2023-09-21 17:55:29.967
248.0, 36586.43055992491, 22805.32840553861, -66639.78149173039, -58648.138779179906, -22523.562314935007, -29816.60125453487, -187500.02235174447, -52325.679639062844, -29690.000973940012, -30012.17901851881, -62271.62477631865, -79619.68536611622, -16529.673818310956, -187500.02235174447, -52476.66567285844, -38688.388608501984, 0.01, 1.018, 0.078, 192.0, 0.0, 0.0, 0.0, 0.0, 0.0, 0.0, 0.0, 0.0, 0.0, 1.695336929967089E9, 0.0, 2023-09-21 17:55:29.967
