%OpenBCI Raw EXG Data
%Number of channels = 16
%Sample Rate = 125 Hz
%Board = OpenBCI_GUI$BoardCytonSerialDaisy
Sample Index, EXG Channel 0, EXG Channel 1, EXG Channel 2, EXG Channel 3, EXG Channel 4, EXG Channel 5, EXG Channel 6, EXG Channel 7, EXG Channel 8, EXG Channel 9, EXG Channel 10, EXG Channel 11, EXG Channel 12, EXG Channel 13, EXG Channel 14, EXG Channel 15, Accel Channel 0, Accel Channel 1, Accel Channel 2, Other, Other, Other, Other, Other, Other, Other, Analog Channel 0, Analog Channel 1, Analog Channel 2, Timestamp, Other, Timestamp (Formatted)
208.0, 25574.39661912878, 16096.273493322551, -5859.621567681023, -13965.302880442487, 12691.633426145725, -13549.2475091514, -187500.02235174447, 33312.995232700734, -24860.191328548353, 23503.88747500032, 1322.3068502315105, 1220.5617094709528, 15439.445130758899, -2874.9484270749604, -121019.85466716942, -16367.690726243345, 0.0, 0.0, 0.0, 192.0, 0.0, 0.0, 0.0, 0.0, 0.0, 0.0, 0.0, 0.0, 0.0, 1.696023425745652E9, 0.0, 2023-09-29 16:37:05.745
210.0, 26032.070938595647, 16594.13624932006, -6013.9380114004625, -14115.730120626704, 12736.649839478712, -13666.258891374933, -187500.02235174447, 33656.72035893445, -24780.596766543003, 23362.46798783159, 1360.9753681391917, 1222.9309943832154, 15533.16599526, -2813.838757734151, -121339.41755764694, -16318.22631576375, 0.0, 0.0, 0.0, 192.0, 0.0, 0.0, 0.0, 0.0, 0.0, 0.0, 0.0, 0.0, 0.0, 1.696023425745661E9, 0.0, 2023-09-29 16:37:05.745
212.0, 25626.11855579836, 16152.421075394283, -5875.804230666666, -13984.592435907416, 12666.84534154479, -13563.910253514083, -187500.02235174447, 33352.781337831184, -24872.149511831944, 23564.170129796283, 1346.580844709974, 1245.8638841943603, 15434.1924708119, -2890.4828894713987, -121024.41442303831, -16396.72564229079, 0.0, 0.0, 0.0, 192.0, 0.0, 0.0, 0.0, 0.0, 0.0, 0.0, 0.0, 0.0, 0.0, 1.696023425745664E9, 0.0, 2023-09-29 16:37:05.745
214.0, 25971.631821588497, 16523.683550796934, -5998.001217603829, -14095.367681427919, 12753.950089687121, -13648.086923132769, -187500.02235174447, 33601.17627396301, -24766.492815791706, 23281.197044992095, 1330.9569753357143, 1174.2265432151012, 15531.891945826048, -2805.0098186743044, -121437.04997742773, -16313.241876750217, 0.17, 1.006, -0.14, 192.0, 2.5, 40.0, 15.5, 56.0, 125.5, 80.0, 0.0, 0.0, 0.0, 1.696023425745668E9, 0.0, 2023-09-29 16:37:05.745
216.0, 25687.205873394716, 16229.26637283163, -5877.748832434277, -13978.892741071313, 12659.849245530278, -13566.3018901708, -187500.02235174447, 33403.117466344534, -24894.03186965369, 23623.983397958684, 1381.4048625713424, 1291.0814632274466, 15432.67255218894, -2882.9727033344157, -121067.5756415815, -16397.99969172474, 0.17, 1.006, -0.14, 192.0, 0.0, 0.0, 0.0, 0.0, 0.0, 0.0, 0.0, 0.0, 0.0, 1.696023425745671E9, 0.0, 2023-09-29 16:37:05.745
218.0, 25902.252006799223, 16441.898517834965, -5965.188856743438, -14065.125771179888, 12760.56620604589, -13617.956771607016, -187500.02235174447, 33543.24055233486, -24769.04091465961, 23242.372064873227, 1307.5323471465526, 1155.2946156614562, 15534.529451671775, -2785.7426149538296, -121523.90885638105, -16291.627739861935, 0.17, 1.006, -0.14, 192.0, 0.0, 0.0, 0.0, 0.0, 0.0, 0.0, 0.0, 0.0, 0.0, 1.696023425745674E9, 0.0, 2023-09-29 16:37:05.745
220.0, 25756.38452248389, 16306.491649924714, -5865.231855539305, -13968.208607221677, 12670.242806701996, -13559.126980200646, -187500.02235174447, 33446.43514709892, -24870.361372275518, 23660.081465254007, 1422.8449967914817, 1331.2922515025439, 15461.483950791831, -2873.1379357740802, -121134.1391365694, -16386.980281708275, 0.17, 1.006, -0.14, 192.0, 0.0, 0.0, 0.0, 0.0, 0.0, 0.0, 0.0, 0.0, 0.0, 1.696023425745677E9, 0.0, 2023-09-29 16:37:05.745
222.0, 25828.938284985816, 16360.918147673387, -5946.7263158233545, -14048.786645983058, 12770.088049183852, -13614.156975049613, -187500.02235174447, 33487.38354294104, -24750.75718769517, 23208.59857900126, 1298.1222627308682, 1147.270339402001, 15551.159149546524, -2776.2431235603244, -121625.13990701914, -16263.442190103793, 0.17, 1.006, -0.14, 192.0, 0.0, 0.0, 0.0, 0.0, 0.0, 0.0, 0.0, 0.0, 0.0, 1.696023425745681E9, 0.0, 2023-09-29 16:37:05.745
224.0, 25829.787651275117, 16396.636235312966, -5897.172498365939, -14002.29501751602, 12642.101960432765, -13587.40193693661, -187500.02235174447, 33509.511769951794, -24889.986203907276, 23690.859817368964, 1443.1403807569004, 1356.8402954149599, 15433.588973711609, -2885.543153946776, -121189.66086979638, -16407.610941840525, 0.168, 1.002, -0.138, 192.0, 2.5, 32.0, 15.5, 40.0, 125.5, 88.0, 0.0, 0.0, 0.0, 1.696023425745684E9, 0.0, 2023-09-29 16:37:05.745
0.0, 12643.353658122262, 7926.017990829706, -3041.9383099005595, -6929.443112545385, 6250.017136337417, -6722.041275744591, -93750.01117587223, 16529.025617721752, -12396.791565035768, 11564.122028842216, 603.0947688930952, 527.0988377450511, 7751.361459655936, -1401.3649703699316, -60806.98201739574, -8134.537414853266, 0.162, 1.0, -0.14, 192.0, 2.5, 8.0, 15.5, 32.0, 125.5, 80.0, 0.0, 0.0, 0.0, 1.69602342588684E9, 0.0, 2023-09-29 16:37:05.886
2.0, 25777.171644827326, 16434.097759020064, -6166.399260330112, -13943.979316232124, 12406.671036085014, -13534.025971177338, -187500.02235174447, 33447.932713977425, -25232.75020512941, 23462.514396013547, 1485.5639917330734, 1281.4031578782985, 15467.675384005952, -2756.6629954174755, -114365.62858410223, -16404.63815982797, 0.162, 1.0, -0.14, 192.0, 0.0, 0.0, 0.0, 0.0, 0.0, 0.0, 0.0, 0.0, 0.0, 1.696023425886851E9, 0.0, 2023-09-29 16:37:05.886
4.0, 25207.51508563937, 15781.002137780446, -6031.126502886594, -13812.97574197957, 12431.012085796845, -13411.784280751262, -187500.02235174447, 33007.089258085405, -25237.08644355374, 23246.84241376429, 1311.6674198707844, 1098.07414985587, 15472.860988719582, -2752.5055709487883, -114385.81220934537, -16360.113484872996, 0.162, 1.0, -0.14, 192.0, 0.0, 0.0, 0.0, 0.0, 0.0, 0.0, 0.0, 0.0, 0.0, 1.696023425886855E9, 0.0, 2023-09-29 16:37:05.886
6.0, 25779.563281484043, 16430.72264560731, -6190.293275152836, -13968.633290366328, 12411.521364631817, -13551.505035341388, -187500.02235174447, 33449.4973360893, -25216.478135165948, 23403.25992146253, 1472.5999799489953, 1252.7035179976842, 15496.330320397654, -2742.000251054794, -114424.70424469761, -16398.469078358303, 0.162, 1.0, -0.14, 192.0, 0.0, 0.0, 0.0, 0.0, 0.0, 0.0, 0.0, 0.0, 0.0, 1.696023425886859E9, 0.0, 2023-09-29 16:37:05.886
8.0, 25223.206010246995, 15800.045824056368, -6046.772724005309, -13824.755111307517, 12398.892629014568, -13430.671504815997, -187500.02235174447, 33024.36715654936, -25286.327336588784, 23291.545902674905, 1320.1834345082564, 1105.5172807594872, 15436.382941768521, -2782.970998641372, -114309.36924330822, -16412.036587242674, 0.16, 1.002, -0.146, 192.0, 2.5, 0.0, 15.5, 40.0, 125.5, 56.0, 0.0, 0.0, 0.0, 1.696023425886863E9, 0.0, 2023-09-29 16:37:05.886
10.0, 25764.27468827661, 16407.47683137379, -6178.871533736174, -13959.692592584204, 12438.164644022543, -13541.15617765858, -187500.02235174447, 33421.512952031255, -25198.552036112793, 23307.750917405003, 1444.1462092573893, 1208.6705814207294, 15507.126212969568, -2727.7845415812185, -114482.68466981467, -16389.930711976376, 0.16, 1.002, -0.146, 192.0, 0.0, 0.0, 0.0, 0.0, 0.0, 0.0, 0.0, 0.0, 0.0, 1.696023425886867E9, 0.0, 2023-09-29 16:37:05.886
12.0, 25252.397388505626, 15840.100150120277, -6039.731924501887, -13819.480099616063, 12390.734242288381, -13428.548089092743, -187500.02235174447, 33039.4992875456, -25281.208787108517, 23367.00539195602, 1358.0249378710912, 1156.2110371841238, 15424.827089885128, -2790.5482400117207, -114270.65602191164, -16417.624523356502, 0.16, 1.002, -0.146, 192.0, 0.0, 0.0, 0.0, 0.0, 0.0, 0.0, 0.0, 0.0, 0.0, 1.69602342588687E9, 0.0, 2023-09-29 16:37:05.886
14.0, 25732.24463847216, 16370.95408093382, -6172.858914477696, -13955.71398207116, 12444.490187703394, -13539.68096252453, -187500.02235174447, 33395.5849284631, -25190.997146486898, 23262.108655227265, 1418.128778711412, 1184.3295317089, 15519.173803230979, -2715.9828205088165, -114535.4347867292, -16376.653775769923, 0.16, 1.002, -0.146, 192.0, 0.0, 0.0, 0.0, 0.0, 0.0, 0.0, 0.0, 0.0, 0.0, 1.696023425886874E9, 0.0, 2023-09-29 16:37:05.886
16.0, 25308.85789499973, 15907.20008697511, -6049.343174617669, -13830.901841032726, 12363.107486141622, -13447.658830602031, -187500.02235174447, 33091.91412829329, -25281.67817374208, 23431.15489854275, 1388.7585864971384, 1191.9961800570704, 15426.81639514165, -2792.31402782369, -114221.81746027678, -16433.717779364324, 0.16, 1.002, -0.146, 192.0, 0.0, 0.0, 0.0, 0.0, 0.0, 0.0, 0.0, 0.0, 0.0, 1.696023425946782E9, 0.0, 2023-09-29 16:37:05.946
18.0, 25689.373992606877, 16316.7511006297, -6153.748172968409, -13928.42250209123, 12449.65344067257, -13513.685883723008, -187500.02235174447, 33364.91833507041, -25193.478190121437, 23193.578206727292, 1380.354330581943, 1142.9341009776713, 15511.171878715979, -2715.424026897434, -114550.09753109189, -16365.120275630985, 0.162, 1.004, -0.138, 192.0, 2.5, 8.0, 15.5, 48.0, 125.5, 88.0, 0.0, 0.0, 0.0, 1.696023425946793E9, 0.0, 2023-09-29 16:37:05.946
20.0, 25363.73142763751, 15973.294195329452, -6022.8563574381305, -13796.815430738383, 12378.485486326872, -13411.22548713988, -187500.02235174447, 33126.000538587636, -25272.223385837482, 23492.376326605838, 1429.863444550448, 1239.1807126022236, 15431.890241133004, -2780.31114105119, -114190.74853548392, -16421.469023402813, 0.162, 1.004, -0.138, 192.0, 0.0, 0.0, 0.0, 0.0, 0.0, 0.0, 0.0, 0.0, 0.0, 1.696023425946797E9, 0.0, 2023-09-29 16:37:05.946
22.0, 25619.658901650775, 16238.78821596959, -6138.593690227711, -13903.589714001384, 12478.688356720015, -13489.52364796682, -187500.02235174447, 33305.50739830821, -25164.040942673797, 23159.15652026612, 1376.50983053563, 1134.6192520402972, 15541.749065130838, -2659.902293670451, -114621.62311334886, -16315.588809918025, 0.162, 1.004, -0.138, 192.0, 0.0, 0.0, 0.0, 0.0, 0.0, 0.0, 0.0, 0.0, 0.0, 1.6960234259468E9, 0.0, 2023-09-29 16:37:05.946
24.0, 25431.211344148083, 16052.374667212329, -6054.4393723534795, -13827.504375875518, 12370.282396111776, -13436.482958374378, -187500.02235174447, 33176.403722334355, -25285.299156343837, 23566.360600752905, 1456.1490960298893, 1277.9833409766366, 15436.96408712436, -2769.4258415014556, -114191.30732909529, -16435.729436365298, 0.162, 1.004, -0.138, 192.0, 0.0, 0.0, 0.0, 0.0, 0.0, 0.0, 0.0, 0.0, 0.0, 1.696023425946804E9, 0.0, 2023-09-29 16:37:05.946
26.0, 25553.497738063066, 16157.852549296922, -6136.291460548814, -13916.643132763284, 12473.145124095097, -13500.498354494377, -187500.02235174447, 33253.74075814972, -25177.295527135793, 23118.43164186855, 1336.6566701718177, 1094.363760276289, 15536.496405183841, -2689.5630585626436, -114630.65321810881, -16339.7063421853, 0.162, 1.004, -0.138, 192.0, 0.0, 0.0, 0.0, 0.0, 0.0, 0.0, 0.0, 0.0, 0.0, 1.696023425946807E9, 0.0, 2023-09-29 16:37:05.946
28.0, 25506.80494389593, 16134.874955996867, -6073.170134207026, -13856.896919834247, 12356.40196280503, -13467.57423491171, -187500.02235174447, 33232.03721428361, -25283.421609809593, 23573.37904851187, 1476.0645003395678, 1284.2418294241227, 15429.878584132026, -2797.4549290484106, -114178.16450335557, -16475.604948473567, 0.16, 1.008, -0.14, 192.0, 2.5, 0.0, 15.5, 64.0, 125.5, 80.0, 0.0, 0.0, 0.0, 1.69602342594681E9, 0.0, 2023-09-29 16:37:05.946
30.0, 25472.85264406832, 16065.964527841155, -6110.274030002836, -13893.285559807488, 12479.47066777595, -13480.448839717967, -187500.02235174447, 33185.41147534984, -25169.338306109705, 23072.61056573517, 1314.4166844387871, 1059.0927075258146, 15537.815158106705, -2698.190831922392, -114653.13907303085, -16337.515871228681, 0.16, 1.008, -0.14, 192.0, 0.0, 0.0, 0.0, 0.0, 0.0, 0.0, 0.0, 0.0, 0.0, 1.696023426006896E9, 0.0, 2023-09-29 16:37:06.006
32.0, 25580.319831409437, 16219.275143060106, -6093.197297238982, -13877.304062521944, 12350.188177846454, -13491.803525901261, -187500.02235174447, 33292.655145246405, -25288.182531378574, 23582.43150501627, 1501.3890268074308, 1303.0172947665806, 15440.607421470575, -2792.381083057056, -114205.88066648015, -16475.91787289594, 0.16, 1.008, -0.14, 192.0, 0.0, 0.0, 0.0, 0.0, 0.0, 0.0, 0.0, 0.0, 0.0, 1.696023426006907E9, 0.0, 2023-09-29 16:37:06.006
34.0, 25405.864465935763, 15987.845180969856, -6106.675399145532, -13887.429402760197, 12462.8409699012, -13481.85699961865, -187500.02235174447, 33141.870277150905, -25194.30520466628, 23059.46773999545, 1298.8598702978934, 1038.6855648381193, 15510.926009526971, -2722.2413089563024, -114629.11094774138, -16355.129045859463, 0.16, 1.008, -0.14, 192.0, 0.0, 0.0, 0.0, 0.0, 0.0, 0.0, 0.0, 0.0, 0.0, 1.696023426006911E9, 0.0, 2023-09-29 16:37:06.006
36.0, 25655.533451501546, 16303.518867912158, -6109.536422435811, -13895.341920297376, 12355.77611396028, -13513.842345934194, -187500.02235174447, 33351.28377095268, -25286.036763910863, 23595.842551689453, 1506.5522797766066, 1307.7558645911056, 15434.795967912194, -2799.958324427405, -114226.13134695667, -16487.183152101417, 0.16, 1.008, -0.14, 192.0, 0.0, 0.0, 0.0, 0.0, 0.0, 0.0, 0.0, 0.0, 0.0, 1.696023426006914E9, 0.0, 2023-09-29 16:37:06.006
38.0, 25346.20765998455, 15922.19810750462, -6081.954369777963, -13865.189417027166, 12458.884711132612, -13468.960043067938, -187500.02235174447, 33101.83830283145, -25217.41690843307, 23080.679545483537, 1284.5771055909522, 1032.114151968259, 15497.157334942502, -2731.092599760604, -114586.50852280957, -16366.327269831572, 0.162, 1.008, -0.14400000000000002, 192.0, 2.5, 8.0, 15.5, 64.0, 125.5, 64.0, 0.0, 0.0, 0.0, 1.696023426006917E9, 0.0, 2023-09-29 16:37:06.006
40.0, 25716.46430688671, 16369.411810566404, -6113.246812015393, -13895.341920297376, 12371.154114145531, -13512.814165689251, -187500.02235174447, 33388.45472198185, -25279.82297895229, 23564.57246119648, 1514.9118322028914, 1309.2087279807006, 15461.43924730292, -2778.83592591714, -114262.67644914109, -16470.754619926767, 0.162, 1.008, -0.14400000000000002, 192.0, 0.0, 0.0, 0.0, 0.0, 0.0, 0.0, 0.0, 0.0, 0.0, 1.69602342600692E9, 0.0, 2023-09-29 16:37:06.006
42.0, 25300.721860018, 15870.073839434845, -6052.628881052599, -13829.73955032105, 12450.36869649514, -13442.026190999293, -187500.02235174447, 33053.04444468551, -25203.0000332594, 23105.981720206943, 1302.0561697550024, 1049.0344225209265, 15508.40026240352, -2720.9449077778945, -114565.87786267733, -16358.884138927955, 0.162, 1.008, -0.14400000000000002, 192.0, 0.0, 0.0, 0.0, 0.0, 0.0, 0.0, 0.0, 0.0, 0.0, 1.696023426006923E9, 0.0, 2023-09-29 16:37:06.006
44.0, 25765.615792943932, 16423.25716295924, -6138.481931505434, -13915.302028095964, 12369.54478854475, -13531.567279287254, -187500.02235174447, 33421.95998692036, -25244.551926201813, 23554.737693636143, 1531.474474844274, 1318.5741089074743, 15470.91638695197, -2756.6182919285648, -114328.70350226207, -16458.081180820605, 0.162, 1.008, -0.14400000000000002, 192.0, 0.0, 0.0, 0.0, 0.0, 0.0, 0.0, 0.0, 0.0, 0.0, 1.696023426006927E9, 0.0, 2023-09-29 16:37:06.006
46.0, 25252.53149897236, 15828.56664998134, -6040.9389187024735, -13807.901895988214, 12436.443559699484, -13427.832833270173, -187500.02235174447, 33017.48281925712, -25232.884315596144, 23161.90578483412, 1303.35257093341, 1057.9080650696833, 15475.230273631845, -2733.3724776950453, -114521.59905691136, -16380.833551983065, 0.162, 1.008, -0.14400000000000002, 192.0, 0.0, 0.0, 0.0, 0.0, 0.0, 0.0, 0.0, 0.0, 0.0, 1.696023426067231E9, 0.0, 2023-09-29 16:37:06.067
48.0, 25793.376659557423, 16456.069523819628, -6161.83950446123, -13935.865632994848, 12372.808143235225, -13547.30290738379, -187500.02235174447, 33449.65379830048, -25241.690902911534, 23512.202323937694, 1520.5221200611736, 1303.4419779112313, 15482.181666157445, -2746.9623383238722, -114397.83744786233, -16451.599174928568, 0.164, 1.008, -0.148, 192.0, 2.5, 16.0, 15.5, 64.0, 125.5, 48.0, 0.0, 0.0, 0.0, 1.696023426067241E9, 0.0, 2023-09-29 16:37:06.067
50.0, 25229.91153358359, 15805.164373536632, -6032.802883720742, -13804.191506408633, 12419.210364724442, -13424.32360939069, -187500.02235174447, 33009.167970319744, -25249.84928963772, 23197.087430606774, 1311.2874402150442, 1071.6320361652417, 15459.539349024219, -2756.417126228467, -114469.67595454169, -16399.7207760478, 0.164, 1.008, -0.148, 192.0, 0.0, 0.0, 0.0, 0.0, 0.0, 0.0, 0.0, 0.0, 0.0, 1.696023426067245E9, 0.0, 2023-09-29 16:37:06.067
52.0, 25792.527293268122, 16456.60596568656, -6155.916292180574, -13922.096958410379, 12405.821669795712, -13533.176604888034, -187500.02235174447, 33441.67422552994, -25240.81918487778, 23433.144203799275, 1496.5163465161738, 1266.4051373487875, 15498.766660543282, -2729.0809427596264, -114474.28041389948, -16429.20272698435, 0.164, 1.008, -0.148, 192.0, 0.0, 0.0, 0.0, 0.0, 0.0, 0.0, 0.0, 0.0, 0.0, 1.696023426067248E9, 0.0, 2023-09-29 16:37:06.067
54.0, 25223.07189978026, 15806.863106115235, -6016.307296312725, -13785.01370966598, 12413.9800565219, -13410.823155739685, -187500.02235174447, 33002.73066791662, -25252.66560943909, 23268.7918268194, 1342.1775510522784, 1108.2665453274901, 15473.732706753339, -2745.822399356651, -114455.6167072793, -16395.09396494555, 0.164, 1.008, -0.148, 192.0, 0.0, 0.0, 0.0, 0.0, 0.0, 0.0, 0.0, 0.0, 0.0, 1.696023426067251E9, 0.0, 2023-09-29 16:37:06.067
56.0, 25787.274633321125, 16445.54185218118, -6170.869609221174, -13937.94434522919, 12409.867335542123, -13542.094950925703, -187500.02235174447, 33439.32729236213, -25226.402309704103, 23382.405743885727, 1483.4182242653637, 1252.3235383419442, 15509.74136707084, -2714.0158669967495, -114558.3900282848, -16409.73435756378, 0.164, 1.008, -0.148, 192.0, 0.0, 0.0, 0.0, 0.0, 0.0, 0.0, 0.0, 0.0, 0.0, 1.696023426067254E9, 0.0, 2023-09-29 16:37:06.067
58.0, 25247.36824600318, 15837.619106485738, -6025.471511539401, -13798.178887150156, 12385.436878852473, -13416.008760453316, -187500.02235174447, 33038.49345904511, -25271.083446870263, 23325.6546647137, 1366.1162693639124, 1141.5706445658975, 15440.093331348102, -2764.3072920211903, -114399.51382869648, -16421.737244336276, 0.168, 1.006, -0.154, 192.0, 2.5, 32.0, 15.5, 56.0, 125.5, 24.0, 0.0, 0.0, 0.0, 1.696023426067257E9, 0.0, 2023-09-29 16:37:06.067
60.0, 25769.929679623805, 16417.468061145315, -6172.188362144037, -13949.47784536813, 12414.941181533479, -13548.3981428621, -187500.02235174447, 33438.366167350556, -25218.690957867024, 23302.922940602653, 1452.4610581947636, 1203.4179214737323, 15517.966809030391, -2726.0187537692495, -114601.73006078364, -16407.946218007353, 0.168, 1.006, -0.154, 192.0, 0.0, 0.0, 0.0, 0.0, 0.0, 0.0, 0.0, 0.0, 0.0, 1.696023426127595E9, 0.0, 2023-09-29 16:37:06.127
62.0, 25287.48962730046, 15885.496543109006, -6012.082816610672, -13790.82516322436, 12373.389288591063, -13416.612257553608, -187500.02235174447, 33072.11048270589, -25291.95997619152, 23402.656424362234, 1390.4349673312865, 1173.6677496037184, 15432.046703344191, -2778.902981150506, -114351.92696475112, -16439.886860833987, 0.168, 1.006, -0.154, 192.0, 0.0, 0.0, 0.0, 0.0, 0.0, 0.0, 0.0, 0.0, 0.0, 1.696023426127606E9, 0.0, 2023-09-29 16:37:06.127
64.0, 25722.90160928984, 16359.107656372507, -6155.625719502655, -13935.977391717124, 12432.911984075545, -13535.612945033663, -187500.02235174447, 33394.55674821815, -25194.93105351103, 23239.488689838494, 1430.5339968841074, 1175.5676478824196, 15520.604314876118, -2703.063512213649, -114673.92619537428, -16382.19700839484, 0.168, 1.006, -0.154, 192.0, 0.0, 0.0, 0.0, 0.0, 0.0, 0.0, 0.0, 0.0, 0.0, 1.69602342612761E9, 0.0, 2023-09-29 16:37:06.127
66.0, 25339.21156397004, 15944.706314171115, -6020.196499847949, -13795.630788282251, 12360.000593662333, -13422.803690767729, -187500.02235174447, 33111.36014596941, -25301.213598396018, 23465.755398959565, 1421.906223524359, 1212.2692122780338, 15425.587049196607, -2793.319856324179, -114329.61992378473, -16463.311489023148, 0.168, 1.006, -0.154, 192.0, 0.0, 0.0, 0.0, 0.0, 0.0, 0.0, 0.0, 0.0, 0.0, 1.696023426127613E9, 0.0, 2023-09-29 16:37:06.127
68.0, 25667.13400687385, 16294.712280596768, -6150.194245600015, -13917.648961263772, 12451.575690695727, -13515.384616301611, -187500.02235174447, 33349.987369774266, -25201.52481812535, 23178.647241431147, 1398.8615749909372, 1144.7222405340958, 15540.206794763422, -2679.415366579934, -114742.61310608544, -16354.391438292438, 0.17, 1.006, -0.158, 192.0, 2.5, 40.0, 15.5, 56.0, 125.5, 8.0, 0.0, 0.0, 0.0, 1.696023426127616E9, 0.0, 2023-09-29 16:37:06.127
70.0, 25414.06755615086, 16032.705132091658, -6042.48118906989, -13818.742492049038, 12341.314535297697, -13443.032019499782, -187500.02235174447, 33178.437731079786, -25306.35449962074, 23522.37236766486, 1453.7351076287162, 1250.781267974528, 15415.349950236077, -2790.034149889249, -114324.14374639318, -16469.97230887083, 0.17, 1.006, -0.158, 192.0, 0.0, 0.0, 0.0, 0.0, 0.0, 0.0, 0.0, 0.0, 0.0, 1.696023426127619E9, 0.0, 2023-09-29 16:37:06.127
72.0, 25606.20315148868, 16218.515183748626, -6128.982440111929, -13898.918199410225, 12449.36286799465, -13493.681072435507, -187500.02235174447, 33303.07105816258, -25199.311995424272, 23130.30041817432, 1370.5866182549737, 1100.331676045856, 15522.59362013264, -2698.1237766890263, -114758.3934376709, -16366.461380298304, 0.17, 1.006, -0.158, 192.0, 0.0, 0.0, 0.0, 0.0, 0.0, 0.0, 0.0, 0.0, 0.0, 1.696023426127622E9, 0.0, 2023-09-29 16:37:06.127
74.0, 25477.770027848488, 16103.604865503892, -6053.120619430616, -13825.693884574639, 12348.511797012306, -13454.856092316639, -187500.02235174447, 33215.80984780906, -25301.593578051758, 23567.791112398045, 1484.155831832389, 1276.7539950315947, 15436.986438868815, -2775.751385182308, -114347.1883949266, -16468.050058847675, 0.17, 1.006, -0.158, 192.0, 0.0, 0.0, 0.0, 0.0, 0.0, 0.0, 0.0, 0.0, 0.0, 1.696023426127626E9, 0.0, 2023-09-29 16:37:06.127
76.0, 25518.89723764625, 16121.977999446155, -6104.820204355741, -13867.849274617349, 12472.966310139456, -13469.38472621259, -187500.02235174447, 33218.80498156607, -25194.618129088656, 23099.656176526092, 1347.6984319327394, 1079.3880914912334, 15536.183480761467, -2681.1811543919034, -114818.81020293359, -16347.976487633765, 0.17, 1.006, -0.158, 192.0, 0.0, 0.0, 0.0, 0.0, 0.0, 0.0, 0.0, 0.0, 0.0, 1.696023426187142E9, 0.0, 2023-09-29 16:37:06.187
78.0, 25540.153746623248, 16178.103229773431, -6061.4801718569015, -13827.012637497503, 12356.40196280503, -13452.75502833784, -187500.02235174447, 33255.1489180504, -25298.71020301702, 23604.80560121603, 1513.570727535573, 1313.321448960477, 15440.182738325924, -2772.9127136364837, -114397.45746820659, -16466.239567546792, 0.168, 1.004, -0.154, 192.0, 2.5, 32.0, 15.5, 48.0, 125.5, 24.0, 0.0, 0.0, 0.0, 1.69602342618715E9, 0.0, 2023-09-29 16:37:06.187
80.0, 25441.716664042076, 16034.9850100261, -6084.480116901412, -13849.587899397362, 12474.218007828953, -13454.766685338818, -187500.02235174447, 33156.93535291378, -25199.915492524564, 23090.849589210702, 1332.543949192041, 1072.0790710543479, 15528.717998113394, -2675.794383978174, -114869.63806982496, -16330.340961258527, 0.168, 1.004, -0.154, 192.0, 0.0, 0.0, 0.0, 0.0, 0.0, 0.0, 0.0, 0.0, 0.0, 1.696023426187153E9, 0.0, 2023-09-29 16:37:06.187
82.0, 25619.725956884144, 16267.55491108357, -6081.976721522417, -13846.771579595994, 12347.684782467459, -13477.073726305214, -187500.02235174447, 33319.54429382614, -25291.356479091228, 23616.741432755167, 1546.5619023516062, 1335.6955451602394, 15454.465503032865, -2761.6250826865535, -114443.27854433996, -16469.435867003904, 0.168, 1.004, -0.154, 192.0, 0.0, 0.0, 0.0, 0.0, 0.0, 0.0, 0.0, 0.0, 0.0, 1.696023426187156E9, 0.0, 2023-09-29 16:37:06.187
84.0, 25380.204663301072, 15964.621718480794, -6063.96121549144, -13828.398445653731, 12464.450295501983, -13442.13794972157, -187500.02235174447, 33114.109410537414, -25191.868864520653, 23090.313147343775, 1330.554643935519, 1060.6796813821413, 15519.240858464344, -2695.665084798942, -114850.75084576021, -16344.489615498736, 0.168, 1.004, -0.154, 192.0, 0.0, 0.0, 0.0, 0.0, 0.0, 0.0, 0.0, 0.0, 0.0, 1.69602342618716E9, 0.0, 2023-09-29 16:37:06.187
86.0, 25683.964870448694, 16340.287487541138, -6109.5587741802665, -13876.231178788088, 12347.796541189737, -13501.370072528134, -187500.02235174447, 33374.5742886751, -25289.34482209025, 23610.10296465194, 1547.5006756187292, 1339.5847486954628, 15451.760941953773, -2772.510382236288, -114489.7254693181, -16468.385335014504, 0.168, 1.004, -0.154, 192.0, 0.0, 0.0, 0.0, 0.0, 0.0, 0.0, 0.0, 0.0, 0.0, 1.696023426187163E9, 0.0, 2023-09-29 16:37:06.187
88.0, 25319.519677104912, 15901.835668305835, -6062.083668957194, -13814.138032691246, 12443.305545247264, -13434.672467073497, -187500.02235174447, 33077.83252928645, -25219.383861945138, 23097.465705569473, 1314.3719809498766, 1046.307509697379, 15496.240913419833, -2701.968276735339, -114834.0540926521, -16354.927880159365, 0.162, 1.008, -0.152, 192.0, 2.5, 8.0, 15.5, 64.0, 125.5, 32.0, 0.0, 0.0, 0.0, 1.696023426187166E9, 0.0, 2023-09-29 16:37:06.187
90.0, 25740.179507753794, 16401.48656385977, -6142.795818185308, -13895.453679019653, 12342.074494609178, -13523.140671627603, -187500.02235174447, 33414.80742869466, -25293.904577959132, 23587.505351007625, 1548.5288558636732, 1332.1416177918456, 15455.001944899792, -2750.2703965032574, -114540.4862809761, -16471.02284086023, 0.162, 1.008, -0.152, 192.0, 0.0, 0.0, 0.0, 0.0, 0.0, 0.0, 0.0, 0.0, 0.0, 1.696023426247356E9, 0.0, 2023-09-29 16:37:06.247
92.0, 25280.314717330304, 15853.667659004648, -6056.026346209806, -13814.942695491636, 12424.932411305, -13436.08062697418, -187500.02235174447, 33053.849107485905, -25258.633525208657, 23131.52976411936, 1311.2650884705888, 1052.6777568671414, 15475.699660265407, -2730.9137858049617, -114788.7471066412, -16382.800505495134, 0.162, 1.008, -0.152, 192.0, 0.0, 0.0, 0.0, 0.0, 0.0, 0.0, 0.0, 0.0, 0.0, 1.696023426247369E9, 0.0, 2023-09-29 16:37:06.247
94.0, 25781.418476273833, 16441.809110857143, -6143.868701919163, -13907.255400092054, 12359.710020984414, -13529.01918041935, -187500.02235174447, 33442.478888330326, -25284.62860401018, 23525.45690839969, 1537.9341289918577, 1309.3204867029772, 15458.935851923927, -2759.9263501079504, -114595.42686884724, -16463.803227401164, 0.162, 1.008, -0.152, 192.0, 0.0, 0.0, 0.0, 0.0, 0.0, 0.0, 0.0, 0.0, 0.0, 1.696023426247372E9, 0.0, 2023-09-29 16:37:06.247
96.0, 25245.647161680125, 15822.129347578211, -6045.5210263158115, -13806.11375643179, 12407.855678541146, -13429.688028059963, -187500.02235174447, 33028.09989787339, -25264.66849621159, 23176.389715241163, 1319.7140478746949, 1070.4920971980212, 15466.691907249917, -2738.1333992640257, -114758.32638243752, -16387.15909566392, 0.162, 1.008, -0.152, 192.0, 0.0, 0.0, 0.0, 0.0, 0.0, 0.0, 0.0, 0.0, 0.0, 1.696023426247375E9, 0.0, 2023-09-29 16:37:06.247
98.0, 25804.329014340525, 16465.59136695759, -6163.717050995476, -13921.404054332264, 12358.30186108373, -13538.809244490772, -187500.02235174447, 33461.76844379526, -25282.818112709298, 23478.473541554635, 1516.4988060592182, 1296.06590224098, 15466.468389805364, -2743.743687122308, -114663.68909641376, -16457.812959887142, 0.154, 0.998, -0.152, 192.0, 2.0, 104.0, 15.5, 24.0, 125.5, 32.0, 0.0, 0.0, 0.0, 1.696023426247379E9, 0.0, 2023-09-29 16:37:06.247
100.0, 25233.912495841087, 15810.931123606102, -6024.800959205742, -13782.599721264807, 12397.775041791803, -13411.739577262351, -187500.02235174447, 33015.44881051169, -25285.34385983275, 23240.807442761357, 1336.6566701718177, 1103.5726789918756, 15448.519939007752, -2744.905977833984, -114697.55198926353, -16404.079366216585, 0.154, 0.998, -0.152, 192.0, 0.0, 0.0, 0.0, 0.0, 0.0, 0.0, 0.0, 0.0, 0.0, 1.696023426247382E9, 0.0, 2023-09-29 16:37:06.247
102.0, 25806.07245040804, 16461.433942488904, -6150.663632233576, -13911.926914683214, 12397.439765624973, -13532.30488685428, -187500.02235174447, 33446.68101628793, -25247.81528089229, 23408.065546520418, 1507.9827914217462, 1270.7637275175725, 15501.471221622376, -2729.4609224153664, -114743.17189969683, -16430.387369440483, 0.154, 0.998, -0.152, 192.0, 0.0, 0.0, 0.0, 0.0, 0.0, 0.0, 0.0, 0.0, 0.0, 1.696023426247385E9, 0.0, 2023-09-29 16:37:06.247
104.0, 25244.261353523896, 15825.392702268686, -6000.683426938466, -13761.67848845464, 12405.26287618433, -13401.144850390536, -187500.02235174447, 33012.07369709894, -25267.216595079495, 23306.163943548676, 1378.387377069876, 1142.5317695774759, 15464.233215359835, -2742.849617344096, -114667.28772727106, -16407.454479629338, 0.154, 0.998, -0.152, 192.0, 0.0, 0.0, 0.0, 0.0, 0.0, 0.0, 0.0, 0.0, 0.0, 1.696023426247389E9, 0.0, 2023-09-29 16:37:06.247
106.0, 25791.25324383417, 16443.418436457927, -6158.777315470853, -13917.268981608033, 12414.784719322291, -13538.496320068398, -187500.02235174447, 33427.05618465617, -25214.89116130962, 23343.58076376686, 1501.6572477408945, 1248.4790382956312, 15520.514907898298, -2698.034369711205, -114824.57695300305, -16405.19695343935, 0.154, 0.998, -0.152, 192.0, 0.0, 0.0, 0.0, 0.0, 0.0, 0.0, 0.0, 0.0, 0.0, 1.696023426306854E9, 0.0, 2023-09-29 16:37:06.306
108.0, 25272.24573758194, 15865.581138799327, -6033.4287325654905, -13791.428660324653, 12365.812047220714, -13431.163243194014, -187500.02235174447, 33043.96963643666, -25294.01633668141, 23384.640918331257, 1394.6147435444288, 1174.6512263597522, 15437.38877026901, -2766.1401350665255, -114612.61536033338, -16441.652648645955, 0.156, 1.0, -0.152, 192.0, 2.0, 112.0, 15.5, 32.0, 125.5, 32.0, 0.0, 0.0, 0.0, 1.696023426306865E9, 0.0, 2023-09-29 16:37:06.306
110.0, 25760.497243463666, 16402.91707550491, -6177.396318602124, -13937.18438591771, 12414.136518733087, -13547.660535295074, -187500.02235174447, 33415.45562928386, -25226.022330048363, 23292.61878640876, 1444.2803197241212, 1198.9922760715815, 15503.773451301271, -2714.3064396746686, -114850.7061422713, -16408.30384591864, 0.156, 1.0, -0.152, 192.0, 0.0, 0.0, 0.0, 0.0, 0.0, 0.0, 0.0, 0.0, 0.0, 1.696023426306869E9, 0.0, 2023-09-29 16:37:06.306
112.0, 25319.273807915906, 15919.20297374761, -6037.966136689918, -13796.100174915813, 12357.184273860965, -13432.638458328065, -187500.02235174447, 33080.40297989881, -25297.324394860792, 23437.72631141261, 1404.382455871398, 1187.8387555883833, 15411.684264145408, -2788.067196377182, -114549.31522003595, -16453.610831929545, 0.156, 1.0, -0.152, 192.0, 0.0, 0.0, 0.0, 0.0, 0.0, 0.0, 0.0, 0.0, 0.0, 1.696023426306872E9, 0.0, 2023-09-29 16:37:06.306
114.0, 25714.60911209692, 16346.747141688722, -6179.966769214484, -13932.021132948536, 12431.660286386048, -13538.652782279585, -187500.02235174447, 33372.31676248512, -25178.234300402917, 23230.771509500923, 1415.2454036766774, 1160.5472756084532, 15518.659713108507, -2699.4648813563444, -114900.32701496208, -16369.411810566404, 0.156, 1.0, -0.152, 192.0, 0.0, 0.0, 0.0, 0.0, 0.0, 0.0, 0.0, 0.0, 0.0, 1.696023426306876E9, 0.0, 2023-09-29 16:37:06.306
116.0, 25381.948099368587, 15991.712032760624, -6054.573482820211, -13805.644369798229, 12352.021020891789, -13438.002876997338, -187500.02235174447, 33129.26389327811, -25283.51101678741, 23500.51236158757, 1427.09182823799, 1227.714267696651, 15413.315941490644, -2791.419958045478, -114502.5777223799, -16452.783817384698, 0.156, 1.0, -0.152, 192.0, 0.0, 0.0, 0.0, 0.0, 0.0, 0.0, 0.0, 0.0, 0.0, 1.696023426306879E9, 0.0, 2023-09-29 16:37:06.306
118.0, 25644.670503696267, 16267.867835505944, -6165.259321362892, -13910.205830360155, 12451.240414528897, -13513.663531978553, -187500.02235174447, 33312.97288095628, -25156.30723909226, 23168.20897677052, 1372.3747578113982, 1122.2587373565123, 15524.918201555993, -2684.288046871191, -114925.60683794104, -16335.392455505427, 0.16, 1.008, -0.154, 192.0, 2.5, 0.0, 15.5, 64.0, 125.5, 24.0, 0.0, 0.0, 0.0, 1.696023426306883E9, 0.0, 2023-09-29 16:37:06.306
120.0, 25448.712760056587, 16069.674917420736, -6081.507334888856, -13833.49464338954, 12345.002573132822, -13462.925072065005, -187500.02235174447, 33181.723437514716, -25276.179644606073, 23559.23039427166, 1450.1811802603222, 1263.2088378916787, 15425.76586315225, -2780.8475829181175, -114497.50387638854, -16440.289192234184, 0.16, 1.008, -0.154, 192.0, 0.0, 0.0, 0.0, 0.0, 0.0, 0.0, 0.0, 0.0, 0.0, 1.696023426366656E9, 0.0, 2023-09-29 16:37:06.366
122.0, 25582.77852329952, 16191.849552613445, -6157.816190459274, -13904.953170413159, 12457.498902976384, -13505.326331296723, -187500.02235174447, 33263.86609838797, -25150.831061700712, 23129.607514096202, 1336.321394004988, 1090.6757224411635, 15522.88419281056, -2696.380340621512, -114928.3784542535, -16329.022208335664, 0.16, 1.008, -0.154, 192.0, 0.0, 0.0, 0.0, 0.0, 0.0, 0.0, 0.0, 0.0, 0.0, 1.696023426366667E9, 0.0, 2023-09-29 16:37:06.366
124.0, 25519.210162068626, 16158.232528952663, -6098.829936841719, -13845.564585395407, 12354.189140103954, -13468.75887736784, -187500.02235174447, 33241.31318823257, -25252.10681582771, 23602.5704267705, 1474.7233956722494, 1294.389521406832, 15430.146805065491, -2769.5599519681873, -114471.8217220094, -16433.78483459769, 0.16, 1.008, -0.154, 192.0, 0.0, 0.0, 0.0, 0.0, 0.0, 0.0, 0.0, 0.0, 0.0, 1.696023426366671E9, 0.0, 2023-09-29 16:37:06.366
126.0, 25499.048888569938, 16104.208362604186, -6155.290443335824, -13896.727728453605, 12470.954653138479, -13488.942502610982, -187500.02235174447, 33211.18303670681, -25167.773683997835, 23107.2557696409, 1304.1572337338011, 1068.2345710080351, 15508.69083508144, -2693.5193173312327, -114913.89452384645, -16308.905638325889, 0.16, 1.008, -0.154, 192.0, 0.0, 0.0, 0.0, 0.0, 0.0, 0.0, 0.0, 0.0, 0.0, 1.696023426366674E9, 0.0, 2023-09-29 16:37:06.366
128.0, 25593.753229827074, 16240.933983437299, -6120.578184196733, -13868.98921358457, 12354.323250570686, -13481.253502518357, -187500.02235174447, 33297.32665983756, -25262.52272874388, 23604.559732027024, 1480.2666282971654, 1305.386579678843, 15426.123491063536, -2789.9447429114275, -114457.58366079137, -16435.841195087578, 0.156, 1.008, -0.152, 192.0, 2.0, 112.0, 15.5, 64.0, 125.5, 32.0, 0.0, 0.0, 0.0, 1.696023426366677E9, 0.0, 2023-09-29 16:37:06.366
130.0, 25433.55827731589, 16027.296009933474, -6129.295364534302, -13870.263263018522, 12472.206350827975, -13463.975604054405, -187500.02235174447, 33149.000483632146, -25147.567707010236, 23088.99439442091, 1295.7976813075163, 1056.0305185354375, 15510.143698471034, -2699.0178464672385, -114879.29402342964, -16300.210809732773, 0.156, 1.008, -0.152, 192.0, 0.0, 0.0, 0.0, 0.0, 0.0, 0.0, 0.0, 0.0, 0.0, 1.69602342636668E9, 0.0, 2023-09-29 16:37:06.366
132.0, 25662.618954493875, 16320.550897187102, -6148.339050810225, -13888.32347253841, 12361.54286402975, -13503.225267317925, -187500.02235174447, 33345.20409646083, -25238.56165868779, 23622.86581073592, 1510.508538545196, 1333.616832925896, 15446.284764562222, -2768.062385089682, -114468.98305046358, -16423.7265495928, 0.156, 1.008, -0.152, 192.0, 0.0, 0.0, 0.0, 0.0, 0.0, 0.0, 0.0, 0.0, 0.0, 1.696023426366683E9, 0.0, 2023-09-29 16:37:06.366
134.0, 25367.508872450457, 15953.758770675513, -6120.444073730001, -13860.160274524722, 12473.815676428758, -13453.962022538428, -187500.02235174447, 33098.172616740776, -25162.07398916173, 23093.263577611873, 1286.2534864251002, 1056.9022365691944, 15507.014454247292, -2695.4415673543895, -114834.76934847467, -16303.004777789687, 0.156, 1.008, -0.152, 192.0, 0.0, 0.0, 0.0, 0.0, 0.0, 0.0, 0.0, 0.0, 0.0, 1.696023426366687E9, 0.0, 2023-09-29 16:37:06.366
136.0, 25732.602266383445, 16393.48463934477, -6173.752984255909, -13911.144603627277, 12366.415544321007, -13521.687808238008, -187500.02235174447, 33391.025172594214, -25235.879449353153, 23600.312900580517, 1516.7223235037713, 1338.9588998507143, 15440.316848792656, -2761.4015652420003, -114480.9188820027, -16423.25716295924, 0.156, 1.008, -0.152, 192.0, 0.0, 0.0, 0.0, 0.0, 0.0, 0.0, 0.0, 0.0, 0.0, 1.696023426426886E9, 0.0, 2023-09-29 16:37:06.426
138.0, 25319.229104426995, 15898.169982215166, -6115.861966116663, -13853.253585488033, 12457.409495998561, -13456.621880128609, -187500.02235174447, 33058.811194754984, -25179.664812048057, 23132.066205986288, 1283.4818701126421, 1060.1879430041247, 15484.863875492083, -2721.257832200269, -114762.21558597275, -16320.305027998094, 0.16, 0.998, -0.15, 192.0, 2.5, 0.0, 15.5, 24.0, 125.5, 40.0, 0.0, 0.0, 0.0, 1.696023426426896E9, 0.0, 2023-09-29 16:37:06.426
140.0, 25779.362115783944, 16440.847985845565, -6190.762661786397, -13930.14358641429, 12384.900436985547, -13537.691657268007, -187500.02235174447, 33418.69663222988, -25211.493696152414, 23570.585080454955, 1515.2918118586317, 1328.4982834456305, 15467.876549706049, -2767.1012600781037, -114497.57093162191, -16420.19497396886, 0.16, 0.998, -0.15, 192.0, 0.0, 0.0, 0.0, 0.0, 0.0, 0.0, 0.0, 0.0, 0.0, 1.696023426426899E9, 0.0, 2023-09-29 16:37:06.426
142.0, 25282.14756037564, 15857.601566028783, -6094.7619193508535, -13827.392617153242, 12456.98481285391, -13430.872670516095, -187500.02235174447, 33027.228179839636, -25187.286756907317, 23160.49762493344, 1289.8968207713153, 1067.4522599520994, 15478.2030556444, -2726.7563613362745, -114690.8241141825, -16328.7539874022, 0.16, 0.998, -0.15, 192.0, 0.0, 0.0, 0.0, 0.0, 0.0, 0.0, 0.0, 0.0, 0.0, 1.696023426426903E9, 0.0, 2023-09-29 16:37:06.426
144.0, 25806.944168441794, 16471.40282051597, -6206.945324772039, -13935.262135894554, 12402.714777316425, -13536.864642723162, -187500.02235174447, 33434.87929521553, -25194.595777344202, 23527.647379356313, 1508.7203989887714, 1315.064885027991, 15481.354651612599, -2741.3296987211347, -114541.26859203204, -16393.797563767144, 0.16, 0.998, -0.15, 192.0, 0.0, 0.0, 0.0, 0.0, 0.0, 0.0, 0.0, 0.0, 0.0, 1.696023426426906E9, 0.0, 2023-09-29 16:37:06.426
146.0, 25252.822071650276, 15832.008818627457, -6075.3382534191915, -13804.191506408633, 12451.910966862557, -13415.762891264307, -187500.02235174447, 32994.505225957066, -25199.982547757932, 23223.663654764136, 1303.7996058225162, 1094.4531672541102, 15461.394543814009, -2739.027469042238, -114622.0030930046, -16336.286525283638, 0.16, 0.998, -0.15, 192.0, 0.0, 0.0, 0.0, 0.0, 0.0, 0.0, 0.0, 0.0, 0.0, 1.696023426426909E9, 0.0, 2023-09-29 16:37:06.426
148.0, 25814.029671434128, 16478.242454319294, -6207.124138727682, -13937.743179529094, 12427.771082850824, -13535.121206655647, -187500.02235174447, 33423.43520205441, -25174.881538734622, 23472.729143229622, 1499.0197418951682, 1302.905536044304, 15498.2078669319, -2713.0994454740817, -114607.13918294183, -16364.583833764058, 0.16, 1.006, -0.148, 192.0, 2.5, 0.0, 15.5, 56.0, 125.5, 48.0, 0.0, 0.0, 0.0, 1.696023426426912E9, 0.0, 2023-09-29 16:37:06.426
150.0, 25241.445033722524, 15821.436443500095, -6094.270180972837, -13830.298343932433, 12418.115129246133, -13436.3711996521, -187500.02235174447, 32988.60436542086, -25207.31391993927, 23267.227204707528, 1319.6693443857844, 1115.620269253286, 15456.745380967306, -2764.039071087727, -114565.36377255486, -16361.275775584672, 0.16, 1.006, -0.148, 192.0, 0.0, 0.0, 0.0, 0.0, 0.0, 0.0, 0.0, 0.0, 0.0, 1.696023426487115E9, 0.0, 2023-09-29 16:37:06.487
152.0, 25807.793534731096, 16461.791570400186, -6232.426313451089, -13962.397153663296, 12420.439710669483, -13554.656631309586, -187500.02235174447, 33420.28360608621, -25177.630803302625, 23399.326014438393, 1458.5854361755178, 1253.8211052204497, 15503.237009434344, -2727.315154947657, -114637.64931412332, -16378.508970559715, 0.16, 1.006, -0.148, 192.0, 0.0, 0.0, 0.0, 0.0, 0.0, 0.0, 0.0, 0.0, 0.0, 1.696023426487127E9, 0.0, 2023-09-29 16:37:06.487
154.0, 25266.076656112273, 15848.772626968936, -6085.463593657446, -13828.107872975812, 12400.680768570992, -13437.935821763973, -187500.02235174447, 33012.49838024359, -25243.05435932331, 23351.828557470868, 1333.192149781245, 1143.9846329670709, 15420.96023809436, -2777.114841594081, -114469.29597488594, -16391.093002688052, 0.16, 1.006, -0.148, 192.0, 0.0, 0.0, 0.0, 0.0, 0.0, 0.0, 0.0, 0.0, 0.0, 1.69602342648713E9, 0.0, 2023-09-29 16:37:06.487
156.0, 25786.11234260945, 16430.43207292939, -6220.42342667859, -13960.586662362417, 12439.192824267486, -13548.554605073286, -187500.02235174447, 33393.17094006192, -25171.014686943854, 23326.32521704736, 1430.1987207172776, 1214.5490902124752, 15511.730672327361, -2718.4638641433557, -114659.48696845616, -16364.405019808415, 0.16, 1.006, -0.148, 192.0, 0.0, 0.0, 0.0, 0.0, 0.0, 0.0, 0.0, 0.0, 0.0, 1.696023426487134E9, 0.0, 2023-09-29 16:37:06.487
158.0, 25292.96580469201, 15880.534455839928, -6067.291625415281, -13812.506355346008, 12402.267742427319, -13423.049559956737, -187500.02235174447, 33016.29817680099, -25228.570428916268, 23410.77010759951, 1370.161935110323, 1184.6648078757296, 15454.420799543954, -2766.050728088704, -114422.20084931861, -16393.171714922395, 0.166, 1.006, -0.152, 192.0, 2.5, 24.0, 15.5, 56.0, 125.5, 32.0, 0.0, 0.0, 0.0, 1.696023426487137E9, 0.0, 2023-09-29 16:37:06.487
160.0, 25735.016254784616, 16367.7130779878, -6223.306801713325, -13963.850017052891, 12448.111170305154, -13545.268898638356, -187500.02235174447, 33349.294465696155, -25162.49867230638, 23249.166995187643, 1402.348447125965, 1183.2119444861346, 15514.524640384274, -2701.901221501973, -114709.75604173614, -16352.916223158387, 0.166, 1.006, -0.152, 192.0, 0.0, 0.0, 0.0, 0.0, 0.0, 0.0, 0.0, 0.0, 0.0, 1.69602342648714E9, 0.0, 2023-09-29 16:37:06.487
162.0, 25345.15712799515, 15943.745189159536, -6095.074843773227, -13836.534480635462, 12369.075401911188, -13448.597603869153, -187500.02235174447, 33062.87921224585, -25268.46829276899, 23454.266602309537, 1388.4903655636747, 1211.1069215663579, 15432.381979511021, -2788.223658588369, -114358.67719157663, -16425.648799615956, 0.166, 1.006, -0.152, 192.0, 0.0, 0.0, 0.0, 0.0, 0.0, 0.0, 0.0, 0.0, 0.0, 1.696023426487143E9, 0.0, 2023-09-29 16:37:06.487
164.0, 25684.769533249088, 16308.570362159058, -6217.18242373257, -13953.992897748101, 12446.121865048632, -13539.189224146514, -187500.02235174447, 33305.30623260811, -25165.806730485765, 23188.43730550257, 1367.9714641537028, 1142.5541213219312, 15521.431329420964, -2699.286067400702, -114712.59471328196, -16343.103807342508, 0.166, 1.006, -0.152, 192.0, 0.0, 0.0, 0.0, 0.0, 0.0, 0.0, 0.0, 0.0, 0.0, 1.696023426487146E9, 0.0, 2023-09-29 16:37:06.487
166.0, 25407.36203281427, 16021.238687186085, -6104.082596788717, -13838.300268447432, 12351.953965658424, -13460.175807497002, -187500.02235174447, 33109.996689557636, -25262.94741188853, 23522.37236766486, 1427.449456149275, 1248.814314462461, 15413.137127535001, -2795.376216814067, -114288.80563840934, -16440.132730022997, 0.166, 1.006, -0.152, 192.0, 0.0, 0.0, 0.0, 0.0, 0.0, 0.0, 0.0, 0.0, 0.0, 1.69602342654747E9, 0.0, 2023-09-29 16:37:06.547
168.0, 25611.902846324785, 16225.131300107398, -6199.502193868422, -13925.89675496778, 12461.164589067053, -13516.837479691207, -187500.02235174447, 33248.57750518054, -25155.54727978078, 23143.130319491665, 1348.5701499664963, 1116.2237663535793, 15516.133965985056, -2697.944962733384, -114714.8298877275, -16329.670408924869, 0.156, 1.006, -0.154, 192.0, 2.0, 112.0, 15.5, 56.0, 125.5, 24.0, 0.0, 0.0, 0.0, 1.696023426547479E9, 0.0, 2023-09-29 16:37:06.547
170.0, 25474.95370804712, 16095.290016566518, -6108.597649168689, -13842.748265594038, 12360.469980295895, -13458.275909218302, -187500.02235174447, 33161.718626227215, -25281.454656297527, 23566.785283897556, 1453.3104244840652, 1288.0416259815247, 15424.62592418503, -2778.098318350115, -114275.14872254715, -16436.10941602104, 0.156, 1.006, -0.154, 192.0, 0.0, 0.0, 0.0, 0.0, 0.0, 0.0, 0.0, 0.0, 0.0, 1.696023426547483E9, 0.0, 2023-09-29 16:37:06.547
172.0, 25542.746548980063, 16137.66892405378, -6168.142696397626, -13902.60623724535, 12474.597987484693, -13489.367185755633, -187500.02235174447, 33190.21710040773, -25147.523003521324, 23102.025461438356, 1339.9647283512031, 1099.236440567546, 15526.818099834694, -2686.2102968943473, -114724.57524831001, -16315.052368051098, 0.156, 1.006, -0.154, 192.0, 0.0, 0.0, 0.0, 0.0, 0.0, 0.0, 0.0, 0.0, 0.0, 1.696023426547486E9, 0.0, 2023-09-29 16:37:06.547
174.0, 25548.736816494085, 16176.471552428193, -6123.953297609484, -13860.69671639165, 12360.380573318074, -13478.660700161541, -187500.02235174447, 33212.1888652073, -25268.714161958, 23588.511179508114, 1498.43859653933, 1319.7811031080607, 15432.67255218894, -2783.3062748082016, -114272.51121670142, -16441.563241668136, 0.156, 1.006, -0.154, 192.0, 0.0, 0.0, 0.0, 0.0, 0.0, 0.0, 0.0, 0.0, 0.0, 1.69602342654749E9, 0.0, 2023-09-29 16:37:06.547
176.0, 25471.46683591209, 16054.118103279843, -6168.075641164261, -13899.566399999429, 12472.295757805796, -13488.741336910885, -187500.02235174447, 33136.617617203905, -25165.158529896562, 23089.62024326566, 1321.7033531312172, 1078.2928560129233, 15512.82590780567, -2690.9265149744174, -114703.74342247767, -16322.808423377088, 0.156, 1.006, -0.154, 192.0, 0.0, 0.0, 0.0, 0.0, 0.0, 0.0, 0.0, 0.0, 0.0, 1.696023426547493E9, 0.0, 2023-09-29 16:37:06.547
178.0, 25625.939741842718, 16262.928099981322, -6156.542141025322, -13894.55960924144, 12351.261061580308, -13510.601342988175, -187500.02235174447, 33276.27131656067, -25286.99788892244, 23614.036871676075, 1503.7359599752378, 1322.7315333761615, 15428.895107375993, -2787.6648649769863, -114248.99718153443, -16467.424210002926, 0.16, 1.012, -0.148, 192.0, 2.5, 0.0, 15.5, 80.0, 125.5, 48.0, 0.0, 0.0, 0.0, 1.696023426547496E9, 0.0, 2023-09-29 16:37:06.547
180.0, 25397.661375720665, 15973.405954051728, -6154.262263090881, -13888.167010327223, 12460.002298355377, -13486.975549098916, -187500.02235174447, 33080.067703731984, -25172.802826500276, 23081.417153050563, 1297.2952481860218, 1047.2239312200466, 15515.821041562682, -2711.3336576621127, -114656.0671515545, -16339.66163869639, 0.16, 1.012, -0.148, 192.0, 0.0, 0.0, 0.0, 0.0, 0.0, 0.0, 0.0, 0.0, 0.0, 1.696023426607773E9, 0.0, 2023-09-29 16:37:06.607
182.0, 25691.408001352313, 16338.678161940357, -6179.944417470028, -13911.479879794108, 12347.148340600532, -13527.096930396192, -187500.02235174447, 33326.495686351744, -25284.427438310082, 23595.909606922818, 1510.1062071450006, 1321.5245391755748, 15425.542345707698, -2794.0798156356595, -114249.82419607928, -16474.040326361697, 0.16, 1.012, -0.148, 192.0, 0.0, 0.0, 0.0, 0.0, 0.0, 0.0, 0.0, 0.0, 0.0, 1.696023426607786E9, 0.0, 2023-09-29 16:37:06.607
184.0, 25342.67608436061, 15916.252543479508, -6132.938698880518, -13858.93092857968, 12453.475588974428, -13468.691822134475, -187500.02235174447, 33040.415709068264, -25194.70753606648, 23079.405496049585, 1292.802547550505, 1042.9323962846277, 15490.83179126165, -2730.220881726847, -114587.06731642096, -16342.299144542116, 0.16, 1.012, -0.148, 192.0, 0.0, 0.0, 0.0, 0.0, 0.0, 0.0, 0.0, 0.0, 0.0, 1.696023426607789E9, 0.0, 2023-09-29 16:37:06.607
186.0, 25751.936525337285, 16404.504049361236, -6188.326321640769, -13915.190269373688, 12356.424314549484, -13537.848119479195, -187500.02235174447, 33368.49461418326, -25272.42455153758, 23577.245900302638, 1519.4492363273189, 1328.967670079192, 15443.133168594024, -2768.8223444011624, -114266.87857709869, -16457.365924998037, 0.16, 1.012, -0.148, 192.0, 0.0, 0.0, 0.0, 0.0, 0.0, 0.0, 0.0, 0.0, 0.0, 1.696023426607792E9, 0.0, 2023-09-29 16:37:06.607
188.0, 25297.14558090515, 15860.864920719257, -6101.132166520616, -13825.693884574639, 12446.36773423764, -13443.70257183344, -187500.02235174447, 33001.03193533802, -25186.482094106927, 23125.450089627517, 1301.4750243991643, 1065.5970651623088, 15483.20984640239, -2705.8798320150177, -114523.52130693452, -16343.081455598052, 0.154, 1.004, -0.148, 192.0, 2.0, 104.0, 15.5, 48.0, 125.5, 48.0, 0.0, 0.0, 0.0, 1.696023426607796E9, 0.0, 2023-09-29 16:37:06.607
190.0, 25791.365002556446, 16444.24545100277, -6191.232048419959, -13923.527470055518, 12378.59724504915, -13534.785930488817, -187500.02235174447, 33393.21564355083, -25233.957199329998, 23529.83785031293, 1527.2723468866764, 1325.190225266245, 15467.004831672291, -2750.1362860365257, -114316.231228856, -16432.86841307502, 0.154, 1.004, -0.148, 192.0, 0.0, 0.0, 0.0, 0.0, 0.0, 0.0, 0.0, 0.0, 0.0, 1.696023426607799E9, 0.0, 2023-09-29 16:37:06.607
192.0, 25265.271993311882, 15831.986466883001, -6105.893088089596, -13830.141881721245, 12424.261858971342, -13439.343981664657, -187500.02235174447, 32990.39250497729, -25225.150612014608, 23175.20507278503, 1311.421550681776, 1084.3501787603116, 15479.164180655978, -2728.9468322928947, -114461.29405037094, -16355.643135981934, 0.154, 1.004, -0.148, 192.0, 0.0, 0.0, 0.0, 0.0, 0.0, 0.0, 0.0, 0.0, 0.0, 1.696023426607802E9, 0.0, 2023-09-29 16:37:06.607
194.0, 25818.120040669448, 16472.40864901646, -6213.472034152989, -13952.540034358506, 12377.859637482125, -13552.712029541974, -187500.02235174447, 33421.714117731346, -25245.066016324286, 23477.959451432165, 1500.1373291179334, 1298.3681319198768, 15454.264337332766, -2759.747536152308, -114337.64420004419, -16434.34362820907, 0.154, 1.004, -0.148, 192.0, 0.0, 0.0, 0.0, 0.0, 0.0, 0.0, 0.0, 0.0, 0.0, 1.696023426607806E9, 0.0, 2023-09-29 16:37:06.607
196.0, 25247.457652981004, 15818.88834463219, -6081.753204077864, -13814.674474558173, 12408.749748319358, -13432.012609483316, -187500.02235174447, 32977.11556877084, -25238.986341832442, 23216.913427938634, 1318.5964606519296, 1097.425949266666, 15458.06413389017, -2753.2431785158133, -114374.85985456227, -16378.687784515356, 0.154, 1.004, -0.148, 192.0, 0.0, 0.0, 0.0, 0.0, 0.0, 0.0, 0.0, 0.0, 0.0, 1.696023426666636E9, 0.0, 2023-09-29 16:37:06.666
198.0, 25817.15891565787, 16471.02284086023, -6220.579888889777, -13960.0949239844, 12398.333835403186, -13561.406858135088, -187500.02235174447, 33416.126181617525, -25228.65983589409, 23423.041215305475, 1483.8876108989252, 1273.1106606853796, 15480.170009156467, -2734.937099806917, -114389.92493032516, -16418.853869301543, 0.152, 1.004, -0.146, 192.0, 2.0, 96.0, 15.5, 48.0, 125.5, 56.0, 0.0, 0.0, 0.0, 1.696023426666645E9, 0.0, 2023-09-29 16:37:06.666
200.0, 25252.017408849886, 15828.56664998134, -6073.214837695938, -13814.897992002725, 12399.943161003966, -13434.22543218439, -187500.02235174447, 32984.87162409683, -25261.651010710124, 23299.681937656635, 1336.2766905160775, 1126.7290862475738, 15443.043761616203, -2767.615350200576, -114299.66858621463, -16401.218342926306, 0.152, 1.004, -0.146, 192.0, 0.0, 0.0, 0.0, 0.0, 0.0, 0.0, 0.0, 0.0, 0.0, 1.696023426666649E9, 0.0, 2023-09-29 16:37:06.666
202.0, 25803.16672362885, 16448.179358026908, -6205.55951661581, -13941.833548764414, 12427.324047961718, -13542.229061392434, -187500.02235174447, 33396.836626152595, -25195.288681422317, 23358.064694173896, 1472.063538082068, 1245.0145179050587, 15511.887134538549, -2716.5863176091098, -114439.03171289345, -16387.136743919462, 0.152, 1.004, -0.146, 192.0, 0.0, 0.0, 0.0, 0.0, 0.0, 0.0, 0.0, 0.0, 0.0, 1.696023426666652E9, 0.0, 2023-09-29 16:37:06.666
204.0, 25274.927946916574, 15859.836740474313, -6079.24980869887, -13816.015579225492, 12379.267797382809, -13437.712304319419, -187500.02235174447, 33002.753019661075, -25277.833673695764, 23366.401894855728, 1377.2250863581999, 1172.7960315699615, 15431.018523099248, -2770.4316700019444, -114239.87766979667, -16409.48848837477, 0.152, 1.004, -0.146, 192.0, 0.0, 0.0, 0.0, 0.0, 0.0, 0.0, 0.0, 0.0, 0.0, 1.696023426666655E9, 0.0, 2023-09-29 16:37:06.666
206.0, 25771.09197033548, 16409.466136630315, -6207.37000791669, -13948.650830823282, 12427.8828415731, -13547.39231436161, -187500.02235174447, 33369.67925663939, -25217.61807413317, 23280.861768825267, 1433.7526480856716, 1201.9203545952266, 15495.793878530727, -2730.489102660311, -114461.58462304887, -16392.545866077646, 0.152, 1.004, -0.146, 192.0, 0.0, 0.0, 0.0, 0.0, 0.0, 0.0, 0.0, 0.0, 0.0, 1.696023426666659E9, 0.0, 2023-09-29 16:37:06.666
208.0, 25317.23979917047, 15910.217572476575, -6055.020517709318, -13799.452936584108, 12384.49810558535, -13422.334304134167, -187500.02235174447, 33027.60815949537, -25270.85992942571, 23443.582468459903, 1409.1210256959232, 1207.485938964598, 15438.953392380881, -2770.0069868572937, -114190.5026662949, -16415.05407274414, 0.16, 1.008, -0.14400000000000002, 192.0, 2.5, 0.0, 15.5, 64.0, 125.5, 64.0, 0.0, 0.0, 0.0, 1.696023426666662E9, 0.0, 2023-09-29 16:37:06.666
210.0, 25724.063900001514, 16347.887080655943, -6204.106653226216, -13936.782054517515, 12444.110208047654, -13539.122168913147, -187500.02235174447, 33331.10014570953, -25184.93982373951, 23229.609218789246, 1424.476674136719, 1180.0827002623917, 15530.148509758534, -2705.902183759473, -114521.06261504443, -16354.123217358974, 0.16, 1.008, -0.14400000000000002, 192.0, 0.0, 0.0, 0.0, 0.0, 0.0, 0.0, 0.0, 0.0, 0.0, 1.696023426726893E9, 0.0, 2023-09-29 16:37:06.726
212.0, 25381.299898779384, 15979.463276799117, -6066.15168644806, -13804.772651764471, 12363.710983241914, -13437.444083385955, -187500.02235174447, 33077.29608741952, -25295.24568262645, 23489.93998646021, 1435.5854911310066, 1247.0261749060364, 15413.852383357571, -2790.771757456274, -114134.62330515664, -16438.568107911124, 0.16, 1.008, -0.14400000000000002, 192.0, 0.0, 0.0, 0.0, 0.0, 0.0, 0.0, 0.0, 0.0, 0.0, 1.696023426726904E9, 0.0, 2023-09-29 16:37:06.726
214.0, 25669.682105741755, 16279.624853089435, -6195.7247490554755, -13928.221336391132, 12445.9877545819, -13536.350552600688, -187500.02235174447, 33286.97780215476, -25190.125428453142, 23177.507302463928, 1395.1735371558116, 1151.5171708485093, 15513.608218861607, -2694.480442342811, -114529.19865002617, -16349.071723112074, 0.16, 1.008, -0.14400000000000002, 192.0, 0.0, 0.0, 0.0, 0.0, 0.0, 0.0, 0.0, 0.0, 0.0, 1.696023426726907E9, 0.0, 2023-09-29 16:37:06.726
216.0, 25449.78564379044, 16057.292050992495, -6101.82507059873, -13842.658858616216, 12345.270794066286, -13473.497447192365, -187500.02235174447, 33141.937332384274, -25307.114458932218, 23533.36942593687, 1459.47950595373, 1268.685015283229, 15412.377168223522, -2798.348998826623, -114095.82067678223, -16457.00829708675, 0.16, 1.008, -0.14400000000000002, 192.0, 0.0, 0.0, 0.0, 0.0, 0.0, 0.0, 0.0, 0.0, 0.0, 1.696023426726911E9, 0.0, 2023-09-29 16:37:06.726
218.0, 25593.30619493797, 16191.514276446615, -6195.992969988939, -13930.255345136566, 12436.55531842176, -13534.271840366346, -187500.02235174447, 33241.80492661058, -25225.99997830391, 23101.08668817123, 1346.3796790098763, 1093.7602631759958, 15495.190381430433, -2718.150939720981, -114506.44457417066, -16366.461380298304, 0.16, 1.004, -0.14200000000000002, 192.0, 2.5, 0.0, 15.5, 48.0, 125.5, 72.0, 0.0, 0.0, 0.0, 1.696023426726914E9, 0.0, 2023-09-29 16:37:06.726
220.0, 25524.5745807379, 16140.753464788613, -6088.995169281384, -13839.350800436832, 12349.20470109042, -13469.72000237942, -187500.02235174447, 33191.11117018595, -25316.725709048, 23552.949554079718, 1475.0363200946238, 1285.4935271136198, 15422.591915439596, -2792.5822487571536, -114059.7673129758, -16472.386297272005, 0.16, 1.004, -0.14200000000000002, 192.0, 0.0, 0.0, 0.0, 0.0, 0.0, 0.0, 0.0, 0.0, 0.0, 1.696023426726917E9, 0.0, 2023-09-29 16:37:06.726
222.0, 25523.211124326128, 16111.293865596517, -6153.547007268311, -13900.728690711105, 12455.50959771986, -13507.762671442351, -187500.02235174447, 33176.02374267861, -25188.873730763644, 23072.677620968538, 1338.2883475170552, 1083.076129326359, 15528.852108580126, -2703.6893610583975, -114522.02374005601, -16340.42159800787, 0.16, 1.004, -0.14200000000000002, 192.0, 0.0, 0.0, 0.0, 0.0, 0.0, 0.0, 0.0, 0.0, 0.0, 1.69602342672692E9, 0.0, 2023-09-29 16:37:06.726
224.0, 25597.39656417329, 16227.92526816431, -6113.425625971035, -13860.629661158284, 12344.130855099065, -13492.407023001555, -187500.02235174447, 33248.80102262509, -25306.935644976576, 23583.705554450222, 1507.3569425769977, 1315.8024925950162, 15430.303267276679, -2797.7455017263296, -114068.79741773575, -16472.54275948319, 0.16, 1.004, -0.14200000000000002, 192.0, 0.0, 0.0, 0.0, 0.0, 0.0, 0.0, 0.0, 0.0, 0.0, 1.696023426726923E9, 0.0, 2023-09-29 16:37:06.726
226.0, 25450.500899613013, 16027.74304482258, -6122.679248175532, -13866.530521694485, 12461.857493145168, -13472.335156480689, -187500.02235174447, 33120.07732630698, -25207.783306572834, 23069.19074883351, 1317.7694461070832, 1062.6689866386637, 15509.763718815295, -2705.4998523592776, -114491.60301585234, -16341.159205574895, 0.16, 1.004, -0.14200000000000002, 192.0, 0.0, 0.0, 0.0, 0.0, 0.0, 0.0, 0.0, 0.0, 0.0, 1.696023426787229E9, 0.0, 2023-09-29 16:37:06.787
228.0, 25665.569384761977, 16305.888152824422, -6122.567489453255, -13869.279786262488, 12350.232881335365, -13495.62567420312, -187500.02235174447, 33303.18281688486, -25293.032859925373, 23602.168095370307, 1528.6805067873606, 1336.0084695826138, 15464.702601993395, -2765.1790100549474, -114090.74683079087, -16449.498110949768, 0.158, 1.004, -0.15, 192.0, 2.0, 120.0, 15.5, 48.0, 125.5, 40.0, 0.0, 0.0, 0.0, 1.696023426787239E9, 0.0, 2023-09-29 16:37:06.787
230.0, 25387.06664884885, 15960.665459712203, -6103.2779339883255, -13848.760884852516, 12449.742847650392, -13455.079609761193, -187500.02235174447, 33071.73050305015, -25225.262370736884, 23090.670775255057, 1311.5109576595971, 1065.5523616733983, 15492.709337795895, -2704.5610790921546, -114460.02000093699, -16335.370103760972, 0.158, 1.004, -0.15, 192.0, 0.0, 0.0, 0.0, 0.0, 0.0, 0.0, 0.0, 0.0, 0.0, 1.696023426787242E9, 0.0, 2023-09-29 16:37:06.787
232.0, 25728.668359359308, 16375.893816458443, -6140.918271651062, -13885.708318437139, 12341.135721342054, -13507.181526086513, -187500.02235174447, 33349.294465696155, -25321.82190678381, 23588.6676417193, 1529.3957626099304, 1338.713030661706, 15433.432511500421, -2785.228524831358, -114095.28423491529, -16466.08310533561, 0.158, 1.004, -0.15, 192.0, 0.0, 0.0, 0.0, 0.0, 0.0, 0.0, 0.0, 0.0, 0.0, 1.696023426787245E9, 0.0, 2023-09-29 16:37:06.787
234.0, 25329.376796409702, 15894.303130424398, -6078.86982904313, -13819.077768215868, 12443.149083036076, -13433.241955428357, -187500.02235174447, 33025.66355772776, -25233.84544060772, 23116.799964523314, 1310.907460559304, 1074.9847978335379, 15500.957131499903, -2685.4950410717775, -114422.80434641891, -16331.503251970204, 0.158, 1.004, -0.15, 192.0, 0.0, 0.0, 0.0, 0.0, 0.0, 0.0, 0.0, 0.0, 0.0, 1.696023426787248E9, 0.0, 2023-09-29 16:37:06.787
236.0, 25783.586595486, 16430.6779421184, -6160.297234093814, -13904.528487268506, 12348.288279567752, -13523.565354772254, -187500.02235174447, 33391.96394586134, -25298.866665228208, 23567.634650186857, 1537.509445847207, 1341.842274885449, 15444.161348838968, -2765.290768777224, -114135.1373952791, -16459.332878510104, 0.158, 1.004, -0.15, 192.0, 0.0, 0.0, 0.0, 0.0, 0.0, 0.0, 0.0, 0.0, 0.0, 1.696023426787252E9, 0.0, 2023-09-29 16:37:06.787
238.0, 25286.23792961096, 15848.459702546563, -6076.008805752851, -13822.005846739514, 12418.495108901872, -13438.002876997338, -187500.02235174447, 33003.445923739186, -25259.505243242413, 23143.733816591957, 1308.3370099469437, 1074.8283356223508, 15481.578169057151, -2727.7174863478526, -114350.3399908948, -16364.606185508514, 0.162, 1.008, -0.148, 192.0, 2.5, 8.0, 15.5, 64.0, 125.5, 48.0, 0.0, 0.0, 0.0, 1.696023426787255E9, 0.0, 2023-09-29 16:37:06.787
240.0, 25810.028709176626, 16457.231814531304, -6158.620853259666, -13907.769490214527, 12373.813971735713, -13524.302962339278, -187500.02235174447, 33410.09121061459, -25293.077563414285, 23509.117783202862, 1518.9351462048467, 1316.4953966731307, 15462.981517670336, -2764.575512954654, -114180.04204988982, -16448.134654537997, 0.162, 1.008, -0.148, 192.0, 0.0, 0.0, 0.0, 0.0, 0.0, 0.0, 0.0, 0.0, 0.0, 1.696023426847329E9, 0.0, 2023-09-29 16:37:06.847
242.0, 25257.135958330153, 15820.274152788419, -6040.491883813368, -13780.900988686204, 12424.105396760155, -13410.666693528497, -187500.02235174447, 32974.433359436196, -25262.254507810416, 23202.071869620308, 1333.7509433926277, 1106.8360336823505, 15485.601483059107, -2717.5250908762328, -114305.9270746621, -16357.006592393709, 0.162, 1.008, -0.148, 192.0, 0.0, 0.0, 0.0, 0.0, 0.0, 0.0, 0.0, 0.0, 0.0, 1.69602342684734E9, 0.0, 2023-09-29 16:37:06.847
244.0, 25817.695357524797, 16468.027707103218, -6183.386586116146, -13920.197060131677, 12386.755631775337, -13538.63043053513, -187500.02235174447, 33409.979451892315, -25274.570319005292, 23463.83314893641, 1522.511425317696, 1312.1144547598906, 15502.857029778605, -2729.416218926456, -114255.63564963767, -16417.311598934128, 0.162, 1.008, -0.148, 192.0, 0.0, 0.0, 0.0, 0.0, 0.0, 0.0, 0.0, 0.0, 0.0, 1.696023426847344E9, 0.0, 2023-09-29 16:37:06.847
246.0, 25248.061150081296, 15814.932085863602, -6039.977793690896, -13778.621110751763, 12405.419338395517, -13404.855239970118, -187500.02235174447, 32970.36534194533, -25293.748115747945, 23252.005666733465, 1342.6692894302953, 1123.6668972571968, 15446.128302351035, -2752.2149982708693, -114232.54629761534, -16388.679014286878, 0.162, 1.008, -0.148, 192.0, 0.0, 0.0, 0.0, 0.0, 0.0, 0.0, 0.0, 0.0, 0.0, 1.696023426847347E9, 0.0, 2023-09-29 16:37:06.847
248.0, 25821.67396803784, 16465.054925090662, -6195.881211266663, -13930.992952703591, 12387.381480620084, -13547.951107972993, -187500.02235174447, 33421.490600286794, -25277.18547310656, 23397.962558026622, 1492.090701114023, 1275.099965941902, 15485.869703992572, -2720.6319833555203, -114293.18658032258, -16411.120165720007, 0.164, 1.006, -0.152, 192.0, 2.5, 16.0, 15.5, 56.0, 125.5, 32.0, 0.0, 0.0, 0.0, 1.69602342684735E9, 0.0, 2023-09-29 16:37:06.847
250.0, 25273.09510387124, 15845.531624022917, -6062.754221290854, -13798.961198206092, 12360.805256462725, -13427.765778036808, -187500.02235174447, 33012.94541513269, -25322.939494006576, 23328.13570834824, 1360.8189059280046, 1151.0030807260373, 15428.001037597782, -2761.714489664375, -114140.70297964847, -16420.798471069156, 0.164, 1.006, -0.152, 192.0, 0.0, 0.0, 0.0, 0.0, 0.0, 0.0, 0.0, 0.0, 0.0, 1.696023426847353E9, 0.0, 2023-09-29 16:37:06.847
252.0, 25800.149238127382, 16434.567145653626, -6186.404071617612, -13924.153318900266, 12396.322178402208, -13539.233927635423, -187500.02235174447, 33407.76662919124, -25273.877414927178, 23321.586647222837, 1456.5514274300847, 1225.3226310399332, 15488.954244727403, -2718.3074019321684, -114310.41977529762, -16406.739223806766, 0.164, 1.006, -0.152, 192.0, 0.0, 0.0, 0.0, 0.0, 0.0, 0.0, 0.0, 0.0, 0.0, 1.696023426847356E9, 0.0, 2023-09-29 16:37:06.847
254.0, 25305.43807809807, 15880.176827928643, -6032.66877325401, -13771.066221125868, 12373.188122890964, -13413.147737163037, -187500.02235174447, 33029.99979615209, -25322.425403884103, 23394.051002746943, 1399.1968511577668, 1192.1526422682575, 15434.036008600713, -2760.9545303528944, -114087.86345575613, -16415.67992158889, 0.164, 1.006, -0.152, 192.0, 0.0, 0.0, 0.0, 0.0, 0.0, 0.0, 0.0, 0.0, 0.0, 1.696023426847359E9, 0.0, 2023-09-29 16:37:06.847
0.0, 25764.498205721167, 16380.09594441604, -6193.802499032319, -13924.823871233926, 12414.40473966655, -13539.993886946904, -187500.02235174447, 33376.496538698266, -25249.22344079297, 23258.75589355897, 1445.4426104357972, 1201.070988305925, 15502.87938152306, -2715.6698960864423, -114359.45950263257, -16382.822857239587, 0.164, 1.006, -0.152, 192.0, 0.0, 0.0, 0.0, 0.0, 0.0, 0.0, 0.0, 0.0, 0.0, 1.696023426907795E9, 0.0, 2023-09-29 16:37:06.907
2.0, 25352.35438970976, 15929.752997130514, -6049.700802528954, -13790.311073101888, 12356.111390127111, -13428.27986815928, -187500.02235174447, 33069.27181116007, -25340.06093025934, 23433.300666010462, 1422.9791072582136, 1215.7113809241512, 15422.211935783856, -2781.2722660627683, -114028.47487073838, -16447.30763999315, 0.164, 1.01, -0.156, 192.0, 2.5, 16.0, 15.5, 72.0, 125.5, 16.0, 0.0, 0.0, 0.0, 1.696023426907806E9, 0.0, 2023-09-29 16:37:06.907
4.0, 25701.913321246306, 16306.04461503561, -6161.928911439051, -13896.839487175881, 12438.119940533632, -13516.233982590913, -187500.02235174447, 33315.47627633528, -25227.095213782217, 23181.240043787962, 1415.3571623989537, 1163.2965401764561, 15532.02605629278, -2695.687436543398, -114403.33597699834, -16362.6615837409, 0.164, 1.01, -0.156, 192.0, 0.0, 0.0, 0.0, 0.0, 0.0, 0.0, 0.0, 0.0, 0.0, 1.69602342690781E9, 0.0, 2023-09-29 16:37:06.907
6.0, 25409.910131682176, 15996.472954329605, -6058.529741588801, -13801.330483118354, 12337.559442229205, -13446.295374190257, -187500.02235174447, 33115.91990183829, -25338.67512210311, 23499.283015642526, 1460.5523896875848, 1265.645178037307, 15427.53165096422, -2793.968056913383, -114008.71592863988, -16452.180320284406, 0.164, 1.01, -0.156, 192.0, 0.0, 0.0, 0.0, 0.0, 0.0, 0.0, 0.0, 0.0, 0.0, 1.696023426907813E9, 0.0, 2023-09-29 16:37:06.907
8.0, 25639.93193387174, 16222.851422172955, -6159.939606182529, -13901.600408744862, 12433.895460831578, -13521.061959393259, -187500.02235174447, 33275.5560607381, -25222.33429221324, 23117.67168255707, 1389.4961940641635, 1131.0653246719032, 15522.97359978838, -2712.026561740227, -114426.04534936493, -16359.66644998389, 0.164, 1.01, -0.156, 192.0, 0.0, 0.0, 0.0, 0.0, 0.0, 0.0, 0.0, 0.0, 0.0, 1.696023426907816E9, 0.0, 2023-09-29 16:37:06.907
10.0, 25485.280213985472, 16076.55925471297, -6061.234302667893, -13801.39753835172, 12341.046314364234, -13451.458627159433, -187500.02235174447, 33164.602001261956, -25324.548819607357, 23544.053559786506, 1495.6893319713274, 1298.6587045977956, 15437.031142357726, -2781.249914318313, -113993.47203892136, -16463.64676518998, 0.164, 1.01, -0.156, 192.0, 0.0, 0.0, 0.0, 0.0, 0.0, 0.0, 0.0, 0.0, 0.0, 1.696023426907825E9, 0.0, 2023-09-29 16:37:06.907
12.0, 25569.702752793164, 16139.390008376839, -6143.980460641439, -13876.097068321356, 12444.400780725573, -13499.827802160717, -187500.02235174447, 33212.03240299611, -25226.93875157103, 23099.924397459556, 1368.5526095095408, 1113.429798296666, 15522.839489321648, -2691.060625441149, -114449.87230895429, -16349.18348183435, 0.16, 1.006, -0.14400000000000002, 192.0, 2.5, 0.0, 15.5, 56.0, 125.5, 64.0, 0.0, 0.0, 0.0, 1.696023426907828E9, 0.0, 2023-09-29 16:37:06.907
14.0, 25565.075941690917, 16163.239319710652, -6084.077785501217, -13826.87852703077, 12321.62264843257, -13476.604339671654, -187500.02235174447, 33228.1927142373, -25333.042482500376, 23577.625879958377, 1520.6115270389948, 1325.5255014330749, 15427.263430030756, -2794.4597952913996, -113989.89575980853, -16478.17539908593, 0.16, 1.006, -0.14400000000000002, 192.0, 0.0, 0.0, 0.0, 0.0, 0.0, 0.0, 0.0, 0.0, 0.0, 1.696023426967045E9, 0.0, 2023-09-29 16:37:06.967
16.0, 25502.446353727148, 16060.80127487198, -6121.4946057194, -13861.501379192041, 12441.718571390937, -13486.304996765257, -187500.02235174447, 33165.11609138442, -25238.449899965515, 23071.135350601122, 1349.93360637827, 1093.6038009648087, 15515.128137484568, -2697.095596444082, -114435.14250935824, -16347.57415623357, 0.16, 1.006, -0.14400000000000002, 192.0, 0.0, 0.0, 0.0, 0.0, 0.0, 0.0, 0.0, 0.0, 0.0, 1.696023426967057E9, 0.0, 2023-09-29 16:37:06.967
18.0, 25641.295390283514, 16250.277012619617, -6100.483965931412, -13843.396466183242, 12327.456453735407, -13485.947368853971, -187500.02235174447, 33288.2071480998, -25335.09884299026, 23585.33723179546, 1535.3636783794975, 1337.416629483298, 15428.872755631539, -2790.347074311623, -113991.16980924248, -16483.11513461055, 0.16, 1.006, -0.14400000000000002, 192.0, 0.0, 0.0, 0.0, 0.0, 0.0, 0.0, 0.0, 0.0, 0.0, 1.69602342696706E9, 0.0, 2023-09-29 16:37:06.967
20.0, 25431.36780635927, 15982.100782644844, -6107.368303223647, -13841.675381860183, 12433.962516064945, -13463.349755209656, -187500.02235174447, 33115.36110822691, -25245.915382613588, 23056.204385304976, 1330.5993474244294, 1071.4085187206888, 15508.601428103619, -2714.9546402638725, -114409.16978230116, -16354.972583648276, 0.16, 1.006, -0.14400000000000002, 192.0, 0.0, 0.0, 0.0, 0.0, 0.0, 0.0, 0.0, 0.0, 0.0, 1.696023426967063E9, 0.0, 2023-09-29 16:37:06.967
22.0, 25709.80348703903, 16328.396359490915, -6121.896937119596, -13859.824998357893, 12325.757721156802, -13497.95025562647, -187500.02235174447, 33351.01555001921, -25343.078415760807, 23590.29931906454, 1543.343251150042, 1347.810190655016, 15434.125415578535, -2765.3354722661343, -114019.9588561009, -16475.292024051192, 0.16, 1.006, -0.152, 192.0, 2.5, 0.0, 15.5, 56.0, 125.5, 32.0, 0.0, 0.0, 0.0, 1.696023426967067E9, 0.0, 2023-09-29 16:37:06.967
24.0, 25377.25423303297, 15917.34777895782, -6066.442259125979, -13807.454861099108, 12435.16951026553, -13436.348847907646, -187500.02235174447, 33070.79172978303, -25239.545135443823, 23082.355926317683, 1321.5245391755748, 1069.1733442751581, 15500.01835823278, -2702.795291280185, -114371.10476149379, -16359.085304628052, 0.16, 1.006, -0.152, 192.0, 0.0, 0.0, 0.0, 0.0, 0.0, 0.0, 0.0, 0.0, 0.0, 1.69602342696707E9, 0.0, 2023-09-29 16:37:06.967
26.0, 25769.57205171252, 16386.62265379699, -6128.8706813896515, -13873.347803753353, 12346.20956733341, -13514.043511634292, -187500.02235174447, 33383.24676552376, -25293.256377369926, 23582.453856760723, 1564.3315391935753, 1356.5050192481303, 15471.788104985728, -2748.6610709024753, -114078.20750215143, -16460.942204110885, 0.16, 1.006, -0.152, 192.0, 0.0, 0.0, 0.0, 0.0, 0.0, 0.0, 0.0, 0.0, 0.0, 1.696023426967073E9, 0.0, 2023-09-29 16:37:06.967
28.0, 25319.474973616, 15856.461627061562, -6074.153610963061, -13821.69292231714, 12410.627294853604, -13452.553862637742, -187500.02235174447, 33036.370043321855, -25280.694696986044, 23104.662967284083, 1320.4293036972647, 1071.3861669762334, 15487.791954015727, -2725.2364427133134, -114346.7413600375, -16381.839380483554, 0.16, 1.006, -0.152, 192.0, 0.0, 0.0, 0.0, 0.0, 0.0, 0.0, 0.0, 0.0, 0.0, 1.696023426967076E9, 0.0, 2023-09-29 16:37:06.967
30.0, 25802.58557827301, 16426.83344207209, -6159.492571293423, -13902.807402945447, 12337.224166062375, -13533.467177565954, -187500.02235174447, 33421.69176598689, -25312.568284579313, 23511.040033226018, 1541.0410214711455, 1321.2116147532004, 15452.364439054065, -2781.1828590849473, -114117.94890379297, -16477.77306768573, 0.16, 1.006, -0.152, 192.0, 0.0, 0.0, 0.0, 0.0, 0.0, 0.0, 0.0, 0.0, 0.0, 1.696023427026839E9, 0.0, 2023-09-29 16:37:07.026
32.0, 25278.548929518336, 15814.440347485584, -6061.681337556999, -13800.749337762516, 12399.294960414763, -13431.722036805397, -187500.02235174447, 33010.10674358687, -25294.798647737345, 23140.872793301678, 1320.6081176529071, 1074.761280388985, 15465.86489270507, -2743.520169677755, -114303.33427230529, -16383.202836895329, 0.168, 1.006, -0.152, 192.0, 2.5, 32.0, 15.5, 56.0, 125.5, 32.0, 0.0, 0.0, 0.0, 1.696023427026848E9, 0.0, 2023-09-29 16:37:07.026
34.0, 25828.468898352254, 16454.25903251875, -6178.178629658059, -13912.083376894401, 12345.606070233116, -13541.15617765858, -187500.02235174447, 33442.38948135251, -25316.926874748096, 23474.852558952876, 1523.8525299850144, 1308.1805477357564, 15473.978575942348, -2749.868065103062, -114186.12172438166, -16460.092837821583, 0.168, 1.006, -0.152, 192.0, 0.0, 0.0, 0.0, 0.0, 0.0, 0.0, 0.0, 0.0, 0.0, 1.696023427026851E9, 0.0, 2023-09-29 16:37:07.026
36.0, 25262.723894443978, 15804.382062480696, -6045.565729804723, -13781.236264853032, 12383.827553251691, -13420.3673506221, -187500.02235174447, 33003.73649641711, -25324.25824692944, 23203.748250454457, 1335.0249928265803, 1104.7126179590962, 15450.86687217556, -2759.0099285852825, -114237.37427441769, -16408.34854940755, 0.168, 1.006, -0.152, 192.0, 0.0, 0.0, 0.0, 0.0, 0.0, 0.0, 0.0, 0.0, 0.0, 1.696023427026854E9, 0.0, 2023-09-29 16:37:07.026
38.0, 25831.77695653164, 16454.6837156634, -6157.503266036901, -13894.000815630057, 12384.565160818716, -13525.956991428971, -187500.02235174447, 33431.45947831386, -25289.613043023714, 23420.24724724856, 1521.0362101836456, 1293.8307277954493, 15487.63549180454, -2725.7728845802408, -114261.51415842942, -16429.8285758291, 0.168, 1.006, -0.152, 192.0, 0.0, 0.0, 0.0, 0.0, 0.0, 0.0, 0.0, 0.0, 0.0, 1.696023427026858E9, 0.0, 2023-09-29 16:37:07.026
40.0, 25265.562565989803, 15811.065234072834, -6032.24409010936, -13771.468552526065, 12384.945140474456, -13416.969885464894, -187500.02235174447, 33003.58003420592, -25310.646034556157, 23280.727658358534, 1375.3698915684095, 1151.94185399316, 15472.123381152556, -2748.8845883470285, -114214.86606775118, -16401.508915604223, 0.168, 1.006, -0.152, 192.0, 0.0, 0.0, 0.0, 0.0, 0.0, 0.0, 0.0, 0.0, 0.0, 1.696023427026861E9, 0.0, 2023-09-29 16:37:07.026
42.0, 25822.29981688259, 16434.857718331543, -6182.425461104568, -13925.583830545405, 12373.1210676576, -13547.884052739628, -187500.02235174447, 33437.38269059452, -25304.9239879756, 23349.638086514246, 1485.9663231332688, 1258.5373233005196, 15481.68992777943, -2733.73010560633, -114314.0854613883, -16431.236735729784, 0.164, 1.012, -0.15, 192.0, 2.5, 16.0, 15.5, 80.0, 125.5, 40.0, 0.0, 0.0, 0.0, 1.696023427026864E9, 0.0, 2023-09-29 16:37:07.026
44.0, 25291.356479091228, 15838.84845243078, -6027.840796451664, -13779.850456696804, 12354.077381381678, -13424.681237301975, -187500.02235174447, 33026.57997925043, -25344.240706472483, 23326.213458325085, 1382.030711416091, 1165.8669907888163, 15429.498604476286, -2778.3665392835783, -114153.06349433227, -16437.651686388457, 0.164, 1.012, -0.15, 192.0, 0.0, 0.0, 0.0, 0.0, 0.0, 0.0, 0.0, 0.0, 0.0, 1.696023427087078E9, 0.0, 2023-09-29 16:37:07.087
46.0, 25793.86839793544, 16398.6702440584, -6179.005644202905, -13926.32143811243, 12392.03064346679, -13545.313602127268, -187500.02235174447, 33402.46926575533, -25270.412894536603, 23276.16790248965, 1467.3249682575427, 1223.8921193947936, 15509.137869970546, -2722.688343845409, -114401.97252058655, -16411.410738397924, 0.164, 1.012, -0.15, 192.0, 0.0, 0.0, 0.0, 0.0, 0.0, 0.0, 0.0, 0.0, 0.0, 1.69602342708709E9, 0.0, 2023-09-29 16:37:07.087
48.0, 25332.193116211074, 15891.062127478377, -6037.832026223186, -13784.007881165491, 12337.917070140491, -13427.586964081165, -187500.02235174447, 33057.91712497677, -25352.041465287384, 23402.187037728672, 1422.062685735546, 1208.938802354193, 15416.758110136761, -2798.1701848709804, -114125.6379038856, -16470.53110248221, 0.164, 1.012, -0.15, 192.0, 0.0, 0.0, 0.0, 0.0, 0.0, 0.0, 0.0, 0.0, 0.0, 1.696023427087093E9, 0.0, 2023-09-29 16:37:07.087
50.0, 25741.185336254282, 16338.90167938491, -6185.353539628213, -13927.461377079651, 12395.092832457165, -13543.637221293118, -187500.02235174447, 33363.55487865864, -25264.936717145054, 23214.722956982012, 1440.9052063113697, 1189.068101533425, 15512.781204316761, -2710.4842913728107, -114467.44078009615, -16403.989959238763, 0.164, 1.012, -0.15, 192.0, 0.0, 0.0, 0.0, 0.0, 0.0, 0.0, 0.0, 0.0, 0.0, 1.696023427087096E9, 0.0, 2023-09-29 16:37:07.087
52.0, 25381.16578831265, 15949.82486365138, -6034.881595955086, -13782.77853522045, 12328.596392702628, -13431.789092038762, -187500.02235174447, 33094.14930273882, -25344.508927405946, 23455.22772732112, 1453.1316105284227, 1239.6724509802402, 15423.485985217809, -2790.3694260560783, -114126.12964226362, -16478.085992108106, 0.164, 1.002, -0.14400000000000002, 192.0, 2.5, 16.0, 15.5, 40.0, 125.5, 64.0, 0.0, 0.0, 0.0, 1.696023427087099E9, 0.0, 2023-09-29 16:37:07.087
54.0, 25681.975565192173, 16267.756076783668, -6177.485725579944, -13914.787937973493, 12401.641893582571, -13540.82090149175, -187500.02235174447, 33321.198322915836, -25252.844423394734, 23159.49179643295, 1418.3299444115096, 1158.2226941851013, 15510.16605021549, -2698.704922044864, -114530.98678958259, -16392.25529339973, 0.164, 1.002, -0.14400000000000002, 192.0, 0.0, 0.0, 0.0, 0.0, 0.0, 0.0, 0.0, 0.0, 0.0, 1.696023427087103E9, 0.0, 2023-09-29 16:37:07.087
56.0, 25449.763292045987, 16031.006399513055, -6058.14976193306, -13804.951465720114, 12309.709168637894, -13461.136932508582, -187500.02235174447, 33160.80220470455, -25377.477750477523, 23506.5473325905, 1470.901247370392, 1270.0261199505474, 15401.3354064626, -2810.2401268768463, -114107.22006645442, -16504.237533120817, 0.164, 1.002, -0.14400000000000002, 192.0, 0.0, 0.0, 0.0, 0.0, 0.0, 0.0, 0.0, 0.0, 0.0, 1.696023427087106E9, 0.0, 2023-09-29 16:37:07.087
58.0, 25613.422764947747, 16190.977834579688, -6152.898806679107, -13890.268074306021, 12416.617562367626, -13522.827747205229, -187500.02235174447, 33265.38601701093, -25240.081577310753, 23106.294644629317, 1385.8752114624037, 1122.5046065455206, 15527.667466123996, -2696.000360965772, -114574.01389765905, -16373.47982805727, 0.164, 1.002, -0.14400000000000002, 192.0, 0.0, 0.0, 0.0, 0.0, 0.0, 0.0, 0.0, 0.0, 0.0, 1.696023427087109E9, 0.0, 2023-09-29 16:37:07.087
60.0, 25523.121717348306, 16118.535830800038, -6102.696788632487, -13843.93290805017, 12285.47987764834, -13496.72090968143, -187500.02235174447, 33232.97598755074, -25382.573948213336, 23541.170184751772, 1494.3929307929195, 1300.5138993875862, 15397.446202927376, -2823.98644971686, -114110.77399382282, -16517.02273094925, 0.164, 1.002, -0.14400000000000002, 192.0, 0.0, 0.0, 0.0, 0.0, 0.0, 0.0, 0.0, 0.0, 0.0, 1.696023427147455E9, 0.0, 2023-09-29 16:37:07.147
62.0, 25538.030330899994, 16104.454231793194, -6140.851216417696, -13874.420687487209, 12411.275495442807, -13501.906514395061, -187500.02235174447, 33221.66600485635, -25266.367228790194, 23049.632972435116, 1330.353478235421, 1076.4600129675882, 15482.58399755764, -2722.8001025676854, -114572.20340635818, -16387.38261310847, 0.166, 1.012, -0.146, 192.0, 2.5, 24.0, 15.5, 80.0, 125.5, 56.0, 0.0, 0.0, 0.0, 1.696023427147463E9, 0.0, 2023-09-29 16:37:07.147
64.0, 25593.97674727163, 16198.040985827565, -6085.620055868632, -13820.932963005658, 12315.654732663004, -13474.52562743731, -187500.02235174447, 33273.00796187019, -25352.667314132133, 23573.960193867708, 1508.9215646888692, 1316.6295071398624, 15417.473365959331, -2791.8446411901286, -114158.00322985688, -16495.900332438985, 0.166, 1.012, -0.146, 192.0, 0.0, 0.0, 0.0, 0.0, 0.0, 0.0, 0.0, 0.0, 0.0, 1.696023427147467E9, 0.0, 2023-09-29 16:37:07.147
66.0, 25460.31331542889, 16013.035596970987, -6108.642352657599, -13837.83088181387, 12446.233623770908, -13471.128162280103, -187500.02235174447, 33146.22886731969, -25227.698710882512, 23058.08193183922, 1335.74024864915, 1078.0693385683703, 15521.476032909875, -2679.683587513398, -114654.68134339826, -16335.392455505427, 0.166, 1.012, -0.146, 192.0, 0.0, 0.0, 0.0, 0.0, 0.0, 0.0, 0.0, 0.0, 0.0, 1.69602342714747E9, 0.0, 2023-09-29 16:37:07.147
68.0, 25663.580079505457, 16273.74634429769, -6119.63941092961, -13859.445018702152, 12321.242668776831, -13509.751976698873, -187500.02235174447, 33328.395584630445, -25317.709185804033, 23584.174941083784, 1535.8107132686036, 1340.7693911515942, 15436.025313857237, -2791.129385367559, -114236.03316975036, -16482.221064832338, 0.166, 1.012, -0.146, 192.0, 0.0, 0.0, 0.0, 0.0, 0.0, 0.0, 0.0, 0.0, 0.0, 1.696023427147473E9, 0.0, 2023-09-29 16:37:07.147
70.0, 25395.336794297316, 15940.794758891436, -6103.2779339883255, -13843.441169672153, 12430.341533463185, -13469.742354123873, -187500.02235174447, 33105.74985811113, -25224.56946665877, 23048.738902656904, 1315.2213472391782, 1055.7175941130631, 15496.710300053395, -2711.7359890623084, -114644.1089682709, -16346.255403310706, 0.166, 1.012, -0.146, 192.0, 0.0, 0.0, 0.0, 0.0, 0.0, 0.0, 0.0, 0.0, 0.0, 1.696023427147477E9, 0.0, 2023-09-29 16:37:07.147
72.0, 25725.740280835664, 16345.227223065762, -6127.7530941668865, -13872.2749200195, 12344.041448121245, -13506.935656897505, -187500.02235174447, 33372.60733516304, -25295.603310537736, 23558.448083215724, 1532.1897306668438, 1331.068734057991, 15445.345991295098, -2780.8475829181175, -114308.27400782991, -16458.6846779209, 0.17200000000000001, 1.014, -0.15, 192.0, 2.5, 48.0, 15.5, 88.0, 125.5, 40.0, 0.0, 0.0, 0.0, 1.69602342714748E9, 0.0, 2023-09-29 16:37:07.147
74.0, 25336.507002890947, 15877.42756336064, -6077.01463425334, -13817.379035637265, 12450.033420328311, -13444.75310382284, -187500.02235174447, 33059.54880232201, -25197.16622795656, 23083.920548429556, 1310.4380739257424, 1062.0654895383705, 15507.908524025504, -2710.8195675396405, -114667.44418948224, -16320.997932076209, 0.17200000000000001, 1.014, -0.15, 192.0, 0.0, 0.0, 0.0, 0.0, 0.0, 0.0, 0.0, 0.0, 0.0, 1.696023427207664E9, 0.0, 2023-09-29 16:37:07.207
76.0, 25772.52248198062, 16397.686767302366, -6161.12424863866, -13894.783126685994, 12356.200797104932, -13525.889936195605, -187500.02235174447, 33405.12912334551, -25264.86966191169, 23542.84656558592, 1535.2295679127656, 1335.293213760044, 15453.638488488019, -2766.341300766623, -114415.33886377084, -16430.6779421184, 0.17200000000000001, 1.014, -0.15, 192.0, 0.0, 0.0, 0.0, 0.0, 0.0, 0.0, 0.0, 0.0, 0.0, 1.69602342720768E9, 0.0, 2023-09-29 16:37:07.207
78.0, 25292.33995584726, 15833.171109339131, -6085.77651807982, -13814.696826302628, 12430.609754396648, -13436.728827563385, -187500.02235174447, 33024.97065364965, -25219.60737938969, 23125.226572182964, 1310.326315203466, 1074.8059838778954, 15491.524695339764, -2715.4016751529784, -114668.13709356036, -16328.530469957648, 0.17200000000000001, 1.014, -0.15, 192.0, 0.0, 0.0, 0.0, 0.0, 0.0, 0.0, 0.0, 0.0, 0.0, 1.696023427207683E9, 0.0, 2023-09-29 16:37:07.207
80.0, 25811.660386521864, 16441.40677945695, -6185.934684984051, -13912.41865306123, 12368.78482923327, -13531.969610687449, -187500.02235174447, 33428.352585834575, -25249.84928963772, 23508.8495622694, 1526.0430009416343, 1325.033763055058, 15458.511168779276, -2746.9623383238722, -114509.3726526943, -16414.115299477016, 0.17200000000000001, 1.014, -0.15, 192.0, 0.0, 0.0, 0.0, 0.0, 0.0, 0.0, 0.0, 0.0, 0.0, 1.696023427207686E9, 0.0, 2023-09-29 16:37:07.207
82.0, 25263.685019455555, 15806.505478203951, -6049.298471128759, -13773.927244416147, 12444.579594681216, -13394.864010198595, -187500.02235174447, 32987.66559215374, -25219.696786367513, 23179.094276320255, 1326.6877921447508, 1099.7505306900182, 15475.789067243228, -2715.289916430702, -114667.75711390462, -16321.08733905403, 0.17200000000000001, 1.008, -0.148, 192.0, 2.5, 48.0, 15.5, 64.0, 125.5, 48.0, 0.0, 0.0, 0.0, 1.69602342720769E9, 0.0, 2023-09-29 16:37:07.207
84.0, 25831.93341874283, 16458.25999477625, -6208.331132928269, -13929.651848036272, 12389.88487599908, -13544.128959671136, -187500.02235174447, 33435.683958015914, -25205.056393749284, 23459.563965745445, 1530.4909980882405, 1319.35641996341, 15499.951302999414, -2714.7311228193194, -114649.29457298454, -16376.117333902996, 0.17200000000000001, 1.008, -0.148, 192.0, 0.0, 0.0, 0.0, 0.0, 0.0, 0.0, 0.0, 0.0, 0.0, 1.696023427207695E9, 0.0, 2023-09-29 16:37:07.207
86.0, 25264.914365400597, 15807.287789259886, -6076.053509241761, -13798.514163316986, 12404.301751172752, -13420.121481433092, -187500.02235174447, 32997.16508354725, -25247.077673325264, 23242.729692784513, 1337.4836847166641, 1124.8515397133278, 15442.52967149373, -2747.968166824361, -114650.74743637413, -16354.726714459268, 0.17200000000000001, 1.008, -0.148, 192.0, 0.0, 0.0, 0.0, 0.0, 0.0, 0.0, 0.0, 0.0, 0.0, 1.696023427207698E9, 0.0, 2023-09-29 16:37:07.207
88.0, 25834.97325598875, 16454.639012174488, -6209.18049921757, -13926.679066023717, 12410.537887875782, -13539.3456863577, -187500.02235174447, 33427.61497826755, -25194.88635002212, 23395.05683124743, 1500.5843640070395, 1283.906553257293, 15490.608273817095, -2707.690323315898, -114742.09901596297, -16364.919109930886, 0.17200000000000001, 1.008, -0.148, 192.0, 0.0, 0.0, 0.0, 0.0, 0.0, 0.0, 0.0, 0.0, 0.0, 1.696023427207702E9, 0.0, 2023-09-29 16:37:07.207
90.0, 25276.738438217457, 15824.118652834733, -6064.274139913815, -13783.24792185401, 12406.089890729178, -13409.996141194839, -187500.02235174447, 32997.54506320299, -25236.52764994236, 23313.94235061912, 1369.9160659213146, 1163.7659268100176, 15455.15840711098, -2745.442419700911, -114658.77171263358, -16357.386572049449, 0.17200000000000001, 1.008, -0.148, 192.0, 0.0, 0.0, 0.0, 0.0, 0.0, 0.0, 0.0, 0.0, 0.0, 1.696023427266964E9, 0.0, 2023-09-29 16:37:07.266
92.0, 25815.68370052382, 16422.07252050311, -6209.471071895489, -13928.333095113408, 12424.552431649261, -13533.176604888034, -187500.02235174447, 33406.15730359046, -25188.694916808003, 23329.8567926713, 1476.288017784121, 1256.2574453660782, 15507.170916458479, -2708.4055791384676, -114852.42722659436, -16348.66939171188, 0.166, 1.006, -0.14400000000000002, 192.0, 2.5, 24.0, 15.5, 56.0, 125.5, 64.0, 0.0, 0.0, 0.0, 1.696023427266973E9, 0.0, 2023-09-29 16:37:07.266
94.0, 25309.908426989132, 15854.897004949691, -6074.891218530085, -13796.63661678274, 12383.358166618129, -13418.825080254685, -187500.02235174447, 33027.78697345102, -25258.52176648638, 23366.37954311127, 1395.218240644722, 1199.1487382827686, 15447.827034929638, -2747.767001124263, -114662.66091616881, -16368.897720443932, 0.166, 1.006, -0.14400000000000002, 192.0, 0.0, 0.0, 0.0, 0.0, 0.0, 0.0, 0.0, 0.0, 0.0, 1.696023427266977E9, 0.0, 2023-09-29 16:37:07.266
96.0, 25779.831502417506, 16372.742220490245, -6207.034731749861, -13928.333095113408, 12437.449388199973, -13533.377770588133, -187500.02235174447, 33376.98827707628, -25186.07976270673, 23233.87840198021, 1439.0500115215793, 1212.8950611227824, 15507.036805991747, -2703.935230247406, -114942.34829453807, -16339.371066018472, 0.166, 1.006, -0.14400000000000002, 192.0, 0.0, 0.0, 0.0, 0.0, 0.0, 0.0, 0.0, 0.0, 0.0, 1.69602342726698E9, 0.0, 2023-09-29 16:37:07.266
98.0, 25362.07739854782, 15915.62669463476, -6054.394668864568, -13774.217817094066, 12387.225018408897, -13407.336283604656, -187500.02235174447, 33056.53131682054, -25255.437225751546, 23434.328846255405, 1428.2317672052106, 1238.91249166876, 15432.404331255477, -2750.382155225534, -114666.95245110423, -16378.598377537535, 0.166, 1.006, -0.14400000000000002, 192.0, 0.0, 0.0, 0.0, 0.0, 0.0, 0.0, 0.0, 0.0, 0.0, 1.696023427266983E9, 0.0, 2023-09-29 16:37:07.266
100.0, 25723.728623834686, 16307.22925749174, -6192.260228664903, -13914.922048440225, 12459.42115299954, -13514.19997384548, -187500.02235174447, 33326.294520651645, -25165.963192696952, 23194.852256161244, 1426.2201102042332, 1196.555935925953, 15536.406998206021, -2674.2074101218477, -115055.157548804, -16303.138888256419, 0.166, 1.006, -0.14400000000000002, 192.0, 0.0, 0.0, 0.0, 0.0, 0.0, 0.0, 0.0, 0.0, 0.0, 1.696023427266987E9, 0.0, 2023-09-29 16:37:07.266
102.0, 25415.45336430709, 15982.413707067217, -6084.7259860904205, -13809.243000655533, 12359.106523884122, -13436.058275229727, -187500.02235174447, 33109.05791629051, -25272.268089326393, 23485.156713146775, 1446.8731220809368, 1266.1816199042346, 15427.732816664316, -2781.4063765295004, -114692.36638454991, -16405.219305183808, 0.168, 1.0, -0.14400000000000002, 192.0, 2.5, 32.0, 15.5, 32.0, 125.5, 64.0, 0.0, 0.0, 0.0, 1.69602342726699E9, 0.0, 2023-09-29 16:37:07.266
104.0, 25654.617029978876, 16226.695922219269, -6177.418670346578, -13897.107708109344, 12463.824446657234, -13497.704386437463, -187500.02235174447, 33273.96908688177, -25182.324669638238, 23136.111871732697, 1378.1415078808675, 1143.850522500339, 15512.82590780567, -2674.877962455507, -115125.56554383821, -16308.726824370246, 0.168, 1.0, -0.14400000000000002, 192.0, 0.0, 0.0, 0.0, 0.0, 0.0, 0.0, 0.0, 0.0, 0.0, 1.696023427326715E9, 0.0, 2023-09-29 16:37:07.326
106.0, 25485.593138407843, 16062.410600472762, -6082.535515133801, -13804.191506408633, 12362.34752683014, -13431.18559493847, -187500.02235174447, 33159.10347212595, -25281.52171153089, 23542.533641163547, 1476.2433142952102, 1303.3972744223208, 15438.349895280588, -2771.92923688045, -114726.56455356652, -16402.78296503818, 0.168, 1.0, -0.14400000000000002, 192.0, 0.0, 0.0, 0.0, 0.0, 0.0, 0.0, 0.0, 0.0, 0.0, 1.696023427326726E9, 0.0, 2023-09-29 16:37:07.326
108.0, 25585.952471012173, 16147.10136021392, -6159.470219548967, -13874.487742720574, 12471.669908961048, -13472.133990780592, -187500.02235174447, 33213.28410068561, -25156.441349558994, 23119.862153513688, 1369.960769410225, 1133.725182262085, 15538.664524396007, -2655.2084273348364, -115207.9987773894, -16276.495608865693, 0.168, 1.0, -0.14400000000000002, 192.0, 0.0, 0.0, 0.0, 0.0, 0.0, 0.0, 0.0, 0.0, 0.0, 1.69602342732673E9, 0.0, 2023-09-29 16:37:07.326
110.0, 25559.935040466196, 16148.531871859059, -6116.711332405965, -13834.276954445477, 12342.610936476105, -13459.035868529782, -187500.02235174447, 33221.17426647833, -25282.795760964844, 23590.455781275723, 1511.3579048344977, 1337.8636643724042, 15434.036008600713, -2767.92827462295, -114776.47599893523, -16413.8247267991, 0.168, 1.0, -0.14400000000000002, 192.0, 0.0, 0.0, 0.0, 0.0, 0.0, 0.0, 0.0, 0.0, 0.0, 1.696023427326733E9, 0.0, 2023-09-29 16:37:07.326
112.0, 25513.555170721433, 16064.13168479582, -6160.967786427473, -13872.811361886426, 12450.480455217417, -13472.581025669699, -187500.02235174447, 33166.79247221857, -25185.52096909535, 23083.47351354045, 1331.1134375469014, 1093.4026352647109, 15514.390529917542, -2681.315264858635, -115249.08128369824, -16291.583036373024, 0.168, 1.0, -0.146, 192.0, 2.5, 32.0, 15.5, 32.0, 125.5, 56.0, 0.0, 0.0, 0.0, 1.696023427326736E9, 0.0, 2023-09-29 16:37:07.326
114.0, 25639.037864093527, 16239.861099703445, -6136.693791949009, -13853.946489566148, 12335.570136972683, -13478.14661003907, -187500.02235174447, 33289.81647370058, -25300.654804784634, 23602.078688392485, 1515.090646158534, 1339.0930103174462, 15423.754206151272, -2776.757213682796, -114822.02885413515, -16427.660456616934, 0.168, 1.0, -0.146, 192.0, 0.0, 0.0, 0.0, 0.0, 0.0, 0.0, 0.0, 0.0, 0.0, 1.696023427326739E9, 0.0, 2023-09-29 16:37:07.326
116.0, 25451.529079857955, 15993.097840916855, -6132.8045884137855, -13845.83280632887, 12451.173359295532, -13458.544130151766, -187500.02235174447, 33118.28918675055, -25187.644384818603, 23077.37148730415, 1318.7976263520272, 1079.9021816137054, 15512.669445594483, -2680.644712524976, -115264.5039873724, -16290.532504383626, 0.168, 1.0, -0.146, 192.0, 0.0, 0.0, 0.0, 0.0, 0.0, 0.0, 0.0, 0.0, 0.0, 1.696023427326743E9, 0.0, 2023-09-29 16:37:07.326
118.0, 25706.94246374875, 16315.588809918025, -6139.867739661663, -13852.247756987545, 12347.707134211914, -13481.946406596471, -187500.02235174447, 33327.054479963124, -25285.075638899285, 23599.038851146564, 1529.216948654288, 1357.868475659904, 15442.48496800482, -2761.4909722198217, -114892.59331138055, -16423.05599725914, 0.168, 1.0, -0.146, 192.0, 0.0, 0.0, 0.0, 0.0, 0.0, 0.0, 0.0, 0.0, 0.0, 1.696023427326746E9, 0.0, 2023-09-29 16:37:07.326
120.0, 25384.65266044768, 15916.677226624159, -6104.775500866831, -13816.820242025882, 12462.125714078631, -13430.22446992689, -187500.02235174447, 33057.80536625449, -25192.94174825451, 23083.227644351442, 1315.8248443394714, 1081.6009141923087, 15506.388605402542, -2682.254038125758, -115304.35714773621, -16287.067983993053, 0.168, 1.0, -0.146, 192.0, 0.0, 0.0, 0.0, 0.0, 0.0, 0.0, 0.0, 0.0, 0.0, 1.696023427387266E9, 0.0, 2023-09-29 16:37:07.387
122.0, 25769.90732787935, 16382.040546183653, -6167.203923130503, -13874.59950144285, 12353.630346492571, -13507.181526086513, -187500.02235174447, 33369.16516651692, -25266.05430436782, 23585.29252830655, 1548.2606349302096, 1359.2989873050437, 15461.483950791831, -2738.379268453034, -114993.53378934071, -16415.09877623305, 0.17, 1.002, -0.14400000000000002, 192.0, 2.5, 40.0, 15.5, 40.0, 125.5, 64.0, 0.0, 0.0, 0.0, 1.696023427387275E9, 0.0, 2023-09-29 16:37:07.387
124.0, 25335.836450557286, 15865.447028332595, -6093.689035616999, -13803.185677908144, 12441.36094347965, -13421.931972733972, -187500.02235174447, 33024.702432716185, -25217.461611921983, 23128.556982106806, 1314.1708152497788, 1079.4104432356887, 15492.3070063957, -2691.798233008174, -115300.19972326753, -16308.056272036585, 0.17, 1.002, -0.14400000000000002, 192.0, 0.0, 0.0, 0.0, 0.0, 0.0, 0.0, 0.0, 0.0, 0.0, 1.696023427387279E9, 0.0, 2023-09-29 16:37:07.387
126.0, 25809.313453354058, 16422.407796669937, -6175.675234279065, -13883.540199224974, 12369.433029822474, -13509.729624954418, -187500.02235174447, 33394.46734124033, -25261.494548498937, 23553.79892036902, 1540.5045796042182, 1345.843237142949, 15465.976651427347, -2732.2995939611906, -115098.5646365362, -16404.034662727674, 0.17, 1.002, -0.14400000000000002, 192.0, 0.0, 0.0, 0.0, 0.0, 0.0, 0.0, 0.0, 0.0, 0.0, 1.696023427387283E9, 0.0, 2023-09-29 16:37:07.387
128.0, 25297.34674660525, 15819.804766154859, -6072.544285362278, -13783.404384065198, 12438.79049286729, -13405.637551026053, -187500.02235174447, 32988.44790320968, -25227.788117860335, 23162.375171467684, 1325.324335732977, 1099.5046615010097, 15495.212733174889, -2688.870154484529, -115315.80124089733, -16313.42069070586, 0.17, 1.002, -0.14400000000000002, 192.0, 0.0, 0.0, 0.0, 0.0, 0.0, 0.0, 0.0, 0.0, 0.0, 1.696023427387287E9, 0.0, 2023-09-29 16:37:07.387
130.0, 25845.813852049574, 16452.940279595885, -6209.024037006383, -13920.130004898312, 12369.321271100196, -13539.815072991261, -187500.02235174447, 33427.70438524537, -25255.973667618477, 23492.443381839203, 1533.0390969561456, 1332.8792253588708, 15471.11755265207, -2726.219919469347, -115201.02503311934, -16402.045357471154, 0.17, 1.002, -0.14400000000000002, 192.0, 0.0, 0.0, 0.0, 0.0, 0.0, 0.0, 0.0, 0.0, 0.0, 1.696023427387298E9, 0.0, 2023-09-29 16:37:07.387
132.0, 25282.639298753656, 15805.589056681283, -6071.002014994862, -13782.577369520352, 12413.577725121704, -13411.493708073343, -187500.02235174447, 32987.26326075355, -25267.440112524047, 23213.426555803606, 1328.9900218236473, 1110.8369959398503, 15462.15450312549, -2727.3375066921126, -115273.80231306581, -16351.820987680077, 0.17, 1.004, -0.146, 192.0, 2.5, 40.0, 15.5, 48.0, 125.5, 56.0, 0.0, 0.0, 0.0, 1.696023427387302E9, 0.0, 2023-09-29 16:37:07.387
134.0, 25851.4017881634, 16452.73911389579, -6193.936609499051, -13908.149469870266, 12397.707986558436, -13523.878279194627, -187500.02235174447, 33422.11644913154, -25233.890144096633, 23430.126718297808, 1511.0673321565787, 1300.4915476431308, 15502.87938152306, -2707.2432884267914, -115298.74685987794, -16384.901569473932, 0.17, 1.004, -0.146, 192.0, 0.0, 0.0, 0.0, 0.0, 0.0, 0.0, 0.0, 0.0, 0.0, 1.696023427447806E9, 0.0, 2023-09-29 16:37:07.447
136.0, 25276.492569028447, 15803.577399680305, -6050.304299629248, -13762.863130910771, 12407.341588418674, -13393.36644332009, -187500.02235174447, 32982.01060080655, -25244.507222712902, 23263.02507674993, 1358.740193693661, 1143.5599498224199, 15465.261395604777, -2720.2743554442354, -115281.20074048052, -16352.871519669477, 0.17, 1.004, -0.146, 192.0, 0.0, 0.0, 0.0, 0.0, 0.0, 0.0, 0.0, 0.0, 0.0, 1.696023427447829E9, 0.0, 2023-09-29 16:37:07.447
138.0, 25833.386282132422, 16433.427206686403, -6205.537164871355, -13918.99006593109, 12413.287152443785, -13534.473006066442, -187500.02235174447, 33415.74620196178, -25210.13023974064, 23363.76438901, 1494.1470616039112, 1272.7530327740947, 15509.339035670644, -2692.2229161528253, -115412.0925560108, -16360.895795928933, 0.17, 1.004, -0.146, 192.0, 0.0, 0.0, 0.0, 0.0, 0.0, 0.0, 0.0, 0.0, 0.0, 1.696023427447832E9, 0.0, 2023-09-29 16:37:07.447
140.0, 25294.709240759523, 15832.768777938936, -6066.86694227063, -13776.028308394947, 12382.26293113982, -13412.164260407002, -187500.02235174447, 33010.30790928697, -25278.414819051603, 23329.677978715656, 1373.8946764343593, 1166.559894866931, 15445.748322695295, -2751.1421145370145, -115260.88300477064, -16378.643081026446, 0.17, 1.004, -0.146, 192.0, 0.0, 0.0, 0.0, 0.0, 0.0, 0.0, 0.0, 0.0, 0.0, 1.696023427447836E9, 0.0, 2023-09-29 16:37:07.447
142.0, 25807.43590681981, 16400.123107447995, -6212.779130074875, -13925.270906123033, 12413.823594310714, -13540.3962183471, -187500.02235174447, 33393.41680925093, -25228.190449260528, 23277.710172857067, 1449.3541657154758, 1224.070933350436, 15494.899808752514, -2698.995494722783, -115484.57926327936, -16364.09209538604, 0.166, 1.008, -0.14400000000000002, 192.0, 2.5, 24.0, 15.5, 64.0, 125.5, 64.0, 0.0, 0.0, 0.0, 1.696023427447839E9, 0.0, 2023-09-29 16:37:07.447
144.0, 25336.261133701937, 15879.595682572804, -6047.487979827879, -13760.806770420882, 12376.585588048172, -13397.479164299866, -187500.02235174447, 33027.51875251756, -25293.032859925373, 23390.273557933993, 1402.9072407373478, 1198.9475725826708, 15441.836767415616, -2750.4268587144447, -115242.28635338382, -16404.5711045946, 0.166, 1.008, -0.14400000000000002, 192.0, 0.0, 0.0, 0.0, 0.0, 0.0, 0.0, 0.0, 0.0, 0.0, 1.696023427447842E9, 0.0, 2023-09-29 16:37:07.447
146.0, 25764.878185376907, 16346.836548666544, -6199.613952590698, -13912.485708294596, 12432.487300930894, -13517.15040411358, -187500.02235174447, 33351.373177930494, -25200.787210558323, 23226.435271076592, 1444.0791540240234, 1203.8873081072936, 15542.397265720043, -2668.842991452574, -115591.39825003127, -16326.585868190035, 0.166, 1.008, -0.14400000000000002, 192.0, 0.0, 0.0, 0.0, 0.0, 0.0, 0.0, 0.0, 0.0, 0.0, 1.696023427447846E9, 0.0, 2023-09-29 16:37:07.447
148.0, 25388.474808749535, 15945.354514760318, -6053.321785130714, -13772.809657193382, 12364.649756509038, -13410.331417361667, -187500.02235174447, 33073.563346095485, -25307.092107187764, 23473.93613743021, 1443.252139479177, 1251.876503452838, 15433.05253184468, -2747.9458150799055, -115247.36019937518, -16406.850982529042, 0.166, 1.008, -0.14400000000000002, 192.0, 0.0, 0.0, 0.0, 0.0, 0.0, 0.0, 0.0, 0.0, 0.0, 1.696023427447849E9, 0.0, 2023-09-29 16:37:07.447
150.0, 25698.76172527811, 16279.893074022899, -6162.957091683995, -13875.56062645443, 12458.124751821131, -13486.103831065158, -187500.02235174447, 33300.09827615002, -25209.28087345134, 23187.699697935546, 1414.1948716872778, 1177.6240083723078, 15533.590678404651, -2653.8896744119734, -115664.19788172221, -16311.051405793598, 0.166, 1.008, -0.14400000000000002, 192.0, 0.0, 0.0, 0.0, 0.0, 0.0, 0.0, 0.0, 0.0, 0.0, 1.696023427507651E9, 0.0, 2023-09-29 16:37:07.507
152.0, 25455.19476594863, 16030.60406811286, -6066.576369592711, -13777.1011921288, 12356.40196280503, -13414.712359274909, -187500.02235174447, 33131.63317819037, -25308.63437755518, 23540.119652762372, 1482.6806166983388, 1304.805434323005, 15442.239098815811, -2743.766038866763, -115273.02000200987, -16406.8733342735, 0.16, 1.008, -0.148, 192.0, 2.5, 0.0, 15.5, 64.0, 125.5, 48.0, 0.0, 0.0, 0.0, 1.696023427507674E9, 0.0, 2023-09-29 16:37:07.507
154.0, 25636.243896036613, 16208.568657466014, -6155.26809159137, -13865.770562383004, 12460.89636813359, -13472.692784391975, -187500.02235174447, 33253.74075814972, -25212.03013801934, 23147.980648038465, 1388.7138830082279, 1157.172162195702, 15529.187384746956, -2641.931491128384, -115717.37268178139, -16295.13696374142, 0.16, 1.008, -0.148, 192.0, 0.0, 0.0, 0.0, 0.0, 0.0, 0.0, 0.0, 0.0, 0.0, 1.696023427507677E9, 0.0, 2023-09-29 16:37:07.507
156.0, 25527.793231939464, 16114.534868542538, -6097.354721707669, -13808.550096577419, 12337.805311418213, -13441.065065987716, -187500.02235174447, 33196.1850161773, -25330.293217932372, 23584.353755039425, 1501.1431576184223, 1328.9900218236473, 15429.655066687474, -2752.1479430375034, -115278.83145556826, -16422.698369347854, 0.16, 1.008, -0.148, 192.0, 0.0, 0.0, 0.0, 0.0, 0.0, 0.0, 0.0, 0.0, 0.0, 1.696023427507681E9, 0.0, 2023-09-29 16:37:07.507
158.0, 25559.39859859927, 16118.021740677565, -6153.45760029049, -13865.70350714964, 12458.437676243506, -13468.781229112295, -187500.02235174447, 33201.16945519084, -25226.648178893112, 23102.29368237182, 1352.0793738459795, 1111.9545831626158, 15512.915314783493, -2674.1180031440263, -115735.65640874582, -16312.37015871646, 0.16, 1.008, -0.148, 192.0, 0.0, 0.0, 0.0, 0.0, 0.0, 0.0, 0.0, 0.0, 0.0, 1.696023427507684E9, 0.0, 2023-09-29 16:37:07.507
160.0, 25606.091392766404, 16199.24798002815, -6116.085483561216, -13829.516032876496, 12338.565270729694, -13460.444028430466, -187500.02235174447, 33258.36756925197, -25331.857840044242, 23591.685127220768, 1517.4152275818858, 1340.8140946405047, 15424.96120035186, -2758.7193559073635, -115297.7633831219, -16436.422340443416, 0.16, 1.008, -0.148, 192.0, 0.0, 0.0, 0.0, 0.0, 0.0, 0.0, 0.0, 0.0, 0.0, 1.696023427507687E9, 0.0, 2023-09-29 16:37:07.507
162.0, 25491.94103383315, 16038.784806583502, -6140.560643739777, -13843.284707460965, 12454.257900030363, -13454.766685338818, -187500.02235174447, 33145.424204519295, -25230.202106261506, 23084.456990296483, 1331.225196269178, 1096.7777486774623, 15510.188401959946, -2664.104421628049, -115739.72442623669, -16312.61602790547, 0.166, 1.006, -0.148, 192.0, 2.5, 24.0, 15.5, 56.0, 125.5, 48.0, 0.0, 0.0, 0.0, 1.69602342750769E9, 0.0, 2023-09-29 16:37:07.507
164.0, 25672.945460432227, 16274.752172798178, -6125.719085421453, -13834.947506779135, 12351.261061580308, -13465.38376395509, -187500.02235174447, 33293.75038072472, -25321.53133410589, 23611.511124552624, 1534.1343324344555, 1360.7518506946387, 15442.596726727097, -2738.1110475195705, -115345.37259881171, -16432.041398530175, 0.166, 1.006, -0.148, 192.0, 0.0, 0.0, 0.0, 0.0, 0.0, 0.0, 0.0, 0.0, 0.0, 1.696023427567109E9, 0.0, 2023-09-29 16:37:07.567
166.0, 25421.55539054339, 15960.039610867456, -6112.688018404009, -13824.933925263158, 12451.888615118101, -13439.880423531584, -187500.02235174447, 33086.10267473492, -25240.729777899956, 23092.973004933956, 1322.709181631706, 1089.4910799850322, 15499.079584965657, -2673.849782210563, -115753.85072873245, -16316.974618074253, 0.166, 1.006, -0.148, 192.0, 0.0, 0.0, 0.0, 0.0, 0.0, 0.0, 0.0, 0.0, 0.0, 1.69602342756712E9, 0.0, 2023-09-29 16:37:07.567
168.0, 25738.033740286082, 16347.305935300104, -6142.237024573926, -13859.60148091334, 12351.953965658424, -13487.780211899306, -187500.02235174447, 33344.622951105, -25321.240761427973, 23610.281778607583, 1547.7018413188268, 1365.8033449415382, 15444.653087216984, -2747.4317249574337, -115402.25778845046, -16433.941296808876, 0.166, 1.006, -0.148, 192.0, 0.0, 0.0, 0.0, 0.0, 0.0, 0.0, 0.0, 0.0, 0.0, 1.696023427567124E9, 0.0, 2023-09-29 16:37:07.567
170.0, 25364.647849160177, 15898.61701710427, -6092.482041416412, -13805.197334909122, 12444.154911536565, -13421.663751800508, -187500.02235174447, 33047.23299112714, -25250.318676271283, 23101.511371315883, 1319.4011234523207, 1082.494983970521, 15494.855105263605, -2679.5271253022106, -115732.77303371108, -16321.914353598877, 0.166, 1.006, -0.148, 192.0, 0.0, 0.0, 0.0, 0.0, 0.0, 0.0, 0.0, 0.0, 0.0, 1.696023427567127E9, 0.0, 2023-09-29 16:37:07.567
172.0, 25789.39804904438, 16409.175563952394, -6157.547969525811, -13869.369193240309, 12348.981183645867, -13496.743261425885, -187500.02235174447, 33387.51594871473, -25318.580903837792, 23568.506368220613, 1548.4618006303074, 1358.6284349713844, 15453.862005932571, -2723.940041534906, -115449.86700414027, -16431.192032240873, 0.168, 1.004, -0.148, 192.0, 2.5, 32.0, 15.5, 48.0, 125.5, 48.0, 0.0, 0.0, 0.0, 1.69602342756713E9, 0.0, 2023-09-29 16:37:07.567
174.0, 25313.887037502176, 15848.035019401912, -6066.084631214694, -13778.308186329388, 12434.968344565434, -13402.754175991318, -187500.02235174447, 33003.84825513938, -25258.789987419845, 23141.54334563534, 1324.7878938660497, 1097.2247835665685, 15477.733669010839, -2677.381357834501, -115708.43198399925, -16324.954190844797, 0.168, 1.004, -0.148, 192.0, 0.0, 0.0, 0.0, 0.0, 0.0, 0.0, 0.0, 0.0, 0.0, 1.696023427567133E9, 0.0, 2023-09-29 16:37:07.567
176.0, 25826.993683218207, 16452.090913306583, -6167.449792319512, -13882.22144630211, 12363.219244863898, -13504.991055129893, -187500.02235174447, 33418.04843164068, -25296.9220634606, 23536.141042249328, 1546.606605840517, 1351.3641180234097, 15476.034936432236, -2707.712675060353, -115527.80753705592, -16413.467098887813, 0.168, 1.004, -0.148, 192.0, 0.0, 0.0, 0.0, 0.0, 0.0, 0.0, 0.0, 0.0, 0.0, 1.696023427567136E9, 0.0, 2023-09-29 16:37:07.567
178.0, 25289.747153490443, 15828.343132536786, -6059.468514855924, -13772.429677537642, 12409.9790942644, -13399.356710834112, -187500.02235174447, 32998.86381612585, -25285.85794995522, 23195.63456721718, 1332.543949192041, 1113.653315741219, 15472.525712552753, -2695.978009221317, -115655.86068104037, -16346.590679477535, 0.168, 1.004, -0.148, 192.0, 0.0, 0.0, 0.0, 0.0, 0.0, 0.0, 0.0, 0.0, 0.0, 1.696023427567139E9, 0.0, 2023-09-29 16:37:07.567
180.0, 25842.77401480365, 16467.78183791421, -6186.895809995629, -13901.08631862239, 12375.088021169666, -13519.184412859013, -187500.02235174447, 33429.112545146054, -25285.545025532847, 23488.353012603882, 1529.35105912102, 1328.45357995672, 15490.027128461257, -2696.737968532797, -115597.23205533411, -16400.614845826014, 0.168, 1.004, -0.148, 192.0, 0.0, 0.0, 0.0, 0.0, 0.0, 0.0, 0.0, 0.0, 0.0, 1.696023427626761E9, 0.0, 2023-09-29 16:37:07.626
182.0, 25275.173816105584, 15817.100205075767, -6072.030195239806, -13793.865000470281, 12382.173524161999, -13416.612257553608, -187500.02235174447, 33006.70927842966, -25335.09884299026, 23243.735521285, 1333.616832925896, 1123.2645658570011, 15435.377113268032, -2737.73106786383, -115595.33215705541, -16386.779116008176, 0.166, 1.004, -0.15, 192.0, 2.5, 24.0, 15.5, 48.0, 125.5, 40.0, 0.0, 0.0, 0.0, 1.69602342762677E9, 0.0, 2023-09-29 16:37:07.626
184.0, 25845.791500305117, 16461.098666322072, -6195.791804288841, -13915.190269373688, 12388.677881798492, -13524.280610594824, -187500.02235174447, 33437.717966761345, -25295.133923904174, 23405.00335753004, 1494.05765462609, 1283.68303581274, 15479.521808567264, -2708.316172160646, -115640.95206748869, -16406.158078450928, 0.166, 1.004, -0.15, 192.0, 0.0, 0.0, 0.0, 0.0, 0.0, 0.0, 0.0, 0.0, 0.0, 1.696023427626773E9, 0.0, 2023-09-29 16:37:07.626
186.0, 25284.181569121072, 15825.75033017997, -6042.548244303256, -13764.67362221165, 12384.229884651886, -13388.203190350914, -187500.02235174447, 33004.11647607285, -25323.721805062512, 23300.486600457025, 1359.678966960784, 1154.6464150722522, 15444.653087216984, -2731.53963464971, -115547.16414775421, -16393.48463934477, 0.166, 1.004, -0.15, 192.0, 0.0, 0.0, 0.0, 0.0, 0.0, 0.0, 0.0, 0.0, 0.0, 1.696023427626777E9, 0.0, 2023-09-29 16:37:07.626
188.0, 25821.62926454893, 16430.566183396124, -6176.211676145992, -13895.453679019653, 12423.300733959763, -13502.241790561891, -187500.02235174447, 33405.82202742362, -25259.6617054536, 23342.507880033005, 1483.3288172875425, 1261.845381479905, 15520.35844568711, -2675.682625255898, -115728.10151911993, -16372.071668156585, 0.166, 1.004, -0.15, 192.0, 0.0, 0.0, 0.0, 0.0, 0.0, 0.0, 0.0, 0.0, 0.0, 1.69602342762678E9, 0.0, 2023-09-29 16:37:07.626
190.0, 25310.6236828117, 15861.580176541827, -6051.019555451818, -13770.060392625379, 12369.254215866831, -13402.284789357756, -187500.02235174447, 33032.68200548673, -25336.77522382441, 23372.749790281036, 1400.7167697807276, 1200.132215038802, 15436.628810957529, -2741.8214370991514, -115521.28082767497, -16406.940389506864, 0.166, 1.004, -0.15, 192.0, 0.0, 0.0, 0.0, 0.0, 0.0, 0.0, 0.0, 0.0, 0.0, 1.696023427626783E9, 0.0, 2023-09-29 16:37:07.626
192.0, 25788.548682755078, 16390.981243965776, -6178.379795358157, -13896.32539705341, 12428.665152629037, -13509.528459254321, -187500.02235174447, 33390.57813770511, -25265.361400289705, 23274.73739084451, 1455.3444332294982, 1223.8027124169723, 15505.896867024527, -2674.609741522043, -115772.78265628609, -16369.568272777591, 0.168, 1.008, -0.15, 192.0, 2.5, 32.0, 15.5, 64.0, 125.5, 40.0, 0.0, 0.0, 0.0, 1.696023427626786E9, 0.0, 2023-09-29 16:37:07.626
194.0, 25356.265944989438, 15918.018331291478, -6056.205160165448, -13772.943767660114, 12352.803331947725, -13409.839678983652, -187500.02235174447, 33081.90054677732, -25350.812119342343, 23433.054796821452, 1431.1374939844006, 1234.1515700997795, 15428.448072486886, -2748.63871915802, -115471.59289975083, -16420.262029202226, 0.168, 1.008, -0.15, 192.0, 0.0, 0.0, 0.0, 0.0, 0.0, 0.0, 0.0, 0.0, 0.0, 1.696023427687144E9, 0.0, 2023-09-29 16:37:07.687
196.0, 25736.737339107676, 16329.402187991403, -6188.527487340866, -13901.376891300308, 12419.590344380182, -13515.67518897953, -187500.02235174447, 33367.42173044941, -25274.23504283846, 23205.581093499793, 1418.1734822003225, 1182.586095641386, 15496.755003542306, -2692.8264132531185, -115796.07317400852, -16370.708211744812, 0.168, 1.008, -0.15, 192.0, 0.0, 0.0, 0.0, 0.0, 0.0, 0.0, 0.0, 0.0, 0.0, 1.696023427687166E9, 0.0, 2023-09-29 16:37:07.687
198.0, 25410.401870060192, 15983.419535567706, -6055.802828765253, -13768.920453658158, 12349.53997725725, -13412.387777851556, -187500.02235174447, 33121.105506551925, -25365.676029405124, 23491.728126016635, 1446.7837151031156, 1258.3808610893323, 15428.179851553423, -2748.325794735646, -115422.59787590479, -16436.847023588067, 0.168, 1.008, -0.15, 192.0, 0.0, 0.0, 0.0, 0.0, 0.0, 0.0, 0.0, 0.0, 0.0, 1.696023427687169E9, 0.0, 2023-09-29 16:37:07.687
200.0, 25671.26907959808, 16249.651163774868, -6154.441077046523, -13869.570358940407, 12446.010106326356, -13482.415793230033, -187500.02235174447, 33299.31596509409, -25247.81528089229, 23153.948563808033, 1399.643886046873, 1154.4452493721544, 15522.794785832739, -2663.4338692943898, -115838.40737800687, -16341.114502085986, 0.168, 1.008, -0.15, 192.0, 0.0, 0.0, 0.0, 0.0, 0.0, 0.0, 0.0, 0.0, 0.0, 1.696023427687173E9, 0.0, 2023-09-29 16:37:07.687
202.0, 25483.737943618053, 16060.08601904941, -6067.850419026664, -13784.141991632223, 12342.58858473165, -13422.356655878622, -187500.02235174447, 33169.698198997765, -25354.8354333443, 23540.633742884846, 1494.9740761487576, 1301.229155210156, 15422.05547357267, -2752.5279226932435, -115418.59691364728, -16439.998619556263, 0.17, 1.004, -0.14400000000000002, 192.0, 2.5, 40.0, 15.5, 48.0, 125.5, 64.0, 0.0, 0.0, 0.0, 1.696023427687176E9, 0.0, 2023-09-29 16:37:07.687
204.0, 25601.30811945297, 16165.876825556377, -6152.07179213426, -13859.713239635616, 12449.921661606033, -13467.23895874488, -187500.02235174447, 33242.52018243315, -25245.33423725775, 23100.304377115295, 1376.9121619358257, 1121.074094900381, 15518.860878808604, -2662.875075683007, -115862.86018644097, -16324.730673400245, 0.17, 1.004, -0.14400000000000002, 192.0, 0.0, 0.0, 0.0, 0.0, 0.0, 0.0, 0.0, 0.0, 0.0, 1.696023427687179E9, 0.0, 2023-09-29 16:37:07.687
206.0, 25557.833976487396, 16147.213118936197, -6089.5986663816775, -13804.30326513091, 12328.864613636091, -13442.249708443846, -187500.02235174447, 33233.98181605122, -25377.50010222198, 23579.52577823708, 1507.8039774661038, 1319.35641996341, 15405.291665231189, -2766.006024599794, -115391.66306157864, -16462.417419244935, 0.17, 1.004, -0.14400000000000002, 192.0, 0.0, 0.0, 0.0, 0.0, 0.0, 0.0, 0.0, 0.0, 0.0, 1.696023427687182E9, 0.0, 2023-09-29 16:37:07.687
208.0, 25519.43367951318, 16075.441667490206, -6128.02131510035, -13840.513091148507, 12454.146141308087, -13453.872615560605, -187500.02235174447, 33179.80118749156, -25268.445941024536, 23085.976908919445, 1349.8665511449042, 1096.1966033216243, 15517.87740205257, -2655.9907383907725, -115846.0963780995, -16324.350693744505, 0.17, 1.004, -0.14400000000000002, 192.0, 0.0, 0.0, 0.0, 0.0, 0.0, 0.0, 0.0, 0.0, 0.0, 1.696023427687185E9, 0.0, 2023-09-29 16:37:07.687
210.0, 25622.721090641153, 16225.511279763137, -6100.34985546468, -13817.848422270827, 12340.152244586021, -13455.884272561583, -187500.02235174447, 33277.54536599462, -25373.87911962022, 23596.937787167764, 1529.8204457545812, 1344.3233185199879, 15434.237174300812, -2754.4054692274894, -115412.11490775525, -16454.97428834132, 0.17, 1.004, -0.14400000000000002, 192.0, 0.0, 0.0, 0.0, 0.0, 0.0, 0.0, 0.0, 0.0, 0.0, 1.696023427747475E9, 0.0, 2023-09-29 16:37:07.747
212.0, 25449.673885068165, 15996.227085140597, -6106.273067745336, -13818.049587970923, 12453.676754674525, -13435.164205451514, -187500.02235174447, 33127.90043686634, -25276.13494111716, 23068.788417433312, 1336.0531730715243, 1085.847745638817, 15511.2612856938, -2654.8955029124622, -115835.21107854976, -16325.892964111921, 0.168, 1.0, -0.14200000000000002, 192.0, 2.5, 32.0, 15.5, 32.0, 125.5, 72.0, 0.0, 0.0, 0.0, 1.696023427747491E9, 0.0, 2023-09-29 16:37:07.747
214.0, 25693.307899631014, 16302.93772255632, -6118.991210340406, -13835.729817835072, 12334.743122427837, -13472.871598347618, -187500.02235174447, 33334.38585214446, -25373.476788220025, 23599.48588603567, 1548.1935796968437, 1358.1814000822783, 15431.376151010532, -2747.7222976353523, -115422.26259973797, -16459.846968632577, 0.168, 1.0, -0.14200000000000002, 192.0, 0.0, 0.0, 0.0, 0.0, 0.0, 0.0, 0.0, 0.0, 0.0, 1.696023427747496E9, 0.0, 2023-09-29 16:37:07.747
216.0, 25381.746933668488, 15922.533383671449, -6080.188581965993, -13792.38978533623, 12449.675792417025, -13412.3654261071, -187500.02235174447, 33071.55168909451, -25271.99986839293, 23084.591100763217, 1330.867568357893, 1085.557172960898, 15501.895904767027, -2663.9032559279512, -115804.99152004618, -16323.076644310553, 0.168, 1.0, -0.14200000000000002, 192.0, 0.0, 0.0, 0.0, 0.0, 0.0, 0.0, 0.0, 0.0, 0.0, 1.6960234277475E9, 0.0, 2023-09-29 16:37:07.747
218.0, 25749.388426469377, 16365.746124475734, -6127.171948811048, -13846.50335866253, 12345.941346399946, -13476.358470482644, -187500.02235174447, 33372.09324504057, -25352.77907285441, 23585.67250796229, 1558.6094926130168, 1363.970501896203, 15455.717200722362, -2741.3073469766796, -115464.19447233612, -16448.045247560174, 0.168, 1.0, -0.14200000000000002, 192.0, 0.0, 0.0, 0.0, 0.0, 0.0, 0.0, 0.0, 0.0, 0.0, 1.696023427747504E9, 0.0, 2023-09-29 16:37:07.747
220.0, 25332.81896505582, 15870.0961911793, -6056.898064243564, -13767.1993693351, 12437.807016111257, -13394.774603220774, -187500.02235174447, 33034.02311015405, -25295.223330881996, 23118.185772679542, 1328.9453183347366, 1088.7087689290963, 15493.961035485392, -2672.173401376415, -115757.29289737856, -16330.18449904734, 0.168, 1.0, -0.14200000000000002, 192.0, 0.0, 0.0, 0.0, 0.0, 0.0, 0.0, 0.0, 0.0, 0.0, 1.696023427747507E9, 0.0, 2023-09-29 16:37:07.747
222.0, 25802.138543383902, 16424.218287970816, -6127.037838344317, -13840.289573703954, 12367.823704221692, -13471.66460414703, -187500.02235174447, 33405.285585556696, -25321.844258528265, 23570.27215603258, 1572.4899259197625, 1365.3116065635213, 15474.380907342544, -2703.577602336121, -115511.55781883691, -16418.228020456794, 0.168, 1.006, -0.14400000000000002, 192.0, 2.5, 32.0, 15.5, 56.0, 125.5, 64.0, 0.0, 0.0, 0.0, 1.696023427747512E9, 0.0, 2023-09-29 16:37:07.747
224.0, 25300.297176873348, 15836.501519262973, -6034.792188977264, -13735.705761397572, 12426.65349562806, -13365.873797640063, -187500.02235174447, 33009.10091508638, -25301.459467585024, 23176.814398385814, 1355.8121151700159, 1116.9837256650599, 15489.311872638687, -2664.5514565171547, -115704.47572523067, -16328.37400774646, 0.168, 1.006, -0.14400000000000002, 192.0, 0.0, 0.0, 0.0, 0.0, 0.0, 0.0, 0.0, 0.0, 0.0, 1.696023427807583E9, 0.0, 2023-09-29 16:37:07.807
226.0, 25838.862459523974, 16462.12684656702, -6154.686946235532, -13856.382829711776, 12364.716811742403, -13483.846304875173, -187500.02235174447, 33433.98522543731, -25310.310758389325, 23531.04484451352, 1572.1099462640223, 1363.5234670070968, 15484.26037839179, -2678.1413171459817, -115564.68791540718, -16401.15128769294, 0.168, 1.006, -0.14400000000000002, 192.0, 0.0, 0.0, 0.0, 0.0, 0.0, 0.0, 0.0, 0.0, 0.0, 1.696023427807596E9, 0.0, 2023-09-29 16:37:07.807
228.0, 25285.18739762156, 15822.129347578211, -6054.81935200922, -13762.214930321566, 12384.654567796537, -13401.681292257465, -187500.02235174447, 33015.00177562258, -25329.086223731785, 23234.347788613773, 1362.3611762954208, 1140.9671474656043, 15456.365401311567, -2696.4026923659676, -115626.55754405947, -16363.66741224139, 0.168, 1.006, -0.14400000000000002, 192.0, 0.0, 0.0, 0.0, 0.0, 0.0, 0.0, 0.0, 0.0, 0.0, 1.6960234278076E9, 0.0, 2023-09-29 16:37:07.807
230.0, 25844.517450871164, 16466.038401846698, -6169.617911531676, -13878.51105672253, 12369.790657733758, -13502.398252773077, -187500.02235174447, 33440.53428656272, -25329.645017343166, 23448.142224328785, 1525.3500968635199, 1312.7403036046392, 15468.368288084066, -2705.7233698038303, -115591.21943607563, -16418.71975883481, 0.168, 1.006, -0.14400000000000002, 192.0, 0.0, 0.0, 0.0, 0.0, 0.0, 0.0, 0.0, 0.0, 0.0, 1.696023427807603E9, 0.0, 2023-09-29 16:37:07.807
232.0, 25272.67042072659, 15814.283885274397, -6028.109017385128, -13737.404493976175, 12382.173524161999, -13374.50157099981, -187500.02235174447, 33000.026106837526, -25361.853881103263, 23276.279661211927, 1363.255246073633, 1148.7679062805064, 15448.497587263297, -2718.06153274316, -115568.80063638695, -16378.106639159518, 0.164, 1.006, -0.14, 192.0, 2.5, 16.0, 15.5, 56.0, 125.5, 80.0, 0.0, 0.0, 0.0, 1.696023427807606E9, 0.0, 2023-09-29 16:37:07.807
234.0, 25836.06849146706, 16453.633183674, -6161.928911439051, -13862.88718734827, 12400.054919726244, -13486.819086887728, -187500.02235174447, 33425.0892311441, -25285.7685429774, 23381.712839807613, 1522.6455357844277, 1298.5692976199743, 15510.993064760336, -2664.0150146502274, -115669.76346609158, -16374.038621668653, 0.164, 1.006, -0.14, 192.0, 0.0, 0.0, 0.0, 0.0, 0.0, 0.0, 0.0, 0.0, 0.0, 1.696023427807609E9, 0.0, 2023-09-29 16:37:07.807
236.0, 25291.982327935973, 15842.335324565807, -6027.058485395728, -13733.269421251944, 12373.255178124331, -13374.166294832981, -187500.02235174447, 33011.87253139884, -25345.358293695248, 23352.566165037893, 1406.6623338058394, 1199.461662705143, 15444.966011639359, -2708.226765182825, -115516.78812703946, -16382.442877583848, 0.164, 1.006, -0.14, 192.0, 0.0, 0.0, 0.0, 0.0, 0.0, 0.0, 0.0, 0.0, 0.0, 1.696023427807612E9, 0.0, 2023-09-29 16:37:07.807
238.0, 25811.57097954404, 16419.077386746096, -6168.008585930895, -13876.857027632837, 12406.380463407097, -13497.682034693007, -187500.02235174447, 33402.24574831078, -25303.940511219564, 23317.965664621075, 1489.6767127128498, 1261.3983465907988, 15491.994081973326, -2668.7312327302975, -115711.94120787874, -16374.977394935775, 0.164, 1.006, -0.14, 192.0, 0.0, 0.0, 0.0, 0.0, 0.0, 0.0, 0.0, 0.0, 0.0, 1.696023427807616E9, 0.0, 2023-09-29 16:37:07.807
240.0, 25327.834526042287, 15887.307034409885, -6026.3208778287035, -13731.771854373439, 12358.435971550462, -13382.481143770356, -187500.02235174447, 33042.27090385806, -25368.15707303966, 23410.703052366145, 1432.2327294627107, 1226.7307909406175, 15437.81345341366, -2729.5950328820986, -115455.83491990983, -16408.7732325522, 0.164, 1.006, -0.14, 192.0, 0.0, 0.0, 0.0, 0.0, 0.0, 0.0, 0.0, 0.0, 0.0, 1.696023427867384E9, 0.0, 2023-09-29 16:37:07.867
242.0, 25759.491414963177, 16360.784037206655, -6161.526580038855, -13866.709335650128, 12422.786643837291, -13486.752031654363, -187500.02235174447, 33365.566535659615, -25286.707316244523, 23253.391474889693, 1461.9158460993585, 1222.2827937940115, 15521.721902098883, -2646.200674319348, -115752.55432755404, -16354.033810381152, 0.164, 1.012, -0.146, 192.0, 2.5, 16.0, 15.5, 80.0, 125.5, 56.0, 0.0, 0.0, 0.0, 1.696023427867394E9, 0.0, 2023-09-29 16:37:07.867
244.0, 25374.460264976056, 15944.05811358191, -6029.293659841259, -13741.76308414496, 12349.025887134778, -13390.88539968555, -187500.02235174447, 33083.845148544926, -25377.321288266336, 23475.903090942276, 1456.7078896412718, 1259.230227378634, 15432.2925725332, -2736.7252393633416, -115417.7922508469, -16422.743072836765, 0.164, 1.012, -0.146, 192.0, 0.0, 0.0, 0.0, 0.0, 0.0, 0.0, 0.0, 0.0, 0.0, 1.696023427867398E9, 0.0, 2023-09-29 16:37:07.867
246.0, 25702.67328055779, 16293.952321285287, -6171.65192027711, -13879.248664289555, 12407.654512841049, -13496.497392236877, -187500.02235174447, 33332.35184339903, -25294.932758204075, 23193.39939277165, 1432.769171329638, 1182.4743369191096, 15514.479936895365, -2659.7011279703534, -115784.76319131414, -16357.297165071628, 0.164, 1.012, -0.146, 192.0, 0.0, 0.0, 0.0, 0.0, 0.0, 0.0, 0.0, 0.0, 0.0, 1.696023427867402E9, 0.0, 2023-09-29 16:37:07.867
