%OpenBCI Raw EXG Data
%Number of channels = 16
%Sample Rate = 125 Hz
%Board = OpenBCI_GUI$BoardCytonSerialDaisy
Sample Index, EXG Channel 0, EXG Channel 1, EXG Channel 2, EXG Channel 3, EXG Channel 4, EXG Channel 5, EXG Channel 6, EXG Channel 7, EXG Channel 8, EXG Channel 9, EXG Channel 10, EXG Channel 11, EXG Channel 12, EXG Channel 13, EXG Channel 14, EXG Channel 15, Accel Channel 0, Accel Channel 1, Accel Channel 2, Other, Other, Other, Other, Other, Other, Other, Analog Channel 0, Analog Channel 1, Analog Channel 2, Timestamp, Other, Timestamp (Formatted)
194.0, 6916.099121105567, 38038.22106578601, -53167.15576257179, -57503.52829736809, -36084.29862073644, -32484.393713998048, -187500.02235174447, -90663.25761833879, -13130.867556436964, -42942.19379928039, -53634.21781470988, -45732.16089393627, -24875.077590355588, -29954.93620096877, -57757.86879752503, -38032.946054094566, 0.0, 0.0, 0.0, 192.0, 0.0, 0.0, 0.0, 0.0, 0.0, 0.0, 0.0, 0.0, 0.0, 1.695760306335196E9, 0.0, 2023-09-26 15:31:46.335
196.0, 6930.739513723793, 38066.272505077424, -53164.317091025965, -57501.695454322755, -36079.20242300063, -32482.024429085785, -187500.02235174447, -90596.24708846178, -13138.17657687385, -42941.92557834692, -53636.78826532224, -45729.43398111272, -24866.67333444039, -29961.50761383863, -57752.6831928114, -38032.18609478308, 0.007, 0.507, -0.016, 192.0, 0.0, 56.0, 15.5, 88.0, 127.5, 0.0, 0.0, 0.0, 0.0, 1.695760306335217E9, 0.0, 2023-09-26 15:31:46.335
198.0, 6910.332371036097, 38038.601045441756, -53168.8991986393, -57502.50011712314, -36077.43663518866, -32493.24500480235, -187500.02235174447, -90655.79213569072, -13163.098771941517, -42945.255988270765, -53643.31497470319, -45734.10549570388, -24850.44596796584, -29954.64562829085, -57759.2322539368, -38038.84691463076, 0.007, 0.507, -0.016, 192.0, 0.0, 0.0, 0.0, 0.0, 0.0, 0.0, 0.0, 0.0, 0.0, 1.695760306335228E9, 0.0, 2023-09-26 15:31:46.335
200.0, 6927.699676477871, 38066.65248473317, -53184.67953022475, -57512.35723642794, -36103.81169364592, -32497.983574626873, -187500.02235174447, -90552.92940770739, -13148.637193278933, -42931.86729334203, -53641.370372935584, -45731.8926730028, -24863.119407071998, -29955.338532368965, -57761.84740803807, -38042.579655954796, 0.007, 0.507, -0.016, 192.0, 0.0, 0.0, 0.0, 0.0, 0.0, 0.0, 0.0, 0.0, 0.0, 1.695760306335238E9, 0.0, 2023-09-26 15:31:46.335
202.0, 6922.134092108499, 38049.55340022485, -53162.640710191816, -57491.72657629569, -36093.015801074005, -32483.924327364486, -187500.02235174447, -90593.0284372602, -13143.451588565302, -42944.205456281365, -53642.24209096934, -45740.40868764027, -24852.167052288896, -29978.718457069215, -57778.52180940173, -38044.41249900014, 0.007, 0.507, -0.016, 192.0, 0.0, 0.0, 0.0, 0.0, 0.0, 0.0, 0.0, 0.0, 0.0, 1.695760306335248E9, 0.0, 2023-09-26 15:31:46.335
204.0, 6929.733685223304, 38061.668045719634, -53170.75439342909, -57508.825660803996, -36091.47353070659, -32501.805722928733, -187500.02235174447, -90528.20837833981, -13117.50121325269, -42943.04316556969, -53626.66292508399, -45728.0928764454, -24852.077645311078, -29961.574669071993, -57755.27599516821, -38030.10738254874, 0.007, 0.507, -0.016, 192.0, 0.0, 0.0, 0.0, 0.0, 0.0, 0.0, 0.0, 0.0, 0.0, 1.695760306335257E9, 0.0, 2023-09-26 15:31:46.335
206.0, 6906.644333200972, 38042.780821654895, -53148.55911118497, -57493.022977474095, -36079.20242300063, -32484.751341909334, -187500.02235174447, -90577.80689928615, -13144.368010087968, -42943.289034758694, -53635.71538158839, -45740.632205084825, -24867.276831540687, -29973.957535500234, -57756.013602735235, -38040.702109420556, 0.0105, 0.7595000000000001, -0.023, 192.0, 0.0, 56.0, 15.5, 80.0, 127.5, 8.0, 0.0, 0.0, 0.0, 1.695760306335285E9, 0.0, 2023-09-26 15:31:46.335
208.0, 6925.12922586551, 38063.18796434259, -53147.41917221775, -57501.74015781166, -36074.93323980967, -32489.221690800394, -187500.02235174447, -90507.93534611886, -13133.974448916251, -42940.65152891297, -53627.82521579567, -45735.267786415556, -24861.465377982306, -29964.9721342292, -57747.72110554232, -38030.66617616012, 0.0105, 0.7595000000000001, -0.023, 192.0, 0.0, 0.0, 0.0, 0.0, 0.0, 0.0, 0.0, 0.0, 0.0, 1.695760306335295E9, 0.0, 2023-09-26 15:31:46.335
210.0, 6895.915495862424, 38037.28229251889, -53166.30639628249, -57516.06762600752, -36083.35984746931, -32506.76781019781, -187500.02235174447, -90540.59124476806, -13134.868518694464, -42936.91878758893, -53631.647364097524, -45741.81684754096, -24854.849261623534, -29964.994485973657, -57750.71623929933, -38038.28812101938, 0.0105, 0.7595000000000001, -0.023, 192.0, 0.0, 0.0, 0.0, 0.0, 0.0, 0.0, 0.0, 0.0, 0.0, 1.695760306335304E9, 0.0, 2023-09-26 15:31:46.335
0.0, 3312.103845131856, 19017.400624442176, -26508.744240849526, -28674.561223335415, -18012.75676640949, -16190.240227012662, -93750.01117587223, -42045.307701266735, -6583.34870139941, -21480.16053201682, -26823.769727202623, -22879.53619713023, -12434.677771887515, -14992.63375909731, -28879.90669964632, -19026.207211757566, 0.016, 1.014, -0.024, 192.0, 0.0, 64.0, 15.5, 88.0, 127.5, 32.0, 0.0, 0.0, 0.0, 1.695760306494056E9, 0.0, 2023-09-26 15:31:46.494
2.0, 6605.633390621351, 38005.36400143671, -53027.77028414849, -57357.77257177503, -36041.785602782445, -32389.93524192992, -187500.02235174447, -84128.61336810749, -13234.199671053848, -42808.70918139329, -53548.968261357346, -45629.94636654215, -24763.430626801328, -29867.295010959508, -57599.37257759245, -38042.803173399356, 0.016, 1.014, -0.024, 192.0, 0.0, 0.0, 0.0, 0.0, 0.0, 0.0, 0.0, 0.0, 0.0, 1.695760306494079E9, 0.0, 2023-09-26 15:31:46.494
4.0, 6625.258222253111, 38032.230798271994, -53037.15801681972, -57360.9912229766, -36033.29193988942, -32388.258861095772, -187500.02235174447, -84026.64470990238, -13260.641784744477, -42809.22327151576, -53569.26364532276, -45634.863750322314, -24783.05545843309, -29870.133682505333, -57614.3482463775, -38057.80119392886, 0.016, 1.014, -0.024, 192.0, 0.0, 0.0, 0.0, 0.0, 0.0, 0.0, 0.0, 0.0, 0.0, 1.695760306494089E9, 0.0, 2023-09-26 15:31:46.494
6.0, 6608.561469144996, 38005.5204636479, -53030.16192080521, -57350.552958315966, -36027.5028380755, -32380.994544147798, -187500.02235174447, -84099.62315554895, -13253.891557918974, -42798.53913766613, -53562.2899010527, -45629.61109037532, -24756.032199386624, -29869.463130171673, -57599.082004914526, -38046.82648740131, 0.016, 1.014, -0.024, 192.0, 0.0, 0.0, 0.0, 0.0, 0.0, 0.0, 0.0, 0.0, 0.0, 1.695760306494098E9, 0.0, 2023-09-26 15:31:46.494
8.0, 6637.059943325513, 38033.95188259505, -53017.30966774341, -57338.28185061, -36024.5524078074, -32375.764235945255, -187500.02235174447, -84029.081050048, -13254.137427107982, -42795.67811437585, -53554.623252704536, -45617.965831514106, -24754.46757727475, -29863.76343533557, -57594.90222870139, -38036.567036696324, 0.026000000000000002, 1.016, -0.026000000000000002, 192.0, 0.0, 104.0, 15.5, 96.0, 127.5, 24.0, 0.0, 0.0, 0.0, 1.695760306494107E9, 0.0, 2023-09-26 15:31:46.494
10.0, 6623.715951885695, 38012.80713234033, -53012.90637408572, -57329.54231852798, -36019.14328564922, -32371.942087643398, -187500.02235174447, -84099.10906542648, -13244.772046181208, -42795.52165216466, -53547.78361890121, -45611.55088085543, -24773.064228661566, -29856.34265617641, -57593.38231007842, -38035.11417330673, 0.026000000000000002, 1.016, -0.026000000000000002, 192.0, 0.0, 0.0, 0.0, 0.0, 0.0, 0.0, 0.0, 0.0, 0.0, 1.695760306494117E9, 0.0, 2023-09-26 15:31:46.494
12.0, 6636.188225291757, 38033.974234339505, -53019.76835963349, -57349.48007458211, -36034.23071315655, -32386.023686650242, -187500.02235174447, -84030.06452680404, -13245.040267114671, -42786.11156774897, -53545.97312760033, -45605.78413078596, -24774.070057162055, -29861.10357774539, -57587.056766397574, -38035.06946981782, 0.026000000000000002, 1.016, -0.026000000000000002, 192.0, 0.0, 0.0, 0.0, 0.0, 0.0, 0.0, 0.0, 0.0, 0.0, 1.695760306494126E9, 0.0, 2023-09-26 15:31:46.494
14.0, 6620.743169873139, 38014.95289980804, -53024.66339166921, -57353.481036839614, -36033.247236400515, -32382.179186603928, -187500.02235174447, -84057.37835852843, -13262.139351622982, -42801.66838188987, -53562.53577024172, -45628.38174443028, -24769.823225715547, -29863.629324868838, -57598.232638625224, -38044.90423737815, 0.026000000000000002, 1.016, -0.026000000000000002, 192.0, 0.0, 0.0, 0.0, 0.0, 0.0, 0.0, 0.0, 0.0, 0.0, 1.695760306494167E9, 0.0, 2023-09-26 15:31:46.494
16.0, 6639.675097426784, 38033.59425468377, -53027.59147019285, -57348.384839103805, -36032.196704411115, -32376.74771270129, -187500.02235174447, -83992.6253548414, -13268.91193019294, -42796.12514926495, -53562.446363263894, -45622.41382866071, -24769.197376870798, -29876.973316308657, -57600.6466270264, -38040.29977802036, 0.026000000000000002, 1.016, -0.026000000000000002, 192.0, 0.0, 0.0, 0.0, 0.0, 0.0, 0.0, 0.0, 0.0, 0.0, 1.695760306556109E9, 0.0, 2023-09-26 15:31:46.556
18.0, 6646.201806807734, 38029.05685055934, -53017.53318518796, -57342.796902989976, -36028.910997976185, -32374.981924889318, -187500.02235174447, -84011.87020681742, -13249.868243917019, -42774.13103272093, -53555.36086027156, -45615.864767535306, -24771.231385616233, -29858.510775388575, -57594.16462113436, -38034.689490162076, 0.02, 1.02, -0.024, 192.0, 0.0, 80.0, 15.5, 112.0, 127.5, 32.0, 0.0, 0.0, 0.0, 1.695760306556129E9, 0.0, 2023-09-26 15:31:46.556
20.0, 6655.656594712329, 38035.784725640384, -53024.93161260267, -57350.061219937954, -36037.53877133594, -32384.146140115994, -187500.02235174447, -83972.35232262044, -13236.166624565914, -42779.495451390205, -53549.75057241328, -45611.0144389885, -24760.41314129986, -29864.277525458045, -57599.55139154809, -38032.63312967219, 0.02, 1.02, -0.024, 192.0, 0.0, 0.0, 0.0, 0.0, 0.0, 0.0, 0.0, 0.0, 0.0, 1.695760306556139E9, 0.0, 2023-09-26 15:31:46.556
22.0, 6649.800437665038, 38029.88386510419, -53035.1687115632, -57348.56365305944, -36033.02371895596, -32382.581518004125, -187500.02235174447, -83972.08410168697, -13247.163682837927, -42809.58089942705, -53555.27145329374, -45621.63151760477, -24764.70467623528, -29876.213356997177, -57604.71464451726, -38041.752641409956, 0.02, 1.02, -0.024, 192.0, 0.0, 0.0, 0.0, 0.0, 0.0, 0.0, 0.0, 0.0, 0.0, 1.695760306556148E9, 0.0, 2023-09-26 15:31:46.556
24.0, 6654.784876678572, 38028.63216741469, -53017.19790902113, -57351.64819379428, -36022.764268250976, -32376.233622578817, -187500.02235174447, -83984.77989253758, -13253.66804047442, -42763.42454712684, -53555.383212016015, -45614.92599426818, -24767.878623947934, -29865.931554547737, -57594.186972878815, -38033.39308898367, 0.02, 1.02, -0.024, 192.0, 0.0, 0.0, 0.0, 0.0, 0.0, 0.0, 0.0, 0.0, 0.0, 1.695760306556157E9, 0.0, 2023-09-26 15:31:46.556
26.0, 6660.931606403781, 38036.008243084936, -53009.35244671732, -57348.87657748182, -36015.05291641389, -32374.244317322293, -187500.02235174447, -83981.44948261375, -13254.964441652828, -42781.28359094663, -53552.76805791474, -45619.79867455944, -24783.591900300016, -29863.76343533557, -57589.00136816518, -38035.13652505118, 0.02, 1.02, -0.024, 192.0, 0.0, 0.0, 0.0, 0.0, 0.0, 0.0, 0.0, 0.0, 0.0, 1.695760306556165E9, 0.0, 2023-09-26 15:31:46.556
28.0, 6656.148333090346, 38031.4261354716, -53019.90247010023, -57361.97469973263, -36031.03441369944, -32388.03534365122, -187500.02235174447, -83980.08602620197, -13224.878993615985, -42768.856021029475, -53540.04991531967, -45610.83562503286, -24756.412179042363, -29854.44275789771, -57588.48727804271, -38036.075298318305, 0.02, 1.012, -0.028, 192.0, 0.0, 80.0, 15.5, 80.0, 127.5, 16.0, 0.0, 0.0, 0.0, 1.695760306556174E9, 0.0, 2023-09-26 15:31:46.556
30.0, 6638.781027648572, 38025.83819935777, -53041.94129013316, -57367.674394568734, -36033.26958814497, -32390.31522158566, -187500.02235174447, -83962.7634242491, -13264.732153979798, -42780.56833512406, -53561.462886507856, -45620.9162617822, -24766.470464047252, -29870.513662161073, -57604.312313117065, -38051.319188036825, 0.02, 1.012, -0.028, 192.0, 0.0, 0.0, 0.0, 0.0, 0.0, 0.0, 0.0, 0.0, 0.0, 1.695760306556184E9, 0.0, 2023-09-26 15:31:46.556
32.0, 6644.436018995764, 38021.43490570008, -53034.92284237419, -57365.30510965647, -36034.76715502347, -32386.515425028258, -187500.02235174447, -83967.68080802928, -13256.707877720342, -42786.80447182709, -53569.88949416751, -45628.04646826345, -24755.182833097322, -29874.738141863127, -57607.68742652982, -38047.34057752378, 0.02, 1.012, -0.028, 192.0, 0.0, 0.0, 0.0, 0.0, 0.0, 0.0, 0.0, 0.0, 0.0, 1.69576030661501E9, 0.0, 2023-09-26 15:31:46.615
34.0, 6641.798513150038, 38035.27063551791, -53041.471903499594, -57366.02036547904, -36042.14323069373, -32393.288003598216, -187500.02235174447, -83889.49440592462, -13234.244374542759, -42791.2524689737, -53570.135363356516, -45627.957061285626, -24766.716333236258, -29878.49323493162, -57611.241353898215, -38052.213257815034, 0.02, 1.012, -0.028, 192.0, 0.0, 0.0, 0.0, 0.0, 0.0, 0.0, 0.0, 0.0, 0.0, 1.695760306615043E9, 0.0, 2023-09-26 15:31:46.615
36.0, 6632.902518856826, 38015.444638186054, -53041.65071745524, -57370.35660390337, -36032.59903581131, -32392.12571288654, -187500.02235174447, -83927.09004009844, -13261.62526150051, -42787.36326543847, -53576.75147971529, -45629.67814560868, -24752.701789462782, -29880.281374488044, -57609.274400386144, -38053.88963864918, 0.02, 1.012, -0.028, 192.0, 0.0, 0.0, 0.0, 0.0, 0.0, 0.0, 0.0, 0.0, 0.0, 1.695760306615095E9, 0.0, 2023-09-26 15:31:46.615
38.0, 6648.436981253265, 38036.6787954186, -53030.83247313887, -57363.7404875446, -36037.04703295792, -32394.40559082098, -187500.02235174447, -83863.90165852329, -13253.310412563136, -42796.25925973168, -53569.24129357831, -45629.67814560868, -24758.80381569908, -29874.38051395184, -57607.28509512963, -38053.35319678226, 0.026000000000000002, 1.008, -0.02, 192.0, 0.0, 104.0, 15.5, 64.0, 127.5, 48.0, 0.0, 0.0, 0.0, 1.695760306615112E9, 0.0, 2023-09-26 15:31:46.615
40.0, 6634.869472368893, 38019.37854521019, -53011.073531040376, -57340.91935645573, -36019.16563739367, -32372.21030857686, -187500.02235174447, -83918.97635686117, -13284.11111642255, -42782.53528863613, -53567.85548542208, -45629.007593275026, -24802.52382785366, -29863.71873184666, -57602.79239449411, -38046.13358332319, 0.026000000000000002, 1.008, -0.02, 192.0, 0.0, 0.0, 0.0, 0.0, 0.0, 0.0, 0.0, 0.0, 0.0, 1.695760306615131E9, 0.0, 2023-09-26 15:31:46.615
42.0, 6653.175551077789, 38040.836219887286, -53011.92289732968, -57347.468417581134, -36019.053878671395, -32376.635953979014, -187500.02235174447, -83873.87053655036, -13230.355171007535, -42760.38470988091, -53547.135418312006, -45615.59654660184, -24750.444263272795, -29852.229935196632, -57586.989711164206, -38029.1239057927, 0.026000000000000002, 1.008, -0.02, 192.0, 0.0, 0.0, 0.0, 0.0, 0.0, 0.0, 0.0, 0.0, 0.0, 1.695760306615149E9, 0.0, 2023-09-26 15:31:46.615
44.0, 6631.606117678419, 38017.3221847203, -53013.800443863925, -57346.46258908065, -36026.2064368971, -32380.54750925869, -187500.02235174447, -83913.32136551397, -13250.76231369523, -42762.932808748825, -53556.25493004977, -45625.63247986227, -24754.020542385646, -29851.224106696143, -57598.1432316474, -38044.03251934439, 0.026000000000000002, 1.008, -0.02, 192.0, 0.0, 0.0, 0.0, 0.0, 0.0, 0.0, 0.0, 0.0, 0.0, 1.695760306615167E9, 0.0, 2023-09-26 15:31:46.615
46.0, 6638.333992759466, 38040.52329546491, -53021.10946430081, -57345.6355745358, -36027.65930028669, -32381.620392992547, -187500.02235174447, -83828.36238483935, -13263.681621990398, -42768.81131754057, -53564.055688864675, -45617.965831514106, -24761.776597711636, -29878.202662253698, -57598.031472925126, -38041.953807110054, 0.026000000000000002, 1.008, -0.02, 192.0, 0.0, 0.0, 0.0, 0.0, 0.0, 0.0, 0.0, 0.0, 0.0, 1.695760306675231E9, 0.0, 2023-09-26 15:31:46.675
48.0, 6618.597402405429, 38009.81199858332, -53021.93647884566, -57357.39259211929, -36028.88864623173, -32390.605794263578, -187500.02235174447, -83885.82871983394, -13247.700124704854, -42788.592611383516, -53561.88756965251, -45631.48863690956, -24753.66291447436, -29871.96652555067, -57601.33953110451, -38050.22395255852, 0.02, 1.012, -0.02, 192.0, 0.0, 80.0, 15.5, 80.0, 127.5, 48.0, 0.0, 0.0, 0.0, 1.695760306675274E9, 0.0, 2023-09-26 15:31:46.675
50.0, 6641.7761614055835, 38038.466934975026, -53032.75472316203, -57357.034964208004, -36035.39300386822, -32391.70102974189, -187500.02235174447, -83791.526709977, -13267.10143889206, -42814.81120762959, -53571.65528197948, -45637.92593931269, -24744.766920181148, -29881.10838903289, -57611.1966504093, -38057.98000788451, 0.02, 1.012, -0.02, 192.0, 0.0, 0.0, 0.0, 0.0, 0.0, 0.0, 0.0, 0.0, 0.0, 1.695760306675292E9, 0.0, 2023-09-26 15:31:46.675
52.0, 6634.131864801868, 38015.042306785865, -53004.12213851478, -57341.52285355602, -36021.24434962802, -32379.720494713845, -187500.02235174447, -83881.02309477606, -13244.012086869729, -42787.27385846065, -53551.00227010278, -45628.04646826345, -24770.024391415645, -29870.04427552751, -57600.601923537484, -38048.167592068625, 0.02, 1.012, -0.02, 192.0, 0.0, 0.0, 0.0, 0.0, 0.0, 0.0, 0.0, 0.0, 0.0, 1.695760306675309E9, 0.0, 2023-09-26 15:31:46.675
54.0, 6660.305757559033, 38048.41346125764, -53005.59735364883, -57338.93005119921, -36021.713736261576, -32380.12282611404, -187500.02235174447, -83798.50045424706, -13258.406610298945, -42767.02317798414, -53551.046973591685, -45612.93668901166, -24774.226519373242, -29861.23768821212, -57598.29969385859, -38046.11123157874, 0.02, 1.012, -0.02, 192.0, 0.0, 0.0, 0.0, 0.0, 0.0, 0.0, 0.0, 0.0, 0.0, 1.695760306675327E9, 0.0, 2023-09-26 15:31:46.675
56.0, 6642.491417228153, 38024.877074346194, -53009.28539148395, -57345.59087104689, -36026.58641655283, -32387.945936673397, -187500.02235174447, -83844.94737922518, -13246.515482248722, -42766.37497739494, -53545.01200258875, -45611.84145353335, -24764.347048323998, -29858.041388755013, -57595.63983626841, -38042.24437978797, 0.02, 1.012, -0.02, 192.0, 0.0, 0.0, 0.0, 0.0, 0.0, 0.0, 0.0, 0.0, 0.0, 1.695760306675344E9, 0.0, 2023-09-26 15:31:46.675
58.0, 6649.666327198306, 38043.18315305509, -53027.703228915125, -57360.03009796502, -36038.008157969496, -32400.462913568368, -187500.02235174447, -83757.52970666048, -13238.021819355705, -42782.08825374702, -53554.466790493345, -45618.47992163657, -24738.575486967027, -29868.926688304746, -57600.71368225977, -38052.95086538206, 0.026000000000000002, 1.014, -0.022, 192.0, 0.0, 104.0, 15.5, 88.0, 127.5, 40.0, 0.0, 0.0, 0.0, 1.695760306675396E9, 0.0, 2023-09-26 15:31:46.675
60.0, 6639.630393937874, 38028.609815670236, -53018.44960671063, -57331.82219646242, -36018.249215871, -32365.16950907344, -187500.02235174447, -83813.76669571003, -13263.413401056934, -42789.41962592836, -53564.748592942786, -45625.05133450643, -24762.447150045296, -29878.180310509244, -57604.75934800618, -38053.3308450378, 0.026000000000000002, 1.014, -0.022, 192.0, 0.0, 0.0, 0.0, 0.0, 0.0, 0.0, 0.0, 0.0, 0.0, 1.695760306675414E9, 0.0, 2023-09-26 15:31:46.675
62.0, 6670.945187919759, 38051.96738862603, -53028.262022526505, -57334.817330219434, -36027.45813458659, -32368.343456786093, -187500.02235174447, -83761.1730410067, -13240.14523507896, -42771.06884373055, -53545.8390171336, -45602.20785167311, -24755.42870228633, -29866.088016758924, -57595.30456010158, -38030.062679059825, 0.026000000000000002, 1.014, -0.022, 192.0, 0.0, 0.0, 0.0, 0.0, 0.0, 0.0, 0.0, 0.0, 0.0, 1.695760306735676E9, 0.0, 2023-09-26 15:31:46.735
64.0, 6669.805248952538, 38040.74681290946, -53016.99674332103, -57335.82315871992, -36024.23948338503, -32371.7409219433, -187500.02235174447, -83793.24779430006, -13254.517406763722, -42804.06001854659, -53549.34824101308, -45611.95321225563, -24745.012789370157, -29869.53018540504, -57603.50765031668, -38041.953807110054, 0.026000000000000002, 1.014, -0.022, 192.0, 0.0, 0.0, 0.0, 0.0, 0.0, 0.0, 0.0, 0.0, 0.0, 1.695760306735708E9, 0.0, 2023-09-26 15:31:46.735
66.0, 6691.240571885178, 38054.80606017185, -53014.850975853326, -57334.54910928597, -36020.81966648337, -32372.433826021414, -187500.02235174447, -83764.9728375641, -13218.687560401864, -42749.09707893099, -53535.467807706336, -45591.322552123376, -24749.438434772306, -29849.95005726219, -57591.23654261071, -38035.40474598465, 0.026000000000000002, 1.014, -0.022, 192.0, 0.0, 0.0, 0.0, 0.0, 0.0, 0.0, 0.0, 0.0, 0.0, 1.695760306735725E9, 0.0, 2023-09-26 15:31:46.735
68.0, 6674.700280988251, 38031.09085930477, -53031.65948768372, -57355.76091477405, -36034.6553963012, -32385.643706994502, -187500.02235174447, -83787.99513435307, -13256.730229464798, -42775.94152402181, -53553.79623815969, -45603.12427319578, -24756.434530786817, -29850.397092151296, -57597.87501071394, -38042.89258037717, 0.026000000000000002, 1.014, -0.024, 192.0, 0.0, 104.0, 15.5, 88.0, 127.5, 32.0, 0.0, 0.0, 0.0, 1.695760306735743E9, 0.0, 2023-09-26 15:31:46.735
70.0, 6689.98887419568, 38041.64088268768, -53035.21341505211, -57358.62193806433, -36036.823515513366, -32391.611622764067, -187500.02235174447, -83748.45489841163, -13268.084915648094, -42802.070713290064, -53565.55325574318, -45624.33607868387, -24756.23336508672, -29868.211432482178, -57612.6495137989, -38057.264752061936, 0.026000000000000002, 1.014, -0.024, 192.0, 0.0, 0.0, 0.0, 0.0, 0.0, 0.0, 0.0, 0.0, 0.0, 1.695760306735761E9, 0.0, 2023-09-26 15:31:46.735
72.0, 6680.2211618687115, 38033.5271994504, -53031.50302547253, -57361.92999624372, -36036.108259690795, -32397.177207133438, -187500.02235174447, -83725.56671208939, -13252.818674185119, -42791.096006762506, -53564.01098537576, -45622.88321529427, -24783.81541774457, -29872.97235405116, -57614.61646731097, -38057.62237997322, 0.026000000000000002, 1.014, -0.024, 192.0, 0.0, 0.0, 0.0, 0.0, 0.0, 0.0, 0.0, 0.0, 0.0, 1.695760306735779E9, 0.0, 2023-09-26 15:31:46.735
74.0, 6692.715787019228, 38044.70307167805, -53016.92968808767, -57339.26532736604, -36023.79244849592, -32373.93139289992, -187500.02235174447, -83717.90006374122, -13236.010162354729, -42781.9988467692, -53549.03531659071, -45608.22047093159, -24746.867984159948, -29872.324153461952, -57599.26081887017, -38041.66323443213, 0.026000000000000002, 1.014, -0.024, 192.0, 0.0, 0.0, 0.0, 0.0, 0.0, 0.0, 0.0, 0.0, 0.0, 1.695760306735797E9, 0.0, 2023-09-26 15:31:46.735
76.0, 6689.050100928557, 38041.66323443213, -53029.20079579363, -57349.100094926376, -36030.54267532143, -32385.442541294404, -187500.02235174447, -83705.89717696872, -13246.806054926641, -42778.75784382318, -53553.46096199286, -45604.33126739637, -24748.9913998832, -29877.576813408952, -57604.334664861526, -38043.16080131064, 0.026000000000000002, 1.014, -0.024, 192.0, 0.0, 0.0, 0.0, 0.0, 0.0, 0.0, 0.0, 0.0, 0.0, 1.695760306795884E9, 0.0, 2023-09-26 15:31:46.795
78.0, 6691.933475963292, 38035.33769075128, -53019.85776661131, -57347.133141414306, -36027.52518981996, -32384.54847151619, -187500.02235174447, -83722.19159867664, -13259.613604499533, -42783.29524794761, -53554.958528871364, -45613.07079947839, -24756.47923427573, -29867.786749337527, -57609.721435275256, -38052.90616189315, 0.022, 1.01, -0.026000000000000002, 192.0, 0.0, 88.0, 15.5, 72.0, 127.5, 24.0, 0.0, 0.0, 0.0, 1.695760306795916E9, 0.0, 2023-09-26 15:31:46.795
80.0, 6693.118118419424, 38043.65253968866, -53017.510833443506, -57341.14287390028, -36020.30557636089, -32381.352172059083, -187500.02235174447, -83695.52596754146, -13237.083046088583, -42777.1485182224, -53546.17429330043, -45609.87450002128, -24736.42971949932, -29861.751778334594, -57599.73020550373, -38039.226894286505, 0.022, 1.01, -0.026000000000000002, 192.0, 0.0, 0.0, 0.0, 0.0, 0.0, 0.0, 0.0, 0.0, 0.0, 1.695760306795966E9, 0.0, 2023-09-26 15:31:46.795
82.0, 6669.067641385513, 38021.390202211165, -53037.22507205309, -57352.94459497269, -36028.32985262035, -32392.036305908718, -187500.02235174447, -83722.6609853102, -13284.669910033932, -42784.68105610384, -53566.357918543574, -45624.78311357297, -24728.36073975095, -29873.039409284524, -57606.03339744013, -38040.32212976481, 0.022, 1.01, -0.026000000000000002, 192.0, 0.0, 0.0, 0.0, 0.0, 0.0, 0.0, 0.0, 0.0, 0.0, 1.695760306795984E9, 0.0, 2023-09-26 15:31:46.795
84.0, 6684.736214248684, 38040.72446116501, -53013.375760719275, -57342.8863099678, -36026.07232643036, -32384.995506405296, -187500.02235174447, -83657.30448452289, -13246.962517137828, -42783.272896203154, -53564.30155805368, -45624.76076182852, -24747.42677777133, -29869.28431621603, -57608.49208933021, -38038.735155908485, 0.022, 1.01, -0.026000000000000002, 192.0, 0.0, 0.0, 0.0, 0.0, 0.0, 0.0, 0.0, 0.0, 0.0, 1.695760306796002E9, 0.0, 2023-09-26 15:31:46.796
86.0, 6665.513714017119, 38016.53987366437, -53017.2649642545, -57346.10496116936, -36018.47273331556, -32386.828349450632, -187500.02235174447, -83686.51821452598, -13269.470723804323, -42793.66645737487, -53569.151886600484, -45637.389497445765, -24760.346086066496, -29870.737179605625, -57601.96537994926, -38035.516504706924, 0.022, 1.01, -0.026000000000000002, 192.0, 0.0, 0.0, 0.0, 0.0, 0.0, 0.0, 0.0, 0.0, 0.0, 1.695760306796019E9, 0.0, 2023-09-26 15:31:46.796
88.0, 6677.963635678725, 38035.874132618206, -53015.38741772025, -57348.29543212598, -36017.6010152818, -32388.147102373496, -187500.02235174447, -83618.4348009151, -13254.606813741544, -42800.751960367204, -53566.357918543574, -45636.271910223, -24760.323734322043, -29867.719694104162, -57603.53000206113, -38043.138449566184, 0.016, 1.014, -0.026000000000000002, 192.0, 0.0, 64.0, 15.5, 88.0, 127.5, 24.0, 0.0, 0.0, 0.0, 1.695760306796037E9, 0.0, 2023-09-26 15:31:46.796
90.0, 6669.089993129968, 38012.6730218736, -53013.64398165274, -57343.60156579037, -36017.109276903786, -32383.587346504613, -187500.02235174447, -83694.87776695225, -13248.080104360593, -42771.33706466402, -53557.14899982799, -45625.94540428465, -24744.722216692237, -29882.67301114476, -57598.1432316474, -38035.449449473555, 0.016, 1.014, -0.026000000000000002, 192.0, 0.0, 0.0, 0.0, 0.0, 0.0, 0.0, 0.0, 0.0, 0.0, 1.695760306796055E9, 0.0, 2023-09-26 15:31:46.796
92.0, 6677.494249045164, 38033.30368200585, -53012.92872583017, -57340.405266333255, -36021.24434962802, -32386.73894247281, -187500.02235174447, -83623.12866725071, -13267.190845869882, -42790.112530006474, -53567.92254065544, -45628.269985708, -24722.66104491485, -29881.935403577736, -57603.86527822796, -38042.42319374361, 0.016, 1.014, -0.026000000000000002, 192.0, 0.0, 0.0, 0.0, 0.0, 0.0, 0.0, 0.0, 0.0, 0.0, 1.695760306856192E9, 0.0, 2023-09-26 15:31:46.856
94.0, 6661.043365126057, 38012.71772536251, -53007.430196694164, -57336.5831180314, -36019.679727516144, -32385.643706994502, -187500.02235174447, -83695.21304311909, -13257.959575409839, -42793.57705039705, -53556.18787481641, -45629.834607819874, -24753.908783663366, -29871.184214494733, -57599.082004914526, -38037.81873438582, 0.016, 1.014, -0.026000000000000002, 192.0, 0.0, 0.0, 0.0, 0.0, 0.0, 0.0, 0.0, 0.0, 0.0, 1.695760306856215E9, 0.0, 2023-09-26 15:31:46.856
96.0, 6681.405804324842, 38039.159839053136, -53011.11823452929, -57334.39264707478, -36016.43872457012, -32386.850701195086, -187500.02235174447, -83617.09369624779, -13246.023743870706, -42784.54694563711, -53547.58245320111, -45615.50713962402, -24723.286893759596, -29873.844072084914, -57597.472679313745, -38039.785687897886, 0.016, 1.014, -0.026000000000000002, 192.0, 0.0, 0.0, 0.0, 0.0, 0.0, 0.0, 0.0, 0.0, 0.0, 1.695760306856258E9, 0.0, 2023-09-26 15:31:46.856
98.0, 6662.339766304465, 38010.773123594896, -52998.15422274521, -57321.8309666909, -36011.65545125669, -32377.55237550168, -187500.02235174447, -83697.49292105352, -13236.993639110762, -42793.08531201903, -53546.286052022704, -45619.016363503506, -24710.90402733136, -29861.640019612318, -57593.22584786724, -38034.533027950885, 0.022, 1.012, -0.024, 192.0, 0.0, 88.0, 15.5, 80.0, 127.5, 32.0, 0.0, 0.0, 0.0, 1.695760306856272E9, 0.0, 2023-09-26 15:31:46.856
100.0, 6680.444679313265, 38039.04808033086, -53014.60510666432, -57341.4334465782, -36022.60780603979, -32390.561090774667, -187500.02235174447, -83606.81189379834, -13269.604834271055, -42797.77917835464, -53555.29380503819, -45614.814235545906, -24763.609440756973, -29864.746912091603, -57589.40369956538, -38032.90135060565, 0.022, 1.012, -0.024, 192.0, 0.0, 0.0, 0.0, 0.0, 0.0, 0.0, 0.0, 0.0, 0.0, 1.695760306856315E9, 0.0, 2023-09-26 15:31:46.856
102.0, 6670.609911752929, 38016.53987366437, -53008.39132170574, -57331.10694063985, -36018.98682343803, -32376.70300921238, -187500.02235174447, -83665.46287124907, -13274.276348862213, -42821.04734433262, -53553.639775948504, -45625.87834905128, -24757.105083120478, -29878.828511098447, -57597.78560373612, -38041.462068732035, 0.022, 1.012, -0.024, 192.0, 0.0, 0.0, 0.0, 0.0, 0.0, 0.0, 0.0, 0.0, 0.0, 1.695760306856325E9, 0.0, 2023-09-26 15:31:46.856
104.0, 6694.347464364465, 38037.975196597006, -53014.40394096422, -57333.81150171894, -36016.28226235894, -32377.485320268315, -187500.02235174447, -83603.86146353025, -13235.965458865818, -42813.268937262175, -53540.5863571866, -45611.997915744534, -24729.41127174035, -29877.06272328648, -57590.92361818834, -38029.86151335973, 0.022, 1.012, -0.024, 192.0, 0.0, 0.0, 0.0, 0.0, 0.0, 0.0, 0.0, 0.0, 0.0, 1.695760306856334E9, 0.0, 2023-09-26 15:31:46.856
106.0, 6668.50884777413, 38013.343574207254, -53014.359237475306, -57335.08555115289, -36016.259910614484, -32387.45419829538, -187500.02235174447, -83661.28309503593, -13270.09657264907, -42800.48373943374, -53555.60672946057, -45619.88808153726, -24731.825260141526, -29865.305705702987, -57598.90319095888, -38037.81873438582, 0.022, 1.012, -0.024, 192.0, 0.0, 0.0, 0.0, 0.0, 0.0, 0.0, 0.0, 0.0, 0.0, 1.69576030691518E9, 0.0, 2023-09-26 15:31:46.915
108.0, 6693.162821908334, 38034.22010352852, -53016.19208052065, -57342.55103380097, -36022.2501781285, -32384.45906453837, -187500.02235174447, -83596.97712623801, -13252.662211973931, -42814.721800651765, -53550.66699393595, -45621.40800016022, -24717.09546054548, -29873.039409284524, -57596.75742349117, -38040.702109420556, 0.032, 1.01, -0.022, 192.0, 0.5, 0.0, 15.5, 72.0, 127.5, 40.0, 0.0, 0.0, 0.0, 1.695760306915205E9, 0.0, 2023-09-26 15:31:46.915
110.0, 6679.327092090499, 38014.30469921884, -53016.05797005391, -57338.05833316545, -36023.591282795824, -32380.815730192153, -187500.02235174447, -83638.39490871369, -13264.508636535245, -42818.074562320064, -53554.332680026615, -45626.75006708504, -24753.305286563074, -29883.522377434063, -57602.993560194205, -38045.038347844886, 0.032, 1.01, -0.022, 192.0, 0.0, 0.0, 0.0, 0.0, 0.0, 0.0, 0.0, 0.0, 0.0, 1.695760306915216E9, 0.0, 2023-09-26 15:31:46.915
112.0, 6698.70605453325, 38029.59329242627, -53006.84905133832, -57340.67348726672, -36013.242425113014, -32392.237471608816, -187500.02235174447, -83578.33577136228, -13268.330784837102, -42819.10274256501, -53550.84580789159, -45624.246671706045, -24732.339350263996, -29871.09480751691, -57594.83517346802, -38038.15401055265, 0.032, 1.01, -0.022, 192.0, 0.0, 0.0, 0.0, 0.0, 0.0, 0.0, 0.0, 0.0, 0.0, 1.695760306915225E9, 0.0, 2023-09-26 15:31:46.915
114.0, 6680.064699657524, 38012.96359455152, -53009.620667650786, -57338.192443632186, -36009.28616634443, -32389.734076229823, -187500.02235174447, -83616.64666135868, -13258.898348676963, -42839.73340269725, -53554.891473637996, -45633.52264565499, -24747.449129515786, -29872.77118835106, -57595.997464179694, -38044.97129261152, 0.032, 1.01, -0.022, 192.0, 0.0, 0.0, 0.0, 0.0, 0.0, 0.0, 0.0, 0.0, 0.0, 1.695760306915234E9, 0.0, 2023-09-26 15:31:46.915
116.0, 6691.441737585275, 38027.91691159212, -53012.16876651869, -57339.77941748851, -36017.243387370516, -32391.83514020862, -187500.02235174447, -83585.44362609908, -13251.43286602889, -42821.159103054895, -53550.73404916931, -45621.653869349226, -24730.59591419648, -29874.268755229565, -57595.14809789039, -38041.462068732035, 0.032, 1.01, -0.022, 192.0, 0.0, 0.0, 0.0, 0.0, 0.0, 0.0, 0.0, 0.0, 0.0, 1.695760306915243E9, 0.0, 2023-09-26 15:31:46.915
118.0, 6670.699318730751, 38021.14433302216, -53020.707132900614, -57344.87561522432, -36023.9042072182, -32397.8477594671, -187500.02235174447, -83581.95675396404, -13261.804075456152, -42818.432190231346, -53558.26658705075, -45629.7228490976, -24741.36945502394, -29893.826531627958, -57614.035321955125, -38057.77884218441, 0.03, 1.014, -0.022, 192.0, 0.0, 120.0, 15.5, 88.0, 127.5, 40.0, 0.0, 0.0, 0.0, 1.695760306915252E9, 0.0, 2023-09-26 15:31:46.915
120.0, 6678.723594990206, 38017.61275739822, -53033.42527549568, -57356.1855979187, -36035.415355612684, -32404.776800248244, -187500.02235174447, -83553.86061118373, -13259.34538356607, -42825.987079857245, -53559.80885741817, -45634.863750322314, -24717.40838496785, -29890.42906647075, -57619.6009063245, -38057.84589741778, 0.03, 1.014, -0.022, 192.0, 0.0, 0.0, 0.0, 0.0, 0.0, 0.0, 0.0, 0.0, 0.0, 1.695760306915261E9, 0.0, 2023-09-26 15:31:46.915
122.0, 6690.346502106965, 38020.563187666325, -53028.64200218225, -57349.59183330439, -36022.339585106325, -32401.289928113216, -187500.02235174447, -83551.29016057136, -13280.19956114287, -42839.554588741616, -53575.388023303516, -45644.89968358275, -24739.402501511875, -29907.170523067776, -57628.13927270642, -38063.92557190962, 0.03, 1.014, -0.022, 192.0, 0.0, 0.0, 0.0, 0.0, 0.0, 0.0, 0.0, 0.0, 0.0, 1.695760306975506E9, 0.0, 2023-09-26 15:31:46.975
124.0, 6714.128758207412, 38030.24149301547, -53009.10657752831, -57337.07485640942, -36018.4503815711, -32398.65242226749, -187500.02235174447, -83536.20273306403, -13240.793435668164, -42822.2543385332, -53552.41043000346, -45632.89679681025, -24715.195562266777, -29877.934441320234, -57602.65828402738, -38047.05000484586, 0.03, 1.014, -0.022, 192.0, 0.0, 0.0, 0.0, 0.0, 0.0, 0.0, 0.0, 0.0, 0.0, 1.69576030697553E9, 0.0, 2023-09-26 15:31:46.975
126.0, 6726.198700213278, 38035.60591168475, -53000.59056289084, -57327.35184757136, -36011.40958206768, -32382.626221493036, -187500.02235174447, -83527.23968353745, -13271.348270338569, -42798.06975103256, -53548.07419157913, -45619.2175292036, -24738.79900441158, -29862.71290334617, -57597.71854850275, -38037.70697566354, 0.03, 1.014, -0.022, 192.0, 0.0, 0.0, 0.0, 0.0, 0.0, 0.0, 0.0, 0.0, 0.0, 1.69576030697554E9, 0.0, 2023-09-26 15:31:46.975
128.0, 6728.925613036825, 38021.546664422356, -53010.91706882919, -57330.50344353956, -36017.3998495817, -32383.65440173798, -187500.02235174447, -83546.23866632447, -13252.438694529379, -42811.65961166139, -53547.42599098993, -45629.54403514195, -24744.588106225507, -29882.29303148902, -57602.68063577183, -38037.95284485255, 0.026000000000000002, 1.01, -0.018000000000000002, 192.0, 0.0, 104.0, 15.5, 72.0, 127.5, 56.0, 0.0, 0.0, 0.0, 1.695760306975549E9, 0.0, 2023-09-26 15:31:46.975
130.0, 6739.877967819926, 38032.923702350105, -53018.85193811083, -57332.82802496291, -36024.37359385176, -32390.292869841203, -187500.02235174447, -83495.209633733, -13260.820598700118, -42804.305887735594, -53557.26075855026, -45631.80156133194, -24725.589123438494, -29885.399923968307, -57609.296752130605, -38040.07626057581, 0.026000000000000002, 1.01, -0.018000000000000002, 192.0, 0.0, 0.0, 0.0, 0.0, 0.0, 0.0, 0.0, 0.0, 0.0, 1.695760306975559E9, 0.0, 2023-09-26 15:31:46.975
132.0, 6743.074267277035, 38025.25705400194, -53001.4622809246, -57328.82706270541, -36015.499951303005, -32389.354096574083, -187500.02235174447, -83534.59340746325, -13249.600022983555, -42830.457428748305, -53545.4366857334, -45637.79182884596, -24739.983646867713, -29886.897490846815, -57605.94399046231, -38042.49024897698, 0.026000000000000002, 1.01, -0.018000000000000002, 192.0, 0.0, 0.0, 0.0, 0.0, 0.0, 0.0, 0.0, 0.0, 0.0, 1.695760306975568E9, 0.0, 2023-09-26 15:31:46.975
134.0, 6752.52905518163, 38043.36196701074, -53008.16780426119, -57336.94074594269, -36021.6019775393, -32398.250090867296, -187500.02235174447, -83471.04739797681, -13252.192825340371, -42791.67715211835, -53538.48529320781, -45624.69370659515, -24721.40934722535, -29884.68466814574, -57600.31135085957, -38040.00920534244, 0.026000000000000002, 1.01, -0.018000000000000002, 192.0, 0.0, 0.0, 0.0, 0.0, 0.0, 0.0, 0.0, 0.0, 0.0, 1.695760306975576E9, 0.0, 2023-09-26 15:31:46.975
136.0, 6724.947002523781, 38016.31635621982, -53010.60414440682, -57340.80759773345, -36022.049012428404, -32400.32880310164, -187500.02235174447, -83515.2591485094, -13259.635956243988, -42810.385562227435, -53548.92355786843, -45643.29035798197, -24733.74751016468, -29892.217206027177, -57608.60384805249, -38050.67098744762, 0.026000000000000002, 1.01, -0.018000000000000002, 192.0, 0.0, 0.0, 0.0, 0.0, 0.0, 0.0, 0.0, 0.0, 0.0, 1.695760307037117E9, 0.0, 2023-09-26 15:31:47.037
138.0, 6737.955717796769, 38042.26673153242, -53012.54874617443, -57330.21287086164, -36022.8536752288, -32387.700067484388, -187500.02235174447, -83439.46438306147, -13288.804982758164, -42806.272841247664, -53558.84773240659, -45641.36810795881, -24734.95450436527, -29880.14726402131, -57612.67186554335, -38045.59714145627, 0.02, 1.012, -0.02, 192.0, 0.0, 80.0, 15.5, 80.0, 127.5, 48.0, 0.0, 0.0, 0.0, 1.69576030703714E9, 0.0, 2023-09-26 15:31:47.037
140.0, 6720.834281544004, 38016.33870796427, -53009.73242637306, -57340.897004711274, -36021.6019775393, -32398.965346689864, -187500.02235174447, -83485.5536801283, -13242.894499646962, -42802.02600980116, -53545.88372062251, -45644.0726690379, -24716.000225067168, -29872.860595328882, -57611.28605738712, -38043.78665015539, 0.02, 1.012, -0.02, 192.0, 0.0, 0.0, 0.0, 0.0, 0.0, 0.0, 0.0, 0.0, 0.0, 1.695760307037151E9, 0.0, 2023-09-26 15:31:47.037
142.0, 6743.007212043669, 38040.344481509266, -53002.82573733637, -57329.38585631679, -36021.62432928375, -32396.327840844137, -187500.02235174447, -83405.5344349783, -13259.993584155272, -42807.27866974815, -53551.65047069198, -45645.95021557215, -24748.72317894974, -29888.618575169872, -57610.41433935337, -38049.508696735946, 0.02, 1.012, -0.02, 192.0, 0.0, 0.0, 0.0, 0.0, 0.0, 0.0, 0.0, 0.0, 0.0, 1.69576030703716E9, 0.0, 2023-09-26 15:31:47.037
144.0, 6721.28131643311, 38013.94707130755, -53006.334961215856, -57334.79497847497, -36013.33183209084, -32387.297736084194, -187500.02235174447, -83483.36320917169, -13263.502808034757, -42817.22519603076, -53545.660203177955, -45647.447782450654, -24726.08086181651, -29883.947060578714, -57597.740900247205, -38031.873170360705, 0.02, 1.012, -0.02, 192.0, 0.0, 0.0, 0.0, 0.0, 0.0, 0.0, 0.0, 0.0, 0.0, 1.695760307037199E9, 0.0, 2023-09-26 15:31:47.037
146.0, 6737.799255585583, 38034.86830411772, -53010.715903129094, -57353.25751939506, -36023.23365488454, -32409.068335183663, -187500.02235174447, -83396.92901336301, -13287.955616468862, -42809.4020854714, -53562.580473730624, -45661.70819541314, -24736.51912647714, -29901.96256660969, -57613.476528343745, -38052.90616189315, 0.02, 1.012, -0.02, 192.0, 0.0, 0.0, 0.0, 0.0, 0.0, 0.0, 0.0, 0.0, 0.0, 1.695760307037208E9, 0.0, 2023-09-26 15:31:47.037
148.0, 6717.503871620163, 38016.83044634228, -53005.0609117819, -57329.721132483624, -36020.30557636089, -32397.579538533635, -187500.02235174447, -83455.71410128046, -13236.971287366307, -42808.105684293, -53547.694211923386, -45659.2271517786, -24727.37726299492, -29887.478636202653, -57612.38129286544, -38054.62724621621, 0.028, 1.016, -0.022, 192.0, 0.0, 112.0, 15.5, 96.0, 127.5, 40.0, 0.0, 0.0, 0.0, 1.695760307037216E9, 0.0, 2023-09-26 15:31:47.037
150.0, 6724.611726356951, 38033.48249596149, -53017.62259216578, -57350.39649610478, -36032.64373930022, -32413.784553263733, -187500.02235174447, -83355.8241553097, -13263.636918501488, -42800.77431211166, -53555.02558410473, -45650.44291620766, -24747.627943471427, -29883.365915222876, -57616.426958611846, -38055.4319090166, 0.028, 1.016, -0.022, 192.0, 0.0, 0.0, 0.0, 0.0, 0.0, 0.0, 0.0, 0.0, 0.0, 1.695760307037226E9, 0.0, 2023-09-26 15:31:47.037
152.0, 6710.150147694368, 38007.59917588224, -53008.145452516736, -57343.0874756679, -36029.8050677544, -32409.113038672574, -187500.02235174447, -83421.80650494176, -13278.970215197829, -42818.14161755343, -53557.57368297264, -45666.49146872658, -24703.170323749822, -29882.114217533377, -57620.472624358255, -38059.72344395202, 0.028, 1.016, -0.022, 192.0, 0.0, 0.0, 0.0, 0.0, 0.0, 0.0, 0.0, 0.0, 0.0, 1.69576030709605E9, 0.0, 2023-09-26 15:31:47.096
154.0, 6735.295860206588, 38032.320205249816, -52997.215449478084, -57335.01849591953, -36029.201570654106, -32401.513445557768, -187500.02235174447, -83320.24017813685, -13247.029572371195, -42816.84521637502, -53553.17038931494, -45658.780116889495, -24732.249943286177, -29896.464037473685, -57624.07125521556, -38060.17047884112, 0.028, 1.016, -0.022, 192.0, 0.0, 0.0, 0.0, 0.0, 0.0, 0.0, 0.0, 0.0, 0.0, 1.695760307096072E9, 0.0, 2023-09-26 15:31:47.096
156.0, 6722.756531567161, 38016.294004475356, -52995.8072895774, -57318.96994340062, -36014.158846635684, -32394.40559082098, -187500.02235174447, -83384.8367196127, -13261.066467889128, -42828.915158380885, -53548.23065379032, -45653.34864298686, -24746.867984159948, -29892.463075216187, -57604.91581021736, -38042.17732455461, 0.028, 1.016, -0.022, 192.0, 0.0, 0.0, 0.0, 0.0, 0.0, 0.0, 0.0, 0.0, 0.0, 1.695760307096081E9, 0.0, 2023-09-26 15:31:47.096
158.0, 6753.177255770834, 38045.84301064527, -52990.88990579724, -57317.762949200034, -36004.77111396445, -32391.164587874962, -187500.02235174447, -83330.49962884183, -13289.453183347367, -42784.07755900354, -53548.65533693497, -45632.38270668778, -24720.89525710288, -29879.454359943196, -57598.18793513632, -38036.94701635206, 0.03, 1.016, -0.026000000000000002, 192.0, 0.0, 120.0, 15.5, 96.0, 127.5, 24.0, 0.0, 0.0, 0.0, 1.69576030709609E9, 0.0, 2023-09-26 15:31:47.096
160.0, 6742.962508554758, 38027.78280112539, -52996.27667621097, -57324.49082428108, -36017.22103562606, -32395.813750721667, -187500.02235174447, -83368.69876011596, -13232.85856638653, -42808.48566394874, -53530.885700093, -45635.04256427796, -24717.207219267755, -29885.042296057025, -57595.41631882386, -38033.840123872775, 0.03, 1.016, -0.026000000000000002, 192.0, 0.0, 0.0, 0.0, 0.0, 0.0, 0.0, 0.0, 0.0, 0.0, 1.6957603070961E9, 0.0, 2023-09-26 15:31:47.096
162.0, 6755.747706383194, 38042.937283866086, -53001.30581871341, -57320.422806790215, -36026.8546374863, -32395.947861188397, -187500.02235174447, -83292.97104990137, -13260.999412655761, -42803.36711446847, -53546.77779040072, -45639.55761665793, -24739.000170111678, -29886.11517979088, -57610.5484498201, -38038.95867335304, 0.03, 1.016, -0.026000000000000002, 192.0, 0.0, 0.0, 0.0, 0.0, 0.0, 0.0, 0.0, 0.0, 0.0, 1.695760307096109E9, 0.0, 2023-09-26 15:31:47.096
164.0, 6750.204473758277, 38042.087917576784, -52978.64114983573, -57304.262495549025, -36010.58256752283, -32390.136407630016, -187500.02235174447, -83309.15371288703, -13248.95182239435, -42814.07360006256, -53535.62426991753, -45632.67327936569, -24717.162515778844, -29869.574888893952, -57603.5970572945, -38034.398917484155, 0.03, 1.016, -0.026000000000000002, 192.0, 0.0, 0.0, 0.0, 0.0, 0.0, 0.0, 0.0, 0.0, 0.0, 1.695760307096118E9, 0.0, 2023-09-26 15:31:47.096
166.0, 6750.651508647384, 38048.949903124565, -52982.44094639313, -57306.76589092802, -36012.974204179554, -32386.828349450632, -187500.02235174447, -83284.36562828609, -13253.533930007688, -42782.08825374702, -53527.711752380346, -45616.82589254688, -24720.9846640807, -29868.367894693365, -57592.75646123367, -38025.83819935777, 0.03, 1.016, -0.026000000000000002, 192.0, 0.0, 0.0, 0.0, 0.0, 0.0, 0.0, 0.0, 0.0, 0.0, 1.695760307156311E9, 0.0, 2023-09-26 15:31:47.156
168.0, 6728.322115936532, 38034.62243492871, -52990.91225754169, -57318.83583293389, -36016.66224201468, -32392.103361142086, -187500.02235174447, -83300.14595987153, -13256.752581209254, -42805.11055053599, -53533.21028151635, -45630.03577351997, -24711.731041876203, -29887.72450539166, -57600.624275281945, -38028.90038834815, 0.024, 1.014, -0.024, 192.0, 0.0, 96.0, 15.5, 88.0, 127.5, 32.0, 0.0, 0.0, 0.0, 1.695760307156334E9, 0.0, 2023-09-26 15:31:47.156
170.0, 6726.981011269214, 38039.159839053136, -52992.52158314247, -57319.03699863399, -36021.713736261576, -32393.824445465143, -187500.02235174447, -83290.24413707783, -13277.673814019421, -42822.544911211124, -53541.92746185392, -45644.385593460276, -24701.78451559359, -29889.62440367036, -57607.195688151805, -38032.81194362783, 0.024, 1.014, -0.024, 192.0, 0.0, 0.0, 0.0, 0.0, 0.0, 0.0, 0.0, 0.0, 0.0, 1.695760307156344E9, 0.0, 2023-09-26 15:31:47.156
172.0, 6726.779845569115, 38041.77499315441, -52980.451641136606, -57308.19640257316, -36011.007250667484, -32393.93620418742, -187500.02235174447, -83283.11393059659, -13213.211383010315, -42781.32829443554, -53519.41925518743, -45626.99593627405, -24727.37726299492, -29868.546708649006, -57603.08296717203, -38032.70018490555, 0.024, 1.014, -0.024, 192.0, 0.0, 0.0, 0.0, 0.0, 0.0, 0.0, 0.0, 0.0, 0.0, 1.695760307156353E9, 0.0, 2023-09-26 15:31:47.156
174.0, 6718.75556930966, 38028.49805694796, -53007.83252809436, -57326.0330946485, -36025.51353281898, -32400.261747868273, -187500.02235174447, -83286.69020970944, -13262.586386512088, -42809.42443721586, -53539.89345310849, -45643.93855857117, -24726.103213560968, -29881.466016944174, -57608.40268235239, -38035.13652505118, 0.024, 1.014, -0.024, 192.0, 0.0, 0.0, 0.0, 0.0, 0.0, 0.0, 0.0, 0.0, 0.0, 1.695760307156362E9, 0.0, 2023-09-26 15:31:47.156
176.0, 6716.095711719479, 38032.655481416645, -53010.42533045117, -57324.69198998118, -36029.38038460975, -32407.36960260506, -187500.02235174447, -83231.86138056057, -13267.123790636515, -42806.898690092414, -53556.23257830532, -45650.93465458568, -24731.020597341132, -29880.415484954774, -57618.90800224638, -38046.33474902329, 0.024, 1.014, -0.024, 192.0, 0.0, 0.0, 0.0, 0.0, 0.0, 0.0, 0.0, 0.0, 0.0, 1.695760307156371E9, 0.0, 2023-09-26 15:31:47.156
178.0, 6724.879947290415, 38026.508751691435, -52986.24074295053, -57314.38783578728, -36015.99168968102, -32387.253032595283, -187500.02235174447, -83257.32001749516, -13264.061601646139, -42819.30390826511, -53549.50470322427, -45653.952140087145, -24721.431698969805, -29887.053953058003, -57609.632028297434, -38037.01407158543, 0.024, 1.014, -0.026000000000000002, 192.0, 0.0, 96.0, 15.5, 88.0, 127.5, 24.0, 0.0, 0.0, 0.0, 1.695760307156381E9, 0.0, 2023-09-26 15:31:47.156
180.0, 6724.097636234479, 38033.1248680502, -52999.20475473461, -57324.11084462534, -36014.80704722489, -32399.255919367784, -187500.02235174447, -83221.06548798866, -13261.424095800412, -42826.545873468625, -53546.084886322606, -45654.868561609816, -24720.962312336247, -29890.741990893126, -57607.79918525209, -38035.449449473555, 0.024, 1.014, -0.026000000000000002, 192.0, 0.0, 0.0, 0.0, 0.0, 0.0, 0.0, 0.0, 0.0, 0.0, 1.69576030715639E9, 0.0, 2023-09-26 15:31:47.156
182.0, 6712.161804695345, 38016.04813528635, -53003.1610135032, -57314.72311195411, -36018.09275365982, -32388.236509351318, -187500.02235174447, -83254.63780816052, -13266.81086621414, -42831.217388059784, -53546.39781074498, -45658.221323278114, -24686.317108430518, -29892.574833938463, -57606.74865326269, -38033.05781281684, 0.024, 1.014, -0.026000000000000002, 192.0, 0.0, 0.0, 0.0, 0.0, 0.0, 0.0, 0.0, 0.0, 0.0, 1.695760307215669E9, 0.0, 2023-09-26 15:31:47.215
184.0, 6737.553386396574, 38042.222028043514, -52987.26892319548, -57304.59777171585, -36009.57673902235, -32383.900270926988, -187500.02235174447, -83188.45429282836, -13277.383241341502, -42798.18150975484, -53555.00323236027, -45650.107640040835, -24717.743661134682, -29869.753702849594, -57608.223868396744, -38030.219141271016, 0.024, 1.014, -0.026000000000000002, 192.0, 0.0, 0.0, 0.0, 0.0, 0.0, 0.0, 0.0, 0.0, 0.0, 1.695760307215691E9, 0.0, 2023-09-26 15:31:47.215
186.0, 6728.031543258613, 38016.69633587555, -52974.48372536704, -57307.704664195146, -36008.72737273305, -32381.03924763671, -187500.02235174447, -83261.96918034187, -13228.365865751013, -42805.602288914, -53526.14713026847, -45653.16982903121, -24697.090649257978, -29859.695417844705, -57591.97415017774, -38017.9256818206, 0.024, 1.014, -0.026000000000000002, 192.0, 0.0, 0.0, 0.0, 0.0, 0.0, 0.0, 0.0, 0.0, 0.0, 1.695760307215732E9, 0.0, 2023-09-26 15:31:47.215
188.0, 6732.256022960666, 38031.64965291615, -53000.32234195738, -57340.427618077716, -36020.46203857208, -32412.823428252155, -187500.02235174447, -83177.99367642328, -13268.710764492842, -42806.04932380311, -53547.135418312006, -45665.776212904006, -24731.400576996875, -29875.29693547451, -57605.720473017755, -38036.34351925177, 0.024, 1.018, -0.03, 192.0, 0.0, 96.0, 15.5, 104.0, 127.5, 8.0, 0.0, 0.0, 0.0, 1.695760307215742E9, 0.0, 2023-09-26 15:31:47.215
190.0, 6716.475691375219, 38009.54377764986, -52993.86268780979, -57327.21773710463, -36019.970300194065, -32395.21025362137, -187500.02235174447, -83243.1937149994, -13281.697128021375, -42829.25043454772, -53557.79720041719, -45686.116300358335, -24717.22957101221, -29889.40088622581, -57617.56689757907, -38049.709862436044, 0.024, 1.018, -0.03, 192.0, 0.0, 0.0, 0.0, 0.0, 0.0, 0.0, 0.0, 0.0, 0.0, 1.695760307215751E9, 0.0, 2023-09-26 15:31:47.215
192.0, 6742.180197498822, 38038.735155908485, -52993.77328083197, -57325.384894059294, -36022.51839906197, -32398.540663545213, -187500.02235174447, -83161.72160645982, -13245.420246770413, -42810.2067482718, -53541.949813598374, -45669.41954725022, -24748.745530694192, -29888.81974086997, -57609.94495271981, -38041.66323443213, 0.024, 1.018, -0.03, 192.0, 0.0, 0.0, 0.0, 0.0, 0.0, 0.0, 0.0, 0.0, 0.0, 1.69576030721576E9, 0.0, 2023-09-26 15:31:47.215
194.0, 6721.840110044493, 38017.09866727575, -52999.45062392362, -57319.640495734275, -36023.47952407355, -32390.561090774667, -187500.02235174447, -83213.93528150741, -13269.850703460063, -42812.68779190633, -53545.07905782212, -45668.480773983094, -24725.94675134978, -29890.496121704116, -57610.28022888664, -38042.87022863272, 0.024, 1.018, -0.03, 192.0, 0.0, 0.0, 0.0, 0.0, 0.0, 0.0, 0.0, 0.0, 0.0, 1.695760307215769E9, 0.0, 2023-09-26 15:31:47.215
196.0, 6744.996517300191, 38044.72542342251, -52989.884077296745, -57323.03796089148, -36017.3998495817, -32385.084913383118, -187500.02235174447, -83131.16677178942, -13266.050906902661, -42816.30877450809, -53542.75447639877, -45660.590608190374, -24732.719329919735, -29881.980107066647, -57609.296752130605, -38043.22785654401, 0.024, 1.018, -0.03, 192.0, 0.0, 0.0, 0.0, 0.0, 0.0, 0.0, 0.0, 0.0, 0.0, 1.695760307275381E9, 0.0, 2023-09-26 15:31:47.275
198.0, 6722.823586800527, 38017.65746088713, -52984.2067342051, -57319.57344050091, -36009.55438727789, -32377.418265034947, -187500.02235174447, -83213.95763325186, -13233.506766975734, -42809.1562162824, -53527.57764191362, -45649.83941910737, -24733.054606086567, -29875.028714541044, -57590.476583299234, -38034.86830411772, 0.022, 1.018, -0.03, 192.0, 0.0, 88.0, 15.5, 104.0, 127.5, 8.0, 0.0, 0.0, 0.0, 1.695760307275405E9, 0.0, 2023-09-26 15:31:47.275
200.0, 6748.773962113138, 38045.3289205228, -52991.18047847515, -57327.64242024928, -36011.20841636758, -32386.31425932816, -187500.02235174447, -83145.58364696309, -13247.364848538024, -42794.4040649419, -53530.05868554815, -45637.680070123686, -24738.821356156037, -29860.097749244902, -57584.48631578521, -38034.62243492871, 0.022, 1.018, -0.03, 192.0, 0.0, 0.0, 0.0, 0.0, 0.0, 0.0, 0.0, 0.0, 0.0, 1.695760307275415E9, 0.0, 2023-09-26 15:31:47.275
202.0, 6729.126778736923, 38016.159894008626, -53004.59152514834, -57330.74931272856, -36016.46107631458, -32377.641782479503, -187500.02235174447, -83200.07719994512, -13231.80803439713, -42804.68586739134, -53538.79821763018, -45651.96283483063, -24738.62019045594, -29887.76920888057, -57594.36578683446, -38041.05973733184, 0.022, 1.018, -0.03, 192.0, 0.0, 0.0, 0.0, 0.0, 0.0, 0.0, 0.0, 0.0, 0.0, 1.695760307275424E9, 0.0, 2023-09-26 15:31:47.275
204.0, 6746.292918478599, 38033.48249596149, -53011.1629380182, -57345.76968500253, -36023.591282795824, -32387.78947446221, -187500.02235174447, -83125.15415253093, -13266.766162725231, -42823.23781528924, -53552.81276140366, -45655.44970696565, -24759.206147099278, -29883.2541565006, -57598.00912118067, -38042.087917576784, 0.022, 1.018, -0.03, 192.0, 0.0, 0.0, 0.0, 0.0, 0.0, 0.0, 0.0, 0.0, 0.0, 1.695760307275433E9, 0.0, 2023-09-26 15:31:47.275
206.0, 6724.723485079227, 38016.51752191991, -53014.67216189768, -57337.16426338724, -36016.5504832924, -32381.575689503636, -187500.02235174447, -83168.09185362958, -13266.408534813945, -42807.81511161508, -53554.77971491572, -45656.70140465515, -24754.914612163855, -29879.52141517656, -57596.422147324345, -38044.01016759994, 0.022, 1.018, -0.03, 192.0, 0.0, 0.0, 0.0, 0.0, 0.0, 0.0, 0.0, 0.0, 0.0, 1.695760307275442E9, 0.0, 2023-09-26 15:31:47.275
208.0, 6739.162711997356, 38029.86151335973, -53025.758627147516, -57350.50825482706, -36025.82645724135, -32386.64953549499, -187500.02235174447, -83110.40200119044, -13270.789476727186, -42794.33700970853, -53566.357918543574, -45648.11833478431, -24728.427794984316, -29886.96454608018, -57595.84100196851, -38041.05973733184, 0.02, 1.012, -0.022, 192.0, 0.0, 80.0, 15.5, 80.0, 127.5, 40.0, 0.0, 0.0, 0.0, 1.695760307275482E9, 0.0, 2023-09-26 15:31:47.275
210.0, 6722.778883311616, 38014.416457941115, -53009.24068799504, -57347.58017630341, -36011.9013204457, -32384.593175005102, -187500.02235174447, -83159.66524596993, -13281.160686154448, -42808.150387781905, -53557.59603471709, -45650.55467492994, -24746.130376592922, -29878.33677272043, -57592.48824030021, -38045.038347844886, 0.02, 1.012, -0.022, 192.0, 0.0, 0.0, 0.0, 0.0, 0.0, 0.0, 0.0, 0.0, 0.0, 1.695760307275493E9, 0.0, 2023-09-26 15:31:47.275
212.0, 6756.95470058378, 38037.34934775226, -52996.79076633343, -57335.376123830814, -36012.773038479456, -32381.59804124809, -187500.02235174447, -83102.89181505344, -13249.532967750189, -42801.869547589966, -53547.694211923386, -45637.07657302339, -24755.316943564052, -29869.597240638406, -57583.63694949591, -38042.378490254705, 0.02, 1.012, -0.022, 192.0, 0.0, 0.0, 0.0, 0.0, 0.0, 0.0, 0.0, 0.0, 0.0, 1.695760307335666E9, 0.0, 2023-09-26 15:31:47.335
214.0, 6748.014002801658, 38019.06562078781, -53009.754778117516, -57335.06319940844, -36020.05970717189, -32378.491148768804, -187500.02235174447, -83139.92865561589, -13229.014066340216, -42788.167928238865, -53537.07713330712, -45622.68204959417, -24746.42094927084, -29864.90337430279, -57577.91490291535, -38030.688527904575, 0.02, 1.012, -0.022, 192.0, 0.0, 0.0, 0.0, 0.0, 0.0, 0.0, 0.0, 0.0, 0.0, 1.695760307335689E9, 0.0, 2023-09-26 15:31:47.335
216.0, 6757.62525291744, 38022.21721675601, -53023.34463874634, -57358.867807253344, -36030.27445438796, -32394.450294309892, -187500.02235174447, -83087.55851835711, -13261.893482433974, -42818.70041116481, -53555.00323236027, -45640.31757596941, -24750.064283617055, -29888.037429814034, -57594.16462113436, -38046.558266467844, 0.02, 1.012, -0.022, 192.0, 0.0, 0.0, 0.0, 0.0, 0.0, 0.0, 0.0, 0.0, 0.0, 1.695760307335699E9, 0.0, 2023-09-26 15:31:47.335
218.0, 6764.129610553934, 38018.05979228733, -53025.043371324944, -57351.804656005464, -36032.37551836676, -32382.22389009284, -187500.02235174447, -83084.63043983346, -13275.013956429239, -42850.28342608016, -53559.13830508451, -45649.906474340736, -24744.833975414513, -29890.183197281745, -57599.88666771492, -38050.04513860287, 0.02, 1.006, -0.018000000000000002, 192.0, 0.0, 80.0, 15.5, 56.0, 127.5, 56.0, 0.0, 0.0, 0.0, 1.695760307335707E9, 0.0, 2023-09-26 15:31:47.335
220.0, 6781.027529362146, 38020.58553941078, -53017.9131648437, -57330.86107145084, -36030.47562008806, -32386.269555839248, -187500.02235174447, -83077.03084671866, -13259.457142288345, -42788.592611383516, -53542.173331042926, -45623.821988561394, -24746.957391137767, -29865.685685358727, -57588.59903676499, -38036.72349890751, 0.02, 1.006, -0.018000000000000002, 192.0, 0.0, 0.0, 0.0, 0.0, 0.0, 0.0, 0.0, 0.0, 0.0, 1.695760307335717E9, 0.0, 2023-09-26 15:31:47.335
222.0, 6769.024642589646, 38016.51752191991, -53033.224109795585, -57347.7366385146, -36038.052861458404, -32386.6942389839, -187500.02235174447, -83047.97357892676, -13282.278273377213, -42819.59448094302, -53561.17231382994, -45635.60135788934, -24754.132301107922, -29886.49515944662, -57603.10531891648, -38046.222990301016, 0.02, 1.006, -0.018000000000000002, 192.0, 0.0, 0.0, 0.0, 0.0, 0.0, 0.0, 0.0, 0.0, 0.0, 1.695760307335726E9, 0.0, 2023-09-26 15:31:47.335
224.0, 6779.708776439283, 38020.09380103276, -53012.4146357077, -57332.60450751836, -36026.51936131947, -32378.35703830207, -187500.02235174447, -83064.20094540132, -13287.91091297995, -42805.73639938074, -53556.41139226096, -45634.14849449974, -24753.774673196636, -29868.61376388237, -57591.84003971101, -38039.56217045333, 0.02, 1.006, -0.018000000000000002, 192.0, 0.0, 0.0, 0.0, 0.0, 0.0, 0.0, 0.0, 0.0, 0.0, 1.695760307335735E9, 0.0, 2023-09-26 15:31:47.335
226.0, 6782.905075896392, 38025.50292319094, -53013.040484552446, -57334.817330219434, -36027.74870726451, -32380.83808193661, -187500.02235174447, -83030.47216301825, -13241.15106357945, -42798.20386149929, -53546.2413485338, -45626.79477057395, -24761.821301200547, -29885.62344141286, -57593.136440889415, -38037.77403089691, 0.02, 1.006, -0.018000000000000002, 192.0, 0.0, 0.0, 0.0, 0.0, 0.0, 0.0, 0.0, 0.0, 0.0, 1.695760307396019E9, 0.0, 2023-09-26 15:31:47.396
228.0, 6771.013947846169, 38002.19005372406, -53016.57206017638, -57350.84353099389, -36037.158791680195, -32389.4435035519, -187500.02235174447, -83047.59359927101, -13272.711726750342, -42820.44384723232, -53549.392944502, -45642.68686088167, -24738.553135222573, -29878.269717487066, -57590.11895538795, -38039.40570824214, 0.022, 1.012, -0.022, 192.0, 0.0, 88.0, 15.5, 80.0, 127.5, 40.0, 0.0, 0.0, 0.0, 1.695760307396046E9, 0.0, 2023-09-26 15:31:47.396
230.0, 6776.713642682272, 38017.74686786495, -53018.1143305438, -57342.6851442677, -36025.44647758561, -32381.151006358985, -187500.02235174447, -82998.15154053588, -13263.502808034757, -42815.88409136344, -53556.21022656086, -45644.60911090483, -24767.43158905883, -29886.71867689117, -57596.131574646424, -38041.84204838777, 0.022, 1.012, -0.022, 192.0, 0.0, 0.0, 0.0, 0.0, 0.0, 0.0, 0.0, 0.0, 0.0, 1.695760307396101E9, 0.0, 2023-09-26 15:31:47.396
232.0, 6757.580549428529, 37994.411646653614, -53032.50885397302, -57359.80658052047, -36036.13061143525, -32391.45516055288, -187500.02235174447, -83042.98913991322, -13284.714613522841, -42830.56918747058, -53564.3909650315, -45656.29907325495, -24750.95835339527, -29877.420351197765, -57593.80699322307, -38041.57382745431, 0.022, 1.012, -0.022, 192.0, 0.0, 0.0, 0.0, 0.0, 0.0, 0.0, 0.0, 0.0, 0.0, 1.695760307396111E9, 0.0, 2023-09-26 15:31:47.396
234.0, 6778.591189216518, 38022.641899900664, -53030.63130743877, -57352.564615316944, -36034.07425094536, -32391.231643108327, -187500.02235174447, -82971.19533672278, -13313.570715614644, -42799.969649311264, -53574.71747096986, -45651.13582028578, -24739.64837070088, -29892.06074381599, -57605.27343812865, -38049.19577231357, 0.022, 1.012, -0.022, 192.0, 0.0, 0.0, 0.0, 0.0, 0.0, 0.0, 0.0, 0.0, 0.0, 1.69576030739612E9, 0.0, 2023-09-26 15:31:47.396
236.0, 6777.071270593557, 38006.61569912621, -53004.47976642606, -57347.24490013658, -36027.45813458659, -32392.706858242378, -187500.02235174447, -83027.40997402788, -13269.515427293234, -42813.06777156208, -53547.336584012104, -45647.47013419511, -24753.84172843, -29888.81974086997, -57594.29873160109, -38039.27159777541, 0.022, 1.012, -0.022, 192.0, 0.0, 0.0, 0.0, 0.0, 0.0, 0.0, 0.0, 0.0, 0.0, 1.695760307396129E9, 0.0, 2023-09-26 15:31:47.396
238.0, 6793.052767879101, 38030.30854824884, -53009.68772288415, -57349.21185364865, -36026.966396208576, -32397.93716644492, -187500.02235174447, -82963.50633663015, -13226.845947128051, -42796.974515554255, -53539.62523217502, -45625.40896241772, -24743.31405679155, -29876.079246530444, -57592.62235076694, -38041.5291239654, 0.02, 1.012, -0.022, 192.0, 0.0, 80.0, 15.5, 80.0, 127.5, 40.0, 0.0, 0.0, 0.0, 1.695760307396138E9, 0.0, 2023-09-26 15:31:47.396
240.0, 6768.57760770054, 38006.54864389284, -53016.63911540975, -57348.027211192515, -36031.95083522211, -32385.062561638664, -187500.02235174447, -83023.81134317057, -13263.614566757033, -42804.14942552441, -53552.92452012593, -45631.39922993174, -24751.98653364021, -29889.82556937046, -57596.33274034652, -38040.56799895382, 0.02, 1.012, -0.022, 192.0, 0.0, 0.0, 0.0, 0.0, 0.0, 0.0, 0.0, 0.0, 0.0, 1.695760307396147E9, 0.0, 2023-09-26 15:31:47.396
242.0, 6788.314198054576, 38040.09861232026, -52996.34373144433, -57333.05154240746, -36020.32792810535, -32380.5922127476, -187500.02235174447, -82943.4791735982, -13261.938185922883, -42784.23402121473, -53544.72142991083, -45614.97069775709, -24745.839803915, -29877.24153724212, -57586.22975185273, -38030.46501046002, 0.02, 1.012, -0.022, 192.0, 0.0, 0.0, 0.0, 0.0, 0.0, 0.0, 0.0, 0.0, 0.0, 1.695760307456321E9, 0.0, 2023-09-26 15:31:47.456
244.0, 6759.279282007133, 38002.19005372406, -53014.135720030754, -57345.8367402359, -36024.5524078074, -32384.593175005102, -187500.02235174447, -83022.13496233642, -13255.947918408861, -42795.61105914248, -53541.815703131644, -45620.87155829329, -24737.56965846654, -29880.57194716596, -57583.94987391828, -38033.01310932793, 0.02, 1.012, -0.022, 192.0, 0.0, 0.0, 0.0, 0.0, 0.0, 0.0, 0.0, 0.0, 0.0, 1.695760307456345E9, 0.0, 2023-09-26 15:31:47.456
246.0, 6773.003253102691, 38027.71574589202, -53022.02588582348, -57362.39938287728, -36036.13061143525, -32403.301585114194, -187500.02235174447, -82913.70664998372, -13282.546494310678, -42832.491437493736, -53559.98767137381, -45645.011442305025, -24724.158611793355, -29884.975240823656, -57593.695234500796, -38042.31143502134, 0.02, 1.012, -0.022, 192.0, 0.0, 0.0, 0.0, 0.0, 0.0, 0.0, 0.0, 0.0, 0.0, 1.695760307456355E9, 0.0, 2023-09-26 15:31:47.456
248.0, 6753.199607515288, 38009.27555671639, -53010.224164751075, -57344.1380076573, -36025.334718863334, -32393.98090767633, -187500.02235174447, -82962.58991510748, -13265.425058057912, -42779.070768245554, -53551.471656736336, -45641.54692191445, -24754.691094719303, -29881.82364485546, -57596.10922290197, -38045.440679245075, 0.014, 1.006, -0.024, 192.0, 0.0, 56.0, 15.5, 56.0, 127.5, 32.0, 0.0, 0.0, 0.0, 1.695760307456364E9, 0.0, 2023-09-26 15:31:47.456
250.0, 6764.330776254032, 38028.65451915914, -53009.464205439595, -57348.74246701509, -36033.42605035616, -32389.21998610735, -187500.02235174447, -82884.47056823618, -13283.664081533443, -42802.361285967985, -53550.21995904684, -45643.37976495979, -24730.193582796288, -29899.43681948624, -57595.05869091257, -38037.0811268188, 0.014, 1.006, -0.024, 192.0, 0.0, 0.0, 0.0, 0.0, 0.0, 0.0, 0.0, 0.0, 0.0, 1.695760307456374E9, 0.0, 2023-09-26 15:31:47.456
252.0, 6737.240461974199, 37999.46314090051, -53001.03759777995, -57343.22158613463, -36020.394983338716, -32382.82738719313, -187500.02235174447, -82963.61809535243, -13263.122828379015, -42806.71987613677, -53544.967299099844, -45649.72766038509, -24750.33250455052, -29887.813912369482, -57588.57668502053, -38032.476667461, 0.014, 1.006, -0.024, 192.0, 0.0, 0.0, 0.0, 0.0, 0.0, 0.0, 0.0, 0.0, 0.0, 1.695760307456415E9, 0.0, 2023-09-26 15:31:47.456
254.0, 6756.932348839325, 38021.07727778879, -53010.984124062554, -57354.4868653401, -36031.48144858854, -32400.395858335003, -187500.02235174447, -82884.29175428054, -13252.773970696207, -42793.8005678416, -53541.50277870927, -45641.07753528089, -24748.633771971916, -29885.891662346326, -57585.44744079679, -38030.95674883804, 0.014, 1.006, -0.024, 192.0, 0.0, 0.0, 0.0, 0.0, 0.0, 0.0, 0.0, 0.0, 0.0, 1.695760307456428E9, 0.0, 2023-09-26 15:31:47.456
0.0, 6736.346392195987, 38002.592385124255, -53026.33977250335, -57351.40232460527, -36031.079117188354, -32395.433771065924, -187500.02235174447, -82914.31014708402, -13276.064488418639, -42815.59351868553, -53563.72041269785, -45658.98128258959, -24760.502548277684, -29903.10250557691, -57609.02853119714, -38049.79926941387, 0.014, 1.006, -0.024, 192.0, 0.0, 0.0, 0.0, 0.0, 0.0, 0.0, 0.0, 0.0, 0.0, 1.695760307515737E9, 0.0, 2023-09-26 15:31:47.515
2.0, 6759.86042736297, 38026.32993773579, -53012.325228729875, -57342.998068690074, -36027.45813458659, -32396.730172244334, -187500.02235174447, -82867.10326279441, -13279.886636720496, -42798.96382081078, -53553.88564513751, -45642.23982599257, -24725.253847271666, -29877.397999453307, -57599.841964226005, -38046.20063855656, 0.018000000000000002, 1.012, -0.024, 192.0, 0.0, 72.0, 15.5, 80.0, 127.5, 32.0, 0.0, 0.0, 0.0, 1.695760307515761E9, 0.0, 2023-09-26 15:31:47.515
4.0, 6748.148113268389, 38015.95872830853, -53007.47490018307, -57330.63755400629, -36018.27156761546, -32390.918718685953, -187500.02235174447, -82905.63767023536, -13242.827444413597, -42776.52266937765, -53537.03242981821, -45620.93861352666, -24729.254809529164, -29867.42912142624, -57587.86142919796, -38036.2764640184, 0.018000000000000002, 1.012, -0.024, 192.0, 0.0, 0.0, 0.0, 0.0, 0.0, 0.0, 0.0, 0.0, 0.0, 1.695760307515771E9, 0.0, 2023-09-26 15:31:47.515
6.0, 6753.713697637761, 38024.98883306847, -53017.68964739915, -57344.42858033521, -36032.15200092221, -32401.42403857995, -187500.02235174447, -82850.13828875283, -13267.123790636515, -42793.71116086378, -53551.51636022525, -45636.94246255666, -24744.498699247684, -29891.47959846015, -57596.51155430217, -38046.80413565685, 0.018000000000000002, 1.012, -0.024, 192.0, 0.0, 0.0, 0.0, 0.0, 0.0, 0.0, 0.0, 0.0, 0.0, 1.695760307515785E9, 0.0, 2023-09-26 15:31:47.515
8.0, 6735.3405636954985, 38008.82852182729, -53014.135720030754, -57335.35377208636, -36028.73218402054, -32380.301640069683, -187500.02235174447, -82901.12261785539, -13263.14518012347, -42814.23006227375, -53552.522188725736, -45642.50804692603, -24728.494850217685, -29879.14143552082, -57595.01398742366, -38037.10347856325, 0.018000000000000002, 1.012, -0.024, 192.0, 0.0, 0.0, 0.0, 0.0, 0.0, 0.0, 0.0, 0.0, 0.0, 1.695760307515794E9, 0.0, 2023-09-26 15:31:47.515
10.0, 6752.350241225987, 38020.965519066514, -53004.45741468161, -57344.5850425464, -36027.994576453515, -32387.5436052732, -187500.02235174447, -82869.6066581734, -13273.404630828456, -42791.878317818446, -53551.22578754733, -45637.07657302339, -24740.72125443474, -29888.305650747498, -57592.82351646704, -38032.99075758347, 0.018000000000000002, 1.012, -0.024, 192.0, 0.0, 0.0, 0.0, 0.0, 0.0, 0.0, 0.0, 0.0, 0.0, 1.695760307515803E9, 0.0, 2023-09-26 15:31:47.515
12.0, 6745.063572533557, 38021.412553955626, -53025.64686842524, -57335.15260638626, -36029.89447473222, -32380.703971469877, -187500.02235174447, -82863.86225984839, -13278.925511708918, -42790.045474773106, -53561.686403952415, -45640.541093413965, -24754.8922604194, -29881.130740777346, -57597.62914152493, -38038.19871404156, 0.022, 1.016, -0.026000000000000002, 192.0, 0.0, 88.0, 15.5, 96.0, 127.5, 24.0, 0.0, 0.0, 0.0, 1.695760307515812E9, 0.0, 2023-09-26 15:31:47.515
14.0, 6744.638889388906, 38016.986908553474, -53020.505967200515, -57343.288641367995, -36031.146172421715, -32385.822520950143, -187500.02235174447, -82852.52992540956, -13291.755413026263, -42785.776291582144, -53565.26268306526, -45640.22816899159, -24765.844615202503, -29875.58750815243, -57603.84292648351, -38036.74585065196, 0.022, 1.016, -0.026000000000000002, 192.0, 0.0, 0.0, 0.0, 0.0, 0.0, 0.0, 0.0, 0.0, 0.0, 1.695760307515821E9, 0.0, 2023-09-26 15:31:47.515
16.0, 6747.589319657007, 38029.3250714928, -53009.531260672964, -57335.309068597446, -36024.17242815166, -32385.26372733876, -187500.02235174447, -82826.17721869674, -13264.083953390593, -42789.01729452817, -53554.22092130434, -45636.18250324518, -24741.816489913046, -29869.038447027022, -57590.07425189904, -38031.64965291615, 0.022, 1.016, -0.026000000000000002, 192.0, 0.0, 0.0, 0.0, 0.0, 0.0, 0.0, 0.0, 0.0, 0.0, 1.695760307575426E9, 0.0, 2023-09-26 15:31:47.575
18.0, 6748.125761523934, 38024.45239120154, -53006.9608100606, -57335.44317906418, -36022.71956476207, -32381.240413336804, -187500.02235174447, -82839.63296885884, -13264.463933046334, -42790.93954455132, -53546.59897644508, -45633.254424721534, -24730.84178338549, -29860.276563200543, -57581.22296109474, -38024.76531562392, 0.022, 1.016, -0.026000000000000002, 192.0, 0.0, 0.0, 0.0, 0.0, 0.0, 0.0, 0.0, 0.0, 0.0, 1.69576030757545E9, 0.0, 2023-09-26 15:31:47.575
20.0, 6755.524188938641, 38032.81194362783, -53009.933592073154, -57325.76487371503, -36017.19868388161, -32361.995561360785, -187500.02235174447, -82804.98776495311, -13277.807924486153, -42789.285515461626, -53561.55229348568, -45635.13197125578, -24743.470519002738, -29877.375647708854, -57581.20060935028, -38022.798362111855, 0.022, 1.016, -0.026000000000000002, 192.0, 0.0, 0.0, 0.0, 0.0, 0.0, 0.0, 0.0, 0.0, 0.0, 1.69576030757546E9, 0.0, 2023-09-26 15:31:47.575
22.0, 6738.581566641518, 38005.65457411463, -53037.80621740893, -57345.00972569105, -36031.23557939954, -32378.580555746623, -187500.02235174447, -82836.056689746, -13278.34436635308, -42796.683942876334, -53570.068308123155, -45641.010480047524, -24731.333521763507, -29875.565156407974, -57588.91196118736, -38019.95969056603, 0.024, 1.01, -0.028, 192.0, 0.0, 96.0, 15.5, 72.0, 127.5, 16.0, 0.0, 0.0, 0.0, 1.695760307575469E9, 0.0, 2023-09-26 15:31:47.575
24.0, 6771.706851924283, 38037.79638264136, -53001.86461232479, -57325.92133592622, -36026.13938166373, -32375.36190454506, -187500.02235174447, -82766.74393019009, -13276.399764585467, -42814.67709716286, -53563.85452316458, -45642.03866029247, -24729.36656825144, -29883.47767394515, -57591.48241179972, -38026.86637960272, 0.024, 1.01, -0.028, 192.0, 0.0, 0.0, 0.0, 0.0, 0.0, 0.0, 0.0, 0.0, 0.0, 1.695760307575479E9, 0.0, 2023-09-26 15:31:47.575
26.0, 6768.354090255987, 38023.558321423334, -52992.23101046455, -57319.931068412196, -36018.02569842645, -32370.802148676175, -187500.02235174447, -82811.42506735625, -13259.591252755077, -42769.52657336314, -53543.06740082114, -45623.53141588347, -24756.501586020182, -29857.795519566003, -57571.56700749004, -38012.024821284394, 0.024, 1.01, -0.028, 192.0, 0.0, 0.0, 0.0, 0.0, 0.0, 0.0, 0.0, 0.0, 0.0, 1.695760307575488E9, 0.0, 2023-09-26 15:31:47.575
28.0, 6784.447346263808, 38047.56409496833, -52995.71788259958, -57311.63857121928, -36015.16467513617, -32369.21517481985, -187500.02235174447, -82745.04038632398, -13274.678680262408, -42785.39631192641, -53546.286052022704, -45620.42452340419, -24750.466615017252, -29866.602106881393, -57574.182161591314, -38011.957766051026, 0.024, 1.01, -0.028, 192.0, 0.0, 0.0, 0.0, 0.0, 0.0, 0.0, 0.0, 0.0, 0.0, 1.695760307575497E9, 0.0, 2023-09-26 15:31:47.575
30.0, 6766.118915810456, 38019.84793184375, -53004.412711192694, -57326.502481282056, -36026.809933997385, -32378.088817368607, -187500.02235174447, -82813.30261389048, -13295.39874737248, -42786.04451251561, -53551.00227010278, -45626.59360487385, -24727.533725206107, -29856.90144978779, -57579.41246979385, -38017.076315531296, 0.024, 1.01, -0.028, 192.0, 0.0, 0.0, 0.0, 0.0, 0.0, 0.0, 0.0, 0.0, 0.0, 1.695760307635523E9, 0.0, 2023-09-26 15:31:47.635
32.0, 6781.876895651448, 38040.59035069828, -53009.888888584246, -57332.06806565143, -36027.2569688865, -32386.470721539346, -187500.02235174447, -82719.93937730067, -13259.747714966265, -42791.83361432953, -53550.06349683565, -45630.41575317571, -24728.94188510679, -29872.637077884327, -57589.20253386528, -38028.162780781124, 0.022, 1.008, -0.024, 192.0, 0.0, 88.0, 15.5, 64.0, 127.5, 32.0, 0.0, 0.0, 0.0, 1.695760307635556E9, 0.0, 2023-09-26 15:31:47.635
34.0, 6772.019776346658, 38016.00343179744, -52988.25239995151, -57314.745463698564, -36011.364878578774, -32367.807014919166, -187500.02235174447, -82798.81868348345, -13262.38522081199, -42812.061943061584, -53546.50956946726, -45639.758782358025, -24735.647408443383, -29884.86348210138, -57581.55823726157, -38024.899426090655, 0.022, 1.008, -0.024, 192.0, 0.0, 0.0, 0.0, 0.0, 0.0, 0.0, 0.0, 0.0, 0.0, 1.695760307635575E9, 0.0, 2023-09-26 15:31:47.635
36.0, 6798.193669103822, 38053.263789804434, -53001.43992918014, -57321.316876568424, -36027.94987296461, -32382.44740753739, -187500.02235174447, -82687.52934784048, -13241.32987753509, -42781.864736302465, -53529.20931925885, -45618.166997214204, -24727.600780439472, -29866.356237692387, -57576.35028080348, -38014.751734107944, 0.022, 1.008, -0.024, 192.0, 0.0, 0.0, 0.0, 0.0, 0.0, 0.0, 0.0, 0.0, 0.0, 1.695760307635593E9, 0.0, 2023-09-26 15:31:47.635
38.0, 6787.576590487551, 38026.82167611381, -52993.72857734306, -57318.187632344685, -36019.74678274951, -32377.910003412966, -187500.02235174447, -82749.75660440404, -13259.81477019963, -42787.34091369402, -53540.3851914865, -45628.60526187483, -24713.809754110545, -29884.215281512177, -57587.95083617578, -38025.882902846686, 0.022, 1.008, -0.024, 192.0, 0.0, 0.0, 0.0, 0.0, 0.0, 0.0, 0.0, 0.0, 0.0, 1.695760307635648E9, 0.0, 2023-09-26 15:31:47.635
40.0, 6825.507500828207, 38057.331807295304, -52986.79953656191, -57312.309123552935, -36023.47952407355, -32380.16752960295, -187500.02235174447, -82670.34085635435, -13273.248168617269, -42789.57608813955, -53532.807950116156, -45617.47409313609, -24710.099364530965, -29874.268755229565, -57583.122859373434, -38020.563187666325, 0.022, 1.008, -0.024, 192.0, 0.0, 0.0, 0.0, 0.0, 0.0, 0.0, 0.0, 0.0, 0.0, 1.695760307635666E9, 0.0, 2023-09-26 15:31:47.635
42.0, 6808.274305853165, 38032.454315716546, -52987.380681917755, -57300.23918154707, -36008.32504133285, -32374.82546267813, -187500.02235174447, -82750.42715673771, -13243.587403725078, -42776.65677984438, -53520.60389764356, -45604.957116241116, -24724.09155655999, -29862.154109734787, -57573.33279530201, -38013.23181548498, 0.018000000000000002, 1.012, -0.018000000000000002, 192.0, 0.0, 72.0, 15.5, 80.0, 127.5, 56.0, 0.0, 0.0, 0.0, 1.695760307635683E9, 0.0, 2023-09-26 15:31:47.635
44.0, 6825.574556061573, 38047.29587403487, -52989.86172555229, -57317.695893966666, -36024.06066942938, -32386.828349450632, -187500.02235174447, -82660.48373704955, -13271.214159871837, -42788.36909393896, -53540.67576416442, -45615.730657068576, -24731.825260141526, -29873.084112773435, -57581.82645819503, -38021.457257444534, 0.018000000000000002, 1.012, -0.018000000000000002, 192.0, 0.0, 0.0, 0.0, 0.0, 0.0, 0.0, 0.0, 0.0, 0.0, 1.695760307635702E9, 0.0, 2023-09-26 15:31:47.635
46.0, 6812.655247766405, 38019.55735916583, -52988.02888250696, -57316.712417210634, -36008.86148319978, -32377.68648596841, -187500.02235174447, -82726.06375528143, -13243.341534536068, -42806.18343426984, -53537.770037385235, -45630.885139809274, -24714.41325121084, -29871.944173806212, -57586.7438419752, -38027.15695228064, 0.018000000000000002, 1.012, -0.018000000000000002, 192.0, 0.0, 0.0, 0.0, 0.0, 0.0, 0.0, 0.0, 0.0, 0.0, 1.695760307695871E9, 0.0, 2023-09-26 15:31:47.695
48.0, 6833.554128832117, 38036.94701635206, -52991.73927208654, -57314.6784084652, -36016.66224201468, -32376.635953979014, -187500.02235174447, -82694.6148508328, -13262.608738256544, -42799.67907663334, -53534.99842107278, -45615.082456479366, -24719.531800691107, -29871.92182206176, -57576.37263254794, -38017.38923995367, 0.018000000000000002, 1.012, -0.018000000000000002, 192.0, 0.0, 0.0, 0.0, 0.0, 0.0, 0.0, 0.0, 0.0, 0.0, 1.695760307695906E9, 0.0, 2023-09-26 15:31:47.695
50.0, 6813.303448355609, 38014.14823700765, -53014.60510666432, -57333.409170318744, -36037.4046608692, -32396.66311701097, -187500.02235174447, -82704.00258350404, -13266.587348769588, -42789.30786720609, -53552.857464892564, -45626.72771534058, -24735.245077043186, -29890.63023217085, -57603.10531891648, -38033.281330261394, 0.018000000000000002, 1.012, -0.018000000000000002, 192.0, 0.0, 0.0, 0.0, 0.0, 0.0, 0.0, 0.0, 0.0, 0.0, 1.695760307695923E9, 0.0, 2023-09-26 15:31:47.695
52.0, 6822.802939749115, 38028.386298225676, -53010.49238568454, -57326.05544639295, -36027.27932063095, -32391.768084975254, -187500.02235174447, -82636.58972222682, -13282.747660010775, -42813.04541981762, -53562.75928768627, -45639.31174746892, -24716.111983789444, -29887.38922922483, -57603.93233346133, -38033.638958172676, 0.012, 1.014, -0.016, 192.0, 0.0, 48.0, 15.5, 88.0, 127.5, 64.0, 0.0, 0.0, 0.0, 1.695760307695941E9, 0.0, 2023-09-26 15:31:47.695
54.0, 6810.934163443347, 38014.99760329695, -53010.33592347335, -57322.30035332446, -36024.77592525195, -32388.88470994052, -187500.02235174447, -82670.51967031, -13276.779744241208, -42804.238832502226, -53556.500799238784, -45636.98716604557, -24731.758204908157, -29869.1502057493, -57595.25985661267, -38025.927606335594, 0.012, 1.014, -0.016, 192.0, 0.0, 0.0, 0.0, 0.0, 0.0, 0.0, 0.0, 0.0, 0.0, 1.695760307695959E9, 0.0, 2023-09-26 15:31:47.695
56.0, 6823.697009527327, 38028.743926136965, -53009.64301939524, -57323.19442310267, -36027.14521016421, -32395.880805955032, -187500.02235174447, -82630.71121343509, -13288.067375191138, -42809.17856802685, -53558.378345773024, -45635.713116611616, -24740.69890269028, -29890.563176937485, -57598.50085955869, -38033.99658608396, 0.012, 1.014, -0.016, 192.0, 0.0, 0.0, 0.0, 0.0, 0.0, 0.0, 0.0, 0.0, 0.0, 1.695760307695976E9, 0.0, 2023-09-26 15:31:47.695
58.0, 6820.031323436657, 38020.496132432956, -53014.58275491986, -57323.66380973623, -36026.809933997385, -32390.426980307937, -187500.02235174447, -82641.44005077363, -13294.370567127535, -42803.389466212924, -53556.7913719167, -45626.1689217292, -24729.590085695992, -29880.59429891042, -57597.22681012474, -38032.588426183276, 0.012, 1.014, -0.016, 192.0, 0.0, 0.0, 0.0, 0.0, 0.0, 0.0, 0.0, 0.0, 0.0, 1.695760307695993E9, 0.0, 2023-09-26 15:31:47.695
60.0, 6835.051695710623, 38025.27940574639, -53006.82669959387, -57326.97186791562, -36021.33375660584, -32397.93716644492, -187500.02235174447, -82631.22530355756, -13281.585369299099, -42829.42924850336, -53559.47358125134, -45638.015346290515, -24703.170323749822, -29881.53307217754, -57600.40075783739, -38037.28229251889, 0.012, 1.014, -0.016, 192.0, 0.0, 0.0, 0.0, 0.0, 0.0, 0.0, 0.0, 0.0, 0.0, 1.69576030775622E9, 0.0, 2023-09-26 15:31:47.756
62.0, 6839.991431235246, 38026.06171680233, -53007.05021703842, -57319.28286782299, -36025.71469851908, -32387.633012251023, -187500.02235174447, -82623.15632380919, -13267.883749947996, -42804.48470169124, -53543.31327001015, -45622.3691251718, -24748.61142022746, -29881.734237877637, -57584.30750182957, -38024.34063247927, 0.014, 1.006, -0.02, 192.0, 0.0, 56.0, 15.5, 56.0, 127.5, 48.0, 0.0, 0.0, 0.0, 1.695760307756254E9, 0.0, 2023-09-26 15:31:47.756
64.0, 6844.662945826405, 38020.563187666325, -53015.72269388708, -57320.7804347015, -36030.43091659914, -32390.22581460784, -187500.02235174447, -82626.21851279956, -13280.266616376235, -42836.29123405114, -53558.26658705075, -45635.46724742261, -24735.222725298732, -29899.079191574958, -57600.66897877085, -38029.436830215076, 0.014, 1.006, -0.02, 192.0, 0.0, 0.0, 0.0, 0.0, 0.0, 0.0, 0.0, 0.0, 0.0, 1.695760307756273E9, 0.0, 2023-09-26 15:31:47.756
66.0, 6855.056506998123, 38037.0811268188, -53005.753815860015, -57314.834870676386, -36025.89351247472, -32386.22485235034, -187500.02235174447, -82579.05633199887, -13285.563979812143, -42802.71891387927, -53553.05863059266, -45623.73258158357, -24729.634789184904, -29883.72354313416, -57597.58443803602, -38024.76531562392, 0.014, 1.006, -0.02, 192.0, 0.0, 0.0, 0.0, 0.0, 0.0, 0.0, 0.0, 0.0, 0.0, 1.69576030775629E9, 0.0, 2023-09-26 15:31:47.756
68.0, 6864.019556524701, 38030.64382441567, -52998.33303670085, -57304.28484729348, -36025.26766362997, -32382.02272439274, -187500.02235174447, -82605.63255615623, -13291.353081626068, -42799.075579533055, -53544.475560721825, -45619.86572979281, -24725.142088549386, -29868.949040049203, -57592.35412983348, -38018.730344620984, 0.014, 1.006, -0.02, 192.0, 0.0, 0.0, 0.0, 0.0, 0.0, 0.0, 0.0, 0.0, 0.0, 1.695760307756308E9, 0.0, 2023-09-26 15:31:47.756
70.0, 6873.384937451475, 38044.90423737815, -53003.67510362567, -57316.73476895509, -36029.38038460975, -32390.762256474765, -187500.02235174447, -82548.97088396203, -13260.105342877549, -42813.76067564019, -53538.79821763018, -45615.082456479366, -24730.104175818466, -29883.72354313416, -57594.63400776792, -38022.306623733835, 0.014, 1.006, -0.02, 192.0, 0.0, 0.0, 0.0, 0.0, 0.0, 0.0, 0.0, 0.0, 0.0, 1.695760307756325E9, 0.0, 2023-09-26 15:31:47.756
72.0, 6867.2382077262655, 38028.43100171459, -53000.61291463529, -57315.28190556549, -36028.620425298264, -32382.849738937588, -187500.02235174447, -82585.71715184655, -13278.76904949773, -42817.78398964214, -53542.6874211654, -45626.21362521811, -24717.31897799003, -29882.67301114476, -57594.052862412085, -38022.70895513403, 0.02, 1.014, -0.018000000000000002, 192.0, 0.0, 80.0, 15.5, 88.0, 127.5, 56.0, 0.0, 0.0, 0.0, 1.695760307756343E9, 0.0, 2023-09-26 15:31:47.756
74.0, 6884.449050956852, 38047.25117054596, -52992.409824420196, -57299.725091424596, -36021.04318392792, -32381.732151714823, -187500.02235174447, -82541.08071816931, -13265.179188868904, -42788.57025963906, -53535.08782805059, -45611.863805277804, -24725.499716460672, -29859.024865511044, -57590.18601062131, -38016.11519051972, 0.02, 1.014, -0.018000000000000002, 192.0, 0.0, 0.0, 0.0, 0.0, 0.0, 0.0, 0.0, 0.0, 0.0, 1.695760307756361E9, 0.0, 2023-09-26 15:31:47.756
76.0, 6869.942768805357, 38017.23277774248, -53000.47880416856, -57312.599696230856, -36025.8041054969, -32375.965401645353, -187500.02235174447, -82608.18065502413, -13266.028555158206, -42802.58480341254, -53527.845862847076, -45616.691782080154, -24709.518219175126, -29874.469920929663, -57587.43674605331, -38010.23668172797, 0.02, 1.014, -0.018000000000000002, 192.0, 0.0, 0.0, 0.0, 0.0, 0.0, 0.0, 0.0, 0.0, 0.0, 1.695760307815695E9, 0.0, 2023-09-26 15:31:47.815
78.0, 6880.291626488165, 38032.99075758347, -53001.909315813704, -57326.8824609378, -36023.0548409289, -32388.7953029627, -187500.02235174447, -82540.38781409118, -13291.956578726362, -42814.587690185035, -53547.38128750102, -45634.75199160004, -24727.489021717196, -29888.372705980863, -57598.85848746997, -38025.39116446867, 0.02, 1.014, -0.018000000000000002, 192.0, 0.0, 0.0, 0.0, 0.0, 0.0, 0.0, 0.0, 0.0, 0.0, 1.695760307815715E9, 0.0, 2023-09-26 15:31:47.815
80.0, 6868.445201926852, 38010.5719578948, -52999.33886520134, -57326.994219660075, -36017.55631179289, -32393.779741976232, -187500.02235174447, -82607.82302711286, -13255.277366075203, -42798.80735859959, -53539.89345310849, -45636.71894511211, -24712.535704676593, -29868.0996737599, -57589.31429258756, -38027.00049006945, 0.02, 1.014, -0.018000000000000002, 192.0, 0.0, 0.0, 0.0, 0.0, 0.0, 0.0, 0.0, 0.0, 0.0, 1.695760307815733E9, 0.0, 2023-09-26 15:31:47.815
82.0, 6881.297454988654, 38031.269673260416, -53005.753815860015, -57329.095283638875, -36025.29001537443, -32397.4454280669, -187500.02235174447, -82515.80089519035, -13284.424040844922, -42822.61196644449, -53556.299633538685, -45646.01727080551, -24719.062414057546, -29895.39115373983, -57598.232638625224, -38034.19775178406, 0.018000000000000002, 1.012, -0.02, 192.0, 0.0, 72.0, 15.5, 80.0, 127.5, 48.0, 0.0, 0.0, 0.0, 1.695760307815776E9, 0.0, 2023-09-26 15:31:47.815
84.0, 6851.524931374184, 38006.68275435958, -53014.02396130848, -57325.943687670675, -36026.005271197, -32398.294794356203, -187500.02235174447, -82570.87559352822, -13288.20148565787, -42835.643033461936, -53555.18204631592, -45652.43222146419, -24722.012844325644, -29894.51943570607, -57593.65053101189, -38029.012147070425, 0.018000000000000002, 1.012, -0.02, 192.0, 0.0, 0.0, 0.0, 0.0, 0.0, 0.0, 0.0, 0.0, 0.0, 1.695760307815794E9, 0.0, 2023-09-26 15:31:47.815
86.0, 6873.317882218109, 38032.722536650006, -53009.039522294945, -57331.039885406484, -36028.12868692025, -32401.13346590203, -187500.02235174447, -82469.04104578985, -13310.30736092417, -42824.154236811904, -53570.962377901364, -45657.84134362237, -24732.965199108745, -29899.369764252875, -57602.7476910052, -38038.62339718621, 0.018000000000000002, 1.012, -0.02, 192.0, 0.0, 0.0, 0.0, 0.0, 0.0, 0.0, 0.0, 0.0, 0.0, 1.695760307815812E9, 0.0, 2023-09-26 15:31:47.815
88.0, 6854.810637809114, 38008.51559740491, -52999.741196601535, -57318.813481189434, -36018.58449203784, -32386.22485235034, -187500.02235174447, -82561.77843353491, -13258.831293443596, -42802.94243132382, -53549.01296484625, -45651.26993075251, -24725.27619901612, -29868.68081911574, -57593.561124034066, -38026.55345518034, 0.018000000000000002, 1.012, -0.02, 192.0, 0.0, 0.0, 0.0, 0.0, 0.0, 0.0, 0.0, 0.0, 0.0, 1.695760307815829E9, 0.0, 2023-09-26 15:31:47.815
90.0, 6868.020518782201, 38030.33089999329, -53009.933592073154, -57334.54910928597, -36019.2997478604, -32394.942032687908, -187500.02235174447, -82477.53470868287, -13296.069299706138, -42815.28059426315, -53565.12857259853, -45652.94631158666, -24723.21983852623, -29895.39115373983, -57596.06451941306, -38025.324109235306, 0.018000000000000002, 1.012, -0.02, 192.0, 0.0, 0.0, 0.0, 0.0, 0.0, 0.0, 0.0, 0.0, 0.0, 1.695760307875501E9, 0.0, 2023-09-26 15:31:47.875
92.0, 6847.993355750246, 38004.894614803154, -53004.61387689279, -57328.06710339393, -36019.72443100505, -32400.440561823914, -187500.02235174447, -82551.45192759657, -13288.58146531361, -42816.57699544156, -53560.30059579618, -45657.863695366825, -24715.642597155882, -29888.01507806958, -57596.77977523563, -38028.2745395034, 0.022, 1.012, -0.024, 192.0, 0.0, 88.0, 15.5, 80.0, 127.5, 32.0, 0.0, 0.0, 0.0, 1.695760307875527E9, 0.0, 2023-09-26 15:31:47.875
94.0, 6862.410230923919, 38024.38533596818, -53009.24068799504, -57327.7318272271, -36020.32792810535, -32393.243300109305, -187500.02235174447, -82486.47540646499, -13265.782685969198, -42812.777198884156, -53560.144133584996, -45652.968663331114, -24705.13727726189, -29894.78765663954, -57601.36188284897, -38030.80028662685, 0.022, 1.012, -0.024, 192.0, 0.0, 0.0, 0.0, 0.0, 0.0, 0.0, 0.0, 0.0, 0.0, 1.695760307875538E9, 0.0, 2023-09-26 15:31:47.875
96.0, 6842.181902191866, 38002.50297814643, -53015.70034214263, -57313.02437937551, -36020.596149038814, -32386.716590728356, -187500.02235174447, -82542.24300888098, -13297.67862530692, -42821.092047821534, -53564.86035166507, -45654.22036102061, -24743.42581551383, -29885.779903624047, -57597.20445838028, -38023.51361793442, 0.022, 1.012, -0.024, 192.0, 0.0, 0.0, 0.0, 0.0, 0.0, 0.0, 0.0, 0.0, 0.0, 1.695760307875547E9, 0.0, 2023-09-26 15:31:47.875
98.0, 6865.852399570036, 38021.27844348889, -53018.18138577716, -57322.72503646911, -36032.71079453359, -32396.529006544235, -187500.02235174447, -82470.85153709073, -13310.128546968526, -42831.84323690453, -53573.39871804699, -45655.360299987835, -24706.836009840492, -29886.450455957707, -57607.79918525209, -38021.92664407809, 0.022, 1.012, -0.024, 192.0, 0.0, 0.0, 0.0, 0.0, 0.0, 0.0, 0.0, 0.0, 0.0, 1.695760307875556E9, 0.0, 2023-09-26 15:31:47.875
100.0, 6872.759088606726, 38020.11615277721, -53007.854879838815, -57318.36644630032, -36031.61555905528, -32393.667983253956, -187500.02235174447, -82490.23049953349, -13278.187904141892, -42791.297172462604, -53559.428877762424, -45650.35350922984, -24747.024446371135, -29886.49515944662, -57609.78849050862, -38028.162780781124, 0.022, 1.012, -0.024, 192.0, 0.0, 0.0, 0.0, 0.0, 0.0, 0.0, 0.0, 0.0, 0.0, 1.695760307875565E9, 0.0, 2023-09-26 15:31:47.875
102.0, 6882.750318378248, 38027.17930402509, -53010.00064730652, -57338.661830265744, -36031.03441369944, -32408.30837587218, -187500.02235174447, -82444.8564582892, -13281.183037898903, -42800.30492547809, -53557.99836611729, -45647.49248593956, -24731.17705955232, -29889.02090657007, -57609.09558643051, -38031.269673260416, 0.018000000000000002, 1.008, -0.028, 192.0, 0.0, 72.0, 15.5, 64.0, 127.5, 16.0, 0.0, 0.0, 0.0, 1.695760307875574E9, 0.0, 2023-09-26 15:31:47.875
104.0, 6876.737699119771, 38024.76531562392, -53007.1619757607, -57326.39072255978, -36023.63598628473, -32400.84289322411, -187500.02235174447, -82448.90212403562, -13296.96336948435, -42819.72859140976, -53564.03333712022, -45656.50023895505, -24739.201335811777, -29895.59231943993, -57608.91677247486, -38041.462068732035, 0.018000000000000002, 1.008, -0.028, 192.0, 0.0, 0.0, 0.0, 0.0, 0.0, 0.0, 0.0, 0.0, 0.0, 1.695760307875617E9, 0.0, 2023-09-26 15:31:47.875
106.0, 6890.685187659882, 38035.158876795635, -53007.60901064981, -57321.38393180179, -36022.38428859524, -32398.384201334025, -187500.02235174447, -82432.11596394968, -13301.612532331053, -42807.099855792505, -53552.34337477009, -45639.80348584694, -24705.249035984165, -29888.35035423641, -57596.980940935726, -38026.151123780146, 0.018000000000000002, 1.008, -0.028, 192.0, 0.0, 0.0, 0.0, 0.0, 0.0, 0.0, 0.0, 0.0, 0.0, 1.695760307935863E9, 0.0, 2023-09-26 15:31:47.935
108.0, 6901.570487209617, 38034.264807017425, -52980.71986207007, -57299.68038793569, -36006.89452968771, -32381.59804124809, -187500.02235174447, -82446.55519086782, -13260.261805088736, -42808.351553482, -53539.60288043057, -45638.61884339081, -24704.958463306244, -29891.993688582625, -57598.21028688077, -38022.798362111855, 0.018000000000000002, 1.008, -0.028, 192.0, 0.0, 0.0, 0.0, 0.0, 0.0, 0.0, 0.0, 0.0, 0.0, 1.695760307935887E9, 0.0, 2023-09-26 15:31:47.935
110.0, 6900.162327308933, 38029.39212672617, -52983.91616152718, -57303.05550134844, -36012.88479720173, -32381.26276508126, -187500.02235174447, -82457.23932471745, -13260.95470916685, -42801.8024923566, -53522.50379592226, -45624.738410084065, -24692.195617222264, -29875.900432574803, -57575.56796974754, -38000.066638000804, 0.018000000000000002, 1.008, -0.028, 192.0, 0.0, 0.0, 0.0, 0.0, 0.0, 0.0, 0.0, 0.0, 0.0, 1.695760307935897E9, 0.0, 2023-09-26 15:31:47.935
112.0, 6892.898010360958, 38027.134600536185, -53010.1124060288, -57313.73963519808, -36024.88768397423, -32384.973154660842, -187500.02235174447, -82437.63684483014, -13272.599968028066, -42801.48956793422, -53544.609671188555, -45635.75782010053, -24719.598855924472, -29878.761455865082, -57601.16071714887, -38016.94220506456, 0.018000000000000002, 1.01, -0.024, 192.0, 0.0, 72.0, 15.5, 72.0, 127.5, 32.0, 0.0, 0.0, 0.0, 1.695760307935907E9, 0.0, 2023-09-26 15:31:47.935
114.0, 6906.689036689882, 38022.15016152265, -52989.03471100744, -57318.6793707227, -36015.54465479191, -32391.186939619416, -187500.02235174447, -82428.27146390337, -13288.425003102424, -42816.01820183018, -53547.58245320111, -45643.469171937606, -24729.053643829066, -29891.2560810156, -57592.66705425586, -38016.785742853375, 0.018000000000000002, 1.01, -0.024, 192.0, 0.0, 0.0, 0.0, 0.0, 0.0, 0.0, 0.0, 0.0, 0.0, 1.695760307935917E9, 0.0, 2023-09-26 15:31:47.935
116.0, 6919.183661840399, 38037.50580996345, -52985.43608015014, -57313.985504387085, -36012.43776231263, -32395.925509443943, -187500.02235174447, -82380.37167553564, -13250.71761020632, -42812.844254117525, -53529.030505303206, -45635.60135788934, -24707.260692985143, -29874.2016999962, -57591.951798433285, -38022.306623733835, 0.018000000000000002, 1.01, -0.024, 192.0, 0.0, 0.0, 0.0, 0.0, 0.0, 0.0, 0.0, 0.0, 0.0, 1.695760307935926E9, 0.0, 2023-09-26 15:31:47.935
118.0, 6914.534498993695, 38021.457257444534, -52994.153260487714, -57315.70658871014, -36024.08302117384, -32396.193730377407, -187500.02235174447, -82396.33082107673, -13280.736003009797, -42809.4020854714, -53529.723409381324, -45633.65675612173, -24708.020652296622, -29884.885833845838, -57593.67288275634, -38024.09476329026, 0.018000000000000002, 1.01, -0.024, 192.0, 0.0, 0.0, 0.0, 0.0, 0.0, 0.0, 0.0, 0.0, 0.0, 1.695760307935936E9, 0.0, 2023-09-26 15:31:47.935
120.0, 6926.313868321642, 38035.874132618206, -52987.380681917755, -57298.473393735105, -36013.35418383529, -32382.8944424265, -187500.02235174447, -82354.2424862674, -13284.468744333833, -42806.36224822548, -53535.244290261784, -45628.53820664146, -24711.26165524264, -29885.31051699049, -57600.825440982044, -38027.64869065866, 0.018000000000000002, 1.01, -0.024, 192.0, 0.0, 0.0, 0.0, 0.0, 0.0, 0.0, 0.0, 0.0, 0.0, 1.695760307995334E9, 0.0, 2023-09-26 15:31:47.995
122.0, 6913.931001893402, 38010.52725440589, -53003.40688269221, -57311.16918458571, -36022.049012428404, -32388.325916329137, -187500.02235174447, -82397.4484082995, -13265.5815202691, -42810.63143141645, -53532.71854313833, -45635.40019218924, -24683.769009562613, -29876.146301763813, -57593.60582752297, -38017.076315531296, 0.018000000000000002, 1.006, -0.02, 192.0, 0.0, 72.0, 15.5, 56.0, 127.5, 48.0, 0.0, 0.0, 0.0, 1.69576030799536E9, 0.0, 2023-09-26 15:31:47.995
124.0, 6927.833786944603, 38032.56607443882, -53003.20571699211, -57312.21971657511, -36024.88768397423, -32394.137369887518, -187500.02235174447, -82319.68668933949, -13287.15095366847, -42828.065792091584, -53547.44834273438, -45641.45751493663, -24696.241282968676, -29884.125874534355, -57601.87597297144, -38025.301757490844, 0.018000000000000002, 1.006, -0.02, 192.0, 0.0, 0.0, 0.0, 0.0, 0.0, 0.0, 0.0, 0.0, 0.0, 1.695760307995411E9, 0.0, 2023-09-26 15:31:47.995
126.0, 6921.351781052564, 38016.04813528635, -52984.27378943846, -57294.539486710964, -36015.52230304746, -32381.732151714823, -187500.02235174447, -82394.6991437315, -13257.959575409839, -42798.47208243276, -53529.54459542568, -45632.58387238788, -24702.65623362735, -29879.610822154384, -57598.41145258087, -38025.21235051303, 0.018000000000000002, 1.006, -0.02, 192.0, 0.0, 0.0, 0.0, 0.0, 0.0, 0.0, 0.0, 0.0, 0.0, 1.695760307995421E9, 0.0, 2023-09-26 15:31:47.995
128.0, 6929.666629989938, 38033.03546107238, -52997.237801222545, -57309.04576886246, -36022.74191650652, -32396.238433866318, -187500.02235174447, -82334.77411684682, -13281.384203599002, -42800.57314641156, -53534.79725537268, -45625.40896241772, -24729.299513018075, -29876.459226186184, -57596.131574646424, -38024.58650166828, 0.018000000000000002, 1.006, -0.02, 192.0, 0.0, 0.0, 0.0, 0.0, 0.0, 0.0, 0.0, 0.0, 0.0, 1.69576030799543E9, 0.0, 2023-09-26 15:31:47.995
130.0, 6913.640429215483, 38009.05203927184, -52983.178553960155, -57298.78631815748, -36010.515512289465, -32388.683544240423, -187500.02235174447, -82403.90806244708, -13277.696165763875, -42806.51871043667, -53531.24332800428, -45635.80252358944, -24690.474532899207, -29869.329019704943, -57597.45032756929, -38027.29106274737, 0.018000000000000002, 1.006, -0.02, 192.0, 0.0, 0.0, 0.0, 0.0, 0.0, 0.0, 0.0, 0.0, 0.0, 1.695760307995439E9, 0.0, 2023-09-26 15:31:47.995
132.0, 6924.682190976405, 38031.739059893975, -52994.19796397662, -57315.7289404546, -36024.23948338503, -32401.73696300232, -187500.02235174447, -82315.03752649279, -13249.197691583358, -42814.163007040384, -53522.526147666715, -45636.473075923095, -24700.309300459543, -29874.894604074314, -57592.97997867823, -38022.88776908968, 0.02, 1.008, -0.024, 192.0, 0.0, 80.0, 15.5, 64.0, 127.5, 32.0, 0.0, 0.0, 0.0, 1.695760307995448E9, 0.0, 2023-09-26 15:31:47.995
134.0, 6894.730853406293, 38003.352344435734, -52999.83060357936, -57306.45296650565, -36023.16659965117, -32392.215119864362, -187500.02235174447, -82375.76721617785, -13282.747660010775, -42834.10076309452, -53545.526092711225, -45657.21549477762, -24711.865152342936, -29884.952889079203, -57613.52123183265, -38035.6282634292, 0.02, 1.008, -0.024, 192.0, 0.0, 0.0, 0.0, 0.0, 0.0, 0.0, 0.0, 0.0, 0.0, 1.695760307995457E9, 0.0, 2023-09-26 15:31:47.995
136.0, 6911.3829030254965, 38033.504847705946, -53002.87044082528, -57323.417940547224, -36027.03345144194, -32402.83219848063, -187500.02235174447, -82296.99966871736, -13283.284101877702, -42798.94146906632, -53540.7875228867, -45634.729639855585, -24686.74179157517, -29886.09282804642, -57605.40754859538, -38028.6768709036, 0.02, 1.008, -0.024, 192.0, 0.0, 0.0, 0.0, 0.0, 0.0, 0.0, 0.0, 0.0, 0.0, 1.695760308055611E9, 0.0, 2023-09-26 15:31:48.055
138.0, 6891.959237093835, 38002.301812446334, -52998.064815767386, -57316.60065848836, -36021.75843975049, -32395.299660599194, -187500.02235174447, -82350.30857924325, -13287.463878090844, -42810.609079671995, -53547.51539796775, -45658.33308200039, -24706.79130635158, -29892.373668238364, -57611.107243431485, -38039.74098440898, 0.02, 1.008, -0.024, 192.0, 0.0, 0.0, 0.0, 0.0, 0.0, 0.0, 0.0, 0.0, 0.0, 1.695760308055633E9, 0.0, 2023-09-26 15:31:48.055
140.0, 6922.916403164435, 38034.51067620643, -52979.132888213746, -57301.35676876984, -36003.92174767515, -32381.665096481454, -187500.02235174447, -82282.58279354368, -13262.34051732308, -42824.89184437893, -53532.226804760314, -45652.23105576409, -24733.144013064386, -29884.01411581208, -57592.91292344486, -38024.877074346194, 0.02, 1.008, -0.024, 192.0, 0.0, 0.0, 0.0, 0.0, 0.0, 0.0, 0.0, 0.0, 0.0, 1.695760308055643E9, 0.0, 2023-09-26 15:31:48.055
142.0, 6895.870792373514, 38012.0695247733, -53002.91514431419, -57308.08464385088, -36018.562140293376, -32390.27051809675, -187500.02235174447, -82338.37274770412, -13297.857439262563, -42799.075579533055, -53538.97703158582, -45642.79861960395, -24719.17417277982, -29878.135607020333, -57589.04607165409, -38019.646766143655, 0.012, 1.012, -0.022, 192.0, 0.0, 48.0, 15.5, 80.0, 127.5, 40.0, 0.0, 0.0, 0.0, 1.695760308055652E9, 0.0, 2023-09-26 15:31:48.055
144.0, 6925.553909010161, 38041.953807110054, -52984.072623738364, -57299.792146657965, -36009.88966344472, -32373.439654521902, -187500.02235174447, -82266.02015090229, -13267.280252847702, -42811.52550119466, -53538.887624607996, -45636.406020689734, -24713.519181432628, -29879.655525643295, -57591.08008039953, -38020.4737806885, 0.012, 1.012, -0.022, 192.0, 0.0, 0.0, 0.0, 0.0, 0.0, 0.0, 0.0, 0.0, 0.0, 1.695760308055662E9, 0.0, 2023-09-26 15:31:48.055
146.0, 6917.529632750707, 38026.39699296916, -52980.96573125908, -57292.3713674988, -36002.69240173011, -32364.901288139976, -187500.02235174447, -82315.5739683597, -13265.782685969198, -42790.268992217665, -53523.91195582294, -45622.97262227209, -24719.30828324655, -29862.06470275697, -57567.25312081017, -38004.201710725036, 0.012, 1.012, -0.022, 192.0, 0.0, 0.0, 0.0, 0.0, 0.0, 0.0, 0.0, 0.0, 0.0, 1.695760308055702E9, 0.0, 2023-09-26 15:31:48.055
148.0, 6930.203071856866, 38037.48345821899, -53002.66927512518, -57306.56472522792, -36018.8527129713, -32372.098549854585, -187500.02235174447, -82264.14260436805, -13253.556281752144, -42797.35449520999, -53522.101464522064, -45623.77728507248, -24710.054661042057, -29874.536976163028, -57575.12093485844, -38007.129789248684, 0.012, 1.012, -0.022, 192.0, 0.0, 0.0, 0.0, 0.0, 0.0, 0.0, 0.0, 0.0, 0.0, 1.695760308055711E9, 0.0, 2023-09-26 15:31:48.055
150.0, 6918.624868229016, 38022.932472578585, -53000.45645242411, -57307.81642291742, -36012.750686735, -32378.088817368607, -187500.02235174447, -82272.09982539414, -13293.521200838233, -42806.76457962568, -53540.65341241997, -45633.03090727698, -24724.829164127015, -29880.549595421508, -57586.855600697476, -38020.29496673286, 0.012, 1.012, -0.022, 192.0, 0.0, 0.0, 0.0, 0.0, 0.0, 0.0, 0.0, 0.0, 0.0, 1.695760308115938E9, 0.0, 2023-09-26 15:31:48.115
152.0, 6932.125321880022, 38039.092783819775, -52977.657673079695, -57302.29554203696, -36002.334773818824, -32357.256991536262, -187500.02235174447, -82257.34767405364, -13243.4756450028, -42783.205840969786, -53512.959601039845, -45617.518796624994, -24724.42683272682, -29869.843109827416, -57566.11318184295, -38006.168664237106, 0.01, 1.012, -0.024, 192.0, 0.0, 40.0, 15.5, 80.0, 127.5, 32.0, 0.0, 0.0, 0.0, 1.695760308115965E9, 0.0, 2023-09-26 15:31:48.115
154.0, 6918.289592062187, 38027.00049006945, -52986.50896388399, -57311.616219474825, -36007.74389597701, -32367.628200963525, -187500.02235174447, -82271.60808701612, -13293.387090371501, -42787.16209973837, -53533.09852279408, -45621.89973853824, -24759.340257566007, -29875.542804663517, -57573.31044355756, -38010.66136487262, 0.01, 1.012, -0.024, 192.0, 0.0, 0.0, 0.0, 0.0, 0.0, 0.0, 0.0, 0.0, 0.0, 1.695760308115975E9, 0.0, 2023-09-26 15:31:48.115
156.0, 6931.745342224282, 38036.567036696324, -52985.72665282806, -57312.89026890878, -36006.98393666553, -32364.878936395522, -187500.02235174447, -82256.27479031977, -13250.896424161963, -42797.64506788791, -53521.185042999394, -45618.83754954786, -24725.164440293844, -29865.082188258435, -57567.45428651027, -38010.3707921947, 0.01, 1.012, -0.024, 192.0, 0.0, 0.0, 0.0, 0.0, 0.0, 0.0, 0.0, 0.0, 0.0, 1.695760308115985E9, 0.0, 2023-09-26 15:31:48.115
158.0, 6915.94265889438, 38031.6273011717, -52996.2096209776, -57321.87567017981, -36010.60491926729, -32365.571840473636, -187500.02235174447, -82260.90160142203, -13256.14908410896, -42797.22038474326, -53523.10729302255, -45622.19031121615, -24721.78932688109, -29868.926688304746, -57566.7390306877, -38009.76729509441, 0.01, 1.012, -0.024, 192.0, 0.0, 0.0, 0.0, 0.0, 0.0, 0.0, 0.0, 0.0, 0.0, 1.695760308115994E9, 0.0, 2023-09-26 15:31:48.115
160.0, 6913.908650148946, 38024.07241154581, -53008.279562983465, -57326.6812952377, -36017.17633213715, -32371.696218454388, -187500.02235174447, -82268.92587768148, -13270.185979626893, -42766.86671577296, -53529.6340024035, -45621.49740713804, -24687.926434031302, -29859.114272488867, -57572.997519135184, -38020.697298133055, 0.01, 1.012, -0.024, 192.0, 0.0, 0.0, 0.0, 0.0, 0.0, 0.0, 0.0, 0.0, 0.0, 1.695760308116003E9, 0.0, 2023-09-26 15:31:48.116
162.0, 6920.100083363067, 38030.979100582495, -53004.077435025865, -57325.451949292656, -36018.137457148725, -32371.07036960964, -187500.02235174447, -82219.23794975734, -13301.612532331053, -42801.35545746749, -53546.62132818953, -45627.46532290761, -24738.016693355643, -29877.86738608687, -57579.27835932712, -38028.453353459045, 0.024, 1.01, -0.024, 192.0, 0.0, 96.0, 15.5, 72.0, 127.5, 32.0, 0.0, 0.0, 0.0, 1.695760308116012E9, 0.0, 2023-09-26 15:31:48.116
164.0, 6908.164251823932, 38014.192940496556, -53015.70034214263, -57337.29837385397, -36028.843942742824, -32378.334686557617, -187500.02235174447, -82242.8637436466, -13268.017860414728, -42800.77431211166, -53532.53972918269, -45623.55376762793, -24751.22657432873, -29865.864499314368, -57573.95864414676, -38025.86055110223, 0.024, 1.01, -0.024, 192.0, 0.0, 0.0, 0.0, 0.0, 0.0, 0.0, 0.0, 0.0, 0.0, 1.695760308116022E9, 0.0, 2023-09-26 15:31:48.116
166.0, 6926.313868321642, 38026.151123780146, -52998.847126823326, -57330.23522260609, -36011.23076811204, -32380.905137169975, -187500.02235174447, -82213.47119968786, -13269.224854615315, -42797.667419632366, -53533.925537338924, -45620.93861352666, -24719.777669880114, -29873.53114766254, -57573.846885424486, -38031.35908023824, 0.024, 1.01, -0.024, 192.0, 0.0, 0.0, 0.0, 0.0, 0.0, 0.0, 0.0, 0.0, 0.0, 1.695760308176344E9, 0.0, 2023-09-26 15:31:48.176
168.0, 6920.725932207815, 38012.49420791795, -52995.02497852147, -57326.435426048694, -36011.94602393461, -32374.154910344474, -187500.02235174447, -82237.32051102168, -13262.832255701096, -42795.09696902001, -53533.34439198308, -45629.5216833975, -24735.401539254373, -29867.742045848616, -57575.3891557919, -38034.51067620643, 0.024, 1.01, -0.024, 192.0, 0.0, 0.0, 0.0, 0.0, 0.0, 0.0, 0.0, 0.0, 0.0, 1.695760308176398E9, 0.0, 2023-09-26 15:31:48.176
170.0, 6926.738551466293, 38022.84306560076, -53008.72659787257, -57329.00587666105, -36026.63112004175, -32380.502805769782, -187500.02235174447, -82176.7472835478, -13259.34538356607, -42786.17862298234, -53529.81281635915, -45625.498369395544, -24720.1352977914, -29883.567080922974, -57577.93725465981, -38029.1239057927, 0.024, 1.01, -0.024, 192.0, 0.0, 0.0, 0.0, 0.0, 0.0, 0.0, 0.0, 0.0, 0.0, 1.695760308176408E9, 0.0, 2023-09-26 15:31:48.176
172.0, 6914.065112360134, 37998.7702368224, -53016.326190987376, -57327.86593769383, -36023.72539326255, -32384.973154660842, -187500.02235174447, -82227.39633648352, -13275.326880851613, -42803.814149357575, -53545.12376131103, -45640.94342481416, -24719.17417277982, -29875.58750815243, -57587.749670475685, -38037.19288554107, 0.03, 1.014, -0.024, 192.0, 0.0, 120.0, 15.5, 88.0, 127.5, 32.0, 0.0, 0.0, 0.0, 1.695760308176417E9, 0.0, 2023-09-26 15:31:48.176
174.0, 6932.974688169324, 38023.066583045314, -53013.84514735283, -57331.598679017865, -36025.8041054969, -32386.135445372518, -187500.02235174447, -82133.04962313767, -13288.559113569156, -42791.99007654072, -53554.13151432652, -45629.67814560868, -24738.508431733662, -29884.23763325663, -57589.47075479874, -38037.10347856325, 0.03, 1.014, -0.024, 192.0, 0.0, 0.0, 0.0, 0.0, 0.0, 0.0, 0.0, 0.0, 0.0, 1.695760308176427E9, 0.0, 2023-09-26 15:31:48.176
176.0, 6920.256545574253, 37997.87616704418, -52995.87434481077, -57322.18859460218, -36017.8021809819, -32384.36965756055, -187500.02235174447, -82198.09319950262, -13278.72434600882, -42810.2067482718, -53545.526092711225, -45637.99299454606, -24713.876809343914, -29872.592374395415, -57581.22296109474, -38031.49319070497, 0.03, 1.014, -0.024, 192.0, 0.0, 0.0, 0.0, 0.0, 0.0, 0.0, 0.0, 0.0, 0.0, 1.695760308176436E9, 0.0, 2023-09-26 15:31:48.176
178.0, 6944.463484819351, 38027.983966825486, -52999.92001055718, -57321.16041435724, -36016.08109665884, -32377.194747590394, -187500.02235174447, -82121.22555032081, -13279.14902915347, -42781.46240490227, -53538.35118274107, -45626.01245951802, -24736.966161366247, -29881.91305183328, -57574.539789502596, -38025.301757490844, 0.03, 1.014, -0.024, 192.0, 0.0, 0.0, 0.0, 0.0, 0.0, 0.0, 0.0, 0.0, 0.0, 1.695760308176445E9, 0.0, 2023-09-26 15:31:48.176
180.0, 6929.264298589743, 38001.273632201395, -52999.76354834599, -57315.10309160985, -36012.57187277936, -32370.757445187268, -187500.02235174447, -82206.11747576208, -13261.871130689518, -42772.0970239755, -53531.98093557131, -45622.48088389407, -24709.004129052657, -29861.841185312416, -57569.46594351125, -38014.7740858524, 0.03, 1.014, -0.024, 192.0, 0.0, 0.0, 0.0, 0.0, 0.0, 0.0, 0.0, 0.0, 0.0, 1.695760308236637E9, 0.0, 2023-09-26 15:31:48.236
182.0, 6947.682136020915, 38030.15208603765, -53012.99578106353, -57320.556917256945, -36029.268625887475, -32377.194747590394, -187500.02235174447, -82107.54628271417, -13279.327843109113, -42785.41866367086, -53544.766133399746, -45628.51585489701, -24737.32378927753, -29894.25121477261, -57583.122859373434, -38021.97134756701, 0.024, 1.016, -0.02, 192.0, 0.0, 96.0, 15.5, 96.0, 127.5, 48.0, 0.0, 0.0, 0.0, 1.695760308236684E9, 0.0, 2023-09-26 15:31:48.236
184.0, 6939.188473127899, 38005.118132247706, -52996.2096209776, -57318.813481189434, -36009.64379425571, -32370.422169020436, -187500.02235174447, -82178.91540275996, -13293.25297990477, -42772.27583793114, -53551.7398776698, -45635.10961951132, -24737.79317591109, -29873.10646451789, -57587.01206290866, -38025.43586795758, 0.024, 1.016, -0.02, 192.0, 0.0, 0.0, 0.0, 0.0, 0.0, 0.0, 0.0, 0.0, 0.0, 1.695760308236694E9, 0.0, 2023-09-26 15:31:48.236
186.0, 6968.603368831083, 38030.91204534913, -52990.018187763475, -57311.325646796904, -36006.827474454345, -32370.533927742712, -187500.02235174447, -82110.78728566019, -13248.169511338416, -42766.68790181731, -53526.46005469085, -45612.35554365582, -24717.497791945672, -29860.298914944997, -57564.14622833088, -38011.466027673014, 0.024, 1.016, -0.02, 192.0, 0.0, 0.0, 0.0, 0.0, 0.0, 0.0, 0.0, 0.0, 0.0, 1.695760308236704E9, 0.0, 2023-09-26 15:31:48.236
188.0, 6940.686040006404, 38002.50297814643, -53011.02882755147, -57324.02143764752, -36021.53492230594, -32371.36094228756, -187500.02235174447, -82149.20993437886, -13290.123735681027, -42781.64121885791, -53545.70490666687, -45626.79477057395, -24715.0838035445, -29872.838243584425, -57576.19381859229, -38017.344536464756, 0.024, 1.016, -0.02, 192.0, 0.0, 0.0, 0.0, 0.0, 0.0, 0.0, 0.0, 0.0, 0.0, 1.695760308236713E9, 0.0, 2023-09-26 15:31:48.236
190.0, 6978.080508480133, 38036.14235355167, -52999.24945822352, -57314.36548404283, -36015.74582049201, -32369.17047133094, -187500.02235174447, -82079.94187831186, -13264.128656879504, -42768.386634395916, -53538.55234844117, -45617.3176309249, -24719.084765802, -29870.71482786117, -57574.78565869161, -38015.601100397245, 0.024, 1.016, -0.02, 192.0, 0.0, 0.0, 0.0, 0.0, 0.0, 0.0, 0.0, 0.0, 0.0, 1.695760308236757E9, 0.0, 2023-09-26 15:31:48.236
192.0, 6950.721973266837, 38013.41062944062, -53003.69745537013, -57319.238164334085, -36023.12189616226, -32379.854605180575, -187500.02235174447, -82110.07202983761, -13269.448372059867, -42773.88516353192, -53538.77586588572, -45620.670392593194, -24709.69703313077, -29873.888775573825, -57579.92655991633, -38025.90525459114, 0.02, 1.012, -0.022, 192.0, 0.0, 80.0, 15.5, 80.0, 127.5, 40.0, 0.0, 0.0, 0.0, 1.695760308236766E9, 0.0, 2023-09-26 15:31:48.236
194.0, 6984.584866116627, 38035.740022151476, -52981.94920801511, -57310.632742718786, -36009.46498030007, -32372.098549854585, -187500.02235174447, -82049.364691897, -13289.475535091822, -42770.77827105264, -53541.14515079799, -45619.753971070524, -24734.216896798243, -29868.837281326927, -57571.52230400113, -38023.647728401156, 0.02, 1.012, -0.022, 192.0, 0.0, 0.0, 0.0, 0.0, 0.0, 0.0, 0.0, 0.0, 0.0, 1.695760308236776E9, 0.0, 2023-09-26 15:31:48.236
196.0, 6957.449848347885, 38007.129789248684, -52984.74317607203, -57315.61718173232, -36006.15692212068, -32366.01887536274, -187500.02235174447, -82107.12159956952, -13253.511578263233, -42785.508070648684, -53525.40952270145, -45618.301107680934, -24704.600835394962, -29869.418426682765, -57564.81678066454, -38015.95872830853, 0.02, 1.012, -0.022, 192.0, 0.0, 0.0, 0.0, 0.0, 0.0, 0.0, 0.0, 0.0, 0.0, 1.695760308296792E9, 0.0, 2023-09-26 15:31:48.296
198.0, 6961.942548983401, 38018.97621381, -52995.74023434404, -57332.17982437371, -36016.99751818151, -32384.771988960743, -187500.02235174447, -82060.29469493566, -13290.011976958749, -42777.819070556056, -53539.42406647492, -45635.51195091152, -24715.150858777866, -29864.76926383606, -57569.66710921134, -38018.50682717643, 0.02, 1.012, -0.022, 192.0, 0.0, 0.0, 0.0, 0.0, 0.0, 0.0, 0.0, 0.0, 0.0, 1.695760308296815E9, 0.0, 2023-09-26 15:31:48.296
200.0, 6953.538293068206, 38014.90819631913, -52988.52062088497, -57311.30329505245, -36005.70988723158, -32371.56210798766, -187500.02235174447, -82078.3772562, -13271.348270338569, -42767.87254427344, -53537.479464707314, -45636.94246255666, -24715.329672733507, -29871.8994703173, -57578.78662094911, -38031.537894193876, 0.02, 1.012, -0.022, 192.0, 0.0, 0.0, 0.0, 0.0, 0.0, 0.0, 0.0, 0.0, 0.0, 1.695760308296824E9, 0.0, 2023-09-26 15:31:48.296
202.0, 6972.358461899575, 38024.117115034715, -52985.03374874994, -57316.75712069954, -36010.69432624511, -32377.239451079306, -187500.02235174447, -82056.78547105617, -13271.638843016488, -42777.819070556056, -53522.950830811365, -45620.93861352666, -24708.46768718573, -29874.492272674117, -57568.77303943313, -38018.28330973188, 0.02, 1.014, -0.026000000000000002, 192.0, 0.0, 80.0, 15.5, 88.0, 127.5, 24.0, 0.0, 0.0, 0.0, 1.695760308296833E9, 0.0, 2023-09-26 15:31:48.296
204.0, 6962.791915272703, 38023.15599002314, -52999.3612169458, -57321.16041435724, -36021.289053116925, -32386.202500605883, -187500.02235174447, -82041.8098022711, -13263.480456290301, -42776.03093099963, -53531.77976987121, -45626.973584529595, -24712.155725020853, -29872.212394739676, -57580.77592620563, -38031.739059893975, 0.02, 1.014, -0.026000000000000002, 192.0, 0.0, 0.0, 0.0, 0.0, 0.0, 0.0, 0.0, 0.0, 0.0, 1.695760308296843E9, 0.0, 2023-09-26 15:31:48.296
206.0, 6966.1446769409995, 38020.22791149949, -52989.86172555229, -57315.12544335431, -36012.057782656884, -32371.11507309855, -187500.02235174447, -82029.80691549862, -13262.698145234364, -42777.97553276725, -53530.55042392617, -45625.74423858455, -24711.105193031453, -29871.787711595025, -57577.53492325961, -38024.92177783511, 0.02, 1.014, -0.026000000000000002, 192.0, 0.0, 0.0, 0.0, 0.0, 0.0, 0.0, 0.0, 0.0, 0.0, 1.695760308296852E9, 0.0, 2023-09-26 15:31:48.296
208.0, 6959.506208837773, 38025.25705400194, -52996.187269233145, -57307.57055372841, -36018.428029826646, -32374.289020811204, -187500.02235174447, -82004.5047407752, -13285.809849001153, -42785.95510553779, -53540.31813625314, -45624.82781706188, -24724.02450132662, -29878.448531442707, -57583.45813554027, -38029.012147070425, 0.02, 1.014, -0.026000000000000002, 192.0, 0.0, 0.0, 0.0, 0.0, 0.0, 0.0, 0.0, 0.0, 0.0, 1.695760308296861E9, 0.0, 2023-09-26 15:31:48.296
210.0, 6975.443002634407, 38022.507789433934, -52967.934664241635, -57295.0759285779, -35996.76918944946, -32365.325971284627, -187500.02235174447, -82043.19561042734, -13269.157799381948, -42760.094137203, -53518.122854009016, -45607.72873255357, -24711.88750408739, -29861.260039956578, -57569.35418478897, -38018.462123687525, 0.02, 1.014, -0.026000000000000002, 192.0, 0.0, 0.0, 0.0, 0.0, 0.0, 0.0, 0.0, 0.0, 0.0, 1.695760308355772E9, 0.0, 2023-09-26 15:31:48.355
212.0, 6978.169915457955, 38024.251225501444, -52987.55949587339, -57306.989408372574, -36009.01794541096, -32371.7409219433, -187500.02235174447, -82028.7116800203, -13250.628203228498, -42771.98526525322, -53513.160766739944, -45605.67237206369, -24689.73692533218, -29847.938400261213, -57559.161789317346, -38015.869321330705, 0.02, 1.018, -0.028, 192.0, 0.0, 80.0, 15.5, 104.0, 127.5, 16.0, 0.0, 0.0, 0.0, 1.695760308355798E9, 0.0, 2023-09-26 15:31:48.355
214.0, 6979.980406758834, 38011.33191720628, -52985.01139700549, -57316.62301023281, -36013.28712860193, -32372.36677078805, -187500.02235174447, -82036.13245917945, -13275.10336340706, -42804.26118424669, -53530.59512741508, -45632.38270668778, -24722.057547814555, -29886.361048979885, -57571.477600512226, -38020.18320801058, 0.02, 1.018, -0.028, 192.0, 0.0, 0.0, 0.0, 0.0, 0.0, 0.0, 0.0, 0.0, 0.0, 1.695760308355809E9, 0.0, 2023-09-26 15:31:48.355
216.0, 6992.184459231432, 38025.56997842431, -53000.05412102391, -57318.58996374488, -36023.14424790672, -32385.084913383118, -187500.02235174447, -81965.18802227832, -13275.14806689597, -42775.0474542436, -53538.77586588572, -45628.04646826345, -24726.103213560968, -29884.885833845838, -57577.6913854708, -38027.80515286984, 0.02, 1.018, -0.028, 192.0, 0.0, 0.0, 0.0, 0.0, 0.0, 0.0, 0.0, 0.0, 0.0, 1.695760308355818E9, 0.0, 2023-09-26 15:31:48.355
218.0, 6993.391453432018, 38016.472818431, -52970.90744625419, -57294.31596926641, -36003.58647150832, -32369.617506220045, -187500.02235174447, -82000.23555758424, -13261.826427200607, -42770.4429948858, -53527.86821459153, -45617.250575691534, -24713.452126199263, -29861.125929489845, -57573.10927785746, -38021.83723710028, 0.02, 1.018, -0.028, 192.0, 0.0, 0.0, 0.0, 0.0, 0.0, 0.0, 0.0, 0.0, 0.0, 1.695760308355827E9, 0.0, 2023-09-26 15:31:48.355
220.0, 6994.799613332702, 38028.07337380331, -52987.73830982904, -57307.7270159396, -36006.961584921075, -32369.662209708957, -187500.02235174447, -81946.68077786932, -13266.676755747409, -42763.625712826935, -53522.97318255582, -45607.70638080912, -24692.083858499987, -29862.131757990333, -57559.362955017445, -38011.93541430657, 0.02, 1.018, -0.028, 192.0, 0.0, 0.0, 0.0, 0.0, 0.0, 0.0, 0.0, 0.0, 0.0, 1.695760308355836E9, 0.0, 2023-09-26 15:31:48.355
222.0, 6981.053290492689, 38005.60987062572, -52981.12219347027, -57305.111861838326, -36005.911052931675, -32366.801186418677, -187500.02235174447, -82016.82055197007, -13308.25100043428, -42785.39631192641, -53538.462941463345, -45625.34190718435, -24711.775745365114, -29872.48061567314, -57564.459152753254, -38011.98011779549, 0.022, 1.012, -0.024, 192.0, 0.0, 88.0, 15.5, 80.0, 127.5, 32.0, 0.0, 0.0, 0.0, 1.695760308355846E9, 0.0, 2023-09-26 15:31:48.355
224.0, 7003.852069837102, 38032.8789988612, -52990.934609286145, -57316.55595499944, -36013.041259412916, -32380.54750925869, -187500.02235174447, -81918.02584147762, -13269.895406948974, -42782.89291654741, -53524.3813424565, -45616.96000301361, -24736.85440264397, -29883.76824662307, -57564.6379667089, -38014.1705887521, 0.022, 1.012, -0.024, 192.0, 0.0, 0.0, 0.0, 0.0, 0.0, 0.0, 0.0, 0.0, 0.0, 1.695760308355856E9, 0.0, 2023-09-26 15:31:48.355
226.0, 6993.52556389875, 38006.68275435958, -52975.66836782317, -57302.72022518161, -36002.15595986319, -32375.473663267338, -187500.02235174447, -81995.00524938169, -13265.402706313456, -42792.25829747418, -53514.74774059626, -45619.12812222578, -24671.184977434277, -29864.881022558337, -57563.65448995287, -38017.16572250912, 0.022, 1.012, -0.024, 192.0, 0.0, 0.0, 0.0, 0.0, 0.0, 0.0, 0.0, 0.0, 0.0, 1.695760308415958E9, 0.0, 2023-09-26 15:31:48.415
228.0, 7010.848165851613, 38032.90135060565, -52973.030861977444, -57307.5258502395, -36013.89062570222, -32383.341477315604, -187500.02235174447, -81895.11530341093, -13261.535854522688, -42776.58972461101, -53517.54170865318, -45608.17576744268, -24724.918571104834, -29875.34163896342, -57562.089867840994, -38017.5233504204, 0.022, 1.012, -0.024, 192.0, 0.0, 0.0, 0.0, 0.0, 0.0, 0.0, 0.0, 0.0, 0.0, 1.69576030841598E9, 0.0, 2023-09-26 15:31:48.415
230.0, 6977.879342780036, 37994.411646653614, -52993.41565292069, -57318.612315489336, -36018.60684378229, -32387.051866895185, -187500.02235174447, -81964.71863564475, -13267.928453436907, -42776.25444844418, -53523.710790122845, -45623.620822861296, -24713.765050621638, -29871.698304617206, -57568.81774292204, -38022.463085945026, 0.022, 1.012, -0.024, 192.0, 0.0, 0.0, 0.0, 0.0, 0.0, 0.0, 0.0, 0.0, 0.0, 1.695760308415989E9, 0.0, 2023-09-26 15:31:48.415
232.0, 6997.280656967242, 38018.260957987426, -52998.19892623412, -57318.07587362241, -36015.16467513617, -32376.010105134264, -187500.02235174447, -81884.74409398367, -13306.10523296657, -42808.016277315175, -53551.181084058415, -45642.061012036924, -24712.379242465406, -29893.982993839145, -57582.1393826174, -38027.536931936374, 0.024, 1.016, -0.026000000000000002, 192.0, 0.0, 96.0, 15.5, 96.0, 127.5, 24.0, 0.0, 0.0, 0.0, 1.695760308416029E9, 0.0, 2023-09-26 15:31:48.416
234.0, 6991.804479575691, 38006.638050870664, -52974.05904222239, -57287.18576278517, -36003.541768019415, -32371.40564577647, -187500.02235174447, -81959.28716174212, -13267.615529014533, -42783.98815202572, -53523.7331418673, -45615.84241579085, -24701.44923942676, -29855.448586398197, -57565.2861672981, -38012.98594629597, 0.024, 1.016, -0.026000000000000002, 192.0, 0.0, 0.0, 0.0, 0.0, 0.0, 0.0, 0.0, 0.0, 0.0, 1.695760308416038E9, 0.0, 2023-09-26 15:31:48.416
236.0, 7007.026017549756, 38025.63703365768, -52983.245609193524, -57307.414091517225, -36010.47080880056, -32382.112131370563, -187500.02235174447, -81888.0298004186, -13249.890595661474, -42765.70442506128, -53515.9323830524, -45604.375970885274, -24704.26555922813, -29874.916955818768, -57562.179274818816, -38014.259995729924, 0.024, 1.016, -0.026000000000000002, 192.0, 0.0, 0.0, 0.0, 0.0, 0.0, 0.0, 0.0, 0.0, 0.0, 1.695760308416049E9, 0.0, 2023-09-26 15:31:48.416
238.0, 6987.66940685146, 37999.26197520042, -52979.51286786948, -57306.072986849904, -36008.39209656621, -32380.256936580772, -187500.02235174447, -81942.03161502261, -13274.924549451418, -42806.47400694776, -53531.891528593485, -45629.23111071958, -24698.36469869193, -29889.423237970263, -57568.01308012165, -38025.83819935777, 0.024, 1.016, -0.026000000000000002, 192.0, 0.0, 0.0, 0.0, 0.0, 0.0, 0.0, 0.0, 0.0, 0.0, 1.695760308416058E9, 0.0, 2023-09-26 15:31:48.416
240.0, 7002.019226791767, 38017.81392309832, -52998.93653380115, -57316.42184453271, -36021.06553567237, -32391.768084975254, -187500.02235174447, -81881.03370440408, -13288.246189146781, -42778.4002159119, -53533.366743727536, -45621.34094492685, -24720.582332680504, -29864.501042902597, -57571.07526911203, -38025.54762667986, 0.024, 1.016, -0.026000000000000002, 192.0, 0.0, 0.0, 0.0, 0.0, 0.0, 0.0, 0.0, 0.0, 0.0, 1.695760308476156E9, 0.0, 2023-09-26 15:31:48.476
242.0, 6991.916238297968, 38008.71676310501, -52991.73927208654, -57303.994274615565, -36013.22007336856, -32380.480454025324, -187500.02235174447, -81908.6828122953, -13301.836049775608, -42800.99782955621, -53544.54261595519, -45628.04646826345, -24713.27331224362, -29889.736162392637, -57580.10537387197, -38028.56511218132, 0.02, 1.01, -0.024, 192.0, 0.0, 80.0, 15.5, 72.0, 127.5, 32.0, 0.0, 0.0, 0.0, 1.69576030847618E9, 0.0, 2023-09-26 15:31:48.476
