%OpenBCI Raw EXG Data
%Number of channels = 16
%Sample Rate = 125 Hz
%Board = OpenBCI_GUI$BoardCytonSerialDaisy
Sample Index, EXG Channel 0, EXG Channel 1, EXG Channel 2, EXG Channel 3, EXG Channel 4, EXG Channel 5, EXG Channel 6, EXG Channel 7, EXG Channel 8, EXG Channel 9, EXG Channel 10, EXG Channel 11, EXG Channel 12, EXG Channel 13, EXG Channel 14, EXG Channel 15, Accel Channel 0, Accel Channel 1, Accel Channel 2, Other, Other, Other, Other, Other, Other, Other, Analog Channel 0, Analog Channel 1, Analog Channel 2, Timestamp, Other, Timestamp (Formatted)
0.0, 43671.26299992359, 25981.086609493093, -6968.558665342172, -15016.483070431123, -21755.377561495014, -16217.688169203779, -187500.02235174447, -31605.947805160024, 0.0, 0.0, 0.0, 0.0, 0.0, 0.0, 0.0, 0.0, 0.0, 0.0, 0.0, 192.0, 0.0, 0.0, 0.0, 0.0, 0.0, 0.0, 0.0, 0.0, 0.0, 1.695325232984996E9, 0.0, 2023-09-21 14:40:32.984
254.0, 43678.952000016216, 25985.95928978435, -6961.1602379274655, -15012.571515151443, -21748.604982925055, -16208.523953977103, -187500.02235174447, -31596.24714806642, 31336.028139117738, 17237.330047765976, -18876.69639309602, -1614.8464816625694, -11439.198129081504, -26569.339820067864, -13688.253007918956, -26831.950465673264, 0.048, 1.002, 0.166, 192.0, 0.5, 64.0, 15.5, 40.0, 2.5, 24.0, 0.0, 0.0, 0.0, 1.695325232985007E9, 0.0, 2023-09-21 14:40:32.985
0.0, 43662.657578308295, 25971.810635544138, -6982.215581204365, -15028.843585114908, -21766.64284070049, -16231.680361232802, -187500.02235174447, -31613.279177341366, 31326.752165168786, 17223.82959411497, -18889.191018246536, -1584.112833036522, -11452.899748432606, -26578.30286959444, -13697.976016757015, -26839.6841692548, 0.048, 1.002, 0.166, 192.0, 0.0, 0.0, 0.0, 0.0, 0.0, 0.0, 0.0, 0.0, 0.0, 1.695325232985011E9, 0.0, 2023-09-21 14:40:32.985
2.0, 43665.228028920654, 25970.961269254836, -6974.236008433821, -15027.12250079185, -21762.016029598242, -16226.897087919366, -187500.02235174447, -31616.20725586501, 31317.699708664386, 17214.106585276913, -18896.522390427876, -1615.9417171408793, -11463.092143904227, -26590.082238922387, -13707.14023198369, -26842.79106173409, 0.048, 1.002, 0.166, 192.0, 0.0, 0.0, 0.0, 0.0, 0.0, 0.0, 0.0, 0.0, 0.0, 1.695325232985014E9, 0.0, 2023-09-21 14:40:32.985
4.0, 43664.66923530927, 25972.77176055572, -6978.393432902508, -15019.92523907724, -21761.770160409233, -16214.8271459135, -187500.02235174447, -31604.897273170624, 31321.18658079941, 17216.811146356005, -18892.141448514634, -1579.1060422785333, -11462.26512935938, -26575.26303234852, -13700.94879876957, -26841.896991955877, 0.048, 1.002, 0.166, 192.0, 0.0, 0.0, 0.0, 0.0, 0.0, 0.0, 0.0, 0.0, 0.0, 1.695325232985017E9, 0.0, 2023-09-21 14:40:32.985
6.0, 43682.28240994005, 25992.441295676388, -6952.733630267815, -14997.841715555396, -21742.122977033017, -16191.514276446615, -187500.02235174447, -31582.836101393237, 31336.38576702902, 17232.70323666373, -18875.69056459553, -1624.4577317783514, -11444.897823917607, -26573.9219276812, -13687.627159074207, -26815.790154432078, 0.048, 1.002, 0.166, 192.0, 0.0, 0.0, 0.0, 0.0, 0.0, 0.0, 0.0, 0.0, 0.0, 1.695325232985021E9, 0.0, 2023-09-21 14:40:32.985
8.0, 43663.03755796404, 25975.677487334906, -6974.9512642563905, -15014.82904134143, -21758.64091618549, -16208.702767932746, -187500.02235174447, -31607.378316805163, 31328.24973204729, 17222.98022782567, -18883.64778562162, -1583.0623010471227, -11454.732591477943, -26579.68867775067, -13689.437650375086, -26825.848439436966, 0.046, 1.0, 0.17, 192.0, 0.5, 56.0, 15.5, 32.0, 2.5, 40.0, 0.0, 0.0, 0.0, 1.695325232985025E9, 0.0, 2023-09-21 14:40:32.985
10.0, 43676.11332847039, 25986.741600840283, -6954.432362846418, -15002.982616780117, -21744.984000323297, -16207.942808621267, -187500.02235174447, -31583.68546768254, 31335.06701410616, 17230.803338385027, -18876.02584076236, -1622.2896125661866, -11442.260318071882, -26571.55264276894, -13683.313272394333, -26817.287721310586, 0.046, 1.0, 0.17, 192.0, 0.0, 0.0, 0.0, 0.0, 0.0, 0.0, 0.0, 0.0, 0.0, 1.695325232985028E9, 0.0, 2023-09-21 14:40:32.985
12.0, 43673.18524994675, 25983.56765312763, -6962.031955961223, -15006.78241333752, -21748.33676199159, -16202.466631229716, -187500.02235174447, -31591.218005563976, 31333.368281527553, 17228.746977895138, -18874.662384350584, -1578.703710878338, -11447.423571041058, -26564.91417466571, -13674.529036823396, -26816.05837536554, 0.046, 1.0, 0.17, 192.0, 0.0, 0.0, 0.0, 0.0, 0.0, 0.0, 0.0, 0.0, 0.0, 1.695325232985032E9, 0.0, 2023-09-21 14:40:32.985
0.0, 21832.8040042882, 13026.350799363947, -3151.6630234316617, -7415.727664915045, -10855.8623022869, -8099.691045247441, -93750.01117587223, -15756.817550279804, 15671.411534716075, 8618.989124177591, -9432.77143630641, -816.7774458858307, -5720.2137375132725, -13281.764183254742, -6836.9515939893245, -13402.84358296914, 0.02, 0.996, 0.171, 192.0, 127.5, 104.0, 15.5, 0.0, 2.5, 48.0, 0.0, 0.0, 0.0, 1.695325233154906E9, 0.0, 2023-09-21 14:40:33.154
2.0, 43672.46999412418, 26061.083502898637, -6302.074349173827, -14822.134652392228, -21703.320348658606, -16184.607587409924, -187500.02235174447, -31504.62734754412, 31094.271671089136, 18328.85513649644, -18825.756767482373, -2211.4592446636257, -11575.677880725609, -26487.107752216787, -13271.77295348322, -26727.321949877973, 0.02, 0.996, 0.171, 192.0, 0.0, 0.0, 0.0, 0.0, 0.0, 0.0, 0.0, 0.0, 0.0, 1.69532523315492E9, 0.0, 2023-09-21 14:40:33.154
4.0, 43672.246476679626, 26061.999924421303, -6300.085043917304, -14817.97722792354, -21700.86165676852, -16184.093497287453, -187500.02235174447, -31498.748838752374, 31112.06365967556, 18343.204956436748, -18808.992959140895, -2228.446570449659, -11556.14245607167, -26463.660772283172, -13256.417305042423, -26704.970205422665, 0.02, 0.996, 0.171, 192.0, 0.0, 0.0, 0.0, 0.0, 0.0, 0.0, 0.0, 0.0, 0.0, 1.695325233154924E9, 0.0, 2023-09-21 14:40:33.154
6.0, 43671.59827609042, 26061.709351743386, -6301.806128240362, -14813.46217554357, -21699.319386401105, -16175.063392527509, -187500.02235174447, -31492.020963671326, 31102.5418165376, 18336.11945344442, -18819.274761590335, -2214.4543784206367, -11565.507836998444, -26472.221490409553, -13258.272499832214, -26704.970205422665, 0.02, 0.996, 0.171, 192.0, 0.0, 0.0, 0.0, 0.0, 0.0, 0.0, 0.0, 0.0, 0.0, 1.695325233154927E9, 0.0, 2023-09-21 14:40:33.154
8.0, 43649.715918268674, 26044.43145327943, -6320.268669160446, -14831.589440296822, -21714.92090403091, -16184.764049621112, -187500.02235174447, -31511.2881673918, 31095.501017034177, 18332.498470842656, -18827.477851805434, -2212.956811542131, -11569.441744022579, -26475.551900333394, -13261.66996498942, -26705.14901937831, -0.024, 0.998, 0.17, 192.0, 127.5, 32.0, 15.5, 24.0, 2.5, 40.0, 0.0, 0.0, 0.0, 1.69532523315493E9, 0.0, 2023-09-21 14:40:33.154
10.0, 43644.418554832766, 26037.658874709476, -6326.370695396745, -14840.306620634392, -21718.899514543955, -16200.723195162202, -187500.02235174447, -31516.831400016716, 31073.126920834417, 18310.839630465463, -18849.136692182623, -2206.251288205539, -11590.966473933038, -26493.790923808923, -13278.411421586445, -26727.791336511535, -0.024, 0.998, 0.17, 192.0, 0.0, 0.0, 0.0, 0.0, 0.0, 0.0, 0.0, 0.0, 0.0, 1.695325233154933E9, 0.0, 2023-09-21 14:40:33.154
12.0, 43659.32716838446, 26051.025217893748, -6309.182203910614, -14824.5486407934, -21700.995767235254, -16185.434601954772, -187500.02235174447, -31499.62055678613, 31085.66624947384, 18322.52959281559, -18835.882107720627, -2202.0938637368517, -11574.627348736209, -26482.257423669987, -13266.72145923632, -26715.09554566092, -0.024, 0.998, 0.17, 192.0, 0.0, 0.0, 0.0, 0.0, 0.0, 0.0, 0.0, 0.0, 0.0, 1.695325233154937E9, 0.0, 2023-09-21 14:40:33.154
14.0, 43657.695491039216, 26044.386749790523, -6310.813881255852, -14834.137539164727, -21705.108488215028, -16183.557055420526, -187500.02235174447, -31505.655527789062, 31088.415514041844, 18323.133089915882, -18833.401064086087, -2219.3270587118936, -11575.320252814325, -26484.246728926508, -13258.965403910328, -26712.972129937665, -0.024, 0.998, 0.17, 192.0, 0.0, 0.0, 0.0, 0.0, 0.0, 0.0, 0.0, 0.0, 0.0, 1.69532523315494E9, 0.0, 2023-09-21 14:40:33.154
16.0, 43645.62554903335, 26035.06607235266, -6320.805111027374, -14840.239565401027, -21712.99865400775, -16195.939921848765, -187500.02235174447, -31509.70119353547, 31083.25226107267, 18314.974703189695, -18842.051189190293, -2196.125947967285, -11577.711889471042, -26486.99599349451, -13266.855569703052, -26719.878818974357, -0.024, 0.998, 0.17, 192.0, 0.0, 0.0, 0.0, 0.0, 0.0, 0.0, 0.0, 0.0, 0.0, 1.695325233215206E9, 0.0, 2023-09-21 14:40:33.215
18.0, 43639.56822628596, 26027.712348426863, -6321.095683705293, -14849.068504460873, -21716.597284865056, -16207.741642921168, -187500.02235174447, -31520.295920407287, 31078.089008103492, 18306.65985425232, -18847.080331692738, -2218.634154633779, -11577.600130748766, -26493.63446159774, -13272.801133728164, -26725.958493466198, -0.036000000000000004, 0.992, 0.17400000000000002, 192.0, 127.0, 112.0, 15.5, 0.0, 2.5, 56.0, 0.0, 0.0, 0.0, 1.695325233215216E9, 0.0, 2023-09-21 14:40:33.215
20.0, 43639.41176407478, 26029.746357172295, -6324.649611073686, -14851.214271928582, -21712.708081329834, -16205.975855109198, -187500.02235174447, -31519.42420237353, 31076.367923780435, 18304.37997631788, -18849.315506138268, -2188.928686252676, -11580.81878195033, -26499.468266900574, -13277.427944830411, -26734.072176703477, -0.036000000000000004, 0.992, 0.17400000000000002, 192.0, 0.0, 0.0, 0.0, 0.0, 0.0, 0.0, 0.0, 0.0, 0.0, 1.69532523321522E9, 0.0, 2023-09-21 14:40:33.215
22.0, 43653.31454912598, 26042.598610234098, -6309.405721355167, -14840.150158423205, -21704.996729492752, -16195.604645681937, -187500.02235174447, -31506.639004545097, 31081.57588023852, 18307.755089730632, -18844.666343291563, -2231.4193524622146, -11575.275549325414, -26481.586871336327, -13273.20346512836, -26731.792298769036, -0.036000000000000004, 0.992, 0.17400000000000002, 192.0, 0.0, 0.0, 0.0, 0.0, 0.0, 0.0, 0.0, 0.0, 0.0, 1.695325233215224E9, 0.0, 2023-09-21 14:40:33.215
24.0, 43647.68190952324, 26037.211839820367, -6319.307544148868, -14841.491263090524, -21708.05891848313, -16194.06237531452, -187500.02235174447, -31506.929577223014, 31082.604060483463, 18308.246828108648, -18842.677038035043, -2197.2435351900504, -11576.013156892439, -26499.177694222653, -13272.108229650048, -26726.24906614412, -0.036000000000000004, 0.992, 0.17400000000000002, 192.0, 0.0, 0.0, 0.0, 0.0, 0.0, 0.0, 0.0, 0.0, 0.0, 1.695325233215227E9, 0.0, 2023-09-21 14:40:33.215
26.0, 43663.97633123116, 26052.72395047235, -6298.922753205628, -14825.062730915874, -21690.937482230365, -16185.434601954772, -187500.02235174447, -31499.2852806193, 31099.591386269498, 18326.86583123992, -18824.05803490377, -2235.375611230804, -11558.467037495022, -26477.295336400908, -13250.225871828303, -26707.495952546116, -0.036000000000000004, 0.992, 0.17400000000000002, 192.0, 0.0, 0.0, 0.0, 0.0, 0.0, 0.0, 0.0, 0.0, 0.0, 1.69532523321523E9, 0.0, 2023-09-21 14:40:33.215
28.0, 43649.49240082412, 26039.692883454907, -6314.34545687979, -14836.260954887983, -21701.800430035644, -16197.258674771629, -187500.02235174447, -31505.879045233614, 31091.097723376482, 18318.103947413438, -18832.68580826352, -2190.7838810424664, -11565.798409676363, -26481.139836447222, -13253.444523029868, -26716.838981728433, -0.042, 0.994, 0.17200000000000001, 192.0, 127.0, 88.0, 15.5, 8.0, 2.5, 48.0, 0.0, 0.0, 0.0, 1.695325233215233E9, 0.0, 2023-09-21 14:40:33.215
30.0, 43651.01231944708, 26039.603476477085, -6309.942163222095, -14832.282344374937, -21706.38253764898, -16192.654215413835, -187500.02235174447, -31502.32511786522, 31085.30862156256, 18317.56750554651, -18837.290267621313, -2228.5583291719354, -11570.000537633961, -26484.33613590433, -13250.561147995133, -26715.18495263874, -0.042, 0.994, 0.17200000000000001, 192.0, 0.0, 0.0, 0.0, 0.0, 0.0, 0.0, 0.0, 0.0, 0.0, 1.695325233275509E9, 0.0, 2023-09-21 14:40:33.275
32.0, 43654.54389507102, 26041.749243944796, -6308.7798725104185, -14829.398969340202, -21700.39227013496, -16182.73004087568, -187500.02235174447, -31493.29501310528, 31083.654592472863, 18322.417834093314, -18840.039532189316, -2182.9831222275643, -11569.62055797822, -26481.29629865841, -13254.875034675008, -26713.262702615586, -0.042, 0.994, 0.17200000000000001, 192.0, 0.0, 0.0, 0.0, 0.0, 0.0, 0.0, 0.0, 0.0, 0.0, 1.695325233275522E9, 0.0, 2023-09-21 14:40:33.275
34.0, 43653.918046226274, 26035.714272941863, -6305.337703864301, -14834.182242653638, -21707.34366266056, -16185.099325787942, -187500.02235174447, -31496.871292218126, 31086.67207797433, 18322.686055026777, -18836.99969494339, -2219.8411488343654, -11567.787714932885, -26479.66462131317, -13253.735095707787, -26715.162600894288, -0.042, 0.994, 0.17200000000000001, 192.0, 0.0, 0.0, 0.0, 0.0, 0.0, 0.0, 0.0, 0.0, 0.0, 1.695325233275526E9, 0.0, 2023-09-21 14:40:33.275
36.0, 43653.62747354835, 26035.4460520084, -6312.0655789453485, -14833.869318231264, -21711.121107473507, -16183.713517631713, -187500.02235174447, -31498.167693396535, 31085.979173896216, 18327.335217873482, -18839.05605543328, -2173.349520367327, -11571.185180090091, -26481.832740525337, -13260.261805088736, -26726.070252188478, -0.042, 0.994, 0.17200000000000001, 192.0, 0.0, 0.0, 0.0, 0.0, 0.0, 0.0, 0.0, 0.0, 0.0, 1.695325233275529E9, 0.0, 2023-09-21 14:40:33.275
38.0, 43655.05798519349, 26032.473269995844, -6310.411549855656, -14838.31731537787, -21716.30671218714, -16196.856343371433, -187500.02235174447, -31502.61569054314, 31091.1871303543, 18336.611191822434, -18833.401064086087, -2221.2269569905948, -11564.658470709142, -26477.16122593418, -13260.23945334428, -26726.696101033223, -0.05, 0.996, 0.17200000000000001, 192.0, 127.0, 56.0, 15.5, 16.0, 2.5, 48.0, 0.0, 0.0, 0.0, 1.695325233275533E9, 0.0, 2023-09-21 14:40:33.275
40.0, 43684.65169485232, 26058.557755775186, -6295.637046770697, -14820.055940157885, -21695.47488635479, -16177.566787906504, -187500.02235174447, -31479.638097243085, 31095.14338912289, 18341.7297413027, -18832.752863496884, -2182.2008111716286, -11562.892682897173, -26464.934821717125, -13262.854607445552, -26734.787432526045, -0.05, 0.996, 0.17200000000000001, 192.0, 0.0, 0.0, 0.0, 0.0, 0.0, 0.0, 0.0, 0.0, 0.0, 1.695325233275536E9, 0.0, 2023-09-21 14:40:33.275
42.0, 43692.31834320049, 26061.86581395457, -6284.438822798589, -14815.093852888805, -21685.327194372083, -16173.878750071377, -187500.02235174447, -31476.307687319244, 31125.072374948548, 18368.998869538173, -18805.550790494777, -2229.8323786058877, -11533.835415105274, -26456.463510568563, -13241.218118812814, -26714.045013671523, -0.05, 0.996, 0.17200000000000001, 192.0, 0.0, 0.0, 0.0, 0.0, 0.0, 0.0, 0.0, 0.0, 0.0, 1.695325233275548E9, 0.0, 2023-09-21 14:40:33.275
44.0, 43687.60212512042, 26050.466424282364, -6292.708968247052, -14824.36982683776, -21694.6702235544, -16174.705764616225, -187500.02235174447, -31484.913108934536, 31112.57774979803, 18352.793854808075, -18821.085252891215, -2195.991837500553, -11547.313517011824, -26464.018400194454, -13250.784665439685, -26729.66888304578, -0.05, 0.996, 0.17200000000000001, 192.0, 0.0, 0.0, 0.0, 0.0, 0.0, 0.0, 0.0, 0.0, 0.0, 1.695325233275552E9, 0.0, 2023-09-21 14:40:33.275
46.0, 43704.00830555061, 26064.324505844656, -6278.113279117737, -14811.182297609128, -21679.985127447264, -16164.222796466685, -187500.02235174447, -31473.3796087956, 31120.6467295464, 18362.270994457125, -18812.56923825374, -2228.088942538374, -11543.558423943332, -26456.32940010183, -13249.421209027912, -26721.28697887504, -0.05, 0.996, 0.17200000000000001, 192.0, 0.0, 0.0, 0.0, 0.0, 0.0, 0.0, 0.0, 0.0, 0.0, 1.695325233335813E9, 0.0, 2023-09-21 14:40:33.335
48.0, 43700.49908167113, 26059.652991253497, -6288.663302500642, -14823.095777403805, -21693.48558109827, -16170.973023292188, -187500.02235174447, -31484.823701956717, 31116.712822522262, 18354.693753086776, -18818.58185751222, -2202.8538230483323, -11548.073476323305, -26461.269135626455, -13253.824502685608, -26728.752461523112, -0.05, 0.992, 0.17400000000000002, 192.0, 127.0, 56.0, 15.5, 0.0, 2.5, 56.0, 0.0, 0.0, 0.0, 1.695325233335823E9, 0.0, 2023-09-21 14:40:33.335
50.0, 43709.88681434236, 26068.660744268986, -6275.989863394483, -14809.997655152996, -21675.067743667096, -16156.802017307524, -187500.02235174447, -31462.002570867848, 31125.653520304386, 18363.857968313452, -18811.742223708898, -2225.0714570369073, -11539.289240752369, -26449.467414554052, -13252.282232318192, -26716.81662998398, -0.05, 0.992, 0.17400000000000002, 192.0, 0.0, 0.0, 0.0, 0.0, 0.0, 0.0, 0.0, 0.0, 0.0, 1.695325233335827E9, 0.0, 2023-09-21 14:40:33.335
52.0, 43686.082206497456, 26039.2458485658, -6300.465023573044, -14840.619545056767, -21702.470982369305, -16188.474439200692, -187500.02235174447, -31499.598205041675, 31115.68464227732, 18348.63643033939, -18822.783985469818, -2207.9947242730527, -11549.99572634646, -26462.409074593674, -13246.426075270901, -26722.270455631075, -0.05, 0.992, 0.17400000000000002, 192.0, 0.0, 0.0, 0.0, 0.0, 0.0, 0.0, 0.0, 0.0, 0.0, 1.695325233335831E9, 0.0, 2023-09-21 14:40:33.335
54.0, 43688.54089838754, 26040.34108404411, -6302.521384062932, -14842.251222402005, -21706.874276027, -16193.660043914324, -187500.02235174447, -31502.57098705423, 31096.73036297922, 18325.14474691686, -18842.92290722405, -2210.743988841056, -11569.24057832248, -26485.72194406056, -13273.605796528554, -26744.868069275388, -0.05, 0.992, 0.17400000000000002, 192.0, 0.0, 0.0, 0.0, 0.0, 0.0, 0.0, 0.0, 0.0, 0.0, 1.695325233335836E9, 0.0, 2023-09-21 14:40:33.335
56.0, 43692.720674600685, 26042.419796278453, -6295.413529326145, -14839.390199111725, -21699.542903845657, -16189.34615723445, -187500.02235174447, -31495.217263128434, 31098.87613044693, 18325.658837039333, -18840.10658742268, -2217.225994733095, -11567.944177144072, -26482.3021271589, -13277.383241341502, -26741.694121562734, -0.05, 0.992, 0.17400000000000002, 192.0, 0.0, 0.0, 0.0, 0.0, 0.0, 0.0, 0.0, 0.0, 0.0, 1.69532523333584E9, 0.0, 2023-09-21 14:40:33.335
58.0, 43711.384381220865, 26061.575241276652, -6274.246427326969, -14821.352341336293, -21674.37483958898, -16172.090610514953, -187500.02235174447, -31477.738198964384, 31113.136543409415, 18334.957162732742, -18825.041511659805, -2218.544747655958, -11550.66627868012, -26463.638420538715, -13257.110209120538, -26727.500763833617, -0.05, 0.99, 0.176, 192.0, 127.0, 56.0, 15.0, 120.0, 2.5, 64.0, 0.0, 0.0, 0.0, 1.695325233335843E9, 0.0, 2023-09-21 14:40:33.335
60.0, 43699.69441887074, 26043.716197456863, -6286.048148399371, -14833.69050427562, -21690.110467685518, -16180.919549574799, -187500.02235174447, -31492.08801890469, 31117.53983706711, 18335.381845877393, -18820.81703195775, -2239.1307042992958, -11545.61478443322, -26475.10486544429, -13245.174377581405, -26723.745670765125, -0.05, 0.99, 0.176, 192.0, 0.0, 0.0, 0.0, 0.0, 0.0, 0.0, 0.0, 0.0, 0.0, 1.695325233396181E9, 0.0, 2023-09-21 14:40:33.396
62.0, 43700.27556422658, 26048.320656814656, -6289.311503089846, -14834.562222309378, -21690.669261296902, -16183.668814142802, -187500.02235174447, -31491.529225293307, 31106.43102007282, 18325.18945040577, -18834.2951338643, -2225.6302506482903, -11557.863540394728, -26485.900758016203, -13265.112133635537, -26735.27917090406, -0.05, 0.99, 0.176, 192.0, 0.0, 0.0, 0.0, 0.0, 0.0, 0.0, 0.0, 0.0, 0.0, 1.695325233396193E9, 0.0, 2023-09-21 14:40:33.396
64.0, 43710.28914574256, 26056.791967963218, -6278.0238721399155, -14826.292076860915, -21680.432162336372, -16180.360755963417, -187500.02235174447, -31482.543824022276, 31118.188037656313, 18336.365322633425, -18820.861735446662, -2254.2851870399936, -11543.737237898975, -26469.58398456383, -13247.364848538024, -26721.08581317494, -0.05, 0.99, 0.176, 192.0, 0.0, 0.0, 0.0, 0.0, 0.0, 0.0, 0.0, 0.0, 0.0, 1.695325233396196E9, 0.0, 2023-09-21 14:40:33.396
66.0, 43700.342619459945, 26051.852232438592, -6287.612770511243, -14833.869318231264, -21683.539054815657, -16185.501657188137, -187500.02235174447, -31489.56227178124, 31109.67202301884, 18327.759901018133, -18830.182412884526, -2229.4971024390584, -11550.018078090916, -26478.457627112584, -13254.360944552534, -26729.177144667763, -0.05, 0.99, 0.176, 192.0, 0.0, 0.0, 0.0, 0.0, 0.0, 0.0, 0.0, 0.0, 0.0, 1.695325233396199E9, 0.0, 2023-09-21 14:40:33.396
68.0, 43694.75468334612, 26047.471290525355, -6287.210439111047, -14837.669114788667, -21692.122124686495, -16191.938959591265, -187500.02235174447, -31496.75953349585, 31111.482514319723, 18328.788081263076, -18827.075520405237, -2261.7059661991557, -11546.262985022424, -26477.608260823283, -13251.343459051068, -26726.874914988868, -0.056, 0.986, 0.18, 192.0, 127.0, 32.0, 15.0, 104.0, 2.5, 80.0, 0.0, 0.0, 0.0, 1.695325233396202E9, 0.0, 2023-09-21 14:40:33.396
70.0, 43689.68083735476, 26050.265258582265, -6299.77211949493, -14833.645800786711, -21697.754764289235, -16193.05654681403, -187500.02235174447, -31499.397039341577, 31102.49711304869, 18322.976627704695, -18834.742168753408, -2224.311497725427, -11556.611842705232, -26481.497464358505, -13261.28998533368, -26734.34039763694, -0.056, 0.986, 0.18, 192.0, 0.0, 0.0, 0.0, 0.0, 0.0, 0.0, 0.0, 0.0, 0.0, 1.695325233396205E9, 0.0, 2023-09-21 14:40:33.396
72.0, 43675.174555203266, 26034.99901711929, -6306.142366664692, -14848.666173060677, -21709.221209194806, -16203.003073096643, -187500.02235174447, -31514.819743015738, 31098.45144730228, 18315.689959012267, -18838.474910077442, -2256.5203614855245, -11562.937386386084, -26487.040696983422, -13268.48724704829, -26737.58140058296, -0.056, 0.986, 0.18, 192.0, 0.0, 0.0, 0.0, 0.0, 0.0, 0.0, 0.0, 0.0, 0.0, 1.695325233396209E9, 0.0, 2023-09-21 14:40:33.396
74.0, 43674.97338950317, 26043.336217801123, -6309.003389954972, -14843.815844513876, -21706.337834160073, -16199.985587595176, -187500.02235174447, -31506.840170245192, 31090.494226276187, 18304.447031551248, -18846.87916599264, -2207.7488550840444, -11570.089944611782, -26495.8025808099, -13271.638843016488, -26743.97399949718, -0.056, 0.986, 0.18, 192.0, 0.0, 0.0, 0.0, 0.0, 0.0, 0.0, 0.0, 0.0, 0.0, 1.695325233396212E9, 0.0, 2023-09-21 14:40:33.396
76.0, 43664.87040100937, 26035.110775841567, -6314.211346413058, -14852.063638217884, -21715.658511597936, -16197.929227105287, -187500.02235174447, -31516.227902916424, 31092.81880769954, 18306.34692982995, -18844.35341886919, -2251.7817916609993, -11568.771191688918, -26492.315708674876, -13275.036308173694, -26742.498784363128, -0.056, 0.986, 0.18, 192.0, 0.0, 0.0, 0.0, 0.0, 0.0, 0.0, 0.0, 0.0, 0.0, 1.69532523345553E9, 0.0, 2023-09-21 14:40:33.455
78.0, 43663.46224110869, 26033.00971186277, -6322.660305817164, -14852.868301018276, -21712.14928771845, -16203.360701007929, -187500.02235174447, -31514.216245915446, 31081.084141860505, 18290.566598244503, -18856.333953897232, -2202.1162154813073, -11580.14822961667, -26504.92209254767, -13279.685471020399, -26751.014799000597, -0.062, 0.982, 0.18, 192.0, 127.0, 8.0, 15.0, 88.0, 2.5, 80.0, 0.0, 0.0, 0.0, 1.695325233455542E9, 0.0, 2023-09-21 14:40:33.455
80.0, 43674.79457554753, 26042.732720700827, -6303.482509074511, -14840.217213656571, -21705.130839959485, -16194.688224159268, -187500.02235174447, -31506.147266167078, 31092.2376623437, 18303.217685606203, -18843.30288687979, -2246.7079456696447, -11566.938348643584, -26486.504255116495, -13268.19667437037, -26737.179069182763, -0.062, 0.982, 0.18, 192.0, 0.0, 0.0, 0.0, 0.0, 0.0, 0.0, 0.0, 0.0, 0.0, 1.695325233455546E9, 0.0, 2023-09-21 14:40:33.455
82.0, 43682.68474134025, 26050.734645215827, -6298.788642738896, -14831.83530948583, -21694.893740998956, -16184.607587409924, -187500.02235174447, -31496.848940473672, 31102.363002581955, 18312.404252577337, -18831.00942742937, -2207.7488550840444, -11557.640022950176, -26484.96198474908, -13258.473665532312, -26726.42788009976, -0.062, 0.982, 0.18, 192.0, 0.0, 0.0, 0.0, 0.0, 0.0, 0.0, 0.0, 0.0, 0.0, 1.695325233455549E9, 0.0, 2023-09-21 14:40:33.455
84.0, 43671.73238655715, 26036.58599097562, -6304.398930597178, -14843.659382302689, -21708.081270227583, -16201.68432017378, -187500.02235174447, -31513.679804048516, 31102.944147937793, 18311.934865943775, -18830.472985562443, -2251.6476811942675, -11557.28239503889, -26478.32351664585, -13258.160741109938, -26730.294731890528, -0.062, 0.982, 0.18, 192.0, 0.0, 0.0, 0.0, 0.0, 0.0, 0.0, 0.0, 0.0, 0.0, 1.695325233455552E9, 0.0, 2023-09-21 14:40:33.455
86.0, 43657.44962185021, 26023.621979191543, -6324.9178320071505, -14859.37265865477, -21723.9286570464, -16217.576410481503, -187500.02235174447, -31528.38725190011, 31076.345572035978, 18282.117638840395, -18856.95980274198, -2200.1939654581506, -11582.226941851013, -26512.11935426228, -13280.28896812069, -26757.09447349244, -0.062, 0.982, 0.18, 192.0, 0.0, 0.0, 0.0, 0.0, 0.0, 0.0, 0.0, 0.0, 0.0, 1.695325233455556E9, 0.0, 2023-09-21 14:40:33.455
88.0, 43683.93643902975, 26049.706464970885, -6295.011197925949, -14835.858623487786, -21696.14543868845, -16191.53662819107, -187500.02235174447, -31502.99567019888, 31093.802284455574, 18296.936845414264, -18836.932639710027, -2246.6855939251896, -11566.804238176852, -26491.868673785768, -13266.922624936418, -26739.660112817302, -0.054, 0.992, 0.178, 192.0, 127.0, 40.0, 15.5, 0.0, 2.5, 72.0, 0.0, 0.0, 0.0, 1.695325233455559E9, 0.0, 2023-09-21 14:40:33.455
90.0, 43703.29304972805, 26067.4537500684, -6280.3708053077235, -14820.726492491543, -21677.504083812724, -16174.370488449395, -187500.02235174447, -31484.264908345333, 31117.696299278297, 18314.14768864485, -18814.737357465907, -2218.5000441670472, -11541.18913903107, -26471.282717142432, -13239.787607167675, -26719.543542807525, -0.054, 0.992, 0.178, 192.0, 0.0, 0.0, 0.0, 0.0, 0.0, 0.0, 0.0, 0.0, 0.0, 1.695325233515804E9, 0.0, 2023-09-21 14:40:33.515
92.0, 43673.36406390239, 26035.4460520084, -6305.382407353211, -14854.388219641236, -21712.283398185184, -16208.568657466014, -187500.02235174447, -31520.60884482966, 31108.35327009598, 18296.713327969712, -18825.376787826634, -2254.821628906921, -11554.466075237522, -26489.47703712905, -13246.113150848527, -26733.960417981198, -0.054, 0.992, 0.178, 192.0, 0.0, 0.0, 0.0, 0.0, 0.0, 0.0, 0.0, 0.0, 0.0, 1.695325233515816E9, 0.0, 2023-09-21 14:40:33.515
94.0, 43683.39999716282, 26045.079653868637, -6303.147232907681, -14843.324106135859, -21705.980206248787, -16202.645445185359, -187500.02235174447, -31511.735202280906, 31091.1871303543, 18279.882464394865, -18841.78296825683, -2215.1249307542957, -11572.392174290679, -26504.787982080936, -13267.727287736809, -26751.14890946733, -0.054, 0.992, 0.178, 192.0, 0.0, 0.0, 0.0, 0.0, 0.0, 0.0, 0.0, 0.0, 0.0, 1.695325233515819E9, 0.0, 2023-09-21 14:40:33.515
96.0, 43682.729444829165, 26043.649142223498, -6301.62731428472, -14841.155986923693, -21702.314520158117, -16199.560904450525, -187500.02235174447, -31507.66718479004, 31100.083124647514, 18287.973795887687, -18835.412721087065, -2241.63409967829, -11563.876159653206, -26486.839531283324, -13266.877921447507, -26740.174202939776, -0.054, 0.992, 0.178, 192.0, 0.0, 0.0, 0.0, 0.0, 0.0, 0.0, 0.0, 0.0, 0.0, 1.695325233515823E9, 0.0, 2023-09-21 14:40:33.515
98.0, 43686.68570359775, 26049.170023103958, -6295.257067114958, -14833.556393808889, -21697.061860211117, -16188.385032222872, -187500.02235174447, -31497.452437573964, 31105.715764250253, 18293.405269790324, -18828.886011706116, -2226.5913756598684, -11556.38832526068, -26484.53730160443, -13262.608738256544, -26729.892400490335, -0.054, 1.0, 0.176, 192.0, 127.0, 40.0, 15.5, 32.0, 2.5, 64.0, 0.0, 0.0, 0.0, 1.695325233515826E9, 0.0, 2023-09-21 14:40:33.515
100.0, 43674.816927291984, 26040.229325321834, -6302.856660229762, -14838.965515967075, -21700.995767235254, -16185.7698781216, -187500.02235174447, -31500.89460622008, 31105.53695029461, 18292.04181337855, -18830.696503006995, -2245.4338962356924, -11556.365973516224, -26482.883272514737, -13267.459066803345, -26725.757327766103, -0.054, 1.0, 0.176, 192.0, 0.0, 0.0, 0.0, 0.0, 0.0, 0.0, 0.0, 0.0, 0.0, 1.695325233515829E9, 0.0, 2023-09-21 14:40:33.515
102.0, 43660.02007246257, 26021.47621172383, -6318.324067392835, -14855.148178952717, -21715.904380786942, -16198.644482927857, -187500.02235174447, -31515.37853662712, 31089.980136153717, 18276.261481793106, -18844.82280550275, -2230.212358261628, -11570.179351589602, -26494.9532145206, -13271.951767438863, -26737.089662204944, -0.054, 1.0, 0.176, 192.0, 0.0, 0.0, 0.0, 0.0, 0.0, 0.0, 0.0, 0.0, 0.0, 1.695325233515832E9, 0.0, 2023-09-21 14:40:33.515
104.0, 43670.79361329003, 26029.455784494377, -6308.846927743784, -14843.7040857916, -21701.643967824457, -16190.351985734938, -187500.02235174447, -31504.42618184402, 31083.699295961775, 18270.584138701455, -18851.237756161423, -2228.044239049463, -11573.733278957998, -26497.456609899597, -13275.572750040621, -26741.649418073826, -0.054, 1.0, 0.176, 192.0, 0.0, 0.0, 0.0, 0.0, 0.0, 0.0, 0.0, 0.0, 0.0, 1.695325233515835E9, 0.0, 2023-09-21 14:40:33.515
106.0, 43697.749817103126, 26056.25552609629, -6285.936389677095, -14820.570030280356, -21674.62070877799, -16164.066334255498, -187500.02235174447, -31476.08416987469, 31099.658441502863, 18290.09721161094, -18835.30096236479, -2237.8790066097986, -11556.656546194143, -26483.039734725924, -13259.993584155272, -26722.739842264637, -0.054, 1.0, 0.176, 192.0, 0.0, 0.0, 0.0, 0.0, 0.0, 0.0, 0.0, 0.0, 0.0, 1.695325233575578E9, 0.0, 2023-09-21 14:40:33.575
108.0, 43690.03846526605, 26049.885278926526, -6284.394119309678, -14825.867393716264, -21670.351525587026, -16167.597909879436, -187500.02235174447, -31481.42623679951, 31131.97906398524, 18318.372168346905, -18804.254389316367, -2246.640890436279, -11521.430196932579, -26451.121443643744, -13222.95674359283, -26690.419219782263, -0.056, 0.996, 0.17400000000000002, 192.0, 127.0, 32.0, 15.5, 16.0, 2.5, 56.0, 0.0, 0.0, 0.0, 1.6953252335756E9, 0.0, 2023-09-21 14:40:33.575
110.0, 43655.97440671616, 26014.591874431597, -6318.145253437192, -14863.03834474544, -21708.125973716495, -16209.127451077396, -187500.02235174447, -31522.642853575097, 31079.810092426553, 18269.980641601163, -18854.88109050764, -2241.9693758451194, -11570.24640682297, -26500.38468842324, -13263.189883612382, -26740.040092473042, -0.056, 0.996, 0.17400000000000002, 192.0, 0.0, 0.0, 0.0, 0.0, 0.0, 0.0, 0.0, 0.0, 0.0, 1.695325233575604E9, 0.0, 2023-09-21 14:40:33.575
112.0, 43665.0045114761, 26024.024310591736, -6315.194823169091, -14855.282289419449, -21699.475848612292, -16196.476363715694, -187500.02235174447, -31511.80225751427, 31075.295040046578, 18266.04673457703, -18860.536081854832, -2215.6166691323124, -11573.889741169185, -26505.570293136872, -13279.685471020399, -26750.500708878128, -0.056, 0.996, 0.17400000000000002, 192.0, 0.0, 0.0, 0.0, 0.0, 0.0, 0.0, 0.0, 0.0, 0.0, 1.695325233575607E9, 0.0, 2023-09-21 14:40:33.575
114.0, 43660.73532828514, 26018.324615755635, -6317.854680759273, -14862.188978456137, -21704.504991114736, -16201.371395751405, -187500.02235174447, -31516.09379244969, 31079.586574981997, 18267.589004944446, -18856.87039576416, -2239.5553874439465, -11572.079249868304, -26495.109676731787, -13272.219988372326, -26749.830156544467, -0.056, 0.996, 0.17400000000000002, 192.0, 0.0, 0.0, 0.0, 0.0, 0.0, 0.0, 0.0, 0.0, 0.0, 1.69532523357561E9, 0.0, 2023-09-21 14:40:33.575
116.0, 43674.77222380308, 26034.551982230187, -6300.867354973239, -14843.145292180216, -21687.09298218405, -16189.256750256629, -187500.02235174447, -31498.055934674256, 31088.750790208673, 18278.563711472, -18847.43795960402, -2220.7575703570333, -11564.18908407558, -26502.172827979666, -13266.185017369393, -26737.871973260877, -0.056, 0.996, 0.17400000000000002, 192.0, 0.0, 0.0, 0.0, 0.0, 0.0, 0.0, 0.0, 0.0, 0.0, 1.695325233575613E9, 0.0, 2023-09-21 14:40:33.575
118.0, 43673.94520925823, 26032.78619441822, -6300.554430550866, -14843.614678813778, -21694.96079623232, -16193.011843325121, -187500.02235174447, -31503.912091721548, 31090.069543131536, 18282.922301640785, -18845.11337818067, -2259.9401783871863, -11565.105505598249, -26491.823970296857, -13259.591252755077, -26737.7602145386, -0.06, 0.996, 0.17, 192.0, 127.0, 16.0, 15.5, 16.0, 2.5, 40.0, 0.0, 0.0, 0.0, 1.695325233575616E9, 0.0, 2023-09-21 14:40:33.575
120.0, 43675.44277613673, 26035.06607235266, -6305.404759097667, -14842.385332868736, -21693.03854620916, -16187.178038022286, -187500.02235174447, -31500.827550986716, 31083.81105468405, 18277.66964169379, -18848.510843337877, -2222.568061657913, -11569.106467855749, -26492.51687437497, -13262.988717912283, -26740.9118105068, -0.06, 0.996, 0.17, 192.0, 0.0, 0.0, 0.0, 0.0, 0.0, 0.0, 0.0, 0.0, 0.0, 1.695325233635807E9, 0.0, 2023-09-21 14:40:33.635
122.0, 43671.3077034125, 26028.137031571514, -6309.495128332988, -14851.08016146185, -21710.450555139847, -16196.498715460148, -187500.02235174447, -31509.209455157456, 31088.706086719765, 18288.75610694362, -18839.972476955947, -2257.2356173080943, -11568.413563777634, -26482.48094111454, -13258.607775999044, -26736.15088893782, -0.06, 0.996, 0.17, 192.0, 0.0, 0.0, 0.0, 0.0, 0.0, 0.0, 0.0, 0.0, 0.0, 1.695325233635819E9, 0.0, 2023-09-21 14:40:33.635
124.0, 43673.34171215793, 26032.428566506933, -6311.529137078422, -14846.475702104057, -21706.82957253809, -16184.674642643291, -187500.02235174447, -31501.386344598097, 31076.837310413997, 18277.222606804684, -18851.57303232825, -2212.5991836308463, -11577.935406915594, -26497.09898198831, -13267.190845869882, -26743.996351241633, -0.06, 0.996, 0.17, 192.0, 0.0, 0.0, 0.0, 0.0, 0.0, 0.0, 0.0, 0.0, 0.0, 1.695325233635822E9, 0.0, 2023-09-21 14:40:33.635
126.0, 43685.70222684172, 26042.755072445285, -6295.301770603868, -14832.46115833058, -21694.446706109848, -16169.72132560269, -187500.02235174447, -31491.23865261539, 31087.610851241454, 18290.968929644696, -18839.033703688827, -2259.180219075706, -11570.134648100693, -26478.636441068225, -13262.318165578625, -26727.43370860025, -0.06, 0.996, 0.17, 192.0, 0.0, 0.0, 0.0, 0.0, 0.0, 0.0, 0.0, 0.0, 0.0, 1.695325233635825E9, 0.0, 2023-09-21 14:40:33.635
128.0, 43686.19396521973, 26041.950409644895, -6298.363959594245, -14829.533079806934, -21690.713964785813, -16173.163494248807, -187500.02235174447, -31487.14828338007, 31088.706086719765, 18288.934920899264, -18836.507956565376, -2214.5214336540025, -11568.659432966642, -26478.43527536813, -13248.996525883262, -26721.421089341773, -0.056, 0.996, 0.186, 192.0, 127.0, 32.0, 15.5, 16.0, 2.5, 104.0, 0.0, 0.0, 0.0, 1.695325233635829E9, 0.0, 2023-09-21 14:40:33.635
130.0, 43686.39513091983, 26041.123395100047, -6292.887782202695, -14832.304696119392, -21694.73727878777, -16178.550264662537, -187500.02235174447, -31488.221167113923, 31097.24445310169, 18292.71236571221, -18829.57891578423, -2257.1909138191836, -11559.539921228878, -26473.339077632318, -13247.945993893862, -26717.19660963972, -0.056, 0.996, 0.186, 192.0, 0.0, 0.0, 0.0, 0.0, 0.0, 0.0, 0.0, 0.0, 0.0, 1.695325233635832E9, 0.0, 2023-09-21 14:40:33.635
132.0, 43664.803345776, 26021.230342534822, -6312.266744645446, -14853.56120509639, -21716.552581376145, -16203.561866708025, -187500.02235174447, -31514.57387382673, 31088.14729310838, 18278.7648771721, -18839.771311255852, -2209.827567318388, -11573.420354535623, -26478.211757923575, -13257.803113198652, -26730.42884235726, -0.056, 0.996, 0.186, 192.0, 0.0, 0.0, 0.0, 0.0, 0.0, 0.0, 0.0, 0.0, 0.0, 1.695325233635835E9, 0.0, 2023-09-21 14:40:33.635
134.0, 43681.54480237303, 26038.15061308749, -6294.00536942546, -14833.17641415315, -21697.39713637795, -16185.993395566155, -187500.02235174447, -31501.788675998294, 31078.357229036956, 18269.66771717879, -18847.97440147095, -2244.7409921575777, -11583.612750007243, -26501.479923901552, -13265.112133635537, -26738.788394783547, -0.056, 0.996, 0.186, 192.0, 0.0, 0.0, 0.0, 0.0, 0.0, 0.0, 0.0, 0.0, 0.0, 1.695325233635838E9, 0.0, 2023-09-21 14:40:33.635
136.0, 43676.001569748114, 26031.266275795257, -6304.041302685893, -14843.41351311368, -21708.43889813887, -16188.519142689604, -187500.02235174447, -31507.644833045582, 31086.895595418882, 18276.060316093008, -18839.279572877833, -2205.4689771496032, -11574.828514436307, -26493.58975810883, -13256.551415509155, -26732.529906336058, -0.056, 0.996, 0.186, 192.0, 0.0, 0.0, 0.0, 0.0, 0.0, 0.0, 0.0, 0.0, 0.0, 1.695325233696141E9, 0.0, 2023-09-21 14:40:33.696
138.0, 43680.78484306155, 26038.128261343034, -6299.526250305921, -14839.569013067367, -21707.991863249765, -16191.000186324143, -187500.02235174447, -31510.505856335865, 31087.409685541355, 18273.445161991734, -18838.25139263289, -2235.3532594863486, -11571.29693881237, -26494.282662186943, -13261.446447544868, -26736.10618544891, -0.052000000000000005, 0.994, 0.184, 192.0, 127.0, 48.0, 15.5, 8.0, 2.5, 96.0, 0.0, 0.0, 0.0, 1.695325233696151E9, 0.0, 2023-09-21 14:40:33.696
140.0, 43693.30181995652, 26050.801700449196, -6285.310540832346, -14822.26876285896, -21689.43991535186, -16183.087668786964, -187500.02235174447, -31492.535053793796, 31097.490322290698, 18283.414040018804, -18828.483680305922, -2204.0831689933743, -11564.680822453598, -26476.356563133784, -13248.95182239435, -26727.254894644608, -0.052000000000000005, 0.994, 0.184, 192.0, 0.0, 0.0, 0.0, 0.0, 0.0, 0.0, 0.0, 0.0, 0.0, 1.695325233696154E9, 0.0, 2023-09-21 14:40:33.696
142.0, 43687.78093907606, 26046.510165513777, -6285.109375132248, -14833.243469386516, -21699.38644163447, -16191.000186324143, -187500.02235174447, -31499.218225385932, 31102.29594734859, 18285.917435397798, -18822.87339244764, -2243.9139776127313, -11557.215339805525, -26479.19523467961, -13248.035400871684, -26723.611560298392, -0.052000000000000005, 0.994, 0.184, 192.0, 0.0, 0.0, 0.0, 0.0, 0.0, 0.0, 0.0, 0.0, 0.0, 1.695325233696157E9, 0.0, 2023-09-21 14:40:33.696
144.0, 43678.30379942701, 26035.758976430774, -6297.96162819405, -14847.79445502692, -21708.7741743057, -16203.360701007929, -187500.02235174447, -31508.985937712903, 31088.035534386105, 18271.545263713037, -18836.910287965573, -2214.6555441207342, -11570.425220778612, -26489.0523539844, -13260.261805088736, -26740.889458762344, -0.052000000000000005, 0.994, 0.184, 192.0, 0.0, 0.0, 0.0, 0.0, 0.0, 0.0, 0.0, 0.0, 0.0, 1.69532523369616E9, 0.0, 2023-09-21 14:40:33.696
146.0, 43677.58854360444, 26038.195316576403, -6293.893610703184, -14839.166681667171, -21705.041432981663, -16198.510372461125, -187500.02235174447, -31508.114219679144, 31089.980136153717, 18276.90968238231, -18835.77034899835, -2232.0899047958737, -11566.938348643584, -26487.86771152827, -13260.999412655761, -26737.737862794147, -0.052000000000000005, 0.994, 0.184, 192.0, 0.0, 0.0, 0.0, 0.0, 0.0, 0.0, 0.0, 0.0, 0.0, 1.695325233696164E9, 0.0, 2023-09-21 14:40:33.696
148.0, 43668.7596045446, 26028.159383315968, -6309.740997521997, -14850.409609128192, -21717.49135464327, -16207.8757533879, -187500.02235174447, -31520.362975640655, 31077.507862747654, 18265.19736828773, -18846.54388982581, -2212.062741763919, -11580.036470894394, -26498.194217466622, -13258.406610298945, -26740.86710701789, -0.05, 0.992, 0.184, 192.0, 127.0, 56.0, 15.5, 0.0, 2.5, 96.0, 0.0, 0.0, 0.0, 1.695325233696167E9, 0.0, 2023-09-21 14:40:33.696
150.0, 43689.2114507212, 26046.599572491596, -6294.8100322258515, -14830.427149585146, -21703.00742423623, -16181.947729819743, -187500.02235174447, -31499.732315508405, 31086.940298907793, 18275.322708525982, -18838.07257867725, -2223.5515384139467, -11572.034546379393, -26482.592699836816, -13255.165607352927, -26728.998330712122, -0.05, 0.992, 0.184, 192.0, 0.0, 0.0, 0.0, 0.0, 0.0, 0.0, 0.0, 0.0, 0.0, 1.695325233755715E9, 0.0, 2023-09-21 14:40:33.755
152.0, 43702.644849138844, 26059.138901131024, -6283.142421620181, -14818.111338390272, -21691.58568281957, -16173.431715182272, -187500.02235174447, -31489.226995614412, 31093.757580966663, 18283.57050222999, -18829.15423263958, -2222.34454421336, -11566.066630609826, -26480.737505047025, -13251.09758986206, -26720.191743396732, -0.05, 0.992, 0.184, 192.0, 0.0, 0.0, 0.0, 0.0, 0.0, 0.0, 0.0, 0.0, 0.0, 1.695325233755726E9, 0.0, 2023-09-21 14:40:33.755
154.0, 43700.45437818222, 26062.15638663249, -6285.62346525472, -14819.072463401852, -21688.38938336246, -16173.25290122663, -187500.02235174447, -31487.684725246996, 31103.458238060266, 18294.411098290813, -18819.833555201716, -2222.5904134023685, -11553.348488014757, -26469.606336308283, -13237.351267022046, -26710.558141536494, -0.05, 0.992, 0.184, 192.0, 0.0, 0.0, 0.0, 0.0, 0.0, 0.0, 0.0, 0.0, 0.0, 1.695325233755729E9, 0.0, 2023-09-21 14:40:33.755
156.0, 43688.384436176355, 26046.420758535955, -6294.854735714762, -14835.903326976697, -21704.10265971454, -16193.972968336699, -187500.02235174447, -31504.62734754412, 31099.501979291676, 18286.31976679799, -18825.30973259327, -2229.1394745277735, -11558.779961917397, -26476.848301511804, -13243.833272914086, -26719.67765327426, -0.05, 0.992, 0.184, 192.0, 0.0, 0.0, 0.0, 0.0, 0.0, 0.0, 0.0, 0.0, 0.0, 1.695325233755733E9, 0.0, 2023-09-21 14:40:33.755
158.0, 43684.07054949648, 26045.325523057643, -6294.385349081201, -14831.701199019099, -21699.587607334568, -16191.938959591265, -187500.02235174447, -31503.442705087986, 31090.38246755391, 18270.47237997918, -18832.641104774608, -2218.5000441670472, -11565.686650954087, -26487.264214427974, -13253.042191629673, -26726.316121377484, -0.054, 0.992, 0.186, 192.0, 127.0, 40.0, 15.5, 0.0, 2.5, 104.0, 0.0, 0.0, 0.0, 1.695325233755736E9, 0.0, 2023-09-21 14:40:33.755
160.0, 43685.83633730845, 26047.627752736542, -6291.591381024287, -14831.298867618903, -21705.220246937304, -16193.078898558486, -187500.02235174447, -31506.974280711926, 31092.505883277165, 18271.411153246303, -18829.221287872948, -2237.700192654156, -11561.305709040846, -26489.365278406774, -13250.04705787266, -26723.499801576116, -0.054, 0.992, 0.186, 192.0, 0.0, 0.0, 0.0, 0.0, 0.0, 0.0, 0.0, 0.0, 0.0, 1.695325233755739E9, 0.0, 2023-09-21 14:40:33.755
162.0, 43682.9082587848, 26049.72881671534, -6288.372729822723, -14827.610829783778, -21693.28441539817, -16191.134296790875, -187500.02235174447, -31498.122989907624, 31092.751752466174, 18268.23720553365, -18829.82478497324, -2209.6934568516563, -11561.730392185496, -26488.448856884108, -13254.405648041446, -26726.070252188478, -0.054, 0.992, 0.186, 192.0, 0.0, 0.0, 0.0, 0.0, 0.0, 0.0, 0.0, 0.0, 0.0, 1.695325233755742E9, 0.0, 2023-09-21 14:40:33.755
164.0, 43684.27171519658, 26050.77934870474, -6281.555447763854, -14830.091873418318, -21697.598302078048, -16191.983663080176, -187500.02235174447, -31503.57681555472, 31099.25611010267, 18274.00395560312, -18822.359302325167, -2239.175407788206, -11553.370839759213, -26484.023211481956, -13238.446502500356, -26720.392909096827, -0.054, 0.992, 0.186, 192.0, 0.0, 0.0, 0.0, 0.0, 0.0, 0.0, 0.0, 0.0, 0.0, 1.695325233755745E9, 0.0, 2023-09-21 14:40:33.755
166.0, 43680.069587238984, 26047.873621925548, -6290.764366479441, -14838.920812478163, -21703.700328314346, -16203.807735897033, -187500.02235174447, -31511.15405692507, 31094.271671089136, 18268.70659216721, -18828.52838379483, -2203.8820032932763, -11559.584624717787, -26492.695688330616, -13252.57280499611, -26734.876839503868, -0.054, 0.992, 0.186, 192.0, 0.0, 0.0, 0.0, 0.0, 0.0, 0.0, 0.0, 0.0, 0.0, 1.69532523381535E9, 0.0, 2023-09-21 14:40:33.815
168.0, 43669.27369466707, 26033.456746751875, -6297.514593304943, -14854.052943474406, -21717.089023243076, -16217.285837803583, -187500.02235174447, -31528.454307133474, 31088.4378657863, 18260.99524033013, -18831.702331507484, -2231.978146073597, -11565.798409676363, -26500.697612845615, -13249.890595661474, -26746.14211870934, -0.054, 1.0, 0.184, 192.0, 127.0, 40.0, 15.5, 32.0, 2.5, 96.0, 0.0, 0.0, 0.0, 1.69532523381536E9, 0.0, 2023-09-21 14:40:33.815
170.0, 43675.91216277029, 26044.811432935174, -6299.05686367236, -14846.006315470495, -21714.20564820834, -16213.01665461262, -187500.02235174447, -31524.453344875976, 31077.373752280924, 18253.775626871065, -18839.905421722582, -2184.346578639338, -11578.427145293612, -26495.266138942974, -13263.838084201585, -26758.48028164867, -0.054, 1.0, 0.184, 192.0, 0.0, 0.0, 0.0, 0.0, 0.0, 0.0, 0.0, 0.0, 0.0, 1.695325233815363E9, 0.0, 2023-09-21 14:40:33.815
172.0, 43689.07734025447, 26052.67924698344, -6283.120069875726, -14832.930544964142, -21707.410717893927, -16206.713462676224, -187500.02235174447, -31513.94802498198, 31099.412572313857, 18272.014650346595, -18818.358340067665, -2233.833340863388, -11557.863540394728, -26498.127162233253, -13252.170473595916, -26741.71647330719, -0.054, 1.0, 0.184, 192.0, 0.0, 0.0, 0.0, 0.0, 0.0, 0.0, 0.0, 0.0, 0.0, 1.695325233815367E9, 0.0, 2023-09-21 14:40:33.815
174.0, 43689.434968165755, 26055.383808062532, -6290.317331590335, -14827.946105950608, -21709.422374894904, -16198.935055605776, -187500.02235174447, -31509.254158646367, 31099.63608975841, 18270.070048578986, -18819.67709299053, -2196.14829971174, -11558.511740983933, -26490.996955752013, -13254.897386419463, -26738.56487733899, -0.054, 1.0, 0.184, 192.0, 0.0, 0.0, 0.0, 0.0, 0.0, 0.0, 0.0, 0.0, 0.0, 1.69532523381537E9, 0.0, 2023-09-21 14:40:33.815
176.0, 43690.95488678871, 26055.942601673916, -6283.1871251090915, -14822.514632047967, -21712.126935973996, -16191.603683424437, -187500.02235174447, -31506.840170245192, 31103.279424104625, 18281.692955695744, -18811.608113242164, -2235.219149019617, -11556.030697349393, -26477.831778267835, -13251.164645095427, -26726.04790044402, -0.054, 1.0, 0.184, 192.0, 0.0, 0.0, 0.0, 0.0, 0.0, 0.0, 0.0, 0.0, 0.0, 1.695325233815373E9, 0.0, 2023-09-21 14:40:33.815
178.0, 43685.05402625252, 26050.01938939326, -6298.609828783254, -14826.180318138639, -21721.91700004542, -16193.592988680959, -187500.02235174447, -31511.19876041398, 31083.699295961775, 18259.85530136291, -18831.568221040754, -2175.584694812858, -11575.253197580958, -26496.8531127993, -13269.157799381948, -26738.296656405528, -0.048, 1.002, 0.176, 192.0, 127.0, 64.0, 15.5, 40.0, 2.5, 64.0, 0.0, 0.0, 0.0, 1.695325233815376E9, 0.0, 2023-09-21 14:40:33.815
180.0, 43684.674046596774, 26047.404235291986, -6293.29011360289, -14829.331914106837, -21723.146345990463, -16195.850514870945, -187500.02235174447, -31515.177370927024, 31097.646784501885, 18274.85332189242, -18817.397215056088, -2221.2716604795055, -11564.122028842216, -26476.75889453398, -13259.233624843791, -26722.896304475824, -0.048, 1.002, 0.176, 192.0, 0.0, 0.0, 0.0, 0.0, 0.0, 0.0, 0.0, 0.0, 0.0, 1.695325233875679E9, 0.0, 2023-09-21 14:40:33.875
182.0, 43678.14733721582, 26039.67053171045, -6305.896497475684, -14835.724513021054, -21729.963628049332, -16197.795116638556, -187500.02235174447, -31522.62050183064, 31085.375676795924, 18261.978717086164, -18828.751901239386, -2175.338825623849, -11573.599168491266, -26487.174807450156, -13265.469761546823, -26733.826307514468, -0.048, 1.002, 0.176, 192.0, 0.0, 0.0, 0.0, 0.0, 0.0, 0.0, 0.0, 0.0, 0.0, 1.695325233875698E9, 0.0, 2023-09-21 14:40:33.875
184.0, 43673.11819471338, 26039.49171775481, -6299.6827125171085, -14838.272611888959, -21728.354302448548, -16209.842706899966, -187500.02235174447, -31523.805144286773, 31078.021952870127, 18258.80476937351, -18834.451596075487, -2213.113273753318, -11577.15309585966, -26491.868673785768, -13270.990642427283, -26740.53183085106, -0.048, 1.002, 0.176, 192.0, 0.0, 0.0, 0.0, 0.0, 0.0, 0.0, 0.0, 0.0, 0.0, 1.695325233875701E9, 0.0, 2023-09-21 14:40:33.875
186.0, 43689.993761777136, 26059.652991253497, -6287.255142599958, -14819.899477946698, -21707.164848704917, -16190.530799690581, -187500.02235174447, -31503.599167299173, 31082.782874439108, 18263.38687698685, -18829.6459710176, -2179.540953581447, -11570.849903923263, -26485.677240571647, -13256.976098653806, -26736.061481959998, -0.048, 1.002, 0.176, 192.0, 0.0, 0.0, 0.0, 0.0, 0.0, 0.0, 0.0, 0.0, 0.0, 1.695325233875705E9, 0.0, 2023-09-21 14:40:33.875
188.0, 43682.237706451146, 26048.924153914948, -6291.904305446662, -14831.723550763554, -21716.574933120603, -16208.725119677201, -187500.02235174447, -31513.85861800416, 31095.746886223187, 18272.215816046693, -18817.82189820074, -2219.572927900902, -11559.986956117984, -26476.33421138933, -13249.24239507227, -26728.77481326757, -0.054, 1.006, 0.17200000000000001, 192.0, 127.0, 40.0, 15.5, 56.0, 2.5, 48.0, 0.0, 0.0, 0.0, 1.695325233875708E9, 0.0, 2023-09-21 14:40:33.875
190.0, 43682.41652040679, 26046.10783411358, -6293.111299647248, -14833.914021720175, -21714.83149705309, -16213.039006357076, -187500.02235174447, -31514.104487193166, 31089.175473353327, 18260.168225785284, -18825.577953526732, -2188.5263548524804, -11565.463133509533, -26485.118446960267, -13252.818674185119, -26741.090624462442, -0.054, 1.006, 0.17200000000000001, 192.0, 0.0, 0.0, 0.0, 0.0, 0.0, 0.0, 0.0, 0.0, 0.0, 1.695325233875711E9, 0.0, 2023-09-21 14:40:33.875
192.0, 43675.71099707019, 26039.447014265897, -6298.34160784979, -14840.284268889936, -21721.782889578688, -16214.089538346476, -187500.02235174447, -31519.267740162344, 31085.66624947384, 18252.41217045929, -18829.668322762052, -2216.242517977061, -11567.854770166252, -26498.551845377904, -13257.959575409839, -26742.52113610758, -0.054, 1.006, 0.17200000000000001, 192.0, 0.0, 0.0, 0.0, 0.0, 0.0, 0.0, 0.0, 0.0, 0.0, 1.695325233875715E9, 0.0, 2023-09-21 14:40:33.875
194.0, 43678.102633726914, 26039.692883454907, -6293.24541011398, -14836.216251399072, -21710.182334206384, -16207.674587687801, -187500.02235174447, -31512.94219648149, 31078.692505203788, 18247.673600634767, -18835.055093175783, -2192.929648510176, -11573.688575469087, -26498.216569211076, -13255.43382828639, -26746.05271173152, -0.054, 1.006, 0.17200000000000001, 192.0, 0.0, 0.0, 0.0, 0.0, 0.0, 0.0, 0.0, 0.0, 0.0, 1.695325233875718E9, 0.0, 2023-09-21 14:40:33.875
196.0, 43686.17161347528, 26052.25456383879, -6284.90820943215, -14825.152137893694, -21698.268854411705, -16197.973930594198, -187500.02235174447, -31502.95096670997, 31081.128845349416, 18249.014705302085, -18833.53517455282, -2210.3193056964046, -11567.184217832591, -26488.739429562025, -13254.427999785901, -26741.53765935155, -0.054, 1.006, 0.17200000000000001, 192.0, 0.0, 0.0, 0.0, 0.0, 0.0, 0.0, 0.0, 0.0, 0.0, 1.695325233935654E9, 0.0, 2023-09-21 14:40:33.935
198.0, 43663.97633123116, 26032.20504906238, -6302.476680574022, -14843.659382302689, -21719.838287811075, -16216.347064536461, -187500.02235174447, -31521.167638441046, 31088.59432799749, 18257.150740283818, -18826.404968071576, -2207.3688754283044, -11560.501046240455, -26485.319612660365, -13243.43094151389, -26732.19463016923, -0.052000000000000005, 1.01, 0.17200000000000001, 192.0, 127.0, 48.0, 15.5, 72.0, 2.5, 48.0, 0.0, 0.0, 0.0, 1.695325233935666E9, 0.0, 2023-09-21 14:40:33.935
200.0, 43654.83446774894, 26024.605455947574, -6314.703084791075, -14849.13555969424, -21721.939351789875, -16217.73287269269, -187500.02235174447, -31523.827496031226, 31061.57106895102, 18226.685312591235, -18856.669230064064, -2201.0656834919077, -11587.166677375637, -26516.96968280908, -13273.382279084002, -26754.881650791365, -0.052000000000000005, 1.01, 0.17200000000000001, 192.0, 0.0, 0.0, 0.0, 0.0, 0.0, 0.0, 0.0, 0.0, 0.0, 1.695325233935671E9, 0.0, 2023-09-21 14:40:33.935
202.0, 43673.900505769314, 26040.54224974421, -6297.134613649204, -14833.377579853248, -21706.62840683799, -16190.530799690581, -187500.02235174447, -31502.347469609675, 31079.96655463774, 18241.75038835411, -18840.128939167134, -2211.9733347860974, -11569.352337044756, -26497.23309245504, -13261.602909756055, -26739.63776107285, -0.052000000000000005, 1.01, 0.17200000000000001, 192.0, 0.0, 0.0, 0.0, 0.0, 0.0, 0.0, 0.0, 0.0, 0.0, 1.695325233935675E9, 0.0, 2023-09-21 14:40:33.935
204.0, 43652.82281074796, 26022.05735707967, -6319.218137171047, -14850.834292272843, -21727.840212326075, -16216.771747681112, -187500.02235174447, -31523.782792542315, 31067.471929487223, 18231.066254504472, -18851.125997439147, -2202.920878281698, -11583.746860473975, -26505.011499525488, -13269.403668570956, -26742.498784363128, -0.052000000000000005, 1.01, 0.17200000000000001, 192.0, 0.0, 0.0, 0.0, 0.0, 0.0, 0.0, 0.0, 0.0, 0.0, 1.69532523393568E9, 0.0, 2023-09-21 14:40:33.935
206.0, 43672.872325524375, 26042.419796278453, -6305.158889908658, -14836.752693265998, -21722.989883779275, -16209.73094817769, -187500.02235174447, -31517.747821539382, 31068.276592287613, 18237.749426096612, -18848.15321542659, -2207.43593066167, -11583.791563962885, -26497.568368621873, -13268.777819726209, -26740.554182595515, -0.052000000000000005, 1.01, 0.17200000000000001, 192.0, 0.0, 0.0, 0.0, 0.0, 0.0, 0.0, 0.0, 0.0, 0.0, 1.695325233935684E9, 0.0, 2023-09-21 14:40:33.935
208.0, 43681.07541573947, 26052.321619072154, -6306.522346320432, -14833.087007175329, -21715.50204938675, -16203.405404496838, -187500.02235174447, -31516.384365127607, 31077.329048792013, 18249.014705302085, -18840.53127056733, -2193.7119595661115, -11579.924712172116, -26489.566444106873, -13273.136409894993, -26737.357883138407, -0.05, 1.0, 0.17200000000000001, 192.0, 127.0, 56.0, 15.5, 32.0, 2.5, 48.0, 0.0, 0.0, 0.0, 1.695325233935688E9, 0.0, 2023-09-21 14:40:33.935
210.0, 43667.23968592163, 26030.953351372882, -6300.710892762053, -14841.893594490719, -21709.78000280619, -16217.710520948234, -187500.02235174447, -31524.162772198055, 31089.75661870916, 18249.975830313662, -18828.21545937246, -2224.400904703248, -11569.754668444952, -26484.872577771257, -13247.163682837927, -26722.069289930976, -0.05, 1.0, 0.17200000000000001, 192.0, 0.0, 0.0, 0.0, 0.0, 0.0, 0.0, 0.0, 0.0, 0.0, 1.695325233996092E9, 0.0, 2023-09-21 14:40:33.996
212.0, 43654.8568194934, 26018.861057622562, -6318.368770881745, -14853.851777774309, -21713.64685459696, -16224.058416373542, -187500.02235174447, -31519.71477505145, 31059.447653227766, 18208.870972260353, -18860.223157432458, -2191.275619420483, -11592.396985578178, -26522.91524683419, -13271.661194760944, -26751.797110056534, -0.05, 1.0, 0.17200000000000001, 192.0, 0.0, 0.0, 0.0, 0.0, 0.0, 0.0, 0.0, 0.0, 0.0, 1.695325233996116E9, 0.0, 2023-09-21 14:40:33.996
214.0, 43674.43694763624, 26037.25654330928, -6297.469889816033, -14837.669114788667, -21695.09490669905, -16202.846610885455, -187500.02235174447, -31501.922786465024, 31073.19397606778, 18227.288809691527, -18844.86750899166, -2226.2560994930386, -11580.327043572313, -26499.311804689387, -13256.462008531335, -26734.027473214566, -0.05, 1.0, 0.17200000000000001, 192.0, 0.0, 0.0, 0.0, 0.0, 0.0, 0.0, 0.0, 0.0, 0.0, 1.69532523399612E9, 0.0, 2023-09-21 14:40:33.996
216.0, 43679.82371804997, 26044.520860257253, -6293.96066593655, -14828.974286195551, -21683.62846179348, -16191.894256102356, -187500.02235174447, -31495.865463717637, 31087.744961708184, 18241.99625754312, -18829.86948846215, -2197.3329421678714, -11563.00444161945, -26495.221435454067, -13244.123845592005, -26715.252007872106, -0.05, 1.0, 0.17200000000000001, 192.0, 0.0, 0.0, 0.0, 0.0, 0.0, 0.0, 0.0, 0.0, 0.0, 1.695325233996123E9, 0.0, 2023-09-21 14:40:33.996
218.0, 43677.56619185999, 26039.49171775481, -6292.843078713784, -14832.997600197506, -21691.85390375303, -16194.598817181448, -187500.02235174447, -31498.61472828564, 31086.29209831859, 18241.07983602045, -18830.651799518088, -2237.208454276139, -11566.446610265566, -26493.18742670863, -13241.531043235189, -26717.755403251103, -0.048, 0.982, 0.176, 192.0, 127.0, 64.0, 15.0, 88.0, 2.5, 64.0, 0.0, 0.0, 0.0, 1.695325233996126E9, 0.0, 2023-09-21 14:40:33.996
220.0, 43673.11819471338, 26035.848383408593, -6299.392139839189, -14835.858623487786, -21696.212493921816, -16202.868962629911, -187500.02235174447, -31508.1365714236, 31082.693467461286, 18239.023475530565, -18833.691636764008, -2192.795538043444, -11569.106467855749, -26494.282662186943, -13245.263784559225, -26715.117897405376, -0.048, 0.982, 0.176, 192.0, 0.0, 0.0, 0.0, 0.0, 0.0, 0.0, 0.0, 0.0, 0.0, 1.695325233996129E9, 0.0, 2023-09-21 14:40:33.996
222.0, 43672.872325524375, 26034.127299085536, -6296.329950848813, -14835.79156825442, -21700.280511412682, -16206.53464872058, -187500.02235174447, -31512.450458103474, 31078.67015345933, 18233.79316732802, -18834.429244331033, -2229.385343716782, -11576.706060970553, -26502.463400657583, -13245.28613630368, -26719.923522463265, -0.048, 0.982, 0.176, 192.0, 0.0, 0.0, 0.0, 0.0, 0.0, 0.0, 0.0, 0.0, 0.0, 1.695325233996132E9, 0.0, 2023-09-21 14:40:33.996
224.0, 43679.26492443859, 26042.15157534499, -6296.508764804455, -14829.667190273667, -21696.637177066466, -16197.213971282717, -187500.02235174447, -31502.928614965513, 31085.800359940575, 18238.46468191918, -18826.53907853831, -2189.1298519527736, -11570.156999845149, -26497.30014768841, -13244.369714781013, -26715.05084217201, -0.048, 0.982, 0.176, 192.0, 0.0, 0.0, 0.0, 0.0, 0.0, 0.0, 0.0, 0.0, 0.0, 1.695325233996135E9, 0.0, 2023-09-21 14:40:33.996
226.0, 43686.32807568647, 26049.840575437614, -6280.348453563268, -14818.446614557102, -21681.99678444824, -16192.63186366938, -187500.02235174447, -31489.115236892136, 31094.96457516725, 18249.99818205812, -18815.139688866104, -2232.313422240427, -11559.808142162341, -26485.699592316105, -13232.299772775146, -26706.400717067805, -0.048, 0.982, 0.176, 192.0, 0.0, 0.0, 0.0, 0.0, 0.0, 0.0, 0.0, 0.0, 0.0, 1.695325234055466E9, 0.0, 2023-09-21 14:40:34.055
228.0, 43675.39807264782, 26041.1457468445, -6295.05590141486, -14832.930544964142, -21693.396174120448, -16194.129430547886, -187500.02235174447, -31502.012193442846, 31088.191996597292, 18242.13036800985, -18820.72762497993, -2182.446680360637, -11565.373726531712, -26485.990164994022, -13225.683656416377, -26710.66990025877, -0.048, 0.986, 0.18, 192.0, 127.0, 64.0, 15.0, 104.0, 2.5, 80.0, 0.0, 0.0, 0.0, 1.695325234055476E9, 0.0, 2023-09-21 14:40:34.055
230.0, 43679.48844188314, 26043.135052101024, -6291.479622302011, -14826.202669883094, -21691.608034564022, -16198.868000372411, -187500.02235174447, -31503.19683589898, 31086.694429718787, 18240.163414497783, -18824.3933110706, -2221.3834192017816, -11566.357203287746, -26499.20004596711, -13234.266726287215, -26717.062499172986, -0.048, 0.986, 0.18, 192.0, 0.0, 0.0, 0.0, 0.0, 0.0, 0.0, 0.0, 0.0, 0.0, 1.69532523405548E9, 0.0, 2023-09-21 14:40:34.055
232.0, 43679.287276183044, 26043.559735245675, -6300.353264850768, -14830.22598388505, -21701.755726546733, -16203.763032408124, -187500.02235174447, -31508.561254568252, 31084.19103433979, 18242.018609287574, -18825.846174460195, -2180.3232646373826, -11569.978185889506, -26497.076630243857, -13242.872147902508, -26723.2092288982, -0.048, 0.986, 0.18, 192.0, 0.0, 0.0, 0.0, 0.0, 0.0, 0.0, 0.0, 0.0, 0.0, 1.695325234055483E9, 0.0, 2023-09-21 14:40:34.055
234.0, 43686.73040708666, 26050.48877602682, -6286.29401758838, -14825.08508266033, -21693.15030493144, -16202.53368646308, -187500.02235174447, -31508.42714410152, 31092.19295885479, 18250.244051247126, -18817.017235400348, -2220.511701168025, -11561.551578229855, -26487.91241501718, -13239.541737978667, -26720.750537008113, -0.048, 0.986, 0.18, 192.0, 0.0, 0.0, 0.0, 0.0, 0.0, 0.0, 0.0, 0.0, 0.0, 1.695325234055486E9, 0.0, 2023-09-21 14:40:34.055
236.0, 43683.422348907276, 26048.320656814656, -6292.843078713784, -14829.6001350403, -21693.619691565, -16203.092480074463, -187500.02235174447, -31511.690498791995, 31092.572938510533, 18247.405379701304, -18814.558543510266, -2185.2182966730948, -11562.892682897173, -26491.48869413003, -13234.66905768741, -26726.182010910754, -0.048, 0.986, 0.18, 192.0, 0.0, 0.0, 0.0, 0.0, 0.0, 0.0, 0.0, 0.0, 0.0, 1.695325234055489E9, 0.0, 2023-09-21 14:40:34.055
238.0, 43663.573999830965, 26028.472307738342, -6309.293962632891, -14846.676867804155, -21707.276607427193, -16220.169212838318, -187500.02235174447, -31522.53109485282, 31083.29696456158, 18239.604620886403, -18825.66736050455, -2213.5826603868795, -11569.732316700498, -26493.746220320016, -13240.972249623806, -26734.072176703477, -0.048, 0.984, 0.19, 192.0, 127.0, 64.0, 15.0, 96.0, 2.5, 120.0, 0.0, 0.0, 0.0, 1.695325234055492E9, 0.0, 2023-09-21 14:40:34.055
240.0, 43664.28925565354, 26031.020406606247, -6311.4397301006, -14844.866376503274, -21711.411680151425, -16211.004997611642, -187500.02235174447, -31517.613711072652, 31069.841214399486, 18224.405434656794, -18841.514747323366, -2182.1337559382628, -11583.322177329324, -26516.232075242053, -13256.260842831236, -26746.34328440944, -0.048, 0.984, 0.19, 192.0, 0.0, 0.0, 0.0, 0.0, 0.0, 0.0, 0.0, 0.0, 0.0, 1.695325234115264E9, 0.0, 2023-09-21 14:40:34.115
242.0, 43666.725595799166, 26034.172002574447, -6301.917886962639, -14836.372713610259, -21700.951063746343, -16205.35000626445, -187500.02235174447, -31510.99759471388, 31083.095798861483, 18240.76691159808, -18829.37775008413, -2208.3523521843376, -11567.206569577047, -26498.35067967781, -13242.04513335766, -26726.830211499957, -0.048, 0.984, 0.19, 192.0, 0.0, 0.0, 0.0, 0.0, 0.0, 0.0, 0.0, 0.0, 0.0, 1.695325234115275E9, 0.0, 2023-09-21 14:40:34.115
244.0, 43671.48651736815, 26035.37899677503, -6299.146270650181, -14834.629277542745, -21701.196932935352, -16197.39278523836, -187500.02235174447, -31507.600129556675, 31080.48064476021, 18240.56574589798, -18831.47881406293, -2192.124985709785, -11567.966528888528, -26491.77926680795, -13237.910060633429, -26725.80203125501, -0.048, 0.984, 0.19, 192.0, 0.0, 0.0, 0.0, 0.0, 0.0, 0.0, 0.0, 0.0, 0.0, 1.695325234115279E9, 0.0, 2023-09-21 14:40:34.115
246.0, 43674.66046508079, 26040.72106369985, -6298.185145638603, -14826.40383558319, -21695.229017165784, -16191.53662819107, -187500.02235174447, -31496.75953349585, 31076.39027552489, 18238.241164474628, -18834.78687224232, -2203.9714102710977, -11571.989842890483, -26495.512008131984, -13244.548528736655, -26725.28794113254, -0.048, 0.984, 0.19, 192.0, 0.0, 0.0, 0.0, 0.0, 0.0, 0.0, 0.0, 0.0, 0.0, 1.695325234115282E9, 0.0, 2023-09-21 14:40:34.115
248.0, 43683.60116286292, 26048.63358123703, -6287.858639700251, -14821.620562269756, -21686.95887171732, -16183.44529669825, -187500.02235174447, -31488.75760898085, 31089.19782509778, 18257.463664706193, -18822.67222674754, -2206.206584716628, -11560.881025896195, -26472.42265610965, -13228.589383195565, -26714.93908344973, -0.048, 0.982, 0.194, 192.0, 127.0, 64.0, 15.0, 88.0, 3.0, 8.0, 0.0, 0.0, 0.0, 1.695325234115285E9, 0.0, 2023-09-21 14:40:34.115
250.0, 43684.472880896676, 26049.3488370596, -6282.29305533088, -14815.920867433653, -21681.013307692207, -16176.695069872747, -187500.02235174447, -31477.537033264285, 31097.423267057333, 18268.818350889487, -18817.330159822723, -2213.403846431237, -11545.61478443322, -26464.688952528115, -13224.230793026782, -26707.33949033493, -0.048, 0.982, 0.194, 192.0, 0.0, 0.0, 0.0, 0.0, 0.0, 0.0, 0.0, 0.0, 0.0, 1.695325234115288E9, 0.0, 2023-09-21 14:40:34.115
252.0, 43669.430156878254, 26031.35568277308, -6297.447538071578, -14834.249297887005, -21701.10752595753, -16188.228570011684, -187500.02235174447, -31494.2337863724, 31091.321240821035, 18264.459760720703, -18825.689712249008, -2219.1035412673405, -11552.186197303081, -26472.914394487667, -13227.270630272704, -26718.940045707233, -0.048, 0.982, 0.194, 192.0, 0.0, 0.0, 0.0, 0.0, 0.0, 0.0, 0.0, 0.0, 0.0, 1.695325234115292E9, 0.0, 2023-09-21 14:40:34.115
254.0, 43667.485555110645, 26028.24879029379, -6300.420320084134, -14838.160853166683, -21704.460287625825, -16193.458878214227, -187500.02235174447, -31495.731353250907, 31082.58170873901, 18256.301373994516, -18837.178508899036, -2201.646828847746, -11560.456342751544, -26482.23507192553, -13243.229775813792, -26734.49685984813, -0.048, 0.982, 0.194, 192.0, 0.0, 0.0, 0.0, 0.0, 0.0, 0.0, 0.0, 0.0, 0.0, 1.695325234115295E9, 0.0, 2023-09-21 14:40:34.115
0.0, 43675.040444736536, 26031.53449672872, -6290.518497290433, -14836.216251399072, -21700.146400945952, -16194.285892759073, -187500.02235174447, -31495.95487069546, 31081.77704593862, 18253.730923382154, -18839.592497300207, -2214.2085092316283, -11565.284319553892, -26486.884234772235, -13247.38720028248, -26746.745615809636, -0.048, 0.982, 0.194, 192.0, 0.0, 0.0, 0.0, 0.0, 0.0, 0.0, 0.0, 0.0, 0.0, 1.695325234175587E9, 0.0, 2023-09-21 14:40:34.175
2.0, 43678.99670350512, 26032.406214762475, -6290.473793801522, -14833.534042064435, -21694.692575298857, -16187.222741511196, -187500.02235174447, -31494.27848986131, 31097.62443275743, 18270.13710381235, -18826.53907853831, -2199.7469305690447, -11549.168711801614, -26474.68018229964, -13229.684618673877, -26734.876839503868, -0.054, 0.994, 0.192, 192.0, 127.0, 40.0, 15.5, 8.0, 3.0, 0.0, 0.0, 0.0, 0.0, 1.695325234175607E9, 0.0, 2023-09-21 14:40:34.175
4.0, 43684.83050880796, 26034.95431363038, -6281.7789652084075, -14830.31539086287, -21693.016194464708, -16188.429735711783, -187500.02235174447, -31493.451475316466, 31089.689563475797, 18256.70370539471, -18836.127976909636, -2220.6905151236674, -11559.651679951154, -26490.818141796368, -13235.943107121362, -26744.845717530934, -0.054, 0.994, 0.192, 192.0, 0.0, 0.0, 0.0, 0.0, 0.0, 0.0, 0.0, 0.0, 0.0, 1.695325234175611E9, 0.0, 2023-09-21 14:40:34.175
6.0, 43692.89948855633, 26046.510165513777, -6277.778002950908, -14824.526289048945, -21687.24944439524, -16182.573578664493, -187500.02235174447, -31487.595318269174, 31105.648709016885, 18270.7629526571, -18821.554639524777, -2194.3601601553155, -11544.877176866195, -26474.52372008845, -13227.918830861907, -26733.803955770014, -0.054, 0.994, 0.192, 192.0, 0.0, 0.0, 0.0, 0.0, 0.0, 0.0, 0.0, 0.0, 0.0, 1.695325234175614E9, 0.0, 2023-09-21 14:40:34.175
8.0, 43687.73623558715, 26031.758014173272, -6288.417433311633, -14837.93733572213, -21707.522476616203, -16193.30241600304, -187500.02235174447, -31504.51558882184, 31094.696354233787, 18258.737714140145, -18833.468119319456, -2225.451436692648, -11558.735258428485, -26486.9512900056, -13239.966421123318, -26748.153775710318, -0.054, 0.994, 0.192, 192.0, 0.0, 0.0, 0.0, 0.0, 0.0, 0.0, 0.0, 0.0, 0.0, 1.695325234175617E9, 0.0, 2023-09-21 14:40:34.175
10.0, 43710.490311442656, 26054.467386539865, -6267.116220845726, -14818.446614557102, -21683.024964693184, -16179.667851885302, -187500.02235174447, -31483.683762989494, 31109.11322940746, 18269.690068923246, -18822.20284011398, -2196.349465411838, -11548.274642023402, -26465.2477461395, -13235.652534443443, -26739.727168050667, -0.054, 0.994, 0.192, 192.0, 0.0, 0.0, 0.0, 0.0, 0.0, 0.0, 0.0, 0.0, 0.0, 1.695325234175621E9, 0.0, 2023-09-21 14:40:34.175
12.0, 43707.808102108014, 26052.92511617245, -6258.488447485977, -14818.446614557102, -21679.09105766905, -16182.193599008751, -187500.02235174447, -31487.12593163561, 31114.58940679901, 18268.818350889487, -18816.704310977973, -2245.7468206580666, -11536.495272695456, -26476.89300500071, -13217.18999352336, -26731.412319113293, -0.06, 0.992, 0.194, 192.0, 127.0, 16.0, 15.5, 0.0, 3.0, 8.0, 0.0, 0.0, 0.0, 1.695325234175624E9, 0.0, 2023-09-21 14:40:34.175
14.0, 43694.330000201466, 26039.2458485658, -6280.90724717465, -14835.36688510977, -21694.73727878777, -16193.883561358878, -187500.02235174447, -31498.43591433, 31099.658441502863, 18256.815464116986, -18830.227116373437, -2202.987933515064, -11552.029735091894, -26482.86092077028, -13230.936316363373, -26746.030359987064, -0.06, 0.992, 0.194, 192.0, 0.0, 0.0, 0.0, 0.0, 0.0, 0.0, 0.0, 0.0, 0.0, 1.695325234235782E9, 0.0, 2023-09-21 14:40:34.235
16.0, 43703.7177328727, 26041.59278173361, -6273.285302315391, -14831.902364719197, -21690.0210607077, -16185.814581610512, -187500.02235174447, -31496.1336846511, 31099.703144991774, 18253.03801930404, -18832.663456519065, -2247.6914224256784, -11551.694458925065, -26484.112618459778, -13236.658362943932, -26747.706740821213, -0.06, 0.992, 0.194, 192.0, 0.0, 0.0, 0.0, 0.0, 0.0, 0.0, 0.0, 0.0, 0.0, 1.695325234235794E9, 0.0, 2023-09-21 14:40:34.235
18.0, 43694.262944968104, 26031.132165328523, -6284.707043732053, -14842.22887065755, -21697.888874755965, -16191.804849124534, -187500.02235174447, -31503.018021943335, 31093.019973399638, 18242.33153370995, -18839.704256022484, -2208.1958899731508, -11561.059839851838, -26490.77343830746, -13237.686543188876, -26753.20526995722, -0.06, 0.992, 0.194, 192.0, 0.0, 0.0, 0.0, 0.0, 0.0, 0.0, 0.0, 0.0, 0.0, 1.695325234235797E9, 0.0, 2023-09-21 14:40:34.235
20.0, 43714.02188706659, 26048.879450426037, -6266.333909789791, -14826.873222216753, -21685.10367692753, -16180.405459452328, -187500.02235174447, -31489.3834578256, 31103.569996782542, 18249.238222746637, -18830.540040795808, -2260.1636958317395, -11551.448589736056, -26478.547034090407, -13234.713761176321, -26745.71743556469, -0.06, 0.992, 0.194, 192.0, 0.0, 0.0, 0.0, 0.0, 0.0, 0.0, 0.0, 0.0, 0.0, 1.6953252342358E9, 0.0, 2023-09-21 14:40:34.235
22.0, 43697.79452059204, 26031.847421151095, -6290.049110656872, -14848.107379449295, -21705.24259868176, -16207.49577373216, -187500.02235174447, -31510.036469702303, 31098.80907521356, 18240.968077298174, -18835.01038968687, -2225.7196576261113, -11555.38249676019, -26489.499388873504, -13238.37944726699, -26749.47252863318, -0.052000000000000005, 0.99, 0.192, 192.0, 127.0, 48.0, 15.0, 120.0, 3.0, 0.0, 0.0, 0.0, 0.0, 1.695325234235804E9, 0.0, 2023-09-21 14:40:34.235
24.0, 43704.45534043972, 26039.87169741055, -6274.805220938351, -14837.445597344113, -21695.743107288257, -16194.978796837187, -187500.02235174447, -31497.273623618323, 31091.25418558767, 18234.17314698376, -18841.15711941208, -2263.82938192241, -11565.396078276168, -26494.77440056496, -13242.022781613206, -26752.355903667918, -0.052000000000000005, 0.99, 0.192, 192.0, 0.0, 0.0, 0.0, 0.0, 0.0, 0.0, 0.0, 0.0, 0.0, 1.695325234235807E9, 0.0, 2023-09-21 14:40:34.235
26.0, 43704.1647677618, 26039.53642124372, -6280.460212285544, -14840.060751445384, -21698.537075345168, -16191.44722121325, -187500.02235174447, -31494.166731139034, 31094.003450155673, 18234.307257450495, -18839.816014744763, -2228.603032660846, -11563.853807908752, -26489.700554573603, -13240.659325201432, -26746.745615809636, -0.052000000000000005, 0.99, 0.192, 192.0, 0.0, 0.0, 0.0, 0.0, 0.0, 0.0, 0.0, 0.0, 0.0, 1.69532523423581E9, 0.0, 2023-09-21 14:40:34.235
28.0, 43712.77018937709, 26049.885278926526, -6263.4281830106, -14826.336780349826, -21684.746049016245, -16181.478343186182, -187500.02235174447, -31490.94807993747, 31097.333860079514, 18241.526870909558, -18834.697465264497, -2268.7467657025772, -11559.249348550959, -26476.58008057834, -13234.624354198499, -26739.950685495223, -0.052000000000000005, 0.99, 0.192, 192.0, 0.0, 0.0, 0.0, 0.0, 0.0, 0.0, 0.0, 0.0, 0.0, 1.695325234235813E9, 0.0, 2023-09-21 14:40:34.235
30.0, 43710.892642842846, 26048.499470770297, -6264.478715, -14828.08021641734, -21690.19987466334, -16183.892331587354, -187500.02235174447, -31493.496178805373, 31108.66619451835, 18252.792150115034, -18822.292247091802, -2246.797352647466, -11549.012249590427, -26471.349772375797, -13211.75851962072, -26724.9079614768, -0.052000000000000005, 0.99, 0.192, 192.0, 0.0, 0.0, 0.0, 0.0, 0.0, 0.0, 0.0, 0.0, 0.0, 1.695325234295387E9, 0.0, 2023-09-21 14:40:34.295
32.0, 43691.69249435574, 26026.795926904193, -6288.752709478464, -14856.154007453206, -21718.38542442148, -16209.574485966503, -187500.02235174447, -31518.731298295417, 31086.269746574137, 18228.585210869936, -18846.029799703338, -2265.729280201111, -11567.899473655161, -26496.562540121384, -13244.459121758835, -26751.417130400794, -0.052000000000000005, 0.99, 0.192, 192.0, 127.0, 48.0, 15.0, 120.0, 3.0, 0.0, 0.0, 0.0, 0.0, 1.695325234295397E9, 0.0, 2023-09-21 14:40:34.295
34.0, 43702.24251773865, 26035.20018281939, -6285.95874142155, -14842.385332868736, -21710.271741184206, -16197.973930594198, -187500.02235174447, -31505.074382433224, 31073.372790023423, 18215.308274663483, -18858.21150043148, -2234.280375752494, -11581.846962195274, -26508.699537360615, -13256.05967713114, -26762.905927050822, -0.052000000000000005, 0.99, 0.192, 192.0, 0.0, 0.0, 0.0, 0.0, 0.0, 0.0, 0.0, 0.0, 0.0, 1.6953252342954E9, 0.0, 2023-09-21 14:40:34.295
36.0, 43714.178349277776, 26051.986342905326, -6265.23867431148, -14821.5982105253, -21695.96662473281, -16181.05366004153, -187500.02235174447, -31490.65750725955, 31094.04815364458, 18241.772740098564, -18831.05413091828, -2263.248236566572, -11558.95877587304, -26478.256461412486, -13231.4727582303, -26728.752461523112, -0.052000000000000005, 0.99, 0.192, 192.0, 0.0, 0.0, 0.0, 0.0, 0.0, 0.0, 0.0, 0.0, 0.0, 1.695325234295403E9, 0.0, 2023-09-21 14:40:34.295
38.0, 43717.75462839063, 26061.68699999893, -6263.718755688519, -14818.916001190664, -21697.77711603369, -16181.612453652913, -187500.02235174447, -31488.601146769663, 31094.025801900127, 18241.728036609657, -18827.120223894148, -2246.4173729917256, -11561.95390963005, -26478.837606768324, -13224.81193838262, -26728.10426093391, -0.052000000000000005, 0.99, 0.192, 192.0, 0.0, 0.0, 0.0, 0.0, 0.0, 0.0, 0.0, 0.0, 0.0, 1.695325234295407E9, 0.0, 2023-09-21 14:40:34.295
40.0, 43718.40282897983, 26069.152482647, -6261.729450431997, -14814.870335444253, -21699.25233116774, -16178.997299551644, -187500.02235174447, -31490.210472370443, 31098.607909513466, 18257.262499006094, -18815.407909799567, -2252.184123061195, -11556.455380494044, -26463.683124027626, -13225.035455827172, -26719.968225952176, -0.052000000000000005, 0.99, 0.192, 192.0, 0.0, 0.0, 0.0, 0.0, 0.0, 0.0, 0.0, 0.0, 0.0, 1.69532523429541E9, 0.0, 2023-09-21 14:40:34.295
42.0, 43724.90718661633, 26078.294346129223, -6254.509836972933, -14806.89076267371, -21694.62552006549, -16168.62609012438, -187500.02235174447, -31480.308649576742, 31090.337764065, 18252.05454254801, -18819.118299379148, -2239.8459601218656, -11564.993746875973, -26474.210795666077, -13224.722531404797, -26721.71166201969, -0.052000000000000005, 0.99, 0.194, 192.0, 127.0, 48.0, 15.0, 120.0, 3.0, 8.0, 0.0, 0.0, 0.0, 1.695325234295413E9, 0.0, 2023-09-21 14:40:34.295
44.0, 43735.5242652326, 26091.861855013594, -6244.138627545671, -14794.910227645663, -21681.95208095933, -16162.613470865903, -187500.02235174447, -31472.820815184215, 31103.413534571355, 18271.880539879865, -18802.823877671228, -2231.732276884589, -11549.213415290526, -26458.542222802906, -13210.238600997758, -26706.04308915652, -0.052000000000000005, 0.99, 0.194, 192.0, 0.0, 0.0, 0.0, 0.0, 0.0, 0.0, 0.0, 0.0, 0.0, 1.695325234357012E9, 0.0, 2023-09-21 14:40:34.357
46.0, 43726.337698261465, 26077.847311240115, -6260.030717853394, -14815.429129055636, -21701.91218875792, -16177.34327046195, -187500.02235174447, -31490.18812062599, 31097.222101357234, 18262.671621164278, -18812.189258598002, -2236.6273089203014, -11558.511740983933, -26457.022304179944, -13220.319237747102, -26718.582417795948, -0.052000000000000005, 0.99, 0.194, 192.0, 0.0, 0.0, 0.0, 0.0, 0.0, 0.0, 0.0, 0.0, 0.0, 1.695325234357024E9, 0.0, 2023-09-21 14:40:34.357
48.0, 43738.295881545055, 26091.59363408013, -6244.630365923687, -14795.44666951259, -21682.95790945982, -16165.273328456084, -187500.02235174447, -31476.03946638578, 31100.351345580977, 18267.6113566889, -18810.91520916405, -2219.1258930117956, -11554.890758382173, -26459.749217003493, -13222.196784281348, -26718.67182477377, -0.052000000000000005, 0.99, 0.194, 192.0, 0.0, 0.0, 0.0, 0.0, 0.0, 0.0, 0.0, 0.0, 0.0, 1.695325234357028E9, 0.0, 2023-09-21 14:40:34.357
50.0, 43717.821683623995, 26071.119436159068, -6260.7683254204185, -14815.987922667018, -21708.170677205406, -16191.179000279786, -187500.02235174447, -31500.112295164145, 31097.691487990796, 18264.683278165256, -18811.16107835306, -2237.454323465148, -11555.404848504646, -26465.404208350687, -13212.026740554184, -26714.201475882706, -0.052000000000000005, 0.99, 0.194, 192.0, 0.0, 0.0, 0.0, 0.0, 0.0, 0.0, 0.0, 0.0, 0.0, 1.695325234357033E9, 0.0, 2023-09-21 14:40:34.357
52.0, 43731.858579141925, 26088.151465434014, -6250.8441508822625, -14801.16871609315, -21690.95983397482, -16175.666889627802, -187500.02235174447, -31485.203681612456, 31104.173493882838, 18270.919414868287, -18804.5896654832, -2212.5991836308463, -11550.733333913486, -26457.782263491426, -13218.084063301572, -26712.793315982024, -0.054, 0.996, 0.19, 192.0, 127.0, 40.0, 15.5, 16.0, 2.5, 120.0, 0.0, 0.0, 0.0, 1.695325234357051E9, 0.0, 2023-09-21 14:40:34.357
54.0, 43711.85376785443, 26065.330334345144, -6269.373747035712, -14825.152137893694, -21712.484563885282, -16196.409308482327, -187500.02235174447, -31511.668147047538, 31081.598231982975, 18250.020533802573, -18826.606133771675, -2232.1122565403293, -11571.743973701476, -26477.72001954556, -13231.673923930399, -26734.787432526045, -0.054, 0.996, 0.19, 192.0, 0.0, 0.0, 0.0, 0.0, 0.0, 0.0, 0.0, 0.0, 0.0, 1.695325234357055E9, 0.0, 2023-09-21 14:40:34.357
56.0, 43719.922747602795, 26073.73459026034, -6271.251293569958, -14820.726492491543, -21711.434031895882, -16188.809715367523, -187500.02235174447, -31505.834341744703, 31081.844101171984, 18244.723170366666, -18828.77425298384, -2195.0307124889746, -11574.157962102649, -26480.24576666901, -13240.391104267968, -26738.833098272455, -0.054, 0.996, 0.19, 192.0, 0.0, 0.0, 0.0, 0.0, 0.0, 0.0, 0.0, 0.0, 0.0, 1.695325234357058E9, 0.0, 2023-09-21 14:40:34.357
58.0, 43726.87414012839, 26078.83078799615, -6256.074459084804, -14815.719701733555, -21707.81304929412, -16179.466686185204, -187500.02235174447, -31497.273623618323, 31091.72357222123, 18252.322763481472, -18816.927828422526, -2236.4261432202034, -11566.401906776657, -26469.673391541648, -13242.983906624784, -26728.14896442282, -0.054, 0.996, 0.19, 192.0, 0.0, 0.0, 0.0, 0.0, 0.0, 0.0, 0.0, 0.0, 0.0, 1.695325234357062E9, 0.0, 2023-09-21 14:40:34.357
60.0, 43720.816817381005, 26077.221462395366, -6263.4058312661455, -14817.865469201264, -21704.125011458997, -16188.317976989507, -187500.02235174447, -31502.213359142945, 31085.934470407305, 18247.964173312685, -18822.761633725364, -2190.4486048756366, -11567.541845743877, -26470.075722941845, -13235.272554787703, -26728.998330712122, -0.054, 0.996, 0.19, 192.0, 0.0, 0.0, 0.0, 0.0, 0.0, 0.0, 0.0, 0.0, 0.0, 1.695325234415962E9, 0.0, 2023-09-21 14:40:34.415
62.0, 43725.644794183354, 26086.318622388677, -6257.013232351927, -14813.88685868822, -21706.38253764898, -16187.602721166937, -187500.02235174447, -31502.593338798684, 31099.81490371405, 18262.984545586653, -18810.021139385837, -2236.448494964659, -11555.874235138206, -26454.921240201147, -13226.935354105874, -26721.398737597316, -0.052000000000000005, 0.996, 0.19, 192.0, 127.0, 48.0, 15.5, 16.0, 2.5, 120.0, 0.0, 0.0, 0.0, 1.695325234415972E9, 0.0, 2023-09-21 14:40:34.415
64.0, 43722.09086681496, 26085.044572954725, -6266.132744089693, -14817.55254477889, -21706.337834160073, -16181.098363530442, -187500.02235174447, -31503.219187643434, 31084.280441317613, 18248.74648436862, -18825.019159915348, -2185.8441455178436, -11570.201703334058, -26475.1495689332, -13239.854662401041, -26737.00025522712, -0.052000000000000005, 0.996, 0.19, 192.0, 0.0, 0.0, 0.0, 0.0, 0.0, 0.0, 0.0, 0.0, 0.0, 1.695325234415976E9, 0.0, 2023-09-21 14:40:34.415
66.0, 43723.78959939356, 26083.412895609486, -6261.304767287346, -14817.038454656418, -21707.701290571844, -16186.887465344367, -187500.02235174447, -31503.733277765907, 31095.568072267542, 18257.597775172922, -18815.609075499666, -2235.0626868084296, -11562.423296263612, -26460.643286781706, -13237.127749577494, -26730.808822013, -0.052000000000000005, 0.996, 0.19, 192.0, 0.0, 0.0, 0.0, 0.0, 0.0, 0.0, 0.0, 0.0, 0.0, 1.695325234415979E9, 0.0, 2023-09-21 14:40:34.415
68.0, 43720.90622435883, 26080.417761852477, -6268.569084235321, -14821.97819018104, -21713.758613319234, -16197.593950938459, -187500.02235174447, -31508.315385379243, 31092.10355187697, 18251.160472769796, -18818.425395301034, -2190.269790919994, -11561.640985207676, -26470.075722941845, -13240.011124612229, -26738.497822105626, -0.052000000000000005, 0.996, 0.19, 192.0, 0.0, 0.0, 0.0, 0.0, 0.0, 0.0, 0.0, 0.0, 0.0, 1.695325234415983E9, 0.0, 2023-09-21 14:40:34.415
70.0, 43726.80708489503, 26089.850198012617, -6256.454438740545, -14815.987922667018, -21714.339758675073, -16194.39765148135, -187500.02235174447, -31505.320251622234, 31089.846025686984, 18245.885461078342, -18818.91713367905, -2229.7876751169774, -11565.5301887429, -26478.77055153496, -13249.33180205009, -26745.38215939786, -0.052000000000000005, 0.996, 0.19, 192.0, 0.0, 0.0, 0.0, 0.0, 0.0, 0.0, 0.0, 0.0, 0.0, 1.695325234415986E9, 0.0, 2023-09-21 14:40:34.415
72.0, 43727.07530582849, 26094.342898648134, -6256.923825374106, -14812.590457509812, -21711.881066784987, -16188.720308389702, -187500.02235174447, -31497.85476897416, 31105.224025872234, 18260.570557185478, -18802.95798813796, -2193.488442121559, -11550.554519957843, -26462.72199901605, -13237.463025744322, -26734.116880192385, -0.052000000000000005, 0.992, 0.192, 192.0, 127.0, 48.0, 15.5, 0.0, 3.0, 0.0, 0.0, 0.0, 0.0, 1.69532523441599E9, 0.0, 2023-09-21 14:40:34.415
74.0, 43731.21037855272, 26098.522674861277, -6233.94623207405, -14802.509820760468, -21690.62455780799, -16181.903026330832, -187500.02235174447, -31490.478693303907, 31108.82265672954, 18263.543339198033, -18800.566351481244, -2235.800294375455, -11543.312554754324, -26457.80461523588, -13225.683656416377, -26727.076080688967, -0.052000000000000005, 0.992, 0.192, 192.0, 0.0, 0.0, 0.0, 0.0, 0.0, 0.0, 0.0, 0.0, 0.0, 1.695325234476266E9, 0.0, 2023-09-21 14:40:34.476
76.0, 43728.729334918185, 26091.660689313496, -6239.422409465601, -14807.40485279618, -21697.95592998933, -16184.96521532121, -187500.02235174447, -31498.882949219103, 31103.435886315812, 18254.66969664928, -18804.5896654832, -2202.2056224591283, -11544.631307677188, -26461.09032167081, -13210.462118442312, -26725.44440334373, -0.052000000000000005, 0.992, 0.192, 192.0, 0.0, 0.0, 0.0, 0.0, 0.0, 0.0, 0.0, 0.0, 0.0, 1.695325234476278E9, 0.0, 2023-09-21 14:40:34.476
78.0, 43729.73516341867, 26088.844369512128, -6242.8645781117175, -14809.662378986166, -21704.125011458997, -16189.68143340128, -187500.02235174447, -31500.08994341969, 31103.927624693828, 18256.927222839266, -18803.807354427263, -2232.4028292182484, -11546.575909444799, -26462.453778082585, -13224.431958726878, -26726.874914988868, -0.052000000000000005, 0.992, 0.192, 192.0, 0.0, 0.0, 0.0, 0.0, 0.0, 0.0, 0.0, 0.0, 0.0, 1.695325234476281E9, 0.0, 2023-09-21 14:40:34.476
80.0, 43717.97814583518, 26074.472197827363, -6257.95200561905, -14821.911134947675, -21715.7255668313, -16201.72902366269, -187500.02235174447, -31507.600129556675, 31095.948051923282, 18246.04192328953, -18813.217438842945, -2195.9024305227317, -11558.020002605916, -26472.646173554203, -13229.483452973778, -26735.994426726633, -0.052000000000000005, 0.992, 0.192, 192.0, 0.0, 0.0, 0.0, 0.0, 0.0, 0.0, 0.0, 0.0, 0.0, 1.695325234476284E9, 0.0, 2023-09-21 14:40:34.476
82.0, 43744.48731475918, 26101.338994662645, -6230.99580180595, -14794.753765434476, -21684.902511227432, -16172.112962259409, -187500.02235174447, -31481.202719354955, 31104.95580493877, 18254.401475715815, -18805.32727305022, -2220.1987767456503, -11547.492330967467, -26463.39255134971, -13228.254107028737, -26724.662092287792, -0.05, 0.99, 0.192, 192.0, 127.0, 56.0, 15.0, 120.0, 3.0, 0.0, 0.0, 0.0, 0.0, 1.695325234476288E9, 0.0, 2023-09-21 14:40:34.476
84.0, 43732.84205589796, 26087.056229955702, -6238.908319343129, -14809.327102819338, -21692.47975259778, -16178.505561173626, -187500.02235174447, -31492.512702049342, 31113.807095743075, 18261.643440919335, -18794.307863033755, -2209.380532429282, -11538.28341225188, -26455.167109390153, -13207.914019574408, -26713.352109593405, -0.05, 0.99, 0.192, 192.0, 0.0, 0.0, 0.0, 0.0, 0.0, 0.0, 0.0, 0.0, 0.0, 1.695325234476291E9, 0.0, 2023-09-21 14:40:34.476
86.0, 43746.051936871045, 26103.84239004164, -6226.883080826174, -14795.245503812494, -21671.67027850989, -16164.692183100247, -187500.02235174447, -31473.871347173616, 31105.045211916593, 18252.814501859488, -18805.59549398369, -2218.254174978039, -11543.267851265413, -26458.631629780728, -13215.647723155944, -26722.851600986913, -0.05, 0.99, 0.192, 192.0, 0.0, 0.0, 0.0, 0.0, 0.0, 0.0, 0.0, 0.0, 0.0, 1.695325234476294E9, 0.0, 2023-09-21 14:40:34.476
88.0, 43728.97520410719, 26086.02804971076, -6237.388400720168, -14812.903381932187, -21687.070630439597, -16177.991471051155, -187500.02235174447, -31489.85284445916, 31123.418345858856, 18269.265385778595, -18788.786982153295, -2218.634154633779, -11526.057008034828, -26436.8386789368, -13196.13465024646, -26705.506647289592, -0.05, 0.99, 0.192, 192.0, 0.0, 0.0, 0.0, 0.0, 0.0, 0.0, 0.0, 0.0, 0.0, 1.695325234476297E9, 0.0, 2023-09-21 14:40:34.476
90.0, 43724.48250347168, 26083.323488631668, -6236.069647797304, -14809.93059991963, -21682.24265363725, -16173.297604715539, -187500.02235174447, -31483.147321122568, 31096.842121701495, 18236.43067317375, -18818.403043556576, -2212.15214874174, -11551.873272880706, -26484.045563226413, -13225.884822116474, -26732.48520284715, -0.05, 0.99, 0.192, 192.0, 0.0, 0.0, 0.0, 0.0, 0.0, 0.0, 0.0, 0.0, 0.0, 1.695325234536407E9, 0.0, 2023-09-21 14:40:34.536
92.0, 43719.36395399141, 26080.3060031302, -6242.305784500335, -14818.98305642403, -21691.138647930464, -16185.725174632691, -187500.02235174447, -31492.579757282707, 31107.794476484596, 18251.406341958802, -18808.25535157387, -2224.9596983146307, -11533.589545916266, -26460.03978968141, -13205.857659084519, -26718.42595558476, -0.052000000000000005, 0.994, 0.192, 192.0, 127.0, 48.0, 15.5, 8.0, 3.0, 0.0, 0.0, 0.0, 0.0, 1.695325234536417E9, 0.0, 2023-09-21 14:40:34.536
94.0, 43701.50491017162, 26063.20691862189, -6259.091944586271, -14831.74590250801, -21705.175543448397, -16198.420965483305, -187500.02235174447, -31505.253196388865, 31095.52336877863, 18237.101225507406, -18823.85686920367, -2211.9062795527316, -11551.4262379916, -26475.03781021092, -13228.857604129029, -26738.05078721652, -0.052000000000000005, 0.994, 0.192, 192.0, 0.0, 0.0, 0.0, 0.0, 0.0, 0.0, 0.0, 0.0, 0.0, 1.69532523453642E9, 0.0, 2023-09-21 14:40:34.536
96.0, 43701.75077936063, 26061.30702034319, -6255.202741051047, -14834.048132186907, -21700.884008512978, -16200.58908469547, -187500.02235174447, -31505.320251622234, 31081.687638960797, 18218.057539231486, -18836.083273420725, -2219.282355222983, -11562.646813708165, -26489.00765049549, -13231.942144863862, -26748.556107110515, -0.052000000000000005, 0.994, 0.192, 192.0, 0.0, 0.0, 0.0, 0.0, 0.0, 0.0, 0.0, 0.0, 0.0, 1.695325234536423E9, 0.0, 2023-09-21 14:40:34.536
98.0, 43707.204605007726, 26064.77154073376, -6255.090982328771, -14829.331914106837, -21699.87818001249, -16198.8232968835, -187500.02235174447, -31503.353298110163, 31092.2376623437, 18226.014760257574, -18827.16492738306, -2203.859651548821, -11554.577833959798, -26479.66462131317, -13228.231755284281, -26742.29761866303, -0.052000000000000005, 0.994, 0.192, 192.0, 0.0, 0.0, 0.0, 0.0, 0.0, 0.0, 0.0, 0.0, 0.0, 1.695325234536426E9, 0.0, 2023-09-21 14:40:34.536
100.0, 43685.67987509726, 26043.760900945774, -6272.793563937374, -14848.710876549589, -21724.800375080154, -16218.381073281895, -187500.02235174447, -31526.666167577052, 31080.659458715854, 18211.687292061724, -18837.558488554776, -2227.954832071642, -11567.363031788234, -26494.707345331593, -13241.66515370192, -26754.63578160236, -0.052000000000000005, 0.994, 0.192, 192.0, 0.0, 0.0, 0.0, 0.0, 0.0, 0.0, 0.0, 0.0, 0.0, 1.695325234536429E9, 0.0, 2023-09-21 14:40:34.536
102.0, 43689.65848561031, 26049.885278926526, -6273.397061037667, -14843.592327069322, -21719.14538373296, -16213.709558690734, -187500.02235174447, -31518.440725617496, 31073.708066190255, 18205.294693147505, -18844.375770613646, -2195.6789130781785, -11576.571950503821, -26500.116467489777, -13255.992621897773, -26761.855395061422, -0.052000000000000005, 0.998, 0.192, 192.0, 127.0, 48.0, 15.5, 24.0, 3.0, 0.0, 0.0, 0.0, 0.0, 1.695325234536433E9, 0.0, 2023-09-21 14:40:34.536
104.0, 43697.45924442521, 26056.121415629557, -6256.6556044406425, -14836.08214093234, -21707.745994060755, -16211.139108078374, -187500.02235174447, -31516.227902916424, 31077.53021449211, 18204.98176872513, -18836.195032143, -2225.5184919260137, -11572.414526035134, -26499.848246556314, -13238.491205989267, -26754.792243813547, -0.052000000000000005, 0.998, 0.192, 192.0, 0.0, 0.0, 0.0, 0.0, 0.0, 0.0, 0.0, 0.0, 0.0, 1.695325234595351E9, 0.0, 2023-09-21 14:40:34.595
106.0, 43700.45437818222, 26061.217613365367, -6255.00157535095, -14830.047169929407, -21703.7226800588, -16195.291721259562, -187500.02235174447, -31510.125876680122, 31090.650688487374, 18218.03518748703, -18821.599343013688, -2196.0141892450083, -11558.064706094827, -26482.011554480978, -13220.766272636209, -26739.213077928198, -0.052000000000000005, 0.998, 0.192, 192.0, 0.0, 0.0, 0.0, 0.0, 0.0, 0.0, 0.0, 0.0, 0.0, 1.695325234595369E9, 0.0, 2023-09-21 14:40:34.595
108.0, 43712.41256146581, 26073.39931409351, -6241.277604255391, -14819.474794802047, -21695.47488635479, -16190.664910157313, -187500.02235174447, -31497.273623618323, 31091.00831639866, 18222.997274756108, -18821.86756394715, -2238.3260414989045, -11556.723601427508, -26468.645211296705, -13221.95091509234, -26735.323874392972, -0.052000000000000005, 0.998, 0.192, 192.0, 0.0, 0.0, 0.0, 0.0, 0.0, 0.0, 0.0, 0.0, 0.0, 1.695325234595373E9, 0.0, 2023-09-21 14:40:34.595
110.0, 43692.18423273376, 26056.479043540843, -6259.76249691993, -14832.818786241865, -21709.91411327292, -16213.955427879744, -187500.02235174447, -31516.71964129444, 31086.62737448542, 18214.45890837418, -18829.19893612849, -2198.9199160241983, -11561.439819507577, -26499.803543067403, -13228.768197151208, -26742.208211685207, -0.052000000000000005, 0.998, 0.192, 192.0, 0.0, 0.0, 0.0, 0.0, 0.0, 0.0, 0.0, 0.0, 0.0, 1.695325234595377E9, 0.0, 2023-09-21 14:40:34.595
112.0, 43716.03354406757, 26080.171892663468, -6231.37578146169, -14806.60018999579, -21687.16003741742, -16179.332575718472, -187500.02235174447, -31492.557405538253, 31098.339688580003, 18225.7018358352, -18818.268933089847, -2244.472771224114, -11549.459284479533, -26476.53537708943, -13215.535964433666, -26731.725243535668, -0.056, 0.998, 0.188, 192.0, 127.0, 32.0, 15.5, 24.0, 2.5, 112.0, 0.0, 0.0, 0.0, 1.69532523459538E9, 0.0, 2023-09-21 14:40:34.595
114.0, 43701.8625380829, 26067.20788087939, -6245.725601401998, -14818.98305642403, -21697.285377655673, -16193.816506125511, -187500.02235174447, -31501.252234131367, 31095.92570017883, 18226.46179514668, -18817.643084245097, -2204.261982949017, -11552.633232192187, -26470.589813064315, -13218.218173768304, -26731.837002257944, -0.056, 0.998, 0.188, 192.0, 0.0, 0.0, 0.0, 0.0, 0.0, 0.0, 0.0, 0.0, 0.0, 1.695325234595383E9, 0.0, 2023-09-21 14:40:34.595
116.0, 43700.1638055043, 26063.743360488817, -6245.546787446355, -14824.816861726864, -21707.50012487175, -16195.939921848765, -187500.02235174447, -31509.90235923557, 31089.041362886594, 18220.31506542147, -18822.4934127919, -2238.7283728991, -11558.221168306014, -26475.753066033492, -13220.788624380664, -26735.34622613743, -0.056, 0.998, 0.188, 192.0, 0.0, 0.0, 0.0, 0.0, 0.0, 0.0, 0.0, 0.0, 0.0, 1.695325234595386E9, 0.0, 2023-09-21 14:40:34.595
118.0, 43711.76436087661, 26076.372096106064, -6241.143493788659, -14814.378597066236, -21700.05699396813, -16191.491924702159, -187500.02235174447, -31500.134646908602, 31093.86933968894, 18223.08668173393, -18815.609075499666, -2194.6730845776897, -11555.740124671474, -26470.81333050887, -13222.040322070161, -26729.646531301325, -0.056, 0.998, 0.188, 192.0, 0.0, 0.0, 0.0, 0.0, 0.0, 0.0, 0.0, 0.0, 0.0, 1.69532523459539E9, 0.0, 2023-09-21 14:40:34.595
120.0, 43714.111294044415, 26078.562567062687, -6236.784903619874, -14815.607943011279, -21704.616749837012, -16193.39182298086, -187500.02235174447, -31503.934443466, 31098.518502535644, 18225.9030015353, -18809.551752752275, -2235.800294375455, -11554.801351404352, -26468.868728741258, -13222.95674359283, -26729.512420834595, -0.056, 0.998, 0.188, 192.0, 0.0, 0.0, 0.0, 0.0, 0.0, 0.0, 0.0, 0.0, 0.0, 1.69532523465571E9, 0.0, 2023-09-21 14:40:34.655
122.0, 43700.92376481578, 26062.96104943288, -6255.470961984511, -14830.74007400752, -21714.58562786408, -16207.004035354143, -187500.02235174447, -31520.407679129563, 31091.030668143118, 18212.447251373203, -18818.067767389748, -2188.347540896838, -11564.747877686963, -26482.637403325727, -13227.918830861907, -26741.604714584915, -0.054, 0.992, 0.184, 192.0, 127.0, 40.0, 15.5, 0.0, 2.5, 96.0, 0.0, 0.0, 0.0, 1.69532523465572E9, 0.0, 2023-09-21 14:40:34.655
124.0, 43713.99953532214, 26078.96489846288, -6241.031735066383, -14814.736224977521, -21701.196932935352, -16197.213971282717, -187500.02235174447, -31506.974280711926, 31092.550586766076, 18214.23539092963, -18817.799546456285, -2227.5972041603573, -11562.892682897173, -26480.268118413464, -13230.645743685454, -26741.180031440264, -0.054, 0.992, 0.184, 192.0, 0.0, 0.0, 0.0, 0.0, 0.0, 0.0, 0.0, 0.0, 0.0, 1.695325234655723E9, 0.0, 2023-09-21 14:40:34.655
126.0, 43727.00825059513, 26093.314718403188, -6235.197929763548, -14804.186201594615, -21696.279549155184, -16192.274235758096, -187500.02235174447, -31496.223091628923, 31103.10061014898, 18225.9030015353, -18808.23299982941, -2200.4845381360697, -11549.57104320181, -26465.091283928312, -13219.179298779882, -26730.674711546268, -0.054, 0.992, 0.184, 192.0, 0.0, 0.0, 0.0, 0.0, 0.0, 0.0, 0.0, 0.0, 0.0, 1.695325234655726E9, 0.0, 2023-09-21 14:40:34.655
128.0, 43724.3707447494, 26091.906558502506, -6233.767418118408, -14809.88589643072, -21703.745031803257, -16193.637692169868, -187500.02235174447, -31500.402867842065, 31114.030613187628, 18237.7047226077, -18793.503200233365, -2231.352297228849, -11543.401961732145, -26447.656923253173, -13204.76242360621, -26720.459964330195, -0.054, 0.992, 0.184, 192.0, 0.0, 0.0, 0.0, 0.0, 0.0, 0.0, 0.0, 0.0, 0.0, 1.695325234655729E9, 0.0, 2023-09-21 14:40:34.655
130.0, 43713.50779694412, 26079.16606416298, -6247.491389213967, -14824.682751260132, -21714.943255775364, -16213.709558690734, -187500.02235174447, -31519.223036673433, 31092.036496643606, 18209.675635060747, -18815.318502821745, -2198.7187503241003, -11568.592377733277, -26491.08636272983, -13227.896479117451, -26743.683426819258, -0.054, 0.992, 0.184, 192.0, 0.0, 0.0, 0.0, 0.0, 0.0, 0.0, 0.0, 0.0, 0.0, 1.695325234655733E9, 0.0, 2023-09-21 14:40:34.655
132.0, 43721.75559064813, 26088.620852067575, -6232.314554728813, -14811.584629009323, -21696.860694511022, -16205.193544053263, -187500.02235174447, -31503.777981254814, 31104.307604349568, 18219.108071220886, -18801.90745614856, -2220.4222941902035, -11548.90049086815, -26471.506234586985, -13214.217211510804, -26730.786470268547, -0.056, 0.992, 0.19, 192.0, 127.0, 32.0, 15.5, 0.0, 2.5, 120.0, 0.0, 0.0, 0.0, 1.695325234655736E9, 0.0, 2023-09-21 14:40:34.655
134.0, 43720.74976214764, 26084.910462487995, -6239.735333887975, -14819.005408168485, -21705.510819615225, -16205.193544053263, -187500.02235174447, -31506.41548710054, 31102.228892115225, 18218.661036331778, -18805.550790494777, -2202.317381181405, -11553.169674059114, -26477.76472303447, -13213.99369406625, -26733.42397611427, -0.056, 0.992, 0.19, 192.0, 0.0, 0.0, 0.0, 0.0, 0.0, 0.0, 0.0, 0.0, 0.0, 1.695325234716003E9, 0.0, 2023-09-21 14:40:34.716
136.0, 43728.863445384915, 26092.73357304735, -6234.080342540782, -14812.098719131794, -21695.273720654695, -16192.58716018047, -187500.02235174447, -31496.51366430684, 31104.06173516056, 18218.661036331778, -18804.90258990557, -2211.3251341968935, -11550.509816468933, -26474.81429276637, -13220.632162169477, -26733.468679603182, -0.056, 0.992, 0.19, 192.0, 0.0, 0.0, 0.0, 0.0, 0.0, 0.0, 0.0, 0.0, 0.0, 1.695325234716019E9, 0.0, 2023-09-21 14:40:34.716
138.0, 43726.56121570602, 26087.950299733915, -6230.168787261104, -14813.730396477033, -21698.470020111803, -16191.782497380078, -187500.02235174447, -31501.72162076493, 31111.571921297542, 18223.46666138967, -18797.437107257498, -2212.8450528198546, -11540.652697164143, -26466.72296127355, -13203.890705572452, -26721.555199808503, -0.056, 0.992, 0.19, 192.0, 0.0, 0.0, 0.0, 0.0, 0.0, 0.0, 0.0, 0.0, 0.0, 1.695325234716023E9, 0.0, 2023-09-21 14:40:34.716
140.0, 43722.4708464707, 26088.240872411832, -6235.801426863841, -14811.830498198331, -21701.86748526901, -16199.15857305033, -187500.02235174447, -31506.28137663381, 31102.139485137403, 18216.671731075257, -18804.366148038644, -2208.732331840078, -11551.38153450269, -26475.775417777946, -13217.257048756725, -26729.19949641222, -0.056, 0.992, 0.19, 192.0, 0.0, 0.0, 0.0, 0.0, 0.0, 0.0, 0.0, 0.0, 0.0, 1.695325234716026E9, 0.0, 2023-09-21 14:40:34.716
142.0, 43724.817779638506, 26089.984308479347, -6234.572080918799, -14809.684730730622, -21703.789735292165, -16200.20910503973, -187500.02235174447, -31502.839207987694, 31105.939281694806, 18221.27619043305, -18798.442935757987, -2215.7507795990446, -11548.833435634784, -26468.24287989651, -13217.324103990091, -26723.879781231855, -0.06, 0.996, 0.19, 192.0, 127.0, 16.0, 15.5, 16.0, 2.5, 120.0, 0.0, 0.0, 0.0, 1.69532523471603E9, 0.0, 2023-09-21 14:40:34.716
144.0, 43715.854730111925, 26081.803570008706, -6244.8538833682405, -14815.004445910985, -21710.025871995196, -16200.276160273095, -187500.02235174447, -31509.94706272448, 31095.54572052309, 18212.022568228553, -18808.568275996244, -2197.5341078679694, -11557.796485161363, -26473.987278221524, -13223.80610988213, -26729.91475223479, -0.06, 0.996, 0.19, 192.0, 0.0, 0.0, 0.0, 0.0, 0.0, 0.0, 0.0, 0.0, 0.0, 1.695325234716033E9, 0.0, 2023-09-21 14:40:34.716
146.0, 43720.88387261437, 26085.871587499572, -6230.839339594762, -14806.220210340049, -21696.748935788746, -16190.687261901769, -187500.02235174447, -31497.698306762974, 31103.94997643828, 18218.12459446485, -18801.10279334817, -2216.309573210427, -11546.844130378262, -26464.487786828016, -13212.406720209923, -26721.1081649194, -0.06, 0.996, 0.19, 192.0, 0.0, 0.0, 0.0, 0.0, 0.0, 0.0, 0.0, 0.0, 0.0, 1.695325234716036E9, 0.0, 2023-09-21 14:40:34.716
148.0, 43738.161771078325, 26102.59069235214, -6220.4681301675, -14786.863599641752, -21678.733429757765, -16173.834046582468, -187500.02235174447, -31480.643925743574, 31107.68271776232, 18219.84567878791, -18795.604264212165, -2194.4272153886814, -11541.390304731167, -26459.503347814483, -13206.841135840552, -26711.765135737078, -0.06, 0.996, 0.19, 192.0, 0.0, 0.0, 0.0, 0.0, 0.0, 0.0, 0.0, 0.0, 0.0, 1.695325234716039E9, 0.0, 2023-09-21 14:40:34.716
150.0, 43722.426142981785, 26082.518825831274, -6229.230013993981, -14808.902419674687, -21697.799467778143, -16196.208142782229, -187500.02235174447, -31502.19100739849, 31111.10253466398, 18223.243143945117, -18790.061031587247, -2229.96648907262, -11539.71392389702, -26453.33426634482, -13199.599170637033, -26707.674766501757, -0.06, 0.996, 0.19, 192.0, 0.0, 0.0, 0.0, 0.0, 0.0, 0.0, 0.0, 0.0, 0.0, 1.695325234776218E9, 0.0, 2023-09-21 14:40:34.776
152.0, 43733.04322159806, 26099.30498591721, -6216.08718825426, -14792.026852610928, -21679.09105766905, -16179.153761762831, -187500.02235174447, -31484.510777534342, 31098.83142695802, 18210.525001350048, -18802.2874358043, -2189.5321833529692, -11545.547729199854, -26452.171975633144, -13210.417414953401, -26719.8564672299, -0.062, 0.994, 0.2, 192.0, 127.0, 8.0, 15.5, 8.0, 3.0, 32.0, 0.0, 0.0, 0.0, 1.695325234776228E9, 0.0, 2023-09-21 14:40:34.776
154.0, 43716.480578956674, 26080.88714848604, -6220.4681301675, -14804.208553339071, -21694.446706109848, -16193.503581703137, -187500.02235174447, -31497.675955018516, 31119.663252790364, 18227.35586492489, -18780.47213321592, -2231.218186762117, -11523.508909166922, -26460.352714103785, -13189.831458310064, -26695.873045429355, -0.062, 0.994, 0.2, 192.0, 0.0, 0.0, 0.0, 0.0, 0.0, 0.0, 0.0, 0.0, 0.0, 1.695325234776232E9, 0.0, 2023-09-21 14:40:34.776
156.0, 43711.65260215433, 26076.841482739626, -6232.068685539804, -14805.795527195398, -21692.926787486886, -16192.184828780275, -187500.02235174447, -31495.843111973183, 31095.813941456552, 18198.008024455074, -18805.4390317725, -2184.771261783989, -11545.458322222034, -26475.373086377753, -13213.926638832885, -26718.493010818125, -0.062, 0.994, 0.2, 192.0, 0.0, 0.0, 0.0, 0.0, 0.0, 0.0, 0.0, 0.0, 0.0, 1.695325234776235E9, 0.0, 2023-09-21 14:40:34.776
158.0, 43705.77409336258, 26069.97949719185, -6231.800464606341, -14810.668207486655, -21698.179447433886, -16195.716404404213, -187500.02235174447, -31500.179350397513, 31092.2376623437, 18197.6951000327, -18807.942427151494, -2231.4193524622146, -11547.894662367662, -26473.85316775479, -13216.81001386762, -26721.1081649194, -0.062, 0.994, 0.2, 192.0, 0.0, 0.0, 0.0, 0.0, 0.0, 0.0, 0.0, 0.0, 0.0, 1.695325234776238E9, 0.0, 2023-09-21 14:40:34.776
160.0, 43703.38245670587, 26076.3050408727, -6229.095903527249, -14798.777079436431, -21683.62846179348, -16181.835971097467, -187500.02235174447, -31483.84022520068, 31095.47866528972, 18202.7465942796, -18804.790831183294, -2193.734311310567, -11544.206624532537, -26466.72296127355, -13212.786699865665, -26713.463868315685, -0.062, 0.994, 0.2, 192.0, 0.0, 0.0, 0.0, 0.0, 0.0, 0.0, 0.0, 0.0, 0.0, 1.695325234776241E9, 0.0, 2023-09-21 14:40:34.776
162.0, 43682.81885180698, 26055.607325507084, -6236.427275708589, -14810.489393531012, -21697.218322422304, -16195.96227359322, -187500.02235174447, -31499.218225385932, 31091.25418558767, 18204.579437324934, -18803.785002682805, -2239.309518254938, -11538.953964585538, -26461.09032167081, -13203.600132894533, -26707.674766501757, -0.058, 0.996, 0.192, 192.0, 127.0, 24.0, 15.5, 16.0, 3.0, 0.0, 0.0, 0.0, 0.0, 1.695325234776244E9, 0.0, 2023-09-21 14:40:34.776
164.0, 43681.58950586194, 26058.311886586176, -6236.80725536433, -14802.219248082549, -21694.15613343193, -16184.317014732005, -187500.02235174447, -31488.75760898085, 31076.569089480534, 18196.868085487855, -18813.10568012067, -2192.7284828100783, -11551.202720547048, -26468.198176407597, -13213.457252199323, -26714.492048560627, -0.058, 0.996, 0.192, 192.0, 0.0, 0.0, 0.0, 0.0, 0.0, 0.0, 0.0, 0.0, 0.0, 1.695325234836592E9, 0.0, 2023-09-21 14:40:34.836
166.0, 43661.808212018994, 26036.831860164628, -6242.372839733701, -14817.038454656418, -21702.873313769498, -16203.003073096643, -187500.02235174447, -31504.04620218828, 31069.23771729919, 18193.783544753023, -18818.2912848343, -2230.4805791950917, -11558.735258428485, -26469.852205497293, -13216.988827823261, -26716.928388706256, -0.058, 0.996, 0.192, 192.0, 0.0, 0.0, 0.0, 0.0, 0.0, 0.0, 0.0, 0.0, 0.0, 1.695325234836602E9, 0.0, 2023-09-21 14:40:34.836
168.0, 43641.04344142001, 26016.357662243565, -6251.201778793547, -14822.60403902579, -21707.231903938282, -16205.72998592019, -187500.02235174447, -31507.644833045582, 31059.939391605785, 18174.91867243274, -18831.590572785208, -2189.4651281196034, -11566.625424221209, -26485.029039982444, -13219.089891802061, -26727.970150467176, -0.058, 0.996, 0.192, 192.0, 0.0, 0.0, 0.0, 0.0, 0.0, 0.0, 0.0, 0.0, 0.0, 1.695325234836605E9, 0.0, 2023-09-21 14:40:34.836
170.0, 43625.41957204576, 26007.48401969481, -6253.436953239078, -14825.398007082702, -21708.10362197204, -16208.456898743738, -187500.02235174447, -31508.09186793469, 31043.779080364595, 18167.028506640017, -18842.945258968506, -2228.7147913831227, -11572.347470801767, -26487.934766761635, -13223.04615057065, -26727.500763833617, -0.058, 0.996, 0.192, 192.0, 0.0, 0.0, 0.0, 0.0, 0.0, 0.0, 0.0, 0.0, 0.0, 1.695325234836609E9, 0.0, 2023-09-21 14:40:34.836
172.0, 43638.16006638528, 26021.67737742393, -6238.707153643031, -14805.013216139463, -21684.63429029397, -16186.239264755162, -187500.02235174447, -31484.17550136751, 31049.255257756147, 18175.052782899475, -18834.92098270905, -2202.2279742035835, -11562.535054985889, -26473.85316775479, -13212.294961487647, -26714.469696816173, -0.05, 1.002, 0.188, 192.0, 127.0, 56.0, 15.5, 40.0, 2.5, 112.0, 0.0, 0.0, 0.0, 1.695325234836612E9, 0.0, 2023-09-21 14:40:34.836
174.0, 43617.998792886596, 26002.499580681277, -6237.366048975712, -14807.449556285092, -21688.05410719563, -16186.865113599912, -187500.02235174447, -31483.951983922958, 31060.475833472712, 18188.73205050612, -18820.302941835278, -2246.7079456696447, -11545.5253774554, -26447.70162674208, -13194.458269412313, -26692.74380120561, -0.05, 1.002, 0.188, 192.0, 0.0, 0.0, 0.0, 0.0, 0.0, 0.0, 0.0, 0.0, 0.0, 1.695325234836615E9, 0.0, 2023-09-21 14:40:34.836
176.0, 43580.179641268216, 25969.888385520982, -6262.087078343282, -14823.498108804002, -21703.566217847612, -16195.492886959659, -187500.02235174447, -31495.418428828532, 31020.51091438662, 18154.332715789405, -18857.16096844208, -2207.9947242730527, -11577.398965048667, -26485.94546150511, -13217.27940050118, -26719.923522463265, -0.05, 1.002, 0.188, 192.0, 0.0, 0.0, 0.0, 0.0, 0.0, 0.0, 0.0, 0.0, 0.0, 1.695325234836619E9, 0.0, 2023-09-21 14:40:34.836
178.0, 43579.35262672337, 25968.99431574277, -6244.42920022359, -14809.014178396963, -21689.75283977423, -16177.790305351056, -187500.02235174447, -31476.307687319244, 31026.30001620055, 18167.274375829027, -18847.236793903925, -2241.365878744826, -11562.892682897173, -26467.773493262946, -13205.455327684323, -26699.605786753393, -0.05, 1.002, 0.188, 192.0, 0.0, 0.0, 0.0, 0.0, 0.0, 0.0, 0.0, 0.0, 0.0, 1.695325234836622E9, 0.0, 2023-09-21 14:40:34.836
180.0, 43555.39155666728, 25944.787376497672, -6266.155095834148, -14827.521422805958, -21712.10458422954, -16197.549247449548, -187500.02235174447, -31499.754667252862, 31007.211626435714, 18147.962468619644, -18867.375715658156, -2217.337753455371, -11580.796430205874, -26477.72001954556, -13222.263839514713, -26718.85063872941, -0.05, 1.002, 0.188, 192.0, 0.0, 0.0, 0.0, 0.0, 0.0, 0.0, 0.0, 0.0, 0.0, 1.695325234895549E9, 0.0, 2023-09-21 14:40:34.895
182.0, 43560.06307125844, 25949.414187599923, -6252.878159627696, -14819.005408168485, -21703.454459125336, -16189.994357823654, -187500.02235174447, -31497.76536199634, 31014.051260239037, 18153.25983205555, -18861.564262099775, -2236.180274031195, -11573.822685935818, -26473.406132865686, -13217.637028412466, -26716.57076079497, -0.046, 1.004, 0.192, 192.0, 127.0, 72.0, 15.5, 48.0, 3.0, 0.0, 0.0, 0.0, 0.0, 1.695325234895557E9, 0.0, 2023-09-21 14:40:34.895
184.0, 43541.84639952736, 25928.291789089657, -6264.501066744455, -14836.596231054811, -21708.68476732788, -16200.566732951014, -187500.02235174447, -31508.203626656967, 31007.345736902447, 18146.040218596485, -18869.83440754824, -2230.704096639645, -11573.934444658094, -26479.910490502178, -13221.325066247591, -26727.701929533712, -0.046, 1.004, 0.192, 192.0, 0.0, 0.0, 0.0, 0.0, 0.0, 0.0, 0.0, 0.0, 0.0, 1.695325234895561E9, 0.0, 2023-09-21 14:40:34.895
186.0, 43522.780361506986, 25910.3656900365, -6273.709985460042, -14846.475702104057, -21709.176505705895, -16215.92238139181, -187500.02235174447, -31510.37174586913, 30998.5167978426, 18132.07037831192, -18880.45148616451, -2240.9411956001754, -11578.270683082425, -26489.85701678479, -13225.638952927466, -26730.920580735277, -0.046, 1.004, 0.192, 192.0, 0.0, 0.0, 0.0, 0.0, 0.0, 0.0, 0.0, 0.0, 0.0, 1.695325234895564E9, 0.0, 2023-09-21 14:40:34.895
188.0, 43517.28183237098, 25903.593111466544, -6275.162848849636, -14846.453350359601, -21713.15511621894, -16218.761052937634, -187500.02235174447, -31507.2872051343, 30983.786998246553, 18114.993645548064, -18893.12492527067, -2241.5446927004687, -11590.027700665916, -26502.128124490755, -13231.852737886042, -26740.084795961953, -0.046, 1.004, 0.192, 192.0, 0.0, 0.0, 0.0, 0.0, 0.0, 0.0, 0.0, 0.0, 0.0, 1.695325234895567E9, 0.0, 2023-09-21 14:40:34.895
190.0, 43517.90768121573, 25905.381251022965, -6271.720680203519, -14843.055885202395, -21705.890799270965, -16212.279047045595, -187500.02235174447, -31502.392173098586, 30988.257347137613, 18115.999474048553, -18891.180323503057, -2242.7740386455107, -11582.472811040023, -26498.127162233253, -13230.064598329616, -26736.10618544891, -0.046, 1.004, 0.192, 192.0, 0.0, 0.0, 0.0, 0.0, 0.0, 0.0, 0.0, 0.0, 0.0, 1.69532523489557E9, 0.0, 2023-09-21 14:40:34.895
192.0, 43508.028210166485, 25894.294785773134, -6270.938369147583, -14849.023800971961, -21709.802354550644, -16218.06814885952, -187500.02235174447, -31510.66231854705, 30997.622728064387, 18123.084977040886, -18881.79259083183, -2266.6904052126893, -11572.43687777959, -26489.9017202737, -13215.714778389309, -26724.662092287792, -0.05, 1.004, 0.19, 192.0, 127.0, 56.0, 15.5, 48.0, 2.5, 120.0, 0.0, 0.0, 0.0, 1.695325234895573E9, 0.0, 2023-09-21 14:40:34.895
194.0, 43509.70459100063, 25902.252006799223, -6271.966549392528, -14842.698257291111, -21703.38740389197, -16206.691110931768, -187500.02235174447, -31502.168655654034, 30975.47214930918, 18105.29298845446, -18906.111288799202, -2242.8410938788766, -11589.468907054534, -26496.450781399108, -13237.910060633429, -26743.258743674607, -0.05, 1.004, 0.19, 192.0, 0.0, 0.0, 0.0, 0.0, 0.0, 0.0, 0.0, 0.0, 0.0, 1.695325234955814E9, 0.0, 2023-09-21 14:40:34.955
196.0, 43509.503425300536, 25903.28018704417, -6263.942273133072, -14837.579707810844, -21696.681880555378, -16205.72998592019, -187500.02235174447, -31500.738144008894, 30992.593585561943, 18127.845898609867, -18884.83242807775, -2274.8487919388763, -11567.832418421796, -26492.315708674876, -13213.256086499225, -26721.1081649194, -0.05, 1.004, 0.19, 192.0, 0.0, 0.0, 0.0, 0.0, 0.0, 0.0, 0.0, 0.0, 0.0, 1.695325234955827E9, 0.0, 2023-09-21 14:40:34.955
198.0, 43508.587003777866, 25900.754439920718, -6272.301825559357, -14838.02674269995, -21699.699366056844, -16205.975855109198, -187500.02235174447, -31504.9849754554, 30982.84822497943, 18124.40372996375, -18892.052041536816, -2247.7584776590443, -11581.779906961907, -26485.856054527292, -13219.246354013248, -26728.14896442282, -0.05, 1.004, 0.19, 192.0, 0.0, 0.0, 0.0, 0.0, 0.0, 0.0, 0.0, 0.0, 0.0, 1.69532523495583E9, 0.0, 2023-09-21 14:40:34.955
200.0, 43505.144835131745, 25891.88079737196, -6272.771212192919, -14846.095722448317, -21707.164848704917, -16217.598762225958, -187500.02235174447, -31513.05395520377, 30978.713152255197, 18115.239514737073, -18897.2599979949, -2278.0003879070746, -11581.15405811716, -26499.24474945602, -13230.131653562983, -26737.670807560782, -0.05, 1.004, 0.19, 192.0, 0.0, 0.0, 0.0, 0.0, 0.0, 0.0, 0.0, 0.0, 0.0, 1.695325234955833E9, 0.0, 2023-09-21 14:40:34.955
202.0, 43504.92131768719, 25891.32200376058, -6278.9626454070385, -14847.325068393358, -21706.114316715517, -16217.934038392788, -187500.02235174447, -31510.438801102497, 30976.030942920563, 18108.422232678204, -18898.802268362317, -2243.086963067885, -11584.283302340902, -26497.47896164405, -13235.04903734315, -26739.23542967265, -0.048, 0.996, 0.192, 192.0, 127.0, 64.0, 15.5, 16.0, 3.0, 0.0, 0.0, 0.0, 0.0, 1.695325234955837E9, 0.0, 2023-09-21 14:40:34.955
204.0, 43509.27990785598, 25896.21703579629, -6275.0287383829045, -14851.03545797294, -21710.942293517863, -16224.438396029282, -187500.02235174447, -31520.18416168501, 30978.310820855004, 18110.076261767896, -18895.673024138574, -2284.013007165552, -11582.67397674012, -26500.29528144542, -13233.417359997913, -26739.593057583937, -0.048, 0.996, 0.192, 192.0, 0.0, 0.0, 0.0, 0.0, 0.0, 0.0, 0.0, 0.0, 0.0, 1.69532523495584E9, 0.0, 2023-09-21 14:40:34.955
206.0, 43503.62491650879, 25893.288957272645, -6287.076328644315, -14860.892577277731, -21723.369863435015, -16233.73672172269, -187500.02235174447, -31528.700176322483, 30970.5100620401, 18103.840125064868, -18904.4125562206, -2241.924672356209, -11595.190953635092, -26510.86765657278, -13236.703066432843, -26751.595944356435, -0.048, 0.996, 0.192, 192.0, 0.0, 0.0, 0.0, 0.0, 0.0, 0.0, 0.0, 0.0, 0.0, 1.695325234955843E9, 0.0, 2023-09-21 14:40:34.955
208.0, 43519.4723033276, 25908.689309202353, -6275.408718038645, -14851.88482426224, -21720.464136655824, -16224.9301344073, -187500.02235174447, -31519.848885518182, 30976.92501269877, 18112.602008891346, -18898.154067773114, -2274.982902405608, -11594.72156700153, -26506.73258384855, -13240.793435668164, -26748.44434838824, -0.048, 0.996, 0.192, 192.0, 0.0, 0.0, 0.0, 0.0, 0.0, 0.0, 0.0, 0.0, 0.0, 1.695325234955846E9, 0.0, 2023-09-21 14:40:34.955
210.0, 43538.76185879253, 25927.33066407808, -6271.251293569958, -14843.838196258332, -21708.416546394415, -16206.35583476494, -187500.02235174447, -31509.209455157456, 30987.832663992962, 18119.665160139222, -18887.1570095011, -2230.569986172913, -11586.540828530888, -26500.228226212053, -13233.842043142564, -26739.883630261855, -0.048, 0.996, 0.192, 192.0, 0.0, 0.0, 0.0, 0.0, 0.0, 0.0, 0.0, 0.0, 0.0, 1.695325235016148E9, 0.0, 2023-09-21 14:40:35.016
212.0, 43541.06408847142, 25927.84475420055, -6267.9208836461175, -14847.392123626725, -21709.78000280619, -16218.224611070707, -187500.02235174447, -31517.256083161366, 30996.259271652612, 18122.704997385146, -18878.752753585908, -2272.412451793248, -11581.57874126181, -26497.34485117732, -13229.148176806948, -26737.112013949398, -0.052000000000000005, 0.992, 0.184, 192.0, 127.0, 48.0, 15.5, 0.0, 2.5, 96.0, 0.0, 0.0, 0.0, 1.695325235016158E9, 0.0, 2023-09-21 14:40:35.016
214.0, 43552.61994035482, 25939.333550850577, -6266.333909789791, -14839.703123534098, -21704.750860303746, -16219.386901782384, -187500.02235174447, -31510.99759471388, 31001.109600199416, 18122.39207296277, -18877.031669262848, -2231.4193524622146, -11576.795467948374, -26497.546016877415, -13229.505804718234, -26736.53086859356, -0.052000000000000005, 0.992, 0.184, 192.0, 0.0, 0.0, 0.0, 0.0, 0.0, 0.0, 0.0, 0.0, 0.0, 1.695325235016162E9, 0.0, 2023-09-21 14:40:35.016
216.0, 43566.70153936166, 25955.71737953632, -6259.4719242420115, -14835.076312431851, -21703.566217847612, -16217.44230001477, -187500.02235174447, -31513.56804532624, 31002.026021722082, 18128.762320132533, -18875.39999191761, -2267.852695924365, -11578.29303482688, -26487.91241501718, -13235.00433385424, -26738.319008149985, -0.052000000000000005, 0.992, 0.184, 192.0, 0.0, 0.0, 0.0, 0.0, 0.0, 0.0, 0.0, 0.0, 0.0, 1.695325235016165E9, 0.0, 2023-09-21 14:40:35.016
218.0, 43585.81228087095, 25976.61626060203, -6253.034621838882, -14820.637085513723, -21693.843209009556, -16204.567695208514, -187500.02235174447, -31503.308594621256, 31022.81314406552, 18155.003268123062, -18856.82569227525, -2229.0947710388627, -11563.339717786279, -26479.910490502178, -13212.652589398933, -26721.53284806405, -0.052000000000000005, 0.992, 0.184, 192.0, 0.0, 0.0, 0.0, 0.0, 0.0, 0.0, 0.0, 0.0, 0.0, 1.695325235016168E9, 0.0, 2023-09-21 14:40:35.016
220.0, 43591.46727221814, 25977.599737358065, -6253.749877661452, -14828.728417006543, -21699.945235245854, -16209.373320266406, -187500.02235174447, -31508.024812701326, 31024.310710944024, 18155.539709989993, -18857.026857975347, -2264.3658237893374, -11567.564197488333, -26478.56938583486, -13217.793490623653, -26724.95266496571, -0.052000000000000005, 0.992, 0.184, 192.0, 0.0, 0.0, 0.0, 0.0, 0.0, 0.0, 0.0, 0.0, 0.0, 1.695325235016171E9, 0.0, 2023-09-21 14:40:35.016
222.0, 43601.65966768976, 25982.76299032724, -6259.606034708743, -14832.997600197506, -21706.874276027, -16207.182849309786, -187500.02235174447, -31510.639966802595, 31032.580856392487, 18155.22678556762, -18851.282459650334, -2231.5534629289464, -11561.484522996489, -26477.854130012292, -13221.90621160343, -26727.34430162243, -0.052000000000000005, 0.996, 0.184, 192.0, 127.0, 48.0, 15.5, 16.0, 2.5, 96.0, 0.0, 0.0, 0.0, 1.695325235016174E9, 0.0, 2023-09-21 14:40:35.016
224.0, 43618.35642079788, 25997.895121323483, -6244.339793245768, -14818.737187235021, -21693.53028458718, -16192.140125291364, -187500.02235174447, -31491.216300870932, 31037.833516339484, 18156.858462912853, -18850.455445105486, -2256.5427132299797, -11558.198816561558, -26475.015458466467, -13229.036418084672, -26727.009025455598, -0.052000000000000005, 0.996, 0.184, 192.0, 0.0, 0.0, 0.0, 0.0, 0.0, 0.0, 0.0, 0.0, 0.0, 1.695325235076291E9, 0.0, 2023-09-21 14:40:35.076
226.0, 43618.624641731345, 25994.564711399642, -6248.251348525447, -14826.336780349826, -21700.548732346146, -16192.900084602845, -187500.02235174447, -31497.027754429313, 31053.345626991468, 18174.270471843538, -18839.525442066843, -2230.637041406279, -11548.542862956867, -26462.34201936031, -13216.005351067228, -26715.028490427554, -0.052000000000000005, 0.996, 0.184, 192.0, 0.0, 0.0, 0.0, 0.0, 0.0, 0.0, 0.0, 0.0, 0.0, 1.695325235076302E9, 0.0, 2023-09-21 14:40:35.076
228.0, 43619.25049057609, 25989.71438285284, -6254.420429995112, -14834.048132186907, -21697.77711603369, -16200.96906435121, -187500.02235174447, -31500.64873703107, 31041.163926263325, 18163.049896126973, -18859.619660332162, -2244.8751026243094, -11559.964604373528, -26479.731676546537, -13229.148176806948, -26734.519211592582, -0.052000000000000005, 0.996, 0.184, 192.0, 0.0, 0.0, 0.0, 0.0, 0.0, 0.0, 0.0, 0.0, 0.0, 1.695325235076306E9, 0.0, 2023-09-21 14:40:35.076
230.0, 43642.451601320696, 26001.225531247324, -6251.872331127207, -14829.287210617926, -21690.669261296902, -16195.604645681937, -187500.02235174447, -31489.785789225793, 31053.63619966939, 18178.427896312227, -18852.26593640637, -2232.291070495972, -11548.945194357062, -26466.90177522919, -13216.340627234058, -26729.802993512512, -0.052000000000000005, 0.996, 0.184, 192.0, 0.0, 0.0, 0.0, 0.0, 0.0, 0.0, 0.0, 0.0, 0.0, 1.695325235076309E9, 0.0, 2023-09-21 14:40:35.076
232.0, 43653.426307848255, 26004.62299640453, -6254.66629918412, -14833.93637346463, -21694.267892154206, -16197.72806140519, -187500.02235174447, -31498.927652708015, 31055.804318881554, 18176.907977689265, -18854.143482940613, -2240.4941607110695, -11551.67210718061, -26466.85707174028, -13230.399874496447, -26742.744653552134, -0.054, 0.994, 0.186, 192.0, 127.0, 40.0, 15.5, 8.0, 2.5, 104.0, 0.0, 0.0, 0.0, 1.695325235076312E9, 0.0, 2023-09-21 14:40:35.076
234.0, 43656.242627649626, 26000.778496358216, -6256.409735251634, -14841.22304215706, -21702.068650969108, -16209.261561544128, -187500.02235174447, -31505.1861411555, 31064.34268526348, 18177.98086142312, -18849.248450904903, -2230.0782477948965, -11549.213415290526, -26466.05240893989, -13226.577726194588, -26747.25970593211, -0.054, 0.994, 0.186, 192.0, 0.0, 0.0, 0.0, 0.0, 0.0, 0.0, 0.0, 0.0, 0.0, 1.695325235076315E9, 0.0, 2023-09-21 14:40:35.076
236.0, 43664.73629054264, 26009.205104017867, -6250.754743904441, -14832.528213563946, -21694.379650876483, -16199.560904450525, -187500.02235174447, -31501.542806809284, 31053.591496180477, 18167.07321012893, -18859.709067309985, -2223.9762215585974, -11562.870331152717, -26477.451798612095, -13237.999467611251, -26759.039075260054, -0.054, 0.994, 0.186, 192.0, 0.0, 0.0, 0.0, 0.0, 0.0, 0.0, 0.0, 0.0, 0.0, 1.695325235076318E9, 0.0, 2023-09-21 14:40:35.076
238.0, 43673.96756100268, 26017.922284355438, -6244.250386267947, -14829.130748406738, -21697.240674166762, -16188.429735711783, -187500.02235174447, -31498.86059747465, 31067.76250216514, 18181.35597483587, -18847.214442159468, -2239.06364906593, -11547.00059258945, -26461.783225748924, -13222.33089474808, -26744.57749659747, -0.054, 0.994, 0.186, 192.0, 0.0, 0.0, 0.0, 0.0, 0.0, 0.0, 0.0, 0.0, 0.0, 1.695325235076321E9, 0.0, 2023-09-21 14:40:35.076
240.0, 43689.278505954564, 26034.887258397015, -6238.438932709567, -14815.876163944742, -21687.29414788415, -16175.599834394436, -187500.02235174447, -31483.929632178504, 31070.735284177696, 18185.60280628238, -18847.72853228194, -2226.144340770762, -11549.61574669072, -26457.84931872479, -13227.538851206167, -26739.950685495223, -0.054, 0.994, 0.186, 192.0, 0.0, 0.0, 0.0, 0.0, 0.0, 0.0, 0.0, 0.0, 0.0, 1.695325235136666E9, 0.0, 2023-09-21 14:40:35.136
