%OpenBCI Raw EXG Data
%Number of channels = 16
%Sample Rate = 125 Hz
%Board = OpenBCI_GUI$BoardCytonSerialDaisy
Sample Index, EXG Channel 0, EXG Channel 1, EXG Channel 2, EXG Channel 3, EXG Channel 4, EXG Channel 5, EXG Channel 6, EXG Channel 7, EXG Channel 8, EXG Channel 9, EXG Channel 10, EXG Channel 11, EXG Channel 12, EXG Channel 13, EXG Channel 14, EXG Channel 15, Accel Channel 0, Accel Channel 1, Accel Channel 2, Other, Other, Other, Other, Other, Other, Other, Analog Channel 0, Analog Channel 1, Analog Channel 2, Timestamp, Other, Timestamp (Formatted)
0.0, 44207.28018370631, 25428.618541791267, -9705.68623610571, -16363.354487819015, -22262.516291441476, -16499.521315040747, -187500.02235174447, -31894.665288289227, 0.0, 0.0, 0.0, 0.0, 0.0, 0.0, 0.0, 0.0, 0.0, 0.0, 0.0, 192.0, 0.0, 0.0, 0.0, 0.0, 0.0, 0.0, 0.0, 0.0, 0.0, 1.695325126811601E9, 0.0, 2023-09-21 14:38:46.811
14.0, 44212.37638144212, 25433.290056382426, -9710.044826274494, -16361.320479073584, -22264.08091355335, -16498.56019002917, -187500.02235174447, -31897.21338715713, 33639.17423953703, 22613.90806602336, -18928.395978021144, 1147.8738365022941, -11042.007630110696, -26729.847697001424, -15500.130116955057, -27680.713257874642, 0.0, 0.0, 0.0, 192.0, 0.0, 0.0, 0.0, 0.0, 0.0, 0.0, 0.0, 0.0, 0.0, 1.695325126811609E9, 0.0, 2023-09-21 14:38:46.811
16.0, 44193.57856435521, 25411.78767821642, -9725.668695648754, -16385.974453207786, -22287.594948720332, -16528.93621074393, -187500.02235174447, -31927.03061426051, 33632.26755050034, 22605.57086534153, -18936.286143813868, 1105.2937633149343, -11052.535301749147, -26741.20238318472, -15511.171878715979, -27693.96784233664, 0.0, 0.0, 0.0, 192.0, 0.0, 0.0, 0.0, 0.0, 0.0, 0.0, 0.0, 0.0, 0.0, 1.695325126811612E9, 0.0, 2023-09-21 14:38:46.811
18.0, 44200.61936385863, 25422.248294621506, -9722.315933980457, -16376.698479258834, -22278.810713149396, -16520.30843738418, -187500.02235174447, -31909.17157044072, 33622.566893406736, 22597.434830359798, -18944.31042007332, 1174.3383019373778, -11062.548883265124, -26752.735883323658, -15515.59752411813, -27700.96393835115, 0.22, 0.99, 0.054, 192.0, 3.0, 112.0, 15.0, 120.0, 0.5, 88.0, 0.0, 0.0, 0.0, 1.695325126811616E9, 0.0, 2023-09-21 14:38:46.811
20.0, 44206.52022439483, 25422.807088232887, -9716.191555999703, -16377.994880437242, -22286.27619579747, -16526.566925831667, -187500.02235174447, -31918.1346199673, 33632.7369371339, 22608.81186828755, -18933.40276877913, 1114.949716919627, -11055.150455850418, -26734.09452844793, -15506.612122847097, -27688.24579575608, 0.22, 0.99, 0.054, 192.0, 0.0, 0.0, 0.0, 0.0, 0.0, 0.0, 0.0, 0.0, 0.0, 1.695325126811619E9, 0.0, 2023-09-21 14:38:46.811
22.0, 44223.79812285878, 25445.158832688194, -9701.372349425836, -16359.57704300607, -22263.544471686422, -16511.770071002255, -187500.02235174447, -31895.51465457853, 33635.17327727953, 22609.95180725477, -18930.69820770004, 1178.942761295171, -11055.865711672988, -26742.029397729566, -15502.812326289693, -27686.81528411094, 0.22, 0.99, 0.054, 192.0, 0.0, 0.0, 0.0, 0.0, 0.0, 0.0, 0.0, 0.0, 0.0, 1.695325126811624E9, 0.0, 2023-09-21 14:38:46.811
24.0, 44234.68342240852, 25450.545603101924, -9685.614369584844, -16353.452665025314, -22265.712590898587, -16504.192829631906, -187500.02235174447, -31903.53893083798, 33659.08964384671, 22632.23649647671, -18906.44656496603, 1098.655295211708, -11030.742350905222, -26718.33654860694, -15477.39839284401, -27667.61513562383, 0.22, 0.99, 0.054, 192.0, 0.0, 0.0, 0.0, 0.0, 0.0, 0.0, 0.0, 0.0, 0.0, 1.695325126811627E9, 0.0, 2023-09-21 14:38:46.811
26.0, 44219.28307047881, 25435.36876861677, -9715.364541454857, -16374.440953068848, -22282.07406783987, -16531.7525305453, -187500.02235174447, -31915.631224588305, 33639.33070174822, 22609.884752021404, -18927.859536154217, 1185.201249742657, -11047.215586568784, -26749.47252863318, -15497.805535531705, -27689.67630740122, 0.22, 0.99, 0.054, 192.0, 0.0, 0.0, 0.0, 0.0, 0.0, 0.0, 0.0, 0.0, 0.0, 1.69532512681164E9, 0.0, 2023-09-21 14:38:46.811
28.0, 44229.475465950425, 25443.258934409492, -9709.173108240737, -16368.875368699477, -22281.515274228488, -16521.157803673483, -187500.02235174447, -31916.0335559885, 33639.12953604812, 22609.19184794329, -18927.904239643125, 1120.3811908222665, -11053.161150593896, -26743.370502396883, -15511.93183802746, -27691.91148184675, 0.222, 0.988, 0.054, 192.0, 3.0, 120.0, 15.0, 112.0, 0.5, 88.0, 0.0, 0.0, 0.0, 1.695325126811644E9, 0.0, 2023-09-21 14:38:46.811
0.0, 22050.33118132725, 12795.546686118447, -4729.115036620502, -8118.600621056631, -11076.7645927387, -8235.634355024618, -93750.01117587223, -15946.852081638825, 16822.28050497538, 11309.379197285081, -9459.280605230404, 595.294010078193, -5524.881842718344, -13367.416068007478, -7751.763791056132, -13843.664687116705, 0.202, 0.988, 0.064, 192.0, 2.5, 88.0, 15.0, 112.0, 1.0, 40.0, 0.0, 0.0, 0.0, 1.695325126972881E9, 0.0, 2023-09-21 14:38:46.972
2.0, 44097.60017366412, 25588.947604769186, -9459.548826163867, -16238.8329194585, -22154.66912444462, -16478.108343852564, -187500.02235174447, -31903.449523860163, 33350.948494785844, 22181.781790468907, -18931.301704800335, 427.7006301523006, -11141.092913281074, -26640.12779475782, -15218.721654262741, -27508.560122079867, 0.202, 0.988, 0.064, 192.0, 0.0, 0.0, 0.0, 0.0, 0.0, 0.0, 0.0, 0.0, 0.0, 1.695325126972892E9, 0.0, 2023-09-21 14:38:46.972
4.0, 44113.60402269412, 25600.570511885944, -9450.205796981549, -16230.629829243402, -22143.113272561226, -16467.558320469656, -187500.02235174447, -31886.68571551868, 33349.20505871833, 22177.28908983339, -18933.089844356757, 439.7035169248005, -11147.39610521747, -26641.491251169595, -15218.945171707293, -27512.337566892813, 0.202, 0.988, 0.064, 192.0, 0.0, 0.0, 0.0, 0.0, 0.0, 0.0, 0.0, 0.0, 0.0, 1.695325126972895E9, 0.0, 2023-09-21 14:38:46.972
6.0, 44108.93250810296, 25593.954395527173, -9451.502198159957, -16235.703675234758, -22142.75564464994, -16466.552491969167, -187500.02235174447, -31890.463160331627, 33369.99218106177, 22193.091773163294, -18914.13556505866, 424.9960690732085, -11124.910250295432, -26618.960692758643, -15201.466107543243, -27494.925557962128, 0.202, 0.988, 0.064, 192.0, 0.0, 0.0, 0.0, 0.0, 0.0, 0.0, 0.0, 0.0, 0.0, 1.695325126972898E9, 0.0, 2023-09-21 14:38:46.972
8.0, 44112.97817384937, 25594.334375182912, -9451.256328970949, -16234.451977545259, -22143.917935361616, -16462.819750645132, -187500.02235174447, -31889.613794042325, 33348.28863719566, 22172.908147920152, -18935.526184502385, 429.86874936446543, -11146.747904628266, -26645.31339947145, -15218.744006007197, -27512.896360504194, 0.17400000000000002, 0.994, 0.08600000000000001, 192.0, 2.5, 56.0, 15.5, 8.0, 1.0, 88.0, 0.0, 0.0, 0.0, 1.695325126972901E9, 0.0, 2023-09-21 14:38:46.972
10.0, 44122.12003733159, 25606.583131144424, -9437.644116597667, -16220.772709938612, -22128.22701075399, -16449.498110949768, -187500.02235174447, -31874.34755257935, 33372.89790784096, 22195.885741220205, -18909.821678378783, 438.20595004629496, -11118.204726958838, -26624.772146317024, -15197.979235408216, -27489.158807892658, 0.17400000000000002, 0.994, 0.08600000000000001, 192.0, 0.0, 0.0, 0.0, 0.0, 0.0, 0.0, 0.0, 0.0, 0.0, 1.695325126972904E9, 0.0, 2023-09-21 14:38:46.972
12.0, 44115.25805178381, 25595.943700783697, -9441.756837577443, -16229.802814698556, -22141.973333594007, -16464.250262290272, -187500.02235174447, -31895.201730156154, 33364.0242652922, 22186.408601571155, -18916.102518570726, 421.9115283383761, -11128.263011963727, -26631.812945820446, -15202.561343021554, -27496.356069607267, 0.17400000000000002, 0.994, 0.08600000000000001, 192.0, 0.0, 0.0, 0.0, 0.0, 0.0, 0.0, 0.0, 0.0, 0.0, 1.695325126972907E9, 0.0, 2023-09-21 14:38:46.972
14.0, 44121.36007802011, 25607.946587556195, -9432.458511884035, -16215.408291269337, -22129.635170654677, -16453.387314484993, -187500.02235174447, -31877.40974156973, 33363.55487865864, 22184.039316658895, -18917.063643582303, 454.65683396540095, -11129.782930586689, -26626.26971319553, -15207.3893198239, -27496.736049263007, 0.17400000000000002, 0.994, 0.08600000000000001, 192.0, 0.0, 0.0, 0.0, 0.0, 0.0, 0.0, 0.0, 0.0, 0.0, 1.695325126972911E9, 0.0, 2023-09-21 14:38:46.972
16.0, 44103.34457198913, 25587.07005823494, -9448.127084747206, -16237.178890368807, -22158.3795140242, -16478.108343852564, -187500.02235174447, -31903.717744793626, 33364.60541064804, 22187.727354494018, -18914.783765647862, 420.8162928600661, -11130.028799775697, -26625.845030050878, -15199.365043564445, -27491.662203271655, 0.17400000000000002, 0.994, 0.08600000000000001, 192.0, 0.0, 0.0, 0.0, 0.0, 0.0, 0.0, 0.0, 0.0, 0.0, 1.695325127033225E9, 0.0, 2023-09-21 14:38:47.033
18.0, 44121.270671042286, 25606.739593355607, -9435.878328785699, -16217.509355248138, -22139.939324848572, -16461.433942488904, -187500.02235174447, -31890.239642887074, 33359.08452976758, 22177.28908983339, -18919.544687216843, 473.7899272191438, -11137.024895790208, -26632.662312109747, -15212.01613092615, -27503.508627832965, 0.166, 0.996, 0.092, 192.0, 2.5, 24.0, 15.5, 16.0, 1.0, 112.0, 0.0, 0.0, 0.0, 1.695325127033237E9, 0.0, 2023-09-21 14:38:47.033
20.0, 44112.44173198244, 25593.820285060443, -9438.895814287163, -16230.942753665777, -22153.350371521756, -16479.78472468671, -187500.02235174447, -31910.110343707842, 33371.82502410711, 22190.67778476212, -18905.574846932275, 419.27402249264986, -11126.832500318587, -26632.237628965097, -15199.029767397615, -27491.796313738385, 0.166, 0.996, 0.092, 192.0, 0.0, 0.0, 0.0, 0.0, 0.0, 0.0, 0.0, 0.0, 0.0, 1.69532512703324E9, 0.0, 2023-09-21 14:38:47.033
22.0, 44112.68760117145, 25597.038936262004, -9443.38851492268, -16231.59095425498, -22145.23668828448, -16473.280367050214, -187500.02235174447, -31896.185206912185, 33351.84256456406, 22167.543729250876, -18924.864402397205, 477.43326156535886, -11141.115265025528, -26645.671027382738, -15215.3912443389, -27512.20345642608, 0.166, 0.996, 0.092, 192.0, 0.0, 0.0, 0.0, 0.0, 0.0, 0.0, 0.0, 0.0, 0.0, 1.695325127033244E9, 0.0, 2023-09-21 14:38:47.033
24.0, 44127.32799378967, 25607.521904411544, -9422.847261768255, -16215.855326158444, -22137.145356791658, -16466.21721580234, -187500.02235174447, -31889.79260799797, 33375.446006708866, 22192.175351640624, -18901.55153293032, 404.00778102967513, -11122.473910149803, -26620.100631725865, -15196.146392362882, -27486.63306076921, 0.166, 0.996, 0.092, 192.0, 0.0, 0.0, 0.0, 0.0, 0.0, 0.0, 0.0, 0.0, 0.0, 1.695325127033248E9, 0.0, 2023-09-21 14:38:47.033
26.0, 44125.09281934414, 25609.868837579354, -9432.48086362849, -16214.514221491127, -22132.451490456046, -16462.39506750048, -187500.02235174447, -31879.98019218209, 33361.69968386885, 22179.501912534466, -18913.44266098054, 471.2865318401494, -11135.460273678336, -26637.199716234176, -15202.695453488286, -27495.976089951528, 0.166, 0.996, 0.092, 192.0, 0.0, 0.0, 0.0, 0.0, 0.0, 0.0, 0.0, 0.0, 0.0, 1.695325127033251E9, 0.0, 2023-09-21 14:38:47.033
28.0, 44122.14238907604, 25602.15748574227, -9427.652886826145, -16220.9291721498, -22136.206583524538, -16467.290099536192, -187500.02235174447, -31891.44663708766, 33374.50723344174, 22188.040278916393, -18902.825582364272, 402.2643449621612, -11117.020084502708, -26623.542800371983, -15192.05602312756, -27483.190892123093, 0.168, 0.996, 0.1, 192.0, 2.5, 32.0, 15.5, 16.0, 1.5, 16.0, 0.0, 0.0, 0.0, 1.695325127033254E9, 0.0, 2023-09-21 14:38:47.033
30.0, 44121.80711290921, 25604.83969507691, -9434.53722411838, -16220.59389598297, -22132.697359645055, -16469.50292223727, -187500.02235174447, -31884.36113409533, 33365.03009379269, 22175.523302021422, -18911.40865223511, 475.30984584210466, -11125.603154373546, -26631.27650395352, -15192.927741161317, -27492.668031772144, 0.168, 0.996, 0.1, 192.0, 0.0, 0.0, 0.0, 0.0, 0.0, 0.0, 0.0, 0.0, 0.0, 1.695325127093479E9, 0.0, 2023-09-21 14:38:47.093
32.0, 44127.149179834036, 25607.052517777982, -9422.176709434594, -16212.413157512327, -22125.723615375, -16459.802265143666, -187500.02235174447, -31876.918003191713, 33370.34980897306, 22183.972261425526, -18906.603027177218, 405.48299616372543, -11121.557488627135, -26625.621512606325, -15187.76448819214, -27486.677764258122, 0.168, 0.996, 0.1, 192.0, 0.0, 0.0, 0.0, 0.0, 0.0, 0.0, 0.0, 0.0, 0.0, 1.69532512709349E9, 0.0, 2023-09-21 14:38:47.093
34.0, 44110.497130214826, 25585.93011926772, -9445.266061456927, -16232.529727522104, -22142.777996394398, -16471.98396587181, -187500.02235174447, -31893.950032466655, 33363.912506569926, 22176.395020055177, -18912.66034992461, 470.16894461738406, -11125.24552646226, -26631.12004174233, -15186.266921313636, -27488.62236602573, 0.168, 0.996, 0.1, 192.0, 0.0, 0.0, 0.0, 0.0, 0.0, 0.0, 0.0, 0.0, 0.0, 1.695325127093494E9, 0.0, 2023-09-21 14:38:47.093
36.0, 44105.87031911258, 25585.34897391188, -9446.495407401968, -16236.195413612773, -22143.873231872705, -16485.12679161153, -187500.02235174447, -31900.25322440305, 33351.75315758624, 22165.777941438908, -18923.523297729887, 409.93099331033153, -11137.67309637941, -26648.46499543965, -15204.036558155603, -27503.39686911069, 0.168, 0.996, 0.1, 192.0, 0.0, 0.0, 0.0, 0.0, 0.0, 0.0, 0.0, 0.0, 0.0, 1.695325127093497E9, 0.0, 2023-09-21 14:38:47.093
38.0, 44124.131694332566, 25604.884398565817, -9433.419636895615, -16222.359683794939, -22125.90242933064, -16461.12101806653, -187500.02235174447, -31883.22119512811, 33353.340131442565, 22171.164711852638, -18920.50581222842, 469.3195783280824, -11134.521500411212, -26634.428099921715, -15200.683796487308, -27500.893473731696, 0.162, 1.0, 0.088, 192.0, 2.5, 8.0, 15.5, 32.0, 1.0, 96.0, 0.0, 0.0, 0.0, 1.6953251270935E9, 0.0, 2023-09-21 14:38:47.093
40.0, 44127.08212460067, 25607.320738711445, -9425.350657147248, -16217.509355248138, -22124.561324663322, -16466.574843713624, -187500.02235174447, -31876.20274736914, 33371.109768284536, 22186.5874155268, -18904.03257656486, 401.2361647172171, -11119.635238603978, -26631.678835353716, -15189.664386470842, -27486.72246774703, 0.162, 1.0, 0.088, 192.0, 0.0, 0.0, 0.0, 0.0, 0.0, 0.0, 0.0, 0.0, 0.0, 1.695325127093503E9, 0.0, 2023-09-21 14:38:47.093
42.0, 44115.30275527272, 25595.96605252815, -9440.862767799232, -16230.294553076572, -22138.53116494789, -16477.393088029992, -187500.02235174447, -31899.672079047214, 33363.487823425276, 22181.558273024355, -18912.07920456877, 454.2545025652054, -11129.112378253029, -26632.93053304321, -15191.474877771721, -27491.818665482842, 0.162, 1.0, 0.088, 192.0, 0.0, 0.0, 0.0, 0.0, 0.0, 0.0, 0.0, 0.0, 0.0, 1.695325127093507E9, 0.0, 2023-09-21 14:38:47.093
44.0, 44105.71385690139, 25585.170159956237, -9446.808331824343, -16238.005904913654, -22148.120063319217, -16483.69627996639, -187500.02235174447, -31899.22504415811, 33355.508250654726, 22174.3833630542, -18920.28229478387, 411.8085398445773, -11132.889823065976, -26638.1384895013, -15212.217296626246, -27505.07324994484, 0.162, 1.0, 0.088, 192.0, 0.0, 0.0, 0.0, 0.0, 0.0, 0.0, 0.0, 0.0, 0.0, 1.69532512709351E9, 0.0, 2023-09-21 14:38:47.093
46.0, 44110.273612770274, 25589.528750125024, -9442.025058510908, -16231.92623042181, -22148.81296739733, -16470.754619926767, -187500.02235174447, -31893.88297723329, 33344.44413714935, 22166.515549005933, -18929.804137921827, 456.9814153887529, -11151.68764015289, -26640.775995347023, -15208.775127980129, -27507.598997068286, 0.162, 1.0, 0.088, 192.0, 0.0, 0.0, 0.0, 0.0, 0.0, 0.0, 0.0, 0.0, 0.0, 1.695325127153773E9, 0.0, 2023-09-21 14:38:47.153
48.0, 44140.20259859593, 25624.486878453125, -9413.39247386366, -16199.605607939437, -22125.790670608363, -16440.82563410111, -187500.02235174447, -31870.793625210958, 33373.45670145234, 22195.86338947575, -18899.539875929342, 427.54416794111347, -11117.802395558643, -26617.708995069148, -15188.81502018154, -27474.272546085424, 0.162, 0.994, 0.098, 192.0, 2.5, 8.0, 15.5, 8.0, 1.5, 8.0, 0.0, 0.0, 0.0, 1.695325127153782E9, 0.0, 2023-09-21 14:38:47.153
50.0, 44117.292060529246, 25598.983538029617, -9441.287450943883, -16229.333428064994, -22152.344543021267, -16466.73130592481, -187500.02235174447, -31903.762448282538, 33365.52183217071, 22194.611691786253, -18906.08893705475, 457.6072642335015, -11129.626468375502, -26620.0335764925, -15195.587598751497, -27485.49312180199, 0.162, 0.994, 0.098, 192.0, 0.0, 0.0, 0.0, 0.0, 0.0, 0.0, 0.0, 0.0, 0.0, 1.695325127153786E9, 0.0, 2023-09-21 14:38:47.153
52.0, 44128.55733973472, 25609.35474745688, -9427.652886826145, -16214.290704046573, -22129.61281891022, -16462.21625354484, -187500.02235174447, -31887.669192274716, 33369.52279442821, 22189.58254928381, -18903.1608585311, 438.80944714658824, -11121.669247349411, -26624.906256783757, -15200.326168576023, -27482.766208978443, 0.162, 0.994, 0.098, 192.0, 0.0, 0.0, 0.0, 0.0, 0.0, 0.0, 0.0, 0.0, 0.0, 1.695325127153789E9, 0.0, 2023-09-21 14:38:47.153
54.0, 44108.30665925821, 25587.49474137959, -9444.349639934258, -16235.681323490302, -22144.946115606563, -16480.231759575818, -187500.02235174447, -31897.906291235246, 33364.2254309923, 22182.765267224942, -18909.575809189773, 437.89302562392066, -11122.160985727429, -26630.583599875405, -15196.347558062978, -27487.884758458706, 0.162, 0.994, 0.098, 192.0, 0.0, 0.0, 0.0, 0.0, 0.0, 0.0, 0.0, 0.0, 0.0, 1.695325127153792E9, 0.0, 2023-09-21 14:38:47.153
56.0, 44104.81978712318, 25589.34993616938, -9441.756837577443, -16224.55015475156, -22134.95488583504, -16468.340631525592, -187500.02235174447, -31884.897575962255, 33342.41012840392, 22167.186101339594, -18930.005303621925, 446.2302263057502, -11144.535081927192, -26645.961600060655, -15209.423328569334, -27496.803104496375, 0.162, 0.994, 0.098, 192.0, 0.0, 0.0, 0.0, 0.0, 0.0, 0.0, 0.0, 0.0, 0.0, 1.695325127153796E9, 0.0, 2023-09-21 14:38:47.153
58.0, 44101.131749288055, 25587.517093124046, -9444.81902656782, -16234.608439756446, -22141.3251330048, -16472.5874629721, -187500.02235174447, -31896.74400052357, 33342.298369681645, 22169.08599961829, -18924.93145763057, 443.1680373153731, -11140.86939583652, -26641.044216280487, -15195.542895262588, -27489.315270103845, 0.166, 0.996, 0.1, 192.0, 2.5, 24.0, 15.5, 16.0, 1.5, 16.0, 0.0, 0.0, 0.0, 1.695325127153799E9, 0.0, 2023-09-21 14:38:47.153
60.0, 44106.42911272396, 25594.624947860833, -9441.332154432792, -16226.003018141153, -22131.46801370001, -16469.391163514993, -187500.02235174447, -31889.457331831138, 33356.08939601057, 22179.300746834368, -18912.59329469124, 454.67918570985626, -11127.413645674425, -26635.635094122303, -15195.028805140115, -27482.341525833792, 0.166, 0.996, 0.1, 192.0, 0.0, 0.0, 0.0, 0.0, 0.0, 0.0, 0.0, 0.0, 0.0, 1.695325127214572E9, 0.0, 2023-09-21 14:38:47.214
62.0, 44110.497130214826, 25596.860122306363, -9438.605241609244, -16224.080768117998, -22125.880077586186, -16470.59815771558, -187500.02235174447, -31878.1249973923, 33342.45483189283, 22164.05685711585, -18927.88188789867, 430.24872902020564, -11142.523424926214, -26647.392111705794, -15204.10361338897, -27494.411467839658, 0.166, 0.996, 0.1, 192.0, 0.0, 0.0, 0.0, 0.0, 0.0, 0.0, 0.0, 0.0, 0.0, 1.695325127214584E9, 0.0, 2023-09-21 14:38:47.214
64.0, 44129.18318857947, 25616.999044060594, -9422.333171645781, -16205.126488819897, -22103.818905808796, -16445.29598299217, -187500.02235174447, -31861.11531986181, 33371.445044451364, 22194.119953408237, -18900.769221874383, 451.54994148611325, -11114.717854823812, -26620.45825963715, -15177.996775865171, -27466.695304715075, 0.166, 0.996, 0.1, 192.0, 0.0, 0.0, 0.0, 0.0, 0.0, 0.0, 0.0, 0.0, 0.0, 1.695325127214589E9, 0.0, 2023-09-21 14:38:47.214
66.0, 44106.11618830159, 25592.54623562649, -9437.91233753113, -16234.16140486734, -22132.250324755947, -16475.180265328916, -187500.02235174447, -31892.005430699046, 33365.94651531536, 22189.11316265025, -18904.971349831983, 410.400379943893, -11117.802395558643, -26626.73909982909, -15181.751868933663, -27475.34542981928, 0.166, 0.996, 0.1, 192.0, 0.0, 0.0, 0.0, 0.0, 0.0, 0.0, 0.0, 0.0, 0.0, 1.695325127214592E9, 0.0, 2023-09-21 14:38:47.214
68.0, 44105.02095282328, 25594.6920030942, -9445.757799834944, -16229.713407720736, -22131.51271718892, -16464.5855384571, -187500.02235174447, -31897.772180768512, 33348.15452672893, 22171.6340984862, -18922.964504118503, 469.9230754283757, -11137.181358001395, -26640.060739524455, -15206.24938085668, -27495.707869018064, 0.168, 0.996, 0.1, 192.0, 2.5, 32.0, 15.5, 16.0, 1.5, 16.0, 0.0, 0.0, 0.0, 1.695325127214596E9, 0.0, 2023-09-21 14:38:47.214
70.0, 44115.526272717274, 25604.280901465525, -9431.273869427905, -16220.146861093863, -22130.082205543782, -16464.36202101255, -187500.02235174447, -31881.343648593862, 33364.00191354775, 22191.39304058469, -18904.59137017624, 413.77549335664435, -11122.831538061087, -26605.9296257412, -15189.619682981931, -27473.24436584048, 0.168, 0.996, 0.1, 192.0, 0.0, 0.0, 0.0, 0.0, 0.0, 0.0, 0.0, 0.0, 0.0, 1.6953251272146E9, 0.0, 2023-09-21 14:38:47.214
72.0, 44093.643914895525, 25586.332450667913, -9459.63823314169, -16237.536518280092, -22144.6778946731, -16477.571901985633, -187500.02235174447, -31894.88880573378, 33335.97282600079, 22162.15695883715, -18931.860498411716, 481.3224651005823, -11151.531177941702, -26659.41735022275, -15211.278523359124, -27493.807970739363, 0.168, 0.996, 0.1, 192.0, 0.0, 0.0, 0.0, 0.0, 0.0, 0.0, 0.0, 0.0, 0.0, 1.695325127214604E9, 0.0, 2023-09-21 14:38:47.214
74.0, 44114.11811281659, 25605.934930555217, -9432.793788050865, -16215.452994758249, -22126.550629919842, -16456.53891045319, -187500.02235174447, -31875.822767713402, 33358.74925360075, 22185.983918426504, -18909.754623145418, 411.4062084443818, -11125.178471228895, -26624.213352705643, -15196.548723763077, -27473.37847630721, 0.168, 0.996, 0.1, 192.0, 0.0, 0.0, 0.0, 0.0, 0.0, 0.0, 0.0, 0.0, 0.0, 1.695325127214607E9, 0.0, 2023-09-21 14:38:47.214
76.0, 44114.18516804995, 25608.281863723027, -9436.750046819454, -16215.475346502704, -22120.739176361465, -16452.515596451234, -187500.02235174447, -31875.30867759093, 33354.72593959879, 22183.05583990286, -18913.465012725, 475.60041852002365, -11132.040456776675, -26624.772146317024, -15194.447659784277, -27474.63017399671, 0.168, 0.996, 0.1, 192.0, 0.0, 0.0, 0.0, 0.0, 0.0, 0.0, 0.0, 0.0, 0.0, 1.695325127273515E9, 0.0, 2023-09-21 14:38:47.273
78.0, 44103.94806908943, 25594.937872283208, -9437.577061364302, -16232.127396121909, -22132.697359645055, -16472.006317616262, -187500.02235174447, -31895.961689467633, 33361.36440770202, 22188.174389383126, -18908.614684178196, 402.2196414732506, -11127.167776485418, -26625.0850707394, -15191.76545044964, -27474.42900829661, 0.164, 0.996, 0.098, 192.0, 2.5, 16.0, 15.5, 16.0, 1.5, 8.0, 0.0, 0.0, 0.0, 1.695325127273543E9, 0.0, 2023-09-21 14:38:47.273
80.0, 44105.69150515694, 25599.11764849635, -9445.176654479106, -16226.49475651917, -22127.6235136537, -16459.355230254558, -187500.02235174447, -31876.20274736914, 33343.773584815695, 22167.320211806324, -18927.613666965208, 472.98526441875276, -11139.550642913657, -26638.250248223576, -15204.19302036679, -27493.29388061689, 0.164, 0.996, 0.098, 192.0, 0.0, 0.0, 0.0, 0.0, 0.0, 0.0, 0.0, 0.0, 0.0, 1.695325127273547E9, 0.0, 2023-09-21 14:38:47.273
82.0, 44114.72160991688, 25607.186628244715, -9430.044523482862, -16219.766881438123, -22115.777089092386, -16460.718686666332, -187500.02235174447, -31871.93356417818, 33366.10297752655, 22193.3376423523, -18903.540838186844, 403.6725048628455, -11117.19889845835, -26615.65263457926, -15185.976348635717, -27463.52135700242, 0.164, 0.996, 0.098, 192.0, 0.0, 0.0, 0.0, 0.0, 0.0, 0.0, 0.0, 0.0, 0.0, 1.695325127273551E9, 0.0, 2023-09-21 14:38:47.273
84.0, 44128.02089786779, 25620.798840617997, -9423.227241423994, -16208.501602232649, -22101.04728949634, -16449.319296994126, -187500.02235174447, -31861.11531986181, 33364.78422460368, 22185.76040098195, -18904.390204476145, 463.7092904698003, -11122.786834572176, -26631.969408031633, -15182.377717778412, -27473.356124562757, 0.164, 0.996, 0.098, 192.0, 0.0, 0.0, 0.0, 0.0, 0.0, 0.0, 0.0, 0.0, 0.0, 1.695325127273554E9, 0.0, 2023-09-21 14:38:47.273
86.0, 44125.15987457751, 25618.92129408375, -9415.515889586914, -16210.44620400026, -22103.215408708504, -16450.168663283428, -187500.02235174447, -31866.92677342019, 33382.46445446783, 22199.95375871107, -18886.374698445165, 387.53454536611383, -11101.396215128449, -26606.68958505268, -15173.727592674208, -27458.268697055424, 0.164, 0.996, 0.098, 192.0, 0.0, 0.0, 0.0, 0.0, 0.0, 0.0, 0.0, 0.0, 0.0, 1.695325127273557E9, 0.0, 2023-09-21 14:38:47.273
88.0, 44116.085066328655, 25611.366404457858, -9424.031904224385, -16215.54240173607, -22108.110440744214, -16455.890709863987, -187500.02235174447, -31870.63716299977, 33371.579154918094, 22184.53105503691, -18899.338710229244, 444.5091419826916, -11113.980247256786, -26622.9840067606, -15181.014261366638, -27471.031543139405, 0.166, 0.994, 0.10200000000000001, 192.0, 2.5, 24.0, 15.5, 8.0, 1.5, 24.0, 0.0, 0.0, 0.0, 1.69532512727356E9, 0.0, 2023-09-21 14:38:47.273
90.0, 44109.78187439226, 25606.918407311252, -9427.138796703674, -16221.800890183556, -22111.95494079053, -16461.29983202217, -187500.02235174447, -31874.012276412523, 33366.214736248825, 22180.731258479507, -18904.479611453964, 394.44123440280373, -11113.6226193455, -26628.84016380789, -15188.4350405258, -27474.585470507798, 0.166, 0.994, 0.10200000000000001, 192.0, 0.0, 0.0, 0.0, 0.0, 0.0, 0.0, 0.0, 0.0, 0.0, 1.695325127333315E9, 0.0, 2023-09-21 14:38:47.333
92.0, 44090.40291194951, 25587.606500101865, -9450.094038259273, -16242.096274148975, -22136.519507946912, -16473.50388449477, -187500.02235174447, -31899.40385811375, 33360.93972455737, 22177.95964216705, -18910.134602801158, 438.2730052796609, -11118.741168825767, -26623.989835261087, -15190.379642293412, -27481.02277291093, 0.166, 0.994, 0.10200000000000001, 192.0, 0.0, 0.0, 0.0, 0.0, 0.0, 0.0, 0.0, 0.0, 0.0, 1.695325127333329E9, 0.0, 2023-09-21 14:38:47.333
94.0, 44085.01614153578, 25586.041877989996, -9452.642137127177, -16237.581221769004, -22142.509775460934, -16471.22400656033, -187500.02235174447, -31890.93254696519, 33340.17495395839, 22156.837243656784, -18935.03444612437, 405.7065136082785, -11141.830520848098, -26650.878983840823, -15218.25226762918, -27497.652470785677, 0.166, 0.994, 0.10200000000000001, 192.0, 0.0, 0.0, 0.0, 0.0, 0.0, 0.0, 0.0, 0.0, 0.0, 1.695325127333332E9, 0.0, 2023-09-21 14:38:47.333
96.0, 44093.82272885117, 25589.528750125024, -9446.87538705771, -16234.004942656155, -22135.871307357706, -16465.16668381294, -187500.02235174447, -31884.249375373052, 33349.40622441843, 22166.359086794746, -18926.02669310888, 443.8609413934877, -11127.81597707462, -26637.982027290112, -15214.117194904948, -27497.384249852214, 0.166, 0.994, 0.10200000000000001, 192.0, 0.0, 0.0, 0.0, 0.0, 0.0, 0.0, 0.0, 0.0, 0.0, 1.695325127333335E9, 0.0, 2023-09-21 14:38:47.333
98.0, 44119.97426986388, 25618.563666172467, -9413.079549441285, -16205.484116731182, -22106.210542465513, -16429.180375239896, -187500.02235174447, -31850.811165667914, 33381.6821434119, 22201.697194778586, -18895.427154949564, 407.89698456489856, -11095.629465058979, -26604.655576307247, -15193.419479539334, -27473.601993751767, 0.168, 0.998, 0.10400000000000001, 192.0, 2.5, 32.0, 15.5, 24.0, 1.5, 32.0, 0.0, 0.0, 0.0, 1.695325127333339E9, 0.0, 2023-09-21 14:38:47.333
100.0, 44089.26297298229, 25587.20416870167, -9437.934689275586, -16232.328561822005, -22128.584638665277, -16462.462122733847, -187500.02235174447, -31873.7217037346, 33369.12046302801, 22192.95766269656, -18907.474745210977, 428.4605894637811, -11109.711064065823, -26616.92668401321, -15192.123078360926, -27487.99651718098, 0.168, 0.998, 0.10400000000000001, 192.0, 0.0, 0.0, 0.0, 0.0, 0.0, 0.0, 0.0, 0.0, 0.0, 1.695325127333346E9, 0.0, 2023-09-21 14:38:47.333
102.0, 44086.446653180916, 25585.86306403435, -9443.880253300698, -16239.12349213642, -22133.300856745347, -16465.278442535215, -187500.02235174447, -31878.728494492592, 33356.201154732844, 22178.361973567247, -18924.573829719287, 423.74437138371127, -11126.050189262653, -26632.75171908757, -15211.636151270408, -27503.26275864396, 0.168, 0.998, 0.10400000000000001, 192.0, 0.0, 0.0, 0.0, 0.0, 0.0, 0.0, 0.0, 0.0, 0.0, 1.695325127333351E9, 0.0, 2023-09-21 14:38:47.333
104.0, 44081.81984207867, 25580.96803199864, -9449.401134181158, -16248.153596896364, -22138.888792859172, -16472.051021105173, -187500.02235174447, -31883.891747461766, 33359.151585000945, 22186.274491104425, -18922.830393651773, 425.84543536251016, -11128.44182591937, -26621.84406779338, -15212.10553790397, -27510.482372103022, 0.168, 0.998, 0.10400000000000001, 192.0, 0.0, 0.0, 0.0, 0.0, 0.0, 0.0, 0.0, 0.0, 0.0, 1.695325127333354E9, 0.0, 2023-09-21 14:38:47.333
106.0, 44104.976249334366, 25605.19732298819, -9434.53722411838, -16223.030236128598, -22114.100708258236, -16449.8333871166, -187500.02235174447, -31859.79656693895, 33350.41205291892, 22182.42999105811, -18932.866326912204, 448.21953156227255, -11129.335895697583, -26636.46210866715, -15221.001532197182, -27516.182066939124, 0.168, 0.998, 0.10400000000000001, 192.0, 0.0, 0.0, 0.0, 0.0, 0.0, 0.0, 0.0, 0.0, 0.0, 1.695325127393591E9, 0.0, 2023-09-21 14:38:47.393
108.0, 44102.98694407785, 25596.16721822825, -9430.022171738407, -16228.819337942523, -22117.90050481564, -16454.996640085774, -187500.02235174447, -31876.090988646865, 33380.117521300024, 22198.29972962138, -18906.26775101039, 421.1515690268957, -11103.899610507442, -26614.490343867583, -15188.211523081247, -27491.28222361591, 0.162, 0.99, 0.10400000000000001, 192.0, 2.5, 8.0, 15.0, 120.0, 1.5, 32.0, 0.0, 0.0, 0.0, 1.695325127393599E9, 0.0, 2023-09-21 14:38:47.393
110.0, 44103.523385944776, 25597.329508939925, -9433.352581662248, -16226.49475651917, -22115.33005420328, -16456.82948313111, -187500.02235174447, -31866.457386786627, 33372.65203865195, 22185.469828304034, -18914.49319296994, 445.6267292054569, -11114.136709467974, -26622.581675360405, -15200.080299387015, -27508.291901146404, 0.162, 0.99, 0.10400000000000001, 192.0, 0.0, 0.0, 0.0, 0.0, 0.0, 0.0, 0.0, 0.0, 0.0, 1.695325127393603E9, 0.0, 2023-09-21 14:38:47.393
112.0, 44093.06276953969, 25577.592918585888, -9438.471131142513, -16238.475291547215, -22131.04333055536, -16461.992736100285, -187500.02235174447, -31883.914099206224, 33380.16222478893, 22179.278395089914, -18909.665216167596, 410.7803595996332, -11107.900572764942, -26630.248323708576, -15196.593427251986, -27501.944005721096, 0.162, 0.99, 0.10400000000000001, 192.0, 0.0, 0.0, 0.0, 0.0, 0.0, 0.0, 0.0, 0.0, 0.0, 1.695325127393606E9, 0.0, 2023-09-21 14:38:47.393
114.0, 44090.984057305344, 25577.190587185694, -9439.968698021019, -16238.028256658108, -22124.538972918865, -16463.892634378986, -187500.02235174447, -31885.970459696113, 33370.08158803959, 22163.632173971197, -18922.49511748494, 454.32155779857135, -11120.48460489328, -26634.18223073271, -15208.350444835478, -27512.44932561509, 0.162, 0.99, 0.10400000000000001, 192.0, 0.0, 0.0, 0.0, 0.0, 0.0, 0.0, 0.0, 0.0, 0.0, 1.695325127393609E9, 0.0, 2023-09-21 14:38:47.393
116.0, 44109.245432525335, 25592.747401326586, -9419.427444866591, -16218.425776770804, -22108.579827377776, -16444.06663704713, -187500.02235174447, -31865.608020497326, 33376.94357358737, 22162.805159426352, -18918.158879060615, 402.73373159572265, -11115.05313099064, -26636.953847045166, -15207.858706457462, -27509.498895346987, 0.162, 0.99, 0.10400000000000001, 192.0, 0.0, 0.0, 0.0, 0.0, 0.0, 0.0, 0.0, 0.0, 0.0, 1.695325127393613E9, 0.0, 2023-09-21 14:38:47.393
118.0, 44105.44563596793, 25588.880549535817, -9431.229165938994, -16221.622076227914, -22110.70324310103, -16450.63804991699, -187500.02235174447, -31863.283439073974, 33381.70449515635, 22173.511645020444, -18910.492230712443, 443.7268309267558, -11104.72662505229, -26625.88973353979, -15192.614816738942, -27495.976089951528, 0.16, 0.994, 0.10400000000000001, 192.0, 2.5, 0.0, 15.5, 8.0, 1.5, 32.0, 0.0, 0.0, 0.0, 1.695325127393616E9, 0.0, 2023-09-21 14:38:47.393
120.0, 44100.6623626545, 25583.940814011195, -9428.971639749008, -16228.595820497969, -22115.262998969913, -16458.148236053974, -187500.02235174447, -31878.661439259227, 33384.83373938009, 22176.931461922108, -18907.45239346652, 380.02435922913065, -11102.759671540221, -26620.637073592792, -15189.776145193118, -27490.075229415328, 0.16, 0.994, 0.10400000000000001, 192.0, 0.0, 0.0, 0.0, 0.0, 0.0, 0.0, 0.0, 0.0, 0.0, 1.69532512745375E9, 0.0, 2023-09-21 14:38:47.453
122.0, 44123.79641816574, 25610.673500379744, -9413.7724535194, -16197.638654427368, -22090.3631556467, -16427.57104963911, -187500.02235174447, -31848.553639477926, 33373.16612877442, 22167.566080995333, -18915.87900112617, 445.02323210516363, -11111.812128044621, -26615.205599690154, -15194.179438850813, -27494.523226561934, 0.16, 0.994, 0.10400000000000001, 192.0, 0.0, 0.0, 0.0, 0.0, 0.0, 0.0, 0.0, 0.0, 0.0, 1.695325127453761E9, 0.0, 2023-09-21 14:38:47.453
124.0, 44110.25126102582, 25592.00979375956, -9416.901697743142, -16217.129375592396, -22105.539990131856, -16443.083160291095, -187500.02235174447, -31865.25039258604, 33392.32157377262, 22180.373630568225, -18898.89167534014, 370.8824957469101, -11093.461345846814, -26614.758564801046, -15175.314566530535, -27474.49606352998, 0.16, 0.994, 0.10400000000000001, 192.0, 0.0, 0.0, 0.0, 0.0, 0.0, 0.0, 0.0, 0.0, 0.0, 1.695325127453765E9, 0.0, 2023-09-21 14:38:47.453
126.0, 44116.35328726212, 25597.485971151113, -9419.62861056669, -16215.229477313696, -22097.694527828044, -16438.702218377857, -187500.02235174447, -31851.749938935038, 33378.999934077256, 22166.649659472663, -18911.78863189085, 439.94938611380894, -11107.118261709007, -26621.41938464873, -15183.405898023357, -27490.276395115423, 0.16, 0.994, 0.10400000000000001, 192.0, 0.0, 0.0, 0.0, 0.0, 0.0, 0.0, 0.0, 0.0, 0.0, 1.695325127453769E9, 0.0, 2023-09-21 14:38:47.453
128.0, 44108.463121469395, 25584.723125067132, -9423.786035035377, -16225.421872785315, -22107.126963988183, -16457.00829708675, -187500.02235174447, -31878.281459603484, 33388.0300388372, 22171.455284530555, -18904.65842540961, 374.50347834866983, -11099.406909871926, -26618.491306125085, -15179.986081121693, -27486.54365379139, 0.16, 0.992, 0.108, 192.0, 2.5, 0.0, 15.5, 0.0, 1.5, 48.0, 0.0, 0.0, 0.0, 1.695325127453773E9, 0.0, 2023-09-21 14:38:47.453
130.0, 44110.18420579245, 25588.858197791364, -9430.558613605335, -16219.252791315652, -22101.673138341088, -16445.608907414546, -187500.02235174447, -31866.390331553263, 33373.65786715244, 22152.948040121562, -18920.25994303941, 441.1116768254849, -11111.186279199872, -26628.281370196506, -15192.77127895013, -27498.211264397058, 0.16, 0.992, 0.108, 192.0, 0.0, 0.0, 0.0, 0.0, 0.0, 0.0, 0.0, 0.0, 0.0, 1.695325127453776E9, 0.0, 2023-09-21 14:38:47.453
132.0, 44107.65845866901, 25586.06422973445, -9419.203927422039, -16220.9291721498, -22105.674100598586, -16444.468968447323, -187500.02235174447, -31874.54871827945, 33379.42461722191, 22164.660354216143, -18912.28037026887, 370.9048474913654, -11104.994845985753, -26618.156029958252, -15186.758659691652, -27485.560177035353, 0.16, 0.992, 0.108, 192.0, 0.0, 0.0, 0.0, 0.0, 0.0, 0.0, 0.0, 0.0, 0.0, 1.69532512745378E9, 0.0, 2023-09-21 14:38:47.453
134.0, 44111.30179301522, 25590.78044781452, -9425.238898424972, -16221.219744827718, -22102.366042419202, -16451.353305739558, -187500.02235174447, -31871.419474055707, 33372.67439039641, 22149.841147642273, -18919.857611639218, 434.8084848890883, -11111.05216873314, -26623.095765482878, -15192.257188827658, -27496.44547658509, 0.16, 0.992, 0.108, 192.0, 0.0, 0.0, 0.0, 0.0, 0.0, 0.0, 0.0, 0.0, 0.0, 1.695325127453783E9, 0.0, 2023-09-21 14:38:47.453
136.0, 44114.29692677223, 25592.993270515595, -9418.220450666005, -16219.319846549017, -22102.768373819395, -16447.665267904435, -187500.02235174447, -31872.91704093421, 33387.62770743701, 22164.52624374941, -18906.133640543656, 362.16531540934034, -11096.791755770655, -26617.0831462244, -15184.009395123649, -27487.05774391386, 0.16, 0.992, 0.108, 192.0, 0.0, 0.0, 0.0, 0.0, 0.0, 0.0, 0.0, 0.0, 0.0, 1.695325127514039E9, 0.0, 2023-09-21 14:38:47.514
138.0, 44096.68375214145, 25576.67649706322, -9444.43904691208, -16246.901899206865, -22122.259094984423, -16472.54275948319, -187500.02235174447, -31896.006392956544, 33367.73465487178, 22143.582659194788, -18927.121928587192, 420.2574992486834, -11114.539040868169, -26634.070472010433, -15205.042386656092, -27510.25885465847, 0.166, 0.998, 0.108, 192.0, 2.5, 24.0, 15.5, 24.0, 1.5, 48.0, 0.0, 0.0, 0.0, 1.695325127514048E9, 0.0, 2023-09-21 14:38:47.514
140.0, 44103.2104615224, 25585.393677400793, -9436.437122397081, -16238.095311891475, -22117.47582167099, -16466.64189894699, -187500.02235174447, -31884.495244562062, 33369.74631187276, 22144.90141211765, -18927.591315220754, 369.6084463129576, -11115.611924602024, -26641.915934314246, -15212.507869304165, -27512.359918637267, 0.166, 0.998, 0.108, 192.0, 0.0, 0.0, 0.0, 0.0, 0.0, 0.0, 0.0, 0.0, 0.0, 1.695325127514052E9, 0.0, 2023-09-21 14:38:47.514
142.0, 44104.21629002289, 25585.773657056532, -9438.135854975684, -16238.363532824938, -22120.493307172455, -16461.098666322072, -187500.02235174447, -31881.276593360497, 33364.15837575893, 22136.743025391464, -18931.41346352261, 415.98831605771977, -11125.379636928992, -26646.185117505207, -15209.57979078052, -27513.902189004682, 0.166, 0.998, 0.108, 192.0, 0.0, 0.0, 0.0, 0.0, 0.0, 0.0, 0.0, 0.0, 0.0, 1.695325127514056E9, 0.0, 2023-09-21 14:38:47.514
144.0, 44110.40772323701, 25594.31202343846, -9429.463378127024, -16228.327599564505, -22113.47485941349, -16450.526291194714, -187500.02235174447, -31881.321296849408, 33379.84930036656, 22153.126854077203, -18914.828469136773, 370.6366265579017, -11109.800471043643, -26623.609855605348, -15196.235799340702, -27493.852674228274, 0.166, 0.998, 0.108, 192.0, 0.0, 0.0, 0.0, 0.0, 0.0, 0.0, 0.0, 0.0, 0.0, 1.69532512751406E9, 0.0, 2023-09-21 14:38:47.514
146.0, 44085.194955491424, 25565.232403902104, -9453.826779583309, -16253.115684165441, -22136.519507946912, -16479.717669453345, -187500.02235174447, -31898.286270890985, 33363.376064703, 22135.647789913153, -18931.07818735578, 407.7181706092561, -11120.73047408229, -26638.339655201395, -15202.695453488286, -27506.72727903453, 0.166, 0.998, 0.108, 192.0, 0.0, 0.0, 0.0, 0.0, 0.0, 0.0, 0.0, 0.0, 0.0, 1.695325127514063E9, 0.0, 2023-09-21 14:38:47.514
148.0, 44090.11233927159, 25570.149787682272, -9451.949233049063, -16249.718219008235, -22134.15022303465, -16470.64286120449, -187500.02235174447, -31894.59823305586, 33349.003893018235, 22123.309626973823, -18944.69039972906, 391.78137681262217, -11138.142483012973, -26646.296876227487, -15219.459261829767, -27518.104316962283, 0.162, 0.998, 0.108, 192.0, 2.5, 8.0, 15.5, 24.0, 1.5, 48.0, 0.0, 0.0, 0.0, 1.695325127514066E9, 0.0, 2023-09-21 14:38:47.514
150.0, 44097.89074634203, 25575.894186007285, -9446.316593446327, -16241.224556115218, -22129.81398461032, -16462.73034366731, -187500.02235174447, -31887.535081807982, 33358.391625689466, 22137.748853891953, -18932.732216445474, 395.17884196982885, -11130.073503264608, -26642.698245370182, -15204.461241300254, -27505.587340067308, 0.162, 0.998, 0.108, 192.0, 0.0, 0.0, 0.0, 0.0, 0.0, 0.0, 0.0, 0.0, 0.0, 1.695325127573384E9, 0.0, 2023-09-21 14:38:47.573
152.0, 44108.39606623603, 25587.181816957214, -9441.376857921703, -16230.78629145459, -22122.572019406798, -16453.566128440634, -187500.02235174447, -31880.49428230456, 33355.083567510075, 22134.865478857217, -18933.78274843487, 390.6190861009462, -11133.336857955082, -26643.189983748198, -15214.497174560687, -27507.040203456905, 0.162, 0.998, 0.108, 192.0, 0.0, 0.0, 0.0, 0.0, 0.0, 0.0, 0.0, 0.0, 0.0, 1.695325127573399E9, 0.0, 2023-09-21 14:38:47.573
154.0, 44119.28136578576, 25595.183741472214, -9430.111578716229, -16227.701750719758, -22116.067661770307, -16446.413570214936, -187500.02235174447, -31874.235793857075, 33370.394512461964, 22145.683723173588, -18918.22593429398, 384.7182255647452, -11121.378674671492, -26633.824602821423, -15199.253284842169, -27492.980956194515, 0.162, 0.998, 0.108, 192.0, 0.0, 0.0, 0.0, 0.0, 0.0, 0.0, 0.0, 0.0, 0.0, 1.695325127573406E9, 0.0, 2023-09-21 14:38:47.573
156.0, 44117.94026111845, 25600.570511885944, -9431.586793850278, -16226.248887330163, -22114.637150125167, -16450.906270850453, -187500.02235174447, -31875.241622357564, 33381.65979166744, 22152.769226165918, -18907.206524277513, 392.47428089073674, -11112.147404211451, -26625.286236439497, -15193.330072561512, -27488.912938703652, 0.162, 0.998, 0.108, 192.0, 0.0, 0.0, 0.0, 0.0, 0.0, 0.0, 0.0, 0.0, 0.0, 1.695325127573409E9, 0.0, 2023-09-21 14:38:47.573
158.0, 44091.699313127916, 25572.519072594532, -9452.932709805096, -16255.619079544436, -22143.00151383895, -16482.779858443722, -187500.02235174447, -31908.769239040525, 33360.336227457075, 22134.641961412664, -18926.45137625353, 380.80667028506645, -11131.526366654201, -26645.425158193728, -15209.19981112478, -27511.711718048064, 0.166, 1.004, 0.10200000000000001, 192.0, 2.5, 24.0, 15.5, 48.0, 1.5, 24.0, 0.0, 0.0, 0.0, 1.695325127573419E9, 0.0, 2023-09-21 14:38:47.573
160.0, 44108.53017670276, 25588.053534990973, -9445.981317279497, -16234.742550223178, -22130.216316010516, -16465.658422190954, -187500.02235174447, -31888.69737251966, 33349.763852329714, 22125.030711296884, -18937.291972314357, 414.78132185713315, -11141.137616769984, -26651.817757107947, -15223.951962465282, -27523.60284609829, 0.166, 1.004, 0.10200000000000001, 192.0, 0.0, 0.0, 0.0, 0.0, 0.0, 0.0, 0.0, 0.0, 0.0, 1.695325127573422E9, 0.0, 2023-09-21 14:38:47.573
162.0, 44103.2104615224, 25579.626927331323, -9438.672296842611, -16241.537480537592, -22134.351388734747, -16473.4368292614, -187500.02235174447, -31896.140503423278, 33367.62289614951, 22144.074397572804, -18919.03059709437, 372.29065564759446, -11119.344665926059, -26629.60012311937, -15200.683796487308, -27501.3405086208, 0.166, 1.004, 0.10200000000000001, 192.0, 0.0, 0.0, 0.0, 0.0, 0.0, 0.0, 0.0, 0.0, 0.0, 1.695325127573425E9, 0.0, 2023-09-21 14:38:47.573
164.0, 44099.14244403153, 25578.174063941726, -9444.796674823365, -16242.74447473818, -22132.317379989312, -16474.93439613991, -187500.02235174447, -31892.07248593241, 33359.26334372322, 22131.177441022093, -18929.401806521633, 414.5354526681248, -11124.038532261675, -26635.99272203359, -15211.30087510358, -27517.5455233509, 0.166, 1.004, 0.10200000000000001, 192.0, 0.0, 0.0, 0.0, 0.0, 0.0, 0.0, 0.0, 0.0, 0.0, 1.695325127573429E9, 0.0, 2023-09-21 14:38:47.573
166.0, 44100.572955676675, 25573.502549350567, -9441.44391315507, -16247.46069281825, -22133.502022445446, -16478.868303164043, -187500.02235174447, -31900.588500569884, 33359.12923325649, 22126.14829851965, -18927.591315220754, 364.35578636596045, -11129.045323019664, -26662.814815379956, -15206.204677367768, -27514.885665760718, 0.166, 1.004, 0.10200000000000001, 192.0, 0.0, 0.0, 0.0, 0.0, 0.0, 0.0, 0.0, 0.0, 0.0, 1.695325127633266E9, 0.0, 2023-09-21 14:38:47.633
168.0, 44102.651667911014, 25579.850444775875, -9446.16013123514, -16240.486948548192, -22129.121080532204, -16467.223044302827, -187500.02235174447, -31890.999602198557, 33349.160355229425, 22123.175516507094, -18936.576716491785, 420.1680922708622, -11137.449578934858, -26655.70696064317, -15217.693474017797, -27523.245218187003, 0.162, 1.004, 0.098, 192.0, 2.5, 8.0, 15.5, 48.0, 1.5, 8.0, 0.0, 0.0, 0.0, 1.695325127633276E9, 0.0, 2023-09-21 14:38:47.633
170.0, 44116.59915645113, 25593.194436215694, -9423.33900014627, -16225.421872785315, -22117.364062948713, -16447.575860926612, -187500.02235174447, -31878.46027355913, 33370.90860258444, 22145.594316195766, -18914.157916803113, 351.5929402819801, -11114.58374435708, -26630.583599875405, -15199.432098797812, -27501.429915598623, 0.162, 1.004, 0.098, 192.0, 0.0, 0.0, 0.0, 0.0, 0.0, 0.0, 0.0, 0.0, 0.0, 1.695325127633281E9, 0.0, 2023-09-21 14:38:47.633
172.0, 44112.0617523267, 25587.11476172385, -9435.945384019064, -16230.674532732313, -22122.23674323997, -16458.952898854364, -187500.02235174447, -31882.081256160887, 33369.634553150485, 22146.421330740613, -18915.811945892805, 412.3002782225941, -11113.287343178672, -26631.65648360926, -15196.459316785254, -27500.53584582041, 0.162, 1.004, 0.098, 192.0, 0.0, 0.0, 0.0, 0.0, 0.0, 0.0, 0.0, 0.0, 0.0, 1.695325127633286E9, 0.0, 2023-09-21 14:38:47.633
174.0, 44102.025819066264, 25574.95541274016, -9438.649945098156, -16242.610364271446, -22131.982103822484, -16469.88290189301, -187500.02235174447, -31893.793570255468, 33365.18655600388, 22138.66527541462, -18920.774033161884, 344.77565822311146, -11118.942334525864, -26636.484460411604, -15205.24355235619, -27507.643700557197, 0.162, 1.004, 0.098, 192.0, 0.0, 0.0, 0.0, 0.0, 0.0, 0.0, 0.0, 0.0, 0.0, 1.69532512763329E9, 0.0, 2023-09-21 14:38:47.633
176.0, 44096.527289930265, 25570.82034001593, -9448.618823125224, -16243.146806138375, -22132.38443522268, -16472.49805599428, -187500.02235174447, -31893.905328977744, 33343.66182609342, 22117.498173415446, -18940.823547938293, 418.9834498147309, -11138.835387091087, -26652.577716419426, -15215.3912443389, -27525.234523443523, 0.162, 1.004, 0.098, 192.0, 0.0, 0.0, 0.0, 0.0, 0.0, 0.0, 0.0, 0.0, 0.0, 1.695325127633294E9, 0.0, 2023-09-21 14:38:47.633
178.0, 44125.98688912236, 25601.73280259762, -9408.586848805768, -16209.775651666601, -22099.348556917736, -16436.7799683547, -187500.02235174447, -31859.953029150132, 33371.33328572909, 22150.154072064648, -18913.666178425097, 341.8475796994662, -11107.431186131382, -26615.719689812624, -15190.62551148242, -27492.936252705607, 0.162, 0.996, 0.094, 192.0, 2.5, 8.0, 15.5, 16.0, 1.0, 120.0, 0.0, 0.0, 0.0, 1.695325127633298E9, 0.0, 2023-09-21 14:38:47.633
180.0, 44088.257144481795, 25563.936002723694, -9446.718924846522, -16244.800835228067, -22138.218240525515, -16478.421268274935, -187500.02235174447, -31900.856721503347, 33364.51600367022, 22144.00734233944, -18919.298818027833, 401.2138129727618, -11111.968590255809, -26639.479594168617, -15185.90929340235, -27493.942081206096, 0.162, 0.996, 0.094, 192.0, 0.0, 0.0, 0.0, 0.0, 0.0, 0.0, 0.0, 0.0, 0.0, 1.695325127693479E9, 0.0, 2023-09-21 14:38:47.693
182.0, 44081.43986242293, 25554.123586907815, -9451.569253393323, -16257.138998167396, -22146.53308946289, -16490.804134703176, -187500.02235174447, -31917.598178100372, 33336.844544034546, 22113.094879757748, -18945.13743461817, 352.59876878246894, -11142.858701093042, -26664.915879358756, -15217.604067039976, -27528.87785778974, 0.162, 0.996, 0.094, 192.0, 0.0, 0.0, 0.0, 0.0, 0.0, 0.0, 0.0, 0.0, 0.0, 1.695325127693491E9, 0.0, 2023-09-21 14:38:47.693
184.0, 44089.240621237834, 25557.90103172076, -9454.474980172514, -16248.153596896364, -22140.453414971045, -16476.655480462967, -187500.02235174447, -31888.45150333065, 33325.534561340166, 22102.254283696926, -18955.307478345334, 418.4023044588929, -11156.783837888699, -26673.923632374244, -15223.34846536499, -27535.53867763742, 0.162, 0.996, 0.094, 192.0, 0.0, 0.0, 0.0, 0.0, 0.0, 0.0, 0.0, 0.0, 0.0, 1.695325127693495E9, 0.0, 2023-09-21 14:38:47.693
186.0, 44110.31831625919, 25578.196415686183, -9430.424503138604, -16227.947619908766, -22120.225086238992, -16461.29983202217, -187500.02235174447, -31888.8761864753, 33354.48007040979, 22127.4223479536, -18927.390149520656, 349.11189664744103, -11122.451558405348, -26641.915934314246, -15200.683796487308, -27498.85946498626, 0.162, 0.996, 0.094, 192.0, 0.0, 0.0, 0.0, 0.0, 0.0, 0.0, 0.0, 0.0, 0.0, 1.695325127693498E9, 0.0, 2023-09-21 14:38:47.693
188.0, 44120.913043131004, 25590.311061180957, -9425.373008891704, -16220.996227383164, -22110.23385646747, -16449.006372571752, -187500.02235174447, -31869.921907177202, 33363.97956180329, 22136.38539748018, -18919.678797683573, 393.0107227576641, -11114.650799590445, -26632.93053304321, -15190.603159737964, -27499.798238253385, 0.164, 1.002, 0.096, 192.0, 2.5, 16.0, 15.5, 40.0, 1.5, 0.0, 0.0, 0.0, 0.0, 1.695325127693501E9, 0.0, 2023-09-21 14:38:47.693
190.0, 44111.748827904325, 25579.35870639786, -9437.308840430838, -16240.822224715022, -22129.925743332595, -16465.613718702047, -187500.02235174447, -31884.07056141741, 33369.478090939294, 22141.481595215988, -18915.342559259243, 340.55117852105843, -11113.44380538986, -26629.957751030655, -15193.888866172894, -27494.322060861836, 0.164, 1.002, 0.096, 192.0, 0.0, 0.0, 0.0, 0.0, 0.0, 0.0, 0.0, 0.0, 0.0, 1.695325127693504E9, 0.0, 2023-09-21 14:38:47.693
192.0, 44108.9101563585, 25576.81060752995, -9442.449741655559, -16243.63854451639, -22125.611856652722, -16463.132675067507, -187500.02235174447, -31879.086122403878, 33352.40135817544, 22122.728481617985, -18931.92755364508, 387.98158025521997, -11133.605078888546, -26643.949943059677, -15206.852877956973, -27514.68450006062, 0.164, 1.002, 0.096, 192.0, 0.0, 0.0, 0.0, 0.0, 0.0, 0.0, 0.0, 0.0, 0.0, 1.695325127693508E9, 0.0, 2023-09-21 14:38:47.693
194.0, 44101.04234231023, 25568.518110337034, -9445.981317279497, -16252.489835320692, -22127.489403186966, -16467.759486169754, -187500.02235174447, -31887.64684053026, 33354.27890470969, 22119.599237394243, -18930.094710599747, 355.59390253948004, -11128.263011963727, -26649.98491406261, -15200.773203465129, -27508.58247382432, 0.164, 1.002, 0.096, 192.0, 0.0, 0.0, 0.0, 0.0, 0.0, 0.0, 0.0, 0.0, 0.0, 1.695325127693511E9, 0.0, 2023-09-21 14:38:47.693
196.0, 44099.656534154004, 25563.645430045777, -9456.218416240026, -16256.177873155819, -22133.56907767881, -16475.515541495748, -187500.02235174447, -31897.079276690398, 33337.336282412565, 22103.058946497316, -18948.400789308642, 388.5403738666027, -11150.838273863588, -26671.822568395444, -15217.291142617602, -27526.150944966193, 0.164, 1.002, 0.096, 192.0, 0.0, 0.0, 0.0, 0.0, 0.0, 0.0, 0.0, 0.0, 0.0, 1.695325127753915E9, 0.0, 2023-09-21 14:38:47.753
198.0, 44109.245432525335, 25573.815473772942, -9445.62368936821, -16250.008791686154, -22118.548705404843, -16472.743925183288, -187500.02235174447, -31889.770256253512, 33365.05244553715, 22123.644903140656, -18924.685588441564, 361.2935973755834, -11121.378674671492, -26647.70503612817, -15203.164840121848, -27511.041165714403, 0.164, 0.996, 0.092, 192.0, 2.5, 16.0, 15.5, 16.0, 1.0, 112.0, 0.0, 0.0, 0.0, 1.695325127753924E9, 0.0, 2023-09-21 14:38:47.753
200.0, 44109.7595226478, 25581.571529098932, -9443.232052711493, -16243.92911719431, -22124.918952574608, -16468.54179722569, -187500.02235174447, -31893.70416327765, 33351.820212819606, 22117.922856560097, -18935.03444612437, 373.8105742705553, -11132.599250388057, -26652.533012930515, -15209.982122180716, -27517.5455233509, 0.164, 0.996, 0.092, 192.0, 0.0, 0.0, 0.0, 0.0, 0.0, 0.0, 0.0, 0.0, 0.0, 1.695325127753928E9, 0.0, 2023-09-21 14:38:47.753
202.0, 44103.14340628903, 25580.029258731516, -9443.455570156048, -16243.795006727578, -22126.52827817539, -16477.661308963456, -187500.02235174447, -31894.59823305586, 33351.57434363059, 22129.836336354772, -18927.300742542833, 377.67742606132344, -11131.079331765097, -26645.358102960363, -15207.501078546176, -27509.029508713425, 0.164, 0.996, 0.092, 192.0, 0.0, 0.0, 0.0, 0.0, 0.0, 0.0, 0.0, 0.0, 0.0, 1.695325127753931E9, 0.0, 2023-09-21 14:38:47.753
204.0, 44096.951973074916, 25568.227537659113, -9449.132913247695, -16253.719181265735, -22136.586563180277, -16487.764297457255, -187500.02235174447, -31908.813942529436, 33342.5218871262, 22112.55843789082, -18935.772053691395, 380.42669062932623, -11143.216329004328, -26662.56894619095, -15213.290180360102, -27524.58632285432, 0.164, 0.996, 0.092, 192.0, 0.0, 0.0, 0.0, 0.0, 0.0, 0.0, 0.0, 0.0, 0.0, 1.695325127753934E9, 0.0, 2023-09-21 14:38:47.753
206.0, 44097.846042853125, 25572.764941783542, -9444.707267845544, -16244.733779994702, -22132.13856603367, -16469.145294325983, -187500.02235174447, -31893.100666177354, 33345.874648794495, 22114.61479838071, -18931.659332711617, 397.7939960710998, -11142.00933480374, -26647.727387872626, -15214.407767582867, -27519.26660767396, 0.164, 0.996, 0.092, 192.0, 0.0, 0.0, 0.0, 0.0, 0.0, 0.0, 0.0, 0.0, 0.0, 1.695325127753938E9, 0.0, 2023-09-21 14:38:47.753
208.0, 44090.87229858307, 25562.974877712117, -9447.188311480084, -16252.087503920497, -22140.833394626785, -16478.577730486122, -187500.02235174447, -31909.998584985566, 33339.41499464691, 22111.32909194578, -18936.666123469608, 379.5996760844798, -11143.305735982149, -26664.200623536188, -15212.574924537532, -27513.49985760449, 0.154, 0.992, 0.092, 192.0, 2.0, 104.0, 15.5, 0.0, 1.0, 112.0, 0.0, 0.0, 0.0, 1.695325127753941E9, 0.0, 2023-09-21 14:38:47.753
210.0, 44096.862566097094, 25575.894186007285, -9445.44487541257, -16246.343105595482, -22128.76345262092, -16484.612701489055, -187500.02235174447, -31899.716782536125, 33344.75706157173, 22116.738214103963, -18933.2686583124, 407.9640397982645, -11138.477759179803, -26651.08014954092, -15214.67598851633, -27515.667976816654, 0.154, 0.992, 0.092, 192.0, 0.0, 0.0, 0.0, 0.0, 0.0, 0.0, 0.0, 0.0, 0.0, 1.695325127814066E9, 0.0, 2023-09-21 14:38:47.814
212.0, 44092.34751371712, 25567.10995043635, -9451.055163270852, -16254.03210568811, -22136.474804458, -16485.97615790083, -187500.02235174447, -31909.104515207353, 33336.10693646752, 22109.965635534005, -18942.47757702799, 367.66384454534585, -11146.882015094998, -26665.251155525584, -15223.482575831722, -27527.357939166777, 0.154, 0.992, 0.092, 192.0, 0.0, 0.0, 0.0, 0.0, 0.0, 0.0, 0.0, 0.0, 0.0, 1.695325127814078E9, 0.0, 2023-09-21 14:38:47.814
214.0, 44095.96849631888, 25571.200319671672, -9454.810256339342, -16254.74736151068, -22130.95392357754, -16484.702108466878, -187500.02235174447, -31906.01997447252, 33343.59477086005, 22114.61479838071, -18934.542707746354, 412.07676077804103, -11142.545776670668, -26666.03346658152, -15214.67598851633, -27519.221904185048, 0.154, 0.992, 0.092, 192.0, 0.0, 0.0, 0.0, 0.0, 0.0, 0.0, 0.0, 0.0, 0.0, 1.695325127814081E9, 0.0, 2023-09-21 14:38:47.814
216.0, 44112.665249426995, 25587.20416870167, -9436.146549719162, -16238.631753758402, -22115.732385603475, -16462.193901800383, -187500.02235174447, -31887.87035797481, 33346.03111100568, 22113.631321624678, -18932.575754234287, 356.3315101065052, -11136.48845392328, -26657.740969388604, -15215.882982716917, -27520.093622218803, 0.154, 0.992, 0.092, 192.0, 0.0, 0.0, 0.0, 0.0, 0.0, 0.0, 0.0, 0.0, 0.0, 1.695325127814085E9, 0.0, 2023-09-21 14:38:47.814
218.0, 44113.984002349855, 25590.78044781452, -9433.151415962151, -16236.374227568416, -22106.501115143434, -16460.003430843764, -187500.02235174447, -31879.73432299308, 33359.1739367454, 22123.577847907287, -18919.522335472386, 405.9970862861975, -11122.831538061087, -26643.16763200374, -15196.593427251986, -27503.01688945495, 0.154, 1.004, 0.094, 192.0, 2.0, 104.0, 15.5, 48.0, 1.0, 120.0, 0.0, 0.0, 0.0, 1.695325127814088E9, 0.0, 2023-09-21 14:38:47.814
220.0, 44102.58461267765, 25578.24111917509, -9436.571232863813, -16245.672553261824, -22120.582714150278, -16473.50388449477, -187500.02235174447, -31894.620584800316, 33357.966942544816, 22126.930609575586, -18920.304646528322, 339.9923849096757, -11124.999657273253, -26643.949943059677, -15196.81694469654, -27507.621348812743, 0.154, 1.004, 0.094, 192.0, 0.0, 0.0, 0.0, 0.0, 0.0, 0.0, 0.0, 0.0, 0.0, 1.695325127814091E9, 0.0, 2023-09-21 14:38:47.814
222.0, 44099.321257987176, 25577.101180207872, -9444.01436376743, -16248.801797485567, -22117.922856560097, -16474.129733339516, -187500.02235174447, -31897.79453251297, 33344.0194540047, 22110.010339022916, -18932.97808563448, 408.61224038746843, -11139.81886384712, -26665.117045058854, -15208.842183213495, -27521.3453199083, 0.154, 1.004, 0.094, 192.0, 0.0, 0.0, 0.0, 0.0, 0.0, 0.0, 0.0, 0.0, 0.0, 1.695325127814094E9, 0.0, 2023-09-21 14:38:47.814
224.0, 44113.62637443857, 25591.227482703627, -9425.551822847347, -16235.59191651248, -22107.86457155521, -16464.898462879475, -187500.02235174447, -31886.59630854086, 33361.096186768555, 22128.696397387554, -18916.75071915993, 338.15954186434055, -11122.96564852782, -26640.619533135836, -15198.426270297323, -27503.39686911069, 0.154, 1.004, 0.094, 192.0, 0.0, 0.0, 0.0, 0.0, 0.0, 0.0, 0.0, 0.0, 0.0, 1.695325127814098E9, 0.0, 2023-09-21 14:38:47.814
226.0, 44119.370772763585, 25600.570511885944, -9429.977468249497, -16229.802814698556, -22106.94815003254, -16453.990811585285, -187500.02235174447, -31878.169700881208, 33363.71134086983, 22131.84799335575, -18913.84499238074, 403.6278013739349, -11117.131843224985, -26638.87609706832, -15196.079337129515, -27506.92844473463, 0.154, 1.004, 0.094, 192.0, 0.0, 0.0, 0.0, 0.0, 0.0, 0.0, 0.0, 0.0, 0.0, 1.69532512787349E9, 0.0, 2023-09-21 14:38:47.873
228.0, 44124.28815654376, 25601.419878175246, -9426.445892625557, -16225.086596618487, -22108.401013422135, -16447.508805693247, -187500.02235174447, -31883.15413989474, 33371.28858224017, 22142.42036848311, -18906.06658531029, 333.04099238407525, -11114.24846819025, -26629.153088230265, -15192.190133594291, -27491.77396199393, 0.158, 1.0, 0.106, 192.0, 2.0, 120.0, 15.5, 32.0, 1.5, 40.0, 0.0, 0.0, 0.0, 1.6953251278735E9, 0.0, 2023-09-21 14:38:47.873
230.0, 44110.072447070175, 25585.550139611976, -9446.093076001773, -16239.347009580972, -22122.549667662344, -16467.155989069463, -187500.02235174447, -31890.440808587173, 33352.96015178682, 22125.075414785795, -18925.043216352846, 404.0524845185858, -11137.807206846144, -26643.257038981563, -15206.718767490242, -27510.281206402924, 0.158, 1.0, 0.106, 192.0, 0.0, 0.0, 0.0, 0.0, 0.0, 0.0, 0.0, 0.0, 0.0, 1.695325127873504E9, 0.0, 2023-09-21 14:38:47.873
232.0, 44114.8110168947, 25593.708526338163, -9431.385628150181, -16229.7804629541, -22114.972426291995, -16454.907233107955, -187500.02235174447, -31886.395142840764, 33362.16907050241, 22129.65752239913, -18916.571905204288, 340.61823375442435, -11125.625506118002, -26644.84401283789, -15199.745023220185, -27498.01009869696, 0.158, 1.0, 0.106, 192.0, 0.0, 0.0, 0.0, 0.0, 0.0, 0.0, 0.0, 0.0, 0.0, 1.695325127873507E9, 0.0, 2023-09-21 14:38:47.873
234.0, 44111.2123860374, 25592.25566294857, -9437.286488686383, -16235.167233367829, -22113.586618135767, -16457.991773842787, -187500.02235174447, -31879.421398570707, 33361.453814679844, 22130.350426477245, -18917.957713360516, 396.2293739592283, -11128.687695108378, -26636.618570878338, -15194.179438850813, -27496.646642285188, 0.158, 1.0, 0.106, 192.0, 0.0, 0.0, 0.0, 0.0, 0.0, 0.0, 0.0, 0.0, 0.0, 1.69532512787351E9, 0.0, 2023-09-21 14:38:47.873
236.0, 44099.67888589846, 25580.498645365078, -9444.193177723071, -16246.41016082885, -22125.969484564004, -16466.30662278016, -187500.02235174447, -31893.525349322004, 33357.117576255514, 22123.95782756303, -18924.909105886116, 341.1993791102623, -11126.430168918392, -26639.591352890893, -15201.644921498886, -27500.848770242785, 0.158, 1.0, 0.106, 192.0, 0.0, 0.0, 0.0, 0.0, 0.0, 0.0, 0.0, 0.0, 0.0, 1.695325127873514E9, 0.0, 2023-09-21 14:38:47.873
238.0, 44102.13757778854, 25584.723125067132, -9442.87442480021, -16240.97868692621, -22118.95103680504, -16459.534044210202, -187500.02235174447, -31889.278517875497, 33343.3712534155, 22110.18915297856, -18939.54949850434, 392.6977983352898, -11142.478721437303, -26654.857594353867, -15206.696415745786, -27509.722412791543, 0.162, 0.998, 0.108, 192.0, 2.5, 8.0, 15.5, 24.0, 1.5, 48.0, 0.0, 0.0, 0.0, 1.695325127873517E9, 0.0, 2023-09-21 14:38:47.873
240.0, 44099.6118306651, 25584.164331455748, -9447.501235902457, -16250.45582657526, -22130.775109621896, -16468.340631525592, -187500.02235174447, -31900.25322440305, 33355.441195421365, 22121.81206009532, -18928.239515809957, 344.32862333400533, -11136.041419034174, -26645.425158193728, -15207.031691912616, -27501.608729554264, 0.162, 0.998, 0.108, 192.0, 0.0, 0.0, 0.0, 0.0, 0.0, 0.0, 0.0, 0.0, 0.0, 1.695325127933259E9, 0.0, 2023-09-21 14:38:47.933
242.0, 44121.58359546466, 25606.046689277493, -9434.984259007486, -16229.892221676377, -22114.815964080808, -16455.331916252606, -187500.02235174447, -31884.69641026216, 33348.91448604041, 22117.85580132673, -18931.83814666726, 388.2274494442284, -11138.745980113266, -26653.22591700863, -15216.397072839389, -27511.465848859054, 0.162, 0.998, 0.108, 192.0, 0.0, 0.0, 0.0, 0.0, 0.0, 0.0, 0.0, 0.0, 0.0, 1.695325127933271E9, 0.0, 2023-09-21 14:38:47.933
244.0, 44130.47958975787, 25615.479125437632, -9424.076607713296, -16219.297494804561, -22104.13183023117, -16448.626392916012, -187500.02235174447, -31871.195956611155, 33374.104902041545, 22139.76051089293, -18904.993701576437, 350.0730216590192, -11117.265953691716, -26626.850858551366, -15194.335901062, -27487.14715089168, 0.162, 0.998, 0.108, 192.0, 0.0, 0.0, 0.0, 0.0, 0.0, 0.0, 0.0, 0.0, 0.0, 1.695325127933274E9, 0.0, 2023-09-21 14:38:47.933
246.0, 44118.34259251864, 25601.30811945297, -9436.414770652626, -16231.59095425498, -22120.80623159483, -16464.294965779183, -187500.02235174447, -31881.9247939497, 33375.35659973104, 22137.637095169677, -18903.83141086476, 371.73186203621174, -11116.81891880261, -26628.393128918786, -15185.57401723552, -27482.810912467354, 0.162, 0.998, 0.108, 192.0, 0.0, 0.0, 0.0, 0.0, 0.0, 0.0, 0.0, 0.0, 0.0, 1.695325127933277E9, 0.0, 2023-09-21 14:38:47.933
248.0, 44109.69246741444, 25596.41308741726, -9444.260232956438, -16237.849442702467, -22131.155089277636, -16469.279404792716, -187500.02235174447, -31902.08606744839, 33353.29542795366, 22116.313530959313, -18927.300742542833, 370.48016434671456, -11144.758599371744, -26650.297838484985, -15210.58561928101, -27505.587340067308, 0.166, 1.004, 0.106, 192.0, 2.5, 24.0, 15.5, 48.0, 1.5, 40.0, 0.0, 0.0, 0.0, 1.695325127933281E9, 0.0, 2023-09-21 14:38:47.933
250.0, 44117.22500529588, 25600.235235719116, -9430.893889772164, -16230.518070521126, -22120.76152810592, -16461.769218655732, -187500.02235174447, -31896.766352268023, 33362.21377399132, 22123.04140604036, -18919.343521516745, 369.2061149127621, -11129.000619530752, -26647.74973961708, -15204.751813978173, -27501.519322576445, 0.166, 1.004, 0.106, 192.0, 0.0, 0.0, 0.0, 0.0, 0.0, 0.0, 0.0, 0.0, 0.0, 1.695325127933284E9, 0.0, 2023-09-21 14:38:47.933
252.0, 44116.33093551766, 25601.375174686335, -9428.166976948616, -16227.344122808472, -22118.839278082763, -16451.599174928568, -187500.02235174447, -31889.680849275694, 33365.63359089298, 22126.975313064493, -18915.74489065944, 371.2624754026503, -11124.753788084245, -26640.17249824673, -15199.007415653161, -27493.003307938972, 0.166, 1.004, 0.106, 192.0, 0.0, 0.0, 0.0, 0.0, 0.0, 0.0, 0.0, 0.0, 0.0, 1.695325127933287E9, 0.0, 2023-09-21 14:38:47.933
254.0, 44114.96747910589, 25596.949529284186, -9429.217508938016, -16236.061303146042, -22125.656560141633, -16468.564148970145, -187500.02235174447, -31895.69346853417, 33363.44311993636, 22125.857725841728, -18914.783765647862, 359.48310607470347, -11127.10072125205, -26636.573867389427, -15195.028805140115, -27492.645680027686, 0.166, 1.004, 0.106, 192.0, 0.0, 0.0, 0.0, 0.0, 0.0, 0.0, 0.0, 0.0, 0.0, 1.69532512793329E9, 0.0, 2023-09-21 14:38:47.933
0.0, 44117.04619134023, 25602.82803807593, -9430.782131049888, -16229.199317598262, -22117.118193759703, -16461.903329122466, -187500.02235174447, -31890.664326031725, 33356.82700357759, 22119.57688564979, -18918.494155227443, 387.8474697884881, -11131.63812537648, -26649.917858829245, -15199.454450542265, -27499.082982430817, 0.166, 1.004, 0.106, 192.0, 0.0, 0.0, 0.0, 0.0, 0.0, 0.0, 0.0, 0.0, 0.0, 1.695325127993562E9, 0.0, 2023-09-21 14:38:47.993
2.0, 44111.25708952631, 25597.620081617843, -9429.441026382568, -16239.525823536615, -22123.84606884075, -16472.11807633854, -187500.02235174447, -31892.363058610328, 33358.54808790065, 22121.834411839773, -18914.001454591926, 356.73384150670074, -11126.564279385124, -26648.576754161928, -15189.664386470842, -27495.953738207074, 0.17, 0.994, 0.108, 192.0, 2.5, 40.0, 15.5, 8.0, 1.5, 48.0, 0.0, 0.0, 0.0, 1.695325127993572E9, 0.0, 2023-09-21 14:38:47.993
4.0, 44112.84406338264, 25603.006852031573, -9431.117407216718, -16231.233326343696, -22114.324225702792, -16459.01995408773, -187500.02235174447, -31880.382523582284, 33349.38387267398, 22116.872324570697, -18923.433890752065, 397.61518211545734, -11138.254241735249, -26649.917858829245, -15197.889828430394, -27497.987746952505, 0.17, 0.994, 0.108, 192.0, 0.0, 0.0, 0.0, 0.0, 0.0, 0.0, 0.0, 0.0, 0.0, 1.695325127993576E9, 0.0, 2023-09-21 14:38:47.993
6.0, 44112.508787215804, 25599.274110707538, -9425.641229825167, -16235.010771156643, -22114.145411747148, -16461.076314577618, -187500.02235174447, -31888.07152367491, 33356.067044266114, 22126.7741473644, -18915.11904181469, 346.5414460350807, -11132.263974221227, -26637.289123211995, -15189.418517281834, -27491.77396199393, 0.17, 0.994, 0.108, 192.0, 0.0, 0.0, 0.0, 0.0, 0.0, 0.0, 0.0, 0.0, 0.0, 1.69532512799358E9, 0.0, 2023-09-21 14:38:47.993
8.0, 44089.82176659367, 25579.91750000924, -9451.412791182136, -16251.64046903139, -22131.222144511004, -16479.091820608595, -187500.02235174447, -31899.739134280582, 33340.24200919175, 22107.685757599564, -18931.79344317835, 397.27990594862774, -11134.879128322498, -26659.059722311464, -15194.738232462196, -27505.766154022953, 0.17, 0.994, 0.108, 192.0, 0.0, 0.0, 0.0, 0.0, 0.0, 0.0, 0.0, 0.0, 0.0, 1.695325127993583E9, 0.0, 2023-09-21 14:38:47.993
10.0, 44100.48354869885, 25591.62981410382, -9440.01340150993, -16240.97868692621, -22127.19883050905, -16470.53110248221, -187500.02235174447, -31898.778009269, 33328.55204684163, 22101.963711019005, -18940.197699093547, 349.91655944783207, -11149.765390129733, -26660.22201302314, -15211.278523359124, -27512.73989829301, 0.17, 0.994, 0.108, 192.0, 0.0, 0.0, 0.0, 0.0, 0.0, 0.0, 0.0, 0.0, 0.0, 1.695325127993588E9, 0.0, 2023-09-21 14:38:47.993
12.0, 44129.63022346857, 25626.11855579836, -9416.074683198296, -16207.696939432257, -22093.157123703615, -16440.19978525636, -187500.02235174447, -31861.741168706558, 33350.79203257466, 22121.700301373043, -18915.5660767038, 403.71720835175614, -11129.626468375502, -26641.9382860587, -15188.792668437085, -27489.29291835939, 0.17200000000000001, 0.998, 0.10400000000000001, 192.0, 2.5, 48.0, 15.5, 24.0, 1.5, 32.0, 0.0, 0.0, 0.0, 1.695325127993592E9, 0.0, 2023-09-21 14:38:47.993
14.0, 44095.812034107694, 25589.528750125024, -9436.81710205282, -16241.291611348584, -22130.126909032693, -16471.5369309827, -187500.02235174447, -31896.341669123372, 33360.202116990346, 22138.95584809254, -18902.847934108726, 332.43749528378197, -11120.126976981996, -26629.130736485808, -15175.180456063803, -27475.121912374725, 0.17200000000000001, 0.998, 0.10400000000000001, 192.0, 0.0, 0.0, 0.0, 0.0, 0.0, 0.0, 0.0, 0.0, 0.0, 1.695325128053763E9, 0.0, 2023-09-21 14:38:48.053
16.0, 44102.316391744185, 25598.760020585065, -9436.526529374902, -16228.30524782005, -22117.90050481564, -16459.936375610396, -187500.02235174447, -31880.471930560107, 33328.50734335272, 22103.416574408602, -18935.593239735754, 412.41203694487064, -11149.20659651835, -26652.71182688616, -15204.260075600158, -27502.167523165648, 0.17200000000000001, 0.998, 0.10400000000000001, 192.0, 0.0, 0.0, 0.0, 0.0, 0.0, 0.0, 0.0, 0.0, 0.0, 1.695325128053779E9, 0.0, 2023-09-21 14:38:48.053
18.0, 44087.54188865923, 25583.046744232983, -9445.131950990195, -16242.185681126795, -22133.70318814554, -16471.64868970498, -187500.02235174447, -31901.996660470566, 33338.722090568794, 22116.447641426046, -18927.568963476297, 337.10900987494114, -11143.484549937792, -26647.12389077233, -15195.788764451596, -27488.39884858118, 0.17200000000000001, 0.998, 0.10400000000000001, 192.0, 0.0, 0.0, 0.0, 0.0, 0.0, 0.0, 0.0, 0.0, 0.0, 1.695325128053783E9, 0.0, 2023-09-21 14:38:48.053
20.0, 44078.04239726572, 25573.189624928193, -9459.504122674958, -16250.321716108529, -22139.201717281547, -16474.64382346199, -187500.02235174447, -31904.768276783027, 33314.91748272389, 22094.207655693015, -18952.826434710794, 408.34401945400475, -11160.248358279272, -26663.150091546788, -15211.3902820814, -27510.68353780312, 0.17200000000000001, 0.998, 0.10400000000000001, 192.0, 0.0, 0.0, 0.0, 0.0, 0.0, 0.0, 0.0, 0.0, 0.0, 1.695325128053787E9, 0.0, 2023-09-21 14:38:48.053
22.0, 44090.49231892733, 25587.092409979396, -9444.48375040099, -16238.140015380386, -22126.28240898638, -16454.147273796472, -187500.02235174447, -31887.06569517442, 33324.30521539512, 22102.5672081193, -18944.623344495696, 344.26156810063935, -11150.63710816349, -26658.545632188994, -15206.495250045687, -27502.97218596604, 0.164, 1.002, 0.106, 192.0, 2.5, 16.0, 15.5, 40.0, 1.5, 40.0, 0.0, 0.0, 0.0, 1.69532512805379E9, 0.0, 2023-09-21 14:38:48.053
24.0, 44119.61664195259, 25617.78135511653, -9424.300125157848, -16211.519087734116, -22107.126963988183, -16429.06861651762, -187500.02235174447, -31875.666305502215, 33340.51023012522, 22117.85580132673, -18929.200640821535, 404.27600196313887, -11140.310602225138, -26639.233724979607, -15190.804325438063, -27485.806046224363, 0.164, 1.002, 0.106, 192.0, 0.0, 0.0, 0.0, 0.0, 0.0, 0.0, 0.0, 0.0, 0.0, 1.695325128053794E9, 0.0, 2023-09-21 14:38:48.053
26.0, 44110.02774358127, 25606.87370382234, -9431.34092466127, -16225.868907674421, -22128.025845053893, -16448.089951049085, -187500.02235174447, -31883.377657339297, 33366.3264949711, 22143.917935361616, -18902.490306197444, 332.8398266839775, -11115.969552513308, -26614.535047356494, -15178.19794156527, -27471.34446756178, 0.164, 1.002, 0.106, 192.0, 0.0, 0.0, 0.0, 0.0, 0.0, 0.0, 0.0, 0.0, 0.0, 1.695325128053802E9, 0.0, 2023-09-21 14:38:48.053
28.0, 44085.55258340271, 25577.34704939688, -9465.852018100264, -16262.346954625484, -22150.556403464845, -16487.07139337914, -187500.02235174447, -31921.107401979854, 33328.77556428618, 22102.008414507916, -18940.443568282553, 401.6831996063232, -11152.15702678645, -26657.718617644146, -15211.81496522605, -27509.565950580356, 0.164, 1.002, 0.106, 192.0, 0.0, 0.0, 0.0, 0.0, 0.0, 0.0, 0.0, 0.0, 0.0, 1.695325128053807E9, 0.0, 2023-09-21 14:38:48.053
30.0, 44099.097740542624, 25597.26245370656, -9441.622727110711, -16242.319791593527, -22120.225086238992, -16468.29592803668, -187500.02235174447, -31894.46412258913, 33336.911599267914, 22102.5672081193, -18934.83328042427, 339.52299827611427, -11144.602137160557, -26667.151053804286, -15209.222162869235, -27515.332700649822, 0.164, 1.002, 0.106, 192.0, 0.0, 0.0, 0.0, 0.0, 0.0, 0.0, 0.0, 0.0, 0.0, 1.695325128114139E9, 0.0, 2023-09-21 14:38:48.114
32.0, 44081.52926940075, 25577.279994163513, -9458.67710813011, -16258.88243423491, -22138.62057192571, -16485.30560556717, -187500.02235174447, -31909.193922185175, 33321.89122699395, 22099.102687728726, -18940.823547938293, 389.2779814336278, -11152.335840742093, -26664.580603191927, -15201.063776143048, -27510.77294478094, 0.16, 1.002, 0.106, 192.0, 2.5, 0.0, 15.5, 40.0, 1.5, 40.0, 0.0, 0.0, 0.0, 1.695325128114149E9, 0.0, 2023-09-21 14:38:48.114
34.0, 44079.607019377596, 25575.670668562732, -9462.611015154245, -16262.436361603304, -22145.03552258438, -16493.061660893163, -187500.02235174447, -31913.485457120594, 33319.566645570594, 22094.14060045965, -18942.90226017264, 363.3946613543822, -11159.130771056507, -26672.04608584, -15212.284351859613, -27515.690328561108, 0.16, 1.002, 0.106, 192.0, 0.0, 0.0, 0.0, 0.0, 0.0, 0.0, 0.0, 0.0, 0.0, 1.695325128114153E9, 0.0, 2023-09-21 14:38:48.114
36.0, 44076.29896119821, 25573.703715050666, -9467.215474512039, -16263.732762781712, -22143.18032779459, -16493.151067870986, -187500.02235174447, -31917.12879146681, 33304.68038376336, 22082.51769334289, -18956.067437656813, 405.90767930837626, -11167.78089616071, -26687.357030791885, -15222.253229886679, -27529.30254093439, 0.16, 1.002, 0.106, 192.0, 0.0, 0.0, 0.0, 0.0, 0.0, 0.0, 0.0, 0.0, 0.0, 1.695325128114156E9, 0.0, 2023-09-21 14:38:48.114
38.0, 44094.87326084057, 25595.250796705583, -9445.713096346033, -16235.748378723667, -22119.643940883154, -16463.132675067507, -187500.02235174447, -31892.810093499436, 33314.78337225716, 22102.23193195247, -18942.052893883338, 383.5782865975245, -11156.895596610975, -26671.12966431733, -15208.953941935772, -27510.325909891835, 0.16, 1.002, 0.106, 192.0, 0.0, 0.0, 0.0, 0.0, 0.0, 0.0, 0.0, 0.0, 0.0, 1.695325128114159E9, 0.0, 2023-09-21 14:38:48.114
40.0, 44093.17452826197, 25593.708526338163, -9443.433218411592, -16235.21193685674, -22118.7722228494, -16457.231814531304, -187500.02235174447, -31885.12109340681, 33328.12736369698, 22121.968522306506, -18926.563134975808, 391.8260803015328, -11134.409741688936, -26643.61466689285, -15180.969557877728, -27485.806046224363, 0.16, 1.002, 0.106, 192.0, 0.0, 0.0, 0.0, 0.0, 0.0, 0.0, 0.0, 0.0, 0.0, 1.695325128114163E9, 0.0, 2023-09-21 14:38:48.114
42.0, 44085.01614153578, 25588.455866391167, -9450.496369659468, -16241.7833497266, -22120.649769383643, -16477.907178152465, -187500.02235174447, -31893.011259199535, 33322.02533746068, 22115.71003385902, -18936.420254280598, 380.47139411823684, -11142.63518364849, -26652.42125420824, -15196.39226155189, -27493.852674228274, 0.16, 1.0, 0.11, 192.0, 2.5, 0.0, 15.5, 32.0, 1.5, 56.0, 0.0, 0.0, 0.0, 1.695325128114166E9, 0.0, 2023-09-21 14:38:48.114
44.0, 44074.91315304198, 25577.68232556371, -9463.236863998993, -16251.327544609017, -22134.351388734747, -16481.68462296541, -187500.02235174447, -31912.41257338674, 33300.634718016954, 22095.839333038253, -18957.52030104641, 379.37615863992676, -11163.735230414299, -26668.000420093587, -15207.47872680172, -27515.869142516753, 0.16, 1.0, 0.11, 192.0, 0.0, 0.0, 0.0, 0.0, 0.0, 0.0, 0.0, 0.0, 0.0, 1.695325128174498E9, 0.0, 2023-09-21 14:38:48.174
46.0, 44100.79647312123, 25607.29838696699, -9436.05714274134, -16219.118680848918, -22106.679929099075, -16438.4787009333, -187500.02235174447, -31875.845119457856, 33330.16137244241, 22124.94130431906, -18927.680722198573, 375.7775277826223, -11137.762503357233, -26645.536916916004, -15188.85972367045, -27478.742894976487, 0.16, 1.0, 0.11, 192.0, 0.0, 0.0, 0.0, 0.0, 0.0, 0.0, 0.0, 0.0, 0.0, 1.695325128174509E9, 0.0, 2023-09-21 14:38:48.174
48.0, 44077.46125190989, 25584.05257273347, -9456.374878451214, -16246.141939895386, -22133.837298612274, -16479.292986308694, -187500.02235174447, -31906.735230295093, 33318.02437520318, 22114.123060002694, -18939.303629315335, 353.8281147275108, -11156.783837888699, -26652.912992586254, -15193.978273150717, -27489.44938057058, 0.16, 1.0, 0.11, 192.0, 0.0, 0.0, 0.0, 0.0, 0.0, 0.0, 0.0, 0.0, 0.0, 1.695325128174512E9, 0.0, 2023-09-21 14:38:48.174
50.0, 44094.068598040176, 25605.040860777004, -9444.617860867722, -16226.45005303026, -22113.18428673557, -16457.902366864964, -187500.02235174447, -31885.791645740468, 33311.58707280005, 22114.48068791398, -18944.33277181778, 381.0525394740748, -11156.202692532861, -26648.75556811757, -15201.220238354235, -27499.97705220903, 0.16, 1.0, 0.11, 192.0, 0.0, 0.0, 0.0, 0.0, 0.0, 0.0, 0.0, 0.0, 0.0, 1.695325128174516E9, 0.0, 2023-09-21 14:38:48.174
52.0, 44072.96855127437, 25580.5880523429, -9459.057087785852, -16246.45486431776, -22137.502984702944, -16479.44944851988, -187500.02235174447, -31905.192959927677, 33324.0146427172, 22127.4223479536, -18931.055835611325, 337.15371336385175, -11141.651706892457, -26643.8381843374, -15187.786839936596, -27481.782732222408, 0.162, 0.99, 0.11, 192.0, 2.5, 8.0, 15.0, 120.0, 1.5, 56.0, 0.0, 0.0, 0.0, 1.695325128174519E9, 0.0, 2023-09-21 14:38:48.174
54.0, 44057.34468190011, 25567.512281836545, -9480.380651996215, -16263.062210448054, -22149.75174066445, -16499.476611551836, -187500.02235174447, -31926.7847450715, 33284.139130608935, 22086.65276606712, -18971.04310644187, 392.9436675242982, -11182.823620179131, -26687.24527206961, -15227.081206689027, -27522.708776320076, 0.162, 0.99, 0.11, 192.0, 0.0, 0.0, 0.0, 0.0, 0.0, 0.0, 0.0, 0.0, 0.0, 1.695325128174522E9, 0.0, 2023-09-21 14:38:48.174
56.0, 44079.53996414423, 25586.667726834745, -9456.263119728937, -16240.933983437299, -22134.66431315712, -16469.860550148554, -187500.02235174447, -31902.868378504325, 33299.56183428309, 22096.465181883003, -18955.508644045432, 338.2936523310724, -11169.747849672778, -26669.855614883378, -15217.335846106513, -27509.744764535997, 0.162, 0.99, 0.11, 192.0, 0.0, 0.0, 0.0, 0.0, 0.0, 0.0, 0.0, 0.0, 0.0, 1.695325128174525E9, 0.0, 2023-09-21 14:38:48.174
58.0, 44098.94127833143, 25604.906750310274, -9440.460436399037, -16216.861154658933, -22109.406841922624, -16452.605003429057, -187500.02235174447, -31881.343648593862, 33323.277035150175, 22118.682815871576, -18930.78761467786, 383.10889996396304, -11146.34557322807, -26646.878021583325, -15190.871380671428, -27484.420238068134, 0.162, 0.99, 0.11, 192.0, 0.0, 0.0, 0.0, 0.0, 0.0, 0.0, 0.0, 0.0, 0.0, 1.695325128174529E9, 0.0, 2023-09-21 14:38:48.174
60.0, 44093.82272885117, 25599.519979896544, -9440.48278814349, -16224.9301344073, -22126.841202597763, -16465.50195997977, -187500.02235174447, -31892.430113843697, 33330.764869542705, 22130.41748171061, -18919.678797683573, 319.24996605515076, -11138.343648713071, -26634.204582477163, -15177.393278764877, -27472.43970304009, 0.162, 0.99, 0.11, 192.0, 0.0, 0.0, 0.0, 0.0, 0.0, 0.0, 0.0, 0.0, 0.0, 1.695325128233328E9, 0.0, 2023-09-21 14:38:48.233
62.0, 44100.4611969544, 25611.142887013306, -9440.371029421214, -16216.615285469925, -22117.989911793462, -16452.582651684603, -187500.02235174447, -31883.891747461766, 33319.1643141704, 22122.504964173433, -18928.03835010986, 386.93104826582055, -11151.195901774872, -26646.453338438674, -15193.888866172894, -27487.169502636138, 0.158, 0.992, 0.11, 192.0, 2.0, 120.0, 15.5, 0.0, 1.5, 56.0, 0.0, 0.0, 0.0, 1.695325128233338E9, 0.0, 2023-09-21 14:38:48.233
64.0, 44087.072502025665, 25593.529712382522, -9448.864692314231, -16235.59191651248, -22137.458281214032, -16477.37073628554, -187500.02235174447, -31903.293061648976, 33320.416011859896, 22122.393205451157, -18926.65254195363, 322.8709486569105, -11152.984041331298, -26640.597181391382, -15193.754755706163, -27486.096618902284, 0.158, 0.992, 0.11, 192.0, 0.0, 0.0, 0.0, 0.0, 0.0, 0.0, 0.0, 0.0, 0.0, 1.695325128233342E9, 0.0, 2023-09-21 14:38:48.233
66.0, 44100.68471439895, 25608.773602101042, -9436.05714274134, -16217.777576181601, -22117.744042604452, -16452.49324470678, -187500.02235174447, -31885.992811440567, 33318.382003114464, 22115.262998969913, -18930.36293153321, 394.19536521379536, -11151.285308752693, -26663.12773980233, -15196.526372018621, -27494.14324690619, 0.158, 0.992, 0.11, 192.0, 0.0, 0.0, 0.0, 0.0, 0.0, 0.0, 0.0, 0.0, 0.0, 1.695325128233345E9, 0.0, 2023-09-21 14:38:48.233
68.0, 44092.12399627257, 25602.001023531084, -9439.34284917627, -16227.16530885283, -22126.729443875487, -16469.50292223727, -187500.02235174447, -31895.49230283407, 33335.81636378961, 22134.3737404792, -18913.30855051381, 321.5521957340474, -11132.576898643601, -26633.668140610236, -15177.259168298146, -27476.2842030864, 0.158, 0.992, 0.11, 192.0, 0.0, 0.0, 0.0, 0.0, 0.0, 0.0, 0.0, 0.0, 0.0, 1.695325128233348E9, 0.0, 2023-09-21 14:38:48.233
70.0, 44096.63904865254, 25608.214808489658, -9439.096979987262, -16218.269314559617, -22119.487478671967, -16455.331916252606, -187500.02235174447, -31885.188148640176, 33323.612311317, 22128.472879943, -18926.898411142636, 389.143870966896, -11144.088047038085, -26639.99368429109, -15187.943302147783, -27491.215168382547, 0.158, 0.992, 0.11, 192.0, 0.0, 0.0, 0.0, 0.0, 0.0, 0.0, 0.0, 0.0, 0.0, 1.695325128233351E9, 0.0, 2023-09-21 14:38:48.233
72.0, 44096.75080737482, 25610.092355023906, -9431.832663039288, -16217.889334903877, -22120.917990317106, -16454.661363918945, -187500.02235174447, -31887.713895763627, 33335.97282600079, 22138.933496348083, -18916.99658834894, 324.01088762413116, -11124.664381106422, -26638.764338346045, -15184.14350559038, -27482.699153745074, 0.162, 0.998, 0.106, 192.0, 2.5, 8.0, 15.5, 24.0, 1.5, 40.0, 0.0, 0.0, 0.0, 1.695325128233355E9, 0.0, 2023-09-21 14:38:48.233
74.0, 44089.86647008258, 25604.079735765426, -9442.136817233184, -16227.522936764115, -22126.416519453112, -16459.712858165843, -187500.02235174447, -31891.536044065484, 33332.2177329323, 22138.933496348083, -18923.612704707706, 389.2109262002619, -11131.705180609844, -26633.55638188796, -15187.898598658872, -27495.461999829055, 0.162, 0.998, 0.106, 192.0, 0.0, 0.0, 0.0, 0.0, 0.0, 0.0, 0.0, 0.0, 0.0, 1.695325128293523E9, 0.0, 2023-09-21 14:38:48.293
76.0, 44080.67990311145, 25595.250796705583, -9445.981317279497, -16239.749340981167, -22133.211449767525, -16462.417419244935, -187500.02235174447, -31895.581709811893, 33327.903846252426, 22136.273638757903, -18930.228821066477, 336.9748994082093, -11137.538985912679, -26639.14431800179, -15203.29895058858, -27508.180142424124, 0.162, 0.998, 0.106, 192.0, 0.0, 0.0, 0.0, 0.0, 0.0, 0.0, 0.0, 0.0, 0.0, 1.695325128293536E9, 0.0, 2023-09-21 14:38:48.293
78.0, 44085.44082468043, 25598.64826186279, -9442.695610844567, -16234.742550223178, -22126.23770549747, -16458.30469826516, -187500.02235174447, -31882.617698027814, 33320.46071534881, 22125.410690952624, -18940.711789216017, 392.58603961301327, -11143.685715637888, -26651.437777452207, -15207.881058201918, -27519.132497207225, 0.162, 0.998, 0.106, 192.0, 0.0, 0.0, 0.0, 0.0, 0.0, 0.0, 0.0, 0.0, 0.0, 1.69532512829354E9, 0.0, 2023-09-21 14:38:48.293
80.0, 44084.211478735386, 25596.278976950525, -9438.649945098156, -16236.888317690888, -22130.395129966157, -16468.273576292228, -187500.02235174447, -31900.32027963642, 33342.27601793719, 22148.656505186143, -18919.499983727932, 339.9476814207651, -11126.229003218294, -26630.583599875405, -15192.86068592795, -27505.833209256318, 0.162, 0.998, 0.106, 192.0, 0.0, 0.0, 0.0, 0.0, 0.0, 0.0, 0.0, 0.0, 0.0, 1.695325128293543E9, 0.0, 2023-09-21 14:38:48.293
82.0, 44093.33099047315, 25603.431535176223, -9432.123235717207, -16226.025369885609, -22117.229952481983, -16447.01706731523, -187500.02235174447, -31877.387389825275, 33321.55595082712, 22127.19883050905, -18940.220050838, 395.0670832475523, -11141.048209792163, -26648.8896785843, -15206.67406400133, -27524.02752924294, 0.156, 1.002, 0.1, 192.0, 2.0, 112.0, 15.5, 40.0, 1.5, 16.0, 0.0, 0.0, 0.0, 1.695325128293547E9, 0.0, 2023-09-21 14:38:48.293
84.0, 44087.63129563705, 25597.8435990624, -9433.978430506997, -16231.076864132508, -22123.71195837402, -16448.268765004726, -187500.02235174447, -31885.612831784827, 33344.13121272698, 22148.56709820832, -18917.60008544923, 355.370385094927, -11119.545831626157, -26621.441736393183, -15186.691604458287, -27500.71465977605, 0.156, 1.002, 0.1, 192.0, 0.0, 0.0, 0.0, 0.0, 0.0, 0.0, 0.0, 0.0, 0.0, 1.69532512829355E9, 0.0, 2023-09-21 14:38:48.293
86.0, 44099.67888589846, 25606.11374451086, -9425.5741745918, -16218.671645959814, -22107.90927504412, -16444.49132019178, -187500.02235174447, -31873.185261867675, 33327.94854974133, 22132.56324917832, -18933.335713545766, 387.95922851076466, -11136.466102178825, -26642.340617458896, -15191.34076730499, -27514.282168660426, 0.156, 1.002, 0.1, 192.0, 0.0, 0.0, 0.0, 0.0, 0.0, 0.0, 0.0, 0.0, 0.0, 1.695325128293553E9, 0.0, 2023-09-21 14:38:48.293
88.0, 44102.11522604409, 25610.606445146375, -9417.996933221451, -16209.35096852195, -22102.94718777504, -16438.322238722114, -187500.02235174447, -31873.632296756783, 33352.04373026416, 22155.272621544915, -18908.771146389383, 360.6453967863795, -11113.466157134313, -26628.013149263043, -15170.263072283635, -27486.610709024753, 0.156, 1.002, 0.1, 192.0, 0.0, 0.0, 0.0, 0.0, 0.0, 0.0, 0.0, 0.0, 0.0, 1.695325128293556E9, 0.0, 2023-09-21 14:38:48.293
90.0, 44102.96459233339, 25608.840657334407, -9417.929877988086, -16211.988474367676, -22108.177495977583, -16436.176471254406, -187500.02235174447, -31868.849023443345, 33335.57049460059, 22139.08995855927, -18923.1656698186, 374.7940510265888, -11132.129863754495, -26641.066568024944, -15180.05313635506, -27504.26858714445, 0.156, 1.002, 0.1, 192.0, 0.0, 0.0, 0.0, 0.0, 0.0, 0.0, 0.0, 0.0, 0.0, 1.695325128353818E9, 0.0, 2023-09-21 14:38:48.353
92.0, 44119.34842101913, 25625.35859648688, -9402.23895338046, -16192.363642735916, -22088.060925967806, -16418.183316967883, -187500.02235174447, -31852.509898246517, 33351.28377095268, 22152.501005232454, -18906.06658531029, 376.0010452271754, -11114.226116445794, -26621.50879162655, -15168.072601327016, -27485.806046224363, 0.154, 0.998, 0.096, 192.0, 2.0, 104.0, 15.5, 24.0, 1.5, 0.0, 0.0, 0.0, 0.0, 1.695325128353829E9, 0.0, 2023-09-21 14:38:48.353
94.0, 44118.14142681855, 25622.654035407788, -9399.243819623449, -16199.940884106265, -22097.158085961117, -16428.085139761584, -187500.02235174447, -31861.852927428834, 33363.197250747355, 22165.174444338616, -18892.968463059482, 361.4053560978599, -11106.894744264453, -26605.84021876338, -15155.533272687588, -27473.087903629294, 0.154, 0.998, 0.096, 192.0, 0.0, 0.0, 0.0, 0.0, 0.0, 0.0, 0.0, 0.0, 0.0, 1.695325128353833E9, 0.0, 2023-09-21 14:38:48.353
96.0, 44104.909194101005, 25614.518000426055, -9415.895869242653, -16210.334445277984, -22104.243588953446, -16436.86937533252, -187500.02235174447, -31871.285363588973, 33338.69973882434, 22137.61474342522, -18918.36004476071, 389.07681573353005, -11132.889823065976, -26635.188059233198, -15176.409802008844, -27497.87598823023, 0.154, 0.998, 0.096, 192.0, 0.0, 0.0, 0.0, 0.0, 0.0, 0.0, 0.0, 0.0, 0.0, 1.695325128353836E9, 0.0, 2023-09-21 14:38:48.353
98.0, 44105.19976677892, 25611.3440527134, -9416.700532043043, -16215.855326158444, -22109.630359367176, -16444.513671936234, -187500.02235174447, -31878.169700881208, 33346.008759261225, 22145.571964451312, -18913.152088302624, 363.59582705447997, -11121.423378160403, -26626.962617273646, -15170.687755428286, -27492.891549216696, 0.154, 0.998, 0.096, 192.0, 0.0, 0.0, 0.0, 0.0, 0.0, 0.0, 0.0, 0.0, 0.0, 1.695325128353839E9, 0.0, 2023-09-21 14:38:48.353
100.0, 44114.07340932768, 25622.02818656304, -9411.738444773966, -16206.132317320385, -22097.35925166121, -16432.555488652648, -187500.02235174447, -31865.228040841586, 33347.41691916191, 22143.493252216966, -18912.03450107986, 393.21188845776186, -11123.032703761186, -26622.246399193577, -15168.206711793748, -27491.416334082645, 0.154, 0.998, 0.096, 192.0, 0.0, 0.0, 0.0, 0.0, 0.0, 0.0, 0.0, 0.0, 0.0, 1.695325128353843E9, 0.0, 2023-09-21 14:38:48.353
102.0, 44094.3591707181, 25598.380040929325, -9428.211680437527, -16228.439358286781, -22123.28727522937, -16454.05786681865, -187500.02235174447, -31890.127884164798, 33342.365424915006, 22134.127871290195, -18915.87900112617, 353.26932111612814, -11130.364075942527, -26642.519431414537, -15172.542950218076, -27495.104371917772, 0.148, 1.002, 0.092, 192.0, 2.0, 80.0, 15.5, 40.0, 1.0, 112.0, 0.0, 0.0, 0.0, 1.695325128353846E9, 0.0, 2023-09-21 14:38:48.353
104.0, 44110.67594417047, 25617.53548592752, -9415.71705528701, -16209.932113877789, -22099.057984239815, -16443.552546924657, -187500.02235174447, -31868.804319954437, 33339.8173260471, 22129.076377043293, -18922.003379106925, 403.560746140569, -11134.163872499928, -26644.240515737598, -15184.232912568203, -27504.24623539999, 0.148, 1.002, 0.092, 192.0, 0.0, 0.0, 0.0, 0.0, 0.0, 0.0, 0.0, 0.0, 0.0, 1.695325128414127E9, 0.0, 2023-09-21 14:38:48.414
106.0, 44101.332914988154, 25602.805686331474, -9422.891965257164, -16227.947619908766, -22116.76056584842, -16464.920814623933, -187500.02235174447, -31891.73720976558, 33340.957265014324, 22127.891734587163, -18920.237591294957, 348.1507716358628, -11131.213442231829, -26641.871230825334, -15179.62845321041, -27503.419220855147, 0.148, 1.002, 0.092, 192.0, 0.0, 0.0, 0.0, 0.0, 0.0, 0.0, 0.0, 0.0, 0.0, 1.695325128414139E9, 0.0, 2023-09-21 14:38:48.414
108.0, 44121.1142088311, 25623.88338135283, -9410.352636617738, -16208.903933632844, -22092.24070218095, -16439.14925326696, -187500.02235174447, -31864.803357696936, 33343.773584815695, 22129.881039843684, -18918.494155227443, 403.9854292852198, -11128.732398597289, -26649.22495475113, -15177.326223531512, -27500.15586616467, 0.148, 1.002, 0.092, 192.0, 0.0, 0.0, 0.0, 0.0, 0.0, 0.0, 0.0, 0.0, 0.0, 1.695325128414143E9, 0.0, 2023-09-21 14:38:48.414
110.0, 44107.72551390237, 25611.478163180134, -9417.10286344324, -16220.124509349407, -22108.42336516659, -16441.272668990216, -187500.02235174447, -31876.06863690241, 33352.13313724198, 22137.65944691413, -18911.83333537976, 335.67849822980145, -11121.87041304951, -26636.41740517824, -15172.408839751344, -27491.68455501611, 0.148, 1.002, 0.092, 192.0, 0.0, 0.0, 0.0, 0.0, 0.0, 0.0, 0.0, 0.0, 0.0, 1.695325128414146E9, 0.0, 2023-09-21 14:38:48.414
112.0, 44120.66717394199, 25626.185611031728, -9404.071796425796, -16201.326692262495, -22085.66928931109, -16421.714892591823, -187500.02235174447, -31857.851965171336, 33350.00972151873, 22134.440795712566, -18912.235666779958, 401.012647272664, -11122.920945038908, -26630.807117319957, -15171.3806595064, -27487.34831659178, 0.152, 1.004, 0.088, 192.0, 2.0, 96.0, 15.5, 48.0, 1.0, 96.0, 0.0, 0.0, 0.0, 1.695325128414149E9, 0.0, 2023-09-21 14:38:48.414
114.0, 44110.698295914925, 25612.282825980525, -9407.536316816368, -16213.82131741301, -22101.22610345198, -16446.614735915035, -187500.02235174447, -31876.69448574716, 33358.570439645104, 22137.68179865859, -18902.423250964075, 330.1576173493406, -11109.465194876813, -26625.822678306424, -15161.300022757057, -27477.08886588679, 0.152, 1.004, 0.088, 192.0, 0.0, 0.0, 0.0, 0.0, 0.0, 0.0, 0.0, 0.0, 0.0, 1.695325128414152E9, 0.0, 2023-09-21 14:38:48.414
116.0, 44111.81588313769, 25614.808573103976, -9417.281677398882, -16218.202259326252, -22103.14835347514, -16450.25807026125, -187500.02235174447, -31875.420436313205, 33338.43151789087, 22124.13664151867, -18921.623399451186, 406.89115606440976, -11129.58176488659, -26636.59621913388, -15181.416592766833, -27502.502799332477, 0.152, 1.004, 0.088, 192.0, 0.0, 0.0, 0.0, 0.0, 0.0, 0.0, 0.0, 0.0, 0.0, 1.695325128414155E9, 0.0, 2023-09-21 14:38:48.414
118.0, 44114.408685494505, 25616.417898704756, -9407.938648216565, -16212.077881345498, -22102.790725563853, -16434.29892472016, -187500.02235174447, -31872.11237813382, 33349.94266628536, 22136.09482480226, -18908.525277200377, 336.9972511526646, -11115.29900017965, -26633.37756793232, -15175.135752574892, -27479.77107522143, 0.152, 1.004, 0.088, 192.0, 0.0, 0.0, 0.0, 0.0, 0.0, 0.0, 0.0, 0.0, 0.0, 1.695325128414158E9, 0.0, 2023-09-21 14:38:48.414
120.0, 44111.72647615987, 25610.897017824296, -9415.985276220474, -16213.01665461262, -22101.449620896536, -16436.712913121333, -187500.02235174447, -31871.08419788888, 33330.58605558706, 22119.353368205237, -18928.865364654706, 409.39455144340417, -11135.661439378435, -26642.60883839236, -15183.182380578803, -27497.11602891875, 0.152, 1.004, 0.088, 192.0, 0.0, 0.0, 0.0, 0.0, 0.0, 0.0, 0.0, 0.0, 0.0, 1.695325128473673E9, 0.0, 2023-09-21 14:38:48.473
122.0, 44118.58846170765, 25617.803706860985, -9402.23895338046, -16204.031253341587, -22096.822809794285, -16433.673075875413, -187500.02235174447, -31868.82667169889, 33357.542259400165, 22142.777996394398, -18902.110326541704, 334.02446914010875, -11109.15227045444, -26623.721614327624, -15161.56824369052, -27466.740008203986, 0.154, 1.0, 0.088, 192.0, 2.0, 104.0, 15.5, 32.0, 1.0, 96.0, 0.0, 0.0, 0.0, 1.695325128473681E9, 0.0, 2023-09-21 14:38:48.473
124.0, 44107.74786564682, 25607.588959644912, -9422.690799557067, -16218.291666304072, -22110.166801234103, -16444.379561469505, -187500.02235174447, -31888.429151586195, 33330.29548290915, 22116.89467631515, -18928.373626276687, 399.8727083054433, -11135.706142867344, -26642.60883839236, -15177.303871787057, -27491.662203271655, 0.154, 1.0, 0.088, 192.0, 0.0, 0.0, 0.0, 0.0, 0.0, 0.0, 0.0, 0.0, 0.0, 1.695325128473685E9, 0.0, 2023-09-21 14:38:48.473
126.0, 44115.48156922836, 25616.55200917149, -9415.091206442263, -16208.68041618829, -22104.489458142456, -16436.668209632422, -187500.02235174447, -31870.793625210958, 33339.79497430265, 22125.745967119452, -18918.248286038433, 343.88158844489914, -11130.833462576087, -26634.875134810824, -15178.153238076358, -27486.54365379139, 0.154, 1.0, 0.088, 192.0, 0.0, 0.0, 0.0, 0.0, 0.0, 0.0, 0.0, 0.0, 0.0, 1.695325128473689E9, 0.0, 2023-09-21 14:38:48.473
128.0, 44115.168644805985, 25615.099145781893, -9418.309857643826, -16210.35679702244, -22104.288292442357, -16433.136634008486, -187500.02235174447, -31875.889822946767, 33332.06127072111, 22112.93841754656, -18927.50190824293, 395.82704255903275, -11140.422360947414, -26645.067530282442, -15180.47781949971, -27490.656374771166, 0.154, 1.0, 0.088, 192.0, 0.0, 0.0, 0.0, 0.0, 0.0, 0.0, 0.0, 0.0, 0.0, 1.695325128473692E9, 0.0, 2023-09-21 14:38:48.473
130.0, 44105.42328422348, 25604.727936354633, -9423.62957282419, -16218.604590726447, -22115.79944083684, -16449.565166183136, -187500.02235174447, -31889.524387064506, 33346.79107031716, 22131.71388288902, -18911.721576657485, 350.6318152704019, -11124.82084331761, -26623.721614327624, -15172.118267073425, -27476.23949959749, 0.154, 1.0, 0.088, 192.0, 0.0, 0.0, 0.0, 0.0, 0.0, 0.0, 0.0, 0.0, 0.0, 1.695325128473696E9, 0.0, 2023-09-21 14:38:48.473
132.0, 44114.63220293906, 25609.868837579354, -9415.851165753742, -16212.68137844579, -22102.634263352666, -16444.67013414742, -187500.02235174447, -31882.081256160887, 33332.91063701041, 22113.43015592458, -18926.02669310888, 392.9660192687535, -11140.06473303613, -26623.766317816535, -15178.332052032001, -27492.802142238874, 0.158, 1.004, 0.092, 192.0, 2.0, 120.0, 15.5, 48.0, 1.0, 112.0, 0.0, 0.0, 0.0, 1.695325128473699E9, 0.0, 2023-09-21 14:38:48.473
134.0, 44115.794493650734, 25611.724032369144, -9413.414825608113, -16207.384015009882, -22102.18722846356, -16434.030703786695, -187500.02235174447, -31874.36990432381, 33335.57049460059, 22111.93258904607, -18924.12679483018, 360.2207136417286, -11132.755712599244, -26654.879946098325, -15183.00356662316, -27480.799255466376, 0.158, 1.004, 0.092, 192.0, 0.0, 0.0, 0.0, 0.0, 0.0, 0.0, 0.0, 0.0, 0.0, 1.695325128534007E9, 0.0, 2023-09-21 14:38:48.534
136.0, 44099.25420275381, 25591.428648403722, -9432.905546773141, -16231.233326343696, -22123.04140604036, -16473.772105428234, -187500.02235174447, -31909.953881496655, 33332.709471310314, 22108.602179122234, -18925.914934386605, 377.498612105681, -11135.527328911701, -26648.08501578391, -15185.059927113049, -27487.303613102868, 0.158, 1.004, 0.092, 192.0, 0.0, 0.0, 0.0, 0.0, 0.0, 0.0, 0.0, 0.0, 0.0, 1.695325128534024E9, 0.0, 2023-09-21 14:38:48.534
138.0, 44114.8110168947, 25611.008776546572, -9418.57807857729, -16212.010826112131, -22106.18819072106, -16448.33582023809, -187500.02235174447, -31882.505939305538, 33329.870799764496, 22103.95301627553, -18927.88188789867, 367.4626788452481, -11139.148311513462, -26652.08597804141, -15189.217351581736, -27493.942081206096, 0.158, 1.004, 0.092, 192.0, 0.0, 0.0, 0.0, 0.0, 0.0, 0.0, 0.0, 0.0, 0.0, 1.695325128534028E9, 0.0, 2023-09-21 14:38:48.534
140.0, 44105.08800805664, 25600.324642696934, -9426.53529960338, -16225.958314652244, -22116.51469665941, -16457.8353116316, -187500.02235174447, -31898.040401701975, 33336.12928821198, 22109.69741460054, -18921.0646058398, 369.16141142385146, -11132.755712599244, -26645.179289004718, -15179.159066576847, -27488.287089858903, 0.158, 1.004, 0.092, 192.0, 0.0, 0.0, 0.0, 0.0, 0.0, 0.0, 0.0, 0.0, 0.0, 1.695325128534031E9, 0.0, 2023-09-21 14:38:48.534
142.0, 44109.46894996989, 25609.93589281272, -9421.416750123113, -16214.491869746671, -22105.60704536522, -16456.96359359784, -187500.02235174447, -31882.282421860986, 33336.75513705672, 22108.602179122234, -18920.572867461786, 371.240123658195, -11133.090988766073, -26650.02961755152, -15183.271787556623, -27493.807970739363, 0.162, 1.006, 0.10200000000000001, 192.0, 2.5, 8.0, 15.5, 56.0, 1.5, 24.0, 0.0, 0.0, 0.0, 1.695325128534034E9, 0.0, 2023-09-21 14:38:48.534
144.0, 44111.16768254849, 25614.138020770315, -9417.192270421061, -16210.803831911546, -22109.183324478072, -16449.45340746086, -187500.02235174447, -31880.56133753793, 33326.18276192937, 22105.85291455423, -18928.015998365405, 360.53363806410295, -11140.690581880877, -26649.694341384693, -15184.679947457309, -27494.25500562847, 0.162, 1.006, 0.10200000000000001, 192.0, 0.0, 0.0, 0.0, 0.0, 0.0, 0.0, 0.0, 0.0, 0.0, 1.695325128534037E9, 0.0, 2023-09-21 14:38:48.534
146.0, 44129.33965079065, 25638.25555303759, -9395.935761444063, -16184.652290898835, -22079.52255958588, -16416.819860556112, -187500.02235174447, -31858.25429657153, 33359.68802686787, 22142.532127205388, -18897.2599979949, 377.72212955023406, -11111.476851877791, -26614.535047356494, -15158.550758189054, -27460.4815197565, 0.162, 1.006, 0.10200000000000001, 192.0, 0.0, 0.0, 0.0, 0.0, 0.0, 0.0, 0.0, 0.0, 0.0, 1.695325128534041E9, 0.0, 2023-09-21 14:38:48.534
148.0, 44106.42911272396, 25611.96990155815, -9420.67914255609, -16213.843669157466, -22112.960769291018, -16447.35234348206, -187500.02235174447, -31885.903404462744, 33339.146773713444, 22130.640999155166, -18915.387262748154, 352.8669897159326, -11131.124035254006, -26617.999567747065, -15169.369002505424, -27473.758455962954, 0.162, 1.006, 0.10200000000000001, 192.0, 0.0, 0.0, 0.0, 0.0, 0.0, 0.0, 0.0, 0.0, 0.0, 1.695325128534044E9, 0.0, 2023-09-21 14:38:48.534
150.0, 44115.325107017175, 25621.804669118486, -9419.516851844413, -16202.712500418724, -22104.243588953446, -16441.6302969015, -187500.02235174447, -31876.850947958344, 33340.80080280314, 22135.983066079985, -18915.94605635954, 387.93687676630935, -11127.503052652246, -26627.74492832958, -15177.594444464976, -27479.502854287966, 0.162, 1.006, 0.10200000000000001, 192.0, 0.0, 0.0, 0.0, 0.0, 0.0, 0.0, 0.0, 0.0, 0.0, 1.69532512859415E9, 0.0, 2023-09-21 14:38:48.594
152.0, 44110.363019748096, 25609.041823034506, -9415.426482609091, -16208.233381299184, -22106.99285352145, -16443.753712624755, -187500.02235174447, -31875.889822946767, 33344.198267960346, 22125.745967119452, -18915.94605635954, 340.6852889877903, -11127.525404396702, -26640.12779475782, -15173.794647907574, -27476.95475542006, 0.168, 1.0, 0.116, 192.0, 2.5, 32.0, 15.5, 32.0, 1.5, 80.0, 0.0, 0.0, 0.0, 1.695325128594157E9, 0.0, 2023-09-21 14:38:48.594
154.0, 44115.615679695096, 25619.77066037305, -9409.838546495264, -16200.67849167329, -22092.151295203126, -16437.383465454994, -187500.02235174447, -31864.40102629674, 33344.958227271825, 22121.834411839773, -18916.437794737554, 391.1555279678736, -11122.96564852782, -26636.529163900515, -15169.614871694432, -27476.373610064224, 0.168, 1.0, 0.116, 192.0, 0.0, 0.0, 0.0, 0.0, 0.0, 0.0, 0.0, 0.0, 0.0, 1.695325128594161E9, 0.0, 2023-09-21 14:38:48.594
156.0, 44097.48841494184, 25594.289671694, -9421.170880934105, -16225.131300107398, -22117.386414693166, -16459.131712810005, -187500.02235174447, -31898.755657524547, 33350.27794245219, 22118.101670515738, -18913.755585402916, 334.7620767071339, -11119.143500225962, -26640.284256969007, -15168.877264127406, -27479.167578121138, 0.168, 1.0, 0.116, 192.0, 0.0, 0.0, 0.0, 0.0, 0.0, 0.0, 0.0, 0.0, 0.0, 1.695325128594164E9, 0.0, 2023-09-21 14:38:48.594
158.0, 44091.58755440564, 25582.130322710316, -9436.146549719162, -16236.30717233505, -22123.153164762636, -16468.74296292579, -187500.02235174447, -31904.433000616194, 33327.747384041235, 22082.85296950972, -18942.388170050166, 403.80661532957737, -11144.222157504817, -26667.374571248838, -15193.665348728342, -27508.470715102045, 0.168, 1.0, 0.116, 192.0, 0.0, 0.0, 0.0, 0.0, 0.0, 0.0, 0.0, 0.0, 0.0, 1.695325128594167E9, 0.0, 2023-09-21 14:38:48.594
160.0, 44118.476702985376, 25608.527732912033, -9412.140776174161, -16218.202259326252, -22107.551647132834, -16458.59527094308, -187500.02235174447, -31885.948107951655, 33348.6239133625, 22099.169742962094, -18921.89162038465, 331.9904603946758, -11127.123072996506, -26653.740007131102, -15177.52738923161, -27491.93042420512, 0.168, 1.0, 0.116, 192.0, 0.0, 0.0, 0.0, 0.0, 0.0, 0.0, 0.0, 0.0, 0.0, 1.69532512859417E9, 0.0, 2023-09-21 14:38:48.594
162.0, 44107.97138309138, 25598.335337440414, -9428.189328693072, -16229.713407720736, -22112.737251846465, -16466.239567546792, -187500.02235174447, -31894.88880573378, 33349.02624476269, 22103.349519175234, -18922.94215237405, 395.044731503097, -11131.258145720738, -26653.65060015328, -15177.348575275968, -27496.087848673804, 0.168, 0.998, 0.12, 192.0, 2.5, 32.0, 15.5, 24.0, 1.5, 96.0, 0.0, 0.0, 0.0, 1.695325128594173E9, 0.0, 2023-09-21 14:38:48.594
164.0, 44117.09089482915, 25607.07486952244, -9414.420654108602, -16219.275143060106, -22107.171667477094, -16454.639012174488, -187500.02235174447, -31887.803302741446, 33349.51798314071, 22104.04242325335, -18922.1151378292, 330.85052142745513, -11119.590535115069, -26653.9411728312, -15177.058002598049, -27493.40563933917, 0.168, 0.998, 0.12, 192.0, 0.0, 0.0, 0.0, 0.0, 0.0, 0.0, 0.0, 0.0, 0.0, 1.695325128654653E9, 0.0, 2023-09-21 14:38:48.654
166.0, 44108.35136274712, 25600.63756711931, -9427.71994205951, -16227.232364086196, -22112.156106490627, -16453.811997629644, -187500.02235174447, -31897.705125535147, 33341.381948158974, 22095.14642896014, -18928.731254187973, 397.7269408377339, -11128.553584641646, -26650.499004185083, -15178.130886331903, -27498.97122370854, 0.168, 0.998, 0.12, 192.0, 0.0, 0.0, 0.0, 0.0, 0.0, 0.0, 0.0, 0.0, 0.0, 1.695325128654666E9, 0.0, 2023-09-21 14:38:48.654
168.0, 44119.63899369705, 25613.31100622547, -9409.43621509507, -16216.905858147844, -22102.209580208015, -16457.38827674249, -187500.02235174447, -31887.088046918878, 33354.14479424296, 22108.51277214441, -18915.431966237065, 326.9613178922317, -11119.210555459327, -26649.202603006674, -15176.633319453398, -27487.258909613956, 0.168, 0.998, 0.12, 192.0, 0.0, 0.0, 0.0, 0.0, 0.0, 0.0, 0.0, 0.0, 0.0, 1.695325128654669E9, 0.0, 2023-09-21 14:38:48.654
170.0, 44105.98207783486, 25597.173046728738, -9427.116444959218, -16227.142957108374, -22116.112365259214, -16464.16085531245, -187500.02235174447, -31899.180340669198, 33348.15452672893, 22099.750888317933, -18921.64575119564, 387.4227866438373, -11125.692561351367, -26650.499004185083, -15172.900578129362, -27492.73508700551, 0.168, 0.998, 0.12, 192.0, 0.0, 0.0, 0.0, 0.0, 0.0, 0.0, 0.0, 0.0, 0.0, 1.695325128654672E9, 0.0, 2023-09-21 14:38:48.654
172.0, 44096.68375214145, 25588.54527336899, -9433.307878173337, -16240.151672381364, -22129.925743332595, -16472.274538549726, -187500.02235174447, -31907.986927984588, 33335.77166030069, 22090.18434169106, -18934.140376346157, 329.57647199350265, -11135.974363800808, -26661.026675823534, -15195.3864330514, -27506.05672670087, 0.168, 1.002, 0.12, 192.0, 2.5, 32.0, 15.5, 40.0, 1.5, 96.0, 0.0, 0.0, 0.0, 1.695325128654676E9, 0.0, 2023-09-21 14:38:48.654
174.0, 44102.20463302191, 25596.703660095176, -9428.993991493464, -16229.132262364898, -22116.872324570697, -16459.06465757664, -187500.02235174447, -31894.106494677842, 33325.243988662245, 22080.394277619635, -18943.304591572833, 394.84356580299925, -11146.323221483615, -26669.252117783086, -15195.297026073578, -27505.766154022953, 0.168, 1.002, 0.12, 192.0, 0.0, 0.0, 0.0, 0.0, 0.0, 0.0, 0.0, 0.0, 0.0, 1.695325128654679E9, 0.0, 2023-09-21 14:38:48.654
176.0, 44104.08217955616, 25598.514151396055, -9425.037732724873, -16225.757148952145, -22117.34171120426, -16450.727456894812, -187500.02235174447, -31891.73720976558, 33338.16329695741, 22090.00552773542, -18929.31239954381, 340.2159023542288, -11136.48845392328, -26656.109292043366, -15187.25039806967, -27493.450342828077, 0.168, 1.002, 0.12, 192.0, 0.0, 0.0, 0.0, 0.0, 0.0, 0.0, 0.0, 0.0, 0.0, 1.695325128654682E9, 0.0, 2023-09-21 14:38:48.654
178.0, 44100.10356904311, 25595.049631005484, -9433.10671247324, -16229.109910620442, -22122.99670255145, -16466.999526858275, -187500.02235174447, -31906.198788428166, 33333.38002364398, 22087.010393978406, -18933.22395482349, 387.3557314104714, -11138.187186501884, -26658.389169977807, -15187.25039806967, -27497.87598823023, 0.168, 1.002, 0.12, 192.0, 0.0, 0.0, 0.0, 0.0, 0.0, 0.0, 0.0, 0.0, 0.0, 1.695325128654685E9, 0.0, 2023-09-21 14:38:48.654
180.0, 44130.52429324678, 25627.63847442132, -9397.679197511578, -16193.101250302941, -22087.14450444514, -16429.783872340187, -187500.02235174447, -31867.373808309298, 33352.04373026416, 22105.338824431758, -18914.224972036478, 339.14301862037405, -11120.194032215362, -26638.250248223576, -15178.421459009822, -27482.341525833792, 0.168, 1.002, 0.12, 192.0, 0.0, 0.0, 0.0, 0.0, 0.0, 0.0, 0.0, 0.0, 0.0, 1.695325128713556E9, 0.0, 2023-09-21 14:38:48.713
182.0, 44124.39991526603, 25624.241009264115, -9398.215639378506, -16198.711538161224, -22096.040498738348, -16434.611849142533, -187500.02235174447, -31867.373808309298, 33360.78326234618, 22117.632283882176, -18902.80323061982, 361.4277078423152, -11109.219325687805, -26622.22404744912, -15156.583804676988, -27468.30463031586, 0.168, 1.0, 0.112, 192.0, 2.5, 32.0, 15.5, 32.0, 1.5, 64.0, 0.0, 0.0, 0.0, 1.695325128713565E9, 0.0, 2023-09-21 14:38:48.713
184.0, 44126.05394435572, 25629.337206999924, -9394.974636432486, -16197.348081749451, -22095.12407721568, -16438.277535233206, -187500.02235174447, -31869.005485654532, 33361.31970421311, 22119.643940883154, -18897.97525381747, 340.3276610765053, -11110.24750593275, -26625.822678306424, -15156.472045954712, -27462.314362801837, 0.168, 1.0, 0.112, 192.0, 0.0, 0.0, 0.0, 0.0, 0.0, 0.0, 0.0, 0.0, 0.0, 1.695325128713569E9, 0.0, 2023-09-21 14:38:48.713
186.0, 44116.576804706674, 25616.619064404855, -9412.654866296634, -16211.206163311741, -22114.793612336354, -16455.95776509735, -187500.02235174447, -31886.775122496503, 33342.65599759293, 22097.247492938935, -18915.49902147043, 364.109917176952, -11133.58272714409, -26650.141376273798, -15170.531293217098, -27486.051915413373, 0.168, 1.0, 0.112, 192.0, 0.0, 0.0, 0.0, 0.0, 0.0, 0.0, 0.0, 0.0, 0.0, 1.695325128713572E9, 0.0, 2023-09-21 14:38:48.713
188.0, 44127.05977285621, 25627.236143021124, -9405.122328415195, -16201.572561451503, -22102.053117996827, -16439.14925326696, -187500.02235174447, -31874.682828746183, 33347.260456950724, 22102.18722846356, -18911.20748653501, 357.80672524055547, -11128.598288130557, -26651.70599838567, -15172.542950218076, -27481.045124655382, 0.168, 1.0, 0.112, 192.0, 0.0, 0.0, 0.0, 0.0, 0.0, 0.0, 0.0, 0.0, 0.0, 1.695325128713575E9, 0.0, 2023-09-21 14:38:48.713
190.0, 44110.720647659386, 25606.918407311252, -9418.421616366102, -16218.87281165991, -22119.979217049982, -16460.472817477326, -187500.02235174447, -31895.045267944966, 33347.260456950724, 22100.28733018486, -18911.989797590948, 352.64347227137955, -11128.039494519175, -26649.694341384693, -15168.363174004935, -27481.91684268914, 0.168, 1.0, 0.112, 192.0, 0.0, 0.0, 0.0, 0.0, 0.0, 0.0, 0.0, 0.0, 0.0, 1.695325128713578E9, 0.0, 2023-09-21 14:38:48.713
192.0, 44111.59236569314, 25611.12053526885, -9421.86378501222, -16216.861154658933, -22114.324225702792, -16457.41062848695, -187500.02235174447, -31886.730419007592, 33335.235218433765, 22091.726612058475, -18923.970332618992, 369.0496527015749, -11140.981154558796, -26647.235649494607, -15180.209598566247, -27489.516435803944, 0.164, 1.0, 0.10400000000000001, 192.0, 2.5, 16.0, 15.5, 32.0, 1.5, 32.0, 0.0, 0.0, 0.0, 1.695325128713581E9, 0.0, 2023-09-21 14:38:48.713
194.0, 44114.900423872525, 25608.907712567772, -9417.974581476998, -16218.112852348431, -22117.744042604452, -16452.761465640244, -187500.02235174447, -31891.60309929885, 33343.19243945985, 22094.94526326004, -18916.638960437653, 347.36846057992705, -11130.051151520152, -26660.26671651205, -15168.51963621612, -27481.983897922506, 0.164, 1.0, 0.10400000000000001, 192.0, 0.0, 0.0, 0.0, 0.0, 0.0, 0.0, 0.0, 0.0, 0.0, 1.695325128774024E9, 0.0, 2023-09-21 14:38:48.774
196.0, 44121.98592686486, 25620.284750495524, -9417.661657054623, -16207.763994665624, -22111.843182068253, -16444.848948103067, -187500.02235174447, -31880.628392771294, 33335.101107967035, 22089.446734124034, -18924.707940186017, 377.5656673390469, -11138.410703946436, -26654.477614698128, -15181.058964855549, -27490.87989221572, 0.164, 1.0, 0.10400000000000001, 192.0, 0.0, 0.0, 0.0, 0.0, 0.0, 0.0, 0.0, 0.0, 0.0, 1.695325128774052E9, 0.0, 2023-09-21 14:38:48.774
198.0, 44117.068543084686, 25608.863009078865, -9416.477014598491, -16221.242096572174, -22121.767356606408, -16461.67981167791, -187500.02235174447, -31893.726515022103, 33352.20019247534, 22103.416574408602, -18909.12877430067, 334.2479865846618, -11122.742131083267, -26641.670065125236, -15166.418572237322, -27475.546595519376, 0.164, 1.0, 0.10400000000000001, 192.0, 0.0, 0.0, 0.0, 0.0, 0.0, 0.0, 0.0, 0.0, 0.0, 1.695325128774056E9, 0.0, 2023-09-21 14:38:48.774
200.0, 44119.48253148586, 25615.389718459814, -9417.348732632248, -16214.11189009093, -22108.91510354461, -16447.7323231378, -187500.02235174447, -31882.707105005637, 33333.11180271051, 22081.444809609035, -18929.781786177373, 381.6783883188234, -11140.131788269495, -26662.479539213127, -15181.57305497802, -27494.992613195493, 0.164, 1.0, 0.10400000000000001, 192.0, 0.0, 0.0, 0.0, 0.0, 0.0, 0.0, 0.0, 0.0, 0.0, 1.69532512877406E9, 0.0, 2023-09-21 14:38:48.774
202.0, 44123.34938327663, 25615.7473463711, -9409.235049394973, -16217.062320359031, -22114.5700948918, -16452.806169129155, -187500.02235174447, -31892.474817332604, 33346.05346275013, 22096.12990571617, -18914.87317262568, 328.59299523746915, -11122.518613638713, -26644.41932969324, -15166.463275726233, -27479.659316499154, 0.162, 1.002, 0.106, 192.0, 2.5, 8.0, 15.5, 40.0, 1.5, 40.0, 0.0, 0.0, 0.0, 1.695325128774064E9, 0.0, 2023-09-21 14:38:48.774
204.0, 44100.48354869885, 25593.48500889361, -9432.324401417303, -16237.491814791181, -22132.38443522268, -16477.460143263357, -187500.02235174447, -31909.26097741854, 33334.36350040001, 22078.44967585202, -18926.138451831157, 382.84067903049936, -11134.789721344678, -26663.731236902626, -15181.394241022379, -27497.183084152115, 0.162, 1.002, 0.106, 192.0, 0.0, 0.0, 0.0, 0.0, 0.0, 0.0, 0.0, 0.0, 0.0, 1.695325128774067E9, 0.0, 2023-09-21 14:38:48.774
206.0, 44099.99181032083, 25594.78141007202, -9426.781168792388, -16230.853346687956, -22130.41748171061, -16470.6875646934, -187500.02235174447, -31899.537968580484, 33311.92234896688, 22055.919117441073, -18949.719542231505, 337.86896918642157, -11156.895596610975, -26691.670917471758, -15199.34269181999, -27510.415316869658, 0.162, 1.002, 0.106, 192.0, 0.0, 0.0, 0.0, 0.0, 0.0, 0.0, 0.0, 0.0, 0.0, 1.695325128774071E9, 0.0, 2023-09-21 14:38:48.774
208.0, 44122.41061000951, 25618.474259194645, -9409.905601728631, -16206.512296976127, -22102.07546974128, -16446.05594230365, -187500.02235174447, -31884.294078861963, 33337.760965557216, 22083.99290847694, -18923.053911096325, 394.46358614725904, -11138.053076035152, -26657.04806531049, -15173.548778718565, -27480.732200233007, 0.162, 1.002, 0.106, 192.0, 0.0, 0.0, 0.0, 0.0, 0.0, 0.0, 0.0, 0.0, 0.0, 1.695325128774075E9, 0.0, 2023-09-21 14:38:48.774
210.0, 44125.673964699985, 25619.97182607315, -9397.366273089203, -16201.706671918235, -22095.74992606043, -16440.49035793428, -187500.02235174447, -31873.654648501237, 33353.54129714266, 22099.79559180684, -18907.69826265553, 317.1265503318966, -11113.220287945305, -26635.143355744287, -15156.159121532337, -27465.667124470132, 0.162, 1.002, 0.106, 192.0, 0.0, 0.0, 0.0, 0.0, 0.0, 0.0, 0.0, 0.0, 0.0, 1.69532512883406E9, 0.0, 2023-09-21 14:38:48.834
212.0, 44105.82561562367, 25604.571474143446, -9424.613049580223, -16216.347064536461, -22110.390318678656, -16454.884881363498, -187500.02235174447, -31890.038477186976, 33329.62493057548, 22078.136751429647, -18932.240478067455, 386.57342035453564, -11134.029762033197, -26667.262812526562, -15169.369002505424, -27483.593223523287, 0.168, 0.996, 0.10400000000000001, 192.0, 2.5, 32.0, 15.5, 16.0, 1.5, 32.0, 0.0, 0.0, 0.0, 1.695325128834069E9, 0.0, 2023-09-21 14:38:48.834
214.0, 44112.464083726896, 25609.086526523417, -9413.079549441285, -16214.11189009093, -22101.919007530094, -16450.615698172536, -187500.02235174447, -31881.656573016237, 33337.35863415702, 22085.28930965535, -18924.50677448592, 317.55123347654745, -11129.335895697583, -26650.946039074188, -15167.983194349194, -27476.53007227541, 0.168, 0.996, 0.10400000000000001, 192.0, 0.0, 0.0, 0.0, 0.0, 0.0, 0.0, 0.0, 0.0, 0.0, 1.695325128834073E9, 0.0, 2023-09-21 14:38:48.834
216.0, 44106.04913306822, 25606.06904102195, -9423.942497246564, -16217.554058737047, -22102.678966841577, -16445.07246554762, -187500.02235174447, -31885.00933468453, 33333.000043988235, 22073.264071138394, -18931.346408289242, 383.75710055316694, -11133.135692254984, -26664.62530668084, -15166.105647814948, -27484.084961901306, 0.168, 0.996, 0.10400000000000001, 192.0, 0.0, 0.0, 0.0, 0.0, 0.0, 0.0, 0.0, 0.0, 0.0, 1.695325128834076E9, 0.0, 2023-09-21 14:38:48.834
218.0, 44088.01127529279, 25586.53361636801, -9433.19611945106, -16232.127396121909, -22124.538972918865, -16471.872207149532, -187500.02235174447, -31902.376640126306, 33323.72407003928, 22072.88409148265, -18939.057760126325, 322.2450998121619, -11140.712933625333, -26661.9430973462, -15173.124095573914, -27485.135493890702, 0.168, 0.996, 0.10400000000000001, 192.0, 0.0, 0.0, 0.0, 0.0, 0.0, 0.0, 0.0, 0.0, 0.0, 1.695325128834079E9, 0.0, 2023-09-21 14:38:48.834
220.0, 44089.933525315944, 25589.238177447103, -9433.419636895615, -16230.294553076572, -22120.202734494538, -16471.067544349142, -187500.02235174447, -31901.21434941463, 33319.1643141704, 22067.74319025793, -18941.628210738687, 385.96992325424236, -11144.937413327387, -26664.17827179173, -15175.314566530535, -27488.555310792366, 0.168, 0.996, 0.10400000000000001, 192.0, 0.0, 0.0, 0.0, 0.0, 0.0, 0.0, 0.0, 0.0, 0.0, 1.695325128834082E9, 0.0, 2023-09-21 14:38:48.834
222.0, 44115.2133482949, 25612.282825980525, -9411.71609302951, -16209.283913288584, -22103.438926153056, -16454.035515074196, -187500.02235174447, -31885.50107306255, 33324.30521539512, 22069.486626325444, -18936.55436474733, 320.3899050223714, -11140.288250480682, -26676.51643473106, -15179.96372937724, -27488.309441603356, 0.168, 1.0, 0.1, 192.0, 2.5, 32.0, 15.5, 32.0, 1.5, 16.0, 0.0, 0.0, 0.0, 1.695325128834085E9, 0.0, 2023-09-21 14:38:48.834
224.0, 44108.08314181366, 25605.152619499284, -9424.166014691116, -16217.285837803583, -22112.670196613097, -16463.57970995661, -187500.02235174447, -31891.871320232312, 33331.97186374329, 22076.125094428673, -18928.64184721015, 366.99329221168665, -11139.908270824943, -26663.105388057877, -15163.177569291303, -27481.82743571132, 0.168, 1.0, 0.1, 192.0, 0.0, 0.0, 0.0, 0.0, 0.0, 0.0, 0.0, 0.0, 0.0, 1.695325128894371E9, 0.0, 2023-09-21 14:38:48.894
226.0, 44112.48643547135, 25613.378061458836, -9409.816194750809, -16204.478288230694, -22106.03172850987, -16448.60404117156, -187500.02235174447, -31883.8246922284, 33340.8678580365, 22089.625548079675, -18915.49902147043, 325.46375101372615, -11122.6750758499, -26650.40959720726, -15158.640165166875, -27470.09276987228, 0.168, 1.0, 0.1, 192.0, 0.0, 0.0, 0.0, 0.0, 0.0, 0.0, 0.0, 0.0, 0.0, 1.695325128894383E9, 0.0, 2023-09-21 14:38:48.894
228.0, 44103.45633071141, 25607.521904411544, -9426.155319947638, -16210.222686555708, -22121.99087405096, -16453.54377669618, -187500.02235174447, -31888.78677949748, 33320.50541883772, 22076.23685315095, -18933.02278912339, 374.0340917151084, -11148.06665755113, -26662.74776014659, -15176.700374686763, -27481.223938611027, 0.168, 1.0, 0.1, 192.0, 0.0, 0.0, 0.0, 0.0, 0.0, 0.0, 0.0, 0.0, 0.0, 1.695325128894387E9, 0.0, 2023-09-21 14:38:48.894
230.0, 44114.25222328332, 25616.17202951575, -9408.296276127849, -16198.465668972216, -22102.209580208015, -16440.177433511904, -187500.02235174447, -31870.659514744228, 33336.66573007891, 22094.967615004494, -18915.722538914986, 335.03029764059755, -11129.648820119957, -26643.86053608186, -15168.34082226048, -27462.71669420203, 0.168, 1.0, 0.1, 192.0, 0.0, 0.0, 0.0, 0.0, 0.0, 0.0, 0.0, 0.0, 0.0, 1.69532512889439E9, 0.0, 2023-09-21 14:38:48.894
232.0, 44108.21725228039, 25606.62783463333, -9419.181575677583, -16209.619189455414, -22109.205676222526, -16452.090913306583, -187500.02235174447, -31892.586576054884, 33330.56370384261, 22088.060925967806, -18920.818736650795, 369.42963235731514, -11134.074465522108, -26649.98491406261, -15156.516749443621, -27466.851766926262, 0.164, 1.0, 0.098, 192.0, 2.5, 16.0, 15.5, 32.0, 1.5, 8.0, 0.0, 0.0, 0.0, 1.695325128894393E9, 0.0, 2023-09-21 14:38:48.894
234.0, 44104.46215921189, 25600.30229095248, -9426.557651347835, -16216.861154658933, -22116.984083292973, -16454.437846474393, -187500.02235174447, -31889.144407408767, 33328.88732300846, 22082.160065431603, -18922.606876207217, 356.75619325115605, -11137.382523701492, -26659.931440345223, -15160.227139023202, -27472.350296062268, 0.164, 1.0, 0.098, 192.0, 0.0, 0.0, 0.0, 0.0, 0.0, 0.0, 0.0, 0.0, 0.0, 1.695325128894396E9, 0.0, 2023-09-21 14:38:48.894
236.0, 44121.98592686486, 25612.953378314185, -9416.298200642848, -16207.674587687801, -22107.551647132834, -16461.232776788805, -187500.02235174447, -31887.579785296894, 33317.622043802985, 22071.855911237708, -18931.18994607806, 374.078795204019, -11147.373753473015, -26661.07137931244, -15171.559473462043, -27483.079133400817, 0.164, 1.0, 0.098, 192.0, 0.0, 0.0, 0.0, 0.0, 0.0, 0.0, 0.0, 0.0, 0.0, 1.695325128894399E9, 0.0, 2023-09-21 14:38:48.894
238.0, 44121.42713325348, 25615.546180671, -9417.10286344324, -16206.467593487216, -22108.982158777973, -16456.918890108933, -187500.02235174447, -31890.664326031725, 33336.73278531227, 22088.619719579186, -18911.945094102037, 365.2275043997174, -11138.276593479704, -26662.904222357778, -15160.00362157865, -27470.875080928217, 0.164, 1.0, 0.098, 192.0, 0.0, 0.0, 0.0, 0.0, 0.0, 0.0, 0.0, 0.0, 0.0, 1.695325128894403E9, 0.0, 2023-09-21 14:38:48.894
240.0, 44113.358153505105, 25605.510247410566, -9421.439101867569, -16217.196430825763, -22122.147336262147, -16464.227910545815, -187500.02235174447, -31905.46118086114, 33334.56466610011, 22088.50796085691, -18913.532067958364, 357.11382116244096, -11127.748921841256, -26649.80610010697, -15163.535197202587, -27472.327944317814, 0.164, 1.0, 0.098, 192.0, 0.0, 0.0, 0.0, 0.0, 0.0, 0.0, 0.0, 0.0, 0.0, 1.695325128954593E9, 0.0, 2023-09-21 14:38:48.954
242.0, 44117.269708784785, 25612.68515738072, -9420.276811155893, -16207.048738843054, -22111.865533812706, -16455.06369531914, -187500.02235174447, -31895.64876504526, 33321.75711652722, 22076.75094327342, -18923.635056452164, 384.89703952038764, -11139.416532446925, -26663.530071202527, -15175.828656653006, -27485.314307846347, 0.162, 1.002, 0.094, 192.0, 2.5, 8.0, 15.5, 40.0, 1.0, 120.0, 0.0, 0.0, 0.0, 1.695325128954608E9, 0.0, 2023-09-21 14:38:48.954
244.0, 44105.37858073456, 25599.609386874366, -9426.736465303477, -16222.091462861476, -22121.65559788413, -16471.559282727158, -187500.02235174447, -31901.50492209255, 33327.43445961887, 22080.059001452806, -18918.98589360546, 361.22654214221745, -11136.913137067932, -26663.12773980233, -15167.782028649097, -27479.6369647547, 0.162, 1.002, 0.094, 192.0, 0.0, 0.0, 0.0, 0.0, 0.0, 0.0, 0.0, 0.0, 0.0, 1.695325128954613E9, 0.0, 2023-09-21 14:38:48.954
246.0, 44117.001487851325, 25613.802744603487, -9418.712189044021, -16208.121622576908, -22103.19305696405, -16457.96942209833, -187500.02235174447, -31894.21825340012, 33315.99036645774, 22063.07167566677, -18930.94407688905, 394.6200483584462, -11147.194939517372, -26677.008173109076, -15179.76256367714, -27494.076191672826, 0.162, 1.002, 0.094, 192.0, 0.0, 0.0, 0.0, 0.0, 0.0, 0.0, 0.0, 0.0, 0.0, 1.695325128954619E9, 0.0, 2023-09-21 14:38:48.954
248.0, 44121.87416814258, 25616.373195215845, -9407.312799371815, -16206.042910342565, -22107.305777943824, -16463.914986123444, -187500.02235174447, -31886.283384118487, 33342.007797003724, 22091.32428065828, -18903.83141086476, 339.9700331652204, -11118.003561258742, -26642.43002443672, -15151.599365663455, -27469.66808672763, 0.162, 1.002, 0.094, 192.0, 0.0, 0.0, 0.0, 0.0, 0.0, 0.0, 0.0, 0.0, 0.0, 1.695325128954624E9, 0.0, 2023-09-21 14:38:48.954
