%OpenBCI Raw EXG Data
%Number of channels = 16
%Sample Rate = 125 Hz
%Board = OpenBCI_GUI$BoardCytonSerialDaisy
Sample Index, EXG Channel 0, EXG Channel 1, EXG Channel 2, EXG Channel 3, EXG Channel 4, EXG Channel 5, EXG Channel 6, EXG Channel 7, EXG Channel 8, EXG Channel 9, EXG Channel 10, EXG Channel 11, EXG Channel 12, EXG Channel 13, EXG Channel 14, EXG Channel 15, Accel Channel 0, Accel Channel 1, Accel Channel 2, Other, Other, Other, Other, Other, Other, Other, Analog Channel 0, Analog Channel 1, Analog Channel 2, Timestamp, Other, Timestamp (Formatted)
208.0, -153958.74875292167, 34284.200881028286, -50641.52039784437, -40500.13160707136, 2230.3911722172707, -13127.78301570213, -187500.02235174447, -521.1309219754842, 4771.225723174301, -35427.3137959616, -3168.560942239874, -21196.606301856795, -23463.69903846968, -18636.83982334612, -27572.419055988677, -41109.909547556585, 0.0, 0.0, 0.0, 192.0, 0.0, 0.0, 0.0, 0.0, 0.0, 0.0, 0.0, 0.0, 0.0, 1.695755909892179E9, 0.0, 2023-09-26 14:18:29.892
210.0, -153955.19482555328, 34280.915174593356, -50638.59231932072, -40496.756493658606, 2225.697305881656, -13132.275716337648, -187500.02235174447, -542.8344658415873, 4763.46966784831, -35425.793877338634, -3166.0575468608795, -21192.113601221277, -23462.35793380236, -18636.16927101246, -27581.337402026347, -41115.0057452924, 0.0, 0.0, 0.0, 192.0, 0.0, 0.0, 0.0, 0.0, 0.0, 0.0, 0.0, 0.0, 0.0, 1.695755909892199E9, 0.0, 2023-09-26 14:18:29.892
212.0, -153956.33476452052, 34284.8937851064, -50638.480560598444, -40496.331810513955, 2226.2337477485835, -13132.566289015567, -187500.02235174447, -538.520579161713, 4773.70676680884, -35435.60629315452, -3168.9185701511587, -21196.09221173432, -23469.97987866162, -18644.931154838938, -27588.5123119965, -41120.32546047276, 0.0, 0.0, 0.0, 192.0, 0.0, 0.0, 0.0, 0.0, 0.0, 0.0, 0.0, 0.0, 0.0, 1.69575590989223E9, 0.0, 2023-09-26 14:18:29.892
214.0, -153942.5884416805, 34287.754808396676, -50629.98689770543, -40486.98878133164, 2229.4971024390584, -13118.685855708822, -187500.02235174447, -535.7713145937103, 4768.878790006494, -35422.39641218143, -3163.7106136930724, -21188.514970363973, -23471.924480429232, -18638.2479832468, -27586.567710228886, -41112.12237025766, 0.0, 0.0, 0.0, 192.0, 0.0, 0.0, 0.0, 0.0, 0.0, 0.0, 0.0, 0.0, 0.0, 1.695755909892239E9, 0.0, 2023-09-26 14:18:29.892
216.0, -153962.34738377898, 34292.47102647675, -50625.762418003374, -40481.82552836246, 2240.8070851334437, -13106.146527069393, -187500.02235174447, -510.8044160371323, 4775.092574965069, -35437.50619143322, -3162.011881114469, -21200.651967603204, -23460.92742215722, -18621.528878394234, -27572.866090877786, -41093.011628748376, 0.146, 1.004, 0.06, 192.0, 2.0, 72.0, 15.5, 48.0, 0.5, 112.0, 0.0, 0.0, 0.0, 1.695755909892259E9, 0.0, 2023-09-26 14:18:29.892
218.0, -153954.52427321963, 34288.805340386076, -50627.30468837079, -40485.22299351967, 2240.4941607110695, -13107.375873014436, -187500.02235174447, -515.654744583934, 4773.147973197458, -35412.40518240991, -3156.6027589562846, -21188.939653508623, -23458.714599456143, -18628.614381386564, -27572.55316645541, -41091.29054442532, 0.146, 1.004, 0.06, 192.0, 0.0, 0.0, 0.0, 0.0, 0.0, 0.0, 0.0, 0.0, 0.0, 1.69575590989227E9, 0.0, 2023-09-26 14:18:29.892
220.0, -153958.25701454366, 34280.60225017098, -50643.107371700695, -40505.78659841855, 2230.301765239449, -13123.513832511167, -187500.02235174447, -514.1795294498837, 4766.665967305418, -35425.0115662827, -3163.0847648483236, -21200.696671092115, -23468.884643183308, -18629.3966924425, -27577.26938453548, -41097.52668112835, 0.146, 1.004, 0.06, 192.0, 0.0, 0.0, 0.0, 0.0, 0.0, 0.0, 0.0, 0.0, 0.0, 1.695755909892279E9, 0.0, 2023-09-26 14:18:29.892
222.0, -153940.66619165734, 34279.574069926035, -50639.955775732495, -40502.70205768372, 2231.0617245509297, -13117.635323719422, -187500.02235174447, -532.3962011809589, 4749.879807219482, -35413.88039754396, -3170.5055440074857, -21191.867732032268, -23476.908919442765, -18647.83688161813, -27594.36846904379, -41116.72682961546, 0.146, 1.004, 0.06, 192.0, 0.0, 0.0, 0.0, 0.0, 0.0, 0.0, 0.0, 0.0, 0.0, 1.695755909892289E9, 0.0, 2023-09-26 14:18:29.892
224.0, -153977.97125315326, 34280.82576761553, -50631.909147728584, -40494.4095604908, 2238.370744987815, -13112.047387605595, -187500.02235174447, -525.7130295888221, 4773.103269708547, -35432.47704893077, -3169.075032362346, -21216.72287186657, -23462.134416357807, -18632.749454110795, -27581.13623632625, -41101.393532919115, 0.146, 1.004, 0.06, 192.0, 0.0, 0.0, 0.0, 0.0, 0.0, 0.0, 0.0, 0.0, 0.0, 1.695755909892298E9, 0.0, 2023-09-26 14:18:29.892
0.0, -77092.61948974365, 17096.581112930908, -25312.5235810904, -20256.469578322125, 1099.817585923384, -6586.947332256715, -93750.01117587223, -285.7223493721902, 2388.619171216389, -17708.41541390603, -1578.6590073894272, -10600.493621885016, -11727.222708132591, -9318.375208184149, -13788.835857967837, -20549.83622429803, 0.138, 1.004, 0.056, 192.0, 2.0, 40.0, 15.5, 48.0, 0.5, 96.0, 0.0, 0.0, 0.0, 1.695755910068874E9, 0.0, 2023-09-26 14:18:30.068
2.0, -154159.19919719687, 34197.5208160306, -50619.72744700044, -40504.91488038479, 2208.9111457957206, -13164.931614986852, -187500.02235174447, -565.9908730972854, 4724.063542373603, -35384.26433614067, -3051.974243160992, -21187.352679652297, -23466.582413504413, -18771.91141508954, -27569.870957120773, -41163.48667901596, 0.138, 1.004, 0.056, 192.0, 0.0, 0.0, 0.0, 0.0, 0.0, 0.0, 0.0, 0.0, 0.0, 1.695755910068905E9, 0.0, 2023-09-26 14:18:30.068
4.0, -154187.87648533302, 34189.69770547125, -50618.31928709976, -40497.67291518127, 2217.538919155469, -13153.487521825735, -187500.02235174447, -565.4320794859028, 4726.276365074678, -35395.99900197971, -3054.3211763287995, -21203.87061880477, -23459.653372723267, -18763.86478708563, -27559.857375604795, -41152.780193421866, 0.138, 1.004, 0.056, 192.0, 0.0, 0.0, 0.0, 0.0, 0.0, 0.0, 0.0, 0.0, 0.0, 1.695755910068915E9, 0.0, 2023-09-26 14:18:30.068
6.0, -154187.45180218839, 34202.3711445774, -50616.57585103224, -40488.709865654695, 2227.731314627089, -13136.522547784156, -187500.02235174447, -544.4661431868248, 4735.641746001452, -35383.70554252929, -3049.4484960375426, -21202.775383326458, -23454.64658196528, -18752.465397413423, -27551.564878411875, -41139.79382989334, 0.138, 1.004, 0.056, 192.0, 0.0, 0.0, 0.0, 0.0, 0.0, 0.0, 0.0, 0.0, 0.0, 1.695755910068924E9, 0.0, 2023-09-26 14:18:30.068
8.0, -154201.0416628172, 34189.00480139313, -50619.123949900146, -40485.93824934224, 2227.9324803271866, -13131.381646559435, -187500.02235174447, -542.7003553748555, 4727.4386557863545, -35379.54811806061, -3059.037394408869, -21205.748165339013, -23463.45316928067, -18749.24674621186, -27553.59888715731, -41138.51978045938, 0.13, 1.004, 0.054, 192.0, 2.0, 8.0, 15.5, 48.0, 0.5, 88.0, 0.0, 0.0, 0.0, 1.695755910068967E9, 0.0, 2023-09-26 14:18:30.068
10.0, -154173.01257527026, 34195.19623460725, -50630.5009878279, -40498.634040192854, 2221.3610674573265, -13142.244594364714, -187500.02235174447, -526.7412098337662, 4728.645649986941, -35381.42566459485, -3055.5728740182967, -21195.958101267588, -23465.665991981747, -18759.14856900556, -27551.207250500593, -41131.81425712279, 0.13, 1.004, 0.054, 192.0, 0.0, 0.0, 0.0, 0.0, 0.0, 0.0, 0.0, 0.0, 0.0, 1.695755910068978E9, 0.0, 2023-09-26 14:18:30.068
12.0, -154173.21374097036, 34183.70743795722, -50627.39409534861, -40499.55046171552, 2217.7177331111116, -13144.368010087968, -187500.02235174447, -544.5779019091012, 4717.335667292556, -35391.21572866628, -3069.520362558408, -21195.220493700566, -23480.08286715542, -18767.99985980986, -27567.568727441878, -41145.73939391845, 0.13, 1.004, 0.054, 192.0, 0.0, 0.0, 0.0, 0.0, 0.0, 0.0, 0.0, 0.0, 0.0, 1.695755910068987E9, 0.0, 2023-09-26 14:18:30.068
14.0, -154166.12823797803, 34183.32745830148, -50622.87904296864, -40499.79633090452, 2222.5233581690027, -13146.871405466964, -187500.02235174447, -537.067715772118, 4722.610678984008, -35409.07477248606, -3068.492182313464, -21196.09221173432, -23481.64748926729, -18769.09509528817, -27564.573593684865, -41144.28653052885, 0.13, 1.004, 0.054, 192.0, 0.0, 0.0, 0.0, 0.0, 0.0, 0.0, 0.0, 0.0, 0.0, 1.69575591012761E9, 0.0, 2023-09-26 14:18:30.127
16.0, -154164.18363621042, 34178.29831579904, -50624.91305171407, -40501.8079879055, 2218.410637189226, -13147.072571167062, -187500.02235174447, -547.5283321772018, 4722.7447894507395, -35398.278879914156, -3067.46400206852, -21197.030985001446, -23484.93319570222, -18768.15632202105, -27568.239279775535, -41145.493524729434, 0.13, 1.004, 0.054, 192.0, 0.0, 0.0, 0.0, 0.0, 0.0, 0.0, 0.0, 0.0, 0.0, 1.695755910127635E9, 0.0, 2023-09-26 14:18:30.127
18.0, -154167.3352321786, 34185.80850193602, -50620.15213014509, -40495.77301690257, 2221.7857506019773, -13142.535167042633, -187500.02235174447, -541.7392303632773, 4728.198615097835, -35405.0067549952, -3068.246313124456, -21203.736508338035, -23482.966242190152, -18768.75981912134, -27567.79224488643, -41140.129106060165, 0.138, 1.006, 0.046, 192.0, 2.0, 40.0, 15.5, 56.0, 0.5, 56.0, 0.0, 0.0, 0.0, 1.695755910127645E9, 0.0, 2023-09-26 14:18:30.127
20.0, -154181.64034863, 34186.14377810285, -50608.64098175061, -40484.507737697095, 2230.569986172913, -13131.582812259534, -187500.02235174447, -549.5623409226348, 4742.973118182793, -35393.786179278635, -3067.7322230019836, -21197.545075123915, -23475.701925242178, -18750.587850879176, -27563.299544250913, -41131.18840827804, 0.138, 1.006, 0.046, 192.0, 0.0, 0.0, 0.0, 0.0, 0.0, 0.0, 0.0, 0.0, 0.0, 1.695755910127655E9, 0.0, 2023-09-26 14:18:30.127
22.0, -154188.81525860017, 34194.72684797369, -50618.47574931094, -40496.1082930694, 2227.7760181159997, -13145.396190332913, -187500.02235174447, -536.5312739051907, 4740.4697228037985, -35398.16712119187, -3065.7429177454615, -21202.261293203985, -23468.638773994302, -18744.70934208743, -27553.77770111295, -41124.66169889709, 0.138, 1.006, 0.046, 192.0, 0.0, 0.0, 0.0, 0.0, 0.0, 0.0, 0.0, 0.0, 0.0, 1.695755910127664E9, 0.0, 2023-09-26 14:18:30.127
24.0, -154158.84156928558, 34187.820158937, -50628.3999238491, -40507.440627508244, 2217.24834647755, -13155.990917204728, -187500.02235174447, -552.2669020017269, 4713.401760268422, -35381.04568493911, -3075.8906097281706, -21183.686993561627, -23502.07698369944, -18782.99788033937, -27577.157625813205, -41155.75297543442, 0.138, 1.006, 0.046, 192.0, 0.0, 0.0, 0.0, 0.0, 0.0, 0.0, 0.0, 0.0, 0.0, 1.695755910127672E9, 0.0, 2023-09-26 14:18:30.127
26.0, -154153.03011572722, 34183.97565889069, -50637.54178733132, -40518.43768578025, 2209.9616777851197, -13164.17165567537, -187500.02235174447, -543.4826664307913, 4717.067446359092, -35395.887243257435, -3078.617522551718, -21197.790944312925, -23495.08088768493, -18773.76660987933, -27571.972021099573, -41149.04745209783, 0.138, 1.006, 0.046, 192.0, 0.0, 0.0, 0.0, 0.0, 0.0, 0.0, 0.0, 0.0, 0.0, 1.695755910127681E9, 0.0, 2023-09-26 14:18:30.127
28.0, -154135.34988586308, 34185.22735658018, -50627.68466802653, -40514.05674386701, 2217.695381366656, -13158.918995728374, -187500.02235174447, -561.1181928060284, 4712.105359090014, -35386.320696630566, -3081.7467667754613, -21191.063069231877, -23496.60080630789, -18779.62276692662, -27580.17511131467, -41160.64800747013, 0.134, 1.012, 0.046, 192.0, 2.0, 24.0, 15.5, 80.0, 0.5, 56.0, 0.0, 0.0, 0.0, 1.69575591012769E9, 0.0, 2023-09-26 14:18:30.127
30.0, -154152.62778432702, 34189.183615348775, -50621.426179579044, -40507.4629792527, 2222.0763232798963, -13156.661469538389, -187500.02235174447, -563.4427742293805, 4720.777835938673, -35409.11947597498, -3089.882801757193, -21207.558656639892, -23491.21403589416, -18782.684955916997, -27574.900099623217, -41159.77628943638, 0.134, 1.012, 0.046, 192.0, 0.0, 0.0, 0.0, 0.0, 0.0, 0.0, 0.0, 0.0, 0.0, 1.695755910188008E9, 0.0, 2023-09-26 14:18:30.188
32.0, -154146.50340634625, 34191.709362472226, -50611.77022597435, -40493.7613599016, 2234.213320519128, -13141.037600164129, -187500.02235174447, -566.3037975196597, 4722.521272006187, -35391.886280999934, -3082.529077831397, -21195.399307656207, -23486.497817814092, -18768.268080743324, -27568.574555942367, -41146.208780552006, 0.134, 1.012, 0.046, 192.0, 0.0, 0.0, 0.0, 0.0, 0.0, 0.0, 0.0, 0.0, 0.0, 1.695755910188031E9, 0.0, 2023-09-26 14:18:30.188
34.0, -154163.15545596546, 34191.061161883015, -50617.40286557709, -40496.71179016969, 2232.5592914294352, -13145.664411266376, -187500.02235174447, -548.198884510861, 4725.359943552011, -35405.99023175123, -3081.143269675168, -21208.452726418105, -23485.335527102416, -18757.47218817141, -27560.59498317182, -41135.81521938029, 0.134, 1.012, 0.046, 192.0, 0.0, 0.0, 0.0, 0.0, 0.0, 0.0, 0.0, 0.0, 0.0, 1.695755910188041E9, 0.0, 2023-09-26 14:18:30.188
36.0, -154125.96215319182, 34190.32355431599, -50627.3493918597, -40506.747723430126, 2218.7906168449663, -13154.22512939276, -187500.02235174447, -555.9772915813079, 4709.199632310824, -35389.47229259876, -3074.4153945941207, -21182.994089483513, -23498.724222031145, -18775.890025602585, -27571.03324783245, -41146.05231834082, 0.134, 1.012, 0.046, 192.0, 0.0, 0.0, 0.0, 0.0, 0.0, 0.0, 0.0, 0.0, 0.0, 1.69575591018805E9, 0.0, 2023-09-26 14:18:30.188
38.0, -154156.24876692877, 34188.58011824848, -50622.610822035174, -40502.83616815045, 2223.2386139915725, -13151.609975291489, -187500.02235174447, -560.5593991946458, 4714.02760911317, -35405.811417795594, -3079.4445370965645, -21200.853133303302, -23500.42295460975, -18766.792865609274, -27572.910794366693, -41143.414812495095, 0.128, 1.008, 0.038, 192.0, 2.0, 0.0, 15.5, 64.0, 0.5, 24.0, 0.0, 0.0, 0.0, 1.695755910188059E9, 0.0, 2023-09-26 14:18:30.188
40.0, -154131.17010964992, 34194.05629564003, -50613.91599344206, -40499.058723337504, 2227.4630936936255, -13146.424370577857, -187500.02235174447, -554.815000869632, 4729.584423254064, -35386.0524756971, -3069.6097695362296, -21187.218569185563, -23498.277187142037, -18766.09996153116, -27572.620221688776, -41141.738431660946, 0.128, 1.008, 0.038, 192.0, 0.0, 0.0, 0.0, 0.0, 0.0, 0.0, 0.0, 0.0, 0.0, 1.695755910188069E9, 0.0, 2023-09-26 14:18:30.188
42.0, -154147.12925519102, 34183.28275481257, -50620.107426656185, -40505.65248795182, 2219.7070383676337, -13154.69451602632, -187500.02235174447, -554.5691316806235, 4724.912908662905, -35403.9562230058, -3071.733185259484, -21201.0542990034, -23508.715451802665, -18773.565444179232, -27573.64840193372, -41141.98430084995, 0.128, 1.008, 0.038, 192.0, 0.0, 0.0, 0.0, 0.0, 0.0, 0.0, 0.0, 0.0, 0.0, 1.695755910188078E9, 0.0, 2023-09-26 14:18:30.188
44.0, -154119.05546415516, 34183.99801063514, -50622.81198773527, -40510.100485098425, 2219.282355222983, -13154.560405559589, -187500.02235174447, -549.942320578375, 4726.633992985963, -35398.01065898069, -3068.492182313464, -21183.821104028357, -23511.576475092945, -18778.549883192765, -27569.446273976122, -41137.268082769886, 0.128, 1.008, 0.038, 192.0, 0.0, 0.0, 0.0, 0.0, 0.0, 0.0, 0.0, 0.0, 0.0, 1.695755910248196E9, 0.0, 2023-09-26 14:18:30.248
46.0, -154157.388705896, 34170.67637093978, -50607.25517359438, -40500.15395881581, 2232.7828088739884, -13144.07743741005, -187500.02235174447, -552.2221985128162, 4724.3317633070665, -35424.83275232706, -3082.0149877089248, -21202.127182737255, -23513.23050418264, -18784.361336751146, -27572.68727692214, -41138.27391127037, 0.128, 1.008, 0.038, 192.0, 0.0, 0.0, 0.0, 0.0, 0.0, 0.0, 0.0, 0.0, 0.0, 1.695755910248222E9, 0.0, 2023-09-26 14:18:30.248
48.0, -154128.84552822658, 34177.24778380964, -50616.41938882106, -40512.17919733276, 2225.8090646039327, -13153.353411359003, -187500.02235174447, -540.3757739515036, 4731.596080255042, -35413.18749346584, -3073.364862604721, -21195.06403148938, -23505.56385583447, -18782.19321753898, -27566.875823363764, -41136.59753043622, 0.13, 1.006, 0.038, 192.0, 2.0, 8.0, 15.5, 56.0, 0.5, 24.0, 0.0, 0.0, 0.0, 1.695755910248232E9, 0.0, 2023-09-26 14:18:30.248
50.0, -154145.76579877923, 34170.69872268423, -50617.96165918847, -40512.402714777316, 2220.3328872123825, -13160.058934695595, -187500.02235174447, -549.5176374337242, 4726.186958096857, -35425.70447036081, -3074.884781227682, -21208.497429907016, -23507.933140746733, -18787.579987952708, -27577.78347465795, -41143.88419912865, 0.13, 1.006, 0.038, 192.0, 0.0, 0.0, 0.0, 0.0, 0.0, 0.0, 0.0, 0.0, 0.0, 1.695755910248241E9, 0.0, 2023-09-26 14:18:30.248
52.0, -154134.61227829603, 34185.38381879137, -50615.43591206502, -40509.340525786945, 2222.5233581690027, -13164.685745797844, -187500.02235174447, -551.8422188570761, 4733.093647133547, -35421.52469414767, -3066.6369875236737, -21195.689880334125, -23504.446268611704, -18784.696612917975, -27581.11388458179, -41144.19712355103, 0.13, 1.006, 0.038, 192.0, 0.0, 0.0, 0.0, 0.0, 0.0, 0.0, 0.0, 0.0, 0.0, 1.695755910248285E9, 0.0, 2023-09-26 14:18:30.248
54.0, -154154.95236575036, 34175.86197565341, -50615.92765044304, -40507.865310652895, 2222.0316197909856, -13170.385440633947, -187500.02235174447, -570.1482975659726, 4734.948841923338, -35426.017394783186, -3069.9450457030593, -21204.831743816347, -23506.502629101593, -18794.6878426895, -27588.489960252045, -41151.729661432466, 0.13, 1.006, 0.038, 192.0, 0.0, 0.0, 0.0, 0.0, 0.0, 0.0, 0.0, 0.0, 0.0, 1.695755910248296E9, 0.0, 2023-09-26 14:18:30.248
56.0, -154143.4412173559, 34183.84154842395, -50615.5476707873, -40507.41827576378, 2231.978146073597, -13163.83637950854, -187500.02235174447, -557.296044504171, 4732.959536666815, -35417.99311852374, -3066.882856712682, -21193.968796011068, -23503.93217848923, -18788.51876121983, -27584.98073637256, -41152.60137946622, 0.13, 1.006, 0.038, 192.0, 0.0, 0.0, 0.0, 0.0, 0.0, 0.0, 0.0, 0.0, 0.0, 1.695755910248315E9, 0.0, 2023-09-26 14:18:30.248
58.0, -154164.27304318824, 34178.119501843394, -50608.48451953942, -40503.57377571747, 2238.9965938325636, -13155.70034452681, -187500.02235174447, -554.7926491251766, 4738.770990225195, -35424.139848248946, -3068.9839206914808, -21202.753031582004, -23496.846675496898, -18780.695650660473, -27576.17414905717, -41143.817143895285, 0.128, 1.008, 0.04, 192.0, 2.0, 0.0, 15.5, 64.0, 0.5, 32.0, 0.0, 0.0, 0.0, 1.695755910248324E9, 0.0, 2023-09-26 14:18:30.248
60.0, -154160.78617105322, 34180.8687664114, -50609.602106762184, -40504.9595838737, 2242.01407933403, -13156.259138138192, -187500.02235174447, -545.293157731671, 4738.5921762695525, -35424.18455173785, -3062.6136735217183, -21199.512028635985, -23490.767001005057, -18771.732601133896, -27571.167358299183, -41139.72677465997, 0.128, 1.008, 0.04, 192.0, 0.0, 0.0, 0.0, 0.0, 0.0, 0.0, 0.0, 0.0, 0.0, 1.695755910308511E9, 0.0, 2023-09-26 14:18:30.308
62.0, -154155.51115936175, 34177.24778380964, -50615.61472602066, -40510.39105777634, 2233.6768786522007, -13157.667298038878, -187500.02235174447, -539.5040559177465, 4735.932318679371, -35419.73655459125, -3062.1666386326124, -21198.640310602226, -23493.784486506524, -18781.209740782946, -27579.21398630309, -41143.615978195194, 0.128, 1.008, 0.04, 192.0, 0.0, 0.0, 0.0, 0.0, 0.0, 0.0, 0.0, 0.0, 0.0, 1.695755910308534E9, 0.0, 2023-09-26 14:18:30.308
64.0, -154155.0864762171, 34184.221528079695, -50607.67985673903, -40502.94792687272, 2236.53790194248, -13152.995783447717, -187500.02235174447, -539.4817041732913, 4733.160702366913, -35423.64810987093, -3065.9887869344698, -21198.014461757477, -23497.539579575012, -18788.943444364482, -27578.49873048052, -41140.17380954907, 0.128, 1.008, 0.04, 192.0, 0.0, 0.0, 0.0, 0.0, 0.0, 0.0, 0.0, 0.0, 0.0, 1.695755910308544E9, 0.0, 2023-09-26 14:18:30.308
66.0, -154168.5869298681, 34179.55001348854, -50598.31447581226, -40495.99653434713, 2245.925634613709, -13145.709114755287, -187500.02235174447, -545.2708059872158, 4742.280214104679, -35417.344917934526, -3062.9042461996373, -21200.920188536667, -23485.290823613504, -18776.694688402975, -27566.629954174754, -41131.590739678235, 0.128, 1.008, 0.04, 192.0, 0.0, 0.0, 0.0, 0.0, 0.0, 0.0, 0.0, 0.0, 0.0, 1.695755910308553E9, 0.0, 2023-09-26 14:18:30.308
68.0, -154157.61222334055, 34180.28762105556, -50617.62638302164, -40512.35801128841, 2229.2065297611393, -13162.897606241419, -187500.02235174447, -544.6449571424672, 4735.909966934916, -35422.642281370434, -3060.6020165207406, -21200.42845015865, -23491.437553338714, -18770.749124377864, -27569.043942575925, -41135.05526006881, 0.128, 1.012, 0.036000000000000004, 192.0, 2.0, 0.0, 15.5, 80.0, 0.5, 16.0, 0.0, 0.0, 0.0, 1.695755910308562E9, 0.0, 2023-09-26 14:18:30.308
70.0, -154151.80076978216, 34172.44215875175, -50616.26292660987, -40513.78852293355, 2232.5145879405245, -13159.611899806489, -187500.02235174447, -564.0909748185843, 4730.523196521187, -35413.88039754396, -3063.1277636441905, -21195.42165940066, -23503.529847089034, -18796.230113056914, -27587.282966051458, -41154.56833297829, 0.128, 1.012, 0.036000000000000004, 192.0, 0.0, 0.0, 0.0, 0.0, 0.0, 0.0, 0.0, 0.0, 0.0, 1.695755910308572E9, 0.0, 2023-09-26 14:18:30.308
72.0, -154168.00578451226, 34176.26430705361, -50612.30666784128, -40510.70398219871, 2240.337698499882, -13157.153207916404, -187500.02235174447, -551.328128734604, 4744.202464127835, -35434.66751988739, -3059.8420572092605, -21213.839496831835, -23492.666899283755, -18781.76853439433, -27574.765989156484, -41144.95708286251, 0.128, 1.012, 0.036000000000000004, 192.0, 0.0, 0.0, 0.0, 0.0, 0.0, 0.0, 0.0, 0.0, 0.0, 1.69575591030862E9, 0.0, 2023-09-26 14:18:30.308
74.0, -154130.7230747608, 34173.82796690798, -50626.27650812585, -40524.04797363853, 2229.8100268614326, -13170.966585989785, -187500.02235174447, -559.6429776719782, 4732.534853522165, -35412.69575508783, -3056.489295540964, -21197.9027030352, -23505.049765711996, -18790.463362987444, -27583.61727996079, -41157.5634667353, 0.128, 1.012, 0.036000000000000004, 192.0, 0.0, 0.0, 0.0, 0.0, 0.0, 0.0, 0.0, 0.0, 0.0, 1.695755910368838E9, 0.0, 2023-09-26 14:18:30.368
76.0, -154171.06797350265, 34182.455740267724, -50604.505909026375, -40501.89739488332, 2246.506779969547, -13149.844187479519, -187500.02235174447, -554.3903177249811, 4736.289946590656, -35443.54116243615, -3062.36780433271, -21217.19225850013, -23496.377288863336, -18783.444915228476, -27581.18093981516, -41148.82393465328, 0.128, 1.012, 0.036000000000000004, 192.0, 0.0, 0.0, 0.0, 0.0, 0.0, 0.0, 0.0, 0.0, 0.0, 1.695755910368871E9, 0.0, 2023-09-26 14:18:30.368
78.0, -154150.10203720356, 34179.52766174408, -50616.329981843235, -40512.894453155335, 2227.351334971349, -13163.054068452606, -187500.02235174447, -565.5885416970899, 4740.134446636969, -35419.40127842442, -3056.846923452249, -21207.20102872861, -23498.32189063095, -18790.82099089873, -27581.3597537708, -41148.645120697634, 0.126, 1.014, 0.038, 192.0, 1.5, 120.0, 15.5, 88.0, 0.5, 24.0, 0.0, 0.0, 0.0, 1.695755910368881E9, 0.0, 2023-09-26 14:18:30.368
80.0, -154173.37020318155, 34174.789091919556, -50618.47574931094, -40514.369668289386, 2224.825587847899, -13166.451533609812, -187500.02235174447, -560.3135300056374, 4737.4745890467875, -35435.87451408798, -3068.626292780196, -21221.9084765802, -23497.003137708085, -18790.99980485437, -27583.013782860493, -41146.700518930025, 0.126, 1.014, 0.038, 192.0, 0.0, 0.0, 0.0, 0.0, 0.0, 0.0, 0.0, 0.0, 0.0, 1.695755910368891E9, 0.0, 2023-09-26 14:18:30.368
82.0, -154152.85130177156, 34176.97956287617, -50611.233784107426, -40509.92167114278, 2232.7604571295333, -13165.378649875958, -187500.02235174447, -563.0404428291849, 4728.645649986941, -35425.63741512745, -3069.2968451138554, -21202.685976348635, -23507.441402368713, -18801.706290448463, -27593.45204752112, -41157.13878359065, 0.126, 1.014, 0.038, 192.0, 0.0, 0.0, 0.0, 0.0, 0.0, 0.0, 0.0, 0.0, 0.0, 1.6957559103689E9, 0.0, 2023-09-26 14:18:30.368
84.0, -154178.1311247505, 34175.30318204203, -50611.77022597435, -40512.29095605504, 2237.1637507872288, -13173.51468485769, -187500.02235174447, -557.4301549709029, 4739.620356514497, -35449.06204331661, -3060.5796647762854, -21217.19225850013, -23497.226655152637, -18789.166961809035, -27580.018649103484, -41142.87837062817, 0.126, 1.014, 0.038, 192.0, 0.0, 0.0, 0.0, 0.0, 0.0, 0.0, 0.0, 0.0, 0.0, 1.695755910368909E9, 0.0, 2023-09-26 14:18:30.368
86.0, -154138.12150217552, 34173.22446980768, -50625.2483278809, -40523.60093874943, 2221.405770946237, -13183.528266373667, -187500.02235174447, -562.7051666623553, 4729.226795342779, -35429.28074947366, -3052.823609450294, -21193.18648495513, -23511.531771604037, -18800.789868925796, -27592.736791698553, -41159.03868186935, 0.126, 1.014, 0.038, 192.0, 0.0, 0.0, 0.0, 0.0, 0.0, 0.0, 0.0, 0.0, 0.0, 1.695755910368917E9, 0.0, 2023-09-26 14:18:30.368
88.0, -154162.44020014288, 34165.200193548226, -50623.37078134665, -40518.19181659124, 2225.540843670469, -13178.610882593499, -187500.02235174447, -564.4486027298692, 4729.874995931983, -35453.2194677853, -3065.541752045364, -21211.023177030467, -23510.548294848002, -18793.436145, -27595.530759755464, -41156.57998997927, 0.128, 1.016, 0.038, 192.0, 2.0, 0.0, 15.5, 96.0, 0.5, 24.0, 0.0, 0.0, 0.0, 1.695755910368926E9, 0.0, 2023-09-26 14:18:30.368
90.0, -154141.384856866, 34170.318743028496, -50616.30763009878, -40511.37453453238, 2235.82264611991, -13169.066687711083, -187500.02235174447, -559.7100329053442, 4717.559184737109, -35424.1621999934, -3062.971301433003, -21191.465400632074, -23510.07890821444, -18801.39336602609, -27596.715402211597, -41156.200010323526, 0.128, 1.016, 0.038, 192.0, 0.0, 0.0, 0.0, 0.0, 0.0, 0.0, 0.0, 0.0, 0.0, 1.695755910427711E9, 0.0, 2023-09-26 14:18:30.427
92.0, -154167.75991532326, 34163.92614411427, -50621.426179579044, -40514.90611015631, 2230.1676547727175, -13173.715850557786, -187500.02235174447, -565.0520998301625, 4719.347324293533, -35435.47218268779, -3071.397909092654, -21210.263217718988, -23513.208152438183, -18801.505124748364, -27594.50257951052, -41153.29428354434, 0.128, 1.016, 0.038, 192.0, 0.0, 0.0, 0.0, 0.0, 0.0, 0.0, 0.0, 0.0, 0.0, 1.695755910427745E9, 0.0, 2023-09-26 14:18:30.427
94.0, -154152.7842465382, 34170.654019195325, -50614.00540041988, -40509.675801953774, 2235.0626868084296, -13167.36795513248, -187500.02235174447, -561.2523032727603, 4718.8108824266055, -35427.33614770605, -3071.0626329258243, -21200.786078069938, -23507.687271557723, -18792.698537432974, -27589.674602708175, -41149.00274860892, 0.128, 1.016, 0.038, 192.0, 0.0, 0.0, 0.0, 0.0, 0.0, 0.0, 0.0, 0.0, 0.0, 1.695755910427821E9, 0.0, 2023-09-26 14:18:30.427
96.0, -154168.139894979, 34157.444138222236, -50617.76049348837, -40517.07422936848, 2228.021887305008, -13179.147324460428, -187500.02235174447, -567.7119574203441, 4722.253051072723, -35441.93183683537, -3074.951836461048, -21210.91141830819, -23506.949663990697, -18793.458496744453, -27590.523968997477, -41148.19808580853, 0.128, 1.016, 0.038, 192.0, 0.0, 0.0, 0.0, 0.0, 0.0, 0.0, 0.0, 0.0, 0.0, 1.695755910427831E9, 0.0, 2023-09-26 14:18:30.427
98.0, -154133.00295269524, 34163.94849585873, -50618.34163884421, -40519.331755558465, 2221.9645645576197, -13184.84701929653, -187500.02235174447, -571.8246784001205, 4712.59709746803, -35433.43817394235, -3072.1578684041347, -21193.20883669959, -23522.148850220306, -18815.67613073303, -27602.146876114235, -41163.06199587131, 0.122, 1.014, 0.044, 192.0, 1.5, 104.0, 15.5, 88.0, 0.5, 48.0, 0.0, 0.0, 0.0, 1.695755910427841E9, 0.0, 2023-09-26 14:18:30.427
100.0, -154165.16711296645, 34155.79010913254, -50607.29987708329, -40509.318174042484, 2233.0063263185416, -13172.307690657102, -187500.02235174447, -575.8703441465311, 4716.732170192262, -35439.92017983439, -3071.8896474706708, -21209.704424107604, -23514.728071061145, -18806.53426725081, -27594.25671032151, -41152.10964108821, 0.122, 1.014, 0.044, 192.0, 0.0, 0.0, 0.0, 0.0, 0.0, 0.0, 0.0, 0.0, 0.0, 1.695755910427864E9, 0.0, 2023-09-26 14:18:30.427
102.0, -154146.21283366834, 34165.02137959259, -50615.92765044304, -40521.74574395964, 2233.229843763095, -13176.375708147969, -187500.02235174447, -564.940341107886, 4736.60287101303, -35429.97365355178, -3063.038356666369, -21202.261293203985, -23512.69406231571, -18802.10862184866, -27590.523968997477, -41147.84045789724, 0.122, 1.014, 0.044, 192.0, 0.0, 0.0, 0.0, 0.0, 0.0, 0.0, 0.0, 0.0, 0.0, 1.695755910427874E9, 0.0, 2023-09-26 14:18:30.427
104.0, -154186.17775275442, 34166.608353448915, -50595.02876937733, -40501.360953016396, 2251.2900532829826, -13154.873329981963, -187500.02235174447, -571.1317743220061, 4736.200539612834, -35440.43426995686, -3064.535923544875, -21219.270970734477, -23505.22857966764, -18800.588703225698, -27590.18869283065, -41144.5100479734, 0.122, 1.014, 0.044, 192.0, 0.0, 0.0, 0.0, 0.0, 0.0, 0.0, 0.0, 0.0, 0.0, 1.695755910487992E9, 0.0, 2023-09-26 14:18:30.487
106.0, -154170.64329035798, 34158.360559744906, -50615.72648474294, -40524.427953294275, 2231.642869906768, -13178.02973723766, -187500.02235174447, -554.0550415581515, 4735.038248901159, -35441.99889206873, -3059.5514845313414, -21218.66747363418, -23507.37434713535, -18801.01338637035, -27587.730000940563, -41138.43037348156, 0.122, 1.014, 0.044, 192.0, 0.0, 0.0, 0.0, 0.0, 0.0, 0.0, 0.0, 0.0, 0.0, 1.695755910488016E9, 0.0, 2023-09-26 14:18:30.488
108.0, -154203.43329947392, 34135.87470482286, -50611.21143236297, -40519.667031725294, 2237.119047298318, -13176.979205248263, -187500.02235174447, -559.1959427828721, 4724.465873773798, -35451.92306660689, -3075.9353132170813, -21233.978418586066, -23506.5473325905, -18806.936598651006, -27593.07206786538, -41140.97847234947, 0.11800000000000001, 1.008, 0.05, 192.0, 1.5, 88.0, 15.5, 64.0, 0.5, 72.0, 0.0, 0.0, 0.0, 1.695755910488026E9, 0.0, 2023-09-26 14:18:30.488
110.0, -154177.34881369458, 34125.23527446214, -50634.45724659649, -40547.02556693859, 2220.601108145846, -13209.053958541628, -187500.02235174447, -572.2046580558608, 4696.705007160307, -35455.07466257509, -3089.8157465238273, -21235.29717150893, -23527.75913807859, -18824.43801455951, -27610.975815174083, -41165.565391250304, 0.11800000000000001, 1.008, 0.05, 192.0, 0.0, 0.0, 0.0, 0.0, 0.0, 0.0, 0.0, 0.0, 0.0, 1.695755910488036E9, 0.0, 2023-09-26 14:18:30.488
112.0, -154187.45180218839, 34114.171160956765, -50625.87417672565, -40538.129572645375, 2228.7147913831227, -13198.079252014071, -187500.02235174447, -578.1278703365172, 4698.694312416829, -35465.848203402544, -3105.32785717581, -21247.322410025885, -23527.37915842285, -18836.82088098775, -27614.4179838202, -41170.035740141364, 0.11800000000000001, 1.008, 0.05, 192.0, 0.0, 0.0, 0.0, 0.0, 0.0, 0.0, 0.0, 0.0, 0.0, 1.695755910488045E9, 0.0, 2023-09-26 14:18:30.488
114.0, -154168.85515080157, 34113.7017743232, -50640.581624577244, -40553.574628063994, 2216.1084075103295, -13208.584571908066, -187500.02235174447, -573.5457627231792, 4681.438765697332, -35474.7218459513, -3108.56886012183, -21245.02018034699, -23539.04676902852, -18842.878203735138, -27613.702727997632, -41174.12610937669, 0.11800000000000001, 1.008, 0.05, 192.0, 0.0, 0.0, 0.0, 0.0, 0.0, 0.0, 0.0, 0.0, 0.0, 1.695755910488054E9, 0.0, 2023-09-26 14:18:30.488
116.0, -154178.95813929537, 34108.225596931654, -50632.93732797353, -40545.90797971583, 2216.8683668218096, -13200.403833437424, -187500.02235174447, -585.5486494956791, 4691.854678613506, -35477.13583435248, -3110.267592700433, -21252.038628105955, -23535.291675960027, -18843.526404324344, -27614.105059397825, -41172.15915586462, 0.11800000000000001, 1.008, 0.05, 192.0, 0.0, 0.0, 0.0, 0.0, 0.0, 0.0, 0.0, 0.0, 0.0, 1.695755910488097E9, 0.0, 2023-09-26 14:18:30.488
118.0, -154207.27779952023, 34122.53071338305, -50614.58654577572, -40525.746706217134, 2228.379515216293, -13188.110373987005, -187500.02235174447, -581.033597115707, 4698.873126372472, -35489.630459502994, -3106.2219269540224, -21262.58865148886, -23531.558934635992, -18837.62554378814, -27618.173076888692, -41169.901629674634, 0.128, 1.008, 0.046, 192.0, 2.0, 0.0, 15.5, 64.0, 0.5, 56.0, 0.0, 0.0, 0.0, 1.695755910488106E9, 0.0, 2023-09-26 14:18:30.488
120.0, -154192.25742724628, 34129.72797509765, -50622.20849063498, -40534.75445923262, 2218.120064511307, -13202.415490438401, -187500.02235174447, -582.3747017830256, 4711.010123611703, -35465.55763072463, -3088.072310456313, -21253.893822895745, -23522.148850220306, -18824.34860758169, -27607.913626183705, -41156.66939695709, 0.128, 1.008, 0.046, 192.0, 0.0, 0.0, 0.0, 0.0, 0.0, 0.0, 0.0, 0.0, 0.0, 1.695755910547987E9, 0.0, 2023-09-26 14:18:30.547
122.0, -154189.97754931182, 34129.99619603112, -50633.049086695806, -40549.50661057313, 2206.8771370502877, -13215.893592344952, -187500.02235174447, -592.2318210878159, 4696.526193204665, -35475.75002619625, -3093.8390605257823, -21249.24466004904, -23539.918487062274, -18842.54292756831, -27624.185696147168, -41174.39433031015, 0.128, 1.008, 0.046, 192.0, 0.0, 0.0, 0.0, 0.0, 0.0, 0.0, 0.0, 0.0, 0.0, 1.695755910548011E9, 0.0, 2023-09-26 14:18:30.548
124.0, -154184.0319852867, 34131.918446054275, -50619.30276385579, -40536.34143308895, 2225.6078989038347, -13197.609865380511, -187500.02235174447, -599.0267514022293, 4697.062635071592, -35463.94830512384, -3094.599019837263, -21239.67811342217, -23538.577382394957, -18848.35438112669, -27625.392690347755, -41176.741263477954, 0.128, 1.008, 0.046, 192.0, 0.0, 0.0, 0.0, 0.0, 0.0, 0.0, 0.0, 0.0, 0.0, 1.695755910548021E9, 0.0, 2023-09-26 14:18:30.548
126.0, -154196.5489621817, 34128.69979485271, -50632.91497622907, -40545.46094482672, 2222.7245238691003, -13197.94514154734, -187500.02235174447, -584.1181378505395, 4703.2540682857125, -35478.4769390198, -3094.3755023927097, -21254.92200314069, -23530.17312647976, -18830.137709395614, -27610.349966329333, -41160.446841770034, 0.128, 1.008, 0.046, 192.0, 0.0, 0.0, 0.0, 0.0, 0.0, 0.0, 0.0, 0.0, 0.0, 1.69575591054803E9, 0.0, 2023-09-26 14:18:30.548
128.0, -154170.79975256918, 34124.855294806395, -50632.73616227343, -40541.32587210248, 2225.9208233262093, -13182.455382639811, -187500.02235174447, -584.6992832063775, 4688.144289033925, -35474.63243897348, -3104.970229264525, -21245.489566980552, -23547.786301110544, -18845.292192136312, -27622.688129268663, -41168.24760058494, 0.132, 1.012, 0.042, 192.0, 2.0, 16.0, 15.5, 80.0, 0.5, 40.0, 0.0, 0.0, 0.0, 1.695755910548039E9, 0.0, 2023-09-26 14:18:30.548
130.0, -154192.391537713, 34122.08367849394, -50629.13753141613, -40535.469715055195, 2224.1326837697848, -13179.236731438248, -187500.02235174447, -566.1696870529279, 4690.178297779357, -35491.731523481794, -3110.826386311816, -21262.812168933415, -23542.98067605265, -18833.66928501955, -27614.66385300921, -41151.08146084326, 0.132, 1.012, 0.042, 192.0, 0.0, 0.0, 0.0, 0.0, 0.0, 0.0, 0.0, 0.0, 0.0, 1.695755910548049E9, 0.0, 2023-09-26 14:18:30.548
132.0, -154190.35752896758, 34124.54237038403, -50616.329981843235, -40526.99840390663, 2229.899433839254, -13177.292129670637, -187500.02235174447, -570.5729807106234, 4699.968361850782, -35471.48084300528, -3096.56597334933, -21248.954087371123, -23534.531716648547, -18843.30288687979, -27614.79796347594, -41150.94735037653, 0.132, 1.012, 0.042, 192.0, 0.0, 0.0, 0.0, 0.0, 0.0, 0.0, 0.0, 0.0, 0.0, 1.695755910548058E9, 0.0, 2023-09-26 14:18:30.548
134.0, -154206.6519506755, 34120.89903603781, -50628.22110989346, -40544.5221715596, 2211.1686719857066, -13208.830441097074, -187500.02235174447, -575.8926958909865, 4699.677789172863, -35486.79178795717, -3092.3191419028217, -21266.455503279627, -23535.470489915668, -18846.990924714915, -27616.60845477682, -41155.48475450096, 0.132, 1.012, 0.042, 192.0, 0.0, 0.0, 0.0, 0.0, 0.0, 0.0, 0.0, 0.0, 0.0, 1.695755910607961E9, 0.0, 2023-09-26 14:18:30.607
136.0, -154156.3381739066, 34125.59290237342, -50633.13849367363, -40552.74761351915, 2204.239631204561, -13223.76140639322, -187500.02235174447, -591.2706960762378, 4676.700195872807, -35466.58581096957, -3092.94499074757, -21237.644104676736, -23552.077836045963, -18863.374753400654, -27640.927152744192, -41184.363208337214, 0.132, 1.012, 0.042, 192.0, 0.0, 0.0, 0.0, 0.0, 0.0, 0.0, 0.0, 0.0, 0.0, 1.695755910607985E9, 0.0, 2023-09-26 14:18:30.607
138.0, -154197.86771510457, 34128.364518685885, -50608.708036983975, -40525.59024400595, 2225.8090646039327, -13206.37174920699, -187500.02235174447, -594.8693269335422, 4700.6165624399855, -35499.84520671907, -3089.1898976790785, -21263.48272126707, -23535.649303871312, -18854.277593407347, -27625.638559536765, -41165.45363252803, 0.128, 1.01, 0.04, 192.0, 2.0, 0.0, 15.5, 72.0, 0.5, 32.0, 0.0, 0.0, 0.0, 1.695755910608026E9, 0.0, 2023-09-26 14:18:30.608
140.0, -154178.55580789517, 34133.79599258852, -50610.74204572941, -40523.98091840517, 2216.6224976328012, -13207.869316085496, -187500.02235174447, -602.0218851592405, 4711.881841645461, -35472.285505805674, -3069.877990469693, -21247.031837347968, -23529.212001468182, -18837.603192043687, -27615.937902443162, -41157.20583882402, 0.128, 1.01, 0.04, 192.0, 0.0, 0.0, 0.0, 0.0, 0.0, 0.0, 0.0, 0.0, 0.0, 1.695755910608037E9, 0.0, 2023-09-26 14:18:30.608
142.0, -154197.8453633601, 34125.145867484316, -50613.37955157513, -40530.239406852656, 2220.7799221014884, -13204.605961395022, -187500.02235174447, -606.4698823058466, 4703.477585730265, -35472.95605813933, -3080.6962347860617, -21253.267974050996, -23538.599734139414, -18847.214442159468, -27627.113774670815, -41165.58774299476, 0.128, 1.01, 0.04, 192.0, 0.0, 0.0, 0.0, 0.0, 0.0, 0.0, 0.0, 0.0, 0.0, 1.695755910608047E9, 0.0, 2023-09-26 14:18:30.608
144.0, -154176.81237182766, 34131.85139082091, -50617.35816208818, -40532.608691764915, 2224.8479395923546, -13196.738147346754, -187500.02235174447, -596.7915769566986, 4704.617524697486, -35468.39630227045, -3076.7399760174726, -21241.555659956415, -23535.314027704484, -18846.11920668116, -27622.79988799094, -41158.8151644248, 0.128, 1.01, 0.04, 192.0, 0.0, 0.0, 0.0, 0.0, 0.0, 0.0, 0.0, 0.0, 0.0, 1.695755910608056E9, 0.0, 2023-09-26 14:18:30.608
146.0, -154195.83370635912, 34115.46756213517, -50630.32217387226, -40545.01390993761, 2212.5321283974804, -13196.894609557941, -187500.02235174447, -601.0607601476622, 4694.40277748141, -35481.20385184334, -3089.8380982682825, -21259.749979943037, -23538.599734139414, -18847.080331692738, -27629.572466560898, -41161.00563538142, 0.128, 1.01, 0.04, 192.0, 0.0, 0.0, 0.0, 0.0, 0.0, 0.0, 0.0, 0.0, 0.0, 1.695755910608066E9, 0.0, 2023-09-26 14:18:30.608
148.0, -154177.54997939468, 34114.68525107923, -50637.54178733132, -40550.98182570718, 2203.5243753819914, -13203.220153238792, -187500.02235174447, -607.1404346395058, 4684.009216309692, -35482.47790127729, -3097.6835605720953, -21254.49731999604, -23552.927202335264, -18863.598270845207, -27641.15067018875, -41170.99686515294, 0.124, 1.01, 0.042, 192.0, 1.5, 112.0, 15.5, 72.0, 0.5, 40.0, 0.0, 0.0, 0.0, 1.695755910608075E9, 0.0, 2023-09-26 14:18:30.608
150.0, -154200.3040552502, 34114.05940223449, -50626.56708080377, -40541.52703780258, 2212.8450528198546, -13195.464097912802, -187500.02235174447, -592.5223937657349, 4692.659341413897, -35494.41373281643, -3100.522232117919, -21272.959860916122, -23544.165318508785, -18856.15513994159, -27634.445146852155, -41161.922056904084, 0.124, 1.01, 0.042, 192.0, 0.0, 0.0, 0.0, 0.0, 0.0, 0.0, 0.0, 0.0, 0.0, 1.695755910668305E9, 0.0, 2023-09-26 14:18:30.668
152.0, -154190.58104641212, 34121.144905226814, -50618.83337722223, -40535.827342966484, 2216.7119046106227, -13193.810068823108, -187500.02235174447, -581.033597115707, 4687.518440189176, -35481.29325882116, -3097.437691383087, -21258.610040975815, -23543.740635364135, -18858.63618357613, -27635.56273407492, -41162.838478426755, 0.124, 1.01, 0.042, 192.0, 0.0, 0.0, 0.0, 0.0, 0.0, 0.0, 0.0, 0.0, 0.0, 1.695755910668327E9, 0.0, 2023-09-26 14:18:30.668
154.0, -154201.1981250284, 34101.00598347258, -50615.99470567641, -40535.179142377274, 2216.443683677159, -13195.37469093498, -187500.02235174447, -584.5651727396456, 4705.690408431341, -35483.99781990026, -3089.5475255903634, -21265.82965443488, -23534.665827115277, -18857.228023675445, -27627.784327004472, -41153.04841435533, 0.124, 1.01, 0.042, 192.0, 0.0, 0.0, 0.0, 0.0, 0.0, 0.0, 0.0, 0.0, 0.0, 1.695755910668337E9, 0.0, 2023-09-26 14:18:30.668
156.0, -154201.01931107274, 34106.01277423058, -50615.81589172076, -40536.72141274469, 2223.9762215585974, -13196.492278157744, -187500.02235174447, -571.1317743220061, 4707.83617589905, -35495.91129969493, -3088.6758075566063, -21263.08038986688, -23535.17991723775, -18853.718799795963, -27622.956350202126, -41152.40021376612, 0.124, 1.01, 0.042, 192.0, 0.0, 0.0, 0.0, 0.0, 0.0, 0.0, 0.0, 0.0, 0.0, 1.695755910668346E9, 0.0, 2023-09-26 14:18:30.668
158.0, -154203.12037505154, 34091.28297463453, -50619.191005133514, -40541.482334313674, 2227.954832071642, -13200.247371226236, -187500.02235174447, -583.2464198167825, 4696.995579838226, -35498.571157285114, -3095.1578134486454, -21267.39427654675, -23539.873783573366, -18862.97242200046, -27631.29355088396, -41164.22428658298, 0.126, 1.008, 0.046, 192.0, 1.5, 120.0, 15.5, 64.0, 0.5, 56.0, 0.0, 0.0, 0.0, 1.695755910668356E9, 0.0, 2023-09-26 14:18:30.668
160.0, -154200.77344188374, 34087.90786122178, -50629.182234905034, -40554.58045656449, 2228.021887305008, -13214.23956325526, -187500.02235174447, -577.7702424252323, 4704.908097375404, -35519.38063137301, -3096.3648076492323, -21278.726610985592, -23528.116765989875, -18857.83152077574, -27625.683263025676, -41161.60913248171, 0.126, 1.008, 0.046, 192.0, 0.0, 0.0, 0.0, 0.0, 0.0, 0.0, 0.0, 0.0, 0.0, 1.695755910668398E9, 0.0, 2023-09-26 14:18:30.668
162.0, -154191.07278479013, 34079.81652972895, -50631.998554706406, -40558.69317754426, 2227.8430733493656, -13222.554412192632, -187500.02235174447, -596.7245217233326, 4691.005312324204, -35510.663451035434, -3104.0985112307685, -21276.424381306697, -23537.884478316842, -18883.513675154885, -27638.066129453913, -41183.06680715881, 0.126, 1.008, 0.046, 192.0, 0.0, 0.0, 0.0, 0.0, 0.0, 0.0, 0.0, 0.0, 0.0, 1.695755910668408E9, 0.0, 2023-09-26 14:18:30.668
164.0, -154181.2380172298, 34083.12458790834, -50639.64285131012, -40562.805898524035, 2217.0695325219076, -13227.85177562854, -187500.02235174447, -591.7177309653439, 4689.21717276778, -35521.07936395161, -3109.194708966578, -21283.39812557675, -23546.579306909956, -18884.519503655374, -27639.831917265885, -41185.86077521572, 0.126, 1.008, 0.046, 192.0, 0.0, 0.0, 0.0, 0.0, 0.0, 0.0, 0.0, 0.0, 0.0, 1.695755910728923E9, 0.0, 2023-09-26 14:18:30.728
166.0, -154184.0990405201, 34077.961334939166, -50631.68563028403, -40557.75440427714, 2216.019000532508, -13223.917868604407, -187500.02235174447, -624.418333103458, 4682.131669775447, -35512.85392199206, -3109.4852816444973, -21281.252358109043, -23551.675504645766, -18884.67596586656, -27647.31975165841, -41192.20867064103, 0.126, 1.008, 0.046, 192.0, 0.0, 0.0, 0.0, 0.0, 0.0, 0.0, 0.0, 0.0, 0.0, 1.695755910728947E9, 0.0, 2023-09-26 14:18:30.728
168.0, -154220.13005258204, 34092.780541513035, -50618.72161849995, -40548.612540794915, 2227.1725210157065, -13220.766272636209, -187500.02235174447, -617.8245684891425, 4708.059693343603, -35535.02685249172, -3098.7340925614944, -21306.04044270998, -23532.207135225195, -18872.96365177198, -27630.980626461584, -41175.80249021083, 0.124, 1.01, 0.052000000000000005, 192.0, 1.5, 112.0, 15.5, 72.0, 0.5, 80.0, 0.0, 0.0, 0.0, 1.695755910728958E9, 0.0, 2023-09-26 14:18:30.728
170.0, -154189.9999010563, 34093.473445591146, -50626.36591510367, -40558.827288010994, 2209.7828638294773, -13227.225926783793, -187500.02235174447, -615.45528357688, 4699.521326961676, -35509.6799742794, -3091.5144791024304, -21284.359250588328, -23536.27515271606, -18885.212407733492, -27642.08944345587, -41185.346685093245, 0.124, 1.01, 0.052000000000000005, 192.0, 0.0, 0.0, 0.0, 0.0, 0.0, 0.0, 0.0, 0.0, 0.0, 1.695755910728968E9, 0.0, 2023-09-26 14:18:30.728
172.0, -154209.91530536595, 34094.79219851401, -50620.5991650342, -40551.04888094054, 2209.805215573933, -13217.681731901375, -187500.02235174447, -609.0850364071175, 4702.7846816521505, -35533.73045131331, -3097.7729675499163, -21296.563303060928, -23536.923353305265, -18882.574901887765, -27641.19537367766, -41177.165946622605, 0.124, 1.01, 0.052000000000000005, 192.0, 0.0, 0.0, 0.0, 0.0, 0.0, 0.0, 0.0, 0.0, 0.0, 1.695755910728977E9, 0.0, 2023-09-26 14:18:30.728
174.0, -154191.7433371238, 34101.296556150504, -50621.984973190425, -40546.48912507166, 2208.173538228695, -13214.686598144364, -187500.02235174447, -609.1073881515728, 4709.937239877849, -35510.61874754653, -3087.4464616115647, -21278.167817374208, -23539.51615566208, -18880.518541397876, -27642.111795200326, -41169.81222269681, 0.124, 1.01, 0.052000000000000005, 192.0, 0.0, 0.0, 0.0, 0.0, 0.0, 0.0, 0.0, 0.0, 0.0, 1.695755910728986E9, 0.0, 2023-09-26 14:18:30.728
176.0, -154208.9541803544, 34096.89326249281, -50620.57681328974, -40541.281168613576, 2213.090922008863, -13206.617618396, -187500.02235174447, -597.7079984793662, 4693.911039103394, -35526.35437564306, -3089.5028221014527, -21283.576939532395, -23547.026341799065, -18874.192997717026, -27644.27991441249, -41167.75586220692, 0.124, 1.01, 0.052000000000000005, 192.0, 0.0, 0.0, 0.0, 0.0, 0.0, 0.0, 0.0, 0.0, 0.0, 1.695755910728995E9, 0.0, 2023-09-26 14:18:30.728
178.0, -154189.2399417448, 34105.18575968573, -50622.11908365716, -40542.44345932525, 2216.0413522769636, -13213.792528366153, -187500.02235174447, -602.1559956259723, 4705.288077031145, -35514.48559933729, -3083.7360720319834, -21270.63527949277, -23536.029283527052, -18881.21144547599, -27638.781385276485, -41162.39144353765, 0.13, 1.012, 0.054, 192.0, 2.0, 8.0, 15.5, 80.0, 0.5, 88.0, 0.0, 0.0, 0.0, 1.695755910729004E9, 0.0, 2023-09-26 14:18:30.729
180.0, -154213.89391587902, 34097.56381482647, -50624.577775547245, -40543.650453525835, 2210.855747563332, -13218.374635979491, -187500.02235174447, -604.0558939046733, 4701.8459083850275, -35523.44864886387, -3089.972208735014, -21287.06381166742, -23539.29263821753, -18881.03263152035, -27645.263391168523, -41168.44876628504, 0.13, 1.012, 0.054, 192.0, 0.0, 0.0, 0.0, 0.0, 0.0, 0.0, 0.0, 0.0, 0.0, 1.695755910788714E9, 0.0, 2023-09-26 14:18:30.788
182.0, -154200.9969593283, 34100.4471898612, -50614.787711475816, -40536.34143308895, 2221.606936646335, -13215.178336522382, -187500.02235174447, -615.6564492769777, 4699.07429207257, -35496.894776450965, -3092.654418069651, -21267.1707591022, -23551.072007545474, -18889.705108369006, -27655.858118040338, -41182.10568214723, 0.13, 1.012, 0.054, 192.0, 0.0, 0.0, 0.0, 0.0, 0.0, 0.0, 0.0, 0.0, 0.0, 1.695755910788766E9, 0.0, 2023-09-26 14:18:30.788
184.0, -154234.36811380007, 34105.31987015246, -50615.25709810938, -40539.9177122018, 2220.7352186125777, -13217.413510967912, -187500.02235174447, -616.1928911439051, 4709.557260222109, -35516.72077378282, -3088.5416970898746, -21294.998680949055, -23526.440385155725, -18874.192997717026, -27635.719196286107, -41166.57121975079, 0.13, 1.012, 0.054, 192.0, 0.0, 0.0, 0.0, 0.0, 0.0, 0.0, 0.0, 0.0, 0.0, 1.695755910788778E9, 0.0, 2023-09-26 14:18:30.788
186.0, -154217.06786359166, 34119.401469159304, -50606.897545683096, -40532.85456095393, 2228.6253844053012, -13207.712853874309, -187500.02235174447, -615.1200074100503, 4694.313370503589, -35502.840340476076, -3084.406624365643, -21274.569186516906, -23537.929181805754, -18877.031669262848, -27641.32948414439, -41173.70142623204, 0.13, 1.012, 0.054, 192.0, 0.0, 0.0, 0.0, 0.0, 0.0, 0.0, 0.0, 0.0, 0.0, 1.695755910788794E9, 0.0, 2023-09-26 14:18:30.788
188.0, -154240.91717492547, 34113.254739434095, -50614.363028331165, -40538.28603485657, 2221.7857506019773, -13212.13849927646, -187500.02235174447, -611.4990248082906, 4702.270591529678, -35520.76643952924, -3088.8993250011595, -21287.13086690079, -23537.549202150014, -18870.951994771003, -27636.009768964028, -41163.2184580825, 0.134, 1.016, 0.056, 192.0, 2.0, 24.0, 15.5, 96.0, 0.5, 96.0, 0.0, 0.0, 0.0, 1.695755910788803E9, 0.0, 2023-09-26 14:18:30.788
190.0, -154203.12037505154, 34112.38302140034, -50627.863481982175, -40549.037223939566, 2209.022904517997, -13225.750711649742, -187500.02235174447, -609.6885335074107, 4699.275457772667, -35499.82285497461, -3090.083967457291, -21268.936546914167, -23545.551126665014, -18887.514637412387, -27644.57048709041, -41169.29813257434, 0.134, 1.016, 0.056, 192.0, 0.0, 0.0, 0.0, 0.0, 0.0, 0.0, 0.0, 0.0, 0.0, 1.695755910788813E9, 0.0, 2023-09-26 14:18:30.788
192.0, -154229.96482014237, 34106.191588186215, -50617.11229289917, -40537.74959298964, 2212.2192039751058, -13215.647723155944, -187500.02235174447, -604.9499636828856, 4694.693350159329, -35506.9307097114, -3097.817671038827, -21281.989965676068, -23547.026341799065, -18889.302776968812, -27646.582144091386, -41170.08044363027, 0.134, 1.016, 0.056, 192.0, 0.0, 0.0, 0.0, 0.0, 0.0, 0.0, 0.0, 0.0, 0.0, 1.695755910788822E9, 0.0, 2023-09-26 14:18:30.788
194.0, -154229.60719223108, 34116.4510388912, -50606.964600916464, -40528.29480508504, 2221.517529668514, -13207.869316085496, -187500.02235174447, -594.4669955333467, 4711.434806756354, -35499.9793171858, -3083.825479009805, -21268.310698069417, -23533.65999861479, -18878.372773930165, -27640.860097510827, -41164.42545228308, 0.134, 1.016, 0.056, 192.0, 0.0, 0.0, 0.0, 0.0, 0.0, 0.0, 0.0, 0.0, 0.0, 1.695755910848903E9, 0.0, 2023-09-26 14:18:30.848
196.0, -154252.67419250897, 34106.86214051988, -50616.70996149897, -40537.25785461162, 2210.855747563332, -13219.000484824239, -187500.02235174447, -599.1385101245058, 4707.165623565391, -35505.34373585507, -3082.171449920112, -21279.397163319252, -23531.13425149134, -18873.38833491663, -27638.2225916651, -41159.44101326955, 0.134, 1.016, 0.056, 192.0, 0.0, 0.0, 0.0, 0.0, 0.0, 0.0, 0.0, 0.0, 0.0, 1.69575591084893E9, 0.0, 2023-09-26 14:18:30.848
198.0, -154239.62077374707, 34119.84850404841, -50615.99470567641, -40533.01102316511, 2214.409674931726, -13207.534039918666, -187500.02235174447, -579.2901610481931, 4704.997504353226, -35502.639174775984, -3090.083967457291, -21270.657631237227, -23533.07885325895, -18879.199788475013, -27646.4256818802, -41165.14070810565, 0.132, 1.016, 0.046, 192.0, 2.0, 16.0, 15.5, 96.0, 0.5, 56.0, 0.0, 0.0, 0.0, 1.695755910848953E9, 0.0, 2023-09-26 14:18:30.848
200.0, -154275.58473057565, 34114.9534720127, -50600.50494676888, -40515.57666248997, 2228.5359774274802, -13190.010272265707, -187500.02235174447, -578.6643122034445, 4705.288077031145, -35503.80146548766, -3090.665112813129, -21282.012317420522, -23510.905922759288, -18867.01808774687, -27636.121527686304, -41149.31567303129, 0.132, 1.016, 0.046, 192.0, 0.0, 0.0, 0.0, 0.0, 0.0, 0.0, 0.0, 0.0, 0.0, 1.695755910848963E9, 0.0, 2023-09-26 14:18:30.848
202.0, -154255.49051231035, 34116.674556335754, -50618.02871442184, -40533.48040979867, 2217.7847883444774, -13205.969417806795, -187500.02235174447, -571.3776435110144, 4693.374597236467, -35491.999744415254, -3080.271551641411, -21272.892805682757, -23502.50166684409, -18859.64201207662, -27638.379053876288, -41155.216533567494, 0.132, 1.016, 0.046, 192.0, 0.0, 0.0, 0.0, 0.0, 0.0, 0.0, 0.0, 0.0, 0.0, 1.695755910848973E9, 0.0, 2023-09-26 14:18:30.848
204.0, -154277.08229745415, 34108.06913472046, -50607.43398755002, -40525.85846493941, 2224.0432767919633, -13191.329025188568, -187500.02235174447, -575.6021232130674, 4688.904248345405, -35490.23395660328, -3089.7039878015507, -21276.513788284516, -23500.445306354202, -18859.06086672078, -27636.456803853132, -41156.33412079026, 0.132, 1.016, 0.046, 192.0, 0.0, 0.0, 0.0, 0.0, 0.0, 0.0, 0.0, 0.0, 0.0, 1.695755910849024E9, 0.0, 2023-09-26 14:18:30.849
206.0, -154259.0667914232, 34110.7513440551, -50626.27650812585, -40550.91477047381, 2208.86644230681, -13210.216249253304, -187500.02235174447, -576.8314691581094, 4696.593248438031, -35483.43902628887, -3084.138403432179, -21270.903500426233, -23486.922500958743, -18852.62356431765, -27622.88929496876, -41152.46726899949, 0.132, 1.016, 0.046, 192.0, 0.0, 0.0, 0.0, 0.0, 0.0, 0.0, 0.0, 0.0, 0.0, 1.695755910849034E9, 0.0, 2023-09-26 14:18:30.849
208.0, -154276.63526256505, 34100.62600381685, -50614.83241496473, -40542.55521804753, 2217.4048086887374, -13196.84990606903, -187500.02235174447, -601.6642572479556, 4691.541754191131, -35476.152357596446, -3099.0246652394135, -21265.673192223694, -23491.057573682974, -18869.275613936858, -27630.600646805844, -41168.29230407385, 0.124, 1.016, 0.052000000000000005, 192.0, 1.5, 112.0, 15.5, 96.0, 0.5, 80.0, 0.0, 0.0, 0.0, 1.695755910849043E9, 0.0, 2023-09-26 14:18:30.849
210.0, -154285.64301558054, 34103.91171025178, -50626.052990681295, -40551.87589548539, 2213.0015150310414, -13199.08508051456, -187500.02235174447, -577.1220418360283, 4714.049960857626, -35474.677142462395, -3090.5757058353074, -21269.763561459014, -23475.612518264355, -18852.914136995572, -27607.64540525024, -41152.17669632157, 0.124, 1.016, 0.052000000000000005, 192.0, 0.0, 0.0, 0.0, 0.0, 0.0, 0.0, 0.0, 0.0, 0.0, 1.695755910907947E9, 0.0, 2023-09-26 14:18:30.907
212.0, -154262.33014611367, 34091.41708510126, -50649.83524678174, -40568.93027650479, 2191.1638606982065, -13212.071444043095, -187500.02235174447, -594.2434780887936, 4680.902323830405, -35454.962903852815, -3105.1713949646232, -21254.9667066296, -23495.170294662752, -18865.40876214609, -27623.2692746245, -41175.467214044, 0.124, 1.016, 0.052000000000000005, 192.0, 0.0, 0.0, 0.0, 0.0, 0.0, 0.0, 0.0, 0.0, 0.0, 1.695755910907987E9, 0.0, 2023-09-26 14:18:30.907
214.0, -154271.38260261808, 34095.9991927146, -50649.72348805946, -40561.129517689886, 2196.1930032006508, -13205.723548617787, -187500.02235174447, -588.9908181417964, 4674.822649338562, -35481.248555332255, -3115.2296799695114, -21266.58961374636, -23491.45990508317, -18860.178453943547, -27617.770745488495, -41179.132900134675, 0.124, 1.016, 0.052000000000000005, 192.0, 0.0, 0.0, 0.0, 0.0, 0.0, 0.0, 0.0, 0.0, 0.0, 1.695755910908004E9, 0.0, 2023-09-26 14:18:30.908
216.0, -154251.69071575295, 34086.58910829891, -50657.457191641, -40564.59403808046, 2188.325189152383, -13209.791566108654, -187500.02235174447, -600.9266496809304, 4682.645759897919, -35470.29620054915, -3113.843871813282, -21259.481759009574, -23485.112009657863, -18858.97145974296, -27612.36162333031, -41180.809280968824, 0.124, 1.016, 0.052000000000000005, 192.0, 0.0, 0.0, 0.0, 0.0, 0.0, 0.0, 0.0, 0.0, 0.0, 1.695755910908019E9, 0.0, 2023-09-26 14:18:30.908
218.0, -154253.14357914252, 34091.305326378984, -50655.1549619621, -40558.73788103317, 2194.2707531774945, -13210.104490531026, -187500.02235174447, -596.4563007898689, 4677.057823784092, -35481.092093121064, -3121.823444583827, -21266.1202271128, -23487.660108525768, -18860.4019713881, -27610.08174539587, -41190.71110376252, 0.122, 1.016, 0.05, 192.0, 1.5, 104.0, 15.5, 96.0, 0.5, 72.0, 0.0, 0.0, 0.0, 1.695755910908035E9, 0.0, 2023-09-26 14:18:30.908
220.0, -154217.98428511433, 34093.00405895759, -50659.08886898624, -40556.88268624338, 2188.8392792748546, -13205.634141639966, -187500.02235174447, -597.0597978901623, 4670.978149292248, -35463.143642323455, -3118.6047933822624, -21243.38850300175, -23497.874855741844, -18862.793608044816, -27613.23334136407, -41198.04247594386, 0.122, 1.016, 0.05, 192.0, 0.0, 0.0, 0.0, 0.0, 0.0, 0.0, 0.0, 0.0, 0.0, 1.695755910908046E9, 0.0, 2023-09-26 14:18:30.908
222.0, -154262.39720134702, 34099.776637527546, -50637.18415942004, -40532.943967931744, 2208.173538228695, -13182.455382639811, -187500.02235174447, -581.0112453712518, 4695.855640871006, -35488.937555424876, -3115.3190869473324, -21264.287384067462, -23474.450227552683, -18847.415607859566, -27590.18869283065, -41173.00852215392, 0.122, 1.016, 0.05, 192.0, 0.0, 0.0, 0.0, 0.0, 0.0, 0.0, 0.0, 0.0, 0.0, 1.695755910908055E9, 0.0, 2023-09-26 14:18:30.908
224.0, -154244.42639880496, 34104.872835263355, -50638.45820885399, -40532.72045048719, 2210.3193056964046, -13185.115240229994, -187500.02235174447, -580.4971552487797, 4707.523251476676, -35463.52362197919, -3104.2102699530446, -21247.233003048063, -23466.69417222669, -18838.20668914398, -27582.07500959337, -41167.174716851085, 0.122, 1.016, 0.05, 192.0, 0.0, 0.0, 0.0, 0.0, 0.0, 0.0, 0.0, 0.0, 0.0, 1.695755910968182E9, 0.0, 2023-09-26 14:18:30.968
226.0, -154262.9559949584, 34098.860216004876, -50640.62632806615, -40534.150962132335, 2207.7712068285, -13185.986958263751, -187500.02235174447, -580.7430244377881, 4699.2084025393015, -35475.03477037368, -3115.14027299169, -21255.838424663358, -23475.97014617564, -18834.518651308856, -27591.17216958668, -41173.29909483184, 0.122, 1.016, 0.05, 192.0, 0.0, 0.0, 0.0, 0.0, 0.0, 0.0, 0.0, 0.0, 0.0, 1.695755910968246E9, 0.0, 2023-09-26 14:18:30.968
228.0, -154237.51970976827, 34103.50937885158, -50645.07432521276, -40541.12470640239, 2203.6808375931787, -13189.5632373766, -187500.02235174447, -582.8440884165869, 4703.5446409636315, -35459.90263937743, -3109.217060711034, -21239.45459597762, -23483.726201501635, -18835.39036934261, -27588.13233234076, -41173.612019254215, 0.126, 1.012, 0.05, 192.0, 1.5, 120.0, 15.5, 80.0, 0.5, 72.0, 0.0, 0.0, 0.0, 1.695755910968258E9, 0.0, 2023-09-26 14:18:30.968
230.0, -154236.58093650115, 34095.84273050341, -50661.39109866513, -40557.53088683258, 2188.86163101931, -13210.059787042117, -187500.02235174447, -586.1968500848831, 4686.892591344427, -35483.01434314422, -3121.555223650363, -21250.943392627643, -23502.188742421717, -18855.171663185556, -27601.74454471404, -41186.30781010483, 0.126, 1.012, 0.05, 192.0, 0.0, 0.0, 0.0, 0.0, 0.0, 0.0, 0.0, 0.0, 0.0, 1.695755910968268E9, 0.0, 2023-09-26 14:18:30.968
232.0, -154213.5586397122, 34102.99528872911, -50651.69044157153, -40549.93129371778, 2200.998628258542, -13204.181278250371, -187500.02235174447, -597.4621292903578, 4687.272571000168, -35482.008514643734, -3120.035305027402, -21238.9628575996, -23507.486105857624, -18862.279517922347, -27610.79700121844, -41193.92975496408, 0.126, 1.012, 0.05, 192.0, 0.0, 0.0, 0.0, 0.0, 0.0, 0.0, 0.0, 0.0, 0.0, 1.695755910968278E9, 0.0, 2023-09-26 14:18:30.968
234.0, -154239.66547723598, 34093.71931478016, -50649.812895037285, -40543.20341863673, 2201.7809393144776, -13203.287208472158, -187500.02235174447, -595.7410449672991, 4701.756501407207, -35500.806331730644, -3119.632973627207, -21259.97349738759, -23501.562893576967, -18855.953974241493, -27604.22558834858, -41182.977400180986, 0.126, 1.012, 0.05, 192.0, 0.0, 0.0, 0.0, 0.0, 0.0, 0.0, 0.0, 0.0, 0.0, 1.695755910968288E9, 0.0, 2023-09-26 14:18:30.968
236.0, -154219.7500729263, 34104.8504835189, -50639.754610032396, -40533.32394758749, 2209.402884173737, -13191.954874033318, -187500.02235174447, -587.9179344079416, 4694.939219348338, -35474.29716280665, -3110.9604967785476, -21238.493470966037, -23502.9487017332, -18849.851948005195, -27606.192541860648, -41182.46331005851, 0.126, 1.012, 0.05, 192.0, 0.0, 0.0, 0.0, 0.0, 0.0, 0.0, 0.0, 0.0, 0.0, 1.695755910968297E9, 0.0, 2023-09-26 14:18:30.968
238.0, -154244.3593435716, 34102.838826517924, -50639.08405769874, -40530.708793486214, 2211.05691326343, -13188.155077475916, -187500.02235174447, -564.3368440075927, 4704.3716555084775, -35481.98616289928, -3106.557203120852, -21261.605174732827, -23493.069230683952, -18840.48656707842, -27591.865073664794, -41163.24080982695, 0.128, 1.012, 0.046, 192.0, 2.0, 0.0, 15.5, 80.0, 0.5, 56.0, 0.0, 0.0, 0.0, 1.695755910968307E9, 0.0, 2023-09-26 14:18:30.968
240.0, -154215.81616590216, 34105.498684108104, -50643.5544065898, -40535.00032842164, 2206.0277707609857, -13191.41843216639, -187500.02235174447, -564.4486027298692, 4694.425129225866, -35465.20000281334, -3106.4677961430307, -21240.773348900482, -23501.94287323271, -18839.123110666646, -27597.54241675644, -41166.23594358396, 0.128, 1.012, 0.046, 192.0, 0.0, 0.0, 0.0, 0.0, 0.0, 0.0, 0.0, 0.0, 0.0, 1.695755911028498E9, 0.0, 2023-09-26 14:18:31.028
242.0, -154253.88118670956, 34098.48023634914, -50635.59718556371, -40531.53580803106, 2213.8061778314327, -13189.876161798975, -187500.02235174447, -587.5826582411121, 4706.606829954008, -35480.98033439879, -3110.7369793339944, -21257.11247409731, -23504.334509889428, -18845.761578769874, -27598.4141347902, -41169.61105699671, 0.128, 1.012, 0.046, 192.0, 0.0, 0.0, 0.0, 0.0, 0.0, 0.0, 0.0, 0.0, 0.0, 1.695755911028529E9, 0.0, 2023-09-26 14:18:31.028
244.0, -154222.09700609412, 34106.124532952854, -50651.01988923787, -40548.07609892799, 2203.6808375931787, -13202.393138693946, -187500.02235174447, -578.0161116142407, 4703.164661307891, -35470.49736624925, -3103.271496685922, -21242.807357645914, -23509.207190180685, -18845.538061325322, -27602.906835425718, -41177.14359487815, 0.128, 1.012, 0.046, 192.0, 0.0, 0.0, 0.0, 0.0, 0.0, 0.0, 0.0, 0.0, 0.0, 1.69575591102854E9, 0.0, 2023-09-26 14:18:31.028
246.0, -154235.64216323404, 34096.71444853717, -50647.95770024749, -40545.97503494919, 2208.240593462061, -13200.783813093163, -187500.02235174447, -582.0841291051065, 4687.361977977989, -35481.60618324354, -3112.9721537795253, -21249.35641877132, -23513.23050418264, -18854.612869574175, -27604.449105793134, -41180.29519084635, 0.128, 1.012, 0.046, 192.0, 0.0, 0.0, 0.0, 0.0, 0.0, 0.0, 0.0, 0.0, 0.0, 1.69575591102855E9, 0.0, 2023-09-26 14:18:31.028
248.0, -154232.75878819928, 34105.11870445236, -50634.12197042966, -40535.045031910544, 2221.472826179603, -13189.272664698681, -187500.02235174447, -578.3737395255256, 4680.902323830405, -35482.76847395521, -3117.0625230148466, -21244.081407079866, -23514.571608849958, -18851.59538407271, -27603.845608692838, -41180.608115268726, 0.12, 1.012, 0.052000000000000005, 192.0, 1.5, 96.0, 15.5, 80.0, 0.5, 80.0, 0.0, 0.0, 0.0, 1.695755911028616E9, 0.0, 2023-09-26 14:18:31.028
250.0, -154258.64210827852, 34104.381096885336, -50636.73712453093, -40537.235502867166, 2218.4553406781365, -13190.99374902174, -187500.02235174447, -578.3737395255256, 4713.200594568324, -35483.95311641134, -3110.6922758450837, -21257.35834328632, -23493.091582428406, -18836.44090133201, -27586.344192784334, -41159.686882458554, 0.12, 1.012, 0.052000000000000005, 192.0, 0.0, 0.0, 0.0, 0.0, 0.0, 0.0, 0.0, 0.0, 0.0, 1.695755911028629E9, 0.0, 2023-09-26 14:18:31.028
252.0, -154238.2573173353, 34101.74359103961, -50648.002403736406, -40546.377366349385, 2207.212413217117, -13200.493240415246, -187500.02235174447, -570.1706493104278, 4687.719605889274, -35476.53233725218, -3113.240374712989, -21242.606191945815, -23512.38113789334, -18853.785855029328, -27596.670698722686, -41168.47111802949, 0.12, 1.012, 0.052000000000000005, 192.0, 0.0, 0.0, 0.0, 0.0, 0.0, 0.0, 0.0, 0.0, 0.0, 1.695755911028639E9, 0.0, 2023-09-26 14:18:31.028
254.0, -154247.6003465176, 34094.50162583609, -50637.720601286965, -40537.92840694528, 2213.7167708536117, -13193.832420567564, -187500.02235174447, -590.1084053645618, 4689.97713207926, -35479.438064031376, -3118.0907032597906, -21241.48860472305, -23524.22756245465, -18857.138616697626, -27609.23237910657, -41177.590629767255, 0.12, 1.012, 0.052000000000000005, 192.0, 0.0, 0.0, 0.0, 0.0, 0.0, 0.0, 0.0, 0.0, 0.0, 1.695755911088725E9, 0.0, 2023-09-26 14:18:31.088
0.0, -154271.24849215132, 34104.91753875226, -50623.3484296022, -40529.613558007906, 2227.798369860455, -13188.937388531851, -187500.02235174447, -575.4009575129697, 4718.587364982052, -35490.63628800348, -3103.025627496914, -21253.223270562088, -23497.204303408183, -18842.230003145934, -27581.06918109288, -41152.981359121964, 0.12, 1.012, 0.052000000000000005, 192.0, 0.0, 0.0, 0.0, 0.0, 0.0, 0.0, 0.0, 0.0, 0.0, 1.695755911088773E9, 0.0, 2023-09-26 14:18:31.088
2.0, -154267.09106768263, 34097.45205610419, -50631.61857505066, -40538.64366276785, 2220.9810878015865, -13197.006368280217, -187500.02235174447, -585.906277406964, 4703.008199096704, -35476.554688996635, -3103.13738621919, -21242.002694845523, -23510.592998336913, -18850.701314294496, -27591.954480642617, -41167.26412382891, 0.11800000000000001, 1.014, 0.05, 192.0, 1.5, 88.0, 15.5, 88.0, 0.5, 72.0, 0.0, 0.0, 0.0, 1.695755911088789E9, 0.0, 2023-09-26 14:18:31.088
4.0, -154256.18341638846, 34095.06041944747, -50648.918825259076, -40552.99348270816, 2210.118139996307, -13209.500993430735, -187500.02235174447, -566.7731841532212, 4699.364864750489, -35487.462340290826, -3108.144176977179, -21241.600363445326, -23515.04099548352, -18854.992849229915, -27598.682355723664, -41171.98034190897, 0.11800000000000001, 1.014, 0.05, 192.0, 0.0, 0.0, 0.0, 0.0, 0.0, 0.0, 0.0, 0.0, 0.0, 1.695755911088805E9, 0.0, 2023-09-26 14:18:31.088
6.0, -154245.47693079436, 34086.52205306555, -50645.2531391684, -40547.562008805515, 2210.5651748854134, -13204.002464294728, -187500.02235174447, -581.9947221272853, 4684.568009921076, -35481.226203587794, -3123.4551219290643, -21230.37978772876, -23530.620161368868, -18867.82275054726, -27615.08853615386, -41186.28545836037, 0.11800000000000001, 1.014, 0.05, 192.0, 0.0, 0.0, 0.0, 0.0, 0.0, 0.0, 0.0, 0.0, 0.0, 1.695755911088835E9, 0.0, 2023-09-26 14:18:31.088
8.0, -154275.20475091992, 34092.53467232402, -50634.300784385305, -40541.05765116902, 2221.919861068709, -13196.984016535762, -187500.02235174447, -574.7751086682212, 4696.816765882583, -35503.957927698844, -3118.9624212935473, -21250.652819949726, -23513.051690226996, -18854.858738763185, -27599.911701668705, -41168.80639419632, 0.11800000000000001, 1.014, 0.05, 192.0, 0.0, 0.0, 0.0, 0.0, 0.0, 0.0, 0.0, 0.0, 0.0, 1.695755911088845E9, 0.0, 2023-09-26 14:18:31.088
10.0, -154258.19507338942, 34091.32767812344, -50641.632156566644, -40553.440517597264, 2217.62832613329, -13206.349397462536, -187500.02235174447, -589.1919838418942, 4711.144234078435, -35478.45458727534, -3113.106264246257, -21238.940505855146, -23520.60657985289, -18860.536081854832, -27606.728983727575, -41181.39042632466, 0.11800000000000001, 1.014, 0.05, 192.0, 0.0, 0.0, 0.0, 0.0, 0.0, 0.0, 0.0, 0.0, 0.0, 1.695755911088854E9, 0.0, 2023-09-26 14:18:31.088
12.0, -154286.2688644253, 34087.237308888114, -50640.514569343875, -40555.5192298316, 2219.0811895228853, -13212.071444043095, -187500.02235174447, -581.3241697936261, 4706.2492020427235, -35497.29710785116, -3118.8953660601815, -21255.369038029796, -23511.50941985958, -18858.233852175934, -27601.722192969584, -41176.33893207776, 0.122, 1.014, 0.052000000000000005, 192.0, 1.5, 104.0, 15.5, 88.0, 0.5, 80.0, 0.0, 0.0, 0.0, 1.695755911088863E9, 0.0, 2023-09-26 14:18:31.088
14.0, -154266.73343977137, 34087.48317807713, -50638.413505365075, -40551.67472978529, 2215.43785517667, -13209.970380064295, -187500.02235174447, -588.2308588303159, 4687.987826822738, -35487.462340290826, -3123.276307973422, -21238.00173258802, -23524.115803732373, -18868.515654625375, -27612.473382052587, -41189.79468223985, 0.122, 1.014, 0.052000000000000005, 192.0, 0.0, 0.0, 0.0, 0.0, 0.0, 0.0, 0.0, 0.0, 0.0, 1.695755911149022E9, 0.0, 2023-09-26 14:18:31.149
16.0, -154301.08807099916, 34094.27810839154, -50625.22597613645, -40542.48816281416, 2223.7527041140443, -13202.057862527117, -187500.02235174447, -580.0948238485842, 4710.496033489231, -35509.0317736902, -3122.270479472933, -21259.459407265116, -23510.727108803643, -18848.823767760252, -27596.80480918942, -41172.3156180758, 0.122, 1.014, 0.052000000000000005, 192.0, 0.0, 0.0, 0.0, 0.0, 0.0, 0.0, 0.0, 0.0, 0.0, 1.695755911149049E9, 0.0, 2023-09-26 14:18:31.149
18.0, -154262.6654222805, 34091.595899056905, -50641.09571469972, -40560.50366884514, 2208.821738817899, -13221.682694158877, -187500.02235174447, -604.4358735604136, 4702.3152950185895, -35480.265078576216, -3113.486243901997, -21233.844308119336, -23512.492896615615, -18865.34170691272, -27601.87865518077, -41183.37973158118, 0.122, 1.014, 0.052000000000000005, 192.0, 0.0, 0.0, 0.0, 0.0, 0.0, 0.0, 0.0, 0.0, 0.0, 1.695755911149058E9, 0.0, 2023-09-26 14:18:31.149
20.0, -154284.74894580233, 34089.53953856701, -50634.010211707384, -40547.09262217196, 2218.209471489128, -13204.784775350665, -187500.02235174447, -596.6351147455114, 4700.236582784246, -35503.08620966509, -3120.8623195722485, -21252.0162763615, -23514.549257105504, -18871.10845698219, -27609.388841317756, -41187.60421128324, 0.122, 1.014, 0.052000000000000005, 192.0, 0.0, 0.0, 0.0, 0.0, 0.0, 0.0, 0.0, 0.0, 0.0, 1.695755911149068E9, 0.0, 2023-09-26 14:18:31.149
22.0, -154262.7548292583, 34093.74166652461, -50635.88775824163, -40546.377366349385, 2215.929593554687, -13197.855734569519, -187500.02235174447, -585.1910215843942, 4702.40470199641, -35480.35448555404, -3106.981886265503, -21231.29620925143, -23506.99436747961, -18859.59730858771, -27601.90100692523, -41173.81318495431, 0.128, 1.014, 0.048, 192.0, 2.0, 0.0, 15.5, 88.0, 0.5, 64.0, 0.0, 0.0, 0.0, 1.695755911149077E9, 0.0, 2023-09-26 14:18:31.149
24.0, -154290.58275110516, 34090.88064323433, -50638.74878153191, -40549.77483150659, 2210.542823140958, -13202.504897416222, -187500.02235174447, -596.5680595121455, 4704.416358997388, -35497.47592180681, -3119.0965317602795, -21253.357381028818, -23511.040033226018, -18861.83248303324, -27608.070088394892, -41177.14359487815, 0.128, 1.014, 0.048, 192.0, 0.0, 0.0, 0.0, 0.0, 0.0, 0.0, 0.0, 0.0, 0.0, 1.695755911149086E9, 0.0, 2023-09-26 14:18:31.149
26.0, -154267.8733787386, 34094.07694269144, -50642.14624668912, -40552.34528211895, 2210.3640091853154, -13200.113260759505, -187500.02235174447, -591.0918821205953, 4703.634047941452, -35482.96963965531, -3119.007124782458, -21241.220383789587, -23511.12944020384, -18854.97049748546, -27611.244036107546, -41181.05515015783, 0.128, 1.014, 0.048, 192.0, 0.0, 0.0, 0.0, 0.0, 0.0, 0.0, 0.0, 0.0, 0.0, 1.695755911149096E9, 0.0, 2023-09-26 14:18:31.149
28.0, -154304.01614952282, 34091.372381612346, -50638.704078042996, -40544.298654115046, 2207.547689383947, -13199.867391570497, -187500.02235174447, -587.5156030077461, 4712.708856190307, -35496.8277212176, -3123.3433632067877, -21262.387485788764, -23499.484181342625, -18854.389352129623, -27602.772724958984, -41168.649931985135, 0.128, 1.014, 0.048, 192.0, 0.0, 0.0, 0.0, 0.0, 0.0, 0.0, 0.0, 0.0, 0.0, 1.695755911207975E9, 0.0, 2023-09-26 14:18:31.207
30.0, -154238.9502214134, 34095.75332352559, -50656.36195616269, -40563.2752851576, 2188.7722240414887, -13229.304639018135, -187500.02235174447, -595.361065311559, 4690.535925690642, -35469.26802030421, -3126.9866975530026, -21227.71993013858, -23530.933085791243, -18875.534102384343, -27624.543324058453, -41197.14840616565, 0.128, 1.014, 0.048, 192.0, 0.0, 0.0, 0.0, 0.0, 0.0, 0.0, 0.0, 0.0, 0.0, 1.695755911208001E9, 0.0, 2023-09-26 14:18:31.208
32.0, -154274.57890207518, 34090.09833217839, -50634.099618685206, -40542.93519770327, 2216.689552866167, -13204.605961395022, -187500.02235174447, -606.1569578834723, 4689.373634978966, -35496.335982839584, -3136.4861889465083, -21242.91911636819, -23530.955437535697, -18875.601157617708, -27617.480172810578, -41193.594478797255, 0.126, 1.016, 0.05, 192.0, 1.5, 120.0, 15.5, 96.0, 0.5, 72.0, 0.0, 0.0, 0.0, 1.695755911208011E9, 0.0, 2023-09-26 14:18:31.208
34.0, -154256.02695417727, 34091.372381612346, -50640.89454899962, -40551.38415710737, 2215.5943173878572, -13211.42324345389, -187500.02235174447, -588.6331902305114, 4706.472719487277, -35493.69847699386, -3115.944935792081, -21242.74030241255, -23508.69310005821, -18855.953974241493, -27591.619204475788, -41173.187336109564, 0.126, 1.016, 0.05, 192.0, 0.0, 0.0, 0.0, 0.0, 0.0, 0.0, 0.0, 0.0, 0.0, 1.695755911208021E9, 0.0, 2023-09-26 14:18:31.208
36.0, -154276.9705387319, 34075.94967793819, -50632.64675529561, -40543.13636340337, 2222.210433746628, -13202.169621249393, -187500.02235174447, -596.2327833453159, 4694.469832714776, -35496.51479679523, -3127.9254708201256, -21250.25048854953, -23522.685292087233, -18872.2036924605, -27609.70176574013, -41187.939487450065, 0.126, 1.016, 0.05, 192.0, 0.0, 0.0, 0.0, 0.0, 0.0, 0.0, 0.0, 0.0, 0.0, 1.695755911208068E9, 0.0, 2023-09-26 14:18:31.208
38.0, -154256.652803022, 34092.40056185729, -50635.70894428599, -40547.427898338785, 2223.886814580776, -13205.030644539673, -187500.02235174447, -574.4398325013915, 4701.331818262555, -35491.70917173733, -3112.525118890419, -21242.87441287928, -23517.589094351424, -18851.59538407271, -27592.98266088756, -41174.48373728797, 0.126, 1.016, 0.05, 192.0, 0.0, 0.0, 0.0, 0.0, 0.0, 0.0, 0.0, 0.0, 0.0, 1.695755911208077E9, 0.0, 2023-09-26 14:18:31.208
40.0, -154264.3641548591, 34084.1974716422, -50633.69728728501, -40547.0702704275, 2216.0413522769636, -13198.012196780706, -187500.02235174447, -578.9325331369082, 4692.480527458254, -35497.74414274027, -3124.840930085293, -21247.92590712618, -23522.84175429842, -18874.148294228115, -27598.078858623372, -41177.34476057825, 0.126, 1.016, 0.05, 192.0, 0.0, 0.0, 0.0, 0.0, 0.0, 0.0, 0.0, 0.0, 0.0, 1.695755911208086E9, 0.0, 2023-09-26 14:18:31.208
42.0, -154266.5546258157, 34095.26158514757, -50624.77894124734, -40536.56495053351, 2221.897509324254, -13190.636121110454, -187500.02235174447, -575.490364490791, 4702.002370596215, -35501.16395964193, -3115.117921247235, -21241.265087278498, -23509.6989285587, -18857.026857975347, -27587.864111407296, -41163.553734249326, 0.132, 1.014, 0.05, 192.0, 2.0, 16.0, 15.5, 88.0, 0.5, 72.0, 0.0, 0.0, 0.0, 1.695755911208095E9, 0.0, 2023-09-26 14:18:31.208
44.0, -154246.03572440575, 34085.65033503179, -50644.4037728791, -40551.473564085194, 2199.679875335679, -13206.37174920699, -187500.02235174447, -593.2376495883047, 4692.838155369539, -35481.71794196581, -3119.968249794036, -21232.078520307365, -23532.207135225195, -18874.371811672667, -27609.142972128746, -41178.507051289926, 0.132, 1.014, 0.05, 192.0, 0.0, 0.0, 0.0, 0.0, 0.0, 0.0, 0.0, 0.0, 0.0, 1.695755911268183E9, 0.0, 2023-09-26 14:18:31.268
46.0, -154243.1970528599, 34095.17217816975, -50639.888720499126, -40543.33752910346, 2206.519509139003, -13198.034548525162, -187500.02235174447, -590.0189983867406, 4693.531059447653, -35494.01140141623, -3131.725267377528, -21231.25150576252, -23535.470489915668, -18868.64976509211, -27613.054527408425, -41173.7684814654, 0.132, 1.014, 0.05, 192.0, 0.0, 0.0, 0.0, 0.0, 0.0, 0.0, 0.0, 0.0, 0.0, 1.695755911268212E9, 0.0, 2023-09-26 14:18:31.268
48.0, -154244.67226799397, 34090.21009090067, -50643.82262752326, -40545.10331691543, 2205.893660294254, -13204.158926505916, -187500.02235174447, -596.7021699788774, 4696.146213548925, -35492.87146244901, -3129.5347964209077, -21234.58191568636, -23531.17895498025, -18860.849006277207, -27612.071050652394, -41171.019216897395, 0.132, 1.014, 0.05, 192.0, 0.0, 0.0, 0.0, 0.0, 0.0, 0.0, 0.0, 0.0, 0.0, 1.695755911268222E9, 0.0, 2023-09-26 14:18:31.268
50.0, -154253.56826228718, 34096.58033807044, -50641.6545083111, -40546.377366349385, 2208.0394277619635, -13210.819746353596, -187500.02235174447, -596.2774868342265, 4702.248239785224, -35506.058991677644, -3130.0935900322906, -21240.88510762276, -23531.760100336087, -18865.185244701534, -27618.32953909988, -41177.881202445176, 0.132, 1.014, 0.05, 192.0, 0.0, 0.0, 0.0, 0.0, 0.0, 0.0, 0.0, 0.0, 0.0, 1.695755911268231E9, 0.0, 2023-09-26 14:18:31.268
52.0, -154246.21453836138, 34083.549271052994, -50636.49125534192, -40544.67863377078, 2210.498119652047, -13209.411586452912, -187500.02235174447, -605.4417020609025, 4683.875105842961, -35501.29807010866, -3128.8865958317037, -21237.95702909911, -23534.79993758201, -18876.852855307206, -27619.245960622546, -41183.62560077019, 0.124, 1.012, 0.05, 192.0, 1.5, 112.0, 15.5, 80.0, 0.5, 72.0, 0.0, 0.0, 0.0, 1.69575591126824E9, 0.0, 2023-09-26 14:18:31.268
54.0, -154279.5633410887, 34091.08180893443, -50618.140473144114, -40529.56885451899, 2229.9441373281643, -13194.324158945581, -187500.02235174447, -584.4087105284584, 4689.351283234511, -35513.949157470364, -3126.42790394162, -21253.513843240005, -23524.339321176925, -18868.359192414187, -27599.531722012965, -41164.2689900719, 0.124, 1.012, 0.05, 192.0, 0.0, 0.0, 0.0, 0.0, 0.0, 0.0, 0.0, 0.0, 0.0, 1.695755911268249E9, 0.0, 2023-09-26 14:18:31.268
56.0, -154269.75092527282, 34092.22174790165, -50621.716752256965, -40533.48040979867, 2225.831416348388, -13196.313464202103, -187500.02235174447, -580.4971552487797, 4699.230754283757, -35494.659602005435, -3116.660191614651, -21244.908421624714, -23520.718338575167, -18864.44763713451, -27593.764971943496, -41157.98814987995, 0.124, 1.012, 0.05, 192.0, 0.0, 0.0, 0.0, 0.0, 0.0, 0.0, 0.0, 0.0, 0.0, 1.695755911268296E9, 0.0, 2023-09-26 14:18:31.268
58.0, -154291.54387611675, 34096.960317726174, -50621.76145574587, -40533.860389454414, 2227.8654250938207, -13196.782850835663, -187500.02235174447, -583.1123093500506, 4703.298771774623, -35504.04733467667, -3119.7670840939386, -21250.071674593888, -23526.57449562246, -18862.793608044816, -27594.547282999432, -41155.149478334126, 0.124, 1.012, 0.05, 192.0, 0.0, 0.0, 0.0, 0.0, 0.0, 0.0, 0.0, 0.0, 0.0, 1.695755911328494E9, 0.0, 2023-09-26 14:18:31.328
60.0, -154259.17855014547, 34091.64060254581, -50631.283298883835, -40545.63975878236, 2219.349410456349, -13208.070481785595, -187500.02235174447, -597.0374461457069, 4703.45523398581, -35487.75291296875, -3116.973116037025, -21232.458499963108, -23531.71539684718, -18877.366945429676, -27605.901969182727, -41167.308827317815, 0.124, 1.012, 0.05, 192.0, 0.0, 0.0, 0.0, 0.0, 0.0, 0.0, 0.0, 0.0, 0.0, 1.695755911328517E9, 0.0, 2023-09-26 14:18:31.328
62.0, -154283.78782079075, 34087.952564710686, -50625.67301102555, -40538.554255790026, 2224.5797186588907, -13202.840173583052, -187500.02235174447, -594.2658298332489, 4688.121937289469, -35513.345660370076, -3124.3268399628214, -21248.194128059644, -23532.27419045856, -18881.904349554105, -27607.42188780569, -41164.157231349614, 0.13, 1.01, 0.052000000000000005, 192.0, 2.0, 8.0, 15.5, 72.0, 0.5, 80.0, 0.0, 0.0, 0.0, 1.695755911328527E9, 0.0, 2023-09-26 14:18:31.328
64.0, -154261.54783505772, 34093.60755605788, -50628.77990350484, -40539.314215101505, 2215.639020876768, -13204.918885817397, -187500.02235174447, -606.0451991611957, 4684.836230854539, -35491.105674637045, -3115.8778805587153, -21231.29620925143, -23532.497707903112, -18868.292137180822, -27609.344137828844, -41162.771423193386, 0.13, 1.01, 0.052000000000000005, 192.0, 0.0, 0.0, 0.0, 0.0, 0.0, 0.0, 0.0, 0.0, 0.0, 1.695755911328536E9, 0.0, 2023-09-26 14:18:31.328
66.0, -154260.09497166812, 34084.33158210893, -50640.91690074407, -40553.90990423082, 2210.5651748854134, -13219.246354013248, -187500.02235174447, -602.0442369036957, 4681.885800586439, -35504.807293988146, -3122.1140172617456, -21245.847194891834, -23537.728016105655, -18872.874244794162, -27613.814486719908, -41170.035740141364, 0.13, 1.01, 0.052000000000000005, 192.0, 0.0, 0.0, 0.0, 0.0, 0.0, 0.0, 0.0, 0.0, 0.0, 1.695755911328546E9, 0.0, 2023-09-26 14:18:31.328
68.0, -154254.64114602105, 34092.489968835114, -50620.68857201202, -40534.218017365696, 2227.2172245046168, -13203.734243361265, -187500.02235174447, -611.8119492306649, 4692.882858858449, -35490.323363581105, -3119.3200492048322, -21232.72672089657, -23538.018588783576, -18878.372773930165, -27616.47434431009, -41174.595496010246, 0.13, 1.01, 0.052000000000000005, 192.0, 0.0, 0.0, 0.0, 0.0, 0.0, 0.0, 0.0, 0.0, 0.0, 1.695755911328555E9, 0.0, 2023-09-26 14:18:31.328
70.0, -154290.15806796052, 34088.55606181098, -50618.96748768896, -40530.932310930766, 2226.7254861266, -13199.174487492382, -187500.02235174447, -602.8488997040868, 4718.252088815223, -35509.12118066802, -3107.920659532626, -21254.45261650713, -23522.260608942583, -18869.32031742577, -27600.738716213553, -41154.031891111365, 0.13, 1.01, 0.052000000000000005, 192.0, 0.0, 0.0, 0.0, 0.0, 0.0, 0.0, 0.0, 0.0, 0.0, 1.695755911328563E9, 0.0, 2023-09-26 14:18:31.328
72.0, -154268.38746886104, 34096.960317726174, -50617.62638302164, -40529.83707545246, 2233.6545269077455, -13195.553504890622, -187500.02235174447, -602.3348095816148, 4702.203536296312, -35486.68002923489, -3102.332723418799, -21230.603305173317, -23527.8038415675, -18870.951994771003, -27609.478248295578, -41159.10573710272, 0.128, 1.008, 0.048, 192.0, 2.0, 0.0, 15.5, 64.0, 0.5, 64.0, 0.0, 0.0, 0.0, 1.695755911328572E9, 0.0, 2023-09-26 14:18:31.328
74.0, -154293.95786451793, 34085.62798328733, -50624.66718252507, -40532.40752606482, 2224.244442492061, -13200.672054370887, -187500.02235174447, -598.1550333684723, 4706.271553787178, -35503.71205850984, -3110.5134618894413, -21246.987133859056, -23527.8038415675, -18866.056962735292, -27606.03607964946, -41151.19321956554, 0.128, 1.008, 0.048, 192.0, 0.0, 0.0, 0.0, 0.0, 0.0, 0.0, 0.0, 0.0, 0.0, 1.695755911390303E9, 0.0, 2023-09-26 14:18:31.390
76.0, -154250.662535508, 34091.372381612346, -50636.200682664, -40543.62810178138, 2213.403846431237, -13213.546659177144, -187500.02235174447, -608.1015596510839, 4692.815803625083, -35486.81413970162, -3107.585383365796, -21226.04354930443, -23542.220716741173, -18875.847026806718, -27616.47434431009, -41165.94537090604, 0.128, 1.008, 0.048, 192.0, 0.0, 0.0, 0.0, 0.0, 0.0, 0.0, 0.0, 0.0, 0.0, 1.695755911390328E9, 0.0, 2023-09-26 14:18:31.390
78.0, -154260.1620269015, 34084.1974716422, -50635.753647774894, -40545.39388959335, 2213.381494686782, -13214.619542911, -187500.02235174447, -604.5923357716007, 4689.083062301047, -35503.73441025429, -3117.755427092961, -21242.270915778987, -23545.640533642832, -18883.73719259944, -27625.057414180927, -41169.72281571899, 0.128, 1.008, 0.048, 192.0, 0.0, 0.0, 0.0, 0.0, 0.0, 0.0, 0.0, 0.0, 0.0, 1.695755911390391E9, 0.0, 2023-09-26 14:18:31.390
80.0, -154249.6567070075, 34093.45109384669, -50631.864444239676, -40542.59992153644, 2215.8178348324104, -13210.864449842507, -187500.02235174447, -601.5972020145896, 4704.259896786201, -35505.38843934399, -3110.4464066560754, -21235.34187499784, -23538.532678906045, -18881.479666409454, -27617.256655366025, -41164.42545228308, 0.128, 1.008, 0.048, 192.0, 0.0, 0.0, 0.0, 0.0, 0.0, 0.0, 0.0, 0.0, 0.0, 1.695755911390401E9, 0.0, 2023-09-26 14:18:31.390
82.0, -154264.27474788128, 34086.67851527673, -50634.144322174114, -40546.936159960766, 2212.5321283974804, -13220.09572030255, -187500.02235174447, -615.7682079992543, 4702.292943274134, -35511.088134180085, -3109.529985133408, -21250.228136805075, -23543.22654524166, -18889.03455603535, -27625.236228136568, -41172.58383900927, 0.132, 1.006, 0.06, 192.0, 2.0, 16.0, 15.5, 56.0, 0.5, 112.0, 0.0, 0.0, 0.0, 1.695755911390411E9, 0.0, 2023-09-26 14:18:31.390
84.0, -154253.68002100947, 34098.569643326955, -50620.107426656185, -40532.899264442836, 2227.6195559048124, -13209.366882964003, -187500.02235174447, -618.4280655894358, 4697.509669960698, -35508.69649752337, -3101.170432707123, -21238.292305265943, -23541.79603359652, -18887.73815485694, -27620.542361800955, -41172.78500470937, 0.132, 1.006, 0.06, 192.0, 0.0, 0.0, 0.0, 0.0, 0.0, 0.0, 0.0, 0.0, 0.0, 1.695755911390427E9, 0.0, 2023-09-26 14:18:31.390
86.0, -154272.99192821883, 34090.92534672324, -50615.65942950958, -40530.4182208083, 2225.831416348388, -13205.969417806795, -187500.02235174447, -611.1861003859163, 4712.21711781229, -35512.71981152533, -3101.66217108514, -21253.044456606443, -23524.764004321576, -18872.270747693867, -27605.969024416096, -41157.47405975748, 0.132, 1.006, 0.06, 192.0, 0.0, 0.0, 0.0, 0.0, 0.0, 0.0, 0.0, 0.0, 0.0, 1.695755911390437E9, 0.0, 2023-09-26 14:18:31.390
88.0, -154261.2572623798, 34100.06721020546, -50608.46216779497, -40525.99257540615, 2230.569986172913, -13199.487411914757, -187500.02235174447, -598.4456060463913, 4710.719550933784, -35504.40496258795, -3097.370636149721, -21235.72185465358, -23532.877687558856, -18881.189093731537, -27616.049661165438, -41161.87735341518, 0.132, 1.006, 0.06, 192.0, 0.0, 0.0, 0.0, 0.0, 0.0, 0.0, 0.0, 0.0, 0.0, 1.695755911449094E9, 0.0, 2023-09-26 14:18:31.449
90.0, -154259.1114949121, 34098.05555320449, -50622.968449946464, -40542.93519770327, 2224.087980280874, -13216.765310378709, -187500.02235174447, -603.4300450599247, 4715.6369347139525, -35502.840340476076, -3096.521269860419, -21240.23690703355, -23529.346111934916, -18884.631262377654, -27612.22751286358, -41161.60913248171, 0.132, 1.006, 0.06, 192.0, 0.0, 0.0, 0.0, 0.0, 0.0, 0.0, 0.0, 0.0, 0.0, 1.695755911449119E9, 0.0, 2023-09-26 14:18:31.449
92.0, -154261.59253854663, 34090.63477404532, -50623.661354024574, -40543.06930817, 2224.2891459809716, -13214.66424639991, -187500.02235174447, -607.8333387176202, 4706.226850298268, -35508.04829693417, -3098.845851283771, -21238.515822710495, -23536.901001560807, -18893.482553181955, -27617.14489664375, -41168.18054535157, 0.136, 1.006, 0.062, 192.0, 2.0, 32.0, 15.5, 56.0, 0.5, 120.0, 0.0, 0.0, 0.0, 1.69575591144913E9, 0.0, 2023-09-26 14:18:31.449
94.0, -154268.1639514165, 34080.15180589579, -50622.275545868346, -40543.9186744593, 2222.2551372355388, -13215.893592344952, -187500.02235174447, -624.9100714814748, 4698.247277527724, -35504.8296457326, -3102.109205974246, -21250.1163780828, -23538.89030681733, -18896.16476251659, -27621.637597279263, -41170.750995963936, 0.136, 1.006, 0.062, 192.0, 0.0, 0.0, 0.0, 0.0, 0.0, 0.0, 0.0, 0.0, 0.0, 1.69575591144914E9, 0.0, 2023-09-26 14:18:31.449
96.0, -154272.5672450742, 34095.149826425295, -50613.334848086226, -40533.368651076395, 2227.731314627089, -13209.411586452912, -187500.02235174447, -599.8314142026203, 4714.2958300466335, -35514.82087550413, -3093.369673892221, -21256.844253163847, -23524.09345198792, -18887.380526945653, -27606.23724534956, -41153.67426320008, 0.136, 1.006, 0.062, 192.0, 0.0, 0.0, 0.0, 0.0, 0.0, 0.0, 0.0, 0.0, 0.0, 1.69575591144915E9, 0.0, 2023-09-26 14:18:31.449
98.0, -154243.53232902676, 34093.13816942432, -50626.27650812585, -40545.34918610444, 2206.184232972173, -13226.398912238947, -187500.02235174447, -612.5942602866006, 4706.182146809358, -35498.45939856284, -3090.5533540908523, -21241.86858437879, -23538.42092018377, -18891.40384094761, -27615.200294876136, -41162.10087085973, 0.136, 1.006, 0.062, 192.0, 0.0, 0.0, 0.0, 0.0, 0.0, 0.0, 0.0, 0.0, 0.0, 1.695755911449159E9, 0.0, 2023-09-26 14:18:31.449
100.0, -154245.14165462754, 34093.205224657686, -50619.07924641124, -40536.63200576687, 2215.728427854589, -13217.458214456823, -187500.02235174447, -617.0646091776621, 4688.792489623129, -35506.10369516655, -3106.110168231746, -21240.169851800187, -23554.245955258128, -18894.510733426898, -27632.522896829, -41175.6683797441, 0.136, 1.006, 0.062, 192.0, 0.0, 0.0, 0.0, 0.0, 0.0, 0.0, 0.0, 0.0, 0.0, 1.695755911449199E9, 0.0, 2023-09-26 14:18:31.449
102.0, -154249.83552096316, 34094.859253747374, -50614.653601009086, -40535.42501156629, 2219.595279645357, -13212.294961487647, -187500.02235174447, -626.8770249935419, 4708.797300910628, -35502.59447128707, -3095.783662293394, -21242.896764623736, -23534.039978270528, -18879.3562506862, -27614.283873353466, -41158.301074302326, 0.13, 1.01, 0.054, 192.0, 2.0, 8.0, 15.5, 72.0, 0.5, 88.0, 0.0, 0.0, 0.0, 1.695755911449209E9, 0.0, 2023-09-26 14:18:31.449
104.0, -154280.79268703374, 34099.776637527546, -50601.711940969464, -40524.67382248328, 2232.3581257293376, -13194.860600812508, -187500.02235174447, -605.3969985719918, 4714.899327146927, -35515.51377958224, -3095.1578134486454, -21254.050285106932, -23532.27419045856, -18887.64874787912, -27615.401460576235, -41153.31663528879, 0.13, 1.01, 0.054, 192.0, 0.0, 0.0, 0.0, 0.0, 0.0, 0.0, 0.0, 0.0, 0.0, 1.695755911508833E9, 0.0, 2023-09-26 14:18:31.508
106.0, -154272.67900379648, 34094.47927409164, -50609.69151374001, -40531.15582837532, 2224.8479395923546, -13203.622484638989, -187500.02235174447, -610.1802718854275, 4709.3113910331, -35497.20770087334, -3087.5582203338413, -21244.34962801333, -23528.764966579078, -18884.564207144285, -27614.976777431584, -41151.64025445464, 0.13, 1.01, 0.054, 192.0, 0.0, 0.0, 0.0, 0.0, 0.0, 0.0, 0.0, 0.0, 0.0, 1.695755911508866E9, 0.0, 2023-09-26 14:18:31.508
108.0, -154287.45350688143, 34099.66487880527, -50619.01219117787, -40540.163581390814, 2218.9694308006087, -13219.559278435621, -187500.02235174447, -607.162786383961, 4713.245298057234, -35508.49533182327, -3091.4474238690646, -21258.274764808986, -23531.693045102722, -18884.005413532905, -27615.692033254152, -41150.70148118752, 0.13, 1.01, 0.054, 192.0, 0.0, 0.0, 0.0, 0.0, 0.0, 0.0, 0.0, 0.0, 0.0, 1.695755911508877E9, 0.0, 2023-09-26 14:18:31.508
110.0, -154240.82776794766, 34086.0973699209, -50629.8527872387, -40551.004177451636, 2210.051084762941, -13234.847871643053, -187500.02235174447, -618.1151411670616, 4689.328931490056, -35493.050276404654, -3098.2647059279334, -21235.58774418685, -23555.117673291883, -18909.84403012324, -27636.85913525333, -41175.51191753292, 0.13, 1.01, 0.054, 192.0, 0.0, 0.0, 0.0, 0.0, 0.0, 0.0, 0.0, 0.0, 0.0, 1.695755911508886E9, 0.0, 2023-09-26 14:18:31.508
112.0, -154267.85102699412, 34075.50264304908, -50614.02775216434, -40535.22384586619, 2223.1939105026618, -13216.742958634253, -187500.02235174447, -617.2657748777599, 4693.531059447653, -35520.92290174042, -3104.344380419777, -21255.167872329697, -23552.636629657347, -18908.234704522456, -27636.769728275507, -41174.304923332325, 0.13, 1.01, 0.052000000000000005, 192.0, 2.0, 8.0, 15.5, 72.0, 0.5, 80.0, 0.0, 0.0, 0.0, 1.695755911508897E9, 0.0, 2023-09-26 14:18:31.508
114.0, -154267.73926827183, 34089.04780018899, -50593.79942343228, -40514.52613050058, 2234.4144862192256, -13200.292074715147, -187500.02235174447, -616.2375946328157, 4712.462987001299, -35502.572119542616, -3081.3667871197213, -21246.517747225495, -23529.61433286838, -18881.502018153908, -27610.841704707353, -41147.2146090525, 0.13, 1.01, 0.052000000000000005, 192.0, 0.0, 0.0, 0.0, 0.0, 0.0, 0.0, 0.0, 0.0, 0.0, 1.695755911508907E9, 0.0, 2023-09-26 14:18:31.508
116.0, -154303.18913497796, 34086.834977487924, -50592.9947606319, -40516.046049123535, 2233.1404367852733, -13197.252237469225, -187500.02235174447, -606.2463648612935, 4706.942106120838, -35505.74606725527, -3090.1733744351122, -21260.979325888078, -23529.122594490364, -18883.31250945479, -27606.103134882826, -41143.07953632827, 0.13, 1.01, 0.052000000000000005, 192.0, 0.0, 0.0, 0.0, 0.0, 0.0, 0.0, 0.0, 0.0, 0.0, 1.695755911508916E9, 0.0, 2023-09-26 14:18:31.508
118.0, -154281.84321902314, 34086.70086702119, -50607.1434148721, -40529.50179928563, 2223.3280209693935, -13209.143365519449, -187500.02235174447, -606.2016613723829, 4707.925582876871, -35490.83745370358, -3083.6019615652517, -21251.77040717249, -23527.647379356313, -18882.3066809543, -27604.717326726597, -41142.990129350444, 0.13, 1.01, 0.052000000000000005, 192.0, 0.0, 0.0, 0.0, 0.0, 0.0, 0.0, 0.0, 0.0, 0.0, 1.695755911508924E9, 0.0, 2023-09-26 14:18:31.508
120.0, -154305.24549546785, 34079.45890181767, -50606.763435216366, -40525.1655608613, 2222.5904134023685, -13202.482545671768, -187500.02235174447, -598.4009025574807, 4694.693350159329, -35505.52254981072, -3102.399778652165, -21263.460369522618, -23545.439367942738, -18895.494210182933, -27622.956350202126, -41156.46823125699, 0.13, 1.01, 0.052000000000000005, 192.0, 0.0, 0.0, 0.0, 0.0, 0.0, 0.0, 0.0, 0.0, 0.0, 1.695755911569127E9, 0.0, 2023-09-26 14:18:31.569
122.0, -154281.0162044783, 34090.14303566731, -50607.05400789428, -40522.39394454884, 2225.3620297148263, -13195.777022335174, -187500.02235174447, -581.5476872381792, 4702.650571185419, -35490.56923277012, -3084.406624365643, -21245.042532091444, -23537.37038819437, -18884.02776527736, -27615.557922787422, -41146.11937357418, 0.126, 1.016, 0.048, 192.0, 1.5, 120.0, 15.5, 96.0, 0.5, 64.0, 0.0, 0.0, 0.0, 1.69575591156919E9, 0.0, 2023-09-26 14:18:31.569
124.0, -154302.5185826443, 34082.65520127478, -50610.60793526268, -40528.04893589603, 2226.34550647086, -13205.209458495316, -187500.02235174447, -580.5418587376903, 4706.651533442919, -35505.0308114327, -3088.407586623143, -21256.91130839721, -23540.209059740195, -18880.898521053616, -27618.284835610968, -41146.29818752983, 0.126, 1.016, 0.048, 192.0, 0.0, 0.0, 0.0, 0.0, 0.0, 0.0, 0.0, 0.0, 0.0, 1.695755911569203E9, 0.0, 2023-09-26 14:18:31.569
126.0, -154280.34565214464, 34082.141111152305, -50618.72161849995, -40538.621311023395, 2213.2697359645053, -13217.257048756725, -187500.02235174447, -586.9121059074529, 4704.483414230754, -35504.941404454876, -3090.083967457291, -21250.25048854953, -23537.571553894468, -18896.07535553877, -27623.17986764668, -41157.07172835729, 0.126, 1.016, 0.048, 192.0, 0.0, 0.0, 0.0, 0.0, 0.0, 0.0, 0.0, 0.0, 0.0, 1.695755911569213E9, 0.0, 2023-09-26 14:18:31.569
128.0, -154311.6157426376, 34076.419064571746, -50607.25517359438, -40525.769057961596, 2220.310535467927, -13210.976208564784, -187500.02235174447, -603.3629898265589, 4690.446518712821, -35508.27181437872, -3100.1869559510897, -21265.7178957126, -23544.522946420067, -18897.97525381747, -27628.298417126945, -41162.65966447111, 0.126, 1.016, 0.048, 192.0, 0.0, 0.0, 0.0, 0.0, 0.0, 0.0, 0.0, 0.0, 0.0, 1.695755911569222E9, 0.0, 2023-09-26 14:18:31.569
130.0, -154299.29993144274, 34077.402541327785, -50612.99957191939, -40533.05572665402, 2219.5282244119912, -13224.409606982425, -187500.02235174447, -604.4805770493242, 4700.951838606816, -35500.38164858599, -3091.1568511911455, -21260.06290436541, -23539.113824261884, -18901.417422463586, -27623.559847302422, -41161.720891203986, 0.126, 1.016, 0.048, 192.0, 0.0, 0.0, 0.0, 0.0, 0.0, 0.0, 0.0, 0.0, 0.0, 1.695755911569232E9, 0.0, 2023-09-26 14:18:31.569
132.0, -154321.00347530885, 34067.5901255119, -50616.48644405442, -40536.85552321142, 2216.5330906549802, -13228.745845406753, -187500.02235174447, -608.2803736067264, 4698.001408338715, -35507.46715157833, -3101.4833571294976, -21272.713991727112, -23545.03703654254, -18906.89359985514, -27620.78823098996, -41163.15140284913, 0.134, 1.01, 0.054, 192.0, 2.0, 24.0, 15.5, 72.0, 0.5, 88.0, 0.0, 0.0, 0.0, 1.695755911569241E9, 0.0, 2023-09-26 14:18:31.569
134.0, -154309.15705074754, 34075.52499479354, -50613.37955157513, -40537.235502867166, 2222.0986750243515, -13221.436824969867, -187500.02235174447, -601.8654229480533, 4700.393044995433, -35506.66248877794, -3097.840022783282, -21266.29904106844, -23543.76298710859, -18902.40089921962, -27621.883466468273, -41164.82778368328, 0.134, 1.01, 0.054, 192.0, 0.0, 0.0, 0.0, 0.0, 0.0, 0.0, 0.0, 0.0, 0.0, 1.695755911629462E9, 0.0, 2023-09-26 14:18:31.629
136.0, -154295.41072790753, 34064.393826054795, -50623.37078134665, -40547.24908438314, 2209.7158085961114, -13229.774025651697, -187500.02235174447, -602.6253822595337, 4702.583515952053, -35509.07647717911, -3097.884726272193, -21268.73538121407, -23551.00495231211, -18910.626341179173, -27632.634655551276, -41173.29909483184, 0.134, 1.01, 0.054, 192.0, 0.0, 0.0, 0.0, 0.0, 0.0, 0.0, 0.0, 0.0, 0.0, 1.695755911629484E9, 0.0, 2023-09-26 14:18:31.629
138.0, -154279.54098934424, 34071.41227381376, -50615.30180159829, -40537.30255810053, 2220.891680823765, -13220.006313324728, -187500.02235174447, -597.5738880126344, 4690.044187312626, -35516.98899471629, -3099.181127450601, -21257.000715375034, -23556.726998892667, -18908.637035922653, -27634.98158871908, -41173.83553669877, 0.134, 1.01, 0.054, 192.0, 0.0, 0.0, 0.0, 0.0, 0.0, 0.0, 0.0, 0.0, 0.0, 1.695755911629494E9, 0.0, 2023-09-26 14:18:31.629
140.0, -154319.75177761936, 34075.927326193734, -50594.17940308803, -40515.77782819007, 2238.0354688209854, -13202.639007882955, -187500.02235174447, -605.6875712499108, 4700.16952755088, -35510.194064401876, -3089.972208735014, -21271.05996263742, -23531.29071370253, -18901.149201530123, -27617.70369025513, -41155.931789390066, 0.134, 1.01, 0.054, 192.0, 0.0, 0.0, 0.0, 0.0, 0.0, 0.0, 0.0, 0.0, 0.0, 1.695755911629503E9, 0.0, 2023-09-26 14:18:31.629
142.0, -154327.0160945673, 34084.532747809026, -50603.70124622599, -40524.986746905655, 2229.96648907262, -13210.462118442312, -187500.02235174447, -587.2697338187378, 4713.200594568324, -35504.22614863231, -3083.199630165056, -21273.563358016418, -23526.194515966716, -18889.705108369006, -27607.019556405492, -41144.107716573206, 0.136, 1.014, 0.054, 192.0, 2.0, 32.0, 15.5, 88.0, 0.5, 88.0, 0.0, 0.0, 0.0, 1.695755911629512E9, 0.0, 2023-09-26 14:18:31.629
144.0, -154313.76151010534, 34073.468634303645, -50612.26196435237, -40535.93910168876, 2215.1472824987513, -13223.42613022639, -187500.02235174447, -603.0947688930952, 4698.5602019500975, -35491.373895570505, -3090.7992232798606, -21261.44871252164, -23546.355789465404, -18904.725480642974, -27627.85138223784, -41163.553734249326, 0.136, 1.014, 0.054, 192.0, 0.0, 0.0, 0.0, 0.0, 0.0, 0.0, 0.0, 0.0, 0.0, 1.695755911629551E9, 0.0, 2023-09-26 14:18:31.629
146.0, -154329.69830390197, 34084.75626525358, -50601.48842352491, -40523.33271781597, 2226.479616937592, -13210.842098098052, -187500.02235174447, -595.5622310116566, 4709.400798010922, -35510.61874754653, -3091.2015546800562, -21270.322355070395, -23538.778548095055, -18904.88194285416, -27626.152649659238, -41160.871524914684, 0.136, 1.014, 0.054, 192.0, 0.0, 0.0, 0.0, 0.0, 0.0, 0.0, 0.0, 0.0, 0.0, 1.695755911629561E9, 0.0, 2023-09-26 14:18:31.629
148.0, -154325.80910036672, 34086.25383213208, -50606.98695266092, -40523.310366071506, 2220.377590701293, -13209.5680486641, -187500.02235174447, -587.6050099855673, 4708.909059632905, -35497.36416308453, -3080.8974004861598, -21270.9705556596, -23536.543373649525, -18894.80130610482, -27615.89319895425, -41148.175734064076, 0.136, 1.014, 0.054, 192.0, 0.0, 0.0, 0.0, 0.0, 0.0, 0.0, 0.0, 0.0, 0.0, 1.69575591162957E9, 0.0, 2023-09-26 14:18:31.629
150.0, -154313.1133095161, 34078.587183783915, -50619.906260956086, -40536.43084006677, 2203.8372998043656, -13224.81193838262, -187500.02235174447, -589.326094308626, 4695.140385048436, -35497.90060495146, -3090.307484901844, -21267.886014924767, -23560.48209196116, -18907.251227766425, -27637.596742820355, -41166.50416451743, 0.136, 1.014, 0.054, 192.0, 0.0, 0.0, 0.0, 0.0, 0.0, 0.0, 0.0, 0.0, 0.0, 1.695755911689744E9, 0.0, 2023-09-26 14:18:31.689
152.0, -154316.84605084016, 34079.637715773315, -50599.36500780166, -40518.415334035795, 2221.3387157128714, -13209.031606797173, -187500.02235174447, -596.6351147455114, 4695.766233893184, -35500.58281428609, -3085.121880188213, -21268.40010504724, -23543.830042341953, -18902.758527130907, -27629.639521794263, -41157.69757720203, 0.128, 1.008, 0.048, 192.0, 2.0, 0.0, 15.5, 64.0, 0.5, 64.0, 0.0, 0.0, 0.0, 1.695755911689768E9, 0.0, 2023-09-26 14:18:31.689
154.0, -154335.26388827132, 34079.72712275114, -50597.509813011864, -40513.96733688919, 2225.6302506482903, -13204.717720117298, -187500.02235174447, -589.1472803529836, 4700.035417084148, -35511.46811383583, -3082.7749470204053, -21273.54100627196, -23538.89030681733, -18889.97332930247, -27623.157515902225, -41154.791850422844, 0.128, 1.008, 0.048, 192.0, 0.0, 0.0, 0.0, 0.0, 0.0, 0.0, 0.0, 0.0, 0.0, 1.695755911689778E9, 0.0, 2023-09-26 14:18:31.689
156.0, -154320.48938518637, 34076.50847154957, -50610.8985079406, -40527.75836321811, 2213.2920877089605, -13217.838194112563, -187500.02235174447, -599.0714548911399, 4720.733132449762, -35495.710133994835, -3073.1860486490787, -21262.968631144602, -23532.98944628113, -18894.466029937987, -27618.731870500073, -41148.220437552984, 0.128, 1.008, 0.048, 192.0, 0.0, 0.0, 0.0, 0.0, 0.0, 0.0, 0.0, 0.0, 0.0, 1.695755911689788E9, 0.0, 2023-09-26 14:18:31.689
158.0, -154301.40099542154, 34067.478366789626, -50630.34452561671, -40546.98086344968, 2194.1366427107623, -13236.658362943932, -187500.02235174447, -595.9645624118522, 4678.711852873785, -35502.37095384252, -3096.074234971313, -21262.07456136639, -23567.27702227557, -18918.78472790536, -27648.973780748103, -41177.38946406716, 0.128, 1.008, 0.048, 192.0, 0.0, 0.0, 0.0, 0.0, 0.0, 0.0, 0.0, 0.0, 0.0, 1.695755911689797E9, 0.0, 2023-09-26 14:18:31.689
160.0, -154294.67312034048, 34073.043951158994, -50605.265868337854, -40525.143209116846, 2213.895584809254, -13214.977170822283, -187500.02235174447, -596.5680595121455, 4685.842059355028, -35492.558538026635, -3097.4153396386314, -21251.904517639225, -23557.397551226324, -18909.821678378783, -27644.83870802387, -41169.700463974536, 0.128, 1.008, 0.048, 192.0, 0.0, 0.0, 0.0, 0.0, 0.0, 0.0, 0.0, 0.0, 0.0, 1.695755911689806E9, 0.0, 2023-09-26 14:18:31.689
162.0, -154304.84316406766, 34073.26746860355, -50614.228917864435, -40533.63687200986, 2200.7527590695336, -13224.700179660342, -187500.02235174447, -589.9966466422852, 4690.379463479455, -35506.95306145585, -3093.973170992514, -21273.026916149487, -23537.504498661103, -18903.138506786647, -27633.104042184837, -41160.33508304776, 0.128, 1.012, 0.048, 192.0, 2.0, 0.0, 15.5, 80.0, 0.5, 64.0, 0.0, 0.0, 0.0, 1.695755911689815E9, 0.0, 2023-09-26 14:18:31.689
164.0, -154281.1279632006, 34079.07892216193, -50609.87032769565, -40530.06059289701, 2201.1550904697287, -13224.878993615985, -187500.02235174447, -596.2551350897712, 4693.6875216588405, -35491.530357781696, -3087.4464616115647, -21255.123168840786, -23530.128422990852, -18904.300797498323, -27638.602571320844, -41164.179583094075, 0.128, 1.012, 0.048, 192.0, 0.0, 0.0, 0.0, 0.0, 0.0, 0.0, 0.0, 0.0, 0.0, 1.695755911749007E9, 0.0, 2023-09-26 14:18:31.749
166.0, -154310.16287924803, 34073.11100639236, -50603.053045636785, -40525.322023072484, 2209.760512085022, -13216.38533072297, -187500.02235174447, -599.4290828024248, 4688.144289033925, -35507.46715157833, -3094.9342960040926, -21271.93168067118, -23514.504553616593, -18907.45239346652, -27640.301303899447, -41168.985208151964, 0.128, 1.012, 0.048, 192.0, 0.0, 0.0, 0.0, 0.0, 0.0, 0.0, 0.0, 0.0, 0.0, 1.695755911749061E9, 0.0, 2023-09-26 14:18:31.749
168.0, -154285.08422196915, 34075.74851223809, -50604.863536937664, -40531.20053186423, 2211.9733347860974, -13212.85375509903, -187500.02235174447, -590.0189983867406, 4692.994617580726, -35485.49538677876, -3081.299731886355, -21256.240756063555, -23501.004099965587, -18891.560303158796, -27626.443222337155, -41159.77628943638, 0.128, 1.012, 0.048, 192.0, 0.0, 0.0, 0.0, 0.0, 0.0, 0.0, 0.0, 0.0, 0.0, 1.695755911749071E9, 0.0, 2023-09-26 14:18:31.749
170.0, -154304.172611734, 34059.83407018591, -50619.481577811435, -40549.819534995506, 2198.1599567127178, -13225.303676760635, -187500.02235174447, -592.1200623655394, 4694.1569082924025, -35488.60227925805, -3091.7827000358943, -21269.897671925744, -23496.243178396606, -18894.063698537793, -27626.778498503983, -41162.88318191566, 0.128, 1.012, 0.048, 192.0, 0.0, 0.0, 0.0, 0.0, 0.0, 0.0, 0.0, 0.0, 0.0, 1.69575591174908E9, 0.0, 2023-09-26 14:18:31.749
172.0, -154267.02401244928, 34070.808776713464, -50619.97331618945, -40547.67376752779, 2203.4796718930806, -13218.106415046028, -187500.02235174447, -590.8683646760422, 4691.87703035796, -35473.559555239626, -3091.268609913422, -21255.346686285342, -23502.635777310825, -18893.996643304425, -27629.080728182882, -41172.58383900927, 0.124, 1.012, 0.052000000000000005, 192.0, 1.5, 112.0, 15.5, 80.0, 0.5, 80.0, 0.0, 0.0, 0.0, 1.69575591174909E9, 0.0, 2023-09-26 14:18:31.749
174.0, -154285.173628947, 34059.74466320809, -50618.431045822035, -40540.18593313527, 2209.4252359181924, -13211.602057409533, -187500.02235174447, -593.4835187773132, 4686.333797733045, -35471.43613951637, -3097.370636149721, -21259.839386920856, -23504.625082567345, -18879.98209953095, -27611.847533207838, -41156.982321379466, 0.124, 1.012, 0.052000000000000005, 192.0, 0.0, 0.0, 0.0, 0.0, 0.0, 0.0, 0.0, 0.0, 0.0, 1.695755911749099E9, 0.0, 2023-09-26 14:18:31.749
176.0, -154258.03861117826, 34065.019674899544, -50629.048124438305, -40544.81274423751, 2208.575869628891, -13205.522382917688, -187500.02235174447, -584.0957861060841, 4686.892591344427, -35459.03092134368, -3091.84975526926, -21248.10472108182, -23493.35980336187, -18875.77997157335, -27600.09051562435, -41156.95996963501, 0.124, 1.012, 0.052000000000000005, 192.0, 0.0, 0.0, 0.0, 0.0, 0.0, 0.0, 0.0, 0.0, 0.0, 1.695755911749108E9, 0.0, 2023-09-26 14:18:31.749
178.0, -154299.05406225374, 34064.99732315508, -50615.68178125403, -40521.276357326075, 2221.0257912904967, -13180.019042494183, -187500.02235174447, -566.7955358976765, 4676.856658083994, -35465.46822374681, -3098.152947205657, -21263.63918347826, -23486.497817814092, -18859.21732893197, -27586.143027084236, -41148.19808580853, 0.124, 1.012, 0.052000000000000005, 192.0, 0.0, 0.0, 0.0, 0.0, 0.0, 0.0, 0.0, 0.0, 0.0, 1.695755911749117E9, 0.0, 2023-09-26 14:18:31.749
180.0, -154277.93166374345, 34079.52595705104, -50632.78086576234, -40534.12861038788, 2202.607953859324, -13193.005406022718, -187500.02235174447, -558.0113003267409, 4684.210382009791, -35447.139793293456, -3085.501859843953, -21247.523575725983, -23485.26847186905, -18848.30967763778, -27574.654230434207, -41146.11937357418, 0.124, 1.012, 0.052000000000000005, 192.0, 0.0, 0.0, 0.0, 0.0, 0.0, 0.0, 0.0, 0.0, 0.0, 1.695755911808829E9, 0.0, 2023-09-26 14:18:31.808
182.0, -154271.74023052934, 34071.92636393623, -50638.86054025419, -40533.54746503204, 2196.729445067578, -13190.70317634382, -187500.02235174447, -576.6526552024669, 4664.563198633576, -35446.916275848904, -3104.925525775615, -21244.506090224517, -23501.719355788155, -18867.487474380432, -27589.11580909679, -41168.985208151964, 0.128, 1.012, 0.052000000000000005, 192.0, 2.0, 0.0, 15.5, 80.0, 0.5, 80.0, 0.0, 0.0, 0.0, 1.695755911808862E9, 0.0, 2023-09-26 14:18:31.808
184.0, -154252.22715761987, 34082.78931174151, -50631.082133183736, -40518.482389269164, 2204.9995905160417, -13175.883969769951, -187500.02235174447, -567.1308120645061, 4663.78088757764, -35442.11065079101, -3110.267592700433, -21232.503203452015, -23504.155695933783, -18857.272727164356, -27583.259652049503, -41165.833612183764, 0.128, 1.012, 0.052000000000000005, 192.0, 0.0, 0.0, 0.0, 0.0, 0.0, 0.0, 0.0, 0.0, 0.0, 1.695755911808872E9, 0.0, 2023-09-26 14:18:31.808
186.0, -154271.1143816846, 34082.141111152305, -50625.36008660318, -40508.20058681972, 2212.956811542131, -13167.546769088123, -187500.02235174447, -562.973387595819, 4685.171507021369, -35439.786069367656, -3095.85071752676, -21239.29813376643, -23485.290823613504, -18835.16685189806, -27564.439483218135, -41143.615978195194, 0.128, 1.012, 0.052000000000000005, 192.0, 0.0, 0.0, 0.0, 0.0, 0.0, 0.0, 0.0, 0.0, 0.0, 1.695755911808882E9, 0.0, 2023-09-26 14:18:31.808
188.0, -154272.14256192953, 34089.204262400184, -50624.82364473625, -40508.64762170883, 2220.7575703570333, -13170.072516211572, -187500.02235174447, -562.8616288735425, 4687.652550655907, -35435.87451408798, -3091.358016891243, -21230.849174362324, -23487.25777712557, -18828.10370065018, -27561.26553550548, -41143.839495639746, 0.128, 1.012, 0.052000000000000005, 192.0, 0.0, 0.0, 0.0, 0.0, 0.0, 0.0, 0.0, 0.0, 0.0, 1.695755911808921E9, 0.0, 2023-09-26 14:18:31.808
190.0, -154283.58665509065, 34085.292707120505, -50623.01315343537, -40511.17336883228, 2221.8751575797987, -13174.028774980161, -187500.02235174447, -575.8256406576205, 4684.389195965433, -35429.52661866267, -3096.0071797379474, -21237.82291863238, -23484.21793987965, -18824.326255837233, -27558.605677915297, -41145.918207874085, 0.128, 1.012, 0.052000000000000005, 192.0, 0.0, 0.0, 0.0, 0.0, 0.0, 0.0, 0.0, 0.0, 0.0, 1.69575591180893E9, 0.0, 2023-09-26 14:18:31.808
192.0, -154261.4584280799, 34076.8437477164, -50639.28522339884, -40533.860389454414, 2202.898526537243, -13194.212400223303, -187500.02235174447, -567.2872742756932, 4670.821687081062, -35432.25353148622, -3101.081025729302, -21238.180546543666, -23496.75726851908, -18852.668267806563, -27570.317992009877, -41159.8656964142, 0.132, 1.01, 0.052000000000000005, 192.0, 2.0, 16.0, 15.5, 72.0, 0.5, 80.0, 0.0, 0.0, 0.0, 1.695755911808944E9, 0.0, 2023-09-26 14:18:31.808
194.0, -154250.08139015216, 34070.22763135763, -50630.523339572355, -40525.65729923932, 2207.547689383947, -13184.556446618612, -187500.02235174447, -579.2901610481931, 4678.376576706955, -35434.77927860967, -3104.679656586606, -21231.720892396082, -23504.401565122793, -18858.859701020683, -27582.298527037925, -41168.11349011821, 0.132, 1.01, 0.052000000000000005, 192.0, 0.0, 0.0, 0.0, 0.0, 0.0, 0.0, 0.0, 0.0, 0.0, 1.69575591186916E9, 0.0, 2023-09-26 14:18:31.869
196.0, -154261.52548331328, 34072.775730225534, -50626.254156381394, -40520.82932243697, 2214.5661371429132, -13180.533132616656, -187500.02235174447, -570.1706493104278, 4696.325027504567, -35448.50324970523, -3103.785586808394, -21240.080444822364, -23506.860257012875, -18847.326200881744, -27574.296602522925, -41158.166963835596, 0.132, 1.01, 0.052000000000000005, 192.0, 0.0, 0.0, 0.0, 0.0, 0.0, 0.0, 0.0, 0.0, 0.0, 1.695755911869185E9, 0.0, 2023-09-26 14:18:31.869
198.0, -154268.54393107223, 34074.250945359585, -50624.644830780606, -40516.00134563462, 2215.1919859876616, -13175.816914536586, -187500.02235174447, -576.8314691581094, 4694.425129225866, -35440.277807745675, -3096.7671390494274, -21243.12028206829, -23504.22275116715, -18839.793663000306, -27566.629954174754, -41149.00274860892, 0.132, 1.01, 0.052000000000000005, 192.0, 0.0, 0.0, 0.0, 0.0, 0.0, 0.0, 0.0, 0.0, 0.0, 1.695755911869194E9, 0.0, 2023-09-26 14:18:31.869
200.0, -154265.1688176595, 34076.37436108284, -50633.13849367363, -40523.44447653824, 2213.090922008863, -13176.196894192326, -187500.02235174447, -564.940341107886, 4674.621483638463, -35446.26807525969, -3107.205403710056, -21243.38850300175, -23519.623103096856, -18845.046322947303, -27581.627974704264, -41162.25733307092, 0.132, 1.01, 0.052000000000000005, 192.0, 0.0, 0.0, 0.0, 0.0, 0.0, 0.0, 0.0, 0.0, 0.0, 1.695755911869203E9, 0.0, 2023-09-26 14:18:31.869
202.0, -154249.52259654077, 34075.10031164889, -50630.34452561671, -40522.14807535983, 2213.0015150310414, -13172.218283679282, -187500.02235174447, -570.3494632660703, 4677.63896913993, -35430.46539192979, -3105.3502089202657, -21231.944409840635, -23519.623103096856, -18841.000657200893, -27579.616317703287, -41155.507106245415, 0.124, 1.01, 0.054, 192.0, 1.5, 112.0, 15.5, 72.0, 0.5, 88.0, 0.0, 0.0, 0.0, 1.695755911869212E9, 0.0, 2023-09-26 14:18:31.869
204.0, -154258.84327397862, 34073.893317448295, -50627.03646743733, -40520.717563714694, 2214.7225993541, -13172.955891246307, -187500.02235174447, -564.7615271522435, 4675.895533072417, -35447.16214503791, -3112.4133601681424, -21237.554697698917, -23533.481184659147, -18843.3475903687, -27586.768875928985, -41159.57512373628, 0.124, 1.01, 0.054, 192.0, 0.0, 0.0, 0.0, 0.0, 0.0, 0.0, 0.0, 0.0, 0.0, 1.695755911869222E9, 0.0, 2023-09-26 14:18:31.869
206.0, -154262.44190483593, 34082.31992510795, -50608.842147450705, -40503.57377571747, 2231.3299454843936, -13161.064763196084, -187500.02235174447, -570.036538843696, 4700.191879295335, -35431.29240647464, -3096.655380327151, -21232.905534852212, -23516.136230961827, -18834.652761775586, -27567.79224488643, -41140.9114171161, 0.124, 1.01, 0.054, 192.0, 0.0, 0.0, 0.0, 0.0, 0.0, 0.0, 0.0, 0.0, 0.0, 1.695755911869231E9, 0.0, 2023-09-26 14:18:31.869
208.0, -154288.95107375993, 34081.78348324102, -50605.31057182677, -40504.154921073314, 2236.7390676425775, -13165.22218766477, -187500.02235174447, -561.878152117509, 4690.647684412919, -35439.74136587875, -3097.147118705168, -21243.410854746206, -23516.560914106478, -18834.898630964595, -27564.819462873875, -41136.552826947314, 0.124, 1.01, 0.054, 192.0, 0.0, 0.0, 0.0, 0.0, 0.0, 0.0, 0.0, 0.0, 0.0, 1.69575591186924E9, 0.0, 2023-09-26 14:18:31.869
210.0, -154253.903538454, 34089.94186996721, -50616.73231324343, -40514.995517134135, 2225.0714570369073, -13177.962682004296, -187500.02235174447, -561.9005038619642, 4684.255085498701, -35416.8084760676, -3088.1840691785897, -21219.226267245565, -23513.61048383838, -18837.49143332141, -27561.287887249935, -41137.71511765899, 0.124, 1.01, 0.054, 192.0, 0.0, 0.0, 0.0, 0.0, 0.0, 0.0, 0.0, 0.0, 0.0, 1.695755911929409E9, 0.0, 2023-09-26 14:18:31.929
212.0, -154274.13186718605, 34080.73295125162, -50625.87417672565, -40523.75740096062, 2216.890718566265, -13191.932522288862, -187500.02235174447, -569.7683179102323, 4683.137498275936, -35440.568380423596, -3098.9576100060476, -21232.838479618847, -23527.692082845224, -18849.36020962718, -27576.84470139083, -41146.85698114121, 0.12, 1.01, 0.058, 192.0, 1.5, 96.0, 15.5, 72.0, 0.5, 104.0, 0.0, 0.0, 0.0, 1.69575591192943E9, 0.0, 2023-09-26 14:18:31.929
214.0, -154254.17175938748, 34081.17998614073, -50617.87225221065, -40513.185025833256, 2224.758532614533, -13178.454420382312, -187500.02235174447, -573.9927976122854, 4682.757518620196, -35434.399298953926, -3102.2880199298884, -21217.348720711318, -23535.045806771017, -18853.383523629134, -27581.203291559614, -41149.58389396476, 0.12, 1.01, 0.058, 192.0, 0.0, 0.0, 0.0, 0.0, 0.0, 0.0, 0.0, 0.0, 0.0, 1.69575591192944E9, 0.0, 2023-09-26 14:18:31.929
216.0, -154268.27571013878, 34080.42002682925, -50624.10838891368, -40516.470732268186, 2215.2366894765723, -13181.427202394869, -187500.02235174447, -569.5448004656793, 4679.583570907542, -35443.407051969414, -3105.7748920649165, -21234.24663951953, -23533.972923037163, -18841.425340345544, -27572.776683899963, -41139.92794036007, 0.12, 1.01, 0.058, 192.0, 0.0, 0.0, 0.0, 0.0, 0.0, 0.0, 0.0, 0.0, 0.0, 1.695755911929449E9, 0.0, 2023-09-26 14:18:31.929
218.0, -154249.92492794097, 34081.06822741845, -50611.859632952175, -40507.28416529705, 2225.7196576261113, -13170.743068545231, -187500.02235174447, -562.3251870066151, 4681.952855819804, -35427.49260991724, -3105.976057765014, -21219.650950390216, -23536.901001560807, -18845.11337818067, -27579.70572468111, -41146.3652427632, 0.12, 1.01, 0.058, 192.0, 0.0, 0.0, 0.0, 0.0, 0.0, 0.0, 0.0, 0.0, 0.0, 1.695755911929458E9, 0.0, 2023-09-26 14:18:31.929
220.0, -154272.3213758852, 34066.58429701141, -50620.3979993341, -40514.45907526721, 2216.8013115884437, -13178.879103526962, -187500.02235174447, -562.0122625842408, 4686.065576799581, -35440.903656590424, -3111.51929038993, -21238.560526199406, -23530.642513113322, -18843.749921768896, -27573.98367810055, -41141.78313514985, 0.12, 1.01, 0.058, 192.0, 0.0, 0.0, 0.0, 0.0, 0.0, 0.0, 0.0, 0.0, 0.0, 1.695755911929467E9, 0.0, 2023-09-26 14:18:31.929
222.0, -154257.88214896707, 34073.44628255919, -50623.035505179825, -40515.44255202324, 2216.577794143891, -13180.779001805664, -187500.02235174447, -565.4991347192687, 4687.630198911453, -35434.86868558749, -3109.3288194333104, -21226.62469466027, -23531.13425149134, -18842.92290722405, -27579.03517234745, -41140.5090857159, 0.124, 1.01, 0.052000000000000005, 192.0, 1.5, 112.0, 15.5, 72.0, 0.5, 80.0, 0.0, 0.0, 0.0, 1.695755911929476E9, 0.0, 2023-09-26 14:18:31.929
224.0, -154267.85102699412, 34064.72910222162, -50631.59622330621, -40524.45030503873, 2211.43689291917, -13186.232827452759, -187500.02235174447, -574.5739429681233, 4672.743937104218, -35443.7646798807, -3115.006162524958, -21233.10670055231, -23551.921373834775, -18856.512767852877, -27594.144951599235, -41153.71896668899, 0.124, 1.01, 0.052000000000000005, 192.0, 0.0, 0.0, 0.0, 0.0, 0.0, 0.0, 0.0, 0.0, 0.0, 1.695755911989788E9, 0.0, 2023-09-26 14:18:31.989
226.0, -154245.47693079436, 34071.032294158016, -50632.57970006224, -40529.99353766365, 2211.8392243193657, -13189.473830398778, -187500.02235174447, -567.7343091647994, 4667.871256812961, -35439.361386223005, -3116.5707846368296, -21220.880296335257, -23552.591926168436, -18857.026857975347, -27595.061373121905, -41158.97162663599, 0.124, 1.01, 0.052000000000000005, 192.0, 0.0, 0.0, 0.0, 0.0, 0.0, 0.0, 0.0, 0.0, 0.0, 1.695755911989814E9, 0.0, 2023-09-26 14:18:31.989
228.0, -154265.48174208187, 34061.39869229778, -50626.0976941702, -40526.73018297317, 2216.667201121712, -13187.238655953248, -187500.02235174447, -573.2775417897155, 4681.774041864162, -35449.576133439085, -3121.845796328282, -21239.119319810787, -23546.691065632232, -18862.92771851155, -27591.79801843143, -41157.54111499085, 0.124, 1.01, 0.052000000000000005, 192.0, 0.0, 0.0, 0.0, 0.0, 0.0, 0.0, 0.0, 0.0, 0.0, 1.695755911989824E9, 0.0, 2023-09-26 14:18:31.989
230.0, -154258.79857048971, 34076.08378840492, -50612.03844690781, -40518.37063054689, 2227.3289832268933, -13180.5107808722, -187500.02235174447, -571.1094225775507, 4677.929541817849, -35437.6626536444, -3109.6864473445953, -21227.58581967185, -23539.672617873268, -18854.992849229915, -27587.908814896207, -41155.88708590115, 0.124, 1.01, 0.052000000000000005, 192.0, 0.0, 0.0, 0.0, 0.0, 0.0, 0.0, 0.0, 0.0, 0.0, 1.695755911989833E9, 0.0, 2023-09-26 14:18:31.989
232.0, -154264.3194513702, 34066.71840747815, -50617.20169987699, -40521.835150937455, 2220.668163379212, -13184.288225685148, -187500.02235174447, -575.1103848350507, 4682.310483731089, -35435.36042396551, -3103.2938484303772, -21230.58095342886, -23532.90003930331, -18852.087122450725, -27580.152759570214, -41150.38855676515, 0.126, 1.012, 0.052000000000000005, 192.0, 1.5, 120.0, 15.5, 80.0, 0.5, 80.0, 0.0, 0.0, 0.0, 1.695755911989877E9, 0.0, 2023-09-26 14:18:31.989
234.0, -154245.2534133498, 34073.31217209246, -50619.481577811435, -40525.143209116846, 2222.8139308469213, -13188.356243176013, -187500.02235174447, -581.9947221272853, 4672.140440003925, -35445.12813629248, -3104.679656586606, -21220.90264807971, -23544.43353944225, -18864.268823178867, -27590.501617253023, -41163.263161571405, 0.126, 1.012, 0.052000000000000005, 192.0, 0.0, 0.0, 0.0, 0.0, 0.0, 0.0, 0.0, 0.0, 0.0, 1.695755911989887E9, 0.0, 2023-09-26 14:18:31.989
236.0, -154287.5205621148, 34081.96229719667, -50592.570077487246, -40494.297801768524, 2247.289091025483, -13156.996745705217, -187500.02235174447, -574.8198121571318, 4701.577687451564, -35456.23695328677, -3095.247220426467, -21233.73254939706, -23520.338358919427, -18837.469081576954, -27567.88165186425, -41134.250597268416, 0.126, 1.012, 0.052000000000000005, 192.0, 0.0, 0.0, 0.0, 0.0, 0.0, 0.0, 0.0, 0.0, 0.0, 1.695755911989896E9, 0.0, 2023-09-26 14:18:31.989
238.0, -154263.3583263586, 34078.20720412817, -50618.09576965521, -40516.20251133472, 2221.897509324254, -13180.331966916558, -187500.02235174447, -566.6614254309446, 4701.085949073547, -35441.99889206873, -3089.5251738459083, -21221.304979479908, -23528.80967006799, -18839.92777346704, -27570.78737864344, -41136.44106822504, 0.126, 1.012, 0.052000000000000005, 192.0, 0.0, 0.0, 0.0, 0.0, 0.0, 0.0, 0.0, 0.0, 0.0, 1.695755911989905E9, 0.0, 2023-09-26 14:18:31.989
240.0, -154257.79274198922, 34063.209183598665, -50614.45243530899, -40513.43089502226, 2222.791579102466, -13177.60505409301, -187500.02235174447, -580.8324314156093, 4677.326044717556, -35434.95809256531, -3100.119900717724, -21217.23696198904, -23536.632780627344, -18861.966593499972, -27585.047791605928, -41148.62276895318, 0.126, 1.012, 0.052000000000000005, 192.0, 0.0, 0.0, 0.0, 0.0, 0.0, 0.0, 0.0, 0.0, 0.0, 1.695755912049104E9, 0.0, 2023-09-26 14:18:32.049
242.0, -154267.18047466048, 34069.355913323874, -50610.22795560693, -40510.18989207625, 2229.765323372522, -13170.340737145036, -187500.02235174447, -562.2134282843385, 4680.254123241201, -35447.58682818256, -3094.9566477485478, -21226.267066748987, -23528.541449134525, -18846.63329680363, -27573.715457167087, -41134.96585309099, 0.13, 1.01, 0.052000000000000005, 192.0, 2.0, 8.0, 15.5, 72.0, 0.5, 80.0, 0.0, 0.0, 0.0, 1.695755912049135E9, 0.0, 2023-09-26 14:18:32.049
244.0, -154235.26218357828, 34056.68247421771, -50627.63996453762, -40530.373517319385, 2212.9791632865863, -13191.038452510651, -187500.02235174447, -573.9927976122854, 4674.196800493813, -35438.98140656727, -3097.1247669607123, -21217.661645133692, -23536.0069317826, -18857.630355075642, -27583.058486349404, -41147.751050919425, 0.13, 1.01, 0.052000000000000005, 192.0, 0.0, 0.0, 0.0, 0.0, 0.0, 0.0, 0.0, 0.0, 0.0, 1.695755912049145E9, 0.0, 2023-09-26 14:18:32.049
246.0, -154276.38939337604, 34060.86225043085, -50602.427196792036, -40505.58543271845, 2237.3649164873264, -13165.780981276153, -187500.02235174447, -563.0404428291849, 4686.02087331067, -35464.28358129068, -3099.695217573073, -21232.346741240828, -23528.42969041225, -18860.156102199093, -27575.257727534503, -41144.39828925113, 0.13, 1.01, 0.052000000000000005, 192.0, 0.0, 0.0, 0.0, 0.0, 0.0, 0.0, 0.0, 0.0, 0.0, 1.695755912049154E9, 0.0, 2023-09-26 14:18:32.049
