%OpenBCI Raw EXG Data
%Number of channels = 16
%Sample Rate = 125 Hz
%Board = OpenBCI_GUI$BoardCytonSerialDaisy
Sample Index, EXG Channel 0, EXG Channel 1, EXG Channel 2, EXG Channel 3, EXG Channel 4, EXG Channel 5, EXG Channel 6, EXG Channel 7, EXG Channel 8, EXG Channel 9, EXG Channel 10, EXG Channel 11, EXG Channel 12, EXG Channel 13, EXG Channel 14, EXG Channel 15, Accel Channel 0, Accel Channel 1, Accel Channel 2, Other, Other, Other, Other, Other, Other, Other, Analog Channel 0, Analog Channel 1, Analog Channel 2, Timestamp, Other, Timestamp (Formatted)
178.0, 42709.31097380054, 65724.83518419685, -30348.14808942653, -18911.431003979564, -21813.98383545683, -3870.919808258988, -187500.02235174447, -1980.3422069957505, 15198.515677275143, -22077.80147526282, -187500.02235174447, 4167.661567647644, -2647.5641307311216, -6124.266222031859, 1774.884971962568, -22746.3198001766, 0.0, 0.0, 0.0, 192.0, 0.0, 0.0, 0.0, 0.0, 0.0, 0.0, 0.0, 0.0, 0.0, 1.695771196273675E9, 0.0, 2023-09-26 18:33:16.273
180.0, 42730.25455835516, 65658.87518630925, -30324.879923448556, -18883.938358299536, -21786.893521176997, -3844.008307934798, -187500.02235174447, -1978.554067439326, 15212.753738493175, -22064.636297778645, -187500.02235174447, 4162.565369911834, -2615.869357093496, -6101.556849665267, 1761.3621665671071, -22730.226544168778, 0.0, 0.0, 0.0, 192.0, 0.0, 0.0, 0.0, 0.0, 0.0, 0.0, 0.0, 0.0, 0.0, 1.695771196273682E9, 0.0, 2023-09-26 18:33:16.273
182.0, 42715.323593059016, 65692.04517508092, -30341.979007956867, -18904.948998087526, -21809.915817965964, -3857.9334447304545, -187500.02235174447, -1954.4812386609601, 15216.709997261763, -22051.158195872093, -187500.02235174447, 4179.798564886876, -2622.4407699633566, -6095.991265295896, 1786.68669303497, -22709.10414565851, 0.0, 0.0, 0.0, 192.0, 0.0, 0.0, 0.0, 0.0, 0.0, 0.0, 0.0, 0.0, 0.0, 1.695771196273686E9, 0.0, 2023-09-26 18:33:16.273
184.0, 42719.45866578325, 65653.22019496205, -30330.266693862286, -18890.152143258114, -21800.7963062282, -3856.6593952965018, -187500.02235174447, -1989.6628844336135, 15216.4417763283, -22061.66351576609, -187500.02235174447, 4168.376823470214, -2626.642897920954, -6103.5685066662445, 1781.746957510347, -22723.67748304337, -0.003, 0.454, 0.217, 192.0, 127.5, 104.0, 14.0, 48.0, 6.5, 72.0, 0.0, 0.0, 0.0, 1.69577119627369E9, 0.0, 2023-09-26 18:33:16.273
186.0, 42702.806616164045, 65693.58744544834, -30350.159746427507, -18909.329940000767, -21822.142222183018, -3866.2482936678284, -187500.02235174447, -1966.4841254334601, 15199.186229608802, -22064.993925689927, -187500.02235174447, 4171.237846760493, -2633.124903812993, -6107.435358457013, 1781.2775708767858, -22720.704701030816, -0.003, 0.454, 0.217, 192.0, 0.0, 0.0, 0.0, 0.0, 0.0, 0.0, 0.0, 0.0, 0.0, 1.695771196273693E9, 0.0, 2023-09-26 18:33:16.273
188.0, 42703.05248535305, 65676.28719523993, -30357.781691286767, -18907.474745210977, -21821.784594271732, -3879.9275612744764, -187500.02235174447, -2012.6851812225798, 15189.016185881637, -22076.013335706393, -187500.02235174447, 4165.247579246471, -2634.868339880507, -6117.806567884275, 1777.880105719579, -22735.993294238247, -0.003, 0.454, 0.217, 192.0, 0.0, 0.0, 0.0, 0.0, 0.0, 0.0, 0.0, 0.0, 0.0, 1.695771196273696E9, 0.0, 2023-09-26 18:33:16.273
190.0, 42697.10692132794, 65701.29879728542, -30353.892487751546, -18915.051986581326, -21837.028483990252, -3882.0509769977307, -187500.02235174447, -1984.901962864633, 15189.150296348369, -22077.108571184704, -187500.02235174447, 4153.065878518329, -2633.907214868929, -6118.968858595951, 1761.6527392450262, -22737.64732332794, -0.003, 0.454, 0.217, 192.0, 0.0, 0.0, 0.0, 0.0, 0.0, 0.0, 0.0, 0.0, 0.0, 1.695771196273699E9, 0.0, 2023-09-26 18:33:16.273
192.0, 42711.970831390725, 65684.08795405483, -30339.117984666587, -18893.16962875958, -21820.51054483778, -3873.870238527088, -187500.02235174447, -2019.1448353701635, 15186.401031780368, -22078.04734445183, -187500.02235174447, 4163.057108289851, -2643.965499873817, -6117.918326606551, 1773.655626017526, -22743.525832119685, -0.003, 0.454, 0.217, 192.0, 0.0, 0.0, 0.0, 0.0, 0.0, 0.0, 0.0, 0.0, 0.0, 1.695771196273706E9, 0.0, 2023-09-26 18:33:16.273
194.0, 42699.096226584465, 65695.93437861615, -30348.48336559336, -18907.94413184454, -21830.837050776132, -3877.066537984197, -187500.02235174447, -1985.9524948540325, 15197.018110396637, -22061.439998321533, -187500.02235174447, 4165.940483324585, -2624.2512612642363, -6105.11077703366, 1757.2941490762412, -22730.1147854465, -0.003, 0.454, 0.217, 192.0, 0.0, 0.0, 14.0, 56.0, 6.5, 72.0, 0.0, 0.0, 0.0, 1.695771196273711E9, 0.0, 2023-09-26 18:33:16.273
0.0, 21341.624419882824, 32916.38587908577, -15158.818979122518, -9426.24472692546, -10885.456011945727, -1952.357822937706, -93750.01117587223, -1000.2629161194463, 7588.238428621105, -11040.688877187835, -93750.01117587223, 2089.1952024930956, -1337.5060364611193, -3063.284225855378, 894.8297375237629, -11374.57923586121, -0.006, 0.904, 0.444, 192.0, 127.5, 104.0, 14.0, 32.0, 6.5, 112.0, 0.0, 0.0, 0.0, 1.695771196415274E9, 0.0, 2023-09-26 18:33:16.415
2.0, 42687.51802295662, 65850.89902292479, -30317.257978589296, -18846.43213110353, -21762.463064487347, -3901.854622585133, -187500.02235174447, -2003.8785939071888, 15215.704168761275, -22023.73260542543, -187500.02235174447, 4371.688291035687, -2584.8674875339852, -6089.621018126133, 1722.112503303588, -22651.593107175006, -0.006, 0.904, 0.444, 192.0, 0.0, 0.0, 0.0, 0.0, 0.0, 0.0, 0.0, 0.0, 0.0, 1.695771196415283E9, 0.0, 2023-09-26 18:33:16.415
4.0, 42676.029226306586, 65823.45108073368, -30336.346368354127, -18870.34849767071, -21778.243396072794, -3913.969268079909, -187500.02235174447, -2026.7220767405126, 15216.86645947295, -22023.41968100306, -187500.02235174447, 4353.046936159961, -2579.5701240980775, -6084.055433756761, 1688.8084040651804, -22657.00222933319, -0.006, 0.904, 0.444, 192.0, 0.0, 0.0, 0.0, 0.0, 0.0, 0.0, 0.0, 0.0, 0.0, 1.695771196415287E9, 0.0, 2023-09-26 18:33:16.415
6.0, 42673.078796038484, 65868.26632836656, -30347.231667903863, -18881.680832109552, -21780.523274007235, -3918.5066722043366, -187500.02235174447, -2006.4713962640044, 15208.618665768941, -22032.561544485277, -187500.02235174447, 4359.86421821883, -2599.4184731743903, -6102.942657821496, 1713.2165090103758, -22665.384133503932, -0.006, 0.904, 0.444, 192.0, 0.0, 0.0, 0.0, 0.0, 0.0, 0.0, 0.0, 0.0, 0.0, 1.69577119641529E9, 0.0, 2023-09-26 18:33:16.415
8.0, 42666.64149363536, 65830.22365930364, -30352.551383084225, -18879.803285575304, -21780.277404818225, -3918.39491348206, -187500.02235174447, -2027.1914633740741, 15203.366005821945, -22035.08729160873, -187500.02235174447, 4337.423066785702, -2592.5117841377005, -6096.058320529261, 1677.4760696263397, -22666.814645149072, -0.008, 0.896, 0.456, 192.0, 127.5, 96.0, 14.0, 0.0, 7.0, 32.0, 0.0, 0.0, 0.0, 1.695771196415293E9, 0.0, 2023-09-26 18:33:16.415
10.0, 42665.79212734606, 65871.41792433476, -30353.400749373526, -18876.472875651467, -21776.991698383295, -3914.4163029690153, -187500.02235174447, -2004.3703322852054, 15190.580807993509, -22047.246640592413, -187500.02235174447, 4342.876892432796, -2609.163833756904, -6108.6200009131435, 1702.1970989939093, -22671.508511484684, -0.008, 0.896, 0.456, 192.0, 0.0, 0.0, 0.0, 0.0, 0.0, 0.0, 0.0, 0.0, 0.0, 1.695771196415296E9, 0.0, 2023-09-26 18:33:16.415
12.0, 42670.12836577039, 65824.2333917896, -30349.176269671476, -18872.315451182778, -21770.64380295799, -3908.4483871994485, -187500.02235174447, -2024.3080883393395, 15198.649787741875, -22037.03189337634, -187500.02235174447, 4334.137360350771, -2594.5234411386778, -6092.459689671957, 1686.9308575309346, -22663.126607313945, -0.008, 0.896, 0.456, 192.0, 0.0, 0.0, 0.0, 0.0, 0.0, 0.0, 0.0, 0.0, 0.0, 1.6957711964153E9, 0.0, 2023-09-26 18:33:16.415
14.0, 42664.74159535666, 65855.1458543713, -30354.13835694055, -18887.089954267736, -21779.45039027338, -3914.9527448359427, -187500.02235174447, -1997.485994992971, 15203.05308139957, -22037.635390476633, -187500.02235174447, 4336.5066452630335, -2593.785833571653, -6097.511183918856, 1705.214584495376, -22659.90795611238, -0.008, 0.896, 0.456, 192.0, 0.0, 0.0, 0.0, 0.0, 0.0, 0.0, 0.0, 0.0, 0.0, 1.695771196415303E9, 0.0, 2023-09-26 18:33:16.415
16.0, 42670.55304891504, 65821.57353419943, -30348.036330704253, -18879.289195452835, -21773.236605314803, -3916.5397186922696, -187500.02235174447, -2029.516044797426, 15198.090994130493, -22047.44780629251, -187500.02235174447, 4324.168482323705, -2595.976304528273, -6104.440224700002, 1692.0941105001107, -22672.983726618735, -0.008, 0.896, 0.456, 192.0, 0.0, 0.0, 0.0, 0.0, 0.0, 0.0, 0.0, 0.0, 0.0, 1.69577119647508E9, 0.0, 2023-09-26 18:33:16.475
18.0, 42672.743519871656, 65849.75908395757, -30350.584429572158, -18878.3057186968, -21776.634070472013, -3912.0246663122975, -187500.02235174447, -1990.5122507229153, 15205.847049456484, -22039.378826544147, -187500.02235174447, 4336.730162707587, -2580.553600854111, -6098.49466067489, 1700.498366415306, -22666.68053468234, -0.014, 0.89, 0.462, 192.0, 127.5, 72.0, 13.5, 104.0, 7.0, 56.0, 0.0, 0.0, 0.0, 1.69577119647509E9, 0.0, 2023-09-26 18:33:16.475
20.0, 42689.28381076858, 65802.39573745677, -30327.718594994378, -18852.221232917458, -21757.366866751538, -3900.491166173359, -187500.02235174447, -2022.6987627385574, 15205.265904100646, -22035.020236375363, -187500.02235174447, 4342.3180988214135, -2583.660493333399, -6087.162326236049, 1701.8841745715351, -22662.05372358009, -0.014, 0.89, 0.462, 192.0, 0.0, 0.0, 0.0, 0.0, 0.0, 0.0, 0.0, 0.0, 0.0, 1.695771196475094E9, 0.0, 2023-09-26 18:33:16.475
22.0, 42653.74453708465, 65846.80865368947, -30361.514432610806, -18888.319300212777, -21789.732192722822, -3923.5358147067805, -187500.02235174447, -1994.9155443806108, 15202.181363365813, -22034.50614625289, -187500.02235174447, 4346.721392479109, -2583.548734611122, -6094.5384019063, 1709.1931950084204, -22657.069284566558, -0.014, 0.89, 0.462, 192.0, 0.0, 0.0, 0.0, 0.0, 0.0, 0.0, 0.0, 0.0, 0.0, 1.695771196475097E9, 0.0, 2023-09-26 18:33:16.475
24.0, 42659.935970298764, 65817.6843306642, -30328.567961283683, -18865.78874180183, -21767.24633780078, -3918.8643001156215, -187500.02235174447, -2034.3663733442277, 15186.982177136206, -22058.33310584225, -187500.02235174447, 4329.823473670897, -2600.4019499304236, -6112.5539079372775, 1705.9521920624009, -22676.314136542576, -0.014, 0.89, 0.462, 192.0, 0.0, 0.0, 0.0, 0.0, 0.0, 0.0, 0.0, 0.0, 0.0, 1.695771196475101E9, 0.0, 2023-09-26 18:33:16.475
26.0, 42663.26638022261, 65823.8310603894, -30333.53004855276, -18872.673079094064, -21775.02474487123, -3918.126692548596, -187500.02235174447, -1993.7309019244794, 15207.635189012908, -22034.796718930807, -187500.02235174447, 4344.039183144472, -2574.3621676399907, -6091.0068262823615, 1708.8802705860462, -22652.77774963114, -0.014, 0.89, 0.462, 192.0, 0.0, 0.0, 0.0, 0.0, 0.0, 0.0, 0.0, 0.0, 0.0, 1.695771196475104E9, 0.0, 2023-09-26 18:33:16.475
28.0, 42659.600694131936, 65819.47247022063, -30339.676778277968, -18872.91894828307, -21778.489265261804, -3932.096532833163, -187500.02235174447, -2043.575292059814, 15187.608025980953, -22056.164986630083, -187500.02235174447, 4346.699040734654, -2601.3407231975466, -6114.610268427166, 1716.8598433565908, -22674.14601733041, -0.014, 0.89, 0.468, 192.0, 127.5, 72.0, 13.5, 104.0, 7.0, 80.0, 0.0, 0.0, 0.0, 1.695771196475107E9, 0.0, 2023-09-26 18:33:16.475
30.0, 42657.63374061987, 65821.84175513289, -30344.19183065794, -18870.88493953764, -21781.126771107527, -3912.605811668135, -187500.02235174447, -1992.970942612999, 15198.24745634168, -22043.402140546103, -187500.02235174447, 4338.361840052824, -2587.817917802086, -6096.974742051929, 1688.2049069648872, -22661.83020613554, -0.014, 0.89, 0.468, 192.0, 0.0, 0.0, 0.0, 0.0, 0.0, 0.0, 0.0, 0.0, 0.0, 1.695771196535352E9, 0.0, 2023-09-26 18:33:16.535
32.0, 42657.41022317532, 65813.21398177314, -30341.844897490133, -18860.044343476813, -21774.533006493213, -3914.975096580398, -187500.02235174447, -2022.385838316183, 15190.737270204696, -22049.392408060125, -187500.02235174447, 4351.795238470464, -2596.5127463952003, -6099.321675219736, 1711.1377967760322, -22658.946831100802, -0.014, 0.89, 0.468, 192.0, 0.0, 0.0, 0.0, 0.0, 0.0, 0.0, 0.0, 0.0, 0.0, 1.695771196535362E9, 0.0, 2023-09-26 18:33:16.535
34.0, 42649.78827831606, 65796.96426355414, -30340.459089333905, -18864.559395856788, -21775.51648324925, -3905.1179772756077, -187500.02235174447, -1992.6580181906247, 15201.734328476708, -22033.343855541214, -187500.02235174447, 4344.106238377838, -2578.161964197393, -6082.289645944792, 1680.2029824498873, -22648.06153155107, -0.014, 0.89, 0.468, 192.0, 0.0, 0.0, 0.0, 0.0, 0.0, 0.0, 0.0, 0.0, 0.0, 1.695771196535366E9, 0.0, 2023-09-26 18:33:16.535
36.0, 42637.18189444327, 65805.34616772487, -30339.073281177676, -18868.24743369191, -21773.795398926188, -3915.913869847521, -187500.02235174447, -2020.284774337384, 15174.62166245242, -22056.992001174927, -187500.02235174447, 4347.816627957419, -2596.982133028762, -6104.954314822473, 1719.3185352466746, -22654.163557787368, -0.014, 0.89, 0.468, 192.0, 0.0, 0.0, 0.0, 0.0, 0.0, 0.0, 0.0, 0.0, 0.0, 1.695771196535369E9, 0.0, 2023-09-26 18:33:16.535
38.0, 42623.323812880975, 65807.20136251466, -30357.267601164294, -18884.519503655374, -21790.805076456676, -3917.769064637311, -187500.02235174447, -2003.9903526294654, 15180.47781949971, -22056.813187219286, -187500.02235174447, 4325.956621880129, -2590.231906203259, -6097.108852518661, 1686.8638022975688, -22648.68738039582, -0.012, 0.892, 0.464, 192.0, 127.5, 80.0, 13.5, 112.0, 7.0, 64.0, 0.0, 0.0, 0.0, 1.695771196535372E9, 0.0, 2023-09-26 18:33:16.535
40.0, 42628.420010616785, 65830.20130755917, -30359.25690642082, -18874.662384350584, -21783.808980442165, -3917.9255268484985, -187500.02235174447, -2012.260498077929, 15160.182435534292, -22078.18145491856, -187500.02235174447, 4330.136398093271, -2613.61183090351, -6118.92415510704, 1715.9657735783785, -22660.91378461287, -0.012, 0.892, 0.464, 192.0, 0.0, 0.0, 0.0, 0.0, 0.0, 0.0, 0.0, 0.0, 0.0, 1.695771196535375E9, 0.0, 2023-09-26 18:33:16.535
42.0, 42624.68726929275, 65818.17606904222, -30373.00322926083, -18888.07343102377, -21796.50477129278, -3928.6320124425906, -187500.02235174447, -2012.5510707558478, 15165.680964670297, -22072.459408338, -187500.02235174447, 4314.981915352573, -2606.7274936112753, -6112.017466070351, 1674.4585841248734, -22661.740799157717, -0.012, 0.892, 0.464, 192.0, 0.0, 0.0, 0.0, 0.0, 0.0, 0.0, 0.0, 0.0, 0.0, 1.695771196535379E9, 0.0, 2023-09-26 18:33:16.535
44.0, 42641.89811252333, 65825.41803424574, -30360.28508666576, -18872.2036924605, -21781.68556471891, -3922.5746896952023, -187500.02235174447, -2009.9359166545769, 15169.324299016513, -22068.23492863595, -187500.02235174447, 4340.798180198452, -2605.766368599697, -6111.995114325895, 1705.6839711289372, -22663.595993947507, -0.012, 0.892, 0.464, 192.0, 0.0, 0.0, 0.0, 0.0, 0.0, 0.0, 0.0, 0.0, 0.0, 1.695771196535382E9, 0.0, 2023-09-26 18:33:16.535
46.0, 42643.10510672392, 65791.3316239514, -30362.38615064456, -18875.534102384343, -21782.35611705257, -3917.5008437038477, -187500.02235174447, -2004.616201474214, 15177.594444464976, -22062.132902399648, -187500.02235174447, 4328.8176451704085, -2596.043359761639, -6102.763843865853, 1668.4236131219404, -22665.071209081558, -0.012, 0.892, 0.464, 192.0, 0.0, 0.0, 0.0, 0.0, 0.0, 0.0, 0.0, 0.0, 0.0, 1.695771196595694E9, 0.0, 2023-09-26 18:33:16.595
48.0, 42654.638606862856, 65808.72128113762, -30349.511545838304, -18866.928680769048, -21770.241471557794, -3905.9896953093644, -187500.02235174447, -1996.9272013815882, 15184.38937477939, -22058.109588397692, -187500.02235174447, 4351.728183237098, -2592.2435632042366, -6103.63556189961, 1709.304953730697, -22658.05276132259, -0.012, 0.896, 0.47200000000000003, 192.0, 127.5, 80.0, 14.0, 0.0, 7.0, 96.0, 0.0, 0.0, 0.0, 1.695771196595704E9, 0.0, 2023-09-26 18:33:16.595
50.0, 42640.311138667006, 65772.66791733121, -30355.322999396685, -18880.78676233134, -21775.807055927165, -3909.8118436112222, -187500.02235174447, -2000.257611305429, 15190.759621949152, -22046.486681280934, -187500.02235174447, 4342.116933121316, -2584.3086939226027, -6088.68224485901, 1683.0416539957112, -22647.323923984044, -0.012, 0.896, 0.47200000000000003, 192.0, 0.0, 0.0, 0.0, 0.0, 0.0, 0.0, 0.0, 0.0, 0.0, 1.695771196595708E9, 0.0, 2023-09-26 18:33:16.595
52.0, 42646.21199920321, 65800.96522581163, -30356.82056627519, -18869.70029708151, -21768.632145957014, -3906.816709854211, -187500.02235174447, -1994.3120472803173, 15169.57016820552, -22064.41278033409, -187500.02235174447, 4347.995441913062, -2603.6876563653536, -6109.715236391454, 1718.0221340682667, -22657.806892133583, -0.012, 0.896, 0.47200000000000003, 192.0, 0.0, 0.0, 0.0, 0.0, 0.0, 0.0, 0.0, 0.0, 0.0, 1.695771196595711E9, 0.0, 2023-09-26 18:33:16.595
54.0, 42655.44326966325, 65743.83416698387, -30340.615551545092, -18860.804302788296, -21762.038381342696, -3894.5456021482473, -187500.02235174447, -1997.1507188261414, 15195.118212117937, -22035.288457308827, -187500.02235174447, 4349.202436113648, -2571.03175771615, -6074.019500496328, 1688.7189970873592, -22640.797214603095, -0.012, 0.896, 0.47200000000000003, 192.0, 0.0, 0.0, 0.0, 0.0, 0.0, 0.0, 0.0, 0.0, 0.0, 1.695771196595714E9, 0.0, 2023-09-26 18:33:16.595
56.0, 42641.78635380106, 65795.19847574216, -30356.686455808456, -18875.154122728603, -21774.6894687044, -3906.973172065398, -187500.02235174447, -1986.712454165513, 15174.353441518957, -22056.6567250081, -187500.02235174447, 4351.86229370383, -2598.3679411849907, -6099.276971730826, 1722.5148347037834, -22653.40359847589, -0.012, 0.896, 0.47200000000000003, 192.0, 0.0, 0.0, 0.0, 0.0, 0.0, 0.0, 0.0, 0.0, 0.0, 1.695771196595718E9, 0.0, 2023-09-26 18:33:16.595
58.0, 42644.15563871332, 65759.9721264806, -30360.35214189913, -18873.053058749803, -21777.952823394877, -3907.777834865789, -187500.02235174447, -2009.0865503652753, 15183.76352593464, -22042.530422512344, -187500.02235174447, 4343.323927321902, -2584.8227840450745, -6087.408195425057, 1691.0659302551664, -22657.091636311012, -0.016, 0.896, 0.47000000000000003, 192.0, 127.5, 64.0, 14.0, 0.0, 7.0, 88.0, 0.0, 0.0, 0.0, 1.695771196595721E9, 0.0, 2023-09-26 18:33:16.595
60.0, 42651.33054868347, 65796.27135947601, -30357.62522907558, -18872.44956164951, -21777.12580885003, -3909.007180810831, -187500.02235174447, -1997.2624775484178, 15171.29125252858, -22055.785006974344, -187500.02235174447, 4349.202436113648, -2601.810109831108, -6105.870736345141, 1709.081436286144, -22670.279165539643, -0.016, 0.896, 0.47000000000000003, 192.0, 0.0, 0.0, 0.0, 0.0, 0.0, 0.0, 0.0, 0.0, 0.0, 1.695771196655985E9, 0.0, 2023-09-26 18:33:16.655
62.0, 42656.78437433057, 65749.48915833105, -30351.8137755172, -18867.532177869343, -21773.25895705926, -3903.0169132968085, -187500.02235174447, -2015.680314979591, 15193.866514428439, -22035.221402075458, -187500.02235174447, 4357.025546673006, -2577.0220252301724, -6079.5627331212445, 1698.0843780141329, -22657.516319455663, -0.016, 0.896, 0.47000000000000003, 192.0, 0.0, 0.0, 0.0, 0.0, 0.0, 0.0, 0.0, 0.0, 0.0, 1.695771196656018E9, 0.0, 2023-09-26 18:33:16.656
64.0, 42653.72218534019, 65783.88849304778, -30358.00520873132, -18876.07054425127, -21783.138428108505, -3910.7953203672555, -187500.02235174447, -1996.2566490479292, 15179.71786018823, -22046.665495236575, -187500.02235174447, 4359.372479840813, -2591.5059556372116, -6094.87367807313, 1705.013418795278, -22664.825339892548, -0.016, 0.896, 0.47000000000000003, 192.0, 0.0, 0.0, 0.0, 0.0, 0.0, 0.0, 0.0, 0.0, 0.0, 1.695771196656021E9, 0.0, 2023-09-26 18:33:16.656
66.0, 42654.68331035177, 65755.14414967825, -30363.883717523066, -18877.12107624067, -21785.328899065127, -3921.4347507279817, -187500.02235174447, -2042.5247600704147, 15186.982177136206, -22053.818053462273, -187500.02235174447, 4351.839941959374, -2579.8383450315414, -6101.06511128725, 1690.3506744325966, -22673.67663069685, -0.016, 0.896, 0.47000000000000003, 192.0, 0.0, 0.0, 0.0, 0.0, 0.0, 0.0, 0.0, 0.0, 0.0, 1.695771196656024E9, 0.0, 2023-09-26 18:33:16.656
68.0, 42636.35487989842, 65810.06238580494, -30378.859386308122, -18898.243474750936, -21806.898332464498, -3933.974079367409, -187500.02235174447, -2007.097245108753, 15177.996775865171, -22063.85398672271, -187500.02235174447, 4350.163561125227, -2604.492319165745, -6115.63844867211, 1692.2505727112978, -22676.604709220497, -0.026000000000000002, 0.896, 0.47400000000000003, 192.0, 127.5, 24.0, 14.0, 0.0, 7.0, 104.0, 0.0, 0.0, 0.0, 1.695771196656028E9, 0.0, 2023-09-26 18:33:16.656
70.0, 42665.83683083497, 65761.55910033692, -30344.504755080314, -18864.31352666778, -21769.12388433503, -3911.3764657230936, -187500.02235174447, -2026.7667802294231, 15178.488514243189, -22065.68682976804, -187500.02235174447, 4343.703906977643, -2595.3728074279798, -6111.212803269959, 1685.2991801856972, -22677.34231678752, -0.026000000000000002, 0.896, 0.47400000000000003, 192.0, 0.0, 0.0, 0.0, 0.0, 0.0, 0.0, 0.0, 0.0, 0.0, 1.695771196656033E9, 0.0, 2023-09-26 18:33:16.656
72.0, 42646.99431025914, 65797.05367053195, -30365.29187742375, -18894.80130610482, -21790.581559012124, -3918.752541393345, -187500.02235174447, -1983.3596924972169, 15183.942339890284, -22059.13776864264, -187500.02235174447, 4350.0070989140395, -2587.974380013273, -6106.87656484563, 1697.8608605695797, -22663.037200336123, -0.026000000000000002, 0.896, 0.47400000000000003, 192.0, 0.0, 0.0, 0.0, 0.0, 0.0, 0.0, 0.0, 0.0, 0.0, 1.695771196656038E9, 0.0, 2023-09-26 18:33:16.656
74.0, 42648.87185679339, 65786.7718680825, -30371.6174211046, -18895.717727627485, -21792.7943817132, -3926.4638932304256, -187500.02235174447, -2028.8454924637667, 15173.034688596093, -22061.194129132527, -187500.02235174447, 4343.614499999821, -2599.887859807952, -6113.6044399266775, 1699.5819448926384, -22677.118799342967, -0.026000000000000002, 0.896, 0.47400000000000003, 192.0, 0.0, 0.0, 0.0, 0.0, 0.0, 0.0, 0.0, 0.0, 0.0, 1.695771196656043E9, 0.0, 2023-09-26 18:33:16.656
76.0, 42648.11189748191, 65803.781545613, -30374.54549962825, -18897.84114335074, -21798.047041660197, -3923.982849595887, -187500.02235174447, -1998.5141752379152, 15174.666365941332, -22065.68682976804, -187500.02235174447, 4336.886624918774, -2604.425263932379, -6116.7783876393305, 1675.7326335588257, -22681.96912788977, -0.026000000000000002, 0.896, 0.47400000000000003, 192.0, 0.0, 0.0, 0.0, 0.0, 0.0, 0.0, 0.0, 0.0, 0.0, 1.695771196714839E9, 0.0, 2023-09-26 18:33:16.714
78.0, 42662.618179633406, 65786.19072272668, -30356.37353138608, -18872.4048581606, -21777.79636118369, -3921.7923786392666, -187500.02235174447, -2023.391666816672, 15181.640110211387, -22063.988097189438, -187500.02235174447, 4351.8846454482855, -2597.272705706681, -6114.744378893898, 1694.7763198347475, -22678.705773199294, -0.02, 0.892, 0.47200000000000003, 192.0, 127.5, 48.0, 13.5, 112.0, 7.0, 96.0, 0.0, 0.0, 0.0, 1.695771196714848E9, 0.0, 2023-09-26 18:33:16.714
80.0, 42665.94858955724, 65773.62904234279, -30353.266638906796, -18872.248395949413, -21769.72738143532, -3913.499881446348, -187500.02235174447, -1990.2440297894514, 15198.225104597224, -22050.7558644719, -187500.02235174447, 4347.1907791126705, -2574.0939467065273, -6099.701654875476, 1680.404148149985, -22665.652354437396, -0.02, 0.892, 0.47200000000000003, 192.0, 0.0, 0.0, 0.0, 0.0, 0.0, 0.0, 0.0, 0.0, 0.0, 1.695771196714852E9, 0.0, 2023-09-26 18:33:16.714
82.0, 42659.55599064303, 65773.18200745368, -30353.7136737959, -18875.154122728603, -21777.192864083394, -3922.753503650845, -187500.02235174447, -2016.417922546616, 15191.452526027266, -22051.69463773902, -187500.02235174447, 4365.183933399193, -2580.6653595763873, -6102.6297333991215, 1714.825834611158, -22664.557118959085, -0.02, 0.892, 0.47200000000000003, 192.0, 0.0, 0.0, 0.0, 0.0, 0.0, 0.0, 0.0, 0.0, 0.0, 1.695771196714855E9, 0.0, 2023-09-26 18:33:16.714
84.0, 42652.44813590624, 65762.7213910486, -30361.693246566447, -18882.64195712113, -21786.98292815482, -3917.9702303374092, -187500.02235174447, -1999.8776316496887, 15193.844162683985, -22054.39919881811, -187500.02235174447, 4341.535787765478, -2581.8500020325187, -6101.981532809918, 1673.3633486465633, -22670.703848684294, -0.02, 0.892, 0.47200000000000003, 192.0, 0.0, 0.0, 0.0, 0.0, 0.0, 0.0, 0.0, 0.0, 0.0, 1.695771196714858E9, 0.0, 2023-09-26 18:33:16.714
86.0, 42643.57449335748, 65790.9292925512, -30373.62907810558, -18885.413573433587, -21796.303605592682, -3932.163588066529, -187500.02235174447, -2031.3935913316718, 15169.458409483244, -22076.192149662038, -187500.02235174447, 4349.33654658038, -2607.0851215225603, -6127.97661161144, 1698.4196541809624, -22686.886511669938, -0.02, 0.892, 0.47200000000000003, 192.0, 0.0, 0.0, 0.0, 0.0, 0.0, 0.0, 0.0, 0.0, 0.0, 1.695771196714862E9, 0.0, 2023-09-26 18:33:16.714
88.0, 42652.49283939515, 65778.18879821168, -30366.521223368793, -18874.39416341712, -21792.83908520211, -3920.2501082718504, -187500.02235174447, -2005.286753807873, 15182.601235222965, -22060.523576798867, -187500.02235174447, 4338.697116219654, -2583.7275485667647, -6106.5636404232555, 1656.1301536715216, -22672.67080219636, -0.018000000000000002, 0.892, 0.47000000000000003, 192.0, 127.5, 56.0, 13.5, 112.0, 7.0, 88.0, 0.0, 0.0, 0.0, 1.695771196714865E9, 0.0, 2023-09-26 18:33:16.714
90.0, 42656.58320863047, 65793.29857746346, -30365.42598789048, -18865.051134234804, -21787.944053166397, -3920.138349549574, -187500.02235174447, -2021.938803427077, 15180.075488099515, -22059.18247213155, -187500.02235174447, 4366.413279344235, -2600.0890255080494, -6108.038855557305, 1700.7218838598592, -22670.525034728653, -0.018000000000000002, 0.892, 0.47000000000000003, 192.0, 0.0, 0.0, 0.0, 0.0, 0.0, 0.0, 0.0, 0.0, 0.0, 1.695771196775016E9, 0.0, 2023-09-26 18:33:16.775
92.0, 42644.647377091336, 65769.6280800853, -30370.432778648472, -18876.204654718, -21790.98389041232, -3919.445445471459, -187500.02235174447, -2011.5675939998143, 15181.729517189207, -22054.488605795934, -187500.02235174447, 4350.990575670073, -2591.483603892756, -6099.992227553395, 1661.3381101296081, -22671.82143590706, -0.018000000000000002, 0.892, 0.47000000000000003, 192.0, 0.0, 0.0, 0.0, 0.0, 0.0, 0.0, 0.0, 0.0, 0.0, 1.695771196775026E9, 0.0, 2023-09-26 18:33:16.775
94.0, 42643.14981021283, 65797.09837402086, -30372.667953094002, -18880.74205884243, -21787.69818397739, -3927.849701386655, -187500.02235174447, -2010.964096899521, 15173.4817234852, -22068.54785305832, -187500.02235174447, 4361.965282197629, -2599.3961214299347, -6116.443111472501, 1702.6664856274708, -22674.81656966407, -0.018000000000000002, 0.892, 0.47000000000000003, 192.0, 0.0, 0.0, 0.0, 0.0, 0.0, 0.0, 0.0, 0.0, 0.0, 1.695771196775029E9, 0.0, 2023-09-26 18:33:16.775
96.0, 42650.28001669407, 65763.1684259377, -30366.09654022414, -18875.042364006327, -21779.20452108437, -3916.785587881278, -187500.02235174447, -2011.96992540001, 15177.236816553692, -22066.5585478018, -187500.02235174447, 4340.932290665185, -2587.102661979516, -6111.033989314317, 1664.020319464245, -22676.82822666505, -0.018000000000000002, 0.892, 0.47000000000000003, 192.0, 0.0, 0.0, 0.0, 0.0, 0.0, 0.0, 0.0, 0.0, 0.0, 1.695771196775033E9, 0.0, 2023-09-26 18:33:16.775
98.0, 42645.65320559183, 65801.99340605657, -30365.716560568402, -18873.500093638908, -21780.903253662975, -3920.8312536276885, -187500.02235174447, -1998.0671403488088, 15180.030784610604, -22067.36321060219, -187500.02235174447, 4365.586264799388, -2596.199821972826, -6115.861966116663, 1716.1222357895656, -22664.333601514532, -0.014, 0.89, 0.468, 192.0, 127.5, 72.0, 13.5, 104.0, 7.0, 80.0, 0.0, 0.0, 0.0, 1.695771196775036E9, 0.0, 2023-09-26 18:33:16.775
100.0, 42649.028319004574, 65753.8701002443, -30359.72629305438, -18866.079314479746, -21769.12388433503, -3907.710779632423, -187500.02235174447, -2001.7998816728452, 15186.155162591358, -22054.354495329204, -187500.02235174447, 4348.151904124249, -2578.9889787422394, -6098.740529863898, 1684.9639040188677, -22659.86325262347, -0.014, 0.89, 0.468, 192.0, 0.0, 0.0, 0.0, 0.0, 0.0, 0.0, 0.0, 0.0, 0.0, 1.695771196775039E9, 0.0, 2023-09-26 18:33:16.775
102.0, 42647.19547595924, 65791.28692046249, -30370.432778648472, -18878.752753585908, -21779.15981759546, -3921.1218263056076, -187500.02235174447, -1995.3402275252615, 15174.979290363704, -22059.026009920362, -187500.02235174447, 4358.634872273788, -2589.94133352534, -6111.816300370253, 1721.1960817809204, -22669.608613205983, -0.014, 0.89, 0.468, 192.0, 0.0, 0.0, 0.0, 0.0, 0.0, 0.0, 0.0, 0.0, 0.0, 1.695771196775042E9, 0.0, 2023-09-26 18:33:16.775
104.0, 42648.87185679339, 65752.23842289906, -30370.924517026488, -18878.328070441257, -21780.50092226278, -3920.674791416501, -187500.02235174447, -2016.6414399911691, 15182.981214878704, -22051.292306338826, -187500.02235174447, 4345.559101767433, -2582.744071810731, -6101.087463031705, 1678.8395260381135, -22679.44338076632, -0.014, 0.89, 0.468, 192.0, 0.0, 0.0, 0.0, 0.0, 0.0, 0.0, 0.0, 0.0, 0.0, 1.695771196775045E9, 0.0, 2023-09-26 18:33:16.775
106.0, 42645.09441198044, 65795.9807867981, -30383.55325264374, -18886.55351240081, -21787.60877699957, -3921.1441780500627, -187500.02235174447, -1997.7989194153452, 15181.170723577825, -22055.65089650761, -187500.02235174447, 4355.259758861036, -2593.361150427002, -6111.302210247781, 1695.3798169350407, -22687.557064003595, -0.014, 0.89, 0.468, 192.0, 0.0, 0.0, 0.0, 0.0, 0.0, 0.0, 0.0, 0.0, 0.0, 1.695771196835329E9, 0.0, 2023-09-26 18:33:16.835
108.0, 42653.43161266227, 65747.1198734188, -30357.96050524241, -18866.749866813407, -21772.49899774778, -3901.4746429293923, -187500.02235174447, -2015.3450388127612, 15191.34076730499, -22045.59261150272, -187500.02235174447, 4344.150941866749, -2579.7936415426307, -6098.204087996971, 1665.3167206426526, -22678.571662732564, -0.014, 0.896, 0.47000000000000003, 192.0, 127.5, 72.0, 14.0, 0.0, 7.0, 88.0, 0.0, 0.0, 0.0, 1.695771196835339E9, 0.0, 2023-09-26 18:33:16.835
110.0, 42639.30531016652, 65801.54637116747, -30381.29572645375, -18887.380526945653, -21790.73802122331, -3910.303581989239, -187500.02235174447, -1984.7231489089907, 15188.725613203718, -22050.97938191645, -187500.02235174447, 4354.991537927573, -2584.487507878245, -6105.535460178311, 1695.6033343795937, -22666.121741070958, -0.014, 0.896, 0.47000000000000003, 192.0, 0.0, 0.0, 0.0, 0.0, 0.0, 0.0, 0.0, 0.0, 0.0, 1.695771196835342E9, 0.0, 2023-09-26 18:33:16.835
112.0, 42654.59390337395, 65761.51439684801, -30349.735063282857, -18865.475817379454, -21760.406703997458, -3894.4338434259707, -187500.02235174447, -2015.3450388127612, 15180.05313635506, -22062.60228903321, -187500.02235174447, 4341.625194743299, -2597.1385952399487, -6114.967896338451, 1683.2204679513536, -22678.661069710382, -0.014, 0.896, 0.47000000000000003, 192.0, 0.0, 0.0, 0.0, 0.0, 0.0, 0.0, 0.0, 0.0, 0.0, 1.695771196835345E9, 0.0, 2023-09-26 18:33:16.835
114.0, 42648.38011841537, 65788.69411810568, -30356.328827897174, -18883.580730388254, -21770.464989002347, -3899.48533767287, -187500.02235174447, -1976.1400790381526, 15216.888811217406, -22038.17183234356, -187500.02235174447, 4363.0381659314835, -2569.064804204083, -6093.733739105909, 1705.7957298512138, -22652.174252530844, -0.014, 0.896, 0.47000000000000003, 192.0, 0.0, 0.0, 0.0, 0.0, 0.0, 0.0, 0.0, 0.0, 0.0, 1.69577119683535E9, 0.0, 2023-09-26 18:33:16.835
116.0, 42635.08083046447, 65772.77967605348, -30364.308400667716, -18888.83339033525, -21777.21521582785, -3911.622334912102, -187500.02235174447, -2017.6919719805685, 15190.469049271233, -22064.32337335627, -187500.02235174447, 4338.272433075003, -2591.684769592854, -6118.790044640308, 1692.4070349224849, -22683.310232557087, -0.014, 0.896, 0.47000000000000003, 192.0, 0.0, 0.0, 0.0, 0.0, 0.0, 0.0, 0.0, 0.0, 0.0, 1.69577119683536E9, 0.0, 2023-09-26 18:33:16.835
118.0, 42643.39567940184, 65786.48129540459, -30351.702016794923, -18886.911140312095, -21771.470817502835, -3904.5815354086803, -187500.02235174447, -1979.939875595555, 15199.253284842169, -22056.433207563547, -187500.02235174447, 4336.0372586294725, -2586.7003305793205, -6111.235155014415, 1686.8638022975688, -22675.1518458309, -0.014, 0.892, 0.47000000000000003, 192.0, 127.5, 72.0, 13.5, 112.0, 7.0, 88.0, 0.0, 0.0, 0.0, 1.695771196835363E9, 0.0, 2023-09-26 18:33:16.835
120.0, 42640.62406308938, 65771.48327487508, -30355.233592418863, -18887.11230601219, -21772.387239025502, -3918.7972448822557, -187500.02235174447, -2027.414980818627, 15194.760584206651, -22064.41278033409, -187500.02235174447, 4341.28991857647, -2590.5895341145438, -6117.895974862096, 1695.6033343795937, -22687.601767492506, -0.014, 0.892, 0.47000000000000003, 192.0, 0.0, 0.0, 0.0, 0.0, 0.0, 0.0, 0.0, 0.0, 0.0, 1.695771196895616E9, 0.0, 2023-09-26 18:33:16.895
122.0, 42660.42770867678, 65773.20435919813, -30333.77591774177, -18874.01418376138, -21756.070465573128, -3895.707892859923, -187500.02235174447, -1971.7814888693679, 15218.699302518286, -22036.718968953966, -187500.02235174447, 4349.805933213942, -2570.1376879379377, -6092.750262349876, 1686.6179331085602, -22666.434665493332, -0.014, 0.892, 0.47000000000000003, 192.0, 0.0, 0.0, 0.0, 0.0, 0.0, 0.0, 0.0, 0.0, 0.0, 1.695771196895626E9, 0.0, 2023-09-26 18:33:16.895
124.0, 42637.80774328801, 65785.49781864855, -30354.831261018666, -18889.83921883574, -21778.891596661997, -3921.747675150356, -187500.02235174447, -2033.293489610373, 15204.841220955996, -22057.32727734176, -187500.02235174447, 4355.8185524724195, -2590.187202714348, -6113.895012604597, 1710.4448926979176, -22684.24900582421, -0.014, 0.892, 0.47000000000000003, 192.0, 0.0, 0.0, 0.0, 0.0, 0.0, 0.0, 0.0, 0.0, 0.0, 1.695771196895629E9, 0.0, 2023-09-26 18:33:16.895
126.0, 42637.83009503247, 65785.60957737084, -30343.275409135273, -18880.809114075793, -21770.464989002347, -3899.842965584155, -187500.02235174447, -1993.708550180024, 15207.523430290632, -22046.620791747668, -187500.02235174447, 4345.447343045156, -2583.4146241443905, -6101.199221753982, 1675.1738399474432, -22673.229595807745, -0.014, 0.892, 0.47000000000000003, 192.0, 0.0, 0.0, 0.0, 0.0, 0.0, 0.0, 0.0, 0.0, 0.0, 1.695771196895633E9, 0.0, 2023-09-26 18:33:16.895
128.0, 42638.701813066225, 65780.96041452413, -30346.203487658917, -18878.819808819273, -21764.40766625496, -3907.330799976683, -187500.02235174447, -2020.4412365485714, 15193.352424305967, -22056.50026279691, -187500.02235174447, 4348.867159946819, -2592.5117841377005, -6109.737588135909, 1711.406017709496, -22674.324831286056, -0.02, 0.89, 0.47000000000000003, 192.0, 127.5, 48.0, 13.5, 104.0, 7.0, 88.0, 0.0, 0.0, 0.0, 1.695771196895636E9, 0.0, 2023-09-26 18:33:16.895
130.0, 42628.911748994804, 65779.21697845662, -30354.63009531857, -18891.49324792543, -21770.464989002347, -3908.5154424328143, -187500.02235174447, -1990.780471656379, 15203.969502922238, -22048.990076659928, -187500.02235174447, 4335.3890580402685, -2580.754766554209, -6100.841593842697, 1682.8628400400687, -22675.59888072001, -0.02, 0.89, 0.47000000000000003, 192.0, 0.0, 0.0, 0.0, 0.0, 0.0, 0.0, 0.0, 0.0, 0.0, 1.69577119689564E9, 0.0, 2023-09-26 18:33:16.895
132.0, 42629.62700481737, 65784.00025177005, -30349.95858072741, -18886.866436823184, -21764.139445321496, -3917.165567537018, -187500.02235174447, -2024.6210127617137, 15192.77127895013, -22066.51384431289, -187500.02235174447, 4341.893415676763, -2595.4398626613456, -6119.63941092961, 1712.4565496988953, -22689.434610537843, -0.02, 0.89, 0.47000000000000003, 192.0, 0.0, 0.0, 0.0, 0.0, 0.0, 0.0, 0.0, 0.0, 0.0, 1.695771196895645E9, 0.0, 2023-09-26 18:33:16.895
134.0, 42616.595937799924, 65776.15478946624, -30350.986760972355, -18896.745907872428, -21769.660326201956, -3914.7292273913895, -187500.02235174447, -1992.5909629572586, 15205.24355235619, -22055.6061930187, -187500.02235174447, 4330.851653915841, -2580.4641938762898, -6105.937791578507, 1686.7296918308368, -22676.314136542576, -0.02, 0.89, 0.47000000000000003, 192.0, 0.0, 0.0, 0.0, 0.0, 0.0, 0.0, 0.0, 0.0, 0.0, 1.695771196895648E9, 0.0, 2023-09-26 18:33:16.895
136.0, 42609.9574696967, 65787.64358611628, -30352.707845295412, -18891.672061881072, -21761.233718542306, -3911.7564453788336, -187500.02235174447, -2013.8921754231662, 15178.220293309725, -22078.51673108539, -187500.02235174447, 4328.370610281302, -2604.201746487826, -6129.5188819788555, 1720.3467154916186, -22690.73101171625, -0.02, 0.89, 0.47000000000000003, 192.0, 0.0, 0.0, 0.0, 0.0, 0.0, 0.0, 0.0, 0.0, 0.0, 1.695771196955964E9, 0.0, 2023-09-26 18:33:16.955
138.0, 42602.067303903976, 65768.26462367352, -30371.43860714896, -18901.75269863042, -21775.87411116053, -3900.0664830287083, -187500.02235174447, -1994.2002885580407, 15189.038537626093, -22060.79179773233, -187500.02235174447, 4314.132549063272, -2584.4651561337896, -6108.664704402055, 1684.7180348298593, -22676.53765398713, -0.014, 0.896, 0.47200000000000003, 192.0, 127.5, 72.0, 14.0, 0.0, 7.0, 96.0, 0.0, 0.0, 0.0, 1.695771196955973E9, 0.0, 2023-09-26 18:33:16.955
140.0, 42601.016771914576, 65795.80197284246, -30368.71169432541, -18896.142410772136, -21779.07041061764, -3891.5728201356915, -187500.02235174447, -1993.4626809910158, 15176.834485153495, -22075.767466517387, -187500.02235174447, 4326.515415491512, -2606.034589533161, -6121.82988188623, 1711.6295351540489, -22673.453113252297, -0.014, 0.896, 0.47200000000000003, 192.0, 0.0, 0.0, 0.0, 0.0, 0.0, 0.0, 0.0, 0.0, 0.0, 1.695771196955977E9, 0.0, 2023-09-26 18:33:16.955
142.0, 42609.21986212968, 65756.59701306785, -30357.66993256449, -18887.715803112485, -21772.744866936788, -3880.776927563778, -187500.02235174447, -1979.068157561798, 15175.046345597071, -22067.6090797912, -187500.02235174447, 4310.243345528048, -2602.5030139092223, -6104.820204355741, 1664.8473340090914, -22663.26071778068, -0.014, 0.896, 0.47200000000000003, 192.0, 0.0, 0.0, 0.0, 0.0, 0.0, 0.0, 0.0, 0.0, 0.0, 1.69577119695598E9, 0.0, 2023-09-26 18:33:16.955
144.0, 42606.09061790593, 65787.59888262735, -30357.02173197529, -18893.571960159774, -21769.79443666869, -3894.076215514686, -187500.02235174447, -1994.580268213781, 15178.332052032001, -22071.431228093057, -187500.02235174447, 4325.844863157852, -2607.1745285003817, -6116.73368415042, 1705.5051571732947, -22667.418142249364, -0.014, 0.896, 0.47200000000000003, 192.0, 0.0, 0.0, 0.0, 0.0, 0.0, 0.0, 0.0, 0.0, 0.0, 1.695771196955983E9, 0.0, 2023-09-26 18:33:16.955
146.0, 42625.04489720403, 65730.69134124415, -30334.982911942356, -18878.73040184145, -21741.452424699357, -3879.592285107647, -187500.02235174447, -1989.1040908222308, 15201.600218009975, -22059.830672720753, -187500.02235174447, 4308.879889116274, -2580.039510731639, -6098.360550208158, 1676.8502207815911, -22660.62321193495, -0.014, 0.896, 0.47200000000000003, 192.0, 0.0, 0.0, 0.0, 0.0, 0.0, 0.0, 0.0, 0.0, 0.0, 1.695771196955992E9, 0.0, 2023-09-26 18:33:16.955
148.0, 42613.82432148747, 65769.09163821836, -30351.456147605917, -18896.12005902768, -21758.26093652975, -3899.6865033729678, -187500.02235174447, -1993.5967914577475, 15204.260075600158, -22059.875376209664, -187500.02235174447, 4331.902185905241, -2576.753804296709, -6104.6860938890095, 1732.4166574974845, -22655.728179899237, -0.012, 0.892, 0.468, 192.0, 127.5, 80.0, 13.5, 112.0, 7.0, 80.0, 0.0, 0.0, 0.0, 1.695771196955995E9, 0.0, 2023-09-26 18:33:16.955
150.0, 42601.374399825865, 65754.29478338895, -30361.78265354427, -18904.2113905205, -21775.82940767162, -3915.6232971696018, -187500.02235174447, -2028.1749401301076, 15188.613854481442, -22071.811207748797, -187500.02235174447, 4304.074264058383, -2589.069615491583, -6117.650105673088, 1685.4779941413397, -22682.505569756697, -0.012, 0.892, 0.468, 192.0, 0.0, 0.0, 0.0, 0.0, 0.0, 0.0, 0.0, 0.0, 0.0, 1.695771197015271E9, 0.0, 2023-09-26 18:33:17.015
152.0, 42594.60182125591, 65810.48706894959, -30369.62811584808, -18908.637035922653, -21789.08399213362, -3922.641744928568, -187500.02235174447, -2004.7056084520352, 15165.815075137029, -22086.295138155838, -187500.02235174447, 4309.66220017221, -2615.3552669710243, -6138.951318138996, 1700.498366415306, -22686.573587247563, -0.012, 0.892, 0.468, 192.0, 0.0, 0.0, 0.0, 0.0, 0.0, 0.0, 0.0, 0.0, 0.0, 1.69577119701528E9, 0.0, 2023-09-26 18:33:17.015
154.0, 42627.168312927286, 65745.95758270712, -30331.630150274057, -18869.521483125864, -21751.957744593354, -3885.4037386660266, -187500.02235174447, -2002.4927857509597, 15190.111421359949, -22058.914251198086, -187500.02235174447, 4311.584450195366, -2584.9568945118067, -6105.580163667222, 1675.6879300699152, -22667.596956205005, -0.012, 0.892, 0.468, 192.0, 0.0, 0.0, 0.0, 0.0, 0.0, 0.0, 0.0, 0.0, 0.0, 1.695771197015284E9, 0.0, 2023-09-26 18:33:17.015
156.0, 42626.36365012689, 65771.21505394162, -30333.060661919197, -18874.192997717026, -21754.461139972347, -3884.0179305097977, -187500.02235174447, -1971.5356196803596, 15199.476802286721, -22047.514861525877, -187500.02235174447, 4338.071267374905, -2577.5808188415554, -6098.807585097264, 1716.301049745208, -22651.30253449709, -0.012, 0.892, 0.468, 192.0, 0.0, 0.0, 0.0, 0.0, 0.0, 0.0, 0.0, 0.0, 0.0, 1.695771197015287E9, 0.0, 2023-09-26 18:33:17.015
158.0, 42632.37626938537, 65730.37841682177, -30333.284179363753, -18868.940337770026, -21756.33868650659, -3879.7710990632895, -187500.02235174447, -1999.9446868830548, 15207.344616334989, -22042.21749808997, -187500.02235174447, 4332.23746207207, -2570.1153361934826, -6088.30226520327, 1703.0017617943004, -22648.48621469572, -0.008, 0.888, 0.466, 192.0, 127.5, 96.0, 13.5, 96.0, 7.0, 72.0, 0.0, 0.0, 0.0, 1.695771197015291E9, 0.0, 2023-09-26 18:33:17.015
160.0, 42617.40060060032, 65788.00121402755, -30354.29481915174, -18884.720669355473, -21783.02666938623, -3891.1928404799514, -187500.02235174447, -1988.1429658106526, 15181.975386378217, -22053.952163929007, -187500.02235174447, 4332.1033516053385, -2596.1551184839154, -6106.988323567906, 1710.8472240981132, -22661.472578224253, -0.008, 0.888, 0.466, 192.0, 0.0, 0.0, 0.0, 0.0, 0.0, 0.0, 0.0, 0.0, 0.0, 1.695771197015294E9, 0.0, 2023-09-26 18:33:17.015
162.0, 42627.95062398322, 65752.70780953263, -30344.14712716903, -18868.87328253666, -21772.40959076996, -3884.040282254253, -187500.02235174447, -2023.0787423942975, 15184.121153845927, -22047.157233614595, -187500.02235174447, 4327.521243992001, -2589.360188169502, -6097.555887407767, 1690.2612674547754, -22660.310287512577, -0.008, 0.888, 0.466, 192.0, 0.0, 0.0, 0.0, 0.0, 0.0, 0.0, 0.0, 0.0, 0.0, 1.695771197015298E9, 0.0, 2023-09-26 18:33:17.015
164.0, 42618.697001778724, 65786.0789640044, -30351.25498190582, -18877.590462874232, -21777.192864083394, -3887.683616600468, -187500.02235174447, -1991.6745414345912, 15186.468087013733, -22048.6548004931, -187500.02235174447, 4337.534825507978, -2585.4709846342785, -6099.701654875476, 1693.725787845348, -22658.656258422885, -0.008, 0.888, 0.466, 192.0, 0.0, 0.0, 0.0, 0.0, 0.0, 0.0, 0.0, 0.0, 0.0, 1.695771197015301E9, 0.0, 2023-09-26 18:33:17.015
166.0, 42623.0108884586, 65755.65823980073, -30342.560153312705, -18868.292137180822, -21767.894538389988, -3895.7749480932894, -187500.02235174447, -2026.319745340317, 15182.422421267322, -22047.716027225975, -187500.02235174447, 4338.786523197475, -2583.7275485667647, -6097.287666474303, 1697.9726192918563, -22662.545461958107, -0.008, 0.888, 0.466, 192.0, 0.0, 0.0, 0.0, 0.0, 0.0, 0.0, 0.0, 0.0, 0.0, 1.695771197075097E9, 0.0, 2023-09-26 18:33:17.075
168.0, 42618.67465003427, 65781.58626336888, -30339.430909088962, -18876.07054425127, -21770.263823302248, -3894.880878315077, -187500.02235174447, -1987.9194483660995, 15183.852932912461, -22049.526518526854, -187500.02235174447, 4336.886624918774, -2594.456385905312, -6100.238096742403, 1698.2855437142307, -22658.879775867437, -0.014, 0.888, 0.47000000000000003, 192.0, 127.5, 72.0, 13.5, 96.0, 7.0, 88.0, 0.0, 0.0, 0.0, 1.695771197075106E9, 0.0, 2023-09-26 18:33:17.075
170.0, 42631.504551351616, 65747.14222516325, -30327.115097894086, -18859.932584754537, -21752.74005564929, -3887.0577677557194, -187500.02235174447, -2016.5743847578033, 15180.701336944263, -22048.855966193198, -187500.02235174447, 4337.825398185897, -2583.347568911024, -6093.890201317096, 1705.728674617848, -22657.091636311012, -0.014, 0.888, 0.47000000000000003, 192.0, 0.0, 0.0, 0.0, 0.0, 0.0, 0.0, 0.0, 0.0, 0.0, 1.695771197075109E9, 0.0, 2023-09-26 18:33:17.075
172.0, 42617.04297268903, 65780.71454533513, -30353.221935417885, -18883.223102476968, -21783.36194555306, -3902.2569539853284, -187500.02235174447, -1997.1730705705966, 15183.67411895682, -22047.067826636772, -187500.02235174447, 4337.221901085603, -2584.711025322798, -6096.237134484903, 1694.7986715792026, -22658.410389233875, -0.014, 0.888, 0.47000000000000003, 192.0, 0.0, 0.0, 0.0, 0.0, 0.0, 0.0, 0.0, 0.0, 0.0, 1.695771197075113E9, 0.0, 2023-09-26 18:33:17.075
174.0, 42630.923405995774, 65763.63781257127, -30342.224877145873, -18863.665326078575, -21770.263823302248, -3890.522288146292, -187500.02235174447, -2019.0107249034318, 15172.274729284612, -22045.950239414007, -187500.02235174447, 4346.341412823369, -2590.5895341145438, -6093.733739105909, 1695.33511344613, -22665.160616059376, -0.014, 0.888, 0.47000000000000003, 192.0, 0.0, 0.0, 0.0, 0.0, 0.0, 0.0, 0.0, 0.0, 0.0, 1.695771197075116E9, 0.0, 2023-09-26 18:33:17.075
176.0, 42628.62117631688, 65759.74860903605, -30347.72340628188, -18869.83440754824, -21776.74582919429, -3890.812860824211, -187500.02235174447, -1988.6570559331246, 15190.580807993509, -22033.969704385963, -187500.02235174447, 4347.749572724053, -2580.039510731639, -6085.083614001705, 1672.9610172463676, -22655.906993854882, -0.014, 0.888, 0.47000000000000003, 192.0, 0.0, 0.0, 0.0, 0.0, 0.0, 0.0, 0.0, 0.0, 0.0, 1.69577119707512E9, 0.0, 2023-09-26 18:33:17.075
178.0, 42609.53278655205, 65769.60572834083, -30364.15193845653, -18882.194922232025, -21784.904215920476, -3913.902212846543, -187500.02235174447, -2024.3304400837947, 15176.968595620227, -22049.83944294923, -187500.02235174447, 4354.723316994109, -2590.075443992072, -6103.881431088618, 1696.117424502066, -22672.424933007354, -0.016, 0.894, 0.466, 192.0, 127.5, 64.0, 13.5, 120.0, 7.0, 72.0, 0.0, 0.0, 0.0, 1.695771197075123E9, 0.0, 2023-09-26 18:33:17.075
180.0, 42611.790312742036, 65761.29087940346, -30355.43475811896, -18881.770239087375, -21779.048058873184, -3899.619448139602, -187500.02235174447, -2003.7891869293676, 15173.951110118762, -22055.31562034078, -187500.02235174447, 4332.058648116427, -2598.1891272293483, -6104.037893299806, 1661.248703151787, -22676.090619098024, -0.016, 0.894, 0.466, 192.0, 0.0, 0.0, 0.0, 0.0, 0.0, 0.0, 0.0, 0.0, 0.0, 1.695771197135441E9, 0.0, 2023-09-26 18:33:17.135
182.0, 42602.33552483744, 65761.78261778149, -30360.70976981041, -18886.93349205655, -21773.147198336985, -3908.2025180104397, -187500.02235174447, -2028.1078848967416, 15164.652784425352, -22061.97644018846, -187500.02235174447, 4340.217034842615, -2602.100682509027, -6114.118530049149, 1696.0950727576105, -22676.44824700931, -0.016, 0.894, 0.466, 192.0, 0.0, 0.0, 0.0, 0.0, 0.0, 0.0, 0.0, 0.0, 0.0, 1.69577119713545E9, 0.0, 2023-09-26 18:33:17.135
184.0, 42597.99928641311, 65747.85748098583, -30358.742816298345, -18894.287215982346, -21771.716686691845, -3905.7661778648117, -187500.02235174447, -2002.1128060952194, 15168.698450171763, -22063.65282102261, -187500.02235174447, 4316.121854319794, -2588.488470135745, -6111.391617225602, 1665.4284793649292, -22674.05661035259, -0.016, 0.894, 0.466, 192.0, 0.0, 0.0, 0.0, 0.0, 0.0, 0.0, 0.0, 0.0, 0.0, 1.695771197135454E9, 0.0, 2023-09-26 18:33:17.135
186.0, 42605.9565074392, 65765.4706556166, -30351.25498190582, -18885.480628666955, -21768.051000601175, -3905.9002883315434, -187500.02235174447, -2009.8241579323005, 15167.983194349194, -22069.576033303267, -187500.02235174447, 4337.735991208076, -2591.75182482622, -6116.621925428143, 1709.662581641982, -22671.039124851122, -0.016, 0.894, 0.466, 192.0, 0.0, 0.0, 0.0, 0.0, 0.0, 0.0, 0.0, 0.0, 0.0, 1.695771197135457E9, 0.0, 2023-09-26 18:33:17.135
188.0, 42601.84378645942, 65734.9158209462, -30359.90510701002, -18886.866436823184, -21770.196768068883, -3897.7866050942666, -187500.02235174447, -2005.800843930345, 15175.828656653006, -22058.5566232868, -187500.02235174447, 4325.598993968844, -2576.2844176631475, -6100.998056053884, 1672.111650957066, -22663.931270114335, -0.018000000000000002, 0.89, 0.468, 192.0, 127.5, 56.0, 13.5, 104.0, 7.0, 80.0, 0.0, 0.0, 0.0, 1.69577119713546E9, 0.0, 2023-09-26 18:33:17.135
190.0, 42600.63679225884, 65760.86619625881, -30350.651484805523, -18886.17353274507, -21771.873148903032, -3900.2452969843507, -187500.02235174447, -1998.5588787268257, 15160.495359956665, -22072.41470484909, -187500.02235174447, 4336.23842432957, -2597.1832987288594, -6117.136015550615, 1709.1708432639653, -22670.323869028554, -0.018000000000000002, 0.89, 0.468, 192.0, 0.0, 0.0, 0.0, 0.0, 0.0, 0.0, 0.0, 0.0, 0.0, 1.695771197135463E9, 0.0, 2023-09-26 18:33:17.135
192.0, 42592.545460766014, 65734.11115814581, -30362.63201983357, -18896.16476251659, -21782.959614152864, -3902.5698784077026, -187500.02235174447, -2008.192480587063, 15159.847159367462, -22066.93852745754, -187500.02235174447, 4319.385209010268, -2592.757653326709, -6107.815338112752, 1667.8648195105577, -22669.63096495044, -0.018000000000000002, 0.89, 0.468, 192.0, 0.0, 0.0, 0.0, 0.0, 0.0, 0.0, 0.0, 0.0, 0.0, 1.695771197135466E9, 0.0, 2023-09-26 18:33:17.135
194.0, 42601.642620759325, 65764.80010328295, -30352.551383084225, -18881.434962920543, -21768.185111067905, -3892.0869102581637, -187500.02235174447, -1984.2761140198845, 15153.409856964334, -22067.966707702482, -187500.02235174447, 4333.131531850282, -2602.860641820507, -6113.872660860141, 1703.046465283211, -22666.68053468234, -0.018000000000000002, 0.89, 0.468, 192.0, 0.0, 0.0, 0.0, 0.0, 0.0, 0.0, 0.0, 0.0, 0.0, 1.69577119713547E9, 0.0, 2023-09-26 18:33:17.135
196.0, 42592.65721948829, 65723.78465220745, -30357.602877331126, -18890.532122913854, -21772.02961111422, -3901.742863862856, -187500.02235174447, -2006.225527074996, 15164.228101280702, -22057.997829675416, -187500.02235174447, 4322.313287533914, -2585.1133567229936, -6098.092329274694, 1677.0290347372336, -22660.15382530139, -0.018000000000000002, 0.89, 0.468, 192.0, 0.0, 0.0, 0.0, 0.0, 0.0, 0.0, 0.0, 0.0, 0.0, 1.69577119719573E9, 0.0, 2023-09-26 18:33:17.195
198.0, 42593.14895786631, 65762.40846662622, -30359.368665143094, -18892.722593870472, -21773.25895705926, -3907.1519860210406, -187500.02235174447, -1999.6317624606804, 15153.812188364529, -22077.242681651438, -187500.02235174447, 4323.676743945688, -2603.866470320996, -6123.863890631663, 1704.0075902947892, -22674.458941752786, -0.016, 0.89, 0.462, 192.0, 127.5, 64.0, 13.5, 104.0, 7.0, 56.0, 0.0, 0.0, 0.0, 1.69577119719574E9, 0.0, 2023-09-26 18:33:17.195
200.0, 42598.89335619132, 65715.87213467028, -30350.070339449685, -18879.95974778649, -21760.853738886566, -3894.00916028132, -187500.02235174447, -2004.973829385499, 15164.071639069516, -22061.328239599257, -187500.02235174447, 4314.04314208545, -2580.9335805098513, -6101.154518265071, 1676.6490550814933, -22659.170348545354, -0.016, 0.89, 0.462, 192.0, 0.0, 0.0, 0.0, 0.0, 0.0, 0.0, 0.0, 0.0, 0.0, 1.695771197195743E9, 0.0, 2023-09-26 18:33:17.195
202.0, 42595.29472533402, 65754.13832117776, -30364.978953001377, -18893.50490492641, -21776.45525651637, -3904.067445286208, -187500.02235174447, -1995.7649106699123, 15160.4283047233, -22072.83938799374, -187500.02235174447, 4321.463921244612, -2586.1415369679376, -6116.063131816761, 1702.9347065609345, -22666.836996893526, -0.016, 0.89, 0.462, 192.0, 0.0, 0.0, 0.0, 0.0, 0.0, 0.0, 0.0, 0.0, 0.0, 1.695771197195747E9, 0.0, 2023-09-26 18:33:17.195
204.0, 42583.56005949498, 65742.24719312754, -30381.608650876125, -18908.16764928909, -21792.280291590727, -3916.5620704367248, -187500.02235174447, -2019.0777801367976, 15148.71599062872, -22081.3106991423, -187500.02235174447, 4301.436758212657, -2604.6264296324766, -6119.527652207334, 1672.0222439792449, -22678.705773199294, -0.016, 0.89, 0.462, 192.0, 0.0, 0.0, 0.0, 0.0, 0.0, 0.0, 0.0, 0.0, 0.0, 1.69577119719575E9, 0.0, 2023-09-26 18:33:17.195
206.0, 42586.91282116328, 65770.36568765232, -30380.11108399762, -18908.234704522456, -21784.993622898295, -3912.4717012014034, -187500.02235174447, -1988.0535588328314, 15136.80251083404, -22092.17364694758, -187500.02235174447, 4295.84882209883, -2610.907269824418, -6131.888166891118, 1679.688892327415, -22683.243177323722, -0.016, 0.89, 0.462, 192.0, 0.0, 0.0, 0.0, 0.0, 0.0, 0.0, 0.0, 0.0, 0.0, 1.695771197195754E9, 0.0, 2023-09-26 18:33:17.195
208.0, 42590.37734155385, 65727.60680050931, -30378.032371763275, -18901.640939908142, -21777.572843739134, -3909.610677911124, -187500.02235174447, -2022.519948782915, 15146.547871416555, -22084.484646854955, -187500.02235174447, 4291.289066229948, -2598.949086540829, -6121.069922574749, 1663.8415055086025, -22681.566796489573, -0.012, 0.886, 0.464, 192.0, 127.5, 80.0, 13.5, 88.0, 7.0, 64.0, 0.0, 0.0, 0.0, 1.695771197195757E9, 0.0, 2023-09-26 18:33:17.195
210.0, 42588.633905486335, 65755.25590840053, -30373.606726361126, -18903.429079464564, -21776.67877396092, -3906.704951131934, -187500.02235174447, -1988.098262321742, 15145.206766749236, -22087.837408523254, -187500.02235174447, 4296.2958569879365, -2597.8314993180634, -6123.796835398297, 1674.145659702499, -22677.43172376534, -0.012, 0.886, 0.464, 192.0, 0.0, 0.0, 0.0, 0.0, 0.0, 0.0, 0.0, 0.0, 0.0, 1.69577119725597E9, 0.0, 2023-09-26 18:33:17.255
212.0, 42589.77384445356, 65712.58642823534, -30366.588278602158, -18891.426192692066, -21769.97325062433, -3903.48629993037, -187500.02235174447, -2019.1895388590742, 15151.129979029893, -22075.94628047303, -187500.02235174447, 4299.223935511582, -2588.421414902379, -6111.369265481147, 1672.8492585240913, -22674.615403963973, -0.012, 0.886, 0.464, 192.0, 0.0, 0.0, 0.0, 0.0, 0.0, 0.0, 0.0, 0.0, 0.0, 1.695771197255981E9, 0.0, 2023-09-26 18:33:17.255
214.0, 42584.52118450656, 65742.80598673892, -30375.573679873192, -18900.143373029634, -21781.573805996635, -3902.9945615523534, -187500.02235174447, -1991.9204106235995, 15145.586746404977, -22077.22032990698, -187500.02235174447, 4307.561136193412, -2595.8198423170857, -6114.565564938255, 1680.0018167497894, -22671.463807995773, -0.012, 0.886, 0.464, 192.0, 0.0, 0.0, 0.0, 0.0, 0.0, 0.0, 0.0, 0.0, 0.0, 1.695771197255984E9, 0.0, 2023-09-26 18:33:17.255
216.0, 42590.64556248731, 65720.43189053916, -30367.996438502843, -18887.31347171229, -21771.96255588085, -3907.263744743317, -187500.02235174447, -2026.2973935958619, 15137.584821889976, -22082.3612311317, -187500.02235174447, 4309.393979238746, -2598.4796999072673, -6116.107835305672, 1684.1592412184766, -22675.285956297634, -0.012, 0.886, 0.464, 192.0, 0.0, 0.0, 0.0, 0.0, 0.0, 0.0, 0.0, 0.0, 0.0, 1.695771197255987E9, 0.0, 2023-09-26 18:33:17.255
218.0, 42597.32873407945, 65729.6184575103, -30365.984781501866, -18887.939320557038, -21773.661288459458, -3902.100491774141, -187500.02235174447, -1993.8203089023007, 15148.224252250702, -22071.02889669286, -187500.02235174447, 4315.42895024168, -2590.2989614366247, -6107.457710201467, 1674.1903631914097, -22670.234462050732, -0.012, 0.888, 0.46, 192.0, 127.5, 80.0, 13.5, 96.0, 7.0, 48.0, 0.0, 0.0, 0.0, 1.695771197255991E9, 0.0, 2023-09-26 18:33:17.255
220.0, 42602.827263215455, 65707.82550666637, -30361.402673888526, -18880.093858253225, -21769.68267794641, -3906.1908610094624, -187500.02235174447, -2025.9174139401216, 15148.403066206345, -22068.61490829169, -187500.02235174447, 4324.257889301525, -2586.879144534963, -6105.289590989303, 1689.9706947768564, -22670.972069617757, -0.012, 0.888, 0.46, 192.0, 0.0, 0.0, 0.0, 0.0, 0.0, 0.0, 0.0, 0.0, 0.0, 1.695771197255994E9, 0.0, 2023-09-26 18:33:17.255
222.0, 42587.47161477466, 65723.40467255171, -30374.165519972506, -18897.50586718391, -21783.607814742067, -3912.4493494569483, -187500.02235174447, -2001.6434194616581, 15150.548833674055, -22068.346687358226, -187500.02235174447, 4318.334677020869, -2586.521516623678, -6106.49658518989, 1667.0601567101667, -22676.291784798123, -0.012, 0.888, 0.46, 192.0, 0.0, 0.0, 0.0, 0.0, 0.0, 0.0, 0.0, 0.0, 0.0, 1.695771197256003E9, 0.0, 2023-09-26 18:33:17.256
224.0, 42585.23644032913, 65722.82352719588, -30375.640735106557, -18894.577788660263, -21777.59519548359, -3926.7097624194344, -187500.02235174447, -2044.1117339267414, 15138.23302247918, -22084.03761196585, -187500.02235174447, 4322.42504625619, -2599.0831970075606, -6120.35466675218, 1687.0426162532112, -22690.172218104868, -0.012, 0.888, 0.46, 192.0, 0.0, 0.0, 0.0, 0.0, 0.0, 0.0, 0.0, 0.0, 0.0, 1.695771197256007E9, 0.0, 2023-09-26 18:33:17.256
226.0, 42575.69224544671, 65732.7700534785, -30380.312249697716, -18904.278445753866, -21787.966404910854, -3925.458064729937, -187500.02235174447, -2014.2050998455406, 15145.09500802696, -22080.438981108546, -187500.02235174447, 4306.667066415199, -2583.325217166569, -6111.68218990352, 1666.3672526320522, -22686.886511669938, -0.012, 0.888, 0.46, 192.0, 0.0, 0.0, 0.0, 0.0, 0.0, 0.0, 0.0, 0.0, 0.0, 1.695771197315374E9, 0.0, 2023-09-26 18:33:17.315
228.0, 42578.95560013719, 65741.15195764923, -30371.259793193316, -18889.92862581356, -21777.50578850577, -3922.753503650845, -187500.02235174447, -2039.2837571243952, 15121.938600771262, -22095.32524291578, -187500.02235174447, 4311.830319384375, -2608.359170956513, -6126.970783110951, 1697.2797152137418, -22698.57647402006, -0.016, 0.886, 0.466, 192.0, 127.5, 64.0, 13.5, 88.0, 7.0, 72.0, 0.0, 0.0, 0.0, 1.695771197315383E9, 0.0, 2023-09-26 18:33:17.315
230.0, 42590.33263806494, 65716.78855619294, -30361.067397721697, -18882.68666061004, -21771.202596569372, -3910.7953203672555, -187500.02235174447, -2011.2770213218955, 15146.771388861107, -22074.80634150581, -187500.02235174447, 4303.023732068984, -2579.8830485204517, -6102.920306077041, 1668.7141857998595, -22678.63871796593, -0.016, 0.886, 0.466, 192.0, 0.0, 0.0, 0.0, 0.0, 0.0, 0.0, 0.0, 0.0, 0.0, 1.695771197315386E9, 0.0, 2023-09-26 18:33:17.315
232.0, 42591.56198400998, 65735.22874536857, -30363.77195880079, -18882.373736187667, -21773.147198336985, -3919.1548727935406, -187500.02235174447, -2028.1972918745628, 15144.312696971023, -22072.12413217117, -187500.02235174447, 4326.224842813593, -2586.946199768329, -6108.552945679778, 1714.177634021954, -22673.229595807745, -0.016, 0.886, 0.466, 192.0, 0.0, 0.0, 0.0, 0.0, 0.0, 0.0, 0.0, 0.0, 0.0, 1.695771197315389E9, 0.0, 2023-09-26 18:33:17.315
234.0, 42588.16451885278, 65721.30360857291, -30364.710732067913, -18886.799381589815, -21776.835236172108, -3917.1208640481073, -187500.02235174447, -2011.679352722091, 15153.789836620073, -22069.576033303267, -187500.02235174447, 4313.752569407531, -2570.4506123603123, -6098.964047308451, 1676.2690754257533, -22677.163502831878, -0.016, 0.886, 0.466, 192.0, 0.0, 0.0, 0.0, 0.0, 0.0, 0.0, 0.0, 0.0, 0.0, 1.695771197315392E9, 0.0, 2023-09-26 18:33:17.315
236.0, 42585.48230951814, 65749.93619322017, -30366.34240941315, -18885.838256578238, -21777.79636118369, -3919.8924803605655, -187500.02235174447, -2021.06708539332, 15137.964801545717, -22078.963765974495, -187500.02235174447, 4328.683534703677, -2596.199821972826, -6111.279858503325, 1713.6188404105712, -22674.72716268625, -0.016, 0.886, 0.466, 192.0, 0.0, 0.0, 0.0, 0.0, 0.0, 0.0, 0.0, 0.0, 0.0, 1.695771197315396E9, 0.0, 2023-09-26 18:33:17.315
238.0, 42585.05762637349, 65726.4668615421, -30367.974086758386, -18887.626396134663, -21785.485361276315, -3920.652439672046, -187500.02235174447, -2024.1739778726076, 15140.199975991247, -22079.433152608057, -187500.02235174447, 4307.941115849151, -2587.192068957337, -6108.30707649077, 1666.7025287988818, -22681.812665678583, -0.024, 0.89, 0.466, 192.0, 127.5, 32.0, 13.5, 104.0, 7.0, 72.0, 0.0, 0.0, 0.0, 1.695771197315399E9, 0.0, 2023-09-26 18:33:17.315
240.0, 42583.71652170617, 65760.46386485861, -30368.622287347593, -18880.943224542527, -21786.625300243533, -3921.1441780500627, -187500.02235174447, -2015.9485359130547, 15140.647010880353, -22075.4098386061, -187500.02235174447, 4331.276337060492, -2592.5341358821556, -6110.944582336496, 1704.4769769283507, -22674.34718303051, -0.024, 0.89, 0.466, 192.0, 0.0, 0.0, 0.0, 0.0, 0.0, 0.0, 0.0, 0.0, 0.0, 1.695771197375136E9, 0.0, 2023-09-26 18:33:17.375
242.0, 42599.07217014697, 65718.04025388244, -30351.47849935037, -18864.58174760124, -21772.610756470058, -3903.5310034192808, -187500.02235174447, -2008.9524398985434, 15141.80930159203, -22071.386524604146, -187500.02235174447, 4317.127682820283, -2586.968551512784, -6098.785233352809, 1672.469278868351, -22669.318040528065, -0.024, 0.89, 0.466, 192.0, 0.0, 0.0, 0.0, 0.0, 0.0, 0.0, 0.0, 0.0, 0.0, 1.69577119737515E9, 0.0, 2023-09-26 18:33:17.375
244.0, 42603.43076031575, 65742.71657976111, -30347.56694407069, -18856.11043645268, -21770.912023891455, -3896.57961089368, -187500.02235174447, -1998.1118438377196, 15151.755827874642, -22059.964783187483, -187500.02235174447, 4347.771924468509, -2581.4476706323235, -6088.995169281384, 1715.2952212447192, -22648.68738039582, -0.024, 0.89, 0.466, 192.0, 0.0, 0.0, 0.0, 0.0, 0.0, 0.0, 0.0, 0.0, 0.0, 1.695771197375153E9, 0.0, 2023-09-26 18:33:17.375
246.0, 42595.33942882293, 65721.6165329953, -30353.53485984026, -18862.07835222225, -21779.293928062194, -3904.6262388975906, -187500.02235174447, -2013.8474719342557, 15148.224252250702, -22058.98130643145, -187500.02235174447, 4334.42793302869, -2581.8723537769743, -6086.3129599467475, 1691.3565029330855, -22647.033351306123, -0.024, 0.89, 0.466, 192.0, 0.0, 0.0, 0.0, 0.0, 0.0, 0.0, 0.0, 0.0, 0.0, 1.695771197375156E9, 0.0, 2023-09-26 18:33:17.375
248.0, 42590.042065387024, 65764.73304804957, -30364.57662160118, -18871.421381404565, -21788.681660733422, -3912.4493494569483, -187500.02235174447, -2001.5316607393816, 15137.026028278593, -22063.65282102261, -187500.02235174447, 4345.872026189808, -2594.009351016206, -6095.991265295896, 1713.5070816882946, -22651.749569386193, -0.022, 0.888, 0.47200000000000003, 192.0, 127.5, 40.0, 13.5, 96.0, 7.0, 96.0, 0.0, 0.0, 0.0, 1.69577119737516E9, 0.0, 2023-09-26 18:33:17.375
250.0, 42599.98859166963, 65720.99068415054, -30357.111138953107, -18865.721686568464, -21777.483436761315, -3908.381331966082, -187500.02235174447, -2021.3129545823283, 15140.46819692471, -22065.977402445962, -187500.02235174447, 4332.2821655609805, -2590.9248102813735, -6092.68320711651, 1674.1233079580436, -22659.72914215674, -0.022, 0.888, 0.47200000000000003, 192.0, 0.0, 0.0, 0.0, 0.0, 0.0, 0.0, 0.0, 0.0, 0.0, 1.695771197375163E9, 0.0, 2023-09-26 18:33:17.375
252.0, 42599.2062806137, 65756.93228923468, -30361.022694232786, -18874.26005295039, -21780.16564609595, -3913.164605279518, -187500.02235174447, -1992.2780385348844, 15140.132920757882, -22060.501225054413, -187500.02235174447, 4348.777752968997, -2592.064749248594, -6095.231305984415, 1700.207793737387, -22654.744703143206, -0.022, 0.888, 0.47200000000000003, 192.0, 0.0, 0.0, 0.0, 0.0, 0.0, 0.0, 0.0, 0.0, 0.0, 1.695771197375166E9, 0.0, 2023-09-26 18:33:17.375
254.0, 42599.899184691814, 65712.8099456799, -30364.286048923263, -18874.59532911722, -21775.27061406024, -3921.2112332834286, -187500.02235174447, -2021.1564923711412, 15141.362266702923, -22058.221347119972, -187500.02235174447, 4342.3180988214135, -2583.7275485667647, -6091.744433849387, 1677.9007527709905, -22668.75924691668, -0.022, 0.888, 0.47200000000000003, 192.0, 0.0, 0.0, 0.0, 0.0, 0.0, 0.0, 0.0, 0.0, 0.0, 1.695771197375169E9, 0.0, 2023-09-26 18:33:17.375
0.0, 42597.77576896856, 65749.0197716975, -30377.004191518332, -18881.725535598463, -21780.232701329318, -3925.30160251875, -187500.02235174447, -1997.0389601038648, 15133.494452654655, -22064.12220765617, -187500.02235174447, 4348.196607613159, -2594.970476027784, -6106.809509612264, 1690.2165639658647, -22678.705773199294, -0.022, 0.888, 0.47200000000000003, 192.0, 0.0, 0.0, 0.0, 0.0, 0.0, 0.0, 0.0, 0.0, 0.0, 1.695771197435433E9, 0.0, 2023-09-26 18:33:17.435
2.0, 42609.62219352987, 65706.81967816588, -30358.228726175872, -18869.70029708151, -21769.414457012947, -3922.3735239951047, -187500.02235174447, -2032.5558820433478, 15146.033781294082, -22052.633411006143, -187500.02235174447, 4350.320023336413, -2580.7994700431195, -6095.365416451146, 1675.8667440255576, -22677.38702027643, -0.024, 0.888, 0.47200000000000003, 192.0, 127.5, 32.0, 13.5, 96.0, 7.0, 96.0, 0.0, 0.0, 0.0, 1.695771197435443E9, 0.0, 2023-09-26 18:33:17.435
4.0, 42586.62224848536, 65755.05474270043, -30387.420104434506, -18897.88584683965, -21795.387184070016, -3940.0537538592525, -187500.02235174447, -2009.4441782765603, 15139.797644591052, -22056.612021519188, -187500.02235174447, 4354.164523382727, -2590.6118858589994, -6103.166175266048, 1688.4284244094401, -22677.96816563227, -0.024, 0.888, 0.47200000000000003, 192.0, 0.0, 0.0, 0.0, 0.0, 0.0, 0.0, 0.0, 0.0, 0.0, 1.695771197435446E9, 0.0, 2023-09-26 18:33:17.435
6.0, 42604.034257416046, 65712.89935265773, -30359.05574072072, -18864.201767945502, -21762.463064487347, -3918.193747781962, -187500.02235174447, -2023.190501116574, 15124.911382783817, -22072.638222293645, -187500.02235174447, 4336.99838364105, -2590.388368414446, -6114.297344004792, 1675.5091161142727, -22689.032279137646, -0.024, 0.888, 0.47200000000000003, 192.0, 0.0, 0.0, 0.0, 0.0, 0.0, 0.0, 0.0, 0.0, 0.0, 1.695771197435449E9, 0.0, 2023-09-26 18:33:17.435
8.0, 42589.7514927091, 65742.71657976111, -30375.886604295567, -18886.799381589815, -21784.5912914981, -3931.9624223664314, -187500.02235174447, -1997.2177740595073, 15147.66545863932, -22058.33310584225, -187500.02235174447, 4349.3588983248355, -2586.7450340682312, -6102.227401998926, 1692.4293866669402, -22667.172273060354, -0.024, 0.888, 0.47200000000000003, 192.0, 0.0, 0.0, 0.0, 0.0, 0.0, 0.0, 0.0, 0.0, 0.0, 1.695771197435452E9, 0.0, 2023-09-26 18:33:17.435
10.0, 42600.10035039191, 65724.96929466359, -30364.44251113445, -18873.567148872276, -21773.326012292626, -3934.734038678889, -187500.02235174447, -2029.873672708711, 15130.5216706421, -22074.158140916603, -187500.02235174447, 4338.451247030645, -2597.4291679178677, -6114.342047493702, 1699.5819448926384, -22678.504607499195, -0.024, 0.888, 0.47200000000000003, 192.0, 0.0, 0.0, 0.0, 0.0, 0.0, 0.0, 0.0, 0.0, 0.0, 1.695771197435455E9, 0.0, 2023-09-26 18:33:17.435
12.0, 42594.89239393382, 65746.35991410732, -30375.05958975072, -18889.59334964673, -21789.240454344806, -3939.0479253587637, -187500.02235174447, -2001.6210677172028, 15146.726685372198, -22055.673248252064, -187500.02235174447, 4340.284090075981, -2582.65466483291, -6103.501451432879, 1684.6733313409486, -22667.95458411629, -0.022, 0.888, 0.466, 192.0, 127.5, 40.0, 13.5, 96.0, 7.0, 72.0, 0.0, 0.0, 0.0, 1.695771197435459E9, 0.0, 2023-09-26 18:33:17.435
14.0, 42599.22863235815, 65737.97800993657, -30373.562022872215, -18884.564207144285, -21787.02763164373, -3946.6698702180233, -187500.02235174447, -2050.638443307691, 15130.096987497449, -22078.65084155212, -187500.02235174447, 4335.187892340171, -2596.8256708175745, -6124.400332498591, 1690.1942122214095, -22688.96522390428, -0.022, 0.888, 0.466, 192.0, 0.0, 0.0, 0.0, 0.0, 0.0, 0.0, 0.0, 0.0, 0.0, 1.695771197495731E9, 0.0, 2023-09-26 18:33:17.495
16.0, 42599.966239925176, 65738.82737622588, -30372.042104249253, -18890.21919849148, -21789.30750957817, -3940.1878643259843, -187500.02235174447, -2017.7590272139344, 15145.89967082735, -22067.31850711328, -187500.02235174447, 4327.655354458732, -2583.615789844488, -6110.989285825406, 1663.1262496860327, -22680.985651133735, -0.022, 0.888, 0.466, 192.0, 0.0, 0.0, 0.0, 0.0, 0.0, 0.0, 0.0, 0.0, 0.0, 1.695771197495743E9, 0.0, 2023-09-26 18:33:17.495
18.0, 42610.873891219366, 65727.69620748714, -30356.48529010836, -18872.98600351644, -21768.967422123842, -3927.3132595197276, -187500.02235174447, -2032.645289021169, 15138.970630046206, -22076.259204895403, -187500.02235174447, 4335.85844467383, -2590.2542579477144, -6119.281783018325, 1695.33511344613, -22684.427819779852, -0.022, 0.888, 0.466, 192.0, 0.0, 0.0, 0.0, 0.0, 0.0, 0.0, 0.0, 0.0, 0.0, 1.695771197495747E9, 0.0, 2023-09-26 18:33:17.495
20.0, 42591.8525566879, 65736.45809131362, -30376.82537756269, -18897.371756717177, -21792.7943817132, -3933.6388032005793, -187500.02235174447, -2012.774588200401, 15144.267993482114, -22062.669344266575, -187500.02235174447, 4327.342430036358, -2576.0609002185943, -6102.137995021105, 1677.6772353264375, -22668.647488194405, -0.022, 0.888, 0.466, 192.0, 0.0, 0.0, 0.0, 0.0, 0.0, 0.0, 0.0, 0.0, 0.0, 1.69577119749575E9, 0.0, 2023-09-26 18:33:17.495
22.0, 42599.4521498027, 65745.08586467337, -30368.309362925218, -18886.77702984536, -21784.45718103137, -3933.750561922856, -187500.02235174447, -2041.2730623809175, 15128.04062700756, -22083.4117631211, -187500.02235174447, 4328.303555047936, -2595.5739731280773, -6119.8852801186185, 1694.9104303014792, -22688.048802381614, -0.024, 0.888, 0.466, 192.0, 127.5, 32.0, 13.5, 96.0, 7.0, 72.0, 0.0, 0.0, 0.0, 1.695771197495753E9, 0.0, 2023-09-26 18:33:17.495
24.0, 42600.39092306983, 65722.68941672915, -30362.430854133472, -18883.06664026578, -21780.65738447397, -3921.367695494616, -187500.02235174447, -2015.5015010239485, 15148.067790039515, -22064.233966378448, -187500.02235174447, 4319.005229354529, -2576.0832519630494, -6097.175907752026, 1660.3546333735746, -22676.62706096495, -0.024, 0.888, 0.466, 192.0, 0.0, 0.0, 0.0, 0.0, 0.0, 0.0, 0.0, 0.0, 0.0, 1.695771197495756E9, 0.0, 2023-09-26 18:33:17.495
26.0, 42604.928327194255, 65740.8166814824, -30358.184022686964, -18873.053058749803, -21772.63310821451, -3920.3171635052163, -187500.02235174447, -2009.8018061878452, 15139.797644591052, -22070.98419320395, -187500.02235174447, 4336.797217940953, -2584.3086939226027, -6105.669570645043, 1708.3438287191188, -22672.268470796167, -0.024, 0.888, 0.466, 192.0, 0.0, 0.0, 0.0, 0.0, 0.0, 0.0, 0.0, 0.0, 0.0, 1.69577119749576E9, 0.0, 2023-09-26 18:33:17.495
28.0, 42606.604708028404, 65710.44066076764, -30356.61940057509, -18875.332936684244, -21775.181207082416, -3919.445445471459, -187500.02235174447, -2007.678390464591, 15151.688772641275, -22057.5060912974, -187500.02235174447, 4327.543595736456, -2567.4778303477565, -6086.983512280406, 1675.9337992589235, -22661.696095668805, -0.024, 0.888, 0.466, 192.0, 0.0, 0.0, 0.0, 0.0, 0.0, 0.0, 0.0, 0.0, 0.0, 1.695771197495763E9, 0.0, 2023-09-26 18:33:17.495
30.0, 42593.43953054423, 65748.37157110829, -30372.57854611618, -18885.905311811606, -21788.771067711245, -3933.2811752892944, -187500.02235174447, -2015.5238527684037, 15133.315638699012, -22069.956012959006, -187500.02235174447, 4345.983784912084, -2586.7003305793205, -6106.630695656621, 1712.9259363324568, -22668.312212027577, -0.024, 0.888, 0.466, 192.0, 0.0, 0.0, 0.0, 0.0, 0.0, 0.0, 0.0, 0.0, 0.0, 1.695771197555986E9, 0.0, 2023-09-26 18:33:17.555
32.0, 42595.87587068986, 65719.33665506085, -30367.68351408047, -18877.21048321849, -21781.21617808535, -3919.5572041937357, -187500.02235174447, -2015.5015010239485, 15131.639257864865, -22068.436094336044, -187500.02235174447, 4326.582470724878, -2585.068653234083, -6099.433433942013, 1668.9600549888678, -22667.999287605202, -0.026000000000000002, 0.886, 0.468, 192.0, 127.5, 24.0, 13.5, 88.0, 7.0, 80.0, 0.0, 0.0, 0.0, 1.695771197555995E9, 0.0, 2023-09-26 18:33:17.555
34.0, 42600.726199236655, 65744.77294025099, -30369.494005381348, -18873.701259339006, -21779.271576317737, -3921.8817856170876, -187500.02235174447, -2002.9621723845212, 15135.99784803365, -22063.205786133505, -187500.02235174447, 4347.838979701874, -2585.068653234083, -6096.594762396188, 1711.6742386429596, -22655.661124665872, -0.026000000000000002, 0.886, 0.468, 192.0, 0.0, 0.0, 0.0, 0.0, 0.0, 0.0, 0.0, 0.0, 0.0, 1.695771197555999E9, 0.0, 2023-09-26 18:33:17.555
36.0, 42605.39771382782, 65700.27061704047, -30365.180118701475, -18868.62741334765, -21776.70112570538, -3914.528061691292, -187500.02235174447, -2009.198309087552, 15142.636316136875, -22053.147501128617, -187500.02235174447, 4333.779732439486, -2573.8033740286082, -6080.210933710448, 1674.3915288915073, -22654.275316509644, -0.026000000000000002, 0.886, 0.468, 192.0, 0.0, 0.0, 0.0, 0.0, 0.0, 0.0, 0.0, 0.0, 0.0, 1.695771197556002E9, 0.0, 2023-09-26 18:33:17.556
38.0, 42587.739835708126, 65765.8729870168, -30389.431761435484, -18892.29791072582, -21804.21612312986, -3946.803980684755, -187500.02235174447, -2018.9436696700657, 15120.530440870578, -22078.740248529943, -187500.02235174447, 4341.871063932307, -2597.272705706681, -6115.124358549638, 1705.5498606622054, -22678.124627843456, -0.026000000000000002, 0.886, 0.468, 192.0, 0.0, 0.0, 0.0, 0.0, 0.0, 0.0, 0.0, 0.0, 0.0, 1.695771197556005E9, 0.0, 2023-09-26 18:33:17.556
40.0, 42612.81849298698, 65718.12966086026, -30357.28995290875, -18866.68281158004, -21782.132599608016, -3930.867186888121, -187500.02235174447, -2028.6890302525796, 15130.968705531206, -22064.03280067835, -187500.02235174447, 4328.460017259124, -2589.7625195696974, -6097.600590896677, 1658.5441420726947, -22676.76117143168, -0.026000000000000002, 0.886, 0.468, 192.0, 0.0, 0.0, 0.0, 0.0, 0.0, 0.0, 0.0, 0.0, 0.0, 1.695771197556008E9, 0.0, 2023-09-26 18:33:17.556
42.0, 42613.19847264272, 65750.9196699762, -30362.184984944462, -18870.75082907091, -21785.999451398784, -3934.845797401166, -187500.02235174447, -2005.0855881077753, 15136.422531178301, -22061.261184365892, -187500.02235174447, 4357.561988539933, -2589.427243402868, -6103.121471777138, 1698.0843780141329, -22669.563909717075, -0.016, 0.886, 0.468, 192.0, 127.5, 64.0, 13.5, 88.0, 7.0, 80.0, 0.0, 0.0, 0.0, 1.695771197556011E9, 0.0, 2023-09-26 18:33:17.556
44.0, 42624.575510570474, 65700.58354146285, -30350.67383654998, -18860.804302788296, -21774.51065474876, -3928.497901975859, -187500.02235174447, -2020.485940037482, 15154.303926742547, -22052.342838328226, -187500.02235174447, 4352.532846037489, -2569.4671356042786, -6091.342102449192, 1675.5091161142727, -22671.217938806767, -0.016, 0.886, 0.468, 192.0, 0.0, 0.0, 0.0, 0.0, 0.0, 0.0, 0.0, 0.0, 0.0, 1.69577119761533E9, 0.0, 2023-09-26 18:33:17.615
46.0, 42617.73587676715, 65741.66604777171, -30360.754473299323, -18874.952957028505, -21789.151047366984, -3939.7855329257886, -187500.02235174447, -2001.7551781839345, 15150.95116507425, -22054.756826729397, -187500.02235174447, 4365.698023521665, -2575.9938449852284, -6099.679303131021, 1700.788939093225, -22672.022601607157, -0.016, 0.886, 0.468, 192.0, 0.0, 0.0, 0.0, 0.0, 0.0, 0.0, 0.0, 0.0, 0.0, 1.695771197615343E9, 0.0, 2023-09-26 18:33:17.615
48.0, 42607.521129551074, 65714.37456779178, -30362.16263320001, -18880.987928031438, -21792.97319566884, -3951.095515620174, -187500.02235174447, -2038.5014460684595, 15141.42932193629, -22062.535233799845, -187500.02235174447, 4345.3132325784245, -2581.9170572658845, -6106.0942537896935, 1681.9017150284906, -22689.702831471306, -0.016, 0.886, 0.468, 192.0, 0.0, 0.0, 0.0, 0.0, 0.0, 0.0, 0.0, 0.0, 0.0, 1.695771197615347E9, 0.0, 2023-09-26 18:33:17.615
50.0, 42608.72812375166, 65746.11404491831, -30355.747682541336, -18878.283366952346, -21791.654442745978, -3942.7583149383445, -187500.02235174447, -2005.487919507971, 15137.227193978692, -22064.971573945473, -187500.02235174447, 4346.207302356637, -2586.588571857044, -6110.341085236202, 1683.8016133071917, -22692.80972395059, -0.016, 0.886, 0.468, 192.0, 0.0, 0.0, 0.0, 0.0, 0.0, 0.0, 0.0, 0.0, 0.0, 1.69577119761535E9, 0.0, 2023-09-26 18:33:17.615
52.0, 42613.734914509645, 65709.50188750052, -30346.695226036936, -18866.503997624397, -21781.03736412971, -3931.0460008437635, -187500.02235174447, -2020.7318092264902, 15154.370981975911, -22053.16985287307, -187500.02235174447, 4347.056668645939, -2572.5069728502003, -6093.107890261161, 1684.338055174119, -22680.29274705562, -0.022, 0.894, 0.462, 192.0, 127.5, 40.0, 13.5, 120.0, 7.0, 56.0, 0.0, 0.0, 0.0, 1.695771197615353E9, 0.0, 2023-09-26 18:33:17.615
54.0, 42584.54353625102, 65767.70583006213, -30377.33946768516, -18898.198771262025, -21810.02757668824, -3954.582387755202, -187500.02235174447, -2008.6395154761692, 15130.789891575563, -22070.89478622613, -187500.02235174447, 4338.80887494193, -2596.646856861932, -6115.97372483894, 1684.5168691297615, -22693.100296628512, -0.022, 0.894, 0.462, 192.0, 0.0, 0.0, 0.0, 0.0, 0.0, 0.0, 0.0, 0.0, 0.0, 1.695771197615357E9, 0.0, 2023-09-26 18:33:17.615
56.0, 42609.264565618585, 65717.34734980433, -30348.259848148806, -18865.34170691272, -21775.650593715978, -3924.385180996082, -187500.02235174447, -2023.7269429835014, 15147.28547898358, -22062.714047755486, -187500.02235174447, 4337.378363296791, -2578.65370257541, -6101.06511128725, 1680.627665594538, -22687.624119236963, -0.022, 0.894, 0.462, 192.0, 0.0, 0.0, 0.0, 0.0, 0.0, 0.0, 0.0, 0.0, 0.0, 1.69577119761536E9, 0.0, 2023-09-26 18:33:17.615
58.0, 42581.32488504945, 65762.2743561595, -30375.752493828833, -18898.44464045103, -21804.104364407583, -3937.5727102247133, -187500.02235174447, -1992.5686112128035, 15146.61492664992, -22065.910347212597, -187500.02235174447, 4336.3278313073915, -2584.9568945118067, -6105.714274133954, 1686.5732296196497, -22676.112970842478, -0.022, 0.894, 0.462, 192.0, 0.0, 0.0, 0.0, 0.0, 0.0, 0.0, 0.0, 0.0, 0.0, 1.695771197615363E9, 0.0, 2023-09-26 18:33:17.615
60.0, 42587.47161477466, 65743.85651872832, -30363.079054722675, -18884.87713156666, -21789.419268300448, -3930.420151999015, -187500.02235174447, -2028.0855331522864, 15133.740321843663, -22087.479780611968, -187500.02235174447, 4319.161691565716, -2598.7032173518205, -6121.025219085839, 1683.2875231847195, -22690.060459382592, -0.022, 0.894, 0.462, 192.0, 0.0, 0.0, 0.0, 0.0, 0.0, 0.0, 0.0, 0.0, 0.0, 1.695771197675119E9, 0.0, 2023-09-26 18:33:17.675
62.0, 42582.37541703885, 65753.7136380331, -30364.934249512466, -18894.80130610482, -21793.688451491413, -3925.815692641222, -187500.02235174447, -2000.771701427901, 15147.3748859614, -22073.733457771952, -187500.02235174447, 4314.154900807726, -2588.8908015359407, -6110.452843958479, 1665.8308107651249, -22682.34910754551, -0.022, 0.892, 0.464, 192.0, 127.5, 40.0, 13.5, 112.0, 7.0, 64.0, 0.0, 0.0, 0.0, 1.695771197675129E9, 0.0, 2023-09-26 18:33:17.675
64.0, 42580.386111782325, 65745.73406526257, -30362.229688433374, -18893.37079445968, -21784.74775370929, -3924.1393118070737, -187500.02235174447, -2022.095265638264, 15145.162063260326, -22076.03568745085, -187500.02235174447, 4318.938174121163, -2592.690598093343, -6110.698713147487, 1689.4789563988397, -22679.219863321767, -0.022, 0.892, 0.464, 192.0, 0.0, 0.0, 0.0, 0.0, 0.0, 0.0, 0.0, 0.0, 0.0, 1.695771197675132E9, 0.0, 2023-09-26 18:33:17.675
66.0, 42568.42792849874, 65745.75641700703, -30358.87692676508, -18893.527256670866, -21783.5407595087, -3911.778797123289, -187500.02235174447, -1993.7979571578453, 15142.390446947868, -22079.813132263796, -187500.02235174447, 4298.978066322573, -2594.389330671946, -6109.06703580225, 1661.9416072299014, -22678.795180177116, -0.022, 0.892, 0.464, 192.0, 0.0, 0.0, 0.0, 0.0, 0.0, 0.0, 0.0, 0.0, 0.0, 1.695771197675136E9, 0.0, 2023-09-26 18:33:17.675
68.0, 42560.71657666166, 65745.30938211792, -30361.402673888526, -18896.65650089461, -21783.339593808603, -3913.4104744685264, -187500.02235174447, -2013.1098643672306, 15141.071694025004, -22076.058039195304, -187500.02235174447, 4309.550441449934, -2597.4738714067785, -6104.082596788717, 1696.6091628800825, -22672.782560918637, -0.022, 0.892, 0.464, 192.0, 0.0, 0.0, 0.0, 0.0, 0.0, 0.0, 0.0, 0.0, 0.0, 1.695771197675139E9, 0.0, 2023-09-26 18:33:17.675
70.0, 42556.84972487089, 65741.15195764923, -30366.565926857704, -18902.043271308336, -21788.614605500057, -3907.263744743317, -187500.02235174447, -1994.3343990247727, 15138.680057368287, -22077.89088224064, -187500.02235174447, 4291.959618563606, -2601.1842609863593, -6103.479099688423, 1665.920217742946, -22680.67272671136, -0.022, 0.892, 0.464, 192.0, 0.0, 0.0, 0.0, 0.0, 0.0, 0.0, 0.0, 0.0, 0.0, 1.695771197675143E9, 0.0, 2023-09-26 18:33:17.675
72.0, 42563.46584122966, 65750.33852462037, -30358.608705831615, -18887.425230434565, -21778.466913517346, -3900.938201062465, -187500.02235174447, -2002.7386549399682, 15136.064903267015, -22076.393315362136, -187500.02235174447, 4311.696208917643, -2609.1861855013594, -6102.786195610309, 1698.4867094143283, -22679.73395344424, -0.026000000000000002, 0.888, 0.464, 192.0, 127.5, 24.0, 13.5, 96.0, 7.0, 64.0, 0.0, 0.0, 0.0, 1.695771197675148E9, 0.0, 2023-09-26 18:33:17.675
74.0, 42559.688396416714, 65732.4124255672, -30366.85649953562, -18895.40480320511, -21788.189922355406, -3902.078140029686, -187500.02235174447, -1998.0671403488088, 15142.681019625787, -22063.183434389048, -187500.02235174447, 4310.131586805772, -2598.099720251527, -6085.39653842408, 1664.4450026088957, -22673.0507818521, -0.026000000000000002, 0.888, 0.464, 192.0, 0.0, 0.0, 0.0, 0.0, 0.0, 0.0, 0.0, 0.0, 0.0, 1.695771197735415E9, 0.0, 2023-09-26 18:33:17.735
76.0, 42561.588294695415, 65755.05474270043, -30367.28118268027, -18892.767297359384, -21787.675832232933, -3914.0363233132753, -187500.02235174447, -2020.5529952708478, 15126.721874084697, -22079.09787644123, -187500.02235174447, 4321.687438689165, -2620.160892028915, -6107.658875901566, 1694.172822734454, -22687.31119481459, -0.026000000000000002, 0.888, 0.464, 192.0, 0.0, 0.0, 0.0, 0.0, 0.0, 0.0, 0.0, 0.0, 0.0, 1.695771197735427E9, 0.0, 2023-09-26 18:33:17.735
78.0, 42557.810849882466, 65742.22484138308, -30368.10819722512, -18898.5116956844, -21794.82839045863, -3915.2880210027724, -187500.02235174447, -2002.6939514510575, 15136.847214322952, -22068.905480969606, -187500.02235174447, 4312.411464740213, -2604.6934848658425, -6096.952390307473, 1653.8502757370802, -22685.120723857966, -0.026000000000000002, 0.888, 0.464, 192.0, 0.0, 0.0, 0.0, 0.0, 0.0, 0.0, 0.0, 0.0, 0.0, 1.69577119773543E9, 0.0, 2023-09-26 18:33:17.735
80.0, 42579.11206234837, 65760.32975439189, -30346.427005103473, -18871.1531604711, -21772.677811703423, -3899.0606545282194, -187500.02235174447, -1990.0875675782643, 15132.421568920801, -22078.360268874203, -187500.02235174447, 4329.1082178483275, -2615.489377437756, -6109.134091035616, 1699.3137239591747, -22683.220825579265, -0.026000000000000002, 0.888, 0.464, 192.0, 0.0, 0.0, 0.0, 0.0, 0.0, 0.0, 0.0, 0.0, 0.0, 1.695771197735433E9, 0.0, 2023-09-26 18:33:17.735
82.0, 42591.33846656543, 65719.67193122768, -30334.602932286612, -18863.799436545305, -21767.603965712067, -3886.811898566711, -187500.02235174447, -1981.8174221298007, 15163.736362902686, -22045.771425458363, -187500.02235174447, 4337.33365980788, -2575.8597345184967, -6072.454878384457, 1684.8074418076806, -22653.045970564603, -0.024, 0.894, 0.464, 192.0, 127.5, 32.0, 13.5, 120.0, 7.0, 64.0, 0.0, 0.0, 0.0, 1.695771197735436E9, 0.0, 2023-09-26 18:33:17.735
84.0, 42574.55230647949, 65772.80202779795, -30353.11017669561, -18882.26197746539, -21787.60877699957, -3913.745750635356, -187500.02235174447, -1998.6706374491023, 15140.75876960263, -22067.296155368826, -187500.02235174447, 4353.9410059381735, -2604.782891843664, -6103.21087875496, 1727.0298870837555, -22667.127569571447, -0.024, 0.894, 0.464, 192.0, 0.0, 0.0, 0.0, 0.0, 0.0, 0.0, 0.0, 0.0, 0.0, 1.695771197735439E9, 0.0, 2023-09-26 18:33:17.735
86.0, 42591.27141133206, 65726.511565031, -30330.1102316511, -18863.285346422836, -21764.631183699512, -3892.9362765474652, -187500.02235174447, -1996.1001868367418, 15149.878281340396, -22062.691696011032, -187500.02235174447, 4339.926462164696, -2586.1862404568483, -6089.643369870588, 1681.789956306214, -22665.987630604224, -0.024, 0.894, 0.464, 192.0, 0.0, 0.0, 0.0, 0.0, 0.0, 0.0, 0.0, 0.0, 0.0, 1.695771197735443E9, 0.0, 2023-09-26 18:33:17.735
88.0, 42587.024579885554, 65766.20826318362, -30330.423156073473, -18865.811093546283, -21764.050038343674, -3900.3123522177166, -187500.02235174447, -1979.0458058173426, 15149.43124645129, -22061.37294308817, -187500.02235174447, 4358.1654856402265, -2593.2717434491806, -6100.998056053884, 1724.2806225157528, -22659.237403778723, -0.024, 0.894, 0.464, 192.0, 0.0, 0.0, 0.0, 0.0, 0.0, 0.0, 0.0, 0.0, 0.0, 1.695771197735446E9, 0.0, 2023-09-26 18:33:17.735
90.0, 42600.7038474922, 65715.04512012543, -30312.13942910903, -18852.57886082874, -21745.29692474567, -3890.790509079756, -187500.02235174447, -1994.9602478695213, 15163.646955924864, -22050.867623194175, -187500.02235174447, 4348.218959357615, -2572.7751937836642, -6083.228419211915, 1699.5372414037279, -22654.00709557618, -0.024, 0.894, 0.464, 192.0, 0.0, 0.0, 0.0, 0.0, 0.0, 0.0, 0.0, 0.0, 0.0, 1.695771197795719E9, 0.0, 2023-09-26 18:33:17.795
92.0, 42571.646579700304, 65776.06538248842, -30344.616513802594, -18891.806172347806, -21778.39985828398, -3924.385180996082, -187500.02235174447, -1989.5734774557923, 15154.14746453136, -22061.909384955095, -187500.02235174447, 4358.9925001850725, -2586.543868368133, -6103.479099688423, 1732.8189888976801, -22660.645563679405, -0.024, 0.892, 0.47000000000000003, 192.0, 127.5, 32.0, 13.5, 112.0, 7.0, 88.0, 0.0, 0.0, 0.0, 1.695771197795728E9, 0.0, 2023-09-26 18:33:17.795
94.0, 42584.11885310637, 65736.21222212461, -30328.61266477259, -18876.24935820691, -21760.183186552906, -3910.7953203672555, -187500.02235174447, -2012.774588200401, 15152.605194163943, -22076.683888040054, -187500.02235174447, 4329.465845759612, -2587.527345124167, -6112.6656666595545, 1694.0387122677223, -22679.19751157731, -0.024, 0.892, 0.47000000000000003, 192.0, 0.0, 0.0, 0.0, 0.0, 0.0, 0.0, 0.0, 0.0, 0.0, 1.695771197795732E9, 0.0, 2023-09-26 18:33:17.795
96.0, 42563.71171041867, 65789.81170532844, -30354.652447063025, -18902.892637597637, -21782.959614152864, -3927.201500797451, -187500.02235174447, -1993.8650123912112, 15139.685885868776, -22081.08718169775, -187500.02235174447, 4337.177197596693, -2595.350455683524, -6122.455730730979, 1712.4565496988953, -22677.118799342967, -0.024, 0.892, 0.47000000000000003, 192.0, 0.0, 0.0, 0.0, 0.0, 0.0, 0.0, 0.0, 0.0, 0.0, 1.695771197795735E9, 0.0, 2023-09-26 18:33:17.795
98.0, 42584.297667062005, 65745.37643735128, -30340.14616491153, -18880.853817564705, -21761.434884242404, -3911.1082447896297, -187500.02235174447, -2020.7541609709456, 15146.816092350018, -22080.148408430625, -187500.02235174447, 4324.548461979444, -2586.0521299901166, -6116.219594027948, 1686.3497121750966, -22686.148904102913, -0.024, 0.892, 0.47000000000000003, 192.0, 0.0, 0.0, 0.0, 0.0, 0.0, 0.0, 0.0, 0.0, 0.0, 1.695771197795738E9, 0.0, 2023-09-26 18:33:17.795
100.0, 42574.932286135234, 65782.61444361383, -30347.365778370593, -18894.3095677268, -21778.511617006257, -3916.874994859099, -187500.02235174447, -1989.484070477971, 15144.267993482114, -22071.87826298216, -187500.02235174447, 4337.534825507978, -2592.9364672823513, -6112.643314915099, 1702.6441338830155, -22679.10810459949, -0.024, 0.892, 0.47000000000000003, 192.0, 0.0, 0.0, 0.0, 0.0, 0.0, 0.0, 0.0, 0.0, 0.0, 1.695771197795741E9, 0.0, 2023-09-26 18:33:17.795
102.0, 42577.9497716367, 65751.41140835422, -30347.544592326238, -18885.72649785596, -21769.97325062433, -3912.7175703904118, -187500.02235174447, -2024.2186813615183, 15140.110569013426, -22072.07942868226, -187500.02235174447, 4331.879834160785, -2591.5953626150326, -6110.229326513926, 1691.4459099109067, -22683.421991279363, -0.026000000000000002, 0.896, 0.466, 192.0, 127.5, 24.0, 14.0, 0.0, 7.0, 72.0, 0.0, 0.0, 0.0, 1.695771197795744E9, 0.0, 2023-09-26 18:33:17.795
104.0, 42562.504716218085, 65779.30638543444, -30365.515394868304, -18906.111288799202, -21785.887692676508, -3921.814730383722, -187500.02235174447, -1998.000085115443, 15134.276763710592, -22076.683888040054, -187500.02235174447, 4326.493063747056, -2595.015179516695, -6115.906669605573, 1686.9755610198451, -22681.700906956306, -0.026000000000000002, 0.896, 0.466, 192.0, 0.0, 0.0, 0.0, 0.0, 0.0, 0.0, 0.0, 0.0, 0.0, 1.695771197856006E9, 0.0, 2023-09-26 18:33:17.856
106.0, 42576.22868731364, 65746.82930074088, -30360.687418065958, -18891.716765369983, -21770.442637257893, -3916.20444252544, -187500.02235174447, -2029.2031203750516, 15128.75588283013, -22081.869492753685, -187500.02235174447, 4323.162653823216, -2596.780967328664, -6116.756035894876, 1686.0591394971777, -22690.82041869407, -0.026000000000000002, 0.896, 0.466, 192.0, 0.0, 0.0, 0.0, 0.0, 0.0, 0.0, 0.0, 0.0, 0.0, 1.695771197856018E9, 0.0, 2023-09-26 18:33:17.856
108.0, 42576.00516986909, 65759.34627763585, -30363.481386122872, -18899.562227673796, -21775.31531754915, -3912.516404690314, -187500.02235174447, -1995.4966897364486, 15133.09212125446, -22077.5109025849, -187500.02235174447, 4318.982877610073, -2593.875240549474, -6114.520861449345, 1677.721938815348, -22689.68047972685, -0.026000000000000002, 0.896, 0.466, 192.0, 0.0, 0.0, 0.0, 0.0, 0.0, 0.0, 0.0, 0.0, 0.0, 1.695771197856021E9, 0.0, 2023-09-26 18:33:17.856
110.0, 42569.81373665497, 65744.46001582862, -30370.499833881837, -18904.345500987234, -21779.092762362096, -3924.4745879739035, -187500.02235174447, -2029.9407279420768, 15126.431301406777, -22077.533254329355, -187500.02235174447, 4322.447398000646, -2597.675037106876, -6113.470329459945, 1693.010532022778, -22693.21205535079, -0.026000000000000002, 0.896, 0.466, 192.0, 0.0, 0.0, 0.0, 0.0, 0.0, 0.0, 0.0, 0.0, 0.0, 1.695771197856024E9, 0.0, 2023-09-26 18:33:17.856
112.0, 42549.13837303381, 65762.9225567487, -30383.709714854926, -18917.30951277131, -21795.58834977011, -3927.939108364476, -187500.02235174447, -2009.6900474655686, 15111.410929132811, -22088.217388178993, -187500.02235174447, 4304.387188480758, -2608.6273918899765, -6125.204995298982, 1664.5120578422616, -22704.902017700915, -0.022, 0.892, 0.468, 192.0, 127.5, 40.0, 13.5, 112.0, 7.0, 80.0, 0.0, 0.0, 0.0, 1.695771197856028E9, 0.0, 2023-09-26 18:33:17.856
114.0, 42566.08099533093, 65749.98089670908, -30361.693246566447, -18892.052041536816, -21774.041268115197, -3910.236526755873, -187500.02235174447, -2018.6978004810574, 15117.736472813664, -22081.824789264774, -187500.02235174447, 4318.267621787503, -2602.0112755312057, -6114.342047493702, 1690.6412471105157, -22690.64160473843, -0.022, 0.892, 0.468, 192.0, 0.0, 0.0, 0.0, 0.0, 0.0, 0.0, 0.0, 0.0, 0.0, 1.695771197856031E9, 0.0, 2023-09-26 18:33:17.856
116.0, 42552.80405912448, 65756.77582702349, -30367.48234838037, -18905.798364376828, -21789.195750855895, -3917.232622770384, -187500.02235174447, -1999.7882246718675, 15114.070786722994, -22073.912271727597, -187500.02235174447, 4313.32788626288, -2598.524403396178, -6108.6200009131435, 1667.66365381046, -22680.940947644824, -0.022, 0.892, 0.468, 192.0, 0.0, 0.0, 0.0, 0.0, 0.0, 0.0, 0.0, 0.0, 0.0, 1.695771197856034E9, 0.0, 2023-09-26 18:33:17.856
118.0, 42555.150992292285, 65765.94004225016, -30367.10236872463, -18906.178344032567, -21790.760372967765, -3929.391971754071, -187500.02235174447, -2028.6219750192138, 15103.543115084543, -22081.444809609035, -187500.02235174447, 4322.961488123118, -2609.6332203904653, -6118.320658006747, 1696.1621279909764, -22688.026450637157, -0.022, 0.892, 0.468, 192.0, 0.0, 0.0, 0.0, 0.0, 0.0, 0.0, 0.0, 0.0, 0.0, 1.695771197856037E9, 0.0, 2023-09-26 18:33:17.856
120.0, 42560.94009410621, 65756.28408864548, -30364.107234967618, -18903.630245164662, -21793.17436136894, -3918.39491348206, -187500.02235174447, -2005.487919507971, 15109.175754687281, -22074.60517580571, -187500.02235174447, 4308.723426905087, -2601.9218685533847, -6109.6705329025435, 1658.7453077727923, -22687.73587795924, -0.022, 0.892, 0.468, 192.0, 0.0, 0.0, 0.0, 0.0, 0.0, 0.0, 0.0, 0.0, 0.0, 1.695771197915426E9, 0.0, 2023-09-26 18:33:17.915
122.0, 42577.256867558586, 65761.08971370336, -30345.309417880708, -18875.668212851073, -21775.583538482613, -3902.480471429881, -187500.02235174447, -2002.3139717953172, 15109.712196554208, -22069.106646669705, -187500.02235174447, 4335.701982462643, -2601.3854266864573, -6105.4460532004905, 1697.9949710363117, -22675.77769467565, -0.028, 0.894, 0.47000000000000003, 192.0, 127.5, 16.0, 13.5, 120.0, 7.0, 88.0, 0.0, 0.0, 0.0, 1.695771197915434E9, 0.0, 2023-09-26 18:33:17.915
124.0, 42557.90025686029, 65765.64946957225, -30370.276316437285, -18905.46308821, -21800.662195761466, -3917.1879192814736, -187500.02235174447, -2005.0632363633201, 15113.154365200326, -22062.915213455584, -187500.02235174447, 4325.554290479933, -2596.691560350843, -6097.734701363409, 1668.8035927776807, -22673.54252023012, -0.028, 0.894, 0.47000000000000003, 192.0, 0.0, 0.0, 0.0, 0.0, 0.0, 0.0, 0.0, 0.0, 0.0, 1.695771197915438E9, 0.0, 2023-09-26 18:33:17.915
126.0, 42553.0946318024, 65793.36563269683, -30368.443473391948, -18898.64580615113, -21794.73898348081, -3915.802111125244, -187500.02235174447, -2015.0768178792976, 15096.032928947561, -22083.143542187638, -187500.02235174447, 4319.2510985435365, -2616.226985004781, -6118.722989406942, 1696.6985698579037, -22686.931215158846, -0.028, 0.894, 0.47000000000000003, 192.0, 0.0, 0.0, 0.0, 0.0, 0.0, 0.0, 0.0, 0.0, 0.0, 1.695771197915441E9, 0.0, 2023-09-26 18:33:17.915
128.0, 42555.8438963704, 65767.39290563976, -30368.845804792145, -18899.27165499588, -21797.197675370895, -3914.7739308803, -187500.02235174447, -2023.1457976276636, 15104.526591840577, -22074.247547894425, -187500.02235174447, 4303.627229169278, -2606.7274936112753, -6108.754111379875, 1658.7676595172477, -22685.612462235986, -0.028, 0.894, 0.47000000000000003, 192.0, 0.0, 0.0, 0.0, 0.0, 0.0, 0.0, 0.0, 0.0, 0.0, 1.695771197915444E9, 0.0, 2023-09-26 18:33:17.915
130.0, 42562.59412319591, 65789.81170532844, -30363.168461700498, -18888.87809382416, -21784.211311842362, -3911.2200035119063, -187500.02235174447, -2011.7911114443675, 15104.303074396024, -22078.494379340933, -187500.02235174447, 4322.223880556093, -2613.321258225591, -6116.532518450323, 1692.8764215560464, -22685.768924447173, -0.028, 0.894, 0.47000000000000003, 192.0, 0.0, 0.0, 0.0, 0.0, 0.0, 0.0, 0.0, 0.0, 0.0, 1.695771197915448E9, 0.0, 2023-09-26 18:33:17.915
132.0, 42561.25301852859, 65749.19858565314, -30367.370589658094, -18891.962634558993, -21785.820637443143, -3909.5659744222135, -187500.02235174447, -2019.904794681644, 15121.84919379344, -22059.204823876004, -187500.02235174447, 4316.390075253257, -2590.768348070186, -6093.554925150267, 1663.2603601527644, -22675.33065978654, -0.028, 0.896, 0.468, 192.0, 127.5, 16.0, 14.0, 0.0, 7.0, 80.0, 0.0, 0.0, 0.0, 1.695771197915451E9, 0.0, 2023-09-26 18:33:17.915
134.0, 42560.604817939384, 65776.11008597733, -30369.851633292634, -18891.850875836717, -21785.418306042946, -3911.1082447896297, -187500.02235174447, -2004.035056118376, 15109.4663273652, -22072.772332760374, -187500.02235174447, 4326.805988169431, -2608.0238947896833, -6108.39648346859, 1692.8317180671356, -22676.224729564754, -0.028, 0.896, 0.468, 192.0, 0.0, 0.0, 0.0, 0.0, 0.0, 0.0, 0.0, 0.0, 0.0, 1.695771197975231E9, 0.0, 2023-09-26 18:33:17.975
136.0, 42556.02271032604, 65744.66118152872, -30378.546461885748, -18903.809059120307, -21792.526160779737, -3919.1772245379957, -187500.02235174447, -2026.967945929521, 15107.65583606432, -22073.644050794133, -187500.02235174447, 4306.309438503914, -2604.7605400992084, -6104.909611333563, 1662.790973519203, -22681.320927300567, -0.028, 0.896, 0.468, 192.0, 0.0, 0.0, 0.0, 0.0, 0.0, 0.0, 0.0, 0.0, 0.0, 1.695771197975243E9, 0.0, 2023-09-26 18:33:17.975
138.0, 42553.45225971368, 65778.85935054533, -30386.034296278274, -18913.44266098054, -21798.94111143841, -3925.6592304300348, -187500.02235174447, -2008.2818875648843, 15104.459536607212, -22078.382620618657, -187500.02235174447, 4311.584450195366, -2613.7012378813315, -6114.274992260336, 1683.7345580738256, -22689.054630882103, -0.028, 0.896, 0.468, 192.0, 0.0, 0.0, 0.0, 0.0, 0.0, 0.0, 0.0, 0.0, 0.0, 1.695771197975247E9, 0.0, 2023-09-26 18:33:17.975
140.0, 42553.25109401358, 65741.59899253833, -30384.179101488484, -18905.30662599881, -21789.8439514451, -3919.1548727935406, -187500.02235174447, -2033.4052483326493, 15102.604341817421, -22079.008469463406, -187500.02235174447, 4294.284199986959, -2613.0977407810383, -6109.894050347096, 1655.66076703796, -22694.73197397375, -0.028, 0.896, 0.468, 192.0, 0.0, 0.0, 0.0, 0.0, 0.0, 0.0, 0.0, 0.0, 0.0, 1.69577119797525E9, 0.0, 2023-09-26 18:33:17.975
142.0, 42547.79726836649, 65782.56974012492, -30392.76217135932, -18916.326036015278, -21796.84004745961, -3929.168454309518, -187500.02235174447, -2002.068102606309, 15098.22339990418, -22080.595443319733, -187500.02235174447, 4309.013999583006, -2621.6361071629653, -6114.20793702697, 1677.699587070893, -22689.92634891586, -0.028, 0.894, 0.47400000000000003, 192.0, 127.5, 16.0, 13.5, 120.0, 7.0, 104.0, 0.0, 0.0, 0.0, 1.695771197975253E9, 0.0, 2023-09-26 18:33:17.975
144.0, 42569.85844014388, 65733.53001278997, -30369.829281548176, -18888.922797313073, -21771.001430869273, -3909.4318639554817, -187500.02235174447, -2017.7813789583897, 15109.198106431737, -22074.538120572346, -187500.02235174447, 4302.531993690967, -2607.4651011783008, -6101.154518265071, 1659.594674062094, -22685.59011049153, -0.028, 0.894, 0.47400000000000003, 192.0, 0.0, 0.0, 0.0, 0.0, 0.0, 0.0, 0.0, 0.0, 0.0, 1.695771197975257E9, 0.0, 2023-09-26 18:33:17.975
146.0, 42567.91383837627, 65764.19660618265, -30377.58533687417, -18900.009262562904, -21781.618509485546, -3914.7292273913895, -187500.02235174447, -1988.9476286110437, 15117.982342002671, -22062.378771588657, -187500.02235174447, 4320.0110578550175, -2603.5982493875326, -6094.672512373032, 1687.5343546312279, -22666.68053468234, -0.028, 0.894, 0.47400000000000003, 192.0, 0.0, 0.0, 0.0, 0.0, 0.0, 0.0, 0.0, 0.0, 0.0, 1.69577119797526E9, 0.0, 2023-09-26 18:33:17.975
148.0, 42570.90897213328, 65732.7700534785, -30374.366685672605, -18895.74007937194, -21775.807055927165, -3915.578593680691, -187500.02235174447, -2017.06612313582, 15113.84726927844, -22067.027934435362, -187500.02235174447, 4314.400769996735, -2601.899516808929, -6096.393596696091, 1674.8609155250688, -22672.559043474084, -0.028, 0.894, 0.47400000000000003, 192.0, 0.0, 0.0, 0.0, 0.0, 0.0, 0.0, 0.0, 0.0, 0.0, 1.695771197975263E9, 0.0, 2023-09-26 18:33:17.975
150.0, 42554.94982659219, 65772.53380686448, -30388.515339912814, -18913.621474936186, -21795.945977681396, -3927.6038321976466, -187500.02235174447, -1984.1420035531526, 15110.762728543608, -22070.60421354821, -187500.02235174447, 4318.066456087406, -2611.331952969069, -6106.250716000881, 1680.4935551278063, -22672.29082254062, -0.028, 0.894, 0.47400000000000003, 192.0, 0.0, 0.0, 0.0, 0.0, 0.0, 0.0, 0.0, 0.0, 0.0, 1.695771198035475E9, 0.0, 2023-09-26 18:33:18.035
152.0, 42579.6485042153, 65736.41338782471, -30359.838051776656, -18882.01610827638, -21763.5359482212, -3909.9012505890432, -187500.02235174447, -2012.9757539004988, 15108.125222697881, -22074.426361850066, -187500.02235174447, 4317.172386309193, -2607.9344878118623, -6104.663742144554, 1678.5489533601944, -22673.34135453002, -0.032, 0.888, 0.482, 192.0, 127.5, 0.0, 13.5, 96.0, 7.5, 8.0, 0.0, 0.0, 0.0, 1.695771198035495E9, 0.0, 2023-09-26 18:33:18.035
154.0, 42560.56011445047, 65766.6776498172, -30383.374438688094, -18908.614684178196, -21788.234625844318, -3921.1888815389734, -187500.02235174447, -1985.8630878762112, 15120.351626914935, -22060.948259943518, -187500.02235174447, 4330.091694604361, -2596.982133028762, -6093.8231460837305, 1682.3263981731413, -22660.354991001488, -0.032, 0.888, 0.482, 192.0, 0.0, 0.0, 0.0, 0.0, 0.0, 0.0, 0.0, 0.0, 0.0, 1.695771198035498E9, 0.0, 2023-09-26 18:33:18.035
156.0, 42568.6961494322, 65746.78459725197, -30367.370589658094, -18884.094820510723, -21764.96645986634, -3908.7613116218226, -187500.02235174447, -1995.2955240363508, 15102.447879606234, -22078.85200725222, -187500.02235174447, 4323.2967642899475, -2610.4602349353117, -6106.206012511971, 1685.2544766967867, -22670.368572517466, -0.032, 0.888, 0.482, 192.0, 0.0, 0.0, 0.0, 0.0, 0.0, 0.0, 0.0, 0.0, 0.0, 1.695771198035501E9, 0.0, 2023-09-26 18:33:18.035
158.0, 42546.1432392768, 65767.21409168412, -30388.582395146183, -18905.55249518782, -21785.574768254133, -3920.138349549574, -187500.02235174447, -1979.939875595555, 15107.566429086499, -22076.41566710659, -187500.02235174447, 4319.608726454821, -2605.9004790664294, -6104.440224700002, 1680.1582789609765, -22661.38317124643, -0.032, 0.888, 0.482, 192.0, 0.0, 0.0, 0.0, 0.0, 0.0, 0.0, 0.0, 0.0, 0.0, 1.695771198035504E9, 0.0, 2023-09-26 18:33:18.035
160.0, 42573.814698912465, 65737.77684423648, -30363.749607056336, -18870.996698259914, -21753.96940159433, -3898.524212661292, -187500.02235174447, -2001.8892886506665, 15109.801603532029, -22074.247547894425, -187500.02235174447, 4327.610650969822, -2600.1784324858704, -6101.44509094299, 1697.9949710363117, -22658.857424122984, -0.032, 0.888, 0.482, 192.0, 0.0, 0.0, 0.0, 0.0, 0.0, 0.0, 0.0, 0.0, 0.0, 1.695771198035508E9, 0.0, 2023-09-26 18:33:18.035
162.0, 42557.02853882653, 65757.6251933128, -30382.92740379899, -18893.281387481857, -21775.31531754915, -3910.549451178247, -187500.02235174447, -1972.072061547287, 15122.94442927175, -22069.37486760317, -187500.02235174447, 4328.258851559026, -2592.8247085600747, -6091.565619893744, 1690.8200610661581, -22643.39001695991, -0.03, 0.882, 0.488, 192.0, 127.5, 8.0, 13.5, 72.0, 7.5, 32.0, 0.0, 0.0, 0.0, 1.695771198035511E9, 0.0, 2023-09-26 18:33:18.035
164.0, 42560.20248653919, 65761.64850731475, -30379.86521480861, -18885.190055989035, -21769.615622713045, -3915.4444832139593, -187500.02235174447, -2010.025323632398, 15102.269065650591, -22092.352460903225, -187500.02235174447, 4330.784598682475, -2614.528252426178, -6116.197242283492, 1710.4225409534624, -22660.422046234853, -0.03, 0.882, 0.488, 192.0, 0.0, 0.0, 0.0, 0.0, 0.0, 0.0, 0.0, 0.0, 0.0, 1.695771198095618E9, 0.0, 2023-09-26 18:33:18.095
166.0, 42574.015864612564, 65743.67770477268, -30363.168461700498, -18873.92477678356, -21757.076294073617, -3896.624314382591, -187500.02235174447, -1969.6580731461136, 15122.698560082741, -22073.778161260863, -187500.02235174447, 4330.069342859905, -2587.9520282688177, -6091.431509427012, 1676.9619795038677, -22642.942982070803, -0.03, 0.882, 0.488, 192.0, 0.0, 0.0, 0.0, 0.0, 0.0, 0.0, 0.0, 0.0, 0.0, 1.695771198095628E9, 0.0, 2023-09-26 18:33:18.095
168.0, 42566.52803022004, 65763.63781257127, -30370.522185626294, -18879.78093383085, -21764.005334854763, -3911.86820410111, -187500.02235174447, -1998.4024165156386, 15113.668455322797, -22082.674155554076, -187500.02235174447, 4350.521189036512, -2598.4573481628117, -6103.389692710602, 1722.6712969149705, -22642.317133226054, -0.03, 0.882, 0.488, 192.0, 0.0, 0.0, 0.0, 0.0, 0.0, 0.0, 0.0, 0.0, 0.0, 1.695771198095632E9, 0.0, 2023-09-26 18:33:18.095
170.0, 42564.13639356332, 65753.31130663292, -30373.159691472018, -18880.496189653422, -21766.039343600198, -3906.324971476194, -187500.02235174447, -1993.6191432022028, 15109.734548298664, -22086.049268966828, -187500.02235174447, 4327.633002714277, -2598.256182462714, -6103.412044455057, 1680.8735347835463, -22646.653371650384, -0.03, 0.882, 0.488, 192.0, 0.0, 0.0, 0.0, 0.0, 0.0, 0.0, 0.0, 0.0, 0.0, 1.695771198095635E9, 0.0, 2023-09-26 18:33:18.095
172.0, 42569.210239554675, 65766.99057423956, -30369.046970492243, -18871.17551221556, -21763.223023798826, -3903.1510237635407, -187500.02235174447, -1996.5695734703033, 15109.019292476094, -22082.875321254174, -187500.02235174447, 4347.3025378349475, -2602.458310420312, -6102.316808976747, 1714.825834611158, -22641.110139025466, -0.03, 0.88, 0.486, 192.0, 127.5, 8.0, 13.5, 64.0, 7.5, 24.0, 0.0, 0.0, 0.0, 1.695771198095638E9, 0.0, 2023-09-26 18:33:18.095
174.0, 42566.684492431224, 65747.09752167434, -30367.77292105829, -18870.92964302655, -21766.620488956036, -3900.3123522177166, -187500.02235174447, -1983.2255820304852, 15117.736472813664, -22067.519672813378, -187500.02235174447, 4336.819569685408, -2589.740167825242, -6084.748337834876, 1677.2972556706973, -22637.735025612717, -0.03, 0.88, 0.486, 192.0, 0.0, 0.0, 0.0, 0.0, 0.0, 0.0, 0.0, 0.0, 0.0, 1.695771198095641E9, 0.0, 2023-09-26 18:33:18.095
176.0, 42567.51150697607, 65779.48519939008, -30365.113063468107, -18870.326145926258, -21765.54760522218, -3911.4658727009146, -187500.02235174447, -1988.0535588328314, 15104.526591840577, -22078.60613806321, -187500.02235174447, 4352.778715226497, -2605.073464521583, -6100.68513163151, 1717.9327270904455, -22644.73112162723, -0.03, 0.88, 0.486, 192.0, 0.0, 0.0, 0.0, 0.0, 0.0, 0.0, 0.0, 0.0, 0.0, 1.695771198095645E9, 0.0, 2023-09-26 18:33:18.095
178.0, 42574.68641694623, 65741.93426870517, -30351.880830750568, -18860.938413255026, -21753.6341254275, -3899.462985928415, -187500.02235174447, -1984.2314105309738, 15119.859888536917, -22065.105684412203, -187500.02235174447, 4336.864273174318, -2584.711025322798, -6082.8484395561745, 1678.4595463823732, -22641.0430837921, -0.03, 0.88, 0.486, 192.0, 0.0, 0.0, 0.0, 0.0, 0.0, 0.0, 0.0, 0.0, 0.0, 1.695771198095648E9, 0.0, 2023-09-26 18:33:18.095
180.0, 42573.79234716801, 65775.75245806604, -30359.368665143094, -18870.035573248337, -21758.730323163312, -3909.4765674443925, -187500.02235174447, -1982.2421052744514, 15116.909458268818, -22067.94435595803, -187500.02235174447, 4355.595035027866, -2593.294095193636, -6092.258523971859, 1718.5809276796494, -22646.38515071692, -0.03, 0.88, 0.486, 192.0, 0.0, 0.0, 0.0, 0.0, 0.0, 0.0, 0.0, 0.0, 0.0, 1.695771198156057E9, 0.0, 2023-09-26 18:33:18.156
182.0, 42559.44252722771, 65746.42696934068, -30376.758322329322, -18891.716765369983, -21774.242433815292, -3922.5076344618365, -187500.02235174447, -1997.642457204158, 15112.75203380013, -22069.79955074782, -187500.02235174447, 4334.629098728788, -2591.0812724925604, -6089.017521025839, 1677.4090143929739, -22654.610592676472, -0.03, 0.878, 0.486, 192.0, 127.5, 8.0, 13.5, 56.0, 7.5, 24.0, 0.0, 0.0, 0.0, 1.695771198156068E9, 0.0, 2023-09-26 18:33:18.156
184.0, 42563.17526855174, 65783.10618199184, -30374.34433392815, -18889.816867091282, -21772.320183792137, -3923.357000751138, -187500.02235174447, -1991.0486925898426, 15094.490658580144, -22089.42438237958, -187500.02235174447, 4335.657278973732, -2614.260031492714, -6114.789082382808, 1696.273886713253, -22673.006078363193, -0.03, 0.878, 0.486, 192.0, 0.0, 0.0, 0.0, 0.0, 0.0, 0.0, 0.0, 0.0, 0.0, 1.695771198156072E9, 0.0, 2023-09-26 18:33:18.156
186.0, 42573.92645763474, 65737.08394015837, -30365.224822190386, -18875.82467506226, -21759.333820263604, -3904.2686109863057, -187500.02235174447, -1986.9583233545213, 15112.03677797756, -22066.98323094645, -187500.02235174447, 4338.272433075003, -2590.2095544588037, -6089.084576259205, 1670.725842800837, -22655.9964008327, -0.03, 0.878, 0.486, 192.0, 0.0, 0.0, 0.0, 0.0, 0.0, 0.0, 0.0, 0.0, 0.0, 1.695771198156075E9, 0.0, 2023-09-26 18:33:18.156
188.0, 42560.694224917206, 65780.02164125702, -30387.10718001213, -18895.270692738377, -21781.93143390792, -3921.077122816697, -187500.02235174447, -1979.3140267508063, 15105.554772085521, -22070.961841459495, -187500.02235174447, 4353.248101860059, -2600.1784324858704, -6094.694864117488, 1698.6431716255156, -22654.945868843304, -0.03, 0.878, 0.486, 192.0, 0.0, 0.0, 0.0, 0.0, 0.0, 0.0, 0.0, 0.0, 0.0, 1.695771198156078E9, 0.0, 2023-09-26 18:33:18.156
190.0, 42564.06933832995, 65746.9187077187, -30382.592127632157, -18886.844085078726, -21773.638936715, -3912.941087834965, -187500.02235174447, -1999.1400240826638, 15097.061109192504, -22076.59448106223, -187500.02235174447, 4334.785560939975, -2604.425263932379, -6094.7619193508535, 1669.272979411242, -22665.160616059376, -0.03, 0.878, 0.486, 192.0, 0.0, 0.0, 0.0, 0.0, 0.0, 0.0, 0.0, 0.0, 0.0, 1.695771198156081E9, 0.0, 2023-09-26 18:33:18.156
192.0, 42552.82641086893, 65797.2324844876, -30402.82045636421, -18903.40672772011, -21793.55434102468, -3926.4415414859704, -187500.02235174447, -1986.354826254228, 15087.248693376625, -22079.388449119146, -187500.02235174447, 4338.652412730743, -2616.89753733844, -6102.942657821496, 1691.535316888728, -22662.076075324545, -0.034, 0.874, 0.488, 192.0, 127.0, 120.0, 13.5, 40.0, 7.5, 32.0, 0.0, 0.0, 0.0, 1.695771198156085E9, 0.0, 2023-09-26 18:33:18.156
194.0, 42557.252056271085, 65763.59310908236, -30397.47838943939, -18892.722593870472, -21783.138428108505, -3919.9818873383865, -187500.02235174447, -2012.8416434337669, 15088.07570792147, -22081.869492753685, -187500.02235174447, 4325.531938735478, -2613.9918105592506, -6097.82410834123, 1663.528581086228, -22668.53572947213, -0.034, 0.874, 0.488, 192.0, 0.0, 0.0, 0.0, 0.0, 0.0, 0.0, 0.0, 0.0, 0.0, 1.695771198215399E9, 0.0, 2023-09-26 18:33:18.215
196.0, 42559.688396416714, 65787.46477216063, -30393.186854503972, -18888.676928124063, -21780.858550174064, -3910.8623756006214, -187500.02235174447, -1980.1857447845632, 15091.808449245507, -22080.70720204201, -187500.02235174447, 4331.455151016135, -2616.3610954715127, -6099.835765342208, 1674.8609155250688, -22661.539633457618, -0.034, 0.874, 0.488, 192.0, 0.0, 0.0, 0.0, 0.0, 0.0, 0.0, 0.0, 0.0, 0.0, 1.695771198215414E9, 0.0, 2023-09-26 18:33:18.215
198.0, 42560.62716968384, 65753.19954791064, -30386.883662567576, -18882.127866998657, -21773.370715781537, -3907.353151721138, -187500.02235174447, -2006.4043410306385, 15097.865771992896, -22073.37582986067, -187500.02235174447, 4331.298688804947, -2603.2853249651585, -6087.363491936147, 1678.146621959999, -22654.18590953182, -0.034, 0.874, 0.488, 192.0, 0.0, 0.0, 0.0, 0.0, 0.0, 0.0, 0.0, 0.0, 0.0, 1.695771198215418E9, 0.0, 2023-09-26 18:33:18.215
200.0, 42546.94790207719, 65789.7222983506, -30398.886549340077, -18897.2599979949, -21787.40761129947, -3914.7739308803, -187500.02235174447, -1978.6658261616024, 15088.455687577212, -22084.059963710304, -187500.02235174447, 4323.989668368062, -2618.5292146836778, -6103.054416543772, 1683.0416539957112, -22657.449264222298, -0.034, 0.874, 0.488, 192.0, 0.0, 0.0, 0.0, 0.0, 0.0, 0.0, 0.0, 0.0, 0.0, 1.695771198215421E9, 0.0, 2023-09-26 18:33:18.215
202.0, 42554.86041961437, 65765.44830387215, -30388.06830502371, -18884.854779822206, -21776.723477449832, -3908.8954220885544, -187500.02235174447, -2006.3372857972727, 15092.858981234907, -22079.857835752708, -187500.02235174447, 4326.805988169431, -2609.9237930683844, -6094.426643184023, 1691.758834333281, -22652.33071474203, -0.036000000000000004, 0.87, 0.496, 192.0, 127.0, 112.0, 13.5, 24.0, 7.5, 64.0, 0.0, 0.0, 0.0, 1.695771198215424E9, 0.0, 2023-09-26 18:33:18.215
204.0, 42551.03827131251, 65783.84378955887, -30394.19268300446, -18892.83435259275, -21785.999451398784, -3909.0965877886524, -187500.02235174447, -1981.9962360854431, 15095.876466736374, -22081.84714100923, -187500.02235174447, 4325.8225114133975, -2610.1249587684824, -6095.611285640155, 1674.793860291703, -22651.660162408374, -0.036000000000000004, 0.87, 0.496, 192.0, 0.0, 0.0, 0.0, 0.0, 0.0, 0.0, 0.0, 0.0, 0.0, 1.695771198215427E9, 0.0, 2023-09-26 18:33:18.215
206.0, 42557.02853882653, 65765.00126898305, -30383.91088055502, -18875.332936684244, -21768.967422123842, -3906.8614133431215, -187500.02235174447, -2010.1147306102193, 15089.237998633147, -22081.42245786458, -187500.02235174447, 4333.600918483844, -2613.4106652034125, -6100.72983512042, 1690.3283226881413, -22653.694171153806, -0.036000000000000004, 0.87, 0.496, 192.0, 0.0, 0.0, 0.0, 0.0, 0.0, 0.0, 0.0, 0.0, 0.0, 1.69577119821543E9, 0.0, 2023-09-26 18:33:18.215
208.0, 42571.937152378225, 65751.3220013764, -30370.81275830421, -18867.44277089152, -21759.155006307963, -3889.5835148791693, -187500.02235174447, -1966.8641050892004, 15111.969722744194, -22063.339896600235, -187500.02235174447, 4338.607709241833, -2589.449595147323, -6080.0321197548055, 1683.1534127179877, -22634.583429644517, -0.036000000000000004, 0.87, 0.496, 192.0, 0.0, 0.0, 0.0, 0.0, 0.0, 0.0, 0.0, 0.0, 0.0, 1.695771198215434E9, 0.0, 2023-09-26 18:33:18.215
210.0, 42569.72432967715, 65739.49792855953, -30376.803025818233, -18874.729439583953, -21764.251204043772, -3905.4979569313477, -187500.02235174447, -2007.9242596535994, 15113.4672896227, -22065.440960579035, -187500.02235174447, 4351.8846454482855, -2593.2717434491806, -6084.30130294577, 1714.9375933334343, -22634.33756045551, -0.036000000000000004, 0.87, 0.496, 192.0, 0.0, 0.0, 0.0, 0.0, 0.0, 0.0, 0.0, 0.0, 0.0, 1.695771198275208E9, 0.0, 2023-09-26 18:33:18.275
212.0, 42553.00522482458, 65742.26954487199, -30390.92932831399, -18895.58361716075, -21779.942128651397, -3917.5902506816687, -187500.02235174447, -1989.4170152446052, 15110.159231443315, -22076.102742684216, -187500.02235174447, 4335.14318885126, -2596.669208606387, -6092.280875716314, 1676.7831655482253, -22646.474557694743, -0.032, 0.874, 0.494, 192.0, 127.5, 0.0, 13.5, 40.0, 7.5, 56.0, 0.0, 0.0, 0.0, 1.695771198275218E9, 0.0, 2023-09-26 18:33:18.275
214.0, 42554.41338472526, 65749.80208275343, -30389.185892246474, -18891.582654903254, -21775.181207082416, -3926.9556316084427, -187500.02235174447, -2017.0437713913645, 15100.123298182882, -22086.988042233952, -187500.02235174447, 4342.0275261434945, -2607.5321564116666, -6104.820204355741, 1698.5984681366049, -22659.550328201098, -0.032, 0.874, 0.494, 192.0, 0.0, 0.0, 0.0, 0.0, 0.0, 0.0, 0.0, 0.0, 0.0, 1.695771198275221E9, 0.0, 2023-09-26 18:33:18.275
216.0, 42555.3968614813, 65745.73406526257, -30381.765113087313, -18889.615701391187, -21773.102494848074, -3918.841948371166, -187500.02235174447, -1995.6978554365464, 15104.392481373845, -22083.098838698726, -187500.02235174447, 4329.957584137629, -2601.0277987751724, -6102.406215954568, 1665.47318285384, -22663.640697436418, -0.032, 0.874, 0.494, 192.0, 0.0, 0.0, 0.0, 0.0, 0.0, 0.0, 0.0, 0.0, 0.0, 1.695771198275224E9, 0.0, 2023-09-26 18:33:18.275
218.0, 42559.71074816117, 65755.63588805628, -30374.187871716964, -18882.105515254203, -21767.06752384514, -3921.0547710722417, -187500.02235174447, -1996.1225385811972, 15104.638350562855, -22081.46716135349, -187500.02235174447, 4346.296709334459, -2598.65851386291, -6101.422739198535, 1708.5673461636718, -22651.123720541447, -0.032, 0.874, 0.494, 192.0, 0.0, 0.0, 0.0, 0.0, 0.0, 0.0, 0.0, 0.0, 0.0, 1.695771198275227E9, 0.0, 2023-09-26 18:33:18.275
220.0, 42552.13350679082, 65737.39686458073, -30384.40261893304, -18894.711899126996, -21780.925605407432, -3928.4755502314033, -187500.02235174447, -1998.648285704647, 15113.444937878245, -22074.873396739174, -187500.02235174447, 4331.879834160785, -2587.7732143131752, -6092.34793094968, 1674.6150463360605, -22647.212165261768, -0.032, 0.874, 0.494, 192.0, 0.0, 0.0, 0.0, 0.0, 0.0, 0.0, 0.0, 0.0, 0.0, 1.695771198275231E9, 0.0, 2023-09-26 18:33:18.275
222.0, 42530.072335013436, 65785.69898434865, -30407.804895377743, -18911.945094102037, -21803.254998118282, -3952.7718964543224, -187500.02235174447, -2023.8610534502334, 15082.241902618636, -22105.539990131856, -187500.02235174447, 4330.628136471288, -2620.8984995959404, -6126.970783110951, 1696.3409419466188, -22669.58626146153, -0.032, 0.874, 0.488, 192.0, 127.5, 0.0, 13.5, 40.0, 7.5, 32.0, 0.0, 0.0, 0.0, 1.695771198275234E9, 0.0, 2023-09-26 18:33:18.275
224.0, 42552.4464312132, 65752.26077464352, -30389.789389346766, -18893.30373922631, -21782.73609670831, -3929.2802130317946, -187500.02235174447, -2015.5685562573144, 15084.879408464361, -22101.42726915208, -187500.02235174447, 4310.600973439333, -2611.8236913470855, -6116.554870194777, 1644.7307639993148, -22669.496854483707, -0.032, 0.874, 0.488, 192.0, 0.0, 0.0, 0.0, 0.0, 0.0, 0.0, 0.0, 0.0, 0.0, 1.695771198335629E9, 0.0, 2023-09-26 18:33:18.335
226.0, 42558.57080919395, 65771.68444057518, -30384.82730207769, -18885.391221689133, -21772.051962858674, -3924.4298844849927, -187500.02235174447, -1992.8815356351777, 15098.290455137547, -22084.08231545476, -187500.02235174447, 4343.435686044179, -2602.7935865871414, -6105.691922389498, 1699.559593148183, -22651.86132810847, -0.032, 0.874, 0.488, 192.0, 0.0, 0.0, 0.0, 0.0, 0.0, 0.0, 0.0, 0.0, 0.0, 1.695771198335641E9, 0.0, 2023-09-26 18:33:18.335
228.0, 42557.453221971184, 65734.60289652382, -30385.743723600357, -18887.559340901298, -21770.286175046705, -3922.8876141175765, -187500.02235174447, -2002.0904543507643, 15109.622789576388, -22074.448713594524, -187500.02235174447, 4330.985764382573, -2588.197897457826, -6092.638503627599, 1669.6082555780717, -22652.174252530844, -0.032, 0.874, 0.488, 192.0, 0.0, 0.0, 0.0, 0.0, 0.0, 0.0, 0.0, 0.0, 0.0, 1.695771198335645E9, 0.0, 2023-09-26 18:33:18.335
230.0, 42545.47268694314, 65767.05762947293, -30395.91376732752, -18896.567093916787, -21779.048058873184, -3935.717515434923, -187500.02235174447, -2001.6434194616581, 15086.198161387225, -22094.207655693015, -187500.02235174447, 4338.138322608272, -2611.287249480158, -6118.432416729023, 1699.4478344259066, -22664.691229425818, -0.032, 0.874, 0.488, 192.0, 0.0, 0.0, 0.0, 0.0, 0.0, 0.0, 0.0, 0.0, 0.0, 1.695771198335648E9, 0.0, 2023-09-26 18:33:18.335
232.0, 42555.016881825555, 65727.27152434249, -30388.62709863509, -18889.615701391187, -21769.816788413144, -3924.9886780963757, -187500.02235174447, -2006.940782897566, 15100.6150365609, -22080.08135319726, -187500.02235174447, 4329.488197504067, -2593.5623161270996, -6100.595724653688, 1665.3167206426526, -22655.325848499044, -0.032, 0.872, 0.486, 192.0, 127.5, 0.0, 13.5, 32.0, 7.5, 24.0, 0.0, 0.0, 0.0, 1.695771198335651E9, 0.0, 2023-09-26 18:33:18.335
234.0, 42549.87598060083, 65762.83314977087, -30398.864197595623, -18896.07535553877, -21781.909082163464, -3930.8895386325767, -187500.02235174447, -1993.909715880122, 15091.517876567588, -22086.51865560039, -187500.02235174447, 4341.044049387461, -2608.2250604897813, -6111.7268933924315, 1690.7753575772474, -22659.796197390104, -0.032, 0.872, 0.486, 192.0, 0.0, 0.0, 0.0, 0.0, 0.0, 0.0, 0.0, 0.0, 0.0, 1.695771198335655E9, 0.0, 2023-09-26 18:33:18.335
236.0, 42554.27927425853, 65723.40467255171, -30401.38994471907, -18894.823657849272, -21782.31141356366, -3929.0790473316965, -187500.02235174447, -2018.5413382698703, 15099.631559804864, -22073.93462347205, -187500.02235174447, 4330.739895193565, -2593.450557404823, -6095.119547262138, 1657.5606653166612, -22658.835072378526, -0.032, 0.872, 0.486, 192.0, 0.0, 0.0, 0.0, 0.0, 0.0, 0.0, 0.0, 0.0, 0.0, 1.695771198335658E9, 0.0, 2023-09-26 18:33:18.335
238.0, 42553.072280057946, 65758.36280087981, -30401.322889485706, -18899.249303251425, -21788.301681077683, -3933.839968900677, -187500.02235174447, -2003.2527450624402, 15087.673376521276, -22090.474914368977, -187500.02235174447, 4332.773903938997, -2617.0539995496274, -6113.626791671132, 1668.1777439329321, -22670.547386473107, -0.032, 0.872, 0.486, 192.0, 0.0, 0.0, 0.0, 0.0, 0.0, 0.0, 0.0, 0.0, 0.0, 1.695771198335661E9, 0.0, 2023-09-26 18:33:18.335
240.0, 42562.37060575135, 65720.25307658353, -30390.705810869436, -18887.64874787912, -21774.6894687044, -3922.418227484015, -187500.02235174447, -2019.100131881253, 15100.145649927337, -22078.27086189638, -187500.02235174447, 4327.387133525269, -2598.3679411849907, -6098.941695563995, 1649.5140373127506, -22666.881700382437, -0.032, 0.872, 0.486, 192.0, 0.0, 0.0, 0.0, 0.0, 0.0, 0.0, 0.0, 0.0, 0.0, 1.69577119839677E9, 0.0, 2023-09-26 18:33:18.396
242.0, 42549.67481490074, 65754.65241130024, -30404.608595920636, -18908.257056266913, -21790.223931100838, -3933.325878778205, -187500.02235174447, -1990.8475268897448, 15103.431356362267, -22076.102742684216, -187500.02235174447, 4338.183026097182, -2597.60798187351, -6099.96987580894, 1672.4469271238956, -22657.069284566558, -0.032, 0.874, 0.488, 192.0, 127.5, 0.0, 13.5, 40.0, 7.5, 32.0, 0.0, 0.0, 0.0, 1.695771198396784E9, 0.0, 2023-09-26 18:33:18.396
