%OpenBCI Raw EXG Data
%Number of channels = 16
%Sample Rate = 125 Hz
%Board = OpenBCI_GUI$BoardCytonSerialDaisy
Sample Index, EXG Channel 0, EXG Channel 1, EXG Channel 2, EXG Channel 3, EXG Channel 4, EXG Channel 5, EXG Channel 6, EXG Channel 7, EXG Channel 8, EXG Channel 9, EXG Channel 10, EXG Channel 11, EXG Channel 12, EXG Channel 13, EXG Channel 14, EXG Channel 15, Accel Channel 0, Accel Channel 1, Accel Channel 2, Other, Other, Other, Other, Other, Other, Other, Analog Channel 0, Analog Channel 1, Analog Channel 2, Timestamp, Other, Timestamp (Formatted)
208.0, -46189.09760583611, 13255.612642242033, -41749.21414246728, -25798.942243926795, -10762.946100586189, -14532.076064595709, -187500.02235174447, -5697.303199446583, -8557.208902503122, 21616.059138305085, -24865.73456117327, -19395.12275399241, 791.7211403514315, -7447.735362975045, -22509.994806050636, -37654.21809604384, 0.0, 0.0, 0.0, 192.0, 0.0, 0.0, 0.0, 0.0, 0.0, 0.0, 0.0, 0.0, 0.0, 1.696032979168784E9, 0.0, 2023-09-29 19:16:19.168
210.0, -46192.56212622668, 13202.907228816419, -41734.23847368223, -25788.10164786597, -10756.620556905336, -14524.275305780806, -187500.02235174447, -5688.36250166446, -8571.469315465607, 21573.70258256228, -24921.725681033815, -19390.18301846779, 800.7065416224649, -7450.506979287503, -22514.01812005259, -37666.37744502752, 0.0, 0.0, 0.0, 192.0, 0.0, 0.0, 0.0, 0.0, 0.0, 0.0, 0.0, 0.0, 0.0, 1.696032979168791E9, 0.0, 2023-09-29 19:16:19.168
212.0, -46185.18605055643, 13258.428962043401, -41734.68550857133, -25799.746906727185, -10753.826588848424, -14529.147986072063, -187500.02235174447, -5692.609333110969, -8549.676364621684, 21623.703434908803, -24854.312819756607, -19390.093611489967, 784.702692592465, -7453.6362235112465, -22509.50306767262, -37649.16660179694, 0.0, 0.0, 0.0, 192.0, 0.0, 0.0, 0.0, 0.0, 0.0, 0.0, 0.0, 0.0, 0.0, 1.696032979168795E9, 0.0, 2023-09-29 19:16:19.168
214.0, -46192.71858843787, 13182.924769273373, -41733.94790100431, -25796.483552036712, -10748.685687623703, -14529.460910494437, -187500.02235174447, -5684.674463829335, -8559.801704859938, 21586.823056557543, -24917.45649784285, -19384.997413754158, 791.1176432511381, -7443.041496639431, -22504.429221681265, -37658.576686212626, 0.11, 1.006, 0.178, 192.0, 1.5, 56.0, 15.5, 56.0, 2.5, 72.0, 0.0, 0.0, 0.0, 1.696032979168798E9, 0.0, 2023-09-29 19:16:19.168
216.0, -46190.97515237035, 13301.098442208582, -41744.78849706513, -25797.735249726207, -10761.783809874512, -14532.903079140555, -187500.02235174447, -5693.145774977896, -8547.30707970942, 21598.669481118857, -24844.031017307167, -19396.9779487822, 790.1118147506494, -7435.955993647099, -22513.12405027438, -37644.42803197241, 0.11, 1.006, 0.178, 192.0, 0.0, 0.0, 0.0, 0.0, 0.0, 0.0, 0.0, 0.0, 0.0, 1.696032979168801E9, 0.0, 2023-09-29 19:16:19.168
218.0, -46188.136480824534, 13196.492278157744, -41727.62235732345, -25803.81492421805, -10750.384420202307, -14526.130500570596, -187500.02235174447, -5681.902847516876, -8567.64716716375, 21570.953317994277, -24907.666433771425, -19392.328785935497, 792.8387275741968, -7453.18918862214, -22511.492372929144, -37667.89736365049, 0.11, 1.006, 0.178, 192.0, 0.0, 0.0, 0.0, 0.0, 0.0, 0.0, 0.0, 0.0, 0.0, 1.696032979168805E9, 0.0, 2023-09-29 19:16:19.168
220.0, -46183.62142844456, 13311.380244658023, -41729.812828280075, -25782.647822218874, -10755.525321427027, -14532.992486118375, -187500.02235174447, -5683.22160043974, -8541.272108706487, 21608.61600740147, -24844.410996962906, -19374.91677700481, 794.671570619532, -7426.501205742504, -22498.39425067833, -37636.35905222405, 0.11, 1.006, 0.178, 192.0, 0.0, 0.0, 0.0, 0.0, 0.0, 0.0, 0.0, 0.0, 0.0, 1.696032979168808E9, 0.0, 2023-09-29 19:16:19.168
222.0, -46188.270591291264, 13193.765365334197, -41731.22098818076, -25811.034537677115, -10757.447571450182, -14539.385085032593, -187500.02235174447, -5691.55880112157, -8565.50139969604, 21581.771562310645, -24910.46040182834, -19378.291890417564, 803.9698963129397, -7466.063793428397, -22510.75476536212, -37667.98677062831, 0.11, 1.006, 0.178, 192.0, 0.0, 0.0, 0.0, 0.0, 0.0, 0.0, 0.0, 0.0, 0.0, 1.696032979168811E9, 0.0, 2023-09-29 19:16:19.168
224.0, -46183.152041810994, 13311.089671980104, -41727.35413638999, -25788.90631066636, -10758.051068550476, -14525.549355214758, -187500.02235174447, -5689.882420287421, -8550.458675677619, 21616.17089702736, -24860.280735526176, -19379.722402062704, 791.2964572067806, -7442.370944305771, -22508.988977550147, -37640.963511581846, 0.10200000000000001, 1.012, 0.17400000000000002, 192.0, 1.5, 24.0, 15.5, 80.0, 2.5, 56.0, 0.0, 0.0, 0.0, 1.696032979168814E9, 0.0, 2023-09-29 19:16:19.168
0.0, -23066.95557438798, 6957.0475169476895, -20878.160998602034, -12924.069216736463, -5425.058951980943, -7279.449078971038, -93750.01117587223, -2855.5918163766646, -4281.588409136344, 10794.618522479359, -12441.852681857668, -9692.945741766185, 394.0612547470635, -3722.012486697732, -11260.428876927957, -18828.260162861367, 0.11, 1.01, 0.17, 192.0, 1.5, 56.0, 15.5, 72.0, 2.5, 40.0, 0.0, 0.0, 0.0, 1.696032979266562E9, 0.0, 2023-09-29 19:16:19.266
2.0, -46143.120067491545, 13983.072517284456, -41742.73213657524, -25803.34553758449, -10837.243299155629, -14546.515291513837, -187500.02235174447, -5696.945571535298, -8580.834696392381, 21618.18255402834, -25142.73973020789, -19575.054296857634, 688.4560809679128, -7466.28731087295, -22498.282491956055, -37588.5710225786, 0.11, 1.01, 0.17, 192.0, 0.0, 0.0, 0.0, 0.0, 0.0, 0.0, 0.0, 0.0, 0.0, 1.696032979326867E9, 0.0, 2023-09-29 19:16:19.326
4.0, -46134.022907498234, 13978.043374782012, -41751.002282023706, -25828.334787885524, -10844.19469168123, -14555.813617207245, -187500.02235174447, -5708.36731295196, -8573.212751533121, 21648.960906143297, -25097.365688963615, -19576.35069803604, 688.3443222456362, -7467.360194606805, -22496.31553844399, -37575.96463870581, 0.11, 1.01, 0.17, 192.0, 0.0, 0.0, 0.0, 0.0, 0.0, 0.0, 0.0, 0.0, 0.0, 1.696032979326876E9, 0.0, 2023-09-29 19:16:19.326
6.0, -46145.73522159281, 13961.793656563004, -41744.11794473147, -25801.378584072423, -10839.970211979176, -14548.370486303627, -187500.02235174447, -5698.241972713706, -8581.996987104058, 21631.839469890532, -25141.97977089641, -19576.283642802675, 683.1587175320051, -7470.467087086093, -22490.682898841253, -37584.614763810016, 0.11, 1.01, 0.17, 192.0, 0.0, 0.0, 0.0, 0.0, 0.0, 0.0, 0.0, 0.0, 0.0, 1.69603297932688E9, 0.0, 2023-09-29 19:16:19.326
8.0, -46153.84890483009, 13999.72456690366, -41767.98960780974, -25825.250247150692, -10860.265595944596, -14571.638652281601, -187500.02235174447, -5718.582060168035, -8575.224408534099, 21640.37783627246, -25087.665031870012, -19586.02900338519, 685.550354188723, -7469.505962074514, -22501.232922224157, -37577.95394396233, 0.11800000000000001, 1.006, 0.17, 192.0, 1.5, 88.0, 15.5, 56.0, 2.5, 40.0, 0.0, 0.0, 0.0, 1.696032979326883E9, 0.0, 2023-09-29 19:16:19.326
10.0, -46144.95291053688, 13959.871406539847, -41759.67475887237, -25804.19490387379, -10853.157741207808, -14558.87580619762, -187500.02235174447, -5706.467414673259, -8585.997949361557, 21615.589751671523, -25152.239221601394, -19591.7734017102, 666.1043365126058, -7483.72167154809, -22499.69065185674, -37599.635136083976, 0.11800000000000001, 1.006, 0.17, 192.0, 0.0, 0.0, 0.0, 0.0, 0.0, 0.0, 0.0, 0.0, 0.0, 1.696032979326886E9, 0.0, 2023-09-29 19:16:19.326
12.0, -46146.18225648192, 14013.1579653213, -41770.22478225527, -25810.654558021375, -10865.33944193595, -14566.654213268068, -187500.02235174447, -5722.650077658901, -8570.754059643037, 21639.37200777197, -25091.844808083155, -19583.056221372633, 673.7486331163208, -7465.549703305925, -22502.372861191376, -37579.74208351876, 0.11800000000000001, 1.006, 0.17, 192.0, 0.0, 0.0, 0.0, 0.0, 0.0, 0.0, 0.0, 0.0, 0.0, 1.696032979326889E9, 0.0, 2023-09-29 19:16:19.326
14.0, -46138.60501511157, 13942.749970287083, -41761.77582285116, -25800.48451429421, -10860.645575600336, -14559.479303297914, -187500.02235174447, -5712.882365331932, -8584.165106316223, 21628.03967333313, -25148.618238999636, -19578.697631203846, 672.9886738048403, -7478.200790667629, -22507.02202403808, -37599.9257087619, 0.11800000000000001, 1.006, 0.17, 192.0, 0.0, 0.0, 0.0, 0.0, 0.0, 0.0, 0.0, 0.0, 0.0, 1.696032979326892E9, 0.0, 2023-09-29 19:16:19.326
16.0, -46153.804201341176, 14041.030590657067, -41778.114948047994, -25802.71968873974, -10876.939997308255, -14571.705707514968, -187500.02235174447, -5726.673391660856, -8566.55193168544, 21663.7130574838, -25078.366706176606, -19579.07761085959, 665.3443772011253, -7467.740174262545, -22510.084213028458, -37581.15024341944, 0.11800000000000001, 1.006, 0.17, 192.0, 0.0, 0.0, 0.0, 0.0, 0.0, 0.0, 0.0, 0.0, 0.0, 1.696032979387016E9, 0.0, 2023-09-29 19:16:19.387
18.0, -46145.10937274806, 13946.549766844484, -41766.69320663133, -25818.500020325188, -10861.651404100825, -14565.000184178376, -187500.02235174447, -5719.587888668524, -8591.183554075189, 21610.56060916908, -25149.13232912211, -19594.097983133553, 681.1247087865721, -7495.366930409305, -22518.75668987712, -37609.76047632223, 0.116, 1.01, 0.17200000000000001, 192.0, 1.5, 80.0, 15.5, 72.0, 2.5, 48.0, 0.0, 0.0, 0.0, 1.696032979387029E9, 0.0, 2023-09-29 19:16:19.387
20.0, -46140.661375601456, 14042.572861024484, -41768.61545665449, -25807.145334141893, -10864.24420645764, -14563.815541722244, -187500.02235174447, -5718.2691357456615, -8564.853199106838, 21650.257307321706, -25093.67765112849, -19595.148515122954, 654.8837607960417, -7477.373776122782, -22501.478791413163, -37582.021961453196, 0.116, 1.01, 0.17200000000000001, 192.0, 0.0, 0.0, 0.0, 0.0, 0.0, 0.0, 0.0, 0.0, 0.0, 1.696032979387033E9, 0.0, 2023-09-29 19:16:19.387
22.0, -46154.56416065266, 13923.795690988982, -41764.74860486372, -25818.611779047464, -10860.086781988954, -14560.30631784276, -187500.02235174447, -5715.27400198865, -8583.740423171572, 21597.216617729264, -25154.809672213756, -19599.752974480747, 670.2617609812929, -7493.154107708229, -22505.256236226112, -37604.5748716086, 0.116, 1.01, 0.17200000000000001, 192.0, 0.0, 0.0, 0.0, 0.0, 0.0, 0.0, 0.0, 0.0, 0.0, 1.696032979387036E9, 0.0, 2023-09-29 19:16:19.387
24.0, -46147.724526849335, 14042.572861024484, -41751.896351801915, -25788.638089732896, -10857.762200565601, -14553.444332294981, -187500.02235174447, -5707.9426298073095, -8563.132114783779, 21627.056196577098, -25089.989613293365, -19585.380802795986, 676.4084907065023, -7465.326185861371, -22491.934596530748, -37571.82956598158, 0.116, 1.01, 0.17200000000000001, 192.0, 0.0, 0.0, 0.0, 0.0, 0.0, 0.0, 0.0, 0.0, 0.0, 1.696032979387039E9, 0.0, 2023-09-29 19:16:19.387
26.0, -46145.064669259154, 13930.031827692012, -41753.34921519151, -25810.72161325474, -10856.063467986998, -14561.043925409786, -187500.02235174447, -5709.015513541164, -8577.236065535077, 21616.506173194193, -25131.049767857763, -19579.725811448792, 681.9740750758738, -7487.38735763876, -22488.69359358473, -37588.235746411774, 0.116, 1.01, 0.17200000000000001, 192.0, 0.0, 0.0, 0.0, 0.0, 0.0, 0.0, 0.0, 0.0, 0.0, 1.696032979387042E9, 0.0, 2023-09-29 19:16:19.387
28.0, -46152.060765273665, 14072.859474761424, -41766.96142756479, -25787.028764132116, -10862.701936090223, -14565.02253592283, -187500.02235174447, -5713.754083365689, -8564.003832817536, 21640.62370546147, -25083.597014379146, -19585.53726500717, 671.3569964596029, -7478.804287767922, -22494.68386109875, -37572.500118315234, 0.122, 1.006, 0.17400000000000002, 192.0, 1.5, 104.0, 15.5, 56.0, 2.5, 56.0, 0.0, 0.0, 0.0, 1.696032979387045E9, 0.0, 2023-09-29 19:16:19.387
30.0, -46152.99953854079, 13971.181389234232, -41773.48813694574, -25823.082127938527, -10866.613491369902, -14572.733887759912, -187500.02235174447, -5722.873595103454, -8587.920199384715, 21606.000853300196, -25134.000198125865, -19599.820029714112, 666.0149295347845, -7505.738139836567, -22507.536114160554, -37597.8246447831, 0.122, 1.006, 0.17400000000000002, 192.0, 0.0, 0.0, 0.0, 0.0, 0.0, 0.0, 0.0, 0.0, 0.0, 1.696032979387048E9, 0.0, 2023-09-29 19:16:19.387
32.0, -46139.56614012315, 14075.251111418142, -41763.51925891868, -25786.62643273192, -10856.28698543155, -14555.88067244061, -187500.02235174447, -5701.058292515075, -8573.436268977675, 21623.077586064053, -25109.279168758294, -19592.890988932966, 668.3395109581364, -7486.470936116092, -22499.310672201, -37577.126929417485, 0.122, 1.006, 0.17400000000000002, 192.0, 0.0, 0.0, 0.0, 0.0, 0.0, 0.0, 0.0, 0.0, 0.0, 1.696032979446079E9, 0.0, 2023-09-29 19:16:19.446
34.0, -46146.830457071126, 13944.627516821327, -41758.333654205046, -25823.640921549908, -10851.324898162473, -14559.546358531281, -187500.02235174447, -5706.869746073455, -8576.341995756864, 21625.42451923186, -25140.996294140376, -19583.011517883722, 666.7525371018097, -7498.29500893295, -22494.415640165287, -37589.93447899038, 0.122, 1.006, 0.17400000000000002, 192.0, 0.0, 0.0, 0.0, 0.0, 0.0, 0.0, 0.0, 0.0, 0.0, 1.69603297944609E9, 0.0, 2023-09-29 19:16:19.446
36.0, -46148.39507918299, 14059.291965877053, -41750.711709345785, -25781.239662318192, -10853.00127899662, -14549.242204337384, -187500.02235174447, -5696.7444058352, -8556.001908302535, 21642.613010717992, -25106.708718145936, -19583.10092486154, 679.3589209746028, -7476.233837155562, -22486.97250926167, -37570.80138573663, 0.122, 1.006, 0.17400000000000002, 192.0, 0.0, 0.0, 0.0, 0.0, 0.0, 0.0, 0.0, 0.0, 0.0, 1.696032979446093E9, 0.0, 2023-09-29 19:16:19.446
38.0, -46142.047183757684, 13946.214490677654, -41753.12569774696, -25828.26773265216, -10860.53381687806, -14561.870939954631, -187500.02235174447, -5715.363408966471, -8569.748231142548, 21626.51975471017, -25122.176125309008, -19589.29235807566, 679.9847698193514, -7490.136622206763, -22495.5108756436, -37587.20756616683, 0.122, 1.006, 0.176, 192.0, 1.5, 104.0, 15.5, 56.0, 2.5, 64.0, 0.0, 0.0, 0.0, 1.696032979446097E9, 0.0, 2023-09-29 19:16:19.446
40.0, -46142.628329113526, 14037.275497588576, -41742.039232497125, -25779.04919136157, -10857.069296487487, -14549.756294459856, -187500.02235174447, -5701.46062391527, -8554.973728057592, 21644.19998457432, -25115.716471161424, -19582.78800043917, 681.2364675088487, -7479.743061035045, -22490.63819535234, -37576.501080572736, 0.122, 1.006, 0.176, 192.0, 0.0, 0.0, 0.0, 0.0, 0.0, 0.0, 0.0, 0.0, 0.0, 1.6960329794461E9, 0.0, 2023-09-29 19:16:19.446
42.0, -46147.36689893805, 13975.204703236188, -41755.383223936944, -25821.42809884883, -10875.665947874302, -14564.910777200554, -187500.02235174447, -5722.918298592365, -8572.922178855202, 21635.616914703478, -25110.82143912571, -19589.73939296477, 686.936162344952, -7481.732366291567, -22503.401041436322, -37576.635191039466, 0.122, 1.006, 0.176, 192.0, 0.0, 0.0, 0.0, 0.0, 0.0, 0.0, 0.0, 0.0, 0.0, 1.696032979446103E9, 0.0, 2023-09-29 19:16:19.446
44.0, -46165.18123926893, 14061.661250789315, -41753.93036054735, -25789.241586833192, -10868.669851859791, -14560.328669587216, -187500.02235174447, -5710.982467053231, -8582.93576037118, 21632.487670479735, -25130.133346335097, -19598.83655295808, 657.387156175036, -7491.321264662894, -22508.944274061236, -37581.35140911954, 0.122, 1.006, 0.176, 192.0, 0.0, 0.0, 0.0, 0.0, 0.0, 0.0, 0.0, 0.0, 0.0, 1.696032979446107E9, 0.0, 2023-09-29 19:16:19.446
46.0, -46151.68078561792, 13996.751784891105, -41754.01976752517, -25835.912029255873, -10872.983738539666, -14570.208140636461, -187500.02235174447, -5723.432388714837, -8593.50813549854, 21631.213621045783, -25125.350073021662, -19605.8773524615, 649.5193421267679, -7499.1890787111615, -22514.42045145279, -37590.605031324034, 0.122, 1.006, 0.176, 192.0, 0.0, 0.0, 0.0, 0.0, 0.0, 0.0, 0.0, 0.0, 0.0, 1.696032979506188E9, 0.0, 2023-09-29 19:16:19.506
48.0, -46160.174448510945, 14037.476663288673, -41742.93330227534, -25800.372755571934, -10858.924491277277, -14560.753352731866, -187500.02235174447, -5703.5393361496135, -8588.434289507186, 21623.79284188662, -25154.966134424943, -19603.329253593594, 666.1266882570611, -7505.089939247363, -22508.474887427677, -37590.51562434621, 0.116, 1.012, 0.17200000000000001, 192.0, 1.5, 80.0, 15.5, 80.0, 2.5, 48.0, 0.0, 0.0, 0.0, 1.6960329795062E9, 0.0, 2023-09-29 19:16:19.506
50.0, -46152.194875740395, 14013.20266881021, -41757.841915827026, -25835.35323564449, -10871.955558294721, -14576.55603606177, -187500.02235174447, -5725.220528271262, -8583.427498749197, 21628.844336133523, -25113.77186939381, -19602.949273937855, 662.6845196109438, -7499.569058366902, -22511.805297351515, -37586.58171732208, 0.116, 1.012, 0.17200000000000001, 192.0, 0.0, 0.0, 0.0, 0.0, 0.0, 0.0, 0.0, 0.0, 0.0, 1.696032979506203E9, 0.0, 2023-09-29 19:16:19.506
52.0, -46151.636082129015, 14008.82172689697, -41745.43669765433, -25799.67985149382, -10862.880750045866, -14567.458876068458, -187500.02235174447, -5717.7997491121, -8589.395414518764, 21610.6500161469, -25159.235317615905, -19602.390480326474, 668.2724557247706, -7511.527241650491, -22509.12308801688, -37600.21628143982, 0.116, 1.012, 0.17200000000000001, 192.0, 0.0, 0.0, 0.0, 0.0, 0.0, 0.0, 0.0, 0.0, 0.0, 1.696032979506206E9, 0.0, 2023-09-29 19:16:19.506
54.0, -46147.94804429389, 13996.148287790811, -41752.29868320211, -25817.58359880252, -10869.519218149093, -14575.706669772468, -187500.02235174447, -5730.048505073608, -8582.756946415539, 21630.073682078564, -25115.716471161424, -19596.98135816829, 688.7913571347425, -7502.184212468173, -22506.284416471055, -37586.000571966244, 0.116, 1.012, 0.17200000000000001, 192.0, 0.0, 0.0, 0.0, 0.0, 0.0, 0.0, 0.0, 0.0, 0.0, 1.696032979506209E9, 0.0, 2023-09-29 19:16:19.506
56.0, -46156.8440385871, 13979.451534682696, -41748.744755833715, -25798.137581126404, -10857.829255798968, -14573.225626137928, -187500.02235174447, -5720.7501793802, -8586.98142611759, 21602.268111976162, -25158.251840859873, -19602.792811726667, 654.548484629212, -7515.774073097, -22501.54584664653, -37594.114255203516, 0.116, 1.012, 0.17200000000000001, 192.0, 0.0, 0.0, 0.0, 0.0, 0.0, 0.0, 0.0, 0.0, 0.0, 1.696032979506212E9, 0.0, 2023-09-29 19:16:19.506
58.0, -46150.98788153981, 14010.140479819833, -41763.87688682996, -25823.238590149715, -10875.285968218563, -14586.793135022299, -187500.02235174447, -5740.017383100675, -8575.98436784558, 21630.38660650094, -25100.62904365409, -19609.40892808544, 664.740880100832, -7507.414520670715, -22514.442803197242, -37592.59433658056, 0.12, 1.006, 0.17400000000000002, 192.0, 1.5, 96.0, 15.5, 56.0, 2.5, 56.0, 0.0, 0.0, 0.0, 1.696032979506216E9, 0.0, 2023-09-29 19:16:19.506
60.0, -46154.98884379731, 13961.771304818549, -41759.04891002762, -25812.77797374463, -10863.372488423884, -14578.947672718487, -187500.02235174447, -5731.076685318552, -8587.60727496234, 21607.61017890098, -25156.709570492458, -19605.631483272493, 666.0372812792399, -7525.474730190603, -22514.487506686153, -37614.49904614676, 0.12, 1.006, 0.17400000000000002, 192.0, 0.0, 0.0, 0.0, 0.0, 0.0, 0.0, 0.0, 0.0, 0.0, 1.696032979506219E9, 0.0, 2023-09-29 19:16:19.506
62.0, -46153.62538738554, 14029.720607962681, -41773.711654390296, -25820.131697670426, -10875.934168807766, -14589.497696101393, -187500.02235174447, -5738.877444133454, -8573.480972466585, 21639.640228705433, -25096.8739505856, -19605.631483272493, 671.066423781684, -7513.762416096022, -22511.760593862607, -37598.27167967221, 0.12, 1.006, 0.17400000000000002, 192.0, 0.0, 0.0, 0.0, 0.0, 0.0, 0.0, 0.0, 0.0, 0.0, 1.69603297956667E9, 0.0, 2023-09-29 19:16:19.566
64.0, -46161.82847760063, 13973.863598568869, -41767.74373862073, -25817.74006101371, -10868.491037904148, -14581.048736697287, -187500.02235174447, -5734.675316175856, -8592.591713975873, 21597.350728195994, -25159.257669360362, -19614.192201398873, 663.355071944603, -7541.009192587041, -22518.75668987712, -37614.11906649102, 0.12, 1.006, 0.17400000000000002, 192.0, 0.0, 0.0, 0.0, 0.0, 0.0, 0.0, 0.0, 0.0, 0.0, 1.69603297956668E9, 0.0, 2023-09-29 19:16:19.566
66.0, -46154.9441403084, 14036.87316618838, -41767.16259326489, -25809.91695045435, -10865.786476825057, -14579.014727951853, -187500.02235174447, -5733.5353772086355, -8572.139867799267, 21644.93759214134, -25109.122706547107, -19602.524590793204, 668.1383452580387, -7501.156032223229, -22505.569160648487, -37586.73817953327, 0.12, 1.006, 0.17400000000000002, 192.0, 0.0, 0.0, 0.0, 0.0, 0.0, 0.0, 0.0, 0.0, 0.0, 1.696032979566684E9, 0.0, 2023-09-29 19:16:19.566
68.0, -46152.79837284069, 13929.42833059172, -41760.94880830632, -25819.930531970327, -10859.997375011131, -14576.801905250777, -187500.02235174447, -5729.757932395689, -8591.496478497564, 21610.80647835809, -25178.68133529202, -19605.720890250315, 674.1733162609717, -7522.367837711316, -22508.25136998312, -37608.91111003293, 0.122, 0.998, 0.17400000000000002, 192.0, 1.5, 104.0, 15.5, 24.0, 2.5, 56.0, 0.0, 0.0, 0.0, 1.696032979566687E9, 0.0, 2023-09-29 19:16:19.566
70.0, -46150.67495711744, 14031.665209730294, -41759.227723983255, -25805.37954632992, -10867.954596037222, -14580.624053552636, -187500.02235174447, -5733.021287086164, -8574.397393989253, 21638.634400204945, -25114.73299440539, -19611.30882636414, 687.0926245561391, -7507.302761948438, -22509.614826394896, -37587.22991791128, 0.122, 0.998, 0.17400000000000002, 192.0, 0.0, 0.0, 0.0, 0.0, 0.0, 0.0, 0.0, 0.0, 0.0, 1.69603297956669E9, 0.0, 2023-09-29 19:16:19.566
72.0, -46168.26578000376, 13953.255290181076, -41764.32392171907, -25824.087956439016, -10875.621244385391, -14594.705652559478, -187500.02235174447, -5738.430409244348, -8604.572249003917, 21592.679213604835, -25168.6901055205, -19614.035739187686, 646.3677461585696, -7523.10544527834, -22515.918018331293, -37610.185159466884, 0.122, 0.998, 0.17400000000000002, 192.0, 0.0, 0.0, 0.0, 0.0, 0.0, 0.0, 0.0, 0.0, 0.0, 1.696032979566693E9, 0.0, 2023-09-29 19:16:19.566
74.0, -46161.94023632291, 14049.188977383254, -41763.720424618776, -25813.24736037819, -10872.134372250364, -14592.403422880581, -187500.02235174447, -5728.796807384111, -8589.104841840845, 21624.7539668982, -25122.846677642665, -19617.679073533902, 679.7612523747983, -7502.810061312922, -22517.437936954255, -37605.20072045335, 0.122, 0.998, 0.17400000000000002, 192.0, 0.0, 0.0, 0.0, 0.0, 0.0, 0.0, 0.0, 0.0, 0.0, 1.696032979566696E9, 0.0, 2023-09-29 19:16:19.566
76.0, -46158.9451025659, 13933.272830638032, -41768.99543631023, -25834.883849010926, -10871.508523405615, -14591.017614724353, -187500.02235174447, -5723.410036970382, -8608.774376961515, 21613.04165280362, -25173.853358489676, -19619.444861345874, 687.5843629341558, -7498.920857777698, -22512.252332240623, -37620.82458982761, 0.122, 0.998, 0.17400000000000002, 192.0, 0.0, 0.0, 0.0, 0.0, 0.0, 0.0, 0.0, 0.0, 0.0, 1.696032979626763E9, 0.0, 2023-09-29 19:16:19.626
78.0, -46165.85179160259, 14068.813809015013, -41783.501718461725, -25807.614720775455, -10870.614453627402, -14582.591007064702, -187500.02235174447, -5713.262344987673, -8587.65197845125, 21617.04261506112, -25122.265532286827, -19621.97060846932, 692.2782292697703, -7466.063793428397, -22514.755727619617, -37606.58652860958, 0.122, 1.01, 0.178, 192.0, 1.5, 104.0, 15.5, 72.0, 2.5, 72.0, 0.0, 0.0, 0.0, 1.696032979626797E9, 0.0, 2023-09-29 19:16:19.626
80.0, -46158.40866069897, 13958.060915238968, -41787.972067352785, -25841.20939269178, -10865.294738447039, -14571.862169726155, -187500.02235174447, -5702.980542538231, -8610.428406051207, 21604.793859099613, -25161.671657761533, -19625.949218982365, 698.3802555060691, -7475.295063888439, -22519.65075965533, -37622.74683985077, 0.122, 1.01, 0.178, 192.0, 0.0, 0.0, 0.0, 0.0, 0.0, 0.0, 0.0, 0.0, 0.0, 1.696032979626801E9, 0.0, 2023-09-29 19:16:19.626
82.0, -46152.91013156297, 14062.331803122976, -41779.97014283778, -25799.232816604712, -10850.743752806635, -14541.866128667132, -187500.02235174447, -5673.990329979698, -8587.428461006697, 21630.118385567475, -25125.573590466214, -19619.422509601416, 706.6727526989881, -7429.250470310506, -22508.184314749757, -37596.908223260434, 0.122, 1.01, 0.178, 192.0, 0.0, 0.0, 0.0, 0.0, 0.0, 0.0, 0.0, 0.0, 0.0, 1.696032979626804E9, 0.0, 2023-09-29 19:16:19.626
84.0, -46161.493201433805, 13952.85295878088, -41787.30151501912, -25836.87315426745, -10855.549377864525, -14548.169320603529, -187500.02235174447, -5683.534524862114, -8596.995007633568, 21624.150469797907, -25145.801919198268, -19612.202896142353, 710.6513632120327, -7422.924926629655, -22504.92096005928, -37602.83143554109, 0.122, 1.01, 0.178, 192.0, 0.0, 0.0, 0.0, 0.0, 0.0, 0.0, 0.0, 0.0, 0.0, 1.696032979626808E9, 0.0, 2023-09-29 19:16:19.626
86.0, -46174.636027173525, 14088.818620302514, -41797.963297124305, -25806.117153896947, -10855.683488331259, -14540.413265277537, -187500.02235174447, -5682.036957983609, -8587.294350539965, 21648.782092187656, -25118.577494451703, -19622.79762301417, 690.3783309910692, -7423.103740585297, -22509.614826394896, -37593.37664763649, 0.122, 1.01, 0.178, 192.0, 0.0, 0.0, 0.0, 0.0, 0.0, 0.0, 0.0, 0.0, 0.0, 1.696032979626811E9, 0.0, 2023-09-29 19:16:19.626
88.0, -46153.91596006346, 13965.436990909218, -41797.80683491312, -25852.966410275272, -10855.8623022869, -14537.30637279825, -187500.02235174447, -5694.308065689572, -8603.454661781152, 21639.394359516427, -25142.046826129776, -19612.851096731556, 701.643610196544, -7413.358380002783, -22508.854867083417, -37605.625403598, 0.122, 1.004, 0.178, 192.0, 1.5, 104.0, 15.5, 48.0, 2.5, 72.0, 0.0, 0.0, 0.0, 1.696032979626814E9, 0.0, 2023-09-29 19:16:19.626
90.0, -46162.85665784558, 14044.629221514371, -41789.447282486835, -25813.962616200763, -10843.47943585866, -14522.174241802008, -187500.02235174447, -5680.762908549656, -8588.590751718373, 21656.739313213744, -25141.06334937374, -19600.043547158664, 707.8797468995747, -7394.895839082699, -22498.751878589617, -37590.44856911285, 0.122, 1.004, 0.178, 192.0, 0.0, 0.0, 0.0, 0.0, 0.0, 0.0, 0.0, 0.0, 0.0, 1.696032979626817E9, 0.0, 2023-09-29 19:16:19.626
92.0, -46166.00825381378, 14001.825630882458, -41802.41129427091, -25867.092712771027, -10855.661136586803, -14537.596945476169, -187500.02235174447, -5702.287638460117, -8600.146603601766, 21645.675199708367, -25120.96913110842, -19608.380747840496, 705.4210550094909, -7408.977438089542, -22509.793640350537, -37596.707057560336, 0.122, 1.004, 0.178, 192.0, 0.0, 0.0, 0.0, 0.0, 0.0, 0.0, 0.0, 0.0, 0.0, 1.696032979687085E9, 0.0, 2023-09-29 19:16:19.687
94.0, -46155.30176821969, 14061.415381600307, -41789.91666912039, -25832.98395073223, -10843.77000853658, -14518.843831878166, -187500.02235174447, -5686.842583041499, -8603.141737358777, 21633.202926302307, -25141.040997629287, -19607.799602484658, 704.7952061647424, -7412.03962707992, -22506.820858337982, -37598.31638316112, 0.122, 1.004, 0.178, 192.0, 0.0, 0.0, 0.0, 0.0, 0.0, 0.0, 0.0, 0.0, 0.0, 1.696032979687095E9, 0.0, 2023-09-29 19:16:19.687
96.0, -46149.24444547229, 14011.481584487152, -41798.23151805777, -25858.330828944545, -10858.276290688073, -14525.370541259115, -187500.02235174447, -5697.169088979851, -8599.677216968204, 21640.84722290602, -25121.907904375545, -19607.73254725129, 688.9478193459296, -7411.458481724082, -22508.07255602748, -37593.622516825504, 0.122, 1.004, 0.178, 192.0, 0.0, 0.0, 0.0, 0.0, 0.0, 0.0, 0.0, 0.0, 0.0, 1.696032979687098E9, 0.0, 2023-09-29 19:16:19.687
98.0, -46150.27262571724, 14022.143366592332, -41784.08286381756, -25814.141430156404, -10841.400723624316, -14504.650474149046, -187500.02235174447, -5680.9417225052985, -8593.262266309532, 21646.23399331975, -25155.971962925432, -19593.114506377522, 696.0333223382619, -7395.856964094278, -22502.864599569395, -37588.68278130088, 0.128, 0.996, 0.184, 192.0, 2.0, 0.0, 15.5, 16.0, 2.5, 96.0, 0.0, 0.0, 0.0, 1.696032979687102E9, 0.0, 2023-09-29 19:16:19.687
100.0, -46151.97135829584, 14006.452441984708, -41795.77282616768, -25852.049988752606, -10855.214101697697, -14520.274343523306, -187500.02235174447, -5700.879478559432, -8587.584923217884, 21655.800539946624, -25110.597921681157, -19596.73548897928, 700.4142642515021, -7396.549868172392, -22506.932617060258, -37580.09971143004, 0.128, 0.996, 0.184, 192.0, 0.0, 0.0, 0.0, 0.0, 0.0, 0.0, 0.0, 0.0, 0.0, 1.696032979687105E9, 0.0, 2023-09-29 19:16:19.687
102.0, -46161.157925266976, 14019.662322957794, -41784.6640091734, -25829.92176174185, -10842.38420038035, -14518.01681733332, -187500.02235174447, -5691.804670310577, -8593.485783754086, 21626.385644243437, -25151.814538456743, -19601.16113438143, 697.0391508387507, -7398.56152517337, -22502.574026891474, -37593.48840635877, 0.128, 0.996, 0.184, 192.0, 0.0, 0.0, 0.0, 0.0, 0.0, 0.0, 0.0, 0.0, 0.0, 1.696032979687108E9, 0.0, 2023-09-29 19:16:19.687
104.0, -46150.54084665071, 14041.075294145978, -41806.076980361584, -25867.24917498221, -10863.953633779722, -14540.905003655555, -187500.02235174447, -5716.793920611611, -8590.445946508164, 21652.33601955605, -25095.421087196006, -19606.905532706445, 693.8652031260972, -7398.002731561987, -22508.49723917213, -37590.38151387948, 0.128, 0.996, 0.184, 192.0, 0.0, 0.0, 0.0, 0.0, 0.0, 0.0, 0.0, 0.0, 0.0, 1.696032979687111E9, 0.0, 2023-09-29 19:16:19.687
106.0, -46150.29497746169, 13974.28828171352, -41784.97693359577, -25843.601029348498, -10838.696162545224, -14522.576573202203, -187500.02235174447, -5691.759966821667, -8586.98142611759, 21627.45852797729, -25165.873785719134, -19602.189314626376, 695.2733630267815, -7407.770443888956, -22504.60803563691, -37615.9295577919, 0.128, 0.996, 0.184, 192.0, 0.0, 0.0, 0.0, 0.0, 0.0, 0.0, 0.0, 0.0, 0.0, 1.696032979746366E9, 0.0, 2023-09-29 19:16:19.746
108.0, -46161.73907062281, 14035.532061521062, -41798.32092503559, -25853.234631208736, -10852.330726662962, -14533.908907641044, -187500.02235174447, -5696.453833157281, -8580.655882436738, 21641.785996173145, -25103.49006694437, -19610.21359088583, 705.577517220678, -7406.22817352154, -22497.701346600217, -37581.99960970874, 0.124, 0.996, 0.18, 192.0, 1.5, 112.0, 15.5, 16.0, 2.5, 80.0, 0.0, 0.0, 0.0, 1.696032979746378E9, 0.0, 2023-09-29 19:16:19.746
110.0, -46169.02573931524, 13970.801409578493, -41792.33065752157, -25852.184099219336, -10846.295755660029, -14533.573631474213, -187500.02235174447, -5686.17203070784, -8595.385682032786, 21622.22821977475, -25167.88544272011, -19618.573143312115, 681.4152814644912, -7422.56729871837, -22500.83059082396, -37604.329002419596, 0.124, 0.996, 0.18, 192.0, 0.0, 0.0, 0.0, 0.0, 0.0, 0.0, 0.0, 0.0, 0.0, 1.696032979746382E9, 0.0, 2023-09-29 19:16:19.746
112.0, -46166.41058521397, 14031.419340541284, -41808.62507922949, -25861.415369679376, -10860.19854071123, -14549.286907826294, -187500.02235174447, -5699.337208192016, -8587.227295306599, 21632.599429202015, -25113.034261826786, -19631.581858585105, 683.0916622986391, -7418.387522505227, -22511.73824211815, -37594.29306915916, 0.124, 0.996, 0.18, 192.0, 0.0, 0.0, 0.0, 0.0, 0.0, 0.0, 0.0, 0.0, 0.0, 1.696032979746385E9, 0.0, 2023-09-29 19:16:19.746
114.0, -46174.7477858958, 13937.653772551272, -41795.303439534124, -25858.174366733358, -10856.465799387193, -14545.7329804579, -187500.02235174447, -5695.895039545899, -8597.1291181003, 21593.707393849778, -25188.024364474342, -19632.07359696312, 698.3579037616139, -7433.430246523649, -22519.583704421962, -37619.50583690475, 0.124, 0.996, 0.18, 192.0, 0.0, 0.0, 0.0, 0.0, 0.0, 0.0, 0.0, 0.0, 0.0, 1.696032979746389E9, 0.0, 2023-09-29 19:16:19.746
116.0, -46170.83623061612, 14034.280363831564, -41797.203337812825, -25852.11704398597, -10863.260729701607, -14556.819445707733, -187500.02235174447, -5707.830871085032, -8587.227295306599, 21626.251533776707, -25121.59497995317, -19637.192146443387, 685.0139123217956, -7421.963801618076, -22519.248428255134, -37601.69149657387, 0.124, 0.996, 0.18, 192.0, 0.0, 0.0, 0.0, 0.0, 0.0, 0.0, 0.0, 0.0, 0.0, 1.696032979746393E9, 0.0, 2023-09-29 19:16:19.746
118.0, -46171.976169583344, 13945.499234855084, -41789.55904120911, -25857.079131255046, -10859.527988377571, -14553.958422417454, -187500.02235174447, -5706.802690840089, -8605.421615293219, 21594.914388050365, -25185.431562117526, -19638.60030634407, 682.1528890315162, -7438.682906470645, -22520.500125944633, -37625.920787563424, 0.124, 1.002, 0.17200000000000001, 192.0, 1.5, 112.0, 15.5, 40.0, 2.5, 48.0, 0.0, 0.0, 0.0, 1.696032979746396E9, 0.0, 2023-09-29 19:16:19.746
120.0, -46156.77698335374, 14058.196730398742, -41782.7641108947, -25836.49317461171, -10855.974061009176, -14548.728114214911, -187500.02235174447, -5705.528641406137, -8578.487763224573, 21617.24378076122, -25118.041052584776, -19639.136748210996, 687.3608454896028, -7423.126092329752, -22518.577875921474, -37605.33483092008, 0.124, 1.002, 0.17200000000000001, 192.0, 0.0, 0.0, 0.0, 0.0, 0.0, 0.0, 0.0, 0.0, 0.0, 1.696032979746399E9, 0.0, 2023-09-29 19:16:19.746
122.0, -46156.955797309376, 13931.842318992893, -41779.6125149265, -25847.892564283917, -10849.961441750698, -14549.510425270848, -187500.02235174447, -5700.633609370424, -8588.568399973918, 21604.056251532587, -25170.03121018782, -19620.56244856864, 712.7971306797423, -7434.0337436239415, -22511.805297351515, -37620.84694157207, 0.124, 1.002, 0.17200000000000001, 192.0, 0.0, 0.0, 0.0, 0.0, 0.0, 0.0, 0.0, 0.0, 0.0, 1.696032979806273E9, 0.0, 2023-09-29 19:16:19.806
124.0, -46170.81387887167, 14052.631146029371, -41786.854480130016, -25821.2939883821, -10851.950747007222, -14544.458931023948, -187500.02235174447, -5689.748309820689, -8571.871646865804, 21629.224315789263, -25112.833096126687, -19623.35641662555, 688.1655082899938, -7412.017275335465, -22510.106564772912, -37597.22114768281, 0.124, 1.002, 0.17200000000000001, 192.0, 0.0, 0.0, 0.0, 0.0, 0.0, 0.0, 0.0, 0.0, 0.0, 1.696032979806279E9, 0.0, 2023-09-29 19:16:19.806
126.0, -46164.39892821299, 13947.33207790042, -41790.67662843187, -25851.89352654142, -10850.162607450797, -14548.437541536992, -187500.02235174447, -5691.55880112157, -8597.330283800398, 21596.970748540254, -25161.64930601708, -19638.712065066346, 680.901191342019, -7438.571147748369, -22515.180410764267, -37612.7779618237, 0.124, 1.002, 0.17200000000000001, 192.0, 0.0, 0.0, 0.0, 0.0, 0.0, 0.0, 0.0, 0.0, 0.0, 1.696032979806283E9, 0.0, 2023-09-29 19:16:19.806
128.0, -46167.34935848109, 14062.443561845252, -41788.15088130842, -25825.138488428413, -10847.011011482598, -14547.699933969967, -187500.02235174447, -5692.69874008879, -8580.41001324773, 21622.027054074653, -25125.774756166313, -19633.638219074994, 691.6523804250218, -7419.728627172545, -22510.218323495188, -37597.57877559409, 0.122, 1.006, 0.166, 192.0, 1.5, 104.0, 15.5, 56.0, 2.5, 24.0, 0.0, 0.0, 0.0, 1.696032979806286E9, 0.0, 2023-09-29 19:16:19.806
130.0, -46159.548599666196, 13945.56629008845, -41784.10521556201, -25871.74187561773, -10843.94882249222, -14560.887463198598, -187500.02235174447, -5706.51211816217, -8600.12425185731, 21585.705469334778, -25166.007896185864, -19634.867565020035, 678.6213134075778, -7451.602214765813, -22511.78294560706, -37617.51653164822, 0.122, 1.006, 0.166, 192.0, 0.0, 0.0, 0.0, 0.0, 0.0, 0.0, 0.0, 0.0, 0.0, 1.696032979806289E9, 0.0, 2023-09-29 19:16:19.806
132.0, -46162.051995045185, 14044.383352325363, -41763.295741474125, -25828.938284985816, -10839.47847360116, -14549.219852592929, -187500.02235174447, -5696.051501757086, -8581.952283615146, 21631.057158834596, -25141.868012174134, -19630.196050428876, 683.1587175320051, -7439.6663832266795, -22502.574026891474, -37602.80908379663, 0.122, 1.006, 0.166, 192.0, 0.0, 0.0, 0.0, 0.0, 0.0, 0.0, 0.0, 0.0, 0.0, 1.696032979806292E9, 0.0, 2023-09-29 19:16:19.806
134.0, -46159.45919268837, 13940.894775497292, -41756.94784604882, -25859.917802800872, -10843.05475271401, -14560.149855631573, -187500.02235174447, -5702.1311762489295, -8591.138850586278, 21598.13303925193, -25155.860204203156, -19623.736396281292, 703.2305840528708, -7441.52157801647, -22505.904436815315, -37607.190025709875, 0.122, 1.006, 0.166, 192.0, 0.0, 0.0, 0.0, 0.0, 0.0, 0.0, 0.0, 0.0, 0.0, 1.696032979806295E9, 0.0, 2023-09-29 19:16:19.806
136.0, -46152.66426237396, 14054.463989074708, -41759.518296661176, -25825.317302384057, -10844.708781803702, -14553.131407872608, -187500.02235174447, -5694.196306967296, -8581.102917325845, 21603.83273408803, -25134.268419059328, -19632.07359696312, 664.0032725338069, -7445.209615851595, -22508.89957057233, -37595.67887731539, 0.122, 1.006, 0.166, 192.0, 0.0, 0.0, 0.0, 0.0, 0.0, 0.0, 0.0, 0.0, 0.0, 1.696032979866451E9, 0.0, 2023-09-29 19:16:19.866
138.0, -46142.85184655808, 13946.527415100029, -41764.39097695243, -25861.3036109571, -10855.437619142249, -14562.049753910274, -187500.02235174447, -5708.143795507407, -8586.13205982829, 21602.04459453161, -25150.428730300515, -19612.40406184245, 684.8127466216978, -7435.799531435911, -22513.83930609695, -37602.65262158545, 0.126, 1.008, 0.17, 192.0, 1.5, 120.0, 15.5, 64.0, 2.5, 40.0, 0.0, 0.0, 0.0, 1.696032979866458E9, 0.0, 2023-09-29 19:16:19.866
140.0, -46152.79837284069, 14038.929526678268, -41766.11206127549, -25823.283293638622, -10849.201482439219, -14553.466684039437, -187500.02235174447, -5697.191440724307, -8582.265208037521, 21618.786051128634, -25144.41611104204, -19620.31657937963, 679.291865741237, -7439.353458804305, -22514.711024130705, -37594.82951102609, 0.126, 1.008, 0.17, 192.0, 0.0, 0.0, 0.0, 0.0, 0.0, 0.0, 0.0, 0.0, 0.0, 1.696032979866461E9, 0.0, 2023-09-29 19:16:19.866
142.0, -46157.33577696512, 13985.061822540978, -41785.06634057359, -25862.868233068973, -10859.05860174401, -14562.563844032748, -187500.02235174447, -5708.568478652058, -8589.46246975213, 21625.446870976313, -25134.11195684814, -19626.284495149197, 678.8448308521308, -7444.606118751302, -22515.850963097928, -37601.13270296249, 0.126, 1.008, 0.17, 192.0, 0.0, 0.0, 0.0, 0.0, 0.0, 0.0, 0.0, 0.0, 0.0, 1.696032979866464E9, 0.0, 2023-09-29 19:16:19.866
144.0, -46152.08311701812, 14021.67397995877, -41768.257828743204, -25819.304683125578, -10842.272441658073, -14548.884576426099, -187500.02235174447, -5689.256571442673, -8580.78999290347, 21615.053309804596, -25165.829082230222, -19631.179527184908, 692.5017467143234, -7450.417572309682, -22514.107527030414, -37607.614708854526, 0.126, 1.008, 0.17, 192.0, 0.0, 0.0, 0.0, 0.0, 0.0, 0.0, 0.0, 0.0, 0.0, 1.696032979866468E9, 0.0, 2023-09-29 19:16:19.866
146.0, -46159.749765366294, 13989.509819687584, -41780.148956793426, -25845.05389273809, -10851.660174329303, -14562.228567865917, -187500.02235174447, -5698.89017330291, -8574.755021900537, 21612.482859192238, -25131.675616702512, -19624.69752129287, 687.0702728116838, -7429.496339499515, -22510.151268261823, -37599.54572910616, 0.126, 1.008, 0.17, 192.0, 0.0, 0.0, 0.0, 0.0, 0.0, 0.0, 0.0, 0.0, 0.0, 1.696032979866471E9, 0.0, 2023-09-29 19:16:19.866
148.0, -46162.99076831231, 14012.129785076355, -41773.75635787921, -25811.034537677115, -10839.47847360116, -14547.677582225513, -187500.02235174447, -5683.355710906471, -8582.533428970984, 21594.355594438985, -25167.192538641997, -19626.284495149197, 690.4453862244352, -7441.678040227657, -22510.777117106572, -37603.479636130294, 0.122, 1.01, 0.17200000000000001, 192.0, 1.5, 104.0, 15.5, 72.0, 2.5, 48.0, 0.0, 0.0, 0.0, 1.696032979866474E9, 0.0, 2023-09-29 19:16:19.866
150.0, -46150.96552979536, 14009.87225888637, -41787.27916327467, -25839.77888104664, -10855.281156931062, -14563.92730044452, -187500.02235174447, -5707.048560029097, -8575.671443423205, 21616.640283660923, -25129.194573067973, -19631.335989396095, 696.2121362939043, -7423.684885941135, -22510.419489195287, -37593.22018542531, 0.122, 1.01, 0.17200000000000001, 192.0, 0.0, 0.0, 0.0, 0.0, 0.0, 0.0, 0.0, 0.0, 0.0, 1.696032979866477E9, 0.0, 2023-09-29 19:16:19.866
152.0, -46154.31829146365, 14005.513668717584, -41775.92447709137, -25819.461145336765, -10842.987697480643, -14553.667849739535, -187500.02235174447, -5695.068025001053, -8580.544123714462, 21603.743327110213, -25174.434503845514, -19628.96670448383, 685.3715402330805, -7436.067752369375, -22513.36991946339, -37608.70994433283, 0.122, 1.01, 0.17200000000000001, 192.0, 0.0, 0.0, 0.0, 0.0, 0.0, 0.0, 0.0, 0.0, 0.0, 1.696032979926875E9, 0.0, 2023-09-29 19:16:19.926
154.0, -46155.61469264206, 14038.750712722625, -41787.65914293041, -25856.4532824103, -10859.10330523292, -14568.151780146574, -187500.02235174447, -5714.469339188259, -8565.769620629504, 21634.05229259161, -25116.990520595376, -19634.107605708552, 676.743766873332, -7437.475912270059, -22513.191105507747, -37601.06564772912, 0.122, 1.01, 0.17200000000000001, 192.0, 0.0, 0.0, 0.0, 0.0, 0.0, 0.0, 0.0, 0.0, 0.0, 1.696032979926882E9, 0.0, 2023-09-29 19:16:19.926
156.0, -46154.430050185925, 13983.966587062669, -41771.32001773358, -25837.163726945368, -10841.512482346592, -14554.092532884186, -187500.02235174447, -5696.923219790843, -8578.957149858135, 21609.46537369077, -25180.93886148201, -19632.74414929678, 689.0819298126614, -7448.540025775436, -22512.900532829826, -37620.601072383055, 0.122, 1.01, 0.17200000000000001, 192.0, 0.0, 0.0, 0.0, 0.0, 0.0, 0.0, 0.0, 0.0, 0.0, 1.696032979926892E9, 0.0, 2023-09-29 19:16:19.926
158.0, -46152.37368969604, 14041.499977290629, -41782.250020772226, -25841.678779325342, -10852.107209218408, -14562.765009732844, -187500.02235174447, -5706.690932117812, -8564.964957829114, 21624.37398724246, -25119.762136907833, -19631.335989396095, 697.1732613054826, -7430.457464511092, -22513.54873341903, -37601.646793084954, 0.12, 1.01, 0.17, 192.0, 1.5, 96.0, 15.5, 72.0, 2.5, 40.0, 0.0, 0.0, 0.0, 1.696032979926895E9, 0.0, 2023-09-29 19:16:19.926
160.0, -46154.5418089082, 13990.068613298967, -41779.83603237105, -25841.365854902968, -10852.800113296524, -14561.200387620973, -187500.02235174447, -5705.193365239306, -8591.518830242017, 21590.153466481384, -25180.067143448254, -19637.147442954476, 682.3093512427034, -7455.2231973675725, -22520.701291644727, -37619.88581656049, 0.12, 1.01, 0.17, 192.0, 0.0, 0.0, 0.0, 0.0, 0.0, 0.0, 0.0, 0.0, 0.0, 1.696032979926899E9, 0.0, 2023-09-29 19:16:19.926
162.0, -46160.8450008446, 14065.282233391075, -41778.45022421482, -25837.744872301206, -10862.500770390126, -14569.202312135973, -187500.02235174447, -5717.777397367644, -8576.654920179239, 21628.017321588675, -25122.489049731383, -19633.70527430836, 687.0926245561391, -7429.13871158823, -22522.69059690125, -37603.63609834148, 0.12, 1.01, 0.17, 192.0, 0.0, 0.0, 0.0, 0.0, 0.0, 0.0, 0.0, 0.0, 0.0, 1.696032979926903E9, 0.0, 2023-09-29 19:16:19.926
164.0, -46162.99076831231, 13961.838360051914, -41761.52995366215, -25848.071378239558, -10848.776799294568, -14564.039059166797, -187500.02235174447, -5711.876536831443, -8594.916295399225, 21588.342975180505, -25181.475303348936, -19627.893820749978, 688.9478193459296, -7446.327203074361, -22521.863582356404, -37621.85277007255, 0.12, 1.01, 0.17, 192.0, 0.0, 0.0, 0.0, 0.0, 0.0, 0.0, 0.0, 0.0, 0.0, 1.696032979926906E9, 0.0, 2023-09-29 19:16:19.926
166.0, -46158.073384532145, 14037.946049922235, -41772.12468053397, -25839.085976968527, -10851.548415607025, -14559.948689931476, -187500.02235174447, -5711.362446708971, -8567.960091586125, 21633.71701642478, -25126.512363733338, -19622.998788714267, 686.3773687335693, -7431.440941267127, -22507.714928116195, -37596.61765058251, 0.12, 1.01, 0.17, 192.0, 0.0, 0.0, 0.0, 0.0, 0.0, 0.0, 0.0, 0.0, 0.0, 1.696032979986941E9, 0.0, 2023-09-29 19:16:19.986
168.0, -46159.190971754906, 13956.205720449178, -41774.27044800168, -25848.272543939656, -10856.756372065112, -14567.347117346182, -187500.02235174447, -5715.1622432663735, -8589.41776626322, 21588.633547858426, -25179.485998092416, -19636.54394585418, 678.062519796195, -7447.288328085939, -22516.78973636505, -37614.6778601024, 0.11800000000000001, 1.004, 0.17400000000000002, 192.0, 1.5, 88.0, 15.5, 48.0, 2.5, 56.0, 0.0, 0.0, 0.0, 1.696032979986955E9, 0.0, 2023-09-29 19:16:19.986
170.0, -46157.06755603165, 14071.808942772024, -41779.70192190432, -25826.814869262562, -10862.120790734387, -14571.45983832596, -187500.02235174447, -5716.413940955871, -8569.480010209085, 21629.8054611451, -25122.846677642665, -19635.247544675774, 677.32491222917, -7435.888938413733, -22514.04047179705, -37597.06468547162, 0.11800000000000001, 1.004, 0.17400000000000002, 192.0, 0.0, 0.0, 0.0, 0.0, 0.0, 0.0, 0.0, 0.0, 0.0, 1.69603297998696E9, 0.0, 2023-09-29 19:16:19.986
172.0, -46139.1414569785, 13928.578964302418, -41776.37151198048, -25850.68653234083, -10857.00224125412, -14565.424867323027, -187500.02235174447, -5711.898888575899, -8589.46246975213, 21604.1009550215, -25180.55888182627, -19634.532288853203, 679.2471622523263, -7456.944281690631, -22521.79652712304, -37622.61272938403, 0.11800000000000001, 1.004, 0.17400000000000002, 192.0, 0.0, 0.0, 0.0, 0.0, 0.0, 0.0, 0.0, 0.0, 0.0, 1.696032979986965E9, 0.0, 2023-09-29 19:16:19.986
174.0, -46159.973282810846, 14065.192826413255, -41772.862288100994, -25819.3940901034, -10860.377354666873, -14570.655175525568, -187500.02235174447, -5712.100054275997, -8569.189437531166, 21627.637341932936, -25125.21596255493, -19627.625599816514, 665.8361155791421, -7444.315546073383, -22518.55552417702, -37594.36012439253, 0.11800000000000001, 1.004, 0.17400000000000002, 192.0, 0.0, 0.0, 0.0, 0.0, 0.0, 0.0, 0.0, 0.0, 0.0, 1.696032979986969E9, 0.0, 2023-09-29 19:16:19.986
176.0, -46158.16279150997, 13966.755743832082, -41769.21895375478, -25844.74096831572, -10857.069296487487, -14569.31407085825, -187500.02235174447, -5707.585001896025, -8593.374025031808, 21595.964920039765, -25166.946669452987, -19624.45165210386, 667.9148278134857, -7456.318432845883, -22518.75668987712, -37609.8275315556, 0.11800000000000001, 1.004, 0.17400000000000002, 192.0, 0.0, 0.0, 0.0, 0.0, 0.0, 0.0, 0.0, 0.0, 0.0, 1.696032979986973E9, 0.0, 2023-09-29 19:16:19.986
178.0, -46149.400907683485, 14077.97802424169, -41753.706843102795, -25801.71386023925, -10849.872034772878, -14557.534701530303, -187500.02235174447, -5696.6102953684685, -8572.564550943918, 21637.00272285971, -25127.719357933922, -19617.053224689153, 684.5892291771447, -7440.873377427266, -22505.993843793138, -37585.933516732875, 0.116, 0.996, 0.18, 192.0, 1.5, 80.0, 15.5, 16.0, 2.5, 80.0, 0.0, 0.0, 0.0, 1.696032979986977E9, 0.0, 2023-09-29 19:16:19.986
180.0, -46150.317329206155, 13974.422392180251, -41761.9099333179, -25837.856631023486, -10856.845779042933, -14568.397649335582, -187500.02235174447, -5707.517946662659, -8588.143716829267, 21619.188382528828, -25152.239221601394, -19622.127070680508, 660.002310276307, -7456.966633435087, -22504.60803563691, -37593.77897903669, 0.116, 0.996, 0.18, 192.0, 0.0, 0.0, 0.0, 0.0, 0.0, 0.0, 0.0, 0.0, 0.0, 1.696032979986982E9, 0.0, 2023-09-29 19:16:19.986
182.0, -46144.66233785896, 14079.944977753757, -41753.25980821369, -25796.57295901453, -10849.156778950308, -14556.864149196643, -187500.02235174447, -5696.073853501542, -8568.36242298632, 21645.63049621946, -25133.374349281115, -19617.612018300537, 671.4016999485135, -7445.433133296148, -22499.757707090106, -37582.73721727577, 0.116, 0.996, 0.18, 192.0, 0.0, 0.0, 0.0, 0.0, 0.0, 0.0, 0.0, 0.0, 0.0, 1.696032980046448E9, 0.0, 2023-09-29 19:16:20.046
184.0, -46139.70025058988, 13979.451534682696, -41757.841915827026, -25845.05389273809, -10862.14314247884, -14571.526893559325, -187500.02235174447, -5710.155452508385, -8582.84635339336, 21604.65974863288, -25143.11970986363, -19618.88606773449, 664.2714934672706, -7460.945243948132, -22507.491410671642, -37596.572947093606, 0.116, 0.996, 0.18, 192.0, 0.0, 0.0, 0.0, 0.0, 0.0, 0.0, 0.0, 0.0, 0.0, 1.696032980046457E9, 0.0, 2023-09-29 19:16:20.046
186.0, -46140.92959653492, 14061.88476823387, -41742.86624704197, -25807.34649984199, -10850.654345828814, -14563.21204462195, -187500.02235174447, -5697.482013402226, -8570.955225343136, 21615.433289460336, -25142.896192419077, -19612.426413586905, 677.1460982735275, -7460.162932892196, -22494.50504714311, -37588.05693245613, 0.116, 0.996, 0.18, 192.0, 0.0, 0.0, 0.0, 0.0, 0.0, 0.0, 0.0, 0.0, 0.0, 1.696032980046461E9, 0.0, 2023-09-29 19:16:20.046
188.0, -46140.661375601456, 14008.77702340806, -41754.623264625465, -25848.898392784406, -10865.920587291788, -14581.585178564213, -187500.02235174447, -5716.682161889335, -8580.879399881293, 21611.789955114124, -25133.799032425766, -19624.004617214756, 669.099470269617, -7480.257151157517, -22502.462268169198, -37597.91405176092, 0.114, 1.002, 0.178, 192.0, 1.5, 72.0, 15.5, 40.0, 2.5, 72.0, 0.0, 0.0, 0.0, 1.696032980046464E9, 0.0, 2023-09-29 19:16:20.046
190.0, -46150.27262571724, 14081.353137654442, -41744.11794473147, -25809.380508587423, -10851.414305140293, -14565.760143489855, -187500.02235174447, -5700.164222736862, -8571.916350354713, 21630.274847778663, -25147.746520965877, -19627.893820749978, 673.9274470719632, -7470.109459174808, -22502.59637863593, -37596.707057560336, 0.114, 1.002, 0.178, 192.0, 0.0, 0.0, 0.0, 0.0, 0.0, 0.0, 0.0, 0.0, 0.0, 1.696032980046467E9, 0.0, 2023-09-29 19:16:20.046
192.0, -46154.452401930386, 14019.72937819116, -41756.61256988199, -25847.132604972438, -10861.584348867458, -14589.117716445651, -187500.02235174447, -5722.851243358999, -8570.59759743185, 21614.360405726482, -25133.86608765913, -19629.54784983967, 659.1305922425499, -7469.930645219165, -22502.618730380385, -37599.858653528536, 0.114, 1.002, 0.178, 192.0, 0.0, 0.0, 0.0, 0.0, 0.0, 0.0, 0.0, 0.0, 0.0, 1.69603298004647E9, 0.0, 2023-09-29 19:16:20.046
194.0, -46144.66233785896, 14058.59906179894, -41744.2520551982, -25808.374680086934, -10845.580499837459, -14573.225626137928, -187500.02235174447, -5704.075778016541, -8571.581074187885, 21607.6995858788, -25166.54433805279, -19628.519669594727, 669.5465051587231, -7479.5865988238575, -22495.667337854786, -37603.68080183039, 0.114, 1.002, 0.178, 192.0, 0.0, 0.0, 0.0, 0.0, 0.0, 0.0, 0.0, 0.0, 0.0, 1.696032980046473E9, 0.0, 2023-09-29 19:16:20.046
196.0, -46151.23375072882, 14046.953802937724, -41763.720424618776, -25850.038331751628, -10861.740811078645, -14590.905856002077, -187500.02235174447, -5721.823063114055, -8566.328414240887, 21624.37398724246, -25124.903038132554, -19631.179527184908, 674.8662203390861, -7478.893694745743, -22498.17073323378, -37595.05302847064, 0.114, 1.002, 0.178, 192.0, 0.0, 0.0, 0.0, 0.0, 0.0, 0.0, 0.0, 0.0, 0.0, 1.696032980106268E9, 0.0, 2023-09-29 19:16:20.106
198.0, -46151.61373038456, 14053.34640185194, -41743.246226697716, -25824.78086051713, -10843.52413934757, -14576.958367461964, -187500.02235174447, -5709.775472852644, -8570.284673009477, 21597.373079940447, -25171.75229451088, -19636.476890620816, 665.7914120902315, -7490.5613053514135, -22499.064803011992, -37607.748819321256, 0.114, 1.002, 0.182, 192.0, 1.5, 72.0, 15.5, 40.0, 2.5, 88.0, 0.0, 0.0, 0.0, 1.6960329801063E9, 0.0, 2023-09-29 19:16:20.106
200.0, -46154.27358797474, 14085.868190034413, -41758.69128211633, -25849.099558484504, -10860.712630833701, -14588.894199001099, -187500.02235174447, -5728.528586450647, -8566.797800874449, 21622.42938547485, -25122.690215431478, -19638.712065066346, 659.3094061981924, -7488.281427416972, -22499.288320456544, -37591.320287146606, 0.114, 1.002, 0.182, 192.0, 0.0, 0.0, 0.0, 0.0, 0.0, 0.0, 0.0, 0.0, 0.0, 1.696032980106303E9, 0.0, 2023-09-29 19:16:20.106
202.0, -46152.686614118415, 14078.626224830894, -41747.31424418858, -25824.53499132812, -10855.594081353436, -14569.202312135973, -187500.02235174447, -5714.93872582182, -8582.958112115635, 21588.007699013677, -25171.68523927751, -19637.862698777044, 658.6165021200779, -7494.830488542377, -22504.093945514436, -37600.328040162094, 0.114, 1.002, 0.182, 192.0, 0.0, 0.0, 0.0, 0.0, 0.0, 0.0, 0.0, 0.0, 0.0, 1.696032980106307E9, 0.0, 2023-09-29 19:16:20.106
204.0, -46136.57100636614, 14083.744774311159, -41747.2024854663, -25832.559267587578, -10857.67279358778, -14565.35781208966, -187500.02235174447, -5714.961077566276, -8566.261359007522, 21621.95999884129, -25120.991482852874, -19627.804413772155, 664.6738248674661, -7470.7800115084665, -22499.131858245357, -37578.35627536253, 0.114, 1.002, 0.182, 192.0, 0.0, 0.0, 0.0, 0.0, 0.0, 0.0, 0.0, 0.0, 0.0, 1.69603298010631E9, 0.0, 2023-09-29 19:16:20.106
206.0, -46150.92082630644, 14028.737131206648, -41739.245264440215, -25809.33580509851, -10848.218005683186, -14560.373373076127, -187500.02235174447, -5700.946533792799, -8576.0737748234, 21610.202981257797, -25174.769780012346, -19620.271875890718, 669.7700226032762, -7475.116249932797, -22492.582797119954, -37583.139548675965, 0.114, 1.002, 0.182, 192.0, 0.0, 0.0, 0.0, 0.0, 0.0, 0.0, 0.0, 0.0, 0.0, 1.696032980106313E9, 0.0, 2023-09-29 19:16:20.106
208.0, -46137.53213137772, 14092.752527326647, -41753.17040123587, -25818.812944747562, -10862.254901201119, -14574.097344171685, -187500.02235174447, -5718.246784001206, -8565.590806673861, 21642.590658973535, -25110.10618330314, -19622.64116080298, 661.3434149436254, -7468.231912640562, -22495.622634365875, -37569.10265315803, 0.116, 1.004, 0.184, 192.0, 1.5, 80.0, 15.5, 48.0, 2.5, 96.0, 0.0, 0.0, 0.0, 1.696032980106316E9, 0.0, 2023-09-29 19:16:20.106
210.0, -46132.79356155319, 14009.782851908549, -41735.78074404964, -25817.36008135797, -10849.71557256169, -14565.313108600749, -187500.02235174447, -5709.306086219083, -8575.023242834002, 21609.75594636869, -25175.6414980461, -19622.03766370269, 667.4454411799242, -7495.121061220296, -22502.104640257912, -37593.890737758964, 0.116, 1.004, 0.184, 192.0, 0.0, 0.0, 0.0, 0.0, 0.0, 0.0, 0.0, 0.0, 0.0, 1.69603298010632E9, 0.0, 2023-09-29 19:16:20.106
212.0, -46144.572930881135, 14120.17811777331, -41745.056717998596, -25817.069508680048, -10862.701936090223, -14578.07595468473, -187500.02235174447, -5720.2137375132725, -8553.006774545524, 21627.771452399666, -25103.355956477637, -19617.45555608935, 666.7301853573543, -7479.228970912573, -22497.678994855763, -37566.68866475685, 0.116, 1.004, 0.184, 192.0, 0.0, 0.0, 0.0, 0.0, 0.0, 0.0, 0.0, 0.0, 0.0, 1.696032980166503E9, 0.0, 2023-09-29 19:16:20.166
214.0, -46143.96943378085, 14005.334854761943, -41733.791438793116, -25836.716692056263, -10852.129560962863, -14581.026384952831, -187500.02235174447, -5715.765740366667, -8582.13109757079, 21592.9474345383, -25173.965117211952, -19626.06097770464, 655.6660718519773, -7499.636113600268, -22500.987053035147, -37597.24349942726, 0.116, 1.004, 0.184, 192.0, 0.0, 0.0, 0.0, 0.0, 0.0, 0.0, 0.0, 0.0, 0.0, 1.696032980166513E9, 0.0, 2023-09-29 19:16:20.166
216.0, -46150.719660606344, 14136.249022036674, -41744.900255787405, -25821.182229659826, -10862.366659923395, -14591.107021702173, -187500.02235174447, -5720.884289846932, -8556.270129236, 21630.52071696767, -25111.648453670558, -19627.513841094238, 666.7972405907203, -7486.448584371637, -22492.135762230846, -37575.62936253898, 0.116, 1.004, 0.184, 192.0, 0.0, 0.0, 0.0, 0.0, 0.0, 0.0, 0.0, 0.0, 0.0, 1.696032980166516E9, 0.0, 2023-09-29 19:16:20.166
218.0, -46144.10354424758, 14028.06657887299, -41744.140296475925, -25849.904221284894, -10858.67862208827, -14593.83393452572, -187500.02235174447, -5728.528586450647, -8579.404184747242, 21606.000853300196, -25167.6395735311, -19637.303905165663, 658.4823916533461, -7515.528203907991, -22504.697442614728, -37608.084095488084, 0.11, 1.006, 0.182, 192.0, 1.5, 56.0, 15.5, 56.0, 2.5, 88.0, 0.0, 0.0, 0.0, 1.696032980166519E9, 0.0, 2023-09-29 19:16:20.166
220.0, -46142.89655004699, 14134.483234224706, -41747.15778197739, -25830.72642454224, -10861.092610489442, -14588.804792023277, -187500.02235174447, -5721.554842180592, -8556.851274591836, 21626.47505122126, -25120.92442761951, -19641.08134997861, 660.3375864431365, -7501.848936301343, -22504.451573425722, -37590.20269992384, 0.11, 1.006, 0.182, 192.0, 0.0, 0.0, 0.0, 0.0, 0.0, 0.0, 0.0, 0.0, 0.0, 1.696032980166522E9, 0.0, 2023-09-29 19:16:20.166
222.0, -46151.68078561792, 14014.342607777431, -41746.26371219918, -25849.34542767351, -10865.071221002487, -14588.715385045456, -187500.02235174447, -5724.974659082253, -8576.40905099023, 21575.535425607613, -25180.51417833736, -19639.494376122282, 670.0158917922845, -7523.217204000617, -22505.97149204868, -37608.9781652663, 0.11, 1.006, 0.182, 192.0, 0.0, 0.0, 0.0, 0.0, 0.0, 0.0, 0.0, 0.0, 0.0, 1.696032980166525E9, 0.0, 2023-09-29 19:16:20.166
224.0, -46154.5418089082, 14155.80679843507, -41746.375470921455, -25814.20848538977, -10870.837971071956, -14589.452992612481, -187500.02235174447, -5727.433350972337, -8560.516960682507, 21610.538257424625, -25127.942875378478, -19639.919059266933, 664.3832521895471, -7495.00930249802, -22507.26789322709, -37586.53701383317, 0.11, 1.006, 0.182, 192.0, 0.0, 0.0, 0.0, 0.0, 0.0, 0.0, 0.0, 0.0, 0.0, 1.696032980166529E9, 0.0, 2023-09-29 19:16:20.166
226.0, -46149.84794257259, 14030.838195185446, -41741.68160458584, -25840.807061291584, -10870.77091583859, -14593.006919980875, -187500.02235174447, -5733.378914997449, -8580.231199292088, 21594.266187461162, -25172.802826500276, -19637.952105754866, 645.9207112694635, -7509.20266022714, -22512.520553174087, -37606.38536290948, 0.11, 1.006, 0.182, 192.0, 0.0, 0.0, 0.0, 0.0, 0.0, 0.0, 0.0, 0.0, 0.0, 1.696032980226642E9, 0.0, 2023-09-29 19:16:20.226
228.0, -46149.28914896121, 14150.062400110055, -41732.539741103625, -25790.783857200608, -10860.667927344792, -14582.434544853515, -187500.02235174447, -5721.890118347421, -8561.343975227353, 21633.6052577025, -25130.379215524106, -19627.916172494435, 653.7661735732763, -7489.6225320842905, -22500.383555934855, -37577.618667795505, 0.114, 1.002, 0.182, 192.0, 1.5, 72.0, 15.5, 40.0, 2.5, 88.0, 0.0, 0.0, 0.0, 1.696032980226654E9, 0.0, 2023-09-29 19:16:20.226
230.0, -46144.014137269754, 14054.665154774804, -41739.669947584865, -25829.094747197003, -10871.240302472152, -14595.934998504521, -187500.02235174447, -5735.703496420801, -8583.472202238108, 21605.062080033076, -25153.78149196881, -19630.576030084616, 657.5436183862232, -7511.795462583955, -22504.652739125817, -37590.78384527968, 0.114, 1.002, 0.182, 192.0, 0.0, 0.0, 0.0, 0.0, 0.0, 0.0, 0.0, 0.0, 0.0, 1.696032980226658E9, 0.0, 2023-09-29 19:16:20.226
232.0, -46148.75270709428, 14160.344202559496, -41730.841008525014, -25790.537988011598, -10865.607662869414, -14586.279044899828, -187500.02235174447, -5723.432388714837, -8560.606367660328, 21620.820059874066, -25136.615352227134, -19630.374864384517, 654.3026154402037, -7508.733273593578, -22501.367032690887, -37584.033618454174, 0.114, 1.002, 0.182, 192.0, 0.0, 0.0, 0.0, 0.0, 0.0, 0.0, 0.0, 0.0, 0.0, 1.696032980226661E9, 0.0, 2023-09-29 19:16:20.226
234.0, -46136.79452381069, 14068.299718892542, -41732.87501727045, -25834.794442033108, -10865.115924491398, -14594.660949070569, -187500.02235174447, -5725.086417804529, -8573.950359100147, 21607.766641112168, -25146.159547109553, -19626.865640505035, 659.4435166649242, -7508.800328826944, -22501.83641932445, -37594.471883114806, 0.114, 1.002, 0.182, 192.0, 0.0, 0.0, 0.0, 0.0, 0.0, 0.0, 0.0, 0.0, 0.0, 1.696032980226665E9, 0.0, 2023-09-29 19:16:20.226
236.0, -46150.83141932862, 14147.737818686703, -41731.422153880856, -25797.265863092645, -10856.599909853925, -14589.654158312578, -187500.02235174447, -5718.515004934669, -8567.960091586125, 21616.126193538454, -25156.620163514635, -19625.815108515635, 668.5853801471449, -7511.81781432841, -22493.70038434272, -37583.78774926517, 0.114, 1.002, 0.182, 192.0, 0.0, 0.0, 0.0, 0.0, 0.0, 0.0, 0.0, 0.0, 0.0, 1.696032980226668E9, 0.0, 2023-09-29 19:16:20.226
238.0, -46151.03258502872, 14072.211274172221, -41746.46487789928, -25849.568945118066, -10871.955558294721, -14606.84264979871, -187500.02235174447, -5741.582005212546, -8577.169010301712, 21608.16897251236, -25151.523965778826, -19644.99290525829, 678.2413337518375, -7517.606916142335, -22511.17944850677, -37595.500063359745, 0.11800000000000001, 1.002, 0.184, 192.0, 1.5, 88.0, 15.5, 40.0, 2.5, 96.0, 0.0, 0.0, 0.0, 1.696032980226671E9, 0.0, 2023-09-29 19:16:20.226
240.0, -46158.2969019767, 14131.219879534232, -41737.993566750716, -25809.53697079861, -10864.825351813479, -14594.54919034829, -187500.02235174447, -5729.065028317575, -8572.139867799267, 21598.55772239658, -25174.255689889873, -19642.467158134838, 641.2715484227597, -7520.892622577265, -22503.1104687584, -37595.522415104206, 0.11800000000000001, 1.002, 0.184, 192.0, 0.0, 0.0, 0.0, 0.0, 0.0, 0.0, 0.0, 0.0, 0.0, 1.696032980226674E9, 0.0, 2023-09-29 19:16:20.226
242.0, -46150.20557048388, 14099.726271596703, -41751.73988959073, -25847.758453817187, -10879.130468264875, -14610.150707978095, -187500.02235174447, -5751.148551839417, -8573.995062589058, 21598.110687507473, -25148.573535510724, -19646.334009925606, 645.2725106802596, -7532.806102371944, -22517.281474743068, -37600.685668073376, 0.11800000000000001, 1.002, 0.184, 192.0, 0.0, 0.0, 0.0, 0.0, 0.0, 0.0, 0.0, 0.0, 0.0, 1.696032980287037E9, 0.0, 2023-09-29 19:16:20.287
244.0, -46150.093811761595, 14145.346182029985, -41737.278310928144, -25813.67204352284, -10865.518255891593, -14591.241132168905, -187500.02235174447, -5731.881348118943, -8578.487763224573, 21596.948396795797, -25170.902928221578, -19645.149367469476, 643.3949641460138, -7534.840111117377, -22514.062823541502, -37601.28916517367, 0.11800000000000001, 1.002, 0.184, 192.0, 0.0, 0.0, 0.0, 0.0, 0.0, 0.0, 0.0, 0.0, 0.0, 1.696032980287047E9, 0.0, 2023-09-29 19:16:20.287
246.0, -46137.576834866624, 14099.033367518588, -41740.720479574265, -25844.472747382253, -10869.854494315923, -14594.437431626015, -187500.02235174447, -5736.888138876932, -8569.480010209085, 21623.345806997517, -25139.945762150975, -19640.723722067323, 654.0790979956506, -7518.277468475994, -22508.45253568322, -37592.81785402511, 0.11800000000000001, 1.002, 0.184, 192.0, 0.0, 0.0, 0.0, 0.0, 0.0, 0.0, 0.0, 0.0, 0.0, 1.696032980287051E9, 0.0, 2023-09-29 19:16:20.287
248.0, -46157.55929440967, 14115.685417137793, -41731.17628469185, -25811.63803477741, -10863.014860512598, -14588.201294922985, -187500.02235174447, -5725.108769548985, -8580.164144058723, 21590.46639090376, -25178.346059125193, -19637.750940054768, 660.2928829542259, -7520.602049899346, -22501.948178046725, -37591.70026680235, 0.114, 1.006, 0.184, 192.0, 1.5, 72.0, 15.5, 56.0, 2.5, 96.0, 0.0, 0.0, 0.0, 1.696032980287054E9, 0.0, 2023-09-29 19:16:20.287
250.0, -46150.317329206155, 14129.744664400181, -41746.33076743255, -25843.802195048596, -10879.376337453883, -14604.920399775554, -187500.02235174447, -5745.404153514404, -8575.582036445385, 21609.934760324333, -25130.73684343539, -19642.10953022355, 655.6437201075221, -7515.304686463438, -22505.859733326404, -37580.81496725261, 0.114, 1.006, 0.184, 192.0, 0.0, 0.0, 0.0, 0.0, 0.0, 0.0, 0.0, 0.0, 0.0, 1.696032980287057E9, 0.0, 2023-09-29 19:16:20.287
252.0, -46134.715811576345, 14091.098498236955, -41732.09270621451, -25818.812944747562, -10868.446334415237, -14591.88933275811, -187500.02235174447, -5732.529548708147, -8571.826943376893, 21592.232178715727, -25190.304242408783, -19644.568222113638, 659.9576067873963, -7531.800273871455, -22515.02394855308, -37602.2726419297, 0.114, 1.006, 0.184, 192.0, 0.0, 0.0, 0.0, 0.0, 0.0, 0.0, 0.0, 0.0, 0.0, 1.69603298028706E9, 0.0, 2023-09-29 19:16:20.287
254.0, -46137.53213137772, 14138.327734271019, -41732.6514998259, -25809.35815684297, -10873.006090284121, -14586.904893744577, -187500.02235174447, -5737.2904702771275, -8566.015489818512, 21635.52750772566, -25122.891381131576, -19628.810242272644, 658.6388538645332, -7499.569058366902, -22504.250407725624, -37575.04821718314, 0.114, 1.006, 0.184, 192.0, 0.0, 0.0, 0.0, 0.0, 0.0, 0.0, 0.0, 0.0, 0.0, 1.696032980287064E9, 0.0, 2023-09-29 19:16:20.287
0.0, -46124.50106436027, 14072.188922427766, -41706.63406927992, -25778.49039775019, -10860.220892455685, -14573.091515671196, -187500.02235174447, -5725.265231760172, -8571.290501509966, 21627.23501053274, -25176.423809102038, -19608.939541451877, 689.774833890776, -7500.261962445017, -22497.58958787794, -37584.592412065555, 0.114, 1.006, 0.184, 192.0, 0.0, 0.0, 0.0, 0.0, 0.0, 0.0, 0.0, 0.0, 0.0, 1.69603298034744E9, 0.0, 2023-09-29 19:16:20.347
2.0, -46127.00445973927, 14140.428798249817, -41713.6972205278, -25787.118171109938, -10872.044965272542, -14584.17798092103, -187500.02235174447, -5733.267156275172, -8563.400335717242, 21672.251423865728, -25104.652357656047, -19600.378823325496, 643.1267432125501, -7479.810116268411, -22485.519645872075, -37561.14543213194, 0.116, 1.002, 0.182, 192.0, 1.5, 80.0, 15.5, 40.0, 2.5, 88.0, 0.0, 0.0, 0.0, 1.696032980347451E9, 0.0, 2023-09-29 19:16:20.347
4.0, -46129.552558607174, 14061.97417521169, -41715.66417403986, -25798.96459567125, -10867.060526259009, -14591.375242635637, -187500.02235174447, -5728.617993428468, -8591.60823721984, 21622.116461052476, -25173.339268367206, -19611.711157764337, 654.5708363736674, -7517.7410266090665, -22495.868503554884, -37585.48648184377, 0.116, 1.002, 0.182, 192.0, 0.0, 0.0, 0.0, 0.0, 0.0, 0.0, 0.0, 0.0, 0.0, 1.696032980347455E9, 0.0, 2023-09-29 19:16:20.347
6.0, -46126.400962638974, 14160.9924031487, -41725.65540381139, -25801.982081172715, -10869.742735593645, -14595.778536293334, -187500.02235174447, -5731.255499274194, -8576.587864945874, 21658.75097021472, -25112.050785070755, -19616.40502409995, 654.8614090515863, -7498.809099055422, -22503.13282050286, -37570.890792714454, 0.116, 1.002, 0.182, 192.0, 0.0, 0.0, 0.0, 0.0, 0.0, 0.0, 0.0, 0.0, 0.0, 1.696032980347458E9, 0.0, 2023-09-29 19:16:20.347
8.0, -46132.88296853101, 14042.237584857654, -41718.81577000806, -25813.15795340037, -10863.551302379527, -14591.419946124548, -187500.02235174447, -5721.46543520277, -8592.41290002023, 21636.667446692878, -25177.51904458035, -19615.82387874411, 657.3424526861254, -7528.782788369988, -22505.859733326404, -37593.35429589204, 0.116, 1.002, 0.182, 192.0, 0.0, 0.0, 0.0, 0.0, 0.0, 0.0, 0.0, 0.0, 0.0, 1.696032980347461E9, 0.0, 2023-09-29 19:16:20.347
10.0, -46137.50977963326, 14150.956469888268, -41720.40274386439, -25800.573921272033, -10866.322918691983, -14592.761050791867, -187500.02235174447, -5717.576231667546, -8574.084469566878, 21633.22527804676, -25122.22082879792, -19621.74709102477, 659.1082404980947, -7516.310514963927, -22499.84711406793, -37568.54385954665, 0.116, 1.002, 0.182, 192.0, 0.0, 0.0, 0.0, 0.0, 0.0, 0.0, 0.0, 0.0, 0.0, 1.696032980347464E9, 0.0, 2023-09-29 19:16:20.347
12.0, -46132.74885806428, 14009.87225888637, -41716.6476507959, -25818.567075558552, -10869.00512802662, -14586.323748388739, -187500.02235174447, -5715.676333388846, -8587.540219728973, 21612.818135359066, -25186.571501084745, -19623.02114045872, 663.5562376447008, -7524.6030121568465, -22504.049242025525, -37588.41456036742, 0.112, 1.004, 0.186, 192.0, 1.5, 64.0, 15.5, 48.0, 2.5, 104.0, 0.0, 0.0, 0.0, 1.696032980347467E9, 0.0, 2023-09-29 19:16:20.347
14.0, -46132.74885806428, 14130.504623711662, -41725.320127644554, -25791.87909267892, -10877.789363597556, -14584.155629176574, -187500.02235174447, -5715.1622432663735, -8569.748231142548, 21637.717978682278, -25130.938009135487, -19629.54784983967, 647.8206095481646, -7500.038445000464, -22506.329119959966, -37561.05602515412, 0.112, 1.004, 0.186, 192.0, 0.0, 0.0, 0.0, 0.0, 0.0, 0.0, 0.0, 0.0, 0.0, 1.696032980347471E9, 0.0, 2023-09-29 19:16:20.347
16.0, -46133.62057609804, 14035.39795105433, -41721.96736597626, -25812.77797374463, -10875.174209496285, -14588.737736789912, -187500.02235174447, -5721.308972991583, -8592.278789553498, 21610.940588824822, -25172.8922334781, -19627.35737888305, 651.4415921499243, -7532.269660505017, -22508.74310836114, -37583.273659142695, 0.112, 1.004, 0.186, 192.0, 0.0, 0.0, 0.0, 0.0, 0.0, 0.0, 0.0, 0.0, 0.0, 1.696032980406366E9, 0.0, 2023-09-29 19:16:20.406
18.0, -46136.325137177126, 14166.647394495893, -41728.42702012385, -25792.169665356836, -10875.19656124074, -14594.146858948096, -187500.02235174447, -5726.293412005117, -8571.245798021055, 21644.08822585204, -25128.54637247877, -19633.861736519546, 654.8837607960417, -7510.208488727629, -22506.664396126795, -37574.265906127206, 0.112, 1.004, 0.186, 192.0, 0.0, 0.0, 0.0, 0.0, 0.0, 0.0, 0.0, 0.0, 0.0, 1.696032980406376E9, 0.0, 2023-09-29 19:16:20.406
20.0, -46141.577797124126, 14049.814826228003, -41727.68941255682, -25832.045177465105, -10874.928340307277, -14597.499620616392, -187500.02235174447, -5730.204967284795, -8589.998911619057, 21623.524620953158, -25176.08853293521, -19642.064826734644, 649.9216735269634, -7530.928555837698, -22512.54290491854, -37598.4728453723, 0.112, 1.004, 0.186, 192.0, 0.0, 0.0, 0.0, 0.0, 0.0, 0.0, 0.0, 0.0, 0.0, 1.69603298040638E9, 0.0, 2023-09-29 19:16:20.406
22.0, -46138.20268371137, 14149.36949603194, -41720.2462816532, -25792.169665356836, -10866.38997392535, -14597.678434572033, -187500.02235174447, -5731.411961485382, -8572.206923032632, 21633.404092002405, -25151.34515182318, -19638.332085410606, 649.4299351489467, -7513.762416096022, -22504.74214610364, -37587.274621400196, 0.11, 1.004, 0.176, 192.0, 1.5, 56.0, 15.5, 48.0, 2.5, 64.0, 0.0, 0.0, 0.0, 1.696032980406383E9, 0.0, 2023-09-29 19:16:20.406
24.0, -46131.720677819336, 14047.199672126731, -41720.290985142114, -25823.707976783273, -10879.331633964972, -14612.497641145903, -187500.02235174447, -5752.80258092911, -8587.137888328778, 21617.04261506112, -25163.392742084594, -19628.854945761555, 661.5445806437232, -7515.237631230072, -22511.671186884785, -37599.65748782844, 0.11, 1.004, 0.176, 192.0, 0.0, 0.0, 0.0, 0.0, 0.0, 0.0, 0.0, 0.0, 0.0, 1.696032980406386E9, 0.0, 2023-09-29 19:16:20.406
26.0, -46128.88200627351, 14161.37238280444, -41710.32210711505, -25772.90246163636, -10873.229607728674, -14603.042853241308, -187500.02235174447, -5738.028077844153, -8562.573321172396, 21636.57803971506, -25138.314084805737, -19619.51191657924, 659.421164920469, -7509.314418949416, -22505.6138641374, -37589.48744410127, 0.11, 1.004, 0.176, 192.0, 0.0, 0.0, 0.0, 0.0, 0.0, 0.0, 0.0, 0.0, 0.0, 1.696032980406389E9, 0.0, 2023-09-29 19:16:20.406
28.0, -46110.62063105353, 14060.074276932988, -41716.55824381808, -25808.53114229812, -10877.364680452905, -14605.903876531587, -187500.02235174447, -5744.085400591541, -8568.764754386515, 21634.298161780618, -25143.16441335254, -19612.35935835354, 660.4493451654131, -7514.34356145186, -22511.872352584884, -37590.8732522575, 0.11, 1.004, 0.176, 192.0, 0.0, 0.0, 0.0, 0.0, 0.0, 0.0, 0.0, 0.0, 0.0, 1.696032980406392E9, 0.0, 2023-09-29 19:16:20.406
30.0, -46118.68961080189, 14126.458957965251, -41704.68946751231, -25764.252336532158, -10865.227683213674, -14595.331501404227, -187500.02235174447, -5726.539281194125, -8560.069925793401, 21654.638249234948, -25143.522041263826, -19600.758802981236, 671.9828453043515, -7502.0053985125305, -22501.54584664653, -37579.94324921886, 0.11, 1.004, 0.176, 192.0, 0.0, 0.0, 0.0, 0.0, 0.0, 0.0, 0.0, 0.0, 0.0, 1.696032980466588E9, 0.0, 2023-09-29 19:16:20.466
32.0, -46111.291183387184, 14038.326029577975, -41710.29975537059, -25813.00149118918, -10876.738831608156, -14609.770728322355, -187500.02235174447, -5736.709324921289, -8567.535408441474, 21638.120310082475, -25133.12848009211, -19605.98911118378, 692.9040781145189, -7505.156994480729, -22505.2115327372, -37584.70417078783, 0.11, 1.008, 0.17, 192.0, 1.5, 56.0, 15.5, 64.0, 2.5, 40.0, 0.0, 0.0, 0.0, 1.696032980466599E9, 0.0, 2023-09-29 19:16:20.466
34.0, -46128.36791615104, 14110.276294979609, -41704.86828146795, -25774.57884247051, -10869.630976871369, -14601.142954962606, -187500.02235174447, -5715.229298499739, -8561.120457782801, 21639.99785661672, -25146.897154676575, -19616.87441073351, 668.6077318916001, -7502.810061312922, -22493.4098116648, -37580.39028410796, 0.11, 1.008, 0.17, 192.0, 0.0, 0.0, 0.0, 0.0, 0.0, 0.0, 0.0, 0.0, 0.0, 1.696032980466603E9, 0.0, 2023-09-29 19:16:20.466
36.0, -46113.77222702173, 14063.292928134553, -41719.37456361944, -25817.896523224896, -10872.402593183828, -14606.350911420694, -187500.02235174447, -5722.471263703259, -8572.832771877382, 21640.601353717015, -25126.26649454433, -19632.922963252422, 691.2053455359156, -7483.6322645702685, -22504.98801529265, -37586.62642081099, 0.11, 1.008, 0.17, 192.0, 0.0, 0.0, 0.0, 0.0, 0.0, 0.0, 0.0, 0.0, 0.0, 1.696032980466607E9, 0.0, 2023-09-29 19:16:20.466
38.0, -46132.54769236418, 14101.402652430852, -41716.871168240454, -25788.57103449953, -10863.037212257053, -14596.829068282732, -187500.02235174447, -5704.4781094167365, -8575.693795167661, 21639.394359516427, -25156.4860530479, -19635.60517258706, 689.484261212857, -7469.975348708075, -22498.058974511503, -37586.067627199605, 0.11, 1.008, 0.17, 192.0, 0.0, 0.0, 0.0, 0.0, 0.0, 0.0, 0.0, 0.0, 0.0, 1.69603298046661E9, 0.0, 2023-09-29 19:16:20.466
40.0, -46134.00055575378, 14075.854608518435, -41738.08297372854, -25824.82556400604, -10869.67568036028, -14597.946655505499, -187500.02235174447, -5712.971772309754, -8572.69866141065, 21649.117368354484, -25121.63968344208, -19638.197974943876, 698.2461450393373, -7445.90251992971, -22508.229018238668, -37591.23088016878, 0.11, 1.008, 0.17, 192.0, 0.0, 0.0, 0.0, 0.0, 0.0, 0.0, 0.0, 0.0, 0.0, 1.696032980466615E9, 0.0, 2023-09-29 19:16:20.466
42.0, -46138.47090464484, 14057.302660620531, -41741.905122030395, -25797.86936019294, -10856.890482531844, -14576.421925595037, -187500.02235174447, -5695.939743034809, -8577.191362046166, 21629.403129744904, -25170.992335199397, -19635.336951653597, 708.7514649333317, -7434.391371535226, -22511.671186884785, -37601.244461684764, 0.116, 1.014, 0.17200000000000001, 192.0, 1.5, 80.0, 15.5, 88.0, 2.5, 48.0, 0.0, 0.0, 0.0, 1.69603298046662E9, 0.0, 2023-09-29 19:16:20.466
44.0, -46138.89558778949, 14104.30837921004, -41761.86522982898, -25823.886790738918, -10867.753430337123, -14580.556998319269, -187500.02235174447, -5701.125347748441, -8571.469315465607, 21661.366124315995, -25112.54252344877, -19644.21059420235, 692.0100083363067, -7415.347685259305, -22522.93646609026, -37587.36402837802, 0.116, 1.014, 0.17200000000000001, 192.0, 0.0, 0.0, 0.0, 0.0, 0.0, 0.0, 0.0, 0.0, 0.0, 1.696032980466624E9, 0.0, 2023-09-29 19:16:20.466
46.0, -46136.99568951079, 14067.182131669777, -41749.527066889656, -25813.15795340037, -10852.487188874149, -14569.895216214087, -187500.02235174447, -5693.637513355913, -8585.975597617102, 21640.958981628297, -25173.473378833936, -19647.89863203748, 711.2325085678707, -7426.210633064585, -22526.646855669842, -37607.21237745433, 0.116, 1.014, 0.17200000000000001, 192.0, 0.0, 0.0, 0.0, 0.0, 0.0, 0.0, 0.0, 0.0, 0.0, 1.696032980526842E9, 0.0, 2023-09-29 19:16:20.526
48.0, -46126.89270101699, 14112.377358958407, -41753.997415780716, -25818.16474415836, -10855.616433097892, -14569.962271447454, -187500.02235174447, -5705.08160651703, -8566.820152618904, 21657.543976014134, -25114.10714556064, -19634.867565020035, 689.0819298126614, -7394.582914660325, -22516.11918403139, -37590.8732522575, 0.116, 1.014, 0.17200000000000001, 192.0, 0.0, 0.0, 0.0, 0.0, 0.0, 0.0, 0.0, 0.0, 0.0, 1.696032980526851E9, 0.0, 2023-09-29 19:16:20.526
50.0, -46128.47967487331, 14061.437733344763, -41738.060621984085, -25817.829467991527, -10847.346287649429, -14561.7368294879, -187500.02235174447, -5697.370254679949, -8578.018376591013, 21641.42836826186, -25159.34707633818, -19633.951143497365, 693.127595559072, -7400.774347874445, -22519.829573610972, -37605.29012743117, 0.116, 1.014, 0.17200000000000001, 192.0, 0.0, 0.0, 0.0, 0.0, 0.0, 0.0, 0.0, 0.0, 0.0, 1.696032980526854E9, 0.0, 2023-09-29 19:16:20.526
52.0, -46138.9402912784, 14151.291746055096, -41753.706843102795, -25826.524296584645, -10863.171322723785, -14571.16926564804, -187500.02235174447, -5709.75312110819, -8559.667594393206, 21665.680010995868, -25091.509531916327, -19629.279628906206, 698.2014415504267, -7389.956103558076, -22515.850963097928, -37588.1239876895, 0.112, 1.01, 0.17400000000000002, 192.0, 1.5, 64.0, 15.5, 72.0, 2.5, 56.0, 0.0, 0.0, 0.0, 1.696032980526858E9, 0.0, 2023-09-29 19:16:20.526
54.0, -46131.54186386369, 14058.464951332207, -41747.22483721076, -25843.042235737114, -10856.421095898282, -14566.274233612328, -187500.02235174447, -5711.004818797686, -8587.003777862046, 21623.345806997517, -25163.88448046261, -19634.7334545533, 695.675694426977, -7414.140691058718, -22522.17650677878, -37613.20264496835, 0.112, 1.01, 0.17400000000000002, 192.0, 0.0, 0.0, 0.0, 0.0, 0.0, 0.0, 0.0, 0.0, 0.0, 1.696032980526861E9, 0.0, 2023-09-29 19:16:20.526
56.0, -46131.47480863033, 14148.497777998184, -41750.73406109024, -25833.229819921235, -10854.85647378641, -14556.238300351895, -187500.02235174447, -5704.589868139014, -8556.091315280357, 21681.259176881216, -25104.182971022485, -19621.009483457743, 695.3404182601474, -7392.168926259152, -22507.714928116195, -37585.933516732875, 0.112, 1.01, 0.17400000000000002, 192.0, 0.0, 0.0, 0.0, 0.0, 0.0, 0.0, 0.0, 0.0, 0.0, 1.696032980526864E9, 0.0, 2023-09-29 19:16:20.526
58.0, -46128.52437836223, 14046.305602348519, -41750.97993027925, -25842.796366548107, -10850.542587106536, -14545.531814757804, -187500.02235174447, -5699.3148564475605, -8581.92993187069, 21632.152394312907, -25163.951535695975, -19624.988093970787, 694.2451827818373, -7414.0736358253525, -22513.749899119128, -37599.74689480625, 0.112, 1.01, 0.17400000000000002, 192.0, 0.0, 0.0, 0.0, 0.0, 0.0, 0.0, 0.0, 0.0, 0.0, 1.696032980526867E9, 0.0, 2023-09-29 19:16:20.526
60.0, -46128.45732312886, 14156.85733042447, -41754.84678207002, -25821.383395359924, -10851.235491184652, -14538.44631176547, -187500.02235174447, -5698.3760831804375, -8553.118533267801, 21678.6663745244, -25103.937101833475, -19618.12610842301, 706.1139590876054, -7373.527571383425, -22505.099774014925, -37569.19206013585, 0.112, 1.01, 0.17400000000000002, 192.0, 0.0, 0.0, 0.0, 0.0, 0.0, 0.0, 0.0, 0.0, 0.0, 1.696032980587054E9, 0.0, 2023-09-29 19:16:20.587
62.0, -46129.66431732945, 14050.798302984036, -41755.74085184823, -25844.67391308235, -10849.71557256169, -14548.415189792537, -187500.02235174447, -5707.27207747365, -8576.565513201418, 21645.295220052627, -25161.35873333916, -19620.942428224378, 683.3598832321028, -7398.963856573565, -22503.468096669687, -37588.5710225786, 0.114, 1.0, 0.17400000000000002, 192.0, 1.5, 72.0, 15.5, 32.0, 2.5, 56.0, 0.0, 0.0, 0.0, 1.696032980587068E9, 0.0, 2023-09-29 19:16:20.587
64.0, -46139.186160467405, 14197.872781499957, -41765.821488597576, -25819.930531970327, -10854.454142386216, -14550.493902026881, -187500.02235174447, -5704.522812905648, -8558.661765892717, 21665.367086573493, -25107.379270479592, -19620.74126252428, 680.1188802860833, -7391.140746014207, -22501.970529791182, -37567.962714190806, 0.114, 1.0, 0.17400000000000002, 192.0, 0.0, 0.0, 0.0, 0.0, 0.0, 0.0, 0.0, 0.0, 0.0, 1.696032980587071E9, 0.0, 2023-09-29 19:16:20.587
66.0, -46120.947136991876, 14060.1189804219, -41761.55230540661, -25847.758453817187, -10854.722363319679, -14547.275250825316, -187500.02235174447, -5703.829908827533, -8574.64326317826, 21637.13683332644, -25163.21392812895, -19621.948256724867, 687.7855286342536, -7404.551792687392, -22505.077422270468, -37592.236708669276, 0.114, 1.0, 0.17400000000000002, 192.0, 0.0, 0.0, 0.0, 0.0, 0.0, 0.0, 0.0, 0.0, 0.0, 1.696032980587074E9, 0.0, 2023-09-29 19:16:20.587
68.0, -46135.36401216555, 14177.130362645432, -41760.97116005077, -25811.77214524414, -10855.415267397793, -14542.223756578418, -187500.02235174447, -5699.896001803399, -8553.342050712354, 21663.646002250436, -25118.979825851897, -19623.60228581456, 689.0148745792956, -7389.710234369068, -22500.115335001392, -37569.706150258324, 0.114, 1.0, 0.17400000000000002, 192.0, 0.0, 0.0, 0.0, 0.0, 0.0, 0.0, 0.0, 0.0, 0.0, 1.696032980587078E9, 0.0, 2023-09-29 19:16:20.587
70.0, -46136.883930788514, 14065.103419435432, -41769.442471199334, -25847.601991606, -10862.34430817894, -14553.35492531716, -187500.02235174447, -5710.200155997295, -8573.436268977675, 21641.204850817307, -25152.105111134664, -19629.257277161752, 680.9905983198403, -7412.017275335465, -22508.02785253857, -37589.01805746771, 0.114, 1.0, 0.17400000000000002, 192.0, 0.0, 0.0, 0.0, 0.0, 0.0, 0.0, 0.0, 0.0, 0.0, 1.696032980587081E9, 0.0, 2023-09-29 19:16:20.587
72.0, -46133.70998307586, 14174.694022499803, -41757.19371523782, -25811.123944654937, -10852.800113296524, -14547.297602569772, -187500.02235174447, -5697.839641313511, -8558.639414148261, 21651.5090050112, -25126.557067222246, -19628.139689938987, 689.3948542350357, -7402.294266497406, -22503.669262369785, -37577.03752243966, 0.11800000000000001, 1.0, 0.176, 192.0, 1.5, 88.0, 15.5, 32.0, 2.5, 64.0, 0.0, 0.0, 0.0, 1.696032980587084E9, 0.0, 2023-09-29 19:16:20.587
74.0, -46130.0890004741, 14076.122829451899, -41755.249113470214, -25841.432910136333, -10859.05860174401, -14556.104189885164, -187500.02235174447, -5706.221545484251, -8568.518885197507, 21643.462377007294, -25143.678503475014, -19627.335027138597, 691.0712350691838, -7407.390464233215, -22504.83155308146, -37588.70513304533, 0.11800000000000001, 1.0, 0.176, 192.0, 0.0, 0.0, 0.0, 0.0, 0.0, 0.0, 0.0, 0.0, 0.0, 1.696032980587087E9, 0.0, 2023-09-29 19:16:20.587
76.0, -46128.54673010668, 14169.642528252904, -41745.056717998596, -25801.043307905595, -10851.838988284944, -14547.319954314227, -187500.02235174447, -5692.944609277798, -8559.667594393206, 21665.27767959567, -25136.72711094941, -19626.619771316025, 691.8311943806642, -7400.148499029697, -22505.658567626306, -37574.42236833839, 0.11800000000000001, 1.0, 0.176, 192.0, 0.0, 0.0, 0.0, 0.0, 0.0, 0.0, 0.0, 0.0, 0.0, 1.696032980647566E9, 0.0, 2023-09-29 19:16:20.647
78.0, -46123.45053237087, 14078.805038786537, -41745.190828465325, -25839.890639768917, -10853.537720863547, -14556.283003840805, -187500.02235174447, -5696.453833157281, -8566.037841562968, 21653.00657188971, -25139.58813423969, -19625.25631490425, 709.5114242448121, -7407.770443888956, -22508.944274061236, -37582.8713277425, 0.11800000000000001, 1.0, 0.176, 192.0, 0.0, 0.0, 0.0, 0.0, 0.0, 0.0, 0.0, 0.0, 0.0, 1.696032980647574E9, 0.0, 2023-09-29 19:16:20.647
80.0, -46137.733297077815, 14136.18196680331, -41733.5008661152, -25804.686642251807, -10844.708781803702, -14544.794207190778, -187500.02235174447, -5684.495649873692, -8558.572358914895, 21652.984220145252, -25157.55893678176, -19627.022102716222, 675.872048839575, -7403.948295587099, -22497.947215789227, -37573.48359507127, 0.11800000000000001, 1.0, 0.176, 192.0, 0.0, 0.0, 0.0, 0.0, 0.0, 0.0, 0.0, 0.0, 0.0, 1.696032980647578E9, 0.0, 2023-09-29 19:16:20.647
82.0, -46130.35722140756, 14083.856533033435, -41745.01201450968, -25840.807061291584, -10858.790380810546, -14552.706724727956, -187500.02235174447, -5697.034978513119, -8569.681175909183, 21662.05902839411, -25140.59396274018, -19632.990018485787, 686.5561826892117, -7409.446824723104, -22509.88304732836, -37579.362103863015, 0.114, 1.01, 0.186, 192.0, 1.5, 72.0, 15.5, 72.0, 2.5, 104.0, 0.0, 0.0, 0.0, 1.696032980647582E9, 0.0, 2023-09-29 19:16:20.647
84.0, -46144.8411518146, 14138.41714124884, -41744.8555522985, -25807.614720775455, -10849.223834183675, -14546.135311858096, -187500.02235174447, -5688.094280730997, -8566.1719520297, 21659.443874292836, -25163.50450080687, -19634.152309197463, 687.1820315339603, -7404.551792687392, -22507.111431015903, -37579.11623467401, 0.114, 1.01, 0.186, 192.0, 0.0, 0.0, 0.0, 0.0, 0.0, 0.0, 0.0, 0.0, 0.0, 1.696032980647585E9, 0.0, 2023-09-29 19:16:20.647
86.0, -46135.65458484347, 14099.659216363338, -41752.99158728023, -25849.92657302935, -10858.164531965796, -14561.043925409786, -187500.02235174447, -5700.320684948049, -8570.061155564923, 21647.351580542516, -25144.63962848659, -19645.328181425117, 685.550354188723, -7415.794720148411, -22515.515686931096, -37587.78871152267, 0.114, 1.01, 0.186, 192.0, 0.0, 0.0, 0.0, 0.0, 0.0, 0.0, 0.0, 0.0, 0.0, 1.696032980647589E9, 0.0, 2023-09-29 19:16:20.647
88.0, -46135.7886953102, 14108.465803678728, -41740.362851662976, -25822.47863083823, -10843.412380625294, -14547.923451414521, -187500.02235174447, -5688.094280730997, -8579.717109169616, 21634.298161780618, -25179.32953588123, -19643.338876168596, 682.2422960093375, -7433.340839545827, -22510.486544428655, -37587.76635977821, 0.114, 1.01, 0.186, 192.0, 0.0, 0.0, 0.0, 0.0, 0.0, 0.0, 0.0, 0.0, 0.0, 1.696032980647592E9, 0.0, 2023-09-29 19:16:20.647
90.0, -46134.69345983189, 14101.872039064412, -41749.12473548946, -25842.550497359098, -10849.469703372682, -14554.07018113973, -187500.02235174447, -5701.572382637547, -8567.758925886026, 21657.365162058493, -25136.16831733803, -19631.984189985298, 683.8292698656643, -7412.8442898803105, -22505.569160648487, -37576.32226661709, 0.114, 1.01, 0.186, 192.0, 0.0, 0.0, 0.0, 0.0, 0.0, 0.0, 0.0, 0.0, 0.0, 1.696032980707013E9, 0.0, 2023-09-29 19:16:20.707
92.0, -46140.236692456805, 14086.0246522456, -41742.70978483079, -25818.343558114, -10840.95368873521, -14543.989544390386, -187500.02235174447, -5691.000007510186, -8572.296330010455, 21651.15137709992, -25179.75421902588, -19626.9326957384, 687.740825145343, -7420.645048695213, -22499.154209989814, -37578.937420718365, 0.112, 1.004, 0.184, 192.0, 1.5, 64.0, 15.5, 48.0, 2.5, 96.0, 0.0, 0.0, 0.0, 1.696032980707025E9, 0.0, 2023-09-29 19:16:20.707
94.0, -46139.87906454552, 14130.348161500475, -41757.68545361584, -25847.579639861542, -10861.271424445084, -14567.682393513012, -187500.02235174447, -5716.682161889335, -8567.110725296823, 21652.246612578227, -25127.87582014511, -19634.12995745301, 669.9935400478292, -7423.416665007671, -22505.97149204868, -37570.980199692276, 0.112, 1.004, 0.184, 192.0, 0.0, 0.0, 0.0, 0.0, 0.0, 0.0, 0.0, 0.0, 0.0, 1.696032980707029E9, 0.0, 2023-09-29 19:16:20.707
96.0, -46135.31930867664, 14078.492114364162, -41740.564017363075, -25831.30756989808, -10847.636860327348, -14554.69602998448, -187500.02235174447, -5698.241972713706, -8579.381833002786, 21636.443929248326, -25194.036983732818, -19632.140652196485, 672.7875081047426, -7448.517674030981, -22507.40200369382, -37597.22114768281, 0.112, 1.004, 0.184, 192.0, 0.0, 0.0, 0.0, 0.0, 0.0, 0.0, 0.0, 0.0, 0.0, 1.696032980707032E9, 0.0, 2023-09-29 19:16:20.707
98.0, -46131.09482897459, 14134.639696435894, -41750.219970967766, -25836.180250189336, -10859.57269186648, -14562.921471944032, -187500.02235174447, -5704.522812905648, -8564.607329917828, 21649.027961376665, -25130.133346335097, -19630.64308531798, 672.7875081047426, -7428.0434761099195, -22501.83641932445, -37572.522470059695, 0.112, 1.004, 0.184, 192.0, 0.0, 0.0, 0.0, 0.0, 0.0, 0.0, 0.0, 0.0, 0.0, 1.696032980707035E9, 0.0, 2023-09-29 19:16:20.707
100.0, -46135.341660421094, 14074.267634662108, -41750.5552471346, -25831.419328620355, -10856.868130787389, -14564.039059166797, -187500.02235174447, -5702.354693693483, -8574.665614922716, 21623.81519363108, -25187.443219118504, -19638.622658088527, 674.7768133612649, -7444.673173984668, -22504.093945514436, -37592.7731505362, 0.112, 1.004, 0.184, 192.0, 0.0, 0.0, 0.0, 0.0, 0.0, 0.0, 0.0, 0.0, 0.0, 1.696032980707038E9, 0.0, 2023-09-29 19:16:20.707
102.0, -46128.54673010668, 14129.342332999986, -41750.53289539014, -25829.45237510829, -10860.422058155782, -14555.523044529325, -187500.02235174447, -5698.733711091722, -8564.763792129015, 21652.067798622586, -25128.79224166778, -19636.275724920717, 669.9711883033739, -7430.949202889109, -22505.099774014925, -37579.429159096384, 0.112, 1.008, 0.18, 192.0, 1.5, 64.0, 15.5, 64.0, 2.5, 80.0, 0.0, 0.0, 0.0, 1.696032980707042E9, 0.0, 2023-09-29 19:16:20.707
104.0, -46134.157017964964, 14033.095721375434, -41745.459049398785, -25821.2939883821, -10849.693220817235, -14550.717419471433, -187500.02235174447, -5690.687083087812, -8574.665614922716, 21628.28554252214, -25189.901911008586, -19626.798585271667, 678.6660168964884, -7429.1610633326845, -22500.49531465713, -37588.19104292286, 0.112, 1.008, 0.18, 192.0, 0.0, 0.0, 0.0, 0.0, 0.0, 0.0, 0.0, 0.0, 0.0, 1.696032980707045E9, 0.0, 2023-09-29 19:16:20.707
106.0, -46135.006384254266, 14147.693115197793, -41752.27633145766, -25810.67690976583, -10858.633918599358, -14557.35588757466, -187500.02235174447, -5696.766757579656, -8557.70064088114, 21661.99197316074, -25121.259703786338, -19636.78981504319, 667.6019033911114, -7417.672266682657, -22499.958872790205, -37569.25911536922, 0.112, 1.008, 0.18, 192.0, 0.0, 0.0, 0.0, 0.0, 0.0, 0.0, 0.0, 0.0, 0.0, 1.696032980766695E9, 0.0, 2023-09-29 19:16:20.766
108.0, -46140.61667211255, 14048.987811683157, -41752.36573843548, -25831.173459431346, -10859.304470933017, -14560.708649242957, -187500.02235174447, -5697.750234335689, -8573.391565488764, 21630.408958245393, -25182.011745215863, -19640.902536022968, 674.6203511500778, -7437.90059541471, -22502.015233280094, -37593.73427554778, 0.112, 1.008, 0.18, 192.0, 0.0, 0.0, 0.0, 0.0, 0.0, 0.0, 0.0, 0.0, 0.0, 1.696032980766705E9, 0.0, 2023-09-29 19:16:20.766
110.0, -46135.9898610103, 14142.172234317331, -41750.778764579154, -25814.946092956794, -10857.896311032333, -14558.473474797425, -187500.02235174447, -5695.470356401248, -8558.907635081725, 21654.325324812573, -25135.96715163793, -19641.30486742316, 674.6203511500778, -7418.700446927602, -22499.89181755684, -37578.35627536253, 0.112, 1.008, 0.18, 192.0, 0.0, 0.0, 0.0, 0.0, 0.0, 0.0, 0.0, 0.0, 0.0, 1.696032980766708E9, 0.0, 2023-09-29 19:16:20.766
112.0, -46137.576834866624, 14018.835308412947, -41745.43669765433, -25842.729311314743, -10857.918662776789, -14563.770838233333, -187500.02235174447, -5703.405225682882, -8573.346861999853, 21626.94443785482, -25184.26927140585, -19639.248506933272, 677.0790430401615, -7437.118284358774, -22502.17169549128, -37596.26002267123, 0.108, 1.008, 0.184, 192.0, 1.5, 48.0, 15.5, 64.0, 2.5, 96.0, 0.0, 0.0, 0.0, 1.696032980766712E9, 0.0, 2023-09-29 19:16:20.766
114.0, -46127.92088126193, 14142.84278665099, -41740.63107259644, -25809.022880676137, -10859.796209311035, -14553.399628806072, -187500.02235174447, -5690.955304021276, -8552.917367567703, 21660.919089426887, -25132.01089286934, -19640.634315089505, 677.7272436293655, -7424.556603974892, -22499.60124487892, -37573.081263671076, 0.108, 1.008, 0.184, 192.0, 0.0, 0.0, 0.0, 0.0, 0.0, 0.0, 0.0, 0.0, 0.0, 1.696032980766715E9, 0.0, 2023-09-29 19:16:20.766
116.0, -46138.44855290039, 14034.883860931857, -41743.02270925316, -25841.097633969504, -10864.065392501998, -14566.318937101238, -187500.02235174447, -5700.454795414781, -8571.089335809867, 21629.42548148936, -25175.21681490145, -19639.494376122282, 679.448327952424, -7439.219348337573, -22507.983149049658, -37588.794540023155, 0.108, 1.008, 0.184, 192.0, 0.0, 0.0, 0.0, 0.0, 0.0, 0.0, 0.0, 0.0, 0.0, 1.696032980766718E9, 0.0, 2023-09-29 19:16:20.766
118.0, -46140.92959653492, 14161.975879904734, -41740.11698247397, -25813.314415611556, -10859.81856105549, -14560.686297498502, -187500.02235174447, -5695.179783723329, -8557.030088547479, 21658.52745277017, -25142.627971485614, -19646.334009925606, 670.9770168038627, -7424.355438274794, -22508.363128705398, -37574.71294101631, 0.108, 1.008, 0.184, 192.0, 0.0, 0.0, 0.0, 0.0, 0.0, 0.0, 0.0, 0.0, 0.0, 1.696032980766721E9, 0.0, 2023-09-29 19:16:20.766
120.0, -46134.40288715397, 14046.104436648422, -41743.17917146435, -25853.324038186558, -10867.57461638148, -14573.560902304758, -187500.02235174447, -5713.910545576876, -8576.36434750132, 21632.890001879932, -25179.910681237066, -19644.322352924628, 673.7709848607761, -7444.606118751302, -22514.800431108528, -37594.13660694798, 0.108, 1.008, 0.184, 192.0, 0.0, 0.0, 0.0, 0.0, 0.0, 0.0, 0.0, 0.0, 0.0, 1.69603298082782E9, 0.0, 2023-09-29 19:16:20.827
122.0, -46132.88296853101, 14144.51916748514, -41736.093668472015, -25816.15308715738, -10857.762200565601, -14571.45983832596, -187500.02235174447, -5707.428539684837, -8557.432419947674, 21652.246612578227, -25156.150776881073, -19633.437053374895, 677.4813744403571, -7425.830653408844, -22510.330082217468, -37581.21729865281, 0.10200000000000001, 1.006, 0.188, 192.0, 1.5, 24.0, 15.5, 56.0, 2.5, 112.0, 0.0, 0.0, 0.0, 1.696032980827836E9, 0.0, 2023-09-29 19:16:20.827
124.0, -46134.872273787536, 14047.020858171089, -41749.035328511636, -25865.192814492326, -10869.385107682361, -14590.771745535345, -187500.02235174447, -5730.316726007071, -8572.721013155106, 21635.57221121457, -25166.767855497346, -19632.87825976351, 687.0926245561391, -7443.510883272992, -22520.880105600372, -37599.568080850615, 0.10200000000000001, 1.006, 0.188, 192.0, 0.0, 0.0, 0.0, 0.0, 0.0, 0.0, 0.0, 0.0, 0.0, 1.696032980827839E9, 0.0, 2023-09-29 19:16:20.827
126.0, -46141.75661107977, 14132.739798157192, -41735.06548822707, -25830.88288675343, -10854.968232508687, -14578.902969229577, -187500.02235174447, -5714.603449654991, -8565.657861907228, 21636.600391459513, -25166.07495141923, -19641.12605346752, 656.515438141279, -7448.517674030981, -22509.45836418371, -37593.73427554778, 0.10200000000000001, 1.006, 0.188, 192.0, 0.0, 0.0, 0.0, 0.0, 0.0, 0.0, 0.0, 0.0, 0.0, 1.696032980827843E9, 0.0, 2023-09-29 19:16:20.827
128.0, -46137.91211103345, 14078.045079475056, -41751.963407035284, -25865.997477292716, -10864.95946228021, -14582.814524509255, -187500.02235174447, -5724.013534070675, -8578.93479811368, 21634.14169956943, -25163.32568685123, -19650.69260009439, 662.3939469330248, -7458.173627635673, -22510.88887582885, -37592.66139181393, 0.10200000000000001, 1.006, 0.188, 192.0, 0.0, 0.0, 0.0, 0.0, 0.0, 0.0, 0.0, 0.0, 0.0, 1.696032980827846E9, 0.0, 2023-09-29 19:16:20.827
130.0, -46146.249311715284, 14146.530824486117, -41745.3025871876, -25820.601084303988, -10853.068334229987, -14560.909814943054, -187500.02235174447, -5700.141870992407, -8573.145696299756, 21634.365217013983, -25183.241091160908, -19647.585707615104, 663.3997754335136, -7445.388429807238, -22505.904436815315, -37582.2678306422, 0.10200000000000001, 1.006, 0.188, 192.0, 0.0, 0.0, 0.0, 0.0, 0.0, 0.0, 0.0, 0.0, 0.0, 1.696032980827849E9, 0.0, 2023-09-29 19:16:20.827
132.0, -46146.9422157934, 14090.472649392206, -41755.31616870358, -25853.34638993101, -10871.396764683339, -14567.615338279646, -187500.02235174447, -5715.251650244195, -8576.565513201418, 21641.607182217504, -25165.7396752524, -19637.97445749932, 661.6339876215444, -7435.173682591162, -22505.099774014925, -37575.808176494626, 0.098, 1.002, 0.184, 192.0, 1.5, 8.0, 15.5, 40.0, 2.5, 96.0, 0.0, 0.0, 0.0, 1.696032980827862E9, 0.0, 2023-09-29 19:16:20.827
134.0, -46142.51657039125, 14143.647449451382, -41746.26371219918, -25814.811982490064, -10858.589215110447, -14559.769875975833, -187500.02235174447, -5698.912525047365, -8577.370176001808, 21620.52948719615, -25189.61133833067, -19643.718855824336, 658.4376881644355, -7440.716915216079, -22513.079346785467, -37578.13275791797, 0.098, 1.002, 0.184, 192.0, 0.0, 0.0, 0.0, 0.0, 0.0, 0.0, 0.0, 0.0, 0.0, 1.696032980827865E9, 0.0, 2023-09-29 19:16:20.827
136.0, -46136.056916243666, 14144.027429107122, -41757.68545361584, -25853.815776564574, -10868.423982670784, -14581.763992519856, -187500.02235174447, -5718.559708423581, -8573.995062589058, 21643.99881887422, -25147.858279688156, -19642.824786046123, 652.000385761307, -7447.7130112305895, -22515.716852631194, -37573.23772588226, 0.098, 1.002, 0.184, 192.0, 0.0, 0.0, 0.0, 0.0, 0.0, 0.0, 0.0, 0.0, 0.0, 1.696032980886532E9, 0.0, 2023-09-29 19:16:20.886
138.0, -46144.729393092326, 14132.628039434916, -41732.115057958974, -25823.26094189417, -10853.9624040082, -14571.236320881406, -187500.02235174447, -5704.254591972183, -8579.69475742516, 21626.43034773235, -25200.966024513964, -19643.11535872404, 659.3764614315584, -7461.101706159318, -22509.815992094995, -37594.96362149282, 0.098, 1.002, 0.184, 192.0, 0.0, 0.0, 0.0, 0.0, 0.0, 0.0, 0.0, 0.0, 0.0, 1.696032980886541E9, 0.0, 2023-09-29 19:16:20.886
140.0, -46138.984994767314, 14146.79904541958, -41745.21318020978, -25849.25602069569, -10864.7135930912, -14583.999166965386, -187500.02235174447, -5720.2137375132725, -8561.433382205174, 21643.887060151945, -25139.565782495236, -19646.51282388125, 659.2199992203712, -7448.964708920087, -22504.40686993681, -37578.19981315134, 0.098, 1.002, 0.184, 192.0, 0.0, 0.0, 0.0, 0.0, 0.0, 0.0, 0.0, 0.0, 0.0, 1.696032980886544E9, 0.0, 2023-09-29 19:16:20.886
142.0, -46141.913073290954, 14101.045024519566, -41737.03244173914, -25837.163726945368, -10852.129560962863, -14581.518123330847, -187500.02235174447, -5710.55778390858, -8574.464449222618, 21617.512001694682, -25204.27408269335, -19655.922908296932, 660.2705312097706, -7474.088069687852, -22509.771288606084, -37601.33386866258, 0.098, 1.01, 0.182, 192.0, 1.5, 8.0, 15.5, 72.0, 2.5, 88.0, 0.0, 0.0, 0.0, 1.696032980886547E9, 0.0, 2023-09-29 19:16:20.886
144.0, -46141.42133491294, 14151.425856521828, -41746.241360454726, -25848.384302661932, -10868.133409992864, -14591.487001357915, -187500.02235174447, -5720.727827635745, -8559.086449037368, 21640.579001972557, -25145.913677920544, -19657.152254241973, 653.386193917536, -7463.359232349305, -22512.49820142963, -37586.58171732208, 0.098, 1.01, 0.182, 192.0, 0.0, 0.0, 0.0, 0.0, 0.0, 0.0, 0.0, 0.0, 0.0, 1.69603298088655E9, 0.0, 2023-09-29 19:16:20.886
146.0, -46143.92473029193, 14091.970216270713, -41744.72144183177, -25840.40472989139, -10864.266558202096, -14587.21781816695, -187500.02235174447, -5715.251650244195, -8583.89688538276, 21617.66846390587, -25210.286701951827, -19660.057981021164, 663.8021068337091, -7480.883000002265, -22524.188163779756, -37606.92180477641, 0.098, 1.01, 0.182, 192.0, 0.0, 0.0, 0.0, 0.0, 0.0, 0.0, 0.0, 0.0, 0.0, 1.696032980886554E9, 0.0, 2023-09-29 19:16:20.886
148.0, -46145.15407623698, 14163.786371205613, -41742.06158424158, -25841.008226991682, -10867.8651890594, -14592.22460892494, -187500.02235174447, -5723.633554414935, -8561.88041709428, 21646.211641575293, -25145.60075349817, -19653.330105940116, 630.5874145731228, -7469.237741141051, -22514.375747963877, -37580.546746319145, 0.098, 1.01, 0.182, 192.0, 0.0, 0.0, 0.0, 0.0, 0.0, 0.0, 0.0, 0.0, 0.0, 1.696032980886557E9, 0.0, 2023-09-29 19:16:20.886
150.0, -46147.1433814935, 14076.748678296648, -41728.87405501295, -25833.92272399935, -10853.29185167454, -14588.60362632318, -187500.02235174447, -5719.342019479516, -8577.325472512897, 21612.214638258774, -25210.621978118656, -19652.950126284377, 651.933330527941, -7483.8110785259105, -22513.92871307477, -37601.55738610714, 0.098, 1.01, 0.182, 192.0, 0.0, 0.0, 0.0, 0.0, 0.0, 0.0, 0.0, 0.0, 0.0, 1.696032980946857E9, 0.0, 2023-09-29 19:16:20.946
152.0, -46139.70025058988, 14179.589054535516, -41739.49113362922, -25829.25120940819, -10862.545473879038, -14596.538495604813, -187500.02235174447, -5725.064066060075, -8559.086449037368, 21644.401150274414, -25141.778605196312, -19657.353419942072, 649.8546182935976, -7464.9685579500865, -22508.676053127772, -37573.26007762671, 0.094, 1.008, 0.182, 192.0, 1.0, 120.0, 15.5, 64.0, 2.5, 88.0, 0.0, 0.0, 0.0, 1.696032980946868E9, 0.0, 2023-09-29 19:16:20.946
154.0, -46135.56517786565, 14075.564035840516, -41738.28413942864, -25837.20843043428, -10856.868130787389, -14593.923341503543, -187500.02235174447, -5718.403246212393, -8578.755984158039, 21607.766641112168, -25210.398460674103, -19656.638164119504, 649.0052520042959, -7485.532162848969, -22509.100736272423, -37596.975278493795, 0.094, 1.008, 0.182, 192.0, 0.0, 0.0, 0.0, 0.0, 0.0, 0.0, 0.0, 0.0, 0.0, 1.696032980946871E9, 0.0, 2023-09-29 19:16:20.946
156.0, -46144.505875647774, 14179.700813257792, -41740.564017363075, -25815.661348779366, -10862.880750045866, -14589.765917034856, -187500.02235174447, -5712.301219976094, -8557.991213559057, 21650.6596387219, -25153.69208499099, -19652.860719306555, 649.6087491045892, -7464.7897439944445, -22502.819896080484, -37572.231897381775, 0.094, 1.008, 0.182, 192.0, 0.0, 0.0, 0.0, 0.0, 0.0, 0.0, 0.0, 0.0, 0.0, 1.696032980946875E9, 0.0, 2023-09-29 19:16:20.946
158.0, -46154.720622863846, 14091.16555347032, -41754.31034020309, -25847.4008259059, -10876.96234905271, -14595.867943271154, -187500.02235174447, -5716.928031078342, -8584.858010394337, 21621.95999884129, -25197.23328318993, -19665.958841557367, 630.0509727061955, -7494.29404667545, -22519.851925355426, -37591.36499063551, 0.094, 1.008, 0.182, 192.0, 0.0, 0.0, 0.0, 0.0, 0.0, 0.0, 0.0, 0.0, 0.0, 1.696032980946878E9, 0.0, 2023-09-29 19:16:20.946
160.0, -46148.66330011646, 14199.99619722321, -41743.648558097906, -25821.517505826654, -10871.374412938883, -14592.26931241385, -187500.02235174447, -5714.93872582182, -8568.518885197507, 21651.106673611008, -25163.32568685123, -19660.862643821554, 635.0801152086395, -7478.156087178718, -22521.528306189575, -37580.92672597489, 0.094, 1.008, 0.182, 192.0, 0.0, 0.0, 0.0, 0.0, 0.0, 0.0, 0.0, 0.0, 0.0, 1.696032980946881E9, 0.0, 2023-09-29 19:16:20.946
162.0, -46145.4446489149, 14082.582483599483, -41738.93234001784, -25853.34638993101, -10873.9672152957, -14601.768803807356, -187500.02235174447, -5729.512063206681, -8581.952283615146, 21616.305007494095, -25205.011690260377, -19657.264012964253, 657.8565428085975, -7496.216296698606, -22526.98213183667, -37601.177406451396, 0.094, 1.006, 0.182, 192.0, 1.0, 120.0, 15.5, 56.0, 2.5, 88.0, 0.0, 0.0, 0.0, 1.696032980946884E9, 0.0, 2023-09-29 19:16:20.946
164.0, -46137.53213137772, 14197.403394866395, -41736.40659289439, -25827.328959385035, -10874.503657162626, -14603.065204985764, -187500.02235174447, -5729.445007973315, -8558.348841470342, 21637.025074604164, -25162.923355451032, -19665.645917134992, 627.8157982606648, -7495.143412964751, -22522.82470736798, -37590.135644690476, 0.094, 1.006, 0.182, 192.0, 0.0, 0.0, 0.0, 0.0, 0.0, 0.0, 0.0, 0.0, 0.0, 1.696032980946887E9, 0.0, 2023-09-29 19:16:20.946
166.0, -46132.212416197355, 14084.460030133729, -41732.964424248275, -25852.63113410844, -10875.8671135744, -14612.251771956895, -187500.02235174447, -5741.358487767993, -8568.69769915315, 21616.930856338844, -25196.65213783409, -19660.683829865913, 638.6340425770334, -7498.786747310966, -22522.154155034325, -37607.23472919878, 0.094, 1.006, 0.182, 192.0, 0.0, 0.0, 0.0, 0.0, 0.0, 0.0, 0.0, 0.0, 0.0, 1.696032981007906E9, 0.0, 2023-09-29 19:16:21.007
168.0, -46138.7391255783, 14185.534618560627, -41725.63305206693, -25809.000528931683, -10866.345270436439, -14599.354815406183, -187500.02235174447, -5729.1320835509405, -8548.82699833238, 21643.66354270739, -25165.40439908557, -19656.12407399703, 648.1558857149942, -7488.348482650338, -22506.798506593528, -37589.44274061236, 0.094, 1.006, 0.182, 192.0, 0.0, 0.0, 0.0, 0.0, 0.0, 0.0, 0.0, 0.0, 0.0, 1.696032981007915E9, 0.0, 2023-09-29 19:16:21.007
170.0, -46130.15605570746, 14061.996526956145, -41735.55722660509, -25847.289067183625, -10871.441468172248, -14605.970931764954, -187500.02235174447, -5733.960060353286, -8562.640376405761, 21626.89973436591, -25186.727963295933, -19654.201823973875, 646.7477258143099, -7496.216296698606, -22510.55359966202, -37595.857691271034, 0.094, 1.006, 0.182, 192.0, 0.0, 0.0, 0.0, 0.0, 0.0, 0.0, 0.0, 0.0, 0.0, 1.696032981007919E9, 0.0, 2023-09-29 19:16:21.007
172.0, -46143.23182621382, 14152.208167577764, -41730.93041550284, -25808.329976598023, -10865.048869258031, -14599.466574128459, -187500.02235174447, -5721.040752058119, -8552.492684423052, 21645.675199708367, -25176.960250968965, -19656.615812375047, 645.5630833581786, -7488.7955175394445, -22505.636215881852, -37581.731388775275, 0.096, 1.01, 0.18, 192.0, 1.5, 0.0, 15.5, 72.0, 2.5, 80.0, 0.0, 0.0, 0.0, 1.696032981007922E9, 0.0, 2023-09-29 19:16:21.007
174.0, -46146.36107043756, 14075.385221884873, -41744.16264822038, -25853.189927719824, -10878.348157208939, -14617.906763304087, -187500.02235174447, -5742.051391846107, -8575.582036445385, 21636.33217052605, -25187.08559120722, -19666.450579935383, 642.5232461122569, -7509.001494527041, -22517.393233465344, -37595.298897659646, 0.096, 1.01, 0.18, 192.0, 0.0, 0.0, 0.0, 0.0, 0.0, 0.0, 0.0, 0.0, 0.0, 1.696032981007925E9, 0.0, 2023-09-29 19:16:21.007
176.0, -46152.396041440494, 14166.043897395599, -41741.68160458584, -25827.105441940483, -10877.454087430726, -14617.571487137258, -187500.02235174447, -5742.766647668677, -8575.023242834002, 21618.80840287309, -25195.13221921113, -19675.45833295087, 632.3532023850921, -7511.951924795142, -22524.03170156857, -37599.702191317345, 0.096, 1.01, 0.18, 192.0, 0.0, 0.0, 0.0, 0.0, 0.0, 0.0, 0.0, 0.0, 0.0, 1.696032981007929E9, 0.0, 2023-09-29 19:16:21.007
178.0, -46141.10841049057, 14083.633015588883, -41744.38616566493, -25865.706904614795, -10888.853477102934, -14625.193431996517, -187500.02235174447, -5755.730659452755, -8578.599521946851, 21616.349710983006, -25191.243015675907, -19673.781952116722, 651.4862956388349, -7508.733273593578, -22532.570067950495, -37614.186121724386, 0.096, 1.01, 0.18, 192.0, 0.0, 0.0, 0.0, 0.0, 0.0, 0.0, 0.0, 0.0, 0.0, 1.696032981007932E9, 0.0, 2023-09-29 19:16:21.007
180.0, -46148.12685824953, 14148.140150086898, -41731.35509864749, -25815.460183079267, -10879.19752349824, -14609.010769010874, -187500.02235174447, -5733.177749297351, -8570.687004409672, 21612.147583025406, -25203.648233848602, -19671.36796371555, 623.6360220475224, -7506.766320081511, -22527.831498125972, -37604.35135416405, 0.096, 1.01, 0.18, 192.0, 0.0, 0.0, 0.0, 0.0, 0.0, 0.0, 0.0, 0.0, 0.0, 1.696032981007935E9, 0.0, 2023-09-29 19:16:21.007
182.0, -46140.14728547899, 14132.292763268086, -41739.28996792912, -25844.897430526904, -10893.279122505084, -14616.185678981028, -187500.02235174447, -5747.996955871219, -8566.239007263066, 21641.964810128786, -25168.064256675752, -19664.483626423316, 621.6243650465448, -7497.445642643648, -22528.59145743745, -37593.64486856996, 0.094, 1.016, 0.18, 192.0, 1.0, 120.0, 15.5, 96.0, 2.5, 80.0, 0.0, 0.0, 0.0, 1.69603298106828E9, 0.0, 2023-09-29 19:16:21.068
184.0, -46142.24834945778, 14161.081810126521, -41726.102438700495, -25806.87711320843, -10877.409383941816, -14602.148783463095, -187500.02235174447, -5725.935784093832, -8569.189437531166, 21627.257362277196, -25200.6978035805, -19658.7392280983, 627.5475773272011, -7500.530183378481, -22524.25521901312, -37592.81785402511, 0.094, 1.016, 0.18, 192.0, 0.0, 0.0, 0.0, 0.0, 0.0, 0.0, 0.0, 0.0, 0.0, 1.696032981068289E9, 0.0, 2023-09-29 19:16:21.068
186.0, -46127.85382602857, 14134.907917369357, -41727.24237766772, -25831.709901298276, -10878.571674653493, -14608.273161443849, -187500.02235174447, -5739.235072044739, -8561.50043743854, 21644.80348167461, -25155.189651869496, -19650.17850997192, 638.6116908325781, -7501.24543920105, -22513.481678185664, -37577.8198334956, 0.094, 1.016, 0.18, 192.0, 0.0, 0.0, 0.0, 0.0, 0.0, 0.0, 0.0, 0.0, 0.0, 1.696032981068292E9, 0.0, 2023-09-29 19:16:21.068
188.0, -46138.917939533945, 14131.17517604532, -41721.632089809435, -25806.161857385858, -10870.212122227207, -14612.452937656992, -187500.02235174447, -5737.379877254949, -8566.037841562968, 21631.258324534694, -25201.03307974733, -19650.402027416472, 642.9479292569076, -7513.069512017908, -22504.809201337004, -37584.592412065555, 0.094, 1.016, 0.18, 192.0, 0.0, 0.0, 0.0, 0.0, 0.0, 0.0, 0.0, 0.0, 0.0, 1.696032981068295E9, 0.0, 2023-09-29 19:16:21.068
190.0, -46130.0890004741, 14153.99630713419, -41728.11409570147, -25833.721558299254, -10876.895293819343, -14626.579240152747, -187500.02235174447, -5757.094115864529, -8556.515998425008, 21652.313667811595, -25151.054579145264, -19660.549719399183, 638.1423041990166, -7507.727445093089, -22512.565256662998, -37586.40290336644, 0.094, 1.016, 0.18, 192.0, 0.0, 0.0, 0.0, 0.0, 0.0, 0.0, 0.0, 0.0, 0.0, 1.696032981068298E9, 0.0, 2023-09-29 19:16:21.068
192.0, -46150.56319839516, 14122.83797536349, -41718.18992116331, -25815.90721796837, -10864.087744246453, -14612.967027779465, -187500.02235174447, -5740.218548800773, -8571.044632320956, 21610.851181847, -25207.336271683725, -19663.94718455639, 640.1763129444496, -7522.837224344877, -22503.445744925233, -37597.53407210518, 0.092, 1.004, 0.182, 192.0, 1.0, 112.0, 15.5, 48.0, 2.5, 88.0, 0.0, 0.0, 0.0, 1.696032981068302E9, 0.0, 2023-09-29 19:16:21.068
194.0, -46154.07242227464, 14175.632795766925, -41730.505732358186, -25829.899409997393, -10878.862247331412, -14613.972856279954, -187500.02235174447, -5745.404153514404, -8559.175856015188, 21625.133946553942, -25150.898116934077, -19669.08808578111, 652.8274003061534, -7510.543764894458, -22505.479753670665, -37580.16676666341, 0.092, 1.004, 0.182, 192.0, 0.0, 0.0, 0.0, 0.0, 0.0, 0.0, 0.0, 0.0, 0.0, 1.696032981068305E9, 0.0, 2023-09-29 19:16:21.068
196.0, -46148.59624488309, 14110.678626379804, -41721.47562759824, -25820.891656981905, -10868.938072793255, -14597.231399682929, -187500.02235174447, -5723.678257903845, -8579.203019047143, 21596.61312062897, -25219.0038822894, -19669.13278927002, 623.4572080918799, -7520.959677810631, -22503.17752399177, -37591.40969412443, 0.092, 1.004, 0.182, 192.0, 0.0, 0.0, 0.0, 0.0, 0.0, 0.0, 0.0, 0.0, 0.0, 1.696032981127661E9, 0.0, 2023-09-29 19:16:21.127
198.0, -46133.55352086467, 14168.636699752415, -41732.20446493679, -25827.932456485327, -10882.10325027743, -14603.959274763976, -187500.02235174447, -5732.954231852798, -8557.745344370049, 21634.61108620299, -25155.390817569594, -19667.322297969138, 632.5990715741004, -7505.626381114291, -22511.380614206864, -37571.49428981475, 0.092, 1.004, 0.182, 192.0, 0.0, 0.0, 0.0, 0.0, 0.0, 0.0, 0.0, 0.0, 0.0, 1.696032981127672E9, 0.0, 2023-09-29 19:16:21.127
200.0, -46146.22695997083, 14080.213198687221, -41729.54460734661, -25836.895506011904, -10879.309282220518, -14600.450050884492, -187500.02235174447, -5728.416827728371, -8576.051423078945, 21610.22533300225, -25219.60737938969, -19668.819864847646, 638.7681530437652, -7526.435855202181, -22519.628407910874, -37593.39899938095, 0.092, 1.004, 0.182, 192.0, 0.0, 0.0, 0.0, 0.0, 0.0, 0.0, 0.0, 0.0, 0.0, 1.696032981127676E9, 0.0, 2023-09-29 19:16:21.127
202.0, -46150.85377107308, 14178.359708590473, -41733.366755648465, -25830.100575697492, -10886.193619512751, -14611.692978345513, -187500.02235174447, -5740.263252289683, -8566.708393896628, 21651.486653266747, -25161.112864150153, -19672.060867793665, 635.4600948643798, -7513.024808528997, -22523.02587306808, -37575.29408637215, 0.096, 1.0, 0.184, 192.0, 1.5, 0.0, 15.5, 32.0, 2.5, 96.0, 0.0, 0.0, 0.0, 1.696032981127679E9, 0.0, 2023-09-29 19:16:21.127
204.0, -46146.0928495041, 14074.155875939832, -41728.270557912656, -25846.752625316698, -10879.8680758319, -14616.967990036965, -187500.02235174447, -5748.220473315772, -8595.184516332689, 21598.200094485295, -25222.624864891157, -19675.748905628792, 632.487312851824, -7523.396017956259, -22527.429166725775, -37605.60305185355, 0.096, 1.0, 0.184, 192.0, 0.0, 0.0, 0.0, 0.0, 0.0, 0.0, 0.0, 0.0, 0.0, 1.696032981127682E9, 0.0, 2023-09-29 19:16:21.127
206.0, -46140.99665176829, 14197.872781499957, -41728.136447445926, -25822.590389560508, -10877.230569986174, -14619.024350526852, -187500.02235174447, -5747.080534348552, -8563.243873506055, 21632.554725713104, -25158.83298621571, -19668.41753344745, 638.4775803658463, -7505.671084603201, -22512.319387473988, -37582.82662425359, 0.096, 1.0, 0.184, 192.0, 0.0, 0.0, 0.0, 0.0, 0.0, 0.0, 0.0, 0.0, 0.0, 1.696032981127685E9, 0.0, 2023-09-29 19:16:21.127
208.0, -46136.23573019931, 14080.324957409497, -41729.20933117978, -25849.21131720678, -10878.01288104211, -14623.360588951182, -187500.02235174447, -5749.293357049627, -8586.757908673038, 21603.922141065854, -25214.868809565167, -19672.99964106079, 635.1918739309161, -7534.571890183913, -22515.850963097928, -37606.45241814285, 0.096, 1.0, 0.184, 192.0, 0.0, 0.0, 0.0, 0.0, 0.0, 0.0, 0.0, 0.0, 0.0, 1.696032981127688E9, 0.0, 2023-09-29 19:16:21.127
210.0, -46142.56127388016, 14197.38104312194, -41720.62626130894, -25814.87903772343, -10878.30345372003, -14614.17402198005, -187500.02235174447, -5738.56451971108, -8558.84057984836, 21647.016304375687, -25166.656096775067, -19664.30481246767, 656.2919206967259, -7516.779901597489, -22511.93940781825, -37581.86549924201, 0.096, 1.0, 0.184, 192.0, 0.0, 0.0, 0.0, 0.0, 0.0, 0.0, 0.0, 0.0, 0.0, 1.696032981127691E9, 0.0, 2023-09-29 19:16:21.127
212.0, -46144.170599480945, 14095.121812238911, -41724.8954444999, -25836.49317461171, -10881.723270621691, -14616.856231314689, -187500.02235174447, -5740.866749389977, -8579.448888236153, 21617.869629605964, -25204.765821071367, -19666.7411526133, 622.0490481911955, -7538.796369885966, -22511.961759562702, -37594.740104048265, 0.094, 1.002, 0.176, 192.0, 1.0, 120.0, 15.5, 40.0, 2.5, 64.0, 0.0, 0.0, 0.0, 1.696032981187477E9, 0.0, 2023-09-29 19:16:21.187
214.0, -46132.36887840854, 14204.24302866972, -41715.15008391739, -25801.66915675034, -10879.979834554177, -14611.827088812244, -187500.02235174447, -5736.3516970100045, -8558.684117637173, 21641.383664772948, -25169.561823554257, -19663.678963622926, 630.0062692172849, -7518.813910342921, -22511.894704329337, -37576.32226661709, 0.094, 1.002, 0.176, 192.0, 0.0, 0.0, 0.0, 0.0, 0.0, 0.0, 0.0, 0.0, 0.0, 1.696032981187486E9, 0.0, 2023-09-29 19:16:21.187
216.0, -46133.8887970315, 14088.93037902479, -41718.52519733014, -25834.906200755384, -10887.355910224427, -14618.018522026363, -187500.02235174447, -5748.287528549138, -8571.379908487786, 21624.508097709193, -25198.66379483507, -19658.448655420383, 637.0917722096173, -7524.826529601399, -22521.528306189575, -37594.06955171461, 0.094, 1.002, 0.176, 192.0, 0.0, 0.0, 0.0, 0.0, 0.0, 0.0, 0.0, 0.0, 0.0, 1.69603298118749E9, 0.0, 2023-09-29 19:16:21.187
218.0, -46136.36984066604, 14215.709473575293, -41715.619470550955, -25798.517560782144, -10887.490020691159, -14620.074882516252, -187500.02235174447, -5755.3730315414705, -8554.21376874611, 21634.18640305834, -25165.493806063394, -19657.286364708707, 634.454266363891, -7516.601087641846, -22519.40489046632, -37578.53508931817, 0.094, 1.002, 0.176, 192.0, 0.0, 0.0, 0.0, 0.0, 0.0, 0.0, 0.0, 0.0, 0.0, 1.696032981187493E9, 0.0, 2023-09-29 19:16:21.187
220.0, -46130.64779408548, 14113.159670014344, -41718.18992116331, -25843.332808415034, -10892.96619808271, -14624.008789540387, -187500.02235174447, -5762.838514189543, -8571.335204998875, 21626.117423309974, -25184.626899317136, -19660.572071143637, 632.3084988961815, -7533.499006450058, -22527.54092544805, -37600.05981922863, 0.094, 1.002, 0.176, 192.0, 0.0, 0.0, 0.0, 0.0, 0.0, 0.0, 0.0, 0.0, 0.0, 1.696032981187496E9, 0.0, 2023-09-29 19:16:21.187
222.0, -46126.84799752808, 14194.542371576115, -41704.287136112114, -25794.941281669293, -10874.570712395993, -14601.992321251908, -187500.02235174447, -5738.497464477714, -8557.320661225398, 21630.654827434402, -25176.960250968965, -19654.85002456308, 638.4999321103015, -7523.865404589821, -22510.866524084395, -37584.257135898726, 0.098, 1.008, 0.184, 192.0, 1.5, 8.0, 15.5, 64.0, 2.5, 96.0, 0.0, 0.0, 0.0, 1.696032981187499E9, 0.0, 2023-09-29 19:16:21.187
224.0, -46126.400962638974, 14111.103309524455, -41718.45814209678, -25841.92464851435, -10881.946788066243, -14617.571487137258, -187500.02235174447, -5751.819104173077, -8563.825018861893, 21632.085339079542, -25174.345096867695, -19661.533196155215, 640.1763129444496, -7529.0063058145415, -22506.97732054917, -37582.13372017547, 0.098, 1.008, 0.184, 192.0, 0.0, 0.0, 0.0, 0.0, 0.0, 0.0, 0.0, 0.0, 0.0, 1.696032981187503E9, 0.0, 2023-09-29 19:16:21.187
226.0, -46119.9860119803, 14178.225598123741, -41697.15692963087, -25797.668194492842, -10870.05566001602, -14608.094347488208, -187500.02235174447, -5737.223415043762, -8554.303175723931, 21634.924010625364, -25189.41017263057, -19662.181396744418, 656.806010819198, -7536.360029740337, -22502.395212935833, -37585.70999928832, 0.098, 1.008, 0.184, 192.0, 0.0, 0.0, 0.0, 0.0, 0.0, 0.0, 0.0, 0.0, 0.0, 1.696032981247782E9, 0.0, 2023-09-29 19:16:21.247
228.0, -46130.245462685285, 14118.434681705796, -41707.32697335804, -25839.041273479615, -10889.68049164778, -14624.925211063053, -187500.02235174447, -5758.94931065432, -8555.152542013233, 21653.99004864574, -25168.757160753867, -19664.617736890046, 623.4572080918799, -7526.704076135645, -22510.419489195287, -37589.10746444553, 0.098, 1.008, 0.184, 192.0, 0.0, 0.0, 0.0, 0.0, 0.0, 0.0, 0.0, 0.0, 0.0, 1.696032981247798E9, 0.0, 2023-09-29 19:16:21.247
230.0, -46140.862541301554, 14153.124589100433, -41700.375580832435, -25810.833371977016, -10882.527933422081, -14618.867888315664, -187500.02235174447, -5753.741354196233, -8559.488780437563, 21624.888077364933, -25196.65213783409, -19666.919966568945, 631.5932430736117, -7529.4756924481035, -22515.87331484238, -37597.55642384964, 0.098, 1.008, 0.184, 192.0, 0.0, 0.0, 0.0, 0.0, 0.0, 0.0, 0.0, 0.0, 0.0, 1.696032981247802E9, 0.0, 2023-09-29 19:16:21.247
232.0, -46140.035526756714, 14128.202394032765, -41714.88186298393, -25848.02667475065, -10902.77861389859, -14630.602554154702, -187500.02235174447, -5770.415755559892, -8566.663690407717, 21623.256400019694, -25167.706628764467, -19674.899539339487, 633.4037343744916, -7539.288108263983, -22524.27757075758, -37594.29306915916, 0.1, 1.014, 0.182, 192.0, 1.5, 16.0, 15.5, 88.0, 2.5, 88.0, 0.0, 0.0, 0.0, 1.696032981247805E9, 0.0, 2023-09-29 19:16:21.247
234.0, -46135.02873599872, 14155.873853668434, -41701.76138898866, -25810.252226621178, -10886.797116613045, -14615.805699325289, -187500.02235174447, -5753.026098373663, -8575.64909167875, 21621.401205229904, -25207.492733894913, -19677.067658551652, 630.0509727061955, -7549.167579313229, -22522.802355623528, -37599.411618639424, 0.1, 1.014, 0.182, 192.0, 0.0, 0.0, 0.0, 0.0, 0.0, 0.0, 0.0, 0.0, 0.0, 1.696032981247808E9, 0.0, 2023-09-29 19:16:21.247
236.0, -46137.0403929997, 14148.765998931647, -41714.568938561555, -25831.91106699837, -10900.699901664246, -14622.6006296397, -187500.02235174447, -5761.85503743351, -8559.60053915984, 21635.058121092097, -25163.92918395152, -19670.540949170703, 632.6661268074664, -7540.204529786651, -22523.986998079657, -37587.67695280039, 0.1, 1.014, 0.182, 192.0, 0.0, 0.0, 0.0, 0.0, 0.0, 0.0, 0.0, 0.0, 0.0, 1.696032981247811E9, 0.0, 2023-09-29 19:16:21.247
238.0, -46132.92767201992, 14147.491949497695, -41699.459159309765, -25801.11036313896, -10887.579427668981, -14620.99130403892, -187500.02235174447, -5753.450781518314, -8565.680213651684, 21609.778298113146, -25206.397498416605, -19667.054077035675, 638.9469669994077, -7548.139399068285, -22520.701291644727, -37590.80619702413, 0.1, 1.014, 0.182, 192.0, 0.0, 0.0, 0.0, 0.0, 0.0, 0.0, 0.0, 0.0, 0.0, 1.696032981247819E9, 0.0, 2023-09-29 19:16:21.247
240.0, -46129.17257895143, 14170.402487564385, -41705.136502401416, -25812.688566766807, -10895.514296950614, -14623.695865118012, -187500.02235174447, -5760.178656599362, -8550.704544866627, 21643.440025262837, -25153.78149196881, -19659.923870554434, 649.8993217825082, -7540.49510246457, -22516.521515431585, -37580.65850504142, 0.1, 1.014, 0.182, 192.0, 0.0, 0.0, 0.0, 0.0, 0.0, 0.0, 0.0, 0.0, 0.0, 1.696032981247822E9, 0.0, 2023-09-29 19:16:21.247
242.0, -46131.854788286066, 14131.711617912248, -41697.11222614196, -25798.025822404128, -10886.864171846411, -14617.45972841498, -187500.02235174447, -5757.0717641200745, -8564.003832817536, 21633.873478635967, -25203.581178615237, -19655.811149574656, 640.5115891112791, -7548.988765357586, -22512.54290491854, -37591.655563313434, 0.10400000000000001, 1.008, 0.184, 192.0, 1.5, 32.0, 15.5, 64.0, 2.5, 96.0, 0.0, 0.0, 0.0, 1.696032981308013E9, 0.0, 2023-09-29 19:16:21.308
244.0, -46118.68961080189, 14200.24206641222, -41708.39985709189, -25813.560284800566, -10895.134317294875, -14629.842594843221, -187500.02235174447, -5775.1543253844175, -8550.011640788513, 21652.537185256147, -25133.955494636954, -19659.722704854335, 627.0558389491844, -7536.002401829052, -22514.442803197242, -37577.30574337313, 0.10400000000000001, 1.008, 0.184, 192.0, 0.0, 0.0, 0.0, 0.0, 0.0, 0.0, 0.0, 0.0, 0.0, 1.696032981308022E9, 0.0, 2023-09-29 19:16:21.308
