%OpenBCI Raw EXG Data
%Number of channels = 16
%Sample Rate = 125 Hz
%Board = OpenBCI_GUI$BoardCytonSerialDaisy
Sample Index, EXG Channel 0, EXG Channel 1, EXG Channel 2, EXG Channel 3, EXG Channel 4, EXG Channel 5, EXG Channel 6, EXG Channel 7, EXG Channel 8, EXG Channel 9, EXG Channel 10, EXG Channel 11, EXG Channel 12, EXG Channel 13, EXG Channel 14, EXG Channel 15, Accel Channel 0, Accel Channel 1, Accel Channel 2, Other, Other, Other, Other, Other, Other, Other, Analog Channel 0, Analog Channel 1, Analog Channel 2, Timestamp, Other, Timestamp (Formatted)
0.0, 30347.321074881685, 42848.65174873493, 38539.637749151916, -8748.361021084907, 1910.358895106184, -10518.529774967406, 121665.70832320552, -2175.294122134939, 0.0, 0.0, 0.0, 0.0, 0.0, 0.0, 0.0, 0.0, 0.0, 0.0, 0.0, 192.0, 0.0, 0.0, 0.0, 0.0, 0.0, 0.0, 0.0, 0.0, 0.0, 1.695764556121807E9, 0.0, 2023-09-26 16:42:36.121
194.0, 30315.492190777328, 42851.17749585838, 38553.831106881036, -8771.316262640508, 1892.455147797483, -10458.917672505102, 121732.7859083159, -2116.08435107283, 27067.89548014349, 42699.386799262385, -187500.02235174447, -132763.10357607648, 30078.608403039983, 15116.37301640189, 4570.976444599205, -8815.84093759548, 0.07200000000000001, 0.497, 0.08, 192.0, 2.0, 64.0, 15.5, 8.0, 2.5, 0.0, 0.0, 0.0, 0.0, 1.695764556121824E9, 0.0, 2023-09-26 16:42:36.121
196.0, 30343.29776087973, 42832.67025144938, 38528.95361530228, -8761.123867168888, 1898.5124705448713, -10493.898152577658, 121690.56346303981, -2153.1658951241848, 27057.16664280494, 42772.432300142325, -187500.02235174447, -132628.03198433304, 30081.111798418977, 15219.235744385212, 4657.857675296984, -8706.652665931304, 0.07200000000000001, 0.497, 0.08, 192.0, 0.0, 0.0, 0.0, 0.0, 0.0, 0.0, 0.0, 0.0, 0.0, 1.695764556121835E9, 0.0, 2023-09-26 16:42:36.121
198.0, 30342.090766679143, 42862.822754719586, 38579.53561300464, -8752.429038575774, 1911.2529648843963, -10483.325777450298, 121711.77526852791, -2136.1115141047853, 27085.151026862983, 42670.217772748205, -187500.02235174447, -132728.16779949283, 30082.519958319663, 15106.784118030564, 4571.669348677319, -8814.119853272421, 0.07200000000000001, 0.497, 0.08, 192.0, 0.0, 0.0, 0.0, 0.0, 0.0, 0.0, 0.0, 0.0, 0.0, 1.695764556121862E9, 0.0, 2023-09-26 16:42:36.121
200.0, 30359.30160990973, 42860.07349015158, 38568.516202988176, -8741.297869837032, 1908.5931072942149, -10483.772812339403, 121701.60522480075, -2143.71110721959, 27088.280271086725, 42770.71121581927, -187500.02235174447, -132613.32453648146, 30111.33135692255, 15216.687645517308, 4646.324175158045, -8728.937355153246, 0.07200000000000001, 0.497, 0.08, 192.0, 0.0, 0.0, 0.0, 0.0, 0.0, 0.0, 0.0, 0.0, 0.0, 1.695764556121871E9, 0.0, 2023-09-26 16:42:36.121
202.0, 30337.799231743724, 42861.68281575237, 38579.11092985999, -8759.961576457212, 1902.8263572247456, -10503.26353350443, 121688.64121301666, -2156.049270158919, 27097.243320613306, 42681.93008684279, -187500.02235174447, -132705.70429631523, 30084.822187998558, 15112.304998911024, 4564.963825340727, -8830.391923235884, 0.07200000000000001, 0.497, 0.08, 192.0, 0.0, 0.0, 0.0, 0.0, 0.0, 0.0, 0.0, 0.0, 0.0, 1.695764556121899E9, 0.0, 2023-09-26 16:42:36.121
204.0, 30348.349255126628, 42832.066754349085, 38554.14403130341, -8765.460105593218, 1897.2831245998293, -10489.494858919961, 121695.65966077564, -2154.7528689805113, 27062.866337641044, 42781.03772175762, -187500.02235174447, -132582.54618436648, 30089.38194386744, 15216.419424583844, 4642.949061745294, -8738.68271573576, 0.11, 0.7475, 0.118, 192.0, 2.0, 80.0, 15.5, 24.0, 2.0, 112.0, 0.0, 0.0, 0.0, 1.695764556121909E9, 0.0, 2023-09-26 16:42:36.121
206.0, 30349.109214438107, 42851.33395806956, 38582.66485722838, -8760.87799797988, 1909.420121839061, -10541.32855431182, 121653.19134631054, -2197.6235148457904, 27111.615492298068, 42661.05355752153, -187500.02235174447, -132701.2786509131, 30088.040839200123, 15083.962986941695, 4529.111627234415, -8873.821362712546, 0.11, 0.7475, 0.118, 192.0, 0.0, 0.0, 0.0, 0.0, 0.0, 0.0, 0.0, 0.0, 0.0, 1.695764556121918E9, 0.0, 2023-09-26 16:42:36.121
208.0, 30353.601915073625, 42831.59736771553, 38565.923400631356, -8766.532989327072, 1891.0916913857093, -10475.904998291135, 121716.22326567452, -2145.320432820372, 27067.806073165666, 42782.915268291865, -187500.02235174447, -132566.96701848114, 30103.172970196363, 15201.466107543243, 4627.191081904302, -8767.672928294292, 0.11, 0.7475, 0.118, 192.0, 0.0, 0.0, 0.0, 0.0, 0.0, 0.0, 0.0, 0.0, 0.0, 1.695764556121927E9, 0.0, 2023-09-26 16:42:36.121
0.0, 14531.137291328585, 25342.564325638334, 18581.34044186359, 932.2242059974917, -1439.6311568774172, -3971.972044941431, 61995.379566595504, 1008.4660063345441, 13535.277668866835, 21337.109367502853, -93750.01117587223, -66325.49361294432, 15038.253669530592, 7544.317250766427, 2276.301655328471, -4432.663849909764, 0.124, 1.002, 0.116, 192.0, 1.5, 112.0, 15.5, 40.0, 1.5, 80.0, 0.0, 0.0, 0.0, 1.6957645562664E9, 0.0, 2023-09-26 16:42:36.266
2.0, 29049.154108661904, 50699.880802617176, 37176.98600017858, 1887.2918948283072, -2852.3955169195556, -7985.652445036465, 123958.259696753, 1990.48989897846, 26025.901857125984, 47643.97265243204, -187500.02235174447, -145604.359579606, 27959.618325187963, 11624.807015038374, 12817.20552649564, -7591.12180365584, 0.124, 1.002, 0.116, 192.0, 0.0, 0.0, 0.0, 0.0, 0.0, 0.0, 0.0, 0.0, 0.0, 1.695764556266425E9, 0.0, 2023-09-26 16:42:36.266
4.0, 29056.261963398694, 50705.69225617555, 37180.65168626925, 1883.6262087376367, -2855.8153338212173, -7890.881048545963, 124047.30904666294, 2065.3011876703727, 25996.106981767058, 47756.53603750897, -187500.02235174447, -145507.30830518107, 27994.68821223834, 11732.832995990873, 12896.755385012077, -7506.989837526065, 0.124, 1.002, 0.116, 192.0, 0.0, 0.0, 0.0, 0.0, 0.0, 0.0, 0.0, 0.0, 0.0, 1.695764556266435E9, 0.0, 2023-09-26 16:42:36.266
6.0, 29082.458207900312, 50728.91571866462, 37165.58661050637, 1902.2899153578182, -2822.377124116078, -8033.216957237359, 123906.38129787223, 1943.9982705114212, 26035.043720608202, 47635.90367268368, -187500.02235174447, -145604.20311739482, 27981.388924287432, 11627.936259262116, 12820.49123293057, -7591.83705947841, 0.124, 1.002, 0.116, 192.0, 0.0, 0.0, 0.0, 0.0, 0.0, 0.0, 0.0, 0.0, 0.0, 1.695764556266444E9, 0.0, 2023-09-26 16:42:36.266
8.0, 29056.194908165326, 50720.24324181596, 37182.88686071478, 1870.8633626536564, -2848.8639412956168, -7905.18616499736, 124031.68517728869, 2047.3974403616717, 26016.357662243565, 47728.12697030628, -187500.02235174447, -145566.69689019883, 28018.023433449678, 11701.60760898681, 12858.153922337762, -7563.405640531259, 0.114, 1.006, 0.10400000000000001, 192.0, 1.5, 72.0, 15.5, 56.0, 1.5, 32.0, 0.0, 0.0, 0.0, 1.695764556266453E9, 0.0, 2023-09-26 16:42:36.266
10.0, 29065.716751303287, 50720.31029704932, 37133.73537465756, 1874.8643249111565, -2841.3314034141786, -8031.2947072142015, 123909.77876302943, 1944.065325744787, 26020.358624501067, 47657.22723689405, -187500.02235174447, -145597.0729109136, 27972.425874760855, 11647.06935251586, 12837.63502092779, -7575.363823814849, 0.114, 1.006, 0.10400000000000001, 192.0, 0.0, 0.0, 0.0, 0.0, 0.0, 0.0, 0.0, 0.0, 0.0, 1.695764556266462E9, 0.0, 2023-09-26 16:42:36.266
12.0, 29047.27656212766, 50704.23939278596, 37150.76740393251, 1860.7380224154024, -2861.7832495907846, -7901.207554484315, 124036.04376745746, 2053.3653561312385, 26002.94661557038, 47712.2125282541, -187500.02235174447, -145585.89703868594, 27999.091505896035, 11684.754393667507, 12855.53876823649, -7563.293881808982, 0.114, 1.006, 0.10400000000000001, 192.0, 0.0, 0.0, 0.0, 0.0, 0.0, 0.0, 0.0, 0.0, 0.0, 1.695764556266471E9, 0.0, 2023-09-26 16:42:36.266
14.0, 29069.47184437178, 50712.442483001054, 37094.93274628314, 1868.359967274662, -2856.2623687103237, -8038.268451484258, 123899.49696058, 1935.3034419183068, 26006.344080727587, 47669.63245506674, -187500.02235174447, -145583.61716075148, 27957.96429609827, 11659.899253833206, 12847.11216057684, -7556.566006727935, 0.114, 1.006, 0.10400000000000001, 192.0, 0.0, 0.0, 0.0, 0.0, 0.0, 0.0, 0.0, 0.0, 0.0, 1.695764556266514E9, 0.0, 2023-09-26 16:42:36.266
16.0, 29039.02876842365, 50713.850642901736, 37135.90349386972, 1855.84299037969, -2876.110717786636, -7888.556467122611, 124044.55978209493, 2061.1661149461406, 25997.895121323483, 47696.18632747964, -187500.02235174447, -145603.33139936108, 27982.752380699207, 11668.191751026125, 12841.524224463014, -7573.709794725156, 0.114, 1.006, 0.10400000000000001, 192.0, 0.0, 0.0, 0.0, 0.0, 0.0, 0.0, 0.0, 0.0, 0.0, 1.695764556326636E9, 0.0, 2023-09-26 16:42:36.326
18.0, 29071.08116997256, 50715.97405862499, 37089.18834795813, 1875.4231185225392, -2855.792982076762, -8045.823341110152, 123885.86239646225, 1920.774808022357, 26006.63465340551, 47682.88703952874, -187500.02235174447, -145558.5608552171, 27954.00803732968, 11673.444410973121, 12859.495027005081, -7535.868291362321, 0.11800000000000001, 1.006, 0.096, 192.0, 1.5, 88.0, 15.5, 56.0, 1.5, 0.0, 0.0, 0.0, 0.0, 1.695764556326659E9, 0.0, 2023-09-26 16:42:36.326
20.0, 29044.147317903917, 50713.493014990454, 37135.791735147446, 1866.884752140612, -2858.0281565222926, -7918.507804692723, 124010.18279912267, 2029.3148790973282, 26002.074897536626, 47672.49347835702, -187500.02235174447, -145627.85126302854, 27985.859273178492, 11641.97315478005, 12820.848860841854, -7602.7894142615105, 0.11800000000000001, 1.006, 0.096, 192.0, 0.0, 0.0, 0.0, 0.0, 0.0, 0.0, 0.0, 0.0, 0.0, 1.695764556326669E9, 0.0, 2023-09-26 16:42:36.326
22.0, 29057.42425411037, 50704.26174453041, 37081.81227228788, 1864.4037085060727, -2864.8230868367064, -8029.0595327686715, 123900.48043733602, 1937.2703954303738, 26001.180827758413, 47700.8578420708, -187500.02235174447, -145560.0137186067, 27963.842804890017, 11687.190733813135, 12861.126704350318, -7539.556329197447, 0.11800000000000001, 1.006, 0.096, 192.0, 0.0, 0.0, 0.0, 0.0, 0.0, 0.0, 0.0, 0.0, 0.0, 1.695764556326678E9, 0.0, 2023-09-26 16:42:36.326
24.0, 29041.88979171393, 50714.074160346296, 37131.12022055629, 1861.8332578937125, -2870.992168306371, -7901.855755073519, 124026.43251734169, 2050.16905667413, 25988.686202607896, 47669.31953064437, -187500.02235174447, -145627.24776592824, 27969.184871814832, 11635.669962843653, 12824.738064377078, -7595.726263013633, 0.11800000000000001, 1.006, 0.096, 192.0, 0.0, 0.0, 0.0, 0.0, 0.0, 0.0, 0.0, 0.0, 0.0, 1.695764556326687E9, 0.0, 2023-09-26 16:42:36.326
26.0, 29077.205547953316, 50703.94882010804, 37087.84724329082, 1877.2112580789637, -2859.145743745058, -8010.8652127820515, 123915.90314101019, 1949.7873723253456, 26001.560807414153, 47718.381609723765, -187500.02235174447, -145527.33546821302, 27959.73008391024, 11701.629960731265, 12888.12761165233, -7505.805195069933, 0.11800000000000001, 1.006, 0.096, 192.0, 0.0, 0.0, 0.0, 0.0, 0.0, 0.0, 0.0, 0.0, 0.0, 1.695764556326696E9, 0.0, 2023-09-26 16:42:36.326
28.0, 29035.206620121793, 50695.58926768175, 37134.78590664696, 1875.4678220114497, -2859.0786885116922, -7907.622505142988, 124019.3693660938, 2041.4965798254705, 26009.67449065143, 47650.5440653019, -187500.02235174447, -145645.10680974805, 27978.05851436359, 11613.742901532996, 12818.30076197395, -7603.214097406161, 0.11800000000000001, 1.006, 0.096, 192.0, 1.5, 88.0, 15.5, 56.0, 1.5, 0.0, 0.0, 0.0, 0.0, 1.695764556326705E9, 0.0, 2023-09-26 16:42:36.326
30.0, 29056.79840526562, 50670.89059005864, 37075.665542562674, 1874.1267173441313, -2866.0077292928377, -7983.059642679649, 123943.64165587923, 1972.6532069031248, 25984.171150227925, 47740.755705923526, -187500.02235174447, -145509.16349997086, 27963.753397912194, 11721.388902829756, 12910.144079940806, -7480.9277034911765, 0.11800000000000001, 1.006, 0.096, 192.0, 0.0, 0.0, 0.0, 0.0, 0.0, 0.0, 0.0, 0.0, 0.0, 1.695764556386181E9, 0.0, 2023-09-26 16:42:36.386
32.0, 29058.98887622224, 50713.8729946462, 37130.65083392273, 1900.9488106904998, -2836.346964400645, -7961.713726724831, 123969.74849340302, 1988.7911663998566, 26019.129278556025, 47622.55968124386, -187500.02235174447, -145666.85505710306, 27986.999212145714, 11597.180258891614, 12800.352311176339, -7620.8719755258535, 0.11800000000000001, 1.006, 0.096, 192.0, 0.0, 0.0, 0.0, 0.0, 0.0, 0.0, 0.0, 0.0, 0.0, 1.695764556386205E9, 0.0, 2023-09-26 16:42:36.386
34.0, 29063.50392860221, 50682.26762798639, 37082.21460368807, 1876.2054295784749, -2863.4819821693877, -7986.680625281409, 123940.71357735558, 1959.6221398856808, 25999.504446924264, 47751.439839773164, -187500.02235174447, -145541.52882594214, 27986.552177256606, 11720.785405729463, 12894.341396610904, -7504.955828780631, 0.11800000000000001, 1.006, 0.096, 192.0, 0.0, 0.0, 0.0, 0.0, 0.0, 0.0, 0.0, 0.0, 0.0, 1.695764556386215E9, 0.0, 2023-09-26 16:42:36.386
36.0, 29042.426233580856, 50702.78652939636, 37106.57800514436, 1874.4843452554162, -2857.7152320999185, -7961.400802302457, 123963.93703984465, 1986.1536605541303, 26020.895066367993, 47634.42845754963, -187500.02235174447, -145687.1504410685, 27986.798046445616, 11591.480564055511, 12796.95484601913, -7626.9740017621525, 0.11800000000000001, 1.006, 0.096, 192.0, 0.0, 0.0, 0.0, 0.0, 0.0, 0.0, 0.0, 0.0, 0.0, 1.695764556386256E9, 0.0, 2023-09-26 16:42:36.386
38.0, 29047.23185863875, 50660.54173237583, 37051.5927137843, 1845.2929669967853, -2885.498450457865, -7948.19092132937, 123970.17317654767, 1993.0603495908201, 25977.063295491138, 47768.04718590346, -187500.02235174447, -145521.345200699, 27972.24706080521, 11733.794121002451, 12914.055635220486, -7474.244531899039, 0.112, 1.002, 0.09, 192.0, 1.5, 64.0, 15.5, 40.0, 1.0, 104.0, 0.0, 0.0, 0.0, 1.695764556386265E9, 0.0, 2023-09-26 16:42:36.386
40.0, 29057.536012832647, 50670.37649993617, 37084.829757789346, 1881.8604209256675, -2853.289586697768, -7986.904142725962, 123935.7067865976, 1963.0643085317981, 26021.118583812546, 47613.21665206154, -187500.02235174447, -145678.8355921311, 27967.217918302766, 11585.646758752675, 12797.938322775164, -7609.092606197907, 0.112, 1.002, 0.09, 192.0, 0.0, 0.0, 0.0, 0.0, 0.0, 0.0, 0.0, 0.0, 0.0, 1.695764556386274E9, 0.0, 2023-09-26 16:42:36.386
42.0, 29055.792576765132, 50644.001441478904, 37065.115519179766, 1864.4484119949834, -2882.7044824009517, -7945.262842805725, 123972.8106823934, 1990.936933867566, 25989.915548552937, 47757.76538345401, -187500.02235174447, -145545.2615672662, 27983.244119077222, 11726.17217614319, 12896.040129189507, -7490.538953606958, 0.112, 1.002, 0.09, 192.0, 0.0, 0.0, 0.0, 0.0, 0.0, 0.0, 0.0, 0.0, 0.0, 1.695764556386283E9, 0.0, 2023-09-26 16:42:36.386
44.0, 29055.837280254043, 50662.48633414345, 37096.09503699482, 1894.8691361986562, -2851.970833774905, -8016.833128551618, 123902.13446642572, 1929.5143401043822, 26023.219647791346, 47610.04270434889, -187500.02235174447, -145698.97451388533, 27974.415180017375, 11583.031604651405, 12782.180342934173, -7624.381199405337, 0.112, 1.002, 0.09, 192.0, 0.0, 0.0, 0.0, 0.0, 0.0, 0.0, 0.0, 0.0, 0.0, 1.695764556386292E9, 0.0, 2023-09-26 16:42:36.386
46.0, 29044.21437313728, 50607.88102243913, 37075.24085941802, 1862.5485137162823, -2886.146651047069, -7932.723514166298, 123978.26450804049, 1993.7979571578453, 25976.81742630213, 47761.60988350033, -187500.02235174447, -145560.863084896, 27986.127494111955, 11725.993362187548, 12890.429841331226, -7501.267790945505, 0.112, 1.002, 0.09, 192.0, 0.0, 0.0, 0.0, 0.0, 0.0, 0.0, 0.0, 0.0, 0.0, 1.695764556445793E9, 0.0, 2023-09-26 16:42:36.445
48.0, 29063.347466391024, 50607.92572592804, 37083.64511533322, 1896.4337583105278, -2848.3051476842343, -8039.16252126247, 123877.30167833588, 1903.6086682806813, 26018.883409367016, 47611.272050293934, -187500.02235174447, -145693.40892951595, 27968.849595648004, 11590.050052410372, 12792.976235506087, -7616.826309779443, 0.114, 1.004, 0.092, 192.0, 1.5, 72.0, 15.5, 48.0, 1.0, 112.0, 0.0, 0.0, 0.0, 1.695764556445826E9, 0.0, 2023-09-26 16:42:36.445
50.0, 29038.17940213435, 50562.05994630575, 37085.74617931202, 1863.2414177943967, -2884.2020492794572, -7930.309525765125, 123981.05847609742, 1989.9311053670772, 25991.837798576093, 47746.45540075963, -187500.02235174447, -145602.14675690493, 27998.510360540196, 11706.74851021153, 12868.949814909676, -7533.4095994722375, 0.114, 1.004, 0.092, 192.0, 0.0, 0.0, 0.0, 0.0, 0.0, 0.0, 0.0, 0.0, 0.0, 1.695764556445836E9, 0.0, 2023-09-26 16:42:36.445
52.0, 29052.126890674463, 50556.09203053618, 37064.44496684611, 1877.166554590053, -2861.984415290882, -8041.688268385919, 123874.59711725678, 1895.4055780655835, 26013.38488023101, 47623.27493706643, -187500.02235174447, -145686.12226082353, 27966.01092410218, 11606.612695051754, 12806.63315136828, -7598.40847234827, 0.114, 1.004, 0.092, 192.0, 0.0, 0.0, 0.0, 0.0, 0.0, 0.0, 0.0, 0.0, 0.0, 1.695764556445845E9, 0.0, 2023-09-26 16:42:36.445
54.0, 29018.26399782467, 50515.456559116436, 37083.44394963312, 1872.0033016208772, -2873.47321194091, -7931.494168221256, 123979.82913015237, 1980.9457040960438, 25986.495731651277, 47708.30097297442, -187500.02235174447, -145641.55288237965, 27988.899110424416, 11685.447297745623, 12845.033448342498, -7561.863370163843, 0.114, 1.004, 0.092, 192.0, 0.0, 0.0, 0.0, 0.0, 0.0, 0.0, 0.0, 0.0, 0.0, 1.695764556445854E9, 0.0, 2023-09-26 16:42:36.445
56.0, 29034.089032899028, 50520.977439996896, 37056.934780709125, 1886.9789704059328, -2866.4994676708543, -8033.328715959635, 123882.80020747188, 1901.0829211572316, 25970.693048321373, 47635.546044772396, -187500.02235174447, -145677.0921560636, 27945.357912225478, 11629.97026800755, 12825.25215449955, -7575.319120325938, 0.114, 1.004, 0.092, 192.0, 0.0, 0.0, 0.0, 0.0, 0.0, 0.0, 0.0, 0.0, 0.0, 1.695764556445863E9, 0.0, 2023-09-26 16:42:36.445
58.0, 29021.192076348318, 50523.346724909155, 37096.05033350591, 1883.5144500153604, -2876.110717786636, -7900.961685295307, 124010.31690958941, 2007.3207625533062, 25974.604603601052, 47711.877252087266, -187500.02235174447, -145652.371126696, 27987.960337157292, 11692.353986782311, 12855.315250791939, -7552.699154937167, 0.12, 1.002, 0.092, 192.0, 1.5, 96.0, 15.5, 40.0, 1.0, 112.0, 0.0, 0.0, 0.0, 1.695764556445872E9, 0.0, 2023-09-26 16:42:36.445
60.0, 29026.958826417784, 50510.42741661399, 37050.34101609481, 1884.1179471156536, -2871.863886340128, -8018.934192530417, 123893.32787911034, 1909.1519009055974, 25972.458836133344, 47664.24568465301, -187500.02235174447, -145652.14760925146, 27945.447319203297, 11663.743753879518, 12858.869178160332, -7538.885776863787, 0.12, 1.002, 0.092, 192.0, 0.0, 0.0, 0.0, 0.0, 0.0, 0.0, 0.0, 0.0, 0.0, 1.69576455650616E9, 0.0, 2023-09-26 16:42:36.506
62.0, 29025.50596302819, 50508.50516659083, 37085.88028977875, 1882.396862792595, -2877.183601520491, -7893.898534047429, 124013.69202300216, 2011.3440765552614, 25962.691123806373, 47702.511871160496, -187500.02235174447, -145653.84634183007, 27974.77280792866, 11684.687338434142, 12863.87596891832, -7543.199663543662, 0.12, 1.002, 0.092, 192.0, 0.0, 0.0, 0.0, 0.0, 0.0, 0.0, 0.0, 0.0, 0.0, 1.695764556506187E9, 0.0, 2023-09-26 16:42:36.506
64.0, 29075.819739797087, 50529.24758544536, 37053.917295207655, 1911.52118581786, -2856.5529413882427, -8062.07305932916, 123845.45044248707, 1860.849781137679, 26004.37712721552, 47662.77046951896, -187500.02235174447, -145667.34679548108, 27966.97204911376, 11660.5027509335, 12841.792445396477, -7555.180198571707, 0.12, 1.002, 0.092, 192.0, 0.0, 0.0, 0.0, 0.0, 0.0, 0.0, 0.0, 0.0, 0.0, 1.695764556506196E9, 0.0, 2023-09-26 16:42:36.506
66.0, 29042.403881836402, 50527.99588775586, 37093.88221429375, 1896.6349240106256, -2874.3225782302115, -7909.589458655055, 123996.5705867494, 1990.1546228116301, 25999.705612624362, 47696.02986526846, -187500.02235174447, -145716.72179898285, 28004.2100553763, 11663.475532946055, 12824.91687833272, -7596.709739769667, 0.12, 1.002, 0.092, 192.0, 0.0, 0.0, 0.0, 0.0, 0.0, 0.0, 0.0, 0.0, 0.0, 1.695764556506205E9, 0.0, 2023-09-26 16:42:36.506
68.0, 29061.71578904579, 50514.830710271686, 37042.83082995783, 1896.4337583105278, -2867.28177872679, -8055.948681348405, 123848.46792798853, 1857.2287985359192, 25997.313975967645, 47709.30680147491, -187500.02235174447, -145657.08734477608, 27971.129473582445, 11694.991492628038, 12860.50085550557, -7537.701134407656, 0.122, 0.994, 0.09, 192.0, 1.5, 104.0, 15.5, 8.0, 1.0, 104.0, 0.0, 0.0, 0.0, 1.695764556506215E9, 0.0, 2023-09-26 16:42:36.506
70.0, 29008.83156166453, 50493.484794316864, 37093.4575311491, 1880.7875371918128, -2882.57037193422, -7912.47283368979, 123990.42385702419, 1982.9126576081107, 25986.361621184544, 47683.490536629026, -187500.02235174447, -145745.3543836301, 27995.91755818338, 11645.169454237159, 12809.24830546955, -7614.434673122725, 0.122, 0.994, 0.09, 192.0, 0.0, 0.0, 0.0, 0.0, 0.0, 0.0, 0.0, 0.0, 0.0, 1.695764556506226E9, 0.0, 2023-09-26 16:42:36.506
72.0, 29028.679910740844, 50453.6092822086, 37027.1399053502, 1872.8526679101788, -2890.035854582293, -8011.982800004816, 123886.17532088463, 1897.908973444578, 25952.297562634656, 47733.29022327545, -187500.02235174447, -145624.6773153159, 27952.175194284344, 11722.640600519253, 12895.324873366937, -7497.065662987908, 0.122, 0.994, 0.09, 192.0, 0.0, 0.0, 0.0, 0.0, 0.0, 0.0, 0.0, 0.0, 0.0, 1.695764556506235E9, 0.0, 2023-09-26 16:42:36.506
74.0, 29010.843218665508, 50466.930921903964, 37079.375932142255, 1881.7710139478463, -2876.401290464555, -7915.691484891354, 123979.89618538573, 1982.935009352566, 25980.483112392798, 47652.041632180415, -187500.02235174447, -145746.96370923088, 27982.685325465838, 11632.853643042285, 12814.00922703853, -7604.130518928829, 0.122, 0.994, 0.09, 192.0, 0.0, 0.0, 0.0, 0.0, 0.0, 0.0, 0.0, 0.0, 0.0, 1.695764556506245E9, 0.0, 2023-09-26 16:42:36.506
76.0, 29038.782899234644, 50445.182674548945, 37025.77644893843, 1880.6087232361704, -2878.4352992099884, -8014.01680875025, 123877.36873356924, 1888.811813451268, 25968.43552213139, 47726.65175517223, -187500.02235174447, -145636.90371953294, 27968.491967736718, 11720.003094673526, 12887.188838385206, -7502.184212468173, 0.122, 0.994, 0.09, 192.0, 0.0, 0.0, 0.0, 0.0, 0.0, 0.0, 0.0, 0.0, 0.0, 1.69576455656645E9, 0.0, 2023-09-26 16:42:36.566
78.0, 29016.051175123594, 50460.73948868984, 37077.58779258583, 1889.683531485025, -2874.4566886969437, -7939.831368903086, 123950.9059728272, 1952.6930991045356, 25983.634708360998, 47635.456637794574, -187500.02235174447, -145780.69249161394, 27988.58618600204, 11610.658360798165, 12792.305683172428, -7626.661077339778, 0.12, 0.998, 0.092, 192.0, 1.5, 96.0, 15.5, 24.0, 1.0, 112.0, 0.0, 0.0, 0.0, 1.695764556566473E9, 0.0, 2023-09-26 16:42:36.566
80.0, 29030.490402041723, 50436.91252910048, 37032.28080657492, 1876.875981912134, -2889.700578415463, -7982.120869412526, 123905.37546937173, 1911.4094270955834, 25952.655190545942, 47752.6691857182, -187500.02235174447, -145633.48390263127, 27971.48710149373, 11738.778560015984, 12897.917675723753, -7493.690549575156, 0.12, 0.998, 0.092, 192.0, 0.0, 0.0, 0.0, 0.0, 0.0, 0.0, 0.0, 0.0, 0.0, 1.695764556566484E9, 0.0, 2023-09-26 16:42:36.566
82.0, 29031.786803220133, 50458.258445055304, 37086.93082176815, 1896.7913862218127, -2853.960139031427, -7974.431869319901, 123918.16066720018, 1921.0653807002761, 25997.00105154527, 47622.80555043287, -187500.02235174447, -145798.79740462275, 27988.005040646203, 11603.170526405636, 12784.460220868616, -7640.720324602166, 0.12, 0.998, 0.092, 192.0, 0.0, 0.0, 0.0, 0.0, 0.0, 0.0, 0.0, 0.0, 0.0, 1.695764556566526E9, 0.0, 2023-09-26 16:42:36.566
84.0, 29048.058873183596, 50436.733715144845, 37041.84735320179, 1876.2724848118407, -2869.315787472223, -8008.1606517029595, 123884.09660865029, 1882.3521593036842, 25981.28777519319, 47751.64100547326, -187500.02235174447, -145671.0348333162, 27996.811627961593, 11733.70471402463, 12880.706832493166, -7525.452378446148, 0.12, 0.998, 0.092, 192.0, 0.0, 0.0, 0.0, 0.0, 0.0, 0.0, 0.0, 0.0, 0.0, 1.695764556566536E9, 0.0, 2023-09-26 16:42:36.566
86.0, 29014.21833207826, 50445.45089548241, 37063.41678660116, 1873.9479033884888, -2871.148630517558, -7986.188886903392, 123915.70197531009, 1912.4152555960723, 25998.76683935724, 47623.654916722175, -187500.02235174447, -145830.13455034906, 27993.235348848742, 11593.156944889659, 12776.19007542015, -7656.120676531873, 0.12, 0.998, 0.092, 192.0, 0.0, 0.0, 0.0, 0.0, 0.0, 0.0, 0.0, 0.0, 0.0, 1.695764556566545E9, 0.0, 2023-09-26 16:42:36.566
88.0, 29027.003529906695, 50415.633668379036, 37020.09910584678, 1860.8050776487682, -2889.6782266710075, -7969.827409962108, 123932.44343190712, 1921.937098734033, 25956.633801058986, 47767.19781961416, -187500.02235174447, -145664.0387373017, 27984.473465022264, 11744.142978685259, 12900.26460889156, -7504.240572958061, 0.114, 1.002, 0.09, 192.0, 1.5, 72.0, 15.5, 40.0, 1.0, 104.0, 0.0, 0.0, 0.0, 1.695764556566553E9, 0.0, 2023-09-26 16:42:36.566
90.0, 29036.301855600104, 50441.31582275818, 37045.80361197038, 1882.8886011706118, -2860.062165267726, -8027.092579256604, 123883.51546329445, 1877.7029964569804, 25999.884426580003, 47611.85319564977, -187500.02235174447, -145829.03931487075, 27983.512340010686, 11593.224000123026, 12780.392203377749, -7647.6940688722225, 0.114, 1.002, 0.09, 192.0, 0.0, 0.0, 0.0, 0.0, 0.0, 0.0, 0.0, 0.0, 0.0, 1.695764556626471E9, 0.0, 2023-09-26 16:42:36.626
92.0, 29013.50307625569, 50407.587040375125, 37025.262358815955, 1844.5330076853047, -2890.2370202823904, -7963.703031981353, 123945.92153381367, 1924.0605144572874, 25969.396647142967, 47753.183275840674, -187500.02235174447, -145711.42443554694, 28002.556026286606, 11730.642525034253, 12871.944948666687, -7540.562157697936, 0.114, 1.002, 0.09, 192.0, 0.0, 0.0, 0.0, 0.0, 0.0, 0.0, 0.0, 0.0, 0.0, 1.695764556626497E9, 0.0, 2023-09-26 16:42:36.626
94.0, 29025.32714907255, 50424.95434581689, 37036.594693254796, 1875.7583946893687, -2858.2069704779356, -8049.824303367652, 123862.39306478419, 1853.3172432562403, 25990.519045653233, 47615.42947476262, -187500.02235174447, -145838.11412311962, 27974.77280792866, 11600.242447881992, 12786.181305191674, -7643.871920570365, 0.114, 1.002, 0.09, 192.0, 0.0, 0.0, 0.0, 0.0, 0.0, 0.0, 0.0, 0.0, 0.0, 1.695764556626507E9, 0.0, 2023-09-26 16:42:36.626
96.0, 28999.17560805984, 50385.52586859773, 37036.48293453252, 1848.042231564788, -2891.958104605449, -7935.3163165231135, 123981.34904877533, 1947.976881024466, 25964.211042429335, 47752.915054907215, -187500.02235174447, -145732.9938689463, 27991.313098825587, 11726.418045332199, 12867.11697186434, -7550.754553169555, 0.114, 1.002, 0.09, 192.0, 0.0, 0.0, 0.0, 0.0, 0.0, 0.0, 0.0, 0.0, 0.0, 1.695764556626516E9, 0.0, 2023-09-26 16:42:36.626
98.0, 29022.98021590474, 50410.582174132134, 37019.69677444658, 1884.1850023490194, -2876.1777730200024, -8032.322887459146, 123895.9430332116, 1870.103403342176, 25975.498673379265, 47644.91142569917, -187500.02235174447, -145793.09770978664, 27964.49100547922, 11635.804073310384, 12843.222957041617, -7595.815669991454, 0.112, 1.008, 0.09, 192.0, 1.5, 64.0, 15.5, 64.0, 1.0, 104.0, 0.0, 0.0, 0.0, 1.695764556626526E9, 0.0, 2023-09-26 16:42:36.626
100.0, 28996.73926791421, 50388.83392677712, 37030.9397019076, 1873.6796824550252, -2893.321561017223, -7919.580688426578, 123983.13718833175, 1956.3811369396612, 25964.836891274084, 47734.72073492059, -187500.02235174447, -145745.57790107463, 27984.652278977905, 11726.842728476851, 12860.54555899448, -7549.793428157977, 0.112, 1.008, 0.09, 192.0, 0.0, 0.0, 0.0, 0.0, 0.0, 0.0, 0.0, 0.0, 0.0, 1.695764556626535E9, 0.0, 2023-09-26 16:42:36.626
102.0, 29026.400032806403, 50403.07198799515, 37025.08354486031, 1898.356008333684, -2864.0407757807707, -8044.169312020459, 123899.45225709108, 1858.4804962254163, 25987.121580496023, 47651.10285891329, -187500.02235174447, -145802.08311105767, 27972.582336972042, 11652.098495018303, 12834.282259259495, -7594.8098414909655, 0.112, 1.008, 0.09, 192.0, 0.0, 0.0, 0.0, 0.0, 0.0, 0.0, 0.0, 0.0, 0.0, 1.695764556626545E9, 0.0, 2023-09-26 16:42:36.626
104.0, 29023.6507682384, 50394.46656637986, 37044.77543172544, 1883.1568221040754, -2875.9766073199044, -7935.137502567471, 123970.12847305876, 1941.6736890880693, 25985.825179317617, 47733.49138897555, -187500.02235174447, -145770.12011648656, 27982.797084188114, 11725.635734276264, 12856.030506614508, -7568.367727800337, 0.112, 1.008, 0.09, 192.0, 0.0, 0.0, 0.0, 0.0, 0.0, 0.0, 0.0, 0.0, 0.0, 1.695764556626584E9, 0.0, 2023-09-26 16:42:36.626
106.0, 29023.963692660775, 50384.05065346368, 37028.816286184345, 1877.0547958677764, -2876.088366042181, -8032.97108804835, 123920.01586198997, 1871.109231842665, 26006.81346736115, 47671.465298112074, -187500.02235174447, -145805.03354132577, 27981.880662665448, 11674.606701684797, 12840.384285495793, -7594.608675790868, 0.112, 1.008, 0.09, 192.0, 0.0, 0.0, 0.0, 0.0, 0.0, 0.0, 0.0, 0.0, 0.0, 1.695764556685852E9, 0.0, 2023-09-26 16:42:36.685
108.0, 29010.351480287492, 50378.66388304996, 37040.86387644576, 1867.264731796352, -2886.9066103585496, -7902.995694040739, 124007.79116246596, 1975.2236575154852, 25990.541397397687, 47735.95008086564, -187500.02235174447, -145766.72265132936, 27973.0517236056, 11740.343182127855, 12872.034355644508, -7558.35414628436, 0.112, 1.012, 0.09, 192.0, 1.5, 64.0, 15.5, 80.0, 1.0, 104.0, 0.0, 0.0, 0.0, 1.695764556685878E9, 0.0, 2023-09-26 16:42:36.685
110.0, 29027.31645432907, 50384.385929630516, 37007.26920452943, 1871.0645283537542, -2872.4003282070553, -8027.4725589123445, 123933.6504261077, 1877.0547958677764, 26002.074897536626, 47692.11830998878, -187500.02235174447, -145756.5079041133, 27967.44143574732, 11726.976838943583, 12879.253969103573, -7544.160788555239, 0.112, 1.012, 0.09, 192.0, 0.0, 0.0, 0.0, 0.0, 0.0, 0.0, 0.0, 0.0, 0.0, 1.695764556685889E9, 0.0, 2023-09-26 16:42:36.685
112.0, 29008.339823286515, 50389.683293066424, 37026.40229778318, 1863.621397450137, -2884.6490841685636, -7904.292095219147, 124010.38396482277, 1973.1896487700521, 26012.24494126379, 47700.16493799269, -187500.02235174447, -145791.2648667413, 27974.39282827292, 11734.79994950294, 12859.07034386043, -7579.163620372251, 0.112, 1.012, 0.09, 192.0, 0.0, 0.0, 0.0, 0.0, 0.0, 0.0, 0.0, 0.0, 0.0, 1.695764556685898E9, 0.0, 2023-09-26 16:42:36.685
114.0, 29030.110422385984, 50378.48506909431, 36998.0826375583, 1866.7729934183353, -2870.3216159727117, -8033.552233404188, 123927.77191731596, 1867.7788219188242, 26021.409156490467, 47695.69458910163, -187500.02235174447, -145752.64105232252, 27975.53276724014, 11750.110894454825, 12881.01975691554, -7542.39500074327, 0.112, 1.012, 0.09, 192.0, 0.0, 0.0, 0.0, 0.0, 0.0, 0.0, 0.0, 0.0, 0.0, 1.695764556685907E9, 0.0, 2023-09-26 16:42:36.685
116.0, 29016.341747801514, 50386.665807564954, 37022.46839075904, 1876.4512987674832, -2872.735604373885, -7937.909118879929, 123978.01863885148, 1943.8194565557787, 26025.410118747965, 47677.85789702629, -187500.02235174447, -145826.11123634712, 27985.702810967305, 11724.115815653304, 12843.200605297161, -7610.523117843047, 0.112, 1.012, 0.09, 192.0, 0.0, 0.0, 0.0, 0.0, 0.0, 0.0, 0.0, 0.0, 0.0, 1.695764556685916E9, 0.0, 2023-09-26 16:42:36.685
118.0, 29028.724614229755, 50374.238237647805, 36991.82414911081, 1871.3998045205838, -2866.7453368598626, -8035.183910749425, 123930.02944350595, 1872.1597638320643, 26013.898970353483, 47709.75383636401, -187500.02235174447, -145773.00349152132, 27974.839863162026, 11771.792086576474, 12874.40364055677, -7556.54365498348, 0.10400000000000001, 1.002, 0.094, 192.0, 1.5, 32.0, 15.5, 40.0, 1.0, 120.0, 0.0, 0.0, 0.0, 1.695764556685925E9, 0.0, 2023-09-26 16:42:36.685
120.0, 29001.544892972102, 50371.35486261307, 37006.15161730666, 1878.8429354242012, -2887.0183690808262, -7917.278458747681, 124003.5666827639, 1968.67459639008, 26000.197351002378, 47681.85885928379, -187500.02235174447, -145836.75066670784, 27977.410313774388, 11727.379170343778, 12852.655393201756, -7611.46189111017, 0.10400000000000001, 1.002, 0.094, 192.0, 0.0, 0.0, 0.0, 0.0, 0.0, 0.0, 0.0, 0.0, 0.0, 1.695764556745712E9, 0.0, 2023-09-26 16:42:36.745
122.0, 29037.97823643425, 50367.57741780012, 36983.88927982918, 1889.549421018293, -2870.254560739346, -8026.0643990116605, 123932.06345225137, 1873.076185354732, 25998.3868597015, 47727.59052843935, -187500.02235174447, -145752.1493139445, 27956.82435713105, 11795.127307787814, 12893.246161132594, -7531.330887237894, 0.10400000000000001, 1.002, 0.094, 192.0, 0.0, 0.0, 0.0, 0.0, 0.0, 0.0, 0.0, 0.0, 0.0, 1.695764556745738E9, 0.0, 2023-09-26 16:42:36.745
124.0, 29022.55553276009, 50387.2916564097, 37015.94168137809, 1898.2666013558628, -2875.8424968531726, -7954.315299310125, 123967.28980151295, 1928.0167732258767, 26015.016557576248, 47657.11547817176, -187500.02235174447, -145873.7875072703, 27984.696982466816, 11706.45793753361, 12827.196756267162, -7640.787379835532, 0.10400000000000001, 1.002, 0.094, 192.0, 0.0, 0.0, 0.0, 0.0, 0.0, 0.0, 0.0, 0.0, 0.0, 1.695764556745752E9, 0.0, 2023-09-26 16:42:36.745
126.0, 29020.74504145921, 50357.85440896206, 36992.49470144448, 1874.7525661888799, -2881.408081222544, -7993.4308521069115, 123960.29370549844, 1898.6018775226926, 25991.56957764263, 47740.64394720125, -187500.02235174447, -145771.03653800924, 27973.766979428172, 11801.966941591138, 12885.043070917496, -7540.472750720114, 0.10400000000000001, 1.002, 0.094, 192.0, 0.0, 0.0, 0.0, 0.0, 0.0, 0.0, 0.0, 0.0, 0.0, 1.695764556745794E9, 0.0, 2023-09-26 16:42:36.745
128.0, 29022.376718804448, 50377.83686850511, 37013.304175532365, 1895.9643716769663, -2872.176810762502, -7954.1588370989375, 123971.64839168172, 1930.9001482606113, 26003.438353948397, 47652.48866706952, -187500.02235174447, -145875.933274738, 27968.804892159093, 11701.227629331068, 12838.819663383922, -7628.493920385114, 0.10200000000000001, 1.002, 0.09, 192.0, 1.5, 24.0, 15.5, 40.0, 1.0, 104.0, 0.0, 0.0, 0.0, 1.695764556745803E9, 0.0, 2023-09-26 16:42:36.745
130.0, 29024.41072754988, 50348.89135943549, 36988.51609093143, 1872.2268190654302, -2881.1175085446253, -7988.58052356011, 123957.92442058616, 1900.5464792903042, 25992.933034054404, 47746.09777284834, -187500.02235174447, -145774.32224444416, 27969.76601717067, 11803.95624684766, 12889.35695759737, -7530.079189548396, 0.10200000000000001, 1.002, 0.09, 192.0, 0.0, 0.0, 0.0, 0.0, 0.0, 0.0, 0.0, 0.0, 0.0, 1.695764556745813E9, 0.0, 2023-09-26 16:42:36.745
132.0, 29017.660500724378, 50365.766926499244, 37004.47523647252, 1883.3132843152625, -2880.0669765552257, -7978.812811233141, 123956.02452230746, 1911.4094270955834, 26010.5909121741, 47633.75790521597, -187500.02235174447, -145908.20919373145, 27978.572604486064, 11671.477457461055, 12823.419311454214, -7646.218853738172, 0.10200000000000001, 1.002, 0.09, 192.0, 0.0, 0.0, 0.0, 0.0, 0.0, 0.0, 0.0, 0.0, 0.0, 1.695764556745822E9, 0.0, 2023-09-26 16:42:36.745
134.0, 29031.518582286666, 50350.59009201409, 36991.19830026606, 1873.299702799285, -2872.243865995868, -7985.875962481018, 123954.1022722843, 1895.3832263211284, 25987.81448457414, 47744.667261203205, -187500.02235174447, -145796.651637155, 27970.123645081956, 11788.935874573694, 12879.83511445941, -7543.6243466883125, 0.10200000000000001, 1.002, 0.09, 192.0, 0.0, 0.0, 0.0, 0.0, 0.0, 0.0, 0.0, 0.0, 0.0, 1.695764556745831E9, 0.0, 2023-09-26 16:42:36.745
136.0, 29022.510829271177, 50377.25572314927, 37008.207977796555, 1893.259810597874, -2868.1311450160915, -8015.4920238843, 123930.16355397267, 1871.7350806874135, 26013.921322097936, 47626.11360861226, -187500.02235174447, -145936.05946732278, 27985.2557760782, 11653.506654918989, 12809.114195002818, -7667.341252248437, 0.10200000000000001, 1.002, 0.09, 192.0, 0.0, 0.0, 0.0, 0.0, 0.0, 0.0, 0.0, 0.0, 0.0, 1.695764556806002E9, 0.0, 2023-09-26 16:42:36.806
138.0, 29029.283407841136, 50354.166371126936, 36994.95339333456, 1871.7350806874135, -2876.2224765089127, -7990.927456727917, 123947.62026639227, 1886.6436942391033, 25982.33830718259, 47745.47192400359, -187500.02235174447, -145831.98974513885, 27974.817511417572, 11773.222598221613, 12864.25594857406, -7568.613596989346, 0.108, 1.002, 0.088, 192.0, 1.5, 48.0, 15.5, 40.0, 1.0, 96.0, 0.0, 0.0, 0.0, 1.695764556806027E9, 0.0, 2023-09-26 16:42:36.806
140.0, 29035.519544544168, 50380.85435400657, 37001.12247480422, 1891.4716710414496, -2864.666624625519, -8045.465713198867, 123911.76806828596, 1845.8741123526231, 26009.853304607073, 47626.89591966819, -187500.02235174447, -145961.18282809053, 27990.01669764718, 11642.978983280538, 12801.425194910193, -7680.6628919438, 0.108, 1.002, 0.088, 192.0, 0.0, 0.0, 0.0, 0.0, 0.0, 0.0, 0.0, 0.0, 0.0, 1.695764556806037E9, 0.0, 2023-09-26 16:42:36.806
142.0, 29028.009358407184, 50360.78248748571, 36992.248832255464, 1873.3220545437403, -2886.19135453598, -7979.393956588979, 123954.9516385736, 1893.2821623423295, 25991.01078403125, 47743.3708600248, -187500.02235174447, -145869.80889675725, 27972.53763348313, 11756.950528258149, 12849.392038511281, -7597.894382225798, 0.108, 1.002, 0.088, 192.0, 0.0, 0.0, 0.0, 0.0, 0.0, 0.0, 0.0, 0.0, 0.0, 1.695764556806046E9, 0.0, 2023-09-26 16:42:36.806
144.0, 29026.69060548432, 50361.87772296402, 36981.497643172464, 1886.6660459835584, -2890.7734621493178, -8034.088675271115, 123932.21991446256, 1859.7098421704582, 26001.449048691877, 47650.27584436844, -187500.02235174447, -145949.1575895736, 27966.48031073574, 11659.139294521725, 12820.759453864033, -7660.702784145211, 0.108, 1.002, 0.088, 192.0, 0.0, 0.0, 0.0, 0.0, 0.0, 0.0, 0.0, 0.0, 0.0, 1.695764556806055E9, 0.0, 2023-09-26 16:42:36.806
146.0, 29017.727555957743, 50345.695059978374, 36977.720198359515, 1875.8030981782792, -2898.931848875505, -7945.821636417108, 123983.94185113214, 1925.647488313614, 25985.556958384153, 47751.88687466227, -187500.02235174447, -145872.04407120278, 27961.20529904429, 11763.879569039294, 12861.014945628041, -7587.411414076259, 0.108, 1.002, 0.088, 192.0, 0.0, 0.0, 0.0, 0.0, 0.0, 0.0, 0.0, 0.0, 0.0, 1.695764556806064E9, 0.0, 2023-09-26 16:42:36.806
148.0, 29023.69547172731, 50342.09642912107, 36973.29455295736, 1893.0362931533211, -2882.6821306564966, -8042.82820735314, 123930.14120222822, 1854.233664778908, 25986.115751995534, 47659.1494869172, -187500.02235174447, -145934.51719695536, 27957.0478745756, 11676.953634852605, 12835.466901715625, -7635.467664655169, 0.114, 1.002, 0.082, 192.0, 1.5, 72.0, 15.5, 40.0, 1.0, 72.0, 0.0, 0.0, 0.0, 1.695764556806106E9, 0.0, 2023-09-26 16:42:36.806
150.0, 29021.16972460386, 50316.43662648638, 36986.70559963055, 1879.0441011242988, -2884.7831946352953, -7957.869226678518, 123965.6134206788, 1912.0576276847873, 25978.51615888073, 47730.87623487428, -187500.02235174447, -145899.60377211616, 27961.182947299832, 11750.155597943736, 12845.63694544279, -7604.152870673284, 0.114, 1.002, 0.082, 192.0, 0.0, 0.0, 0.0, 0.0, 0.0, 0.0, 0.0, 0.0, 0.0, 1.695764556866497E9, 0.0, 2023-09-26 16:42:36.866
152.0, 29024.07545138305, 50319.990553854775, 36983.68811412908, 1872.8750196546341, -2881.2963225002677, -8047.589128922121, 123926.43081264864, 1848.0198798203326, 25988.686202607896, 47660.848219495805, -187500.02235174447, -145950.38693551862, 27964.513357223674, 11678.384146497745, 12828.20258476765, -7641.1226560023615, 0.114, 1.002, 0.082, 192.0, 0.0, 0.0, 0.0, 0.0, 0.0, 0.0, 0.0, 0.0, 0.0, 1.695764556866541E9, 0.0, 2023-09-26 16:42:36.866
154.0, 29013.279558811137, 50319.34235326557, 37000.004887581454, 1861.4756299824276, -2891.1310900606027, -7925.816825129608, 123992.23434832506, 1941.8748547881669, 25970.89421402147, 47726.562348194406, -187500.02235174447, -145911.96428679995, 27958.500737965198, 11735.761074514518, 12858.243329315583, -7600.196611904695, 0.114, 1.002, 0.082, 192.0, 0.0, 0.0, 0.0, 0.0, 0.0, 0.0, 0.0, 0.0, 0.0, 1.695764556866551E9, 0.0, 2023-09-26 16:42:36.866
156.0, 29045.331960360047, 50344.68923147789, 37001.18953003759, 1891.7622437193686, -2863.5266856582984, -8072.019585611772, 123902.71561178156, 1822.6730016080144, 25999.459743435353, 47657.09312642731, -187500.02235174447, -145950.3422320297, 27967.687304936328, 11679.971120354072, 12832.382360980793, -7627.599850606901, 0.114, 1.002, 0.082, 192.0, 0.0, 0.0, 0.0, 0.0, 0.0, 0.0, 0.0, 0.0, 0.0, 1.695764556866561E9, 0.0, 2023-09-26 16:42:36.866
158.0, 29026.534143273133, 50335.12268485102, 37019.83088491332, 1889.4153105515613, -2880.4469562109657, -7941.485397992778, 123974.37530450527, 1919.5678138217706, 25982.494769393776, 47704.50117641702, -187500.02235174447, -145960.66873796805, 27977.522072496664, 11707.776690456474, 12832.985858081087, -7638.261632712082, 0.112, 1.004, 0.08, 192.0, 1.5, 64.0, 15.5, 48.0, 1.0, 64.0, 0.0, 0.0, 0.0, 1.695764556866575E9, 0.0, 2023-09-26 16:42:36.866
160.0, 29035.497192799714, 50323.23155680079, 36991.75709387745, 1882.978008148433, -2869.8075258502395, -8051.0760010571485, 123917.22189393305, 1832.843045335179, 25991.927205553915, 47694.93462979014, -187500.02235174447, -145939.6357464356, 27975.175139328854, 11703.082824120858, 12850.084942589396, -7610.880745754332, 0.112, 1.004, 0.08, 192.0, 0.0, 0.0, 0.0, 0.0, 0.0, 0.0, 0.0, 0.0, 0.0, 1.695764556866585E9, 0.0, 2023-09-26 16:42:36.866
162.0, 28997.566282459054, 50318.96237360983, 36997.859120113746, 1865.1413160730979, -2895.1320523181025, -7916.920830836396, 123996.5705867494, 1942.1877792105413, 25974.157568711948, 47708.166862507685, -187500.02235174447, -145965.02732813684, 27970.995363115715, 11695.326768794868, 12845.860462887344, -7631.913737286775, 0.112, 1.004, 0.08, 192.0, 0.0, 0.0, 0.0, 0.0, 0.0, 0.0, 0.0, 0.0, 0.0, 1.695764556866594E9, 0.0, 2023-09-26 16:42:36.866
164.0, 29029.149297374406, 50319.94585036586, 36978.837785582284, 1877.4794790124274, -2868.1982002494574, -8044.169312020459, 123921.8487050353, 1837.559263415249, 25977.018592002227, 47706.04344678443, -187500.02235174447, -145915.04882753477, 27963.932211867836, 11715.80096671593, 12868.055745131463, -7580.236504106106, 0.112, 1.004, 0.08, 192.0, 0.0, 0.0, 0.0, 0.0, 0.0, 0.0, 0.0, 0.0, 0.0, 1.695764556866602E9, 0.0, 2023-09-26 16:42:36.866
166.0, 29006.64109070791, 50336.754362196254, 37000.25075677047, 1886.7107494724692, -2887.219534780924, -7945.262842805725, 123970.48610097005, 1914.0916364302202, 25990.56374914214, 47677.18734469263, -187500.02235174447, -146001.59478206575, 27974.571642228562, 11666.35890798079, 12824.40278821025, -7660.389859722836, 0.112, 1.004, 0.08, 192.0, 0.0, 0.0, 0.0, 0.0, 0.0, 0.0, 0.0, 0.0, 0.0, 1.695764556926544E9, 0.0, 2023-09-26 16:42:36.926
168.0, 29016.27469256815, 50320.66110618843, 36975.10504425824, 1881.234572080919, -2886.146651047069, -8032.680515370431, 123933.2033912186, 1849.4056879765617, 25979.991374014782, 47721.89083360325, -187500.02235174447, -145926.67173465155, 27973.58816547253, 11729.077902922381, 12865.798218941478, -7581.018815162041, 0.106, 1.01, 0.08600000000000001, 192.0, 1.5, 40.0, 15.5, 72.0, 1.0, 88.0, 0.0, 0.0, 0.0, 1.695764556926566E9, 0.0, 2023-09-26 16:42:36.926
170.0, 28989.609061432966, 50325.31026903514, 36988.42668395361, 1884.2073540934748, -2896.987247107893, -7934.936336867373, 123985.35001103283, 1931.2130726829855, 25980.66192634844, 47678.39433889322, -187500.02235174447, -146000.03015995387, 27969.67661019285, 11670.02459407146, 12840.026657584509, -7642.776685092054, 0.106, 1.01, 0.08600000000000001, 192.0, 0.0, 0.0, 0.0, 0.0, 0.0, 0.0, 0.0, 0.0, 0.0, 1.695764556926605E9, 0.0, 2023-09-26 16:42:36.926
172.0, 28998.706221426277, 50313.48619621828, 36971.26054421193, 1877.6135894791591, -2885.9454853469715, -7992.827355006619, 123965.56871718989, 1890.9128774300668, 25966.647382574964, 47743.1696943247, -187500.02235174447, -145892.0935859792, 27956.82435713105, 11755.788237546472, 12891.212152387161, -7539.601032686357, 0.106, 1.01, 0.08600000000000001, 192.0, 0.0, 0.0, 0.0, 0.0, 0.0, 0.0, 0.0, 0.0, 0.0, 1.695764556926614E9, 0.0, 2023-09-26 16:42:36.926
174.0, 28984.892843352896, 50327.65720220294, 36991.57827992181, 1890.778766963335, -2900.6529331985635, -7932.120017066004, 123993.44134252565, 1942.8359797997452, 25977.957365269347, 47658.83656249483, -187500.02235174447, -145988.07197667027, 27962.34523801151, 11664.280195746445, 12845.614593698336, -7629.231527952138, 0.106, 1.01, 0.08600000000000001, 192.0, 0.0, 0.0, 0.0, 0.0, 0.0, 0.0, 0.0, 0.0, 0.0, 1.695764556926623E9, 0.0, 2023-09-26 16:42:36.926
176.0, 29012.854875666486, 50320.79521665516, 36981.20707049454, 1889.1247378736423, -2882.3245027452117, -7988.960503215851, 123955.86806009628, 1891.3375605747178, 25965.641554074475, 47735.92772912118, -187500.02235174447, -145878.66018756153, 27955.77382514165, 11768.551083630453, 12890.921579709242, -7529.028657558997, 0.106, 1.01, 0.08600000000000001, 192.0, 0.0, 0.0, 0.0, 0.0, 0.0, 0.0, 0.0, 0.0, 0.0, 1.695764556926632E9, 0.0, 2023-09-26 16:42:36.926
178.0, 28998.50505572618, 50345.27037683372, 37000.60838468175, 1898.6912845005138, -2876.311883486734, -7967.122848883016, 123957.87971709725, 1907.8331479827343, 25992.262481720743, 47639.18937911861, -187500.02235174447, -146005.99807572342, 27987.356840056997, 11660.346288722312, 12834.05874181494, -7643.491940914624, 0.11, 1.01, 0.088, 192.0, 1.5, 56.0, 15.5, 72.0, 1.0, 96.0, 0.0, 0.0, 0.0, 1.695764556926641E9, 0.0, 2023-09-26 16:42:36.926
180.0, 28990.92781435583, 50314.98376309678, 36981.54234666137, 1870.7069004424693, -2880.4916596998764, -7981.271503123225, 123955.77865311845, 1893.773900720346, 25969.508405865243, 47741.269796046, -187500.02235174447, -145907.76215884235, 27975.219842817765, 11769.579263875397, 12875.364765568349, -7547.021811845519, 0.11, 1.01, 0.088, 192.0, 0.0, 0.0, 0.0, 0.0, 0.0, 0.0, 0.0, 0.0, 0.0, 1.695764556986039E9, 0.0, 2023-09-26 16:42:36.986
182.0, 28983.372924729938, 50327.92542313641, 36989.90189908766, 1882.5980284926927, -2881.564543433731, -7973.068412908127, 123963.60176367781, 1909.7553980058908, 25974.783417556697, 47652.68983276962, -187500.02235174447, -146008.14384319115, 27974.54929048411, 11653.998393297004, 12839.579622695403, -7628.784493063033, 0.11, 1.01, 0.088, 192.0, 0.0, 0.0, 0.0, 0.0, 0.0, 0.0, 0.0, 0.0, 0.0, 1.695764556986078E9, 0.0, 2023-09-26 16:42:36.986
184.0, 29008.540988986613, 50334.76505693973, 36986.05739904135, 1872.8526679101788, -2885.6772644135076, -7970.1850378733925, 123962.99826657752, 1904.7039037589914, 25985.42284791742, 47737.469999488596, -187500.02235174447, -145914.06535077875, 27970.324810782055, 11760.325641670901, 12874.35893706786, -7541.322117009416, 0.11, 1.01, 0.088, 192.0, 0.0, 0.0, 0.0, 0.0, 0.0, 0.0, 0.0, 0.0, 0.0, 1.695764556986089E9, 0.0, 2023-09-26 16:42:36.986
186.0, 29010.64205296541, 50357.36267058404, 36988.47138744252, 1888.6106477511703, -2885.274933013312, -8001.164555688448, 123944.46867042407, 1884.6096854936702, 25999.370336457534, 47640.68694599711, -187500.02235174447, -146018.5150526184, 27982.886491165937, 11645.370619937255, 12835.623363926812, -7627.6222023513565, 0.11, 1.01, 0.088, 192.0, 0.0, 0.0, 0.0, 0.0, 0.0, 0.0, 0.0, 0.0, 0.0, 1.695764556986098E9, 0.0, 2023-09-26 16:42:36.986
188.0, 29008.742154686708, 50345.33743206709, 36982.39171295067, 1881.1451651030977, -2890.1029098156587, -7963.2559970922475, 123962.0594933104, 1907.073188671254, 25984.014688016738, 47743.21439781361, -187500.02235174447, -145936.70766791198, 27978.86317716398, 11756.19056894667, 12863.7865619405, -7551.06747759193, 0.114, 1.002, 0.09, 192.0, 1.5, 72.0, 15.5, 40.0, 1.0, 104.0, 0.0, 0.0, 0.0, 1.695764556986108E9, 0.0, 2023-09-26 16:42:36.986
190.0, 29002.371907516947, 50356.35684208356, 36992.27118399992, 1899.0489124117987, -2885.7219679024183, -8007.713616813853, 123942.83699307883, 1876.2054295784749, 25990.42963867541, 47646.81132397787, -187500.02235174447, -146027.29928818933, 27986.038087134137, 11650.533872906431, 12829.767206879522, -7625.31997267246, 0.114, 1.002, 0.09, 192.0, 0.0, 0.0, 0.0, 0.0, 0.0, 0.0, 0.0, 0.0, 0.0, 1.695764556986117E9, 0.0, 2023-09-26 16:42:36.986
192.0, 28998.147427814893, 50352.80291471516, 36996.875643357715, 1887.1577843615753, -2888.158308048047, -7940.457217747834, 123979.87383364128, 1922.942927234522, 25975.699839079363, 47741.76153442401, -187500.02235174447, -145946.7883046613, 27970.86125264898, 11754.782409045984, 12864.680631718711, -7553.526169482014, 0.114, 1.002, 0.09, 192.0, 0.0, 0.0, 0.0, 0.0, 0.0, 0.0, 0.0, 0.0, 0.0, 1.695764556986178E9, 0.0, 2023-09-26 16:42:36.986
194.0, 29013.257207066683, 50369.387909101, 36994.707524145546, 1907.1402439046199, -2864.018424036315, -8043.54346317571, 123914.53968459842, 1837.9839465598998, 25991.48017066481, 47640.28461459692, -187500.02235174447, -146027.38869516714, 27977.34325854102, 11652.523178162954, 12834.952811593153, -7617.183937690728, 0.114, 1.002, 0.09, 192.0, 0.0, 0.0, 0.0, 0.0, 0.0, 0.0, 0.0, 0.0, 0.0, 1.695764556986189E9, 0.0, 2023-09-26 16:42:36.986
196.0, 28983.6411456634, 50329.7806179262, 36998.9320038476, 1879.8040604357793, -2877.2730084983123, -7953.443581276368, 123960.13724328724, 1897.841918211212, 25983.947632783373, 47712.77132186548, -187500.02235174447, -145999.82899425377, 27988.005040646203, 11726.239231376558, 12840.808968640444, -7590.093623410896, 0.114, 1.002, 0.09, 192.0, 0.0, 0.0, 0.0, 0.0, 0.0, 0.0, 0.0, 0.0, 0.0, 1.695764557045911E9, 0.0, 2023-09-26 16:42:37.045
198.0, 28974.11930252544, 50318.358876509534, 36980.245945482966, 1874.7749179333352, -2879.9105143440383, -8040.883605585529, 123925.58144635934, 1838.4756849379164, 25971.497711121763, 47632.55091101539, -187500.02235174447, -146047.5723204103, 27970.3024590376, 11648.723381605552, 12832.561174936436, -7620.290830170015, 0.116, 0.992, 0.092, 192.0, 1.5, 80.0, 15.5, 0.0, 1.0, 112.0, 0.0, 0.0, 0.0, 1.695764557045943E9, 0.0, 2023-09-26 16:42:37.045
200.0, 28972.532328669113, 50327.14311208047, 36995.60159392376, 1870.3492725311844, -2886.124299302614, -7940.792493914663, 123979.51620572999, 1912.0576276847873, 25956.991428970272, 47700.477862415064, -187500.02235174447, -146005.68515130106, 27969.877775892946, 11718.103196394826, 12855.494064747581, -7578.180143616217, 0.116, 0.992, 0.092, 192.0, 0.0, 0.0, 0.0, 0.0, 0.0, 0.0, 0.0, 0.0, 0.0, 1.69576455704596E9, 0.0, 2023-09-26 16:42:37.045
202.0, 28990.950166100287, 50340.84473143158, 36984.93981181858, 1885.973141905444, -2871.7521276178513, -8062.587149451631, 123919.5017718675, 1819.9237370400117, 25977.823254802617, 47634.204940105075, -187500.02235174447, -146039.50334066193, 27974.54929048411, 11658.64755614371, 12840.16076805124, -7603.549373572991, 0.116, 0.992, 0.092, 192.0, 0.0, 0.0, 0.0, 0.0, 0.0, 0.0, 0.0, 0.0, 0.0, 1.695764557045973E9, 0.0, 2023-09-26 16:42:37.045
204.0, 28973.82872984752, 50330.607632471045, 36998.12734104721, 1879.4687842689498, -2889.09708131517, -7943.742924182764, 123985.61823196629, 1905.9332497040332, 25969.70957156534, 47682.35059766181, -187500.02235174447, -146040.73268660696, 27978.48319750824, 11695.863210661795, 12840.406637240249, -7605.002236962586, 0.116, 0.992, 0.092, 192.0, 0.0, 0.0, 0.0, 0.0, 0.0, 0.0, 0.0, 0.0, 0.0, 1.695764557045987E9, 0.0, 2023-09-26 16:42:37.045
206.0, 28996.158122558372, 50334.36272553953, 36982.7269891175, 1885.6378657386144, -2874.1661160190247, -8071.304329789202, 123920.44054513462, 1805.8644897776235, 25974.51519662323, 47648.66651876766, -187500.02235174447, -146042.16319825212, 27980.561909742584, 11670.44927721611, 12841.434817485193, -7600.21896364915, 0.116, 0.992, 0.092, 192.0, 0.0, 0.0, 0.0, 0.0, 0.0, 0.0, 0.0, 0.0, 0.0, 1.695764557046002E9, 0.0, 2023-09-26 16:42:37.046
208.0, 28980.333087484014, 50340.66591747593, 36993.00879156694, 1879.8487639246898, -2894.059168584248, -7941.61950845951, 123997.88933967226, 1910.0236189393545, 25967.407341886443, 47680.71892031657, -187500.02235174447, -146057.45179145955, 27981.143055098422, 11685.581408212354, 12842.68651517469, -7610.456062609681, 0.11800000000000001, 1.002, 0.09, 192.0, 1.5, 88.0, 15.5, 40.0, 1.0, 104.0, 0.0, 0.0, 0.0, 1.695764557046029E9, 0.0, 2023-09-26 16:42:37.046
210.0, 28985.16106428636, 50334.29567030617, 36960.59876210675, 1871.4668597539498, -2892.1816220500023, -8038.201396250892, 123959.33258048685, 1838.878016338112, 25970.402475643456, 47671.57705683435, -187500.02235174447, -146022.85129104272, 27968.559022970087, 11695.416175772689, 12860.187931083196, -7569.30650106746, 0.11800000000000001, 1.002, 0.09, 192.0, 0.0, 0.0, 0.0, 0.0, 0.0, 0.0, 0.0, 0.0, 0.0, 1.695764557106042E9, 0.0, 2023-09-26 16:42:37.106
212.0, 28972.30881122456, 50336.35203079606, 36967.19252672107, 1867.331787029718, -2898.95420061996, -7936.053924090139, 124003.9690141641, 1915.0080579528878, 25955.359751625034, 47673.94634174661, -187500.02235174447, -146048.8240180998, 27964.49100547922, 11681.64750118822, 12856.477541503615, -7588.394890832293, 0.11800000000000001, 1.002, 0.09, 192.0, 0.0, 0.0, 0.0, 0.0, 0.0, 0.0, 0.0, 0.0, 0.0, 1.695764557106067E9, 0.0, 2023-09-26 16:42:37.106
214.0, 28991.866587622953, 50328.97595512581, 36956.55309636034, 1869.008167863866, -2881.7433573893736, -8059.010870338782, 123936.28793195343, 1813.4864346368831, 25971.47535937731, 47672.784051034934, -187500.02235174447, -146031.3226021913, 27973.074075350058, 11689.872943147773, 12846.419256498726, -7570.334681312404, 0.11800000000000001, 1.002, 0.09, 192.0, 0.0, 0.0, 0.0, 0.0, 0.0, 0.0, 0.0, 0.0, 0.0, 1.695764557106115E9, 0.0, 2023-09-26 16:42:37.106
216.0, 28967.905517566865, 50324.61736495702, 36970.94761978956, 1874.7525661888799, -2895.623790696119, -7955.4775900218, 123992.45786576961, 1896.4561100549831, 25961.19355692787, 47647.81715247836, -187500.02235174447, -146103.22816410402, 27981.500683009708, 11640.564994879365, 12821.809985853433, -7632.427827409248, 0.11800000000000001, 1.002, 0.09, 192.0, 0.0, 0.0, 0.0, 0.0, 0.0, 0.0, 0.0, 0.0, 0.0, 1.695764557106124E9, 0.0, 2023-09-26 16:42:37.106
218.0, 28998.236834792715, 50312.30155376215, 36953.64736958115, 1877.010092378866, -2887.1077760586472, -8044.482236442833, 123947.53085941444, 1822.427132419006, 25961.931164494894, 47697.63919086924, -187500.02235174447, -146020.10202647472, 27968.067284592067, 11708.670760234685, 12860.031468872008, -7549.614614202334, 0.11800000000000001, 1.01, 0.094, 192.0, 1.5, 88.0, 15.5, 72.0, 1.0, 120.0, 0.0, 0.0, 0.0, 1.69576455710615E9, 0.0, 2023-09-26 16:42:37.106
220.0, 28981.338915984503, 50327.21016731384, 36980.49181467197, 1887.1130808726648, -2890.505241215854, -7991.955636972862, 123963.60176367781, 1859.7098421704582, 25980.214891459334, 47627.67823072413, -187500.02235174447, -146129.8937952392, 27978.68436320834, 11625.142291205204, 12810.477651414592, -7645.078914770951, 0.11800000000000001, 1.01, 0.094, 192.0, 0.0, 0.0, 0.0, 0.0, 0.0, 0.0, 0.0, 0.0, 0.0, 1.695764557106159E9, 0.0, 2023-09-26 16:42:37.106
222.0, 28990.011392833163, 50305.081940303084, 36967.03606450988, 1868.3152637857515, -2882.0115783228375, -8058.005041838293, 123937.38316743173, 1803.5846118431823, 25966.066237219125, 47686.66448434168, -187500.02235174447, -146058.5246751934, 27972.53763348313, 11705.653274733218, 12840.138416306785, -7572.391041802292, 0.11800000000000001, 1.01, 0.094, 192.0, 0.0, 0.0, 0.0, 0.0, 0.0, 0.0, 0.0, 0.0, 0.0, 1.695764557106169E9, 0.0, 2023-09-26 16:42:37.106
224.0, 28964.955087298764, 50298.801100111144, 36978.30134371536, 1865.8565718956677, -2888.5606394482425, -7993.67672129592, 123979.58326096337, 1861.7662026603464, 25959.673638304906, 47612.70256193907, -187500.02235174447, -146152.55846411688, 27985.613403989486, 11619.509651602466, 12817.898430573754, -7650.555092162502, 0.11800000000000001, 1.01, 0.094, 192.0, 0.0, 0.0, 0.0, 0.0, 0.0, 0.0, 0.0, 0.0, 0.0, 1.695764557106178E9, 0.0, 2023-09-26 16:42:37.106
226.0, 28998.773276659642, 50308.68057116039, 36962.632770852186, 1864.9848538619108, -2870.478078183899, -8058.675594171953, 123941.0041500335, 1803.0258182317996, 25953.99629521326, 47686.86565004178, -187500.02235174447, -146052.91438733513, 27977.745589941216, 11715.756263227018, 12860.612614227846, -7556.096620094374, 0.11800000000000001, 1.01, 0.094, 192.0, 0.0, 0.0, 0.0, 0.0, 0.0, 0.0, 0.0, 0.0, 0.0, 1.695764557166402E9, 0.0, 2023-09-26 16:42:37.166
228.0, 28968.956049556262, 50307.63003917099, 36968.39952092165, 1843.594234418182, -2905.1679855785355, -8015.849651795585, 123979.18092956317, 1846.1646850305422, 25976.884481535493, 47595.11173905274, -187500.02235174447, -146174.97726380554, 27994.598805260517, 11604.332817117313, 12808.86832581381, -7660.881598100853, 0.114, 1.01, 0.08600000000000001, 192.0, 1.5, 72.0, 15.5, 72.0, 1.0, 88.0, 0.0, 0.0, 0.0, 1.695764557166429E9, 0.0, 2023-09-26 16:42:37.166
230.0, 28976.510939182157, 50281.322035947094, 36950.048738723846, 1830.585519145193, -2903.8045291667618, -7999.935209743406, 124004.55015951993, 1860.872132882134, 25957.03613245918, 47700.410807181695, -187500.02235174447, -146039.63745112866, 27964.91568862387, 11727.535632554966, 12882.405565071771, -7530.056837803941, 0.114, 1.01, 0.08600000000000001, 192.0, 0.0, 0.0, 0.0, 0.0, 0.0, 0.0, 0.0, 0.0, 0.0, 1.69576455716644E9, 0.0, 2023-09-26 16:42:37.166
232.0, 28985.094009052995, 50314.670838674414, 36974.65800936914, 1882.5309732593266, -2881.251619011357, -8026.936117045417, 123984.27712729898, 1839.1462372715757, 25964.456911618345, 47583.26531449143, -187500.02235174447, -146155.1065629848, 27979.600784731007, 11608.333779374812, 12837.679724416701, -7629.075065740952, 0.114, 1.01, 0.08600000000000001, 192.0, 0.0, 0.0, 0.0, 0.0, 0.0, 0.0, 0.0, 0.0, 0.0, 1.695764557166449E9, 0.0, 2023-09-26 16:42:37.166
234.0, 28988.64793642139, 50299.62811465599, 36960.59876210675, 1860.6709671820365, -2898.0154273528374, -7990.480421838811, 124013.44615381314, 1865.297778284285, 25947.246068387758, 47706.46812992908, -187500.02235174447, -146048.77931461087, 27978.237328319232, 11731.558946556921, 12891.92740820973, -7528.559270925435, 0.114, 1.01, 0.08600000000000001, 192.0, 0.0, 0.0, 0.0, 0.0, 0.0, 0.0, 0.0, 0.0, 0.0, 1.695764557166458E9, 0.0, 2023-09-26 16:42:37.166
236.0, 28985.45163696428, 50319.275298032204, 36962.208087707535, 1878.8876389131117, -2894.014465095337, -8025.974992033839, 123996.88351117176, 1841.6049291616596, 25961.84175751707, 47603.85127113477, -187500.02235174447, -146148.736315815, 27984.361706299987, 11617.922677746139, 12852.297765290472, -7612.26655391056, 0.114, 1.01, 0.08600000000000001, 192.0, 0.0, 0.0, 0.0, 0.0, 0.0, 0.0, 0.0, 0.0, 0.0, 1.695764557166507E9, 0.0, 2023-09-26 16:42:37.166
238.0, 28992.98417484572, 50304.254925758236, 36959.63763709517, 1862.3696997606398, -2893.902706373061, -7981.383261845502, 124018.36353759332, 1867.6000079631817, 25944.295638119656, 47709.66442938619, -187500.02235174447, -146055.41778271412, 27973.275241050156, 11736.3198681259, 12893.827306488432, -7522.770169111511, 0.108, 1.01, 0.092, 192.0, 1.5, 48.0, 15.5, 72.0, 1.0, 112.0, 0.0, 0.0, 0.0, 1.695764557166516E9, 0.0, 2023-09-26 16:42:37.166
240.0, 28991.79953238959, 50313.35208575155, 36967.304285443344, 1877.2559615678742, -2884.023235323815, -8048.237329511325, 123987.40637152272, 1821.466007407428, 25969.79897854316, 47603.1360153122, -187500.02235174447, -146161.23094096553, 27984.54052025563, 11618.570878335344, 12847.559195465947, -7606.969190474652, 0.108, 1.01, 0.092, 192.0, 0.0, 0.0, 0.0, 0.0, 0.0, 0.0, 0.0, 0.0, 0.0, 1.695764557226616E9, 0.0, 2023-09-26 16:42:37.226
242.0, 28981.16010202886, 50292.18498375237, 36966.544326131865, 1864.783688161813, -2897.635447697097, -7967.0781453941045, 124033.4286133562, 1880.742833702902, 25945.81555674262, 47706.713999118096, -187500.02235174447, -146085.50323075097, 27974.035200361635, 11722.305324352423, 12886.183009884717, -7530.168596526218, 0.108, 1.01, 0.092, 192.0, 0.0, 0.0, 0.0, 0.0, 0.0, 0.0, 0.0, 0.0, 0.0, 1.69576455722665E9, 0.0, 2023-09-26 16:42:37.226
244.0, 28997.49922722569, 50309.418178727414, 36965.493794142465, 1882.553325003782, -2879.7540521328515, -8064.419992496967, 123978.64448769623, 1806.2444694333637, 25963.071103462113, 47614.915384640146, -187500.02235174447, -146153.988975762, 27968.670781692363, 11631.154910463682, 12855.225843814116, -7584.036300663508, 0.108, 1.01, 0.092, 192.0, 0.0, 0.0, 0.0, 0.0, 0.0, 0.0, 0.0, 0.0, 0.0, 1.69576455722666E9, 0.0, 2023-09-26 16:42:37.226
246.0, 28970.274802479125, 50293.704902375335, 36972.1769657346, 1860.0898218261984, -2904.8550611561614, -7937.126807823994, 124061.39064566979, 1907.7213892604577, 25943.021588685704, 47708.658600885705, -187500.02235174447, -146096.81321344533, 27967.843767147515, 11721.232440618569, 12885.512457551058, -7528.15693952524, 0.108, 1.01, 0.092, 192.0, 0.0, 0.0, 0.0, 0.0, 0.0, 0.0, 0.0, 0.0, 0.0, 1.695764557226669E9, 0.0, 2023-09-26 16:42:37.226
248.0, 29003.377736017435, 50311.40748398394, 36967.974837777, 1884.006188393377, -2884.9396568464826, -8047.4326667109335, 124006.98649966557, 1823.9246992975116, 25958.779568526694, 47634.80843720537, -187500.02235174447, -146121.60129804627, 27972.06824684957, 11661.955614323095, 12880.036280159507, -7539.757494897544, 0.11, 1.004, 0.08600000000000001, 192.0, 1.5, 56.0, 15.5, 48.0, 1.0, 88.0, 0.0, 0.0, 0.0, 1.695764557226678E9, 0.0, 2023-09-26 16:42:37.226
250.0, 29007.512808741667, 50317.889489875975, 36988.784311864896, 1890.5328977743266, -2893.3886162505887, -7939.1384648249705, 124062.77645382601, 1901.7534734908909, 25969.217833187322, 47693.88409780075, -187500.02235174447, -146108.77139672893, 27982.48415976574, 11716.538574282953, 12884.752498239577, -7524.424198201204, 0.11, 1.004, 0.08600000000000001, 192.0, 0.0, 0.0, 0.0, 0.0, 0.0, 0.0, 0.0, 0.0, 0.0, 1.695764557226687E9, 0.0, 2023-09-26 16:42:37.226
252.0, 29044.884925470942, 50342.31994656562, 36984.64923914066, 1910.7835782508348, -2880.245790510868, -8058.899111616506, 124001.73383971857, 1806.4232833890062, 25989.37910668601, 47660.31177762888, -187500.02235174447, -146122.51771956895, 27980.986592887235, 11686.833105901851, 12884.12664939483, -7523.932459823187, 0.11, 1.004, 0.08600000000000001, 192.0, 0.0, 0.0, 0.0, 0.0, 0.0, 0.0, 0.0, 0.0, 0.0, 1.695764557226696E9, 0.0, 2023-09-26 16:42:37.226
254.0, 29029.12694562995, 50335.0332778732, 36997.34502999127, 1898.490118800416, -2905.346799534178, -7950.917834152918, 124054.21573569963, 1885.8613831831674, 25996.174037000423, 47706.02109503998, -187500.02235174447, -146136.46520810906, 27990.642546491927, 11713.476385292577, 12876.16942836874, -7535.197739028662, 0.11, 1.004, 0.08600000000000001, 192.0, 0.0, 0.0, 0.0, 0.0, 0.0, 0.0, 0.0, 0.0, 0.0, 1.695764557226705E9, 0.0, 2023-09-26 16:42:37.226
0.0, 29044.61670453748, 50335.30149880666, 36976.244983225464, 1894.712673987469, -2895.4896802293874, -8075.640568213531, 123991.85436866933, 1790.0841581921768, 25996.598720145073, 47685.27867618545, -187500.02235174447, -146124.77524575894, 27979.377267286454, 11697.405481029211, 12876.750573724577, -7519.01507604302, 0.11, 1.004, 0.08600000000000001, 192.0, 0.0, 0.0, 0.0, 0.0, 0.0, 0.0, 0.0, 0.0, 0.0, 1.695764557285519E9, 0.0, 2023-09-26 16:42:37.285
2.0, 29014.911236156375, 50318.56004220963, 36987.644372897674, 1884.4979267713938, -2911.5829362372087, -7956.058735377638, 124051.89115427628, 1884.7437959604022, 25980.460760648344, 47700.07553101487, -187500.02235174447, -146146.00940299148, 27983.087656866035, 11695.997321128527, 12877.577588269423, -7534.214262272628, 0.116, 1.004, 0.088, 192.0, 1.5, 80.0, 15.5, 48.0, 1.0, 96.0, 0.0, 0.0, 0.0, 1.69576455728554E9, 0.0, 2023-09-26 16:42:37.285
4.0, 29026.824715951054, 50290.66506512941, 36967.19252672107, 1881.8157174367568, -2895.5567354627533, -8067.236312298336, 123997.71052571661, 1799.4718908634056, 25977.644440846976, 47691.09012974383, -187500.02235174447, -146110.85010896326, 27969.520147981664, 11707.374359056277, 12889.133440152818, -7491.298912918439, 0.116, 1.004, 0.088, 192.0, 0.0, 0.0, 0.0, 0.0, 0.0, 0.0, 0.0, 0.0, 0.0, 1.695764557285587E9, 0.0, 2023-09-26 16:42:37.285
6.0, 29014.017166378162, 50303.897297846954, 36984.850404840756, 1890.6223047521478, -2897.7248546749183, -7981.740889756787, 124031.3275493774, 1862.3473480161845, 25985.109923495045, 47661.407013107186, -187500.02235174447, -146179.02292955195, 27984.495816766717, 11666.35890798079, 12861.059649116953, -7547.290032778983, 0.116, 1.004, 0.088, 192.0, 0.0, 0.0, 0.0, 0.0, 0.0, 0.0, 0.0, 0.0, 0.0, 1.695764557285595E9, 0.0, 2023-09-26 16:42:37.285
8.0, 29020.56622750357, 50281.41144292492, 36960.799927806846, 1882.329807559229, -2892.1816220500023, -8079.105088604104, 123983.07013309839, 1782.3057511217298, 25971.497711121763, 47694.331132689855, -187500.02235174447, -146115.76749274344, 27978.416142274877, 11716.292705093945, 12888.351129096882, -7483.587561081357, 0.116, 1.004, 0.088, 192.0, 0.0, 0.0, 0.0, 0.0, 0.0, 0.0, 0.0, 0.0, 0.0, 1.695764557285606E9, 0.0, 2023-09-26 16:42:37.285
10.0, 29029.909256685885, 50309.708751405335, 36988.761960120435, 1902.1558048910863, -2887.219534780924, -8022.4881198988105, 123993.15076984774, 1821.3989521740618, 25984.99816477277, 47639.25643435198, -187500.02235174447, -146211.12003458978, 27986.77569470116, 11646.577614137843, 12848.073285588418, -7565.372594043326, 0.116, 1.004, 0.088, 192.0, 0.0, 0.0, 0.0, 0.0, 0.0, 0.0, 0.0, 0.0, 0.0, 1.695764557285615E9, 0.0, 2023-09-26 16:42:37.285
12.0, 29032.12207938696, 50287.42406218339, 36974.74741634696, 1881.4357377810168, -2895.579087207209, -8086.011777640793, 123971.7154469151, 1771.107527149621, 25987.72507759632, 47702.981257794054, -187500.02235174447, -146147.41756289217, 27985.903976667403, 11719.220783617591, 12870.425030043725, -7502.027750256986, 0.108, 1.004, 0.092, 192.0, 1.5, 48.0, 15.5, 48.0, 1.0, 112.0, 0.0, 0.0, 0.0, 1.695764557285624E9, 0.0, 2023-09-26 16:42:37.285
14.0, 29019.001605391695, 50294.68837913137, 36992.62881191121, 1891.5610780192708, -2903.402197766566, -8028.4113321794675, 123996.2129588381, 1818.046190505766, 25981.243071704277, 47648.465353067564, -187500.02235174447, -146223.72641846258, 27980.58426148704, 11646.555262393387, 12849.97318386712, -7564.880855665309, 0.108, 1.004, 0.092, 192.0, 0.0, 0.0, 0.0, 0.0, 0.0, 0.0, 0.0, 0.0, 0.0, 1.695764557345726E9, 0.0, 2023-09-26 16:42:37.345
16.0, 29010.798515176597, 50252.98002397776, 36970.2770674559, 1863.0626038387543, -2914.823939183228, -8039.318983473657, 124017.022432926, 1814.626373604104, 25956.633801058986, 47736.53122622147, -187500.02235174447, -146116.86272822175, 27969.38603751493, 11750.535577599476, 12902.70094903719, -7455.960804934598, 0.108, 1.004, 0.092, 192.0, 0.0, 0.0, 0.0, 0.0, 0.0, 0.0, 0.0, 0.0, 0.0, 1.695764557345753E9, 0.0, 2023-09-26 16:42:37.345
18.0, 29014.41949777836, 50267.15102996243, 36987.24204149748, 1889.9964559073992, -2899.155366320058, -8019.291820441702, 124020.1740288942, 1831.2113679899417, 25962.646420317462, 47646.67721351114, -187500.02235174447, -146206.4485199986, 27967.843767147515, 11652.120846762758, 12872.704907978166, -7523.217204000617, 0.108, 1.004, 0.092, 192.0, 0.0, 0.0, 0.0, 0.0, 0.0, 0.0, 0.0, 0.0, 0.0, 1.695764557345762E9, 0.0, 2023-09-26 16:42:37.345
20.0, 29013.59248323351, 50252.242416410736, 36983.732817617994, 1877.9488656459887, -2889.85704062665, -8050.517207445766, 124003.61138625281, 1799.7624635413247, 25968.81550178713, 47722.3155167479, -187500.02235174447, -146138.00747847647, 27986.86510167898, 11744.701772296641, 12887.255893618572, -7455.647880512224, 0.108, 1.004, 0.092, 192.0, 0.0, 0.0, 0.0, 0.0, 0.0, 0.0, 0.0, 0.0, 0.0, 1.695764557345772E9, 0.0, 2023-09-26 16:42:37.345
22.0, 28996.31458476956, 50244.620471551476, 36985.543308918874, 1874.8196214222457, -2904.2515640558677, -8018.688323341409, 124029.98644471008, 1835.949937814467, 25965.887423263484, 47633.84731219379, -187500.02235174447, -146237.9197761917, 27984.495816766717, 11637.726323333542, 12858.936233393697, -7533.051971560953, 0.114, 1.008, 0.088, 192.0, 1.5, 72.0, 15.5, 64.0, 1.0, 96.0, 0.0, 0.0, 0.0, 1.695764557345781E9, 0.0, 2023-09-26 16:42:37.345
24.0, 29029.909256685885, 50239.792494749134, 36973.04868376836, 1881.4804412699273, -2894.215630795435, -8024.209204221869, 124023.5714940514, 1823.0529812637546, 25958.51134759323, 47738.989918111554, -187500.02235174447, -146112.70530375306, 27968.447264247807, 11759.632737592787, 12914.055635220486, -7416.867603882266, 0.114, 1.008, 0.088, 192.0, 0.0, 0.0, 0.0, 0.0, 0.0, 0.0, 0.0, 0.0, 0.0, 1.69576455734579E9, 0.0, 2023-09-26 16:42:37.345
26.0, 29045.108442915494, 50262.52421886018, 36988.47138744252, 1915.9691829644662, -2882.592723678675, -8074.411222268489, 123982.69015344264, 1780.785832498769, 25990.541397397687, 47628.86287318026, -187500.02235174447, -146242.3230698494, 27991.82718894806, 11633.010105253472, 12850.442570500682, -7529.319230236916, 0.114, 1.008, 0.088, 192.0, 0.0, 0.0, 0.0, 0.0, 0.0, 0.0, 0.0, 0.0, 0.0, 1.695764557345836E9, 0.0, 2023-09-26 16:42:37.345
28.0, 29027.472916540257, 50234.00339293521, 36992.89703284467, 1898.3113048447735, -2887.9794940924044, -8030.735913602819, 124010.89805494524, 1807.5408706117717, 25992.10601950956, 47736.08419133237, -187500.02235174447, -146181.72749063105, 27997.839808206536, 11738.80091176044, 12866.424067786225, -7466.108496917307, 0.114, 1.008, 0.088, 192.0, 0.0, 0.0, 0.0, 0.0, 0.0, 0.0, 0.0, 0.0, 0.0, 1.695764557345845E9, 0.0, 2023-09-26 16:42:37.345
30.0, 29025.148335116904, 50238.13846565944, 36981.96702980602, 1900.300610101296, -2888.2700667703234, -8069.046803599215, 123992.68138321416, 1782.1269371660874, 25978.76202806974, 47650.45465832409, -187500.02235174447, -146248.00041294104, 27984.942851655826, 11648.522215905454, 12857.885701404299, -7509.381474182782, 0.114, 1.008, 0.088, 192.0, 0.0, 0.0, 0.0, 0.0, 0.0, 0.0, 0.0, 0.0, 0.0, 1.695764557406073E9, 0.0, 2023-09-26 16:42:37.406
32.0, 29027.092936884517, 50239.41251509339, 36984.11279727373, 1889.6164762516592, -2893.969761606427, -8011.602820349076, 124018.43059282668, 1817.6662108500257, 25978.91849028093, 47732.53026396397, -187500.02235174447, -146176.74305161752, 27977.946755641315, 11747.965126987116, 12883.187876127706, -7442.706220472601, 0.12, 1.01, 0.084, 192.0, 1.5, 96.0, 15.5, 72.0, 1.0, 80.0, 0.0, 0.0, 0.0, 1.695764557406097E9, 0.0, 2023-09-26 16:42:37.406
34.0, 29033.5525910321, 50255.528122845666, 36986.83971009728, 1905.3074008592846, -2884.2691045128236, -8096.159469623503, 123973.54828996042, 1756.0871548756547, 25998.56567365714, 47637.93768142911, -187500.02235174447, -146261.3220526364, 27989.34614531352, 11653.461951430078, 12851.224881556616, -7505.045235758453, 0.12, 1.01, 0.084, 192.0, 0.0, 0.0, 0.0, 0.0, 0.0, 0.0, 0.0, 0.0, 0.0, 1.695764557406106E9, 0.0, 2023-09-26 16:42:37.406
36.0, 29010.776163432143, 50227.499035298715, 36981.96702980602, 1876.4736505119386, -2907.246697812879, -7987.1500119149705, 124040.69293030417, 1841.6049291616596, 25981.913624037938, 47735.05601108742, -187500.02235174447, -146202.4028542522, 27983.333526055045, 11752.56958634491, 12882.852599960876, -7445.254319340506, 0.12, 1.01, 0.084, 192.0, 0.0, 0.0, 0.0, 0.0, 0.0, 0.0, 0.0, 0.0, 0.0, 1.695764557406117E9, 0.0, 2023-09-26 16:42:37.406
38.0, 29024.27661708315, 50225.97911667575, 36975.52972740289, 1893.6621419980697, -2891.8239941387174, -8091.487955032344, 123986.15467383323, 1764.6925764909479, 25999.05741203516, 47650.34289960181, -187500.02235174447, -146244.1782646392, 27978.01381087468, 11682.318053521878, 12868.569835253935, -7474.937435977154, 0.12, 1.01, 0.084, 192.0, 0.0, 0.0, 0.0, 0.0, 0.0, 0.0, 0.0, 0.0, 0.0, 1.695764557406126E9, 0.0, 2023-09-26 16:42:37.406
40.0, 29026.31062582858, 50224.41449456388, 36994.774579378914, 1892.969237919955, -2894.7744244068176, -7994.682549796409, 124031.19343891066, 1832.530120912805, 25990.56374914214, 47720.81794986939, -187500.02235174447, -146204.74978742, 27981.746552198718, 11762.94079577217, 12889.222847130639, -7436.224214580562, 0.12, 1.01, 0.084, 192.0, 0.0, 0.0, 0.0, 0.0, 0.0, 0.0, 0.0, 0.0, 0.0, 1.695764557406135E9, 0.0, 2023-09-26 16:42:37.406
42.0, 29021.41559379287, 50230.53887254463, 36992.44999795556, 1894.8020809652903, -2887.443052225477, -8085.922370662973, 123998.85046468384, 1772.2474661168417, 26014.636577920508, 47659.32830087284, -187500.02235174447, -146247.44161932965, 27992.16246511489, 11718.393769072743, 12874.627158001324, -7459.850008469822, 0.116, 1.012, 0.08600000000000001, 192.0, 1.5, 80.0, 15.5, 80.0, 1.0, 88.0, 0.0, 0.0, 0.0, 1.695764557406144E9, 0.0, 2023-09-26 16:42:37.406
44.0, 29014.732422200734, 50225.71089574229, 37009.75024816397, 1888.2977233287959, -2893.634485439597, -7957.019860389217, 124071.9853725416, 1872.3162260432514, 26005.71823188284, 47719.32038299089, -187500.02235174447, -146219.12195910478, 27984.853444678003, 11781.246874481069, 12901.762175770065, -7424.7577696749895, 0.116, 1.012, 0.08600000000000001, 192.0, 0.0, 0.0, 0.0, 0.0, 0.0, 0.0, 0.0, 0.0, 0.0, 1.695764557466399E9, 0.0, 2023-09-26 16:42:37.466
46.0, 29025.818887450565, 50211.204613590795, 36984.425721696105, 1887.5154122728602, -2889.119433059625, -8060.128457561548, 124031.28284588849, 1797.169661184509, 26005.271196993734, 47689.078472742855, -187500.02235174447, -146193.55156344792, 27979.421970775365, 11775.94951104516, 12922.504594624592, -7391.341911714306, 0.116, 1.012, 0.08600000000000001, 192.0, 0.0, 0.0, 0.0, 0.0, 0.0, 0.0, 0.0, 0.0, 0.0, 1.695764557466425E9, 0.0, 2023-09-26 16:42:37.466
48.0, 29031.160954375384, 50243.79345700663, 37001.45775097105, 1908.5484038053041, -2878.032967809793, -7972.464915807834, 124059.31193343544, 1858.167571803042, 26019.688072167406, 47691.98419952205, -187500.02235174447, -146220.64187772773, 27986.373363300965, 11778.944644802172, 12902.79035601501, -7417.605211449291, 0.116, 1.012, 0.08600000000000001, 192.0, 0.0, 0.0, 0.0, 0.0, 0.0, 0.0, 0.0, 0.0, 0.0, 1.695764557466475E9, 0.0, 2023-09-26 16:42:37.466
50.0, 29033.284370098638, 50235.21038713579, 36982.45876818404, 1908.257831127385, -2873.9202468300164, -8080.848524671617, 124009.31108108892, 1774.30382660673, 26025.745394914797, 47679.31076041589, -187500.02235174447, -146207.3649415213, 27994.040011649136, 11780.039880280481, 12903.75148102659, -7400.662589152168, 0.116, 1.012, 0.08600000000000001, 192.0, 0.0, 0.0, 0.0, 0.0, 0.0, 0.0, 0.0, 0.0, 0.0, 1.695764557466485E9, 0.0, 2023-09-26 16:42:37.466
52.0, 29006.909311641375, 50223.922756185864, 36984.89510832967, 1900.0770926567427, -2898.842441897684, -7957.980985400794, 124070.75602659656, 1870.9974731203883, 26008.355737728565, 47680.24953368301, -187500.02235174447, -146248.44744783014, 27990.59784300302, 11767.657013852242, 12890.765117498055, -7433.787874434934, 0.108, 1.01, 0.088, 192.0, 1.5, 48.0, 15.5, 72.0, 1.0, 96.0, 0.0, 0.0, 0.0, 1.695764557466506E9, 0.0, 2023-09-26 16:42:37.466
54.0, 29052.350408119015, 50232.394067334426, 36961.917515029614, 1915.1868719085303, -2871.215685750924, -8099.98161792536, 123979.73972317454, 1751.817971684691, 26000.71144112485, 47695.62753386826, -187500.02235174447, -146196.61375243828, 27973.521110239162, 11799.62000842333, 12910.166431685262, -7376.321539440339, 0.108, 1.01, 0.088, 192.0, 0.0, 0.0, 0.0, 0.0, 0.0, 0.0, 0.0, 0.0, 0.0, 1.695764557466516E9, 0.0, 2023-09-26 16:42:37.466
56.0, 29022.89080892692, 50244.73223027375, 36989.946602576565, 1919.4113516105833, -2883.732662645896, -8014.01680875025, 124014.40727882473, 1816.079236993699, 26017.00586283277, 47654.2991583704, -187500.02235174447, -146314.65331490675, 28001.617253019485, 11732.363609357311, 12846.30749777645, -7477.485534845059, 0.108, 1.01, 0.088, 192.0, 0.0, 0.0, 0.0, 0.0, 0.0, 0.0, 0.0, 0.0, 0.0, 1.695764557466525E9, 0.0, 2023-09-26 16:42:37.466
58.0, 29027.94230317382, 50230.51652080018, 36976.02146578091, 1906.648505526603, -2876.5354009312873, -8100.3168940921905, 123975.89522312823, 1747.079401860166, 26005.315900482645, 47713.19600501013, -187500.02235174447, -146252.71663102112, 27996.632814005952, 11792.780374620006, 12876.705870235666, -7406.027007821443, 0.108, 1.01, 0.088, 192.0, 0.0, 0.0, 0.0, 0.0, 0.0, 0.0, 0.0, 0.0, 0.0, 1.695764557466534E9, 0.0, 2023-09-26 16:42:37.466
60.0, 29014.195980333803, 50242.251186639216, 36986.63854439718, 1906.8049677377903, -2893.8803546286053, -8007.579506347121, 124028.53358132049, 1824.684658608992, 25991.256653220258, 47677.544972603915, -187500.02235174447, -146318.85544286435, 27991.62602324796, 11734.554080313932, 12866.40171604177, -7452.630395010758, 0.108, 1.01, 0.088, 192.0, 0.0, 0.0, 0.0, 0.0, 0.0, 0.0, 0.0, 0.0, 0.0, 1.695764557526622E9, 0.0, 2023-09-26 16:42:37.526
62.0, 29035.810117222085, 50237.08793367004, 36974.81447158033, 1910.649467784103, -2867.214723493424, -8099.534583036254, 123981.12553133078, 1743.950157636423, 25998.453914934864, 47723.410752226206, -187500.02235174447, -146242.5689390384, 27991.000174403212, 11805.073834070425, 12888.574646541436, -7374.779269072923, 0.11, 1.004, 0.09, 192.0, 1.5, 56.0, 15.5, 48.0, 1.0, 104.0, 0.0, 0.0, 0.0, 1.695764557526643E9, 0.0, 2023-09-26 16:42:37.526
64.0, 29006.55168373009, 50242.318241872585, 36996.585070679794, 1906.3355811042288, -2881.4527847114546, -8043.252890497791, 124014.31787184691, 1795.6050390726375, 26006.43348770541, 47645.64903326619, -187500.02235174447, -146365.48118179812, 28011.943758957837, 11700.311207808401, 12836.517433705025, -7480.435965113159, 0.11, 1.004, 0.09, 192.0, 0.0, 0.0, 0.0, 0.0, 0.0, 0.0, 0.0, 0.0, 0.0, 1.695764557526653E9, 0.0, 2023-09-26 16:42:37.526
66.0, 29017.235817579727, 50220.61469800648, 36979.687151871585, 1887.5377640173156, -2875.507220686343, -8077.048728114216, 124003.20905485262, 1766.5477712807383, 25982.025382760214, 47739.25813904502, -187500.02235174447, -146245.54172105095, 27989.703773224806, 11810.080624828413, 12897.582399556924, -7360.02711773242, 0.11, 1.004, 0.09, 192.0, 0.0, 0.0, 0.0, 0.0, 0.0, 0.0, 0.0, 0.0, 0.0, 1.695764557526664E9, 0.0, 2023-09-26 16:42:37.526
68.0, 28999.17560805984, 50233.04226792363, 36988.337276975784, 1895.204412365486, -2882.7491858898625, -8050.830131868141, 124021.55983705043, 1795.7391495393695, 25998.81154284615, 47635.36723081675, -187500.02235174447, -146364.4977050421, 28001.43843906384, 11695.55028623942, 12848.475616988615, -7455.446714812126, 0.11, 1.004, 0.09, 192.0, 0.0, 0.0, 0.0, 0.0, 0.0, 0.0, 0.0, 0.0, 0.0, 1.695764557526673E9, 0.0, 2023-09-26 16:42:37.526
70.0, 29017.83931468002, 50212.07633162455, 36970.32177094481, 1896.8360897107232, -2881.47513645591, -8068.510361732288, 124012.99911892404, 1773.074480661688, 25970.67069657692, 47739.63811870076, -187500.02235174447, -146243.39595358324, 27982.48415976574, 11815.176822564224, 12906.232524661127, -7335.127274409208, 0.11, 1.004, 0.09, 192.0, 0.0, 0.0, 0.0, 0.0, 0.0, 0.0, 0.0, 0.0, 0.0, 1.69576455752671E9, 0.0, 2023-09-26 16:42:37.526
72.0, 29011.044384365607, 50236.95382320331, 36985.36449496323, 1924.4404941130274, -2875.753089875351, -8090.526830020765, 123996.10120011584, 1755.4389542864508, 26005.092383038093, 47619.43043702012, -187500.02235174447, -146393.15264143382, 28002.01958441968, 11678.45120173111, 12829.677799901701, -7464.879150972266, 0.122, 1.004, 0.096, 192.0, 1.5, 104.0, 15.5, 48.0, 1.5, 0.0, 0.0, 0.0, 0.0, 1.695764557526719E9, 0.0, 2023-09-26 16:42:37.526
74.0, 29016.386451290426, 50216.07729388205, 36974.47919541349, 1909.3754183501505, -2873.3614532186334, -8077.02637636976, 124005.89126418726, 1758.3446810656408, 25983.075914749614, 47731.70324941912, -187500.02235174447, -146298.67181762122, 27991.06722963658, 11795.14965953227, 12874.627158001324, -7372.678205094124, 0.122, 1.004, 0.096, 192.0, 0.0, 0.0, 0.0, 0.0, 0.0, 0.0, 0.0, 0.0, 0.0, 1.695764557585599E9, 0.0, 2023-09-26 16:42:37.585
76.0, 28998.7956284041, 50228.63897426593, 36966.320808687306, 1907.6096305381814, -2888.0689010702254, -8084.558914251199, 124016.84361897036, 1763.9996724128334, 25989.446161919375, 47637.557701773374, -187500.02235174447, -146395.29840890152, 28008.948625200825, 11687.83893440234, 12844.608765197847, -7448.584729264347, 0.122, 1.004, 0.096, 192.0, 0.0, 0.0, 0.0, 0.0, 0.0, 0.0, 0.0, 0.0, 0.0, 1.695764557585644E9, 0.0, 2023-09-26 16:42:37.585
78.0, 29001.63429994992, 50215.69731422631, 36958.631808594684, 1898.9595054339775, -2895.623790696119, -8027.964297290361, 124048.73955830808, 1802.1988036869532, 25964.56867034062, 47744.33198503638, -187500.02235174447, -146283.24911394707, 27986.082790623044, 11810.080624828413, 12897.470640834646, -7343.30801287985, 0.122, 1.004, 0.096, 192.0, 0.0, 0.0, 0.0, 0.0, 0.0, 0.0, 0.0, 0.0, 0.0, 1.69576455758566E9, 0.0, 2023-09-26 16:42:37.585
80.0, 29001.857817394477, 50227.78960797663, 36958.922381272605, 1909.9565637059884, -2891.5557732052534, -8089.900981176017, 124019.79404923845, 1759.5069717773167, 25979.991374014782, 47640.016393663456, -187500.02235174447, -146369.66095801129, 27987.1556743569, 11701.69701596463, 12860.344393294383, -7409.759749145478, 0.122, 1.004, 0.096, 192.0, 0.0, 0.0, 0.0, 0.0, 0.0, 0.0, 0.0, 0.0, 0.0, 1.695764557585669E9, 0.0, 2023-09-26 16:42:37.585
82.0, 28991.821884134042, 50213.015104891674, 36965.96318077602, 1888.1636128620642, -2895.0649970847367, -8004.718483056842, 124067.04563701697, 1824.88582430909, 25959.94185923837, 47735.88302563227, -187500.02235174447, -146295.05083501947, 27983.042953377124, 11801.497554957576, 12895.816611744955, -7335.998992442965, 0.11800000000000001, 0.998, 0.1, 192.0, 1.5, 88.0, 15.5, 24.0, 1.5, 16.0, 0.0, 0.0, 0.0, 1.695764557585678E9, 0.0, 2023-09-26 16:42:37.585
84.0, 28997.767448159153, 50217.73132297174, 36963.34802667475, 1893.0809966422316, -2883.0174068233264, -8083.910713661995, 124029.40529935424, 1770.0569951602215, 25972.57059485562, 47643.25739660948, -187500.02235174447, -146355.9369869157, 27988.2062063463, 11709.65423699072, 12875.677689990724, -7378.98139703052, 0.11800000000000001, 0.998, 0.1, 192.0, 0.0, 0.0, 0.0, 0.0, 0.0, 0.0, 0.0, 0.0, 0.0, 1.695764557585688E9, 0.0, 2023-09-26 16:42:37.585
86.0, 28998.12507607044, 50218.84891019451, 36970.2770674559, 1890.8681739411563, -2898.3730552641223, -7988.491116582289, 124071.62774463031, 1837.916891326534, 25957.37140862601, 47717.84516785684, -187500.02235174447, -146300.41525368873, 27979.645488219918, 11778.698775613162, 12896.084832678418, -7326.521852793915, 0.11800000000000001, 0.998, 0.1, 192.0, 0.0, 0.0, 0.0, 0.0, 0.0, 0.0, 0.0, 0.0, 0.0, 1.695764557585697E9, 0.0, 2023-09-26 16:42:37.585
88.0, 29016.02882337914, 50240.23952963824, 36966.14199473167, 1902.42402582455, -2891.2428487828793, -8091.443251543433, 124021.78335449498, 1762.1891811119535, 25971.631821588497, 47641.02222216395, -187500.02235174447, -146341.72127744215, 27991.804837203603, 11703.820431687884, 12882.07028890494, -7354.9085682521545, 0.11800000000000001, 0.998, 0.1, 192.0, 0.0, 0.0, 0.0, 0.0, 0.0, 0.0, 0.0, 0.0, 0.0, 1.695764557585709E9, 0.0, 2023-09-26 16:42:37.585
90.0, 29016.766430946165, 50244.396954106924, 36978.88248907119, 1900.6358862681254, -2886.9066103585496, -7999.957561487861, 124055.7803578115, 1823.4553126639503, 25965.730961052297, 47702.645981627225, -187500.02235174447, -146324.71159991165, 27990.44138079183, 11754.670650323707, 12888.172315141239, -7332.623879030214, 0.11800000000000001, 0.998, 0.1, 192.0, 0.0, 0.0, 0.0, 0.0, 0.0, 0.0, 0.0, 0.0, 0.0, 1.695764557645725E9, 0.0, 2023-09-26 16:42:37.645
92.0, 29033.150259631904, 50254.254073411714, 36977.74255010397, 1914.136339919131, -2863.6160926361194, -8134.492711364354, 123982.01960110899, 1711.406017709496, 25987.032173518204, 47646.163123388666, -187500.02235174447, -146378.5569523045, 28007.518113555685, 11694.723271694575, 12856.432838014704, -7373.8404958058, 0.12, 1.0, 0.096, 192.0, 1.5, 96.0, 15.5, 32.0, 1.5, 0.0, 0.0, 0.0, 0.0, 1.695764557645775E9, 0.0, 2023-09-26 16:42:37.645
94.0, 29018.64397748041, 50256.936282746356, 36988.5831461648, 1909.6436392836142, -2886.6830929139965, -8018.867137297051, 124037.6307413138, 1796.4544053619393, 25969.597812843065, 47694.19702222312, -187500.02235174447, -146390.58219082144, 28001.72901174176, 11723.378208086278, 12855.11408509184, -7381.931827298621, 0.12, 1.0, 0.096, 192.0, 0.0, 0.0, 0.0, 0.0, 0.0, 0.0, 0.0, 0.0, 0.0, 1.695764557645786E9, 0.0, 2023-09-26 16:42:37.645
96.0, 29039.989893435228, 50267.28514042916, 36976.1779279921, 1921.3336016337398, -2871.841534595673, -8133.576289841687, 123989.0604006124, 1709.8637473420797, 25977.018592002227, 47678.528449359954, -187500.02235174447, -146376.4111848368, 27996.632814005952, 11716.69503649414, 12867.809875942456, -7358.618957831736, 0.12, 1.0, 0.096, 192.0, 0.0, 0.0, 0.0, 0.0, 0.0, 0.0, 0.0, 0.0, 0.0, 1.695764557645796E9, 0.0, 2023-09-26 16:42:37.645
98.0, 29017.83931468002, 50268.0674514851, 36987.778483364404, 1916.4162178535723, -2890.929924360505, -8010.440529637401, 124056.40620665625, 1808.457292134439, 25978.314993180633, 47691.00072276601, -187500.02235174447, -146408.73180731916, 28003.025412920168, 11716.136242882758, 12858.198625826673, -7385.865734322755, 0.12, 1.0, 0.096, 192.0, 0.0, 0.0, 0.0, 0.0, 0.0, 0.0, 0.0, 0.0, 0.0, 1.695764557645814E9, 0.0, 2023-09-26 16:42:37.645
100.0, 29035.027806166152, 50261.80896303761, 36965.29262844237, 1910.0459706838096, -2870.791002606273, -8130.782321784774, 123999.90099667324, 1712.3224392321636, 25975.05163849016, 47687.44679539762, -187500.02235174447, -146370.71149000069, 27995.202302360813, 11731.89422272375, 12878.225788858628, -7343.375068113216, 0.12, 1.0, 0.096, 192.0, 0.0, 0.0, 0.0, 0.0, 0.0, 0.0, 0.0, 0.0, 0.0, 1.695764557645823E9, 0.0, 2023-09-26 16:42:37.645
102.0, 28986.233948020217, 50242.877035483965, 36976.89318381467, 1887.2918948283072, -2897.85896514165, -7997.007131219761, 124079.22733774512, 1821.1530829850535, 25962.624068573008, 47675.28744641393, -187500.02235174447, -146423.4169034263, 27998.085677395546, 11703.149879354225, 12867.765172453544, -7386.491583167503, 0.116, 1.006, 0.098, 192.0, 1.5, 80.0, 15.5, 56.0, 1.5, 8.0, 0.0, 0.0, 0.0, 1.695764557645833E9, 0.0, 2023-09-26 16:42:37.645
104.0, 28993.610023690468, 50216.14434911541, 36951.09927071325, 1869.5893132197039, -2893.1650988060355, -8078.009853125794, 124051.93585776519, 1763.463230545906, 25939.37825433949, 47702.780092093955, -187500.02235174447, -146323.30344001096, 27975.57747072905, 11764.99715626206, 12921.990504502119, -7287.674520930591, 0.116, 1.006, 0.098, 192.0, 0.0, 0.0, 0.0, 0.0, 0.0, 0.0, 0.0, 0.0, 0.0, 1.695764557706104E9, 0.0, 2023-09-26 16:42:37.706
106.0, 28995.576977202534, 50241.87120698347, 36974.83682332478, 1888.7224064734469, -2892.472194727921, -8012.608648849565, 124068.81142482895, 1809.9548590129448, 25960.545356338665, 47633.512036026965, -187500.02235174447, -146406.67544682926, 27985.144017355924, 11694.969140883582, 12882.405565071771, -7363.357527656261, 0.116, 1.006, 0.098, 192.0, 0.0, 0.0, 0.0, 0.0, 0.0, 0.0, 0.0, 0.0, 0.0, 1.695764557706137E9, 0.0, 2023-09-26 16:42:37.706
108.0, 29022.93551241583, 50248.04028845314, 36968.5783348773, 1884.2297058379302, -2881.251619011357, -8108.251763373824, 124019.3693660938, 1731.299070274719, 25971.117731466024, 47677.65673132619, -187500.02235174447, -146348.15857984527, 27994.665860493882, 11752.860159022828, 12895.995425700597, -7308.908678163133, 0.116, 1.006, 0.098, 192.0, 0.0, 0.0, 0.0, 0.0, 0.0, 0.0, 0.0, 0.0, 0.0, 1.695764557706147E9, 0.0, 2023-09-26 16:42:37.706
110.0, 29008.920968642353, 50256.086916457054, 36978.0778262708, 1886.129604116631, -2891.980456349904, -8047.723239388853, 124042.54812509396, 1779.6011900426377, 25976.683315835395, 47617.79875967488, -187500.02235174447, -146448.4732089607, 28000.92434894137, 11669.689317904631, 12856.678707203711, -7398.449766451093, 0.116, 1.006, 0.098, 192.0, 0.0, 0.0, 0.0, 0.0, 0.0, 0.0, 0.0, 0.0, 0.0, 1.695764557706155E9, 0.0, 2023-09-26 16:42:37.706
112.0, 29024.07545138305, 50242.318241872585, 36969.24888721095, 1885.0790721272317, -2870.7462991173625, -8113.973809954383, 124008.10408688833, 1719.6761631579595, 25977.86795829153, 47685.9045250302, -187500.02235174447, -146378.98163544913, 27994.218825604778, 11751.317888655412, 12880.349204581882, -7328.421751072616, 0.108, 1.008, 0.094, 192.0, 1.5, 48.0, 15.5, 64.0, 1.0, 120.0, 0.0, 0.0, 0.0, 1.695764557706164E9, 0.0, 2023-09-26 16:42:37.706
114.0, 28992.6936021678, 50241.29006162764, 36971.10408200075, 1879.2899703133073, -2902.753997177362, -8042.157655019481, 124062.37412242581, 1788.7430535248584, 25969.3295919096, 47623.297288810885, -187500.02235174447, -146472.23311331667, 28000.052630907612, 11661.530931178444, 12857.438666515192, -7405.110586298774, 0.108, 1.008, 0.094, 192.0, 0.0, 0.0, 0.0, 0.0, 0.0, 0.0, 0.0, 0.0, 0.0, 1.695764557706202E9, 0.0, 2023-09-26 16:42:37.706
116.0, 29017.906369913384, 50238.63020403746, 36963.57154411931, 1881.6369034811144, -2887.733624903396, -8076.825210669663, 124050.17006995322, 1759.4846200328614, 25952.498728334755, 47716.8616911008, -187500.02235174447, -146352.5842252474, 27974.90691839539, 11772.61910112132, 12911.03814971902, -7289.39560525365, 0.108, 1.008, 0.094, 192.0, 0.0, 0.0, 0.0, 0.0, 0.0, 0.0, 0.0, 0.0, 0.0, 1.695764557706212E9, 0.0, 2023-09-26 16:42:37.706
118.0, 29023.114326371473, 50267.352195662526, 36978.97189604901, 1907.6766857715472, -2882.480964956399, -8092.762004466296, 124031.19343891066, 1749.5157420057944, 25979.656097847954, 47614.66951545114, -187500.02235174447, -146477.03873837457, 27997.281014595155, 11650.712686862074, 12859.718544449634, -7398.762690873467, 0.108, 1.008, 0.094, 192.0, 0.0, 0.0, 0.0, 0.0, 0.0, 0.0, 0.0, 0.0, 0.0, 1.695764557706221E9, 0.0, 2023-09-26 16:42:37.706
120.0, 29033.776108476653, 50258.255035669215, 36975.52972740289, 1903.228688624941, -2873.2720462408124, -8103.334379593656, 124023.10210741784, 1732.1707883084762, 25977.756199569252, 47707.29514447393, -187500.02235174447, -146406.29546717354, 28000.901997196914, 11753.933042756682, 12879.544541781492, -7330.92514645161, 0.108, 1.008, 0.094, 192.0, 0.0, 0.0, 0.0, 0.0, 0.0, 0.0, 0.0, 0.0, 0.0, 1.695764557766401E9, 0.0, 2023-09-26 16:42:37.766
122.0, 29023.918989171863, 50284.741852848754, 36976.73672160348, 1917.0197149538656, -2879.351720732656, -8125.529661837776, 124014.98842418057, 1717.6645061569818, 25986.85335956256, 47620.05628586487, -187500.02235174447, -146515.90842198234, 28009.283901367653, 11651.606756640287, 12845.927518120709, -7422.4108365071825, 0.108, 1.008, 0.088, 192.0, 1.5, 48.0, 15.5, 64.0, 1.0, 96.0, 0.0, 0.0, 0.0, 1.695764557766436E9, 0.0, 2023-09-26 16:42:37.766
124.0, 28998.907387126375, 50258.56796009159, 36965.15851797564, 1880.295798813796, -2896.4284534965104, -8062.475390729355, 124064.85516606036, 1768.693538748448, 25963.04875171766, 47733.69255467565, -187500.02235174447, -146417.02430451207, 27994.68821223834, 11770.696851098162, 12890.653358775779, -7327.572384783314, 0.108, 1.008, 0.088, 192.0, 0.0, 0.0, 0.0, 0.0, 0.0, 0.0, 0.0, 0.0, 0.0, 1.695764557766445E9, 0.0, 2023-09-26 16:42:37.766
126.0, 29013.637186722422, 50270.66025384191, 36960.732872573484, 1905.7097322594802, -2885.0737673132144, -8119.0476559457375, 124033.2274476561, 1728.7062679179035, 25959.80774877164, 47636.21659710605, -187500.02235174447, -146482.6266744884, 27991.916595925883, 11669.041117315426, 12876.012966157552, -7379.517838897448, 0.108, 1.008, 0.088, 192.0, 0.0, 0.0, 0.0, 0.0, 0.0, 0.0, 0.0, 0.0, 0.0, 1.695764557766454E9, 0.0, 2023-09-26 16:42:37.766
128.0, 29009.971500631753, 50248.97906172026, 36967.34898893225, 1893.6844937425249, -2883.822069623717, -8065.3364140196345, 124053.36636941033, 1762.1668293674982, 25956.32087663661, 47719.8121213689, -187500.02235174447, -146421.22643246967, 27986.64158423443, 11764.214845206125, 12892.039166932007, -7318.855204445745, 0.108, 1.008, 0.088, 192.0, 0.0, 0.0, 0.0, 0.0, 0.0, 0.0, 0.0, 0.0, 0.0, 1.695764557766463E9, 0.0, 2023-09-26 16:42:37.766
130.0, 29011.379660532435, 50251.84008501054, 36972.51224190143, 1902.580488035737, -2881.408081222544, -8131.676391562986, 124021.51513356152, 1714.4905584443281, 25974.291679178677, 47622.55968124386, -187500.02235174447, -146502.36326484242, 28002.35486058651, 11664.950748080106, 12867.742820709089, -7381.775365087434, 0.108, 1.008, 0.088, 192.0, 0.0, 0.0, 0.0, 0.0, 0.0, 0.0, 0.0, 0.0, 0.0, 1.695764557766472E9, 0.0, 2023-09-26 16:42:37.766
132.0, 29000.248491793693, 50245.58159656305, 36974.94858204706, 1880.362854047162, -2893.902706373061, -8036.077980527638, 124066.35273293886, 1786.172602912498, 25950.352960867043, 47714.76062712201, -187500.02235174447, -146430.0553715295, 27987.1556743569, 11761.644394593763, 12903.237390904116, -7307.835794429278, 0.11, 1.01, 0.092, 192.0, 1.5, 56.0, 15.5, 72.0, 1.0, 112.0, 0.0, 0.0, 0.0, 1.695764557766481E9, 0.0, 2023-09-26 16:42:37.766
134.0, 29007.088125597016, 50263.99943399423, 36969.405349422144, 1895.7408542324133, -2885.207877779946, -8133.218661930402, 124017.6706335152, 1717.6198026680713, 25967.407341886443, 47626.739457457006, -187500.02235174447, -146491.4779652927, 27997.39277331743, 11676.350137752312, 12874.671861490235, -7360.317690410339, 0.11, 1.01, 0.092, 192.0, 0.0, 0.0, 0.0, 0.0, 0.0, 0.0, 0.0, 0.0, 0.0, 1.695764557826609E9, 0.0, 2023-09-26 16:42:37.826
136.0, 28977.60617466047, 50236.68560226984, 36973.942753546566, 1885.2578860828742, -2897.85896514165, -8005.724311557331, 124088.03392506052, 1818.560280628238, 25938.215963627812, 47709.86559508629, -187500.02235174447, -146435.93388032127, 27983.86996792197, 11758.828074792395, 12903.885591493321, -7305.086529861275, 0.11, 1.01, 0.092, 192.0, 0.0, 0.0, 0.0, 0.0, 0.0, 0.0, 0.0, 0.0, 0.0, 1.695764557826671E9, 0.0, 2023-09-26 16:42:37.826
138.0, 29000.762581916166, 50235.27744236916, 36970.254715711446, 1906.9837816934328, -2878.971741076916, -8123.94268798145, 124017.82709572639, 1725.3535062496076, 25951.85052774555, 47640.75400123048, -187500.02235174447, -146456.05045033104, 27995.82815120556, 11700.624132230776, 12899.45994609117, -7316.061236388831, 0.11, 1.01, 0.092, 192.0, 0.0, 0.0, 0.0, 0.0, 0.0, 0.0, 0.0, 0.0, 0.0, 1.695764557826682E9, 0.0, 2023-09-26 16:42:37.826
140.0, 28984.915195097354, 50221.352305573506, 36984.67159088512, 1892.1869268640194, -2901.5917064656865, -8003.265619667247, 124069.6831428627, 1816.235699204886, 25951.649362045453, 47682.06002498389, -187500.02235174447, -146459.35850851043, 28005.797029232628, 11734.755246014029, 12895.816611744955, -7317.201175356052, 0.11, 1.01, 0.092, 192.0, 0.0, 0.0, 0.0, 0.0, 0.0, 0.0, 0.0, 0.0, 0.0, 1.695764557826692E9, 0.0, 2023-09-26 16:42:37.826
142.0, 29006.059945352074, 50233.288137112635, 36971.88639305668, 1896.366703077162, -2888.538287703787, -8130.827025273684, 124002.38204030777, 1715.205814266898, 25973.978754756303, 47635.546044772396, -187500.02235174447, -146473.06012786154, 28007.1604856444, 11692.711614693597, 12887.5911697854, -7322.5655940253255, 0.112, 1.008, 0.092, 192.0, 1.5, 64.0, 15.5, 64.0, 1.0, 112.0, 0.0, 0.0, 0.0, 1.695764557826702E9, 0.0, 2023-09-26 16:42:37.826
144.0, 28995.88990162491, 50236.439733080835, 36977.854308826245, 1884.6320372381256, -2896.540212218787, -8019.358875675068, 124046.88436351829, 1798.4884141073721, 25953.906888235437, 47660.78116426244, -187500.02235174447, -146489.0639768915, 27993.972956415768, 11705.988550900049, 12884.8419052174, -7332.199195885563, 0.112, 1.008, 0.092, 192.0, 0.0, 0.0, 0.0, 0.0, 0.0, 0.0, 0.0, 0.0, 0.0, 1.695764557826712E9, 0.0, 2023-09-26 16:42:37.826
146.0, 29012.899579155397, 50237.11028541449, 36966.58902962077, 1889.0800343847318, -2874.993130563871, -8144.819217302706, 123982.0643045979, 1699.3137239591747, 25972.391780899976, 47641.49160879751, -187500.02235174447, -146491.5226687816, 27998.39860181792, 11690.096460592325, 12876.527056280025, -7325.404265571149, 0.112, 1.008, 0.092, 192.0, 0.0, 0.0, 0.0, 0.0, 0.0, 0.0, 0.0, 0.0, 0.0, 1.695764557826721E9, 0.0, 2023-09-26 16:42:37.826
148.0, 28987.753866643176, 50232.08114291205, 36978.74837860446, 1893.7068454869802, -2891.756938905351, -8031.004134536283, 124029.45000284315, 1784.4738703338946, 25965.038056974183, 47646.297233855395, -187500.02235174447, -146543.15519847337, 28002.86895070898, 11675.277254018458, 12857.21514907064, -7369.414850403649, 0.112, 1.008, 0.092, 192.0, 0.0, 0.0, 0.0, 0.0, 0.0, 0.0, 0.0, 0.0, 0.0, 1.69576455782673E9, 0.0, 2023-09-26 16:42:37.826
150.0, 29007.8480849085, 50223.431017807845, 36966.61138136523, 1896.3219995882512, -2875.5519241752536, -8146.473246392399, 123970.37434224777, 1687.690816842415, 25964.18869068488, 47658.76950726146, -187500.02235174447, -146496.75297698416, 27998.21978786228, 11706.279123577968, 12873.822495200933, -7324.018457414921, 0.112, 1.008, 0.092, 192.0, 0.0, 0.0, 0.0, 0.0, 0.0, 0.0, 0.0, 0.0, 0.0, 1.695764557885635E9, 0.0, 2023-09-26 16:42:37.885
152.0, 28993.319451012547, 50235.27744236916, 36983.62105889572, 1904.9944764369104, -2887.063072569737, -8054.518169703266, 124003.83490369737, 1757.4506112874285, 25967.273231419713, 47628.59465224679, -187500.02235174447, -146573.1959430213, 28011.764945002193, 11658.088762532327, 12843.535881463991, -7391.923057070144, 0.114, 1.006, 0.088, 192.0, 1.5, 72.0, 15.5, 56.0, 1.0, 96.0, 0.0, 0.0, 0.0, 1.695764557885656E9, 0.0, 2023-09-26 16:42:37.885
154.0, 29008.540988986613, 50221.88874744043, 36968.10894824373, 1890.5776012632373, -2879.642293410575, -8135.27502242029, 123968.1168160578, 1693.8822500565352, 25958.667809804418, 47676.96382724808, -187500.02235174447, -146500.06103516353, 28006.892264710936, 11721.612420274309, 12879.656300503768, -7316.441216044572, 0.114, 1.006, 0.088, 192.0, 0.0, 0.0, 0.0, 0.0, 0.0, 0.0, 0.0, 0.0, 0.0, 1.695764557885668E9, 0.0, 2023-09-26 16:42:37.885
156.0, 28987.105666053973, 50229.26482311068, 36982.77169260642, 1894.6456187541032, -2902.0163896103372, -8058.005041838293, 123995.9670896491, 1754.2543118303195, 25969.888385520982, 47616.725875941025, -187500.02235174447, -146596.91114388837, 28008.68040426736, 11640.654401857186, 12837.59031743888, -7405.199993276596, 0.114, 1.006, 0.088, 192.0, 0.0, 0.0, 0.0, 0.0, 0.0, 0.0, 0.0, 0.0, 0.0, 1.695764557885677E9, 0.0, 2023-09-26 16:42:37.885
158.0, 29004.204750562283, 50211.472834524255, 36965.225573209, 1878.8652871686563, -2892.114566816636, -8132.413999130011, 123959.89137409824, 1693.8375465676245, 25954.331571380088, 47690.93366753265, -187500.02235174447, -146495.79185197258, 27993.414162804387, 11730.061379678415, 12881.287977849004, -7307.880497918189, 0.114, 1.006, 0.088, 192.0, 0.0, 0.0, 0.0, 0.0, 0.0, 0.0, 0.0, 0.0, 0.0, 1.695764557885737E9, 0.0, 2023-09-26 16:42:37.885
160.0, 28985.40693347537, 50221.88874744043, 36979.86596582722, 1895.1820606210306, -2896.026122096315, -8085.07300437367, 123970.77667364797, 1731.7461051638254, 25973.866996034027, 47608.72395142603, -187500.02235174447, -146616.42421679787, 28009.663881023396, 11626.818672039351, 12827.666142900724, -7417.448749238104, 0.114, 1.006, 0.088, 192.0, 0.0, 0.0, 0.0, 0.0, 0.0, 0.0, 0.0, 0.0, 0.0, 1.695764557885746E9, 0.0, 2023-09-26 16:42:37.885
162.0, 28998.750924915188, 50202.55448848659, 36959.1235469727, 1882.4862697704161, -2894.1262238176137, -8123.003914714327, 123958.6620281532, 1701.1689187489653, 25952.297562634656, 47693.0570832559, -187500.02235174447, -146514.20968940374, 27996.632814005952, 11735.962240214616, 12871.766134711044, -7315.5247945219035, 0.122, 1.006, 0.09, 192.0, 1.5, 104.0, 15.5, 56.0, 1.0, 104.0, 0.0, 0.0, 0.0, 1.695764557885757E9, 0.0, 2023-09-26 16:42:37.885
164.0, 28982.74707588519, 50207.40481703339, 36959.14589871716, 1879.8711156691452, -2911.0017908813707, -8081.519077005277, 123982.26547029799, 1740.753858179314, 25960.56770808312, 47606.39937000268, -187500.02235174447, -146615.9101266754, 28001.460790808298, 11632.697180831097, 12837.992648839076, -7403.300094997895, 0.122, 1.006, 0.09, 192.0, 0.0, 0.0, 0.0, 0.0, 0.0, 0.0, 0.0, 0.0, 0.0, 1.695764557945895E9, 0.0, 2023-09-26 16:42:37.945
166.0, 29009.613872720467, 50209.21530833427, 36951.94863700255, 1873.6349789661144, -2891.2652005273344, -8107.894135462539, 123964.54053694494, 1709.595526408616, 25947.201364898847, 47699.60614438131, -187500.02235174447, -146500.41866307482, 27988.139151112933, 11744.902937996738, 12883.433745316714, -7295.698797190046, 0.122, 1.006, 0.09, 192.0, 0.0, 0.0, 0.0, 0.0, 0.0, 0.0, 0.0, 0.0, 0.0, 1.69576455794595E9, 0.0, 2023-09-26 16:42:37.945
168.0, 29016.27469256815, 50232.41641907888, 36964.39855866415, 1901.7087700019802, -2876.110717786636, -8150.071877249704, 123921.02169049045, 1669.0941654555995, 25984.014688016738, 47587.154518026655, -187500.02235174447, -146641.39111535443, 28013.59778804753, 11608.065558441349, 12810.567058392413, -7426.322391786861, 0.122, 1.006, 0.09, 192.0, 0.0, 0.0, 0.0, 0.0, 0.0, 0.0, 0.0, 0.0, 0.0, 1.695764557945961E9, 0.0, 2023-09-26 16:42:37.945
170.0, 28987.46329396526, 50198.50882274018, 36950.36166314622, 1868.6058364636704, -2902.2399070548904, -8099.601638269621, 123966.2169177791, 1710.757817120292, 25962.579365084097, 47704.456472928105, -187500.02235174447, -146559.67313762585, 28002.757191986704, 11725.345161598345, 12846.262794287539, -7343.933861724599, 0.122, 1.006, 0.09, 192.0, 0.0, 0.0, 0.0, 0.0, 0.0, 0.0, 0.0, 0.0, 0.0, 1.69576455794597E9, 0.0, 2023-09-26 16:42:37.945
172.0, 28987.150369542884, 50200.40872101888, 36952.39567189165, 1886.5766390057372, -2898.797738408773, -8131.899909007539, 123952.71646412808, 1693.211697722876, 25959.60658307154, 47611.89789913868, -187500.02235174447, -146629.7011530043, 27996.49870353922, 11624.337628404812, 12833.008209825543, -7398.047435050898, 0.124, 1.006, 0.094, 192.0, 1.5, 112.0, 15.5, 56.0, 1.0, 120.0, 0.0, 0.0, 0.0, 1.695764557945979E9, 0.0, 2023-09-26 16:42:37.945
174.0, 28987.86562536545, 50200.83340416353, 36948.46176486752, 1881.9721796479441, -2902.0387413547924, -8085.609446240598, 123979.33739177436, 1727.856901628602, 25947.4248823434, 47700.76843509298, -187500.02235174447, -146544.42924790733, 27985.725162711762, 11735.045818691948, 12866.222902086129, -7316.172995111107, 0.124, 1.006, 0.094, 192.0, 0.0, 0.0, 0.0, 0.0, 0.0, 0.0, 0.0, 0.0, 0.0, 1.69576455794599E9, 0.0, 2023-09-26 16:42:37.945
176.0, 28984.64697416389, 50202.48743325323, 36949.64640732365, 1896.4114065660724, -2913.3487240491777, -8131.184653184969, 123963.93703984465, 1699.7160553593703, 25970.51423436573, 47604.007733345956, -187500.02235174447, -146629.9023187044, 27994.68821223834, 11635.379390165734, 12834.952811593153, -7388.279722723928, 0.124, 1.006, 0.094, 192.0, 0.0, 0.0, 0.0, 0.0, 0.0, 0.0, 0.0, 0.0, 0.0, 1.695764557945999E9, 0.0, 2023-09-26 16:42:37.945
178.0, 28978.813168861052, 50190.66336043637, 36942.471497353494, 1876.9430371455, -2920.5236340193314, -8036.502663672289, 124018.56470329342, 1769.6099602711154, 25937.880687460984, 47719.87917660227, -187500.02235174447, -146525.02793372012, 27969.63190670394, 11758.202225947647, 12891.256855876072, -7286.042843585354, 0.124, 1.006, 0.094, 192.0, 0.0, 0.0, 0.0, 0.0, 0.0, 0.0, 0.0, 0.0, 0.0, 1.695764557946018E9, 0.0, 2023-09-26 16:42:37.946
180.0, 28992.537139956614, 50202.44272976431, 36946.763032288916, 1887.1130808726648, -2913.9522211494714, -8117.572440811688, 123985.37236277729, 1715.138759033532, 25967.675562819906, 47633.80260870488, -187500.02235174447, -146586.56228620556, 27988.74264821323, 11669.689317904631, 12865.21707358564, -7339.374105855716, 0.124, 1.006, 0.094, 192.0, 0.0, 0.0, 0.0, 0.0, 0.0, 0.0, 0.0, 0.0, 0.0, 1.695764558006111E9, 0.0, 2023-09-26 16:42:38.006
182.0, 28997.92391037034, 50197.19006981732, 36951.3227881578, 1881.167516847553, -2908.185471080002, -8054.607576681087, 123998.269319328, 1751.7062129624146, 25962.71347555083, 47711.519624175984, -187500.02235174447, -146535.66736408084, 27983.86996792197, 11749.641507821263, 12882.539675538503, -7292.278980288384, 0.12, 1.004, 0.09, 192.0, 1.5, 96.0, 15.5, 48.0, 1.0, 104.0, 0.0, 0.0, 0.0, 1.695764558006159E9, 0.0, 2023-09-26 16:42:38.006
184.0, 28984.803436375078, 50193.434976748824, 36948.35000614524, 1882.7768424483352, -2907.7160844464406, -8152.284699950779, 123958.88554559775, 1682.9969505068007, 25986.85335956256, 47626.96297490156, -187500.02235174447, -146613.38437955195, 28004.008889676203, 11661.30741373389, 12837.992648839076, -7365.279777679418, 0.12, 1.004, 0.09, 192.0, 0.0, 0.0, 0.0, 0.0, 0.0, 0.0, 0.0, 0.0, 0.0, 1.695764558006168E9, 0.0, 2023-09-26 16:42:38.006
186.0, 28972.375866457925, 50184.47192722225, 36946.78538403337, 1865.6330544511145, -2930.179587624024, -8037.083809028127, 124019.65993877173, 1775.4437655739507, 25946.061425931624, 47705.2611357285, -187500.02235174447, -146563.0929545275, 27980.561909742584, 11732.765940757507, 12873.844846945387, -7314.518966021415, 0.12, 1.004, 0.09, 192.0, 0.0, 0.0, 0.0, 0.0, 0.0, 0.0, 0.0, 0.0, 0.0, 1.695764558006177E9, 0.0, 2023-09-26 16:42:38.006
188.0, 28992.872416123442, 50191.82565114804, 36938.157610673625, 1877.9935691348994, -2905.078578600714, -8161.895950066561, 123958.1032345418, 1678.1242702155437, 25963.65224881795, 47639.27878609643, -187500.02235174447, -146587.2551902837, 27990.15080811391, 11678.652367431208, 12863.339527051394, -7330.075780162309, 0.12, 1.004, 0.09, 192.0, 0.0, 0.0, 0.0, 0.0, 0.0, 0.0, 0.0, 0.0, 0.0, 1.695764558006186E9, 0.0, 2023-09-26 16:42:38.006
190.0, 28964.329238454015, 50172.893723594396, 36952.23920968047, 1860.9391881155002, -2926.312735833256, -8027.092579256604, 124030.7240522771, 1783.982131955878, 25954.197460913358, 47677.50026911501, -187500.02235174447, -146585.48940247172, 27988.764999957682, 11711.08474863586, 12865.21707358564, -7327.170053383119, 0.12, 1.004, 0.09, 192.0, 0.0, 0.0, 0.0, 0.0, 0.0, 0.0, 0.0, 0.0, 0.0, 1.695764558006194E9, 0.0, 2023-09-26 16:42:38.006
192.0, 29007.8480849085, 50194.82078490505, 36942.337386886764, 1890.7564152188797, -2887.755976647851, -8188.539229457288, 123932.42108016266, 1650.0057756907675, 25967.586155842087, 47634.89784418319, -187500.02235174447, -146575.56522793358, 27989.077924380057, 11691.795193170929, 12864.054782873964, -7314.49661427696, 0.11800000000000001, 1.01, 0.09, 192.0, 1.5, 88.0, 15.5, 72.0, 1.0, 104.0, 0.0, 0.0, 0.0, 1.695764558006203E9, 0.0, 2023-09-26 16:42:38.006
194.0, 28981.182453773316, 50194.30669478258, 36962.72217783001, 1891.4046158080837, -2901.3905407655884, -8069.426783254956, 123998.33637456136, 1742.720811691381, 25970.29071692118, 47647.43717282262, -187500.02235174447, -146636.83135948557, 27998.130380884457, 11678.808829642396, 12833.142320292274, -7369.79483005939, 0.11800000000000001, 1.01, 0.09, 192.0, 0.0, 0.0, 0.0, 0.0, 0.0, 0.0, 0.0, 0.0, 0.0, 1.695764558066472E9, 0.0, 2023-09-26 16:42:38.066
196.0, 29003.377736017435, 50184.78485164462, 36941.06333745281, 1893.0139414088658, -2891.5110697163427, -8193.791889404285, 123934.36568193027, 1640.6180430195384, 25962.71347555083, 47650.76758274646, -187500.02235174447, -146604.28721955864, 27989.614366246984, 11696.869039162284, 12851.515454234535, -7329.181710384097, 0.11800000000000001, 1.01, 0.09, 192.0, 0.0, 0.0, 0.0, 0.0, 0.0, 0.0, 0.0, 0.0, 0.0, 1.695764558066496E9, 0.0, 2023-09-26 16:42:38.066
198.0, 28978.00850606066, 50192.116223825964, 36968.19835522155, 1902.1111014021758, -2903.4245495110217, -8087.062309630193, 123986.7134674446, 1720.7937503807248, 25970.00014424326, 47629.868701680745, -187500.02235174447, -146684.1723542419, 28001.326680341564, 11655.697125875608, 12809.807099080934, -7404.261220009473, 0.11800000000000001, 1.01, 0.09, 192.0, 0.0, 0.0, 0.0, 0.0, 0.0, 0.0, 0.0, 0.0, 0.0, 1.695764558066506E9, 0.0, 2023-09-26 16:42:38.066
200.0, 28985.697506153287, 50173.251351505685, 36945.73485204397, 1892.2763338418406, -2898.1048343306584, -8172.825953105206, 123952.22472575007, 1652.4197640919406, 25960.455949360843, 47676.58384759234, -187500.02235174447, -146609.31636206107, 27993.81649420458, 11716.248001605034, 12853.214186813138, -7326.834777216289, 0.11800000000000001, 1.01, 0.09, 192.0, 0.0, 0.0, 0.0, 0.0, 0.0, 0.0, 0.0, 0.0, 0.0, 1.695764558066515E9, 0.0, 2023-09-26 16:42:38.066
202.0, 28960.238869218694, 50167.35049096948, 36955.3237504153, 1887.6942262285027, -2907.045532112781, -8067.258664042791, 124008.61817701081, 1739.5692157231829, 25944.340341608568, 47646.07371641084, -187500.02235174447, -146668.05674648963, 27983.95937489979, 11673.042079572926, 12837.143282549774, -7372.36528067175, 0.12, 1.008, 0.08600000000000001, 192.0, 1.5, 96.0, 15.5, 64.0, 1.0, 88.0, 0.0, 0.0, 0.0, 1.695764558066524E9, 0.0, 2023-09-26 16:42:38.066
204.0, 28986.16689278685, 50165.07061303504, 36945.06429971031, 1887.7836332063239, -2893.1874505504907, -8165.494580923865, 123956.65037115221, 1655.1690286599433, 25953.772777768707, 47688.318513431375, -187500.02235174447, -146598.18519332234, 27987.423895290365, 11736.431626848178, 12860.16557933874, -7304.997122883454, 0.12, 1.008, 0.08600000000000001, 192.0, 0.0, 0.0, 0.0, 0.0, 0.0, 0.0, 0.0, 0.0, 0.0, 1.695764558066568E9, 0.0, 2023-09-26 16:42:38.066
206.0, 28976.265069993147, 50178.30284575258, 36968.757148832934, 1893.2821623423295, -2909.3924652805886, -8096.159469623503, 123988.5686622344, 1709.9084508309902, 25968.90490876495, 47621.486797510006, -187500.02235174447, -146704.15481378493, 27996.610462261495, 11649.796265339406, 12811.639942126269, -7400.46142345207, 0.12, 1.008, 0.08600000000000001, 192.0, 0.0, 0.0, 0.0, 0.0, 0.0, 0.0, 0.0, 0.0, 0.0, 1.695764558066578E9, 0.0, 2023-09-26 16:42:38.066
208.0, 28975.415703703846, 50152.37482218443, 36957.0224829939, 1869.6116649641592, -2917.2379275844014, -8126.2672694048015, 123994.24600532604, 1687.6684650979598, 25959.76304528273, 47708.14451076323, -187500.02235174447, -146597.4028822664, 27987.44624703482, 11753.664821823219, 12868.234559087106, -7292.927180877588, 0.12, 1.008, 0.08600000000000001, 192.0, 0.0, 0.0, 0.0, 0.0, 0.0, 0.0, 0.0, 0.0, 0.0, 1.695764558066587E9, 0.0, 2023-09-26 16:42:38.066
210.0, 28965.804453588065, 50159.326214710025, 36968.44422441057, 1884.9673134049551, -2915.092160116692, -8084.849486929118, 124011.52390378999, 1725.688782416437, 25962.08762670608, 47620.90565215417, -187500.02235174447, -146685.04407227566, 27986.708639467794, 11657.149989265203, 12835.288087759984, -7367.961987014054, 0.12, 1.008, 0.08600000000000001, 192.0, 0.0, 0.0, 0.0, 0.0, 0.0, 0.0, 0.0, 0.0, 0.0, 1.69576455812596E9, 0.0, 2023-09-26 16:42:38.125
212.0, 28969.559546656557, 50143.97056626923, 36952.52978235838, 1877.971217390444, -2911.9405641484936, -8121.2157751579025, 123989.64154596825, 1690.1495087324988, 25955.873841747507, 47700.50021415952, -187500.02235174447, -146595.14535607642, 27984.78638944464, 11755.408257890733, 12864.770038696533, -7283.897076117644, 0.12, 1.002, 0.092, 192.0, 1.5, 96.0, 15.5, 40.0, 1.0, 112.0, 0.0, 0.0, 0.0, 1.695764558125993E9, 0.0, 2023-09-26 16:42:38.125
214.0, 28955.34383718298, 50153.47005766274, 36956.55309636034, 1887.7612814618685, -2917.372038051133, -8104.720187749886, 123992.65903146971, 1709.4837676863394, 25962.489958106275, 47602.91249786765, -187500.02235174447, -146704.04305506268, 27987.356840056997, 11644.029515269938, 12818.68074162969, -7382.781193587923, 0.12, 1.002, 0.092, 192.0, 0.0, 0.0, 0.0, 0.0, 0.0, 0.0, 0.0, 0.0, 0.0, 1.695764558126003E9, 0.0, 2023-09-26 16:42:38.126
216.0, 28962.697561108776, 50131.02890622961, 36937.867037995704, 1866.4824207404163, -2914.466311271943, -8088.761042208796, 124012.50738054603, 1718.759741635292, 25932.89624844745, 47716.50406318952, -187500.02235174447, -146579.9461698468, 27973.67757245035, 11768.685194097185, 12879.857466203865, -7266.552122420326, 0.12, 1.002, 0.092, 192.0, 0.0, 0.0, 0.0, 0.0, 0.0, 0.0, 0.0, 0.0, 0.0, 1.695764558126012E9, 0.0, 2023-09-26 16:42:38.126
218.0, 28959.389502929393, 50149.7373163387, 36943.85730550972, 1886.1743076055418, -2913.9522211494714, -8121.6851617914635, 123984.34418253234, 1693.1893459784205, 25975.588080357087, 47592.02719831791, -187500.02235174447, -146707.4852237088, 27987.66976447937, 11636.362866921767, 12811.036445025975, -7383.295283710395, 0.12, 1.002, 0.092, 192.0, 0.0, 0.0, 0.0, 0.0, 0.0, 0.0, 0.0, 0.0, 0.0, 1.695764558126021E9, 0.0, 2023-09-26 16:42:38.126
220.0, 28960.10475875196, 50132.66058357484, 36937.35294787323, 1863.979025361422, -2928.927889934527, -8065.671690186464, 124028.66769178721, 1735.5235499767723, 25946.307295120634, 47718.20279576812, -187500.02235174447, -146586.38347224993, 27974.616345717473, 11776.195380234169, 12875.342413823893, -7265.322776475285, 0.12, 1.002, 0.092, 192.0, 0.0, 0.0, 0.0, 0.0, 0.0, 0.0, 0.0, 0.0, 0.0, 1.69576455812603E9, 0.0, 2023-09-26 16:42:38.126
222.0, 28972.26410773565, 50150.13964773889, 36948.50646835643, 1895.1820606210306, -2903.9162878890384, -8127.451911860933, 123981.17023481968, 1684.695683085404, 25982.025382760214, 47604.074788579324, -187500.02235174447, -146687.25689497674, 27977.96910738577, 11667.78941962593, 12830.68362840219, -7352.31576589534, 0.112, 1.01, 0.084, 192.0, 1.5, 64.0, 15.5, 72.0, 1.0, 80.0, 0.0, 0.0, 0.0, 1.695764558126039E9, 0.0, 2023-09-26 16:42:38.126
224.0, 28983.708200896766, 50135.05222023156, 36959.57058186181, 1880.7875371918128, -2905.5256134898204, -8072.332510034145, 124012.28386310147, 1720.2349567693423, 25988.797961330172, 47702.62362988277, -187500.02235174447, -146623.33090583456, 27985.367534800476, 11781.783316347995, 12855.02467811402, -7292.815422155312, 0.112, 1.01, 0.084, 192.0, 0.0, 0.0, 0.0, 0.0, 0.0, 0.0, 0.0, 0.0, 0.0, 1.695764558185511E9, 0.0, 2023-09-26 16:42:38.185
226.0, 28972.107645524462, 50128.994897484175, 36956.3742824047, 1892.2763338418406, -2899.2000698089687, -8135.632650331575, 123980.54438597494, 1677.5431248597056, 26006.05350804967, 47614.40129451767, -187500.02235174447, -146704.6689039074, 27988.630889490953, 11694.097422849825, 12826.101520788852, -7359.334213654306, 0.112, 1.01, 0.084, 192.0, 0.0, 0.0, 0.0, 0.0, 0.0, 0.0, 0.0, 0.0, 0.0, 1.695764558185568E9, 0.0, 2023-09-26 16:42:38.185
228.0, 28958.942468040284, 50114.801539755055, 36958.20712545003, 1889.5717727627484, -2901.926982632516, -8048.63966091152, 124028.10889817584, 1739.6362709565487, 25971.162434954935, 47711.72078987608, -187500.02235174447, -146629.4999873042, 27978.05851436359, 11804.895020114782, 12866.558178252957, -7288.501535475438, 0.112, 1.01, 0.084, 192.0, 0.0, 0.0, 0.0, 0.0, 0.0, 0.0, 0.0, 0.0, 0.0, 1.695764558185577E9, 0.0, 2023-09-26 16:42:38.185
230.0, 28978.83552060551, 50134.60518534246, 36954.04970098135, 1919.0984271882091, -2880.8492876111613, -8160.130162254592, 123957.27621999696, 1652.7997437476808, 25984.372315928023, 47621.196224832085, -187500.02235174447, -146702.85841260653, 27984.652278977905, 11719.868984206794, 12833.522299948014, -7350.482922850004, 0.112, 1.01, 0.084, 192.0, 0.0, 0.0, 0.0, 0.0, 0.0, 0.0, 0.0, 0.0, 0.0, 1.695764558185586E9, 0.0, 2023-09-26 16:42:38.185
232.0, 28954.293305193583, 50112.34284786497, 36964.35385517524, 1899.9206304455556, -2899.4235872535214, -8041.285936985724, 124034.59090406787, 1747.5711402381828, 25970.938917510382, 47702.087188015845, -187500.02235174447, -146674.38229017047, 27990.15080811391, 11802.592790435887, 12847.939175121686, -7321.4480068025605, 0.106, 1.008, 0.094, 192.0, 1.5, 40.0, 15.5, 64.0, 1.0, 120.0, 0.0, 0.0, 0.0, 1.695764558185595E9, 0.0, 2023-09-26 16:42:38.185
234.0, 28975.482758937214, 50117.103769433954, 36942.09151769776, 1910.5600608062819, -2887.6218661811195, -8156.218606974913, 123967.73683640205, 1658.7229560283372, 25983.4335426609, 47638.51882678495, -187500.02235174447, -146695.5270404252, 27990.039049391635, 11752.055496222436, 12843.200605297161, -7334.233204630996, 0.106, 1.008, 0.094, 192.0, 0.0, 0.0, 0.0, 0.0, 0.0, 0.0, 0.0, 0.0, 0.0, 1.695764558185605E9, 0.0, 2023-09-26 16:42:38.185
236.0, 28962.854023319964, 50102.03869367107, 36954.87671552619, 1902.066397913265, -2893.656837184052, -8041.420047452456, 124034.83677325687, 1745.2912623037414, 25973.688182078386, 47688.49732738702, -187500.02235174447, -146684.93231355338, 27993.30240408211, 11798.301255500468, 12846.620422198823, -7326.991239427476, 0.106, 1.008, 0.094, 192.0, 0.0, 0.0, 0.0, 0.0, 0.0, 0.0, 0.0, 0.0, 0.0, 1.695764558185614E9, 0.0, 2023-09-26 16:42:38.185
238.0, 28976.443883948792, 50102.23985937117, 36946.7183288, 1909.6436392836142, -2884.0679388127255, -8163.818200089718, 123968.94383060263, 1649.6704995239377, 25992.10601950956, 47640.016393663456, -187500.02235174447, -146706.121767297, 28011.206151390812, 11757.978708503093, 12835.377494737804, -7345.006745458454, 0.106, 1.008, 0.094, 192.0, 0.0, 0.0, 0.0, 0.0, 0.0, 0.0, 0.0, 0.0, 0.0, 1.695764558185623E9, 0.0, 2023-09-26 16:42:38.185
240.0, 28983.439979963303, 50113.68395253229, 36963.683302841586, 1919.7913312663236, -2891.7792906498066, -8062.698908173908, 124015.90484570323, 1719.1397212910322, 25972.414132644433, 47673.633417324236, -187500.02235174447, -146716.31416276863, 27998.15273262891, 11777.447077923665, 12838.551442450458, -7350.617033316736, 0.106, 1.008, 0.094, 192.0, 0.0, 0.0, 0.0, 0.0, 0.0, 0.0, 0.0, 0.0, 0.0, 1.695764558246829E9, 0.0, 2023-09-26 16:42:38.246
242.0, 28979.863700850452, 50115.58385081099, 36937.44235485105, 1907.6096305381814, -2897.0319505968037, -8170.635482148587, 123961.27718225446, 1633.5772435161166, 25990.206121230858, 47652.68983276962, -187500.02235174447, -146729.92637514192, 28008.2110176338, 11760.593862604364, 12825.162747521728, -7362.038774733398, 0.11, 1.004, 0.092, 192.0, 1.5, 56.0, 15.5, 48.0, 1.0, 112.0, 0.0, 0.0, 0.0, 1.695764558246852E9, 0.0, 2023-09-26 16:42:38.246
244.0, 28962.988133786697, 50087.91239117532, 36944.12552644319, 1899.0936159007092, -2906.5090902458537, -8052.417105724467, 124030.45583134364, 1727.7004394174148, 25957.773740026205, 47665.51973408696, -187500.02235174447, -146749.0818201401, 27981.791255687625, 11756.861121280328, 12829.655448157246, -7373.974606272532, 0.11, 1.004, 0.092, 192.0, 0.0, 0.0, 0.0, 0.0, 0.0, 0.0, 0.0, 0.0, 0.0, 1.695764558246863E9, 0.0, 2023-09-26 16:42:38.246
246.0, 28973.158177513862, 50068.600483965936, 36922.0643546658, 1895.942019932511, -2902.3293140327114, -8148.306089437734, 123986.82522616688, 1651.2798251247198, 25962.624068573008, 47667.44198411012, -187500.02235174447, -146711.55324119964, 27986.842749934527, 11774.04961276646, 12842.910032619242, -7337.608318043747, 0.11, 1.004, 0.092, 192.0, 0.0, 0.0, 0.0, 0.0, 0.0, 0.0, 0.0, 0.0, 0.0, 1.695764558246872E9, 0.0, 2023-09-26 16:42:38.246
248.0, 28960.14946224087, 50077.63058872588, 36943.20910492052, 1900.8817554571337, -2910.442997269988, -8033.842806082107, 124053.4781281326, 1743.1007913471212, 25945.18970789787, 47650.87934146874, -187500.02235174447, -146749.99824166278, 27970.481272993242, 11741.617231561808, 12834.796349381966, -7368.5878358588025, 0.11, 1.004, 0.092, 192.0, 0.0, 0.0, 0.0, 0.0, 0.0, 0.0, 0.0, 0.0, 0.0, 1.695764558246928E9, 0.0, 2023-09-26 16:42:38.246
250.0, 28982.814131118554, 50069.494553744145, 36925.35006110073, 1902.8934124581115, -2894.5285552178093, -8133.643345075053, 123999.67747922869, 1659.9970054622897, 25945.502632320244, 47690.57603962136, -187500.02235174447, -146669.75547906823, 27976.2033195738, 11798.390662478289, 12871.184989355206, -7295.162355323119, 0.11, 1.004, 0.092, 192.0, 0.0, 0.0, 0.0, 0.0, 0.0, 0.0, 0.0, 0.0, 0.0, 1.695764558246937E9, 0.0, 2023-09-26 16:42:38.246
252.0, 28960.283572707605, 50065.448887997736, 36955.83784053777, 1910.2471363839074, -2896.7413779188846, -8063.078887829649, 124035.01558721252, 1716.0551805561997, 25967.00501048625, 47620.61507947625, -187500.02235174447, -146792.1536317055, 28000.83494196355, 11702.881658420762, 12801.045215254453, -7407.949257844599, 0.12, 1.006, 0.092, 192.0, 1.5, 96.0, 15.5, 56.0, 1.0, 112.0, 0.0, 0.0, 0.0, 1.695764558246946E9, 0.0, 2023-09-26 16:42:38.246
254.0, 28979.841349106, 50050.540274446044, 36931.586197803765, 1891.002284407888, -2897.7695581638286, -8115.359618110611, 124017.4694678151, 1673.564514346661, 25936.38312058248, 47705.61876363978, -187500.02235174447, -146673.13059248097, 27983.244119077222, 11800.782299135006, 12870.514437021548, -7290.8037651543345, 0.12, 1.006, 0.092, 192.0, 0.0, 0.0, 0.0, 0.0, 0.0, 0.0, 0.0, 0.0, 0.0, 1.695764558246956E9, 0.0, 2023-09-26 16:42:38.246
