%OpenBCI Raw EXG Data
%Number of channels = 16
%Sample Rate = 125 Hz
%Board = OpenBCI_GUI$BoardCytonSerialDaisy
Sample Index, EXG Channel 0, EXG Channel 1, EXG Channel 2, EXG Channel 3, EXG Channel 4, EXG Channel 5, EXG Channel 6, EXG Channel 7, EXG Channel 8, EXG Channel 9, EXG Channel 10, EXG Channel 11, EXG Channel 12, EXG Channel 13, EXG Channel 14, EXG Channel 15, Accel Channel 0, Accel Channel 1, Accel Channel 2, Other, Other, Other, Other, Other, Other, Other, Analog Channel 0, Analog Channel 1, Analog Channel 2, Timestamp, Other, Timestamp (Formatted)
0.0, 41438.43548756069, 2279.565010018946, 31606.283081326856, 48237.45617120936, -187500.02235174447, 67379.13249482305, -187500.02235174447, -187500.02235174447, 0.0, 0.0, 0.0, 0.0, 0.0, 0.0, 0.0, 0.0, 0.0, 0.0, 0.0, 192.0, 0.0, 0.0, 0.0, 0.0, 0.0, 0.0, 0.0, 0.0, 0.0, 1.6959317808323584E9, 0.0, 2023-09-28 15:09:40.832
224.0, 41386.08770204636, 2224.736180870078, 31723.585036228305, 48535.49433177643, -187500.02235174447, 67662.03852439387, -187500.02235174447, -187500.02235174447, 40004.14639760809, 19062.43938951962, -187500.02235174447, 42721.49267452868, 16748.475044783958, 37906.43518047752, -187500.02235174447, -185094.54996520877, -0.008, 1.016, 0.078, 192.0, 127.5, 96.0, 15.5, 96.0, 1.0, 56.0, 0.0, 0.0, 0.0, 1.6959317808323767E9, 0.0, 2023-09-28 15:09:40.832
226.0, 41430.29945257896, 2270.1325738588066, 31588.222871806967, 48247.40269749197, -187500.02235174447, 67393.14703859652, -187500.02235174447, -187500.02235174447, 40032.98014795544, 19033.04684556089, -187500.02235174447, 42616.41712384429, 16583.943853848443, 37809.070981630204, -187500.02235174447, -185154.67615779355, -0.008, 1.016, 0.078, 192.0, 0.0, 0.0, 0.0, 0.0, 0.0, 0.0, 0.0, 0.0, 0.0, 1.6959317808323889E9, 0.0, 2023-09-28 15:09:40.832
228.0, 41392.88263236077, 2226.703134382145, 31750.0942051523, 48554.82859073026, -187500.02235174447, 67685.1278764162, -187500.02235174447, -187500.02235174447, 40005.59926099769, 19061.05358136339, -187500.02235174447, 42712.84254942448, 16726.972666617952, 37907.46336072247, -187500.02235174447, -185084.04464531477, -0.008, 1.016, 0.078, 192.0, 0.0, 0.0, 0.0, 0.0, 0.0, 0.0, 0.0, 0.0, 0.0, 1.6959317808324E9, 0.0, 2023-09-28 15:09:40.832
230.0, 41444.11283065234, 2287.1422513892953, 31575.571784445263, 48236.69621189788, -187500.02235174447, 67384.07223034767, -187500.02235174447, -187500.02235174447, 40042.7031567935, 19048.424845746144, -187500.02235174447, 42634.54438859754, 16594.002138853328, 37829.500476062356, -187500.02235174447, -185108.60921247117, -0.008, 1.016, 0.078, 192.0, 0.0, 0.0, 0.0, 0.0, 0.0, 0.0, 0.0, 0.0, 0.0, 1.6959317808324113E9, 0.0, 2023-09-28 15:09:40.832
232.0, 41374.82242284089, 2212.1745004861955, 31757.582039544828, 48552.34754709573, -187500.02235174447, 67687.56421656182, -187500.02235174447, -187500.02235174447, 40006.470979031445, 19067.62499423325, -187500.02235174447, 42704.17007257582, 16719.797756647797, 37905.71992465496, -187500.02235174447, -185124.43424754552, -0.008, 1.016, 0.078, 192.0, 0.0, 0.0, 0.0, 0.0, 0.0, 0.0, 0.0, 0.0, 0.0, 1.695931780832424E9, 0.0, 2023-09-28 15:09:40.832
234.0, 41437.362603826834, 2278.6262367518234, 31573.44836872201, 48267.876895413036, -187500.02235174447, 67421.69021626595, -187500.02235174447, -187500.02235174447, 40020.12789489364, 19041.115825309258, -187500.02235174447, 42635.43845837575, 16599.634778456068, 37841.30219713476, -187500.02235174447, -185075.61803765513, -0.008, 1.014, 0.082, 192.0, 127.5, 96.0, 15.5, 88.0, 1.0, 72.0, 0.0, 0.0, 0.0, 1.6959317808324351E9, 0.0, 2023-09-28 15:09:40.832
236.0, 41386.75825438002, 2223.730352369589, 31767.19328966061, 48546.17846562606, -187500.02235174447, 67682.69153627056, -187500.02235174447, -187500.02235174447, 40032.756630510885, 19080.700764739606, -187500.02235174447, 42701.21964230772, 16717.808451391276, 37920.96381437347, -187500.02235174447, -185128.3905063141, -0.008, 1.014, 0.082, 192.0, 0.0, 0.0, 0.0, 0.0, 0.0, 0.0, 0.0, 0.0, 0.0, 1.695931780832446E9, 0.0, 2023-09-28 15:09:40.832
238.0, 41448.82904873241, 2295.9488387046863, 31574.096569311212, 48274.291846071705, -187500.02235174447, 67424.66299827851, -187500.02235174447, -187500.02235174447, 40032.95779621098, 19048.201328301588, -187500.02235174447, 42658.68427260927, 16628.177956125495, 37863.43042414551, -187500.02235174447, -185030.2216446664, -0.008, 1.014, 0.082, 192.0, 0.0, 0.0, 0.0, 0.0, 0.0, 0.0, 0.0, 0.0, 0.0, 1.6959317808324573E9, 0.0, 2023-09-28 15:09:40.832
240.0, 41380.5668211659, 2221.919861068709, 31769.29435363941, 48523.96083163749, -187500.02235174447, 67658.48459702547, -187500.02235174447, -187500.02235174447, 40036.958758468485, 19082.332442084844, -187500.02235174447, 42688.903831112846, 16696.82016334774, 37906.09990431069, -187500.02235174447, -185162.23104741945, -0.008, 1.014, 0.082, 192.0, 0.0, 0.0, 0.0, 0.0, 0.0, 0.0, 0.0, 0.0, 0.0, 1.695931780832468E9, 0.0, 2023-09-28 15:09:40.832
242.0, 41438.144914882774, 2283.11893738734, 31590.145121830123, 48323.7562565513, -187500.02235174447, 67471.78047559029, -187500.02235174447, -187500.02235174447, 40008.639098243606, 19038.947706097093, -187500.02235174447, 42669.7707378591, 16641.186671398482, 37856.16610719754, -187500.02235174447, -185005.72413274337, -0.008, 1.014, 0.082, 192.0, 0.0, 0.0, 0.0, 0.0, 0.0, 0.0, 0.0, 0.0, 0.0, 1.6959317808324788E9, 0.0, 2023-09-28 15:09:40.832
244.0, 41394.62606842829, 2235.219149019617, 31766.075702437844, 48496.08820630172, -187500.02235174447, 67630.25434377842, -187500.02235174447, -187500.02235174447, 40055.22013368847, 19085.506389797498, -187500.02235174447, 42680.90190659784, 16683.319709696738, 37902.56832868676, -187500.02235174447, -185159.86176250718, -0.011, 1.012, 0.08499999999999999, 192.0, 127.5, 72.0, 15.5, 72.0, 1.0, 96.0, 0.0, 0.0, 0.0, 1.6959317808324897E9, 0.0, 2023-09-28 15:09:40.832
246.0, 41458.44029884819, 2300.8662224848536, 31605.903101671112, 48339.022498014274, -187500.02235174447, 67479.55888266074, -187500.02235174447, -187500.02235174447, 40020.463171060466, 19057.991392373013, -187500.02235174447, 42693.284773026084, 16674.513122381344, 37871.92408703853, -187500.02235174447, -184966.67563517997, -0.011, 1.012, 0.08499999999999999, 192.0, 0.0, 0.0, 0.0, 0.0, 0.0, 0.0, 0.0, 0.0, 0.0, 1.6959317808325028E9, 0.0, 2023-09-28 15:09:40.832
248.0, 41391.96621083811, 2227.5525006714465, 31755.548030799393, 48446.78025803331, -187500.02235174447, 67578.97944199794, -187500.02235174447, -187500.02235174447, 40074.88966880914, 19099.63269229325, -187500.02235174447, 42673.61523790541, 16676.413020660046, 37904.714096154465, -187500.02235174447, -185200.65369613812, -0.011, 1.012, 0.08499999999999999, 192.0, 0.0, 0.0, 0.0, 0.0, 0.0, 0.0, 0.0, 0.0, 0.0, 1.6959317808325133E9, 0.0, 2023-09-28 15:09:40.832
250.0, 41441.832952717894, 2280.0343966525074, 31619.336500088753, 48382.027254346285, -187500.02235174447, 67518.27210405732, -187500.02235174447, -187500.02235174447, 39996.7926736823, 19034.633819417217, -187500.02235174447, 42684.54524094406, 16691.232227233915, 37869.35363642617, -187500.02235174447, -184961.08769906615, -0.011, 1.012, 0.08499999999999999, 192.0, 0.0, 0.0, 0.0, 0.0, 0.0, 0.0, 0.0, 0.0, 0.0, 1.6959317808325243E9, 0.0, 2023-09-28 15:09:40.832
252.0, 41405.80194065594, 2240.1365327997846, 31738.42659454663, 48410.63748724908, -187500.02235174447, 67543.99896192539, -187500.02235174447, -187500.02235174447, 40075.71668335399, 19089.01561367698, -187500.02235174447, 42650.83881030545, 16660.766799541332, 37875.3886074291, -187500.02235174447, -185184.67219885258, -0.011, 1.012, 0.08499999999999999, 192.0, 0.0, 0.0, 0.0, 0.0, 0.0, 0.0, 0.0, 0.0, 0.0, 1.6959317808325353E9, 0.0, 2023-09-28 15:09:40.832
254.0, 41444.224589374615, 2281.397853064281, 31643.834012011772, 48412.850309950154, -187500.02235174447, 67545.0941974037, -187500.02235174447, -187500.02235174447, 40011.3436593227, 19051.263517291965, -187500.02235174447, 42708.662773211334, 16719.998922347895, 37873.35459868367, -187500.02235174447, -184940.18881800043, -0.0115, 1.0110000000000001, 0.08049999999999999, 192.0, 127.5, 80.0, 15.5, 72.0, 1.0, 48.0, 0.0, 0.0, 0.0, 1.695931780832549E9, 0.0, 2023-09-28 15:09:40.832
0.0, 41390.44629221514, 2222.858634335832, 31701.613271428738, 48379.657969434025, -187500.02235174447, 67511.65598769856, -187500.02235174447, -187500.02235174447, 40066.798337316315, 19072.430619291143, -187500.02235174447, 42639.595882844435, 16637.878613219098, 37840.899865734566, -187500.02235174447, -185172.53520161335, -0.0115, 1.0110000000000001, 0.08049999999999999, 192.0, 0.0, 0.0, 0.0, 0.0, 0.0, 0.0, 0.0, 0.0, 0.0, 1.69593178083256E9, 0.0, 2023-09-28 15:09:40.832
2.0, 41402.069199331905, 2236.0685153089184, 31648.282009158374, 48487.50513643088, -187500.02235174447, 67619.12317503967, -187500.02235174447, -187500.02235174447, 39979.87240312963, 19027.078929791325, -187500.02235174447, 42692.0777788255, 16716.087367068216, 37856.52373510882, -187500.02235174447, -184926.1519224825, -0.0115, 1.0110000000000001, 0.08049999999999999, 192.0, 0.0, 0.0, 0.0, 0.0, 0.0, 0.0, 0.0, 0.0, 0.0, 1.6959317808325727E9, 0.0, 2023-09-28 15:09:40.832
4.0, 41403.410303999226, 2234.1015617968515, 31661.82716629829, 48356.54626566723, -187500.02235174447, 67495.60743517964, -187500.02235174447, -187500.02235174447, 40053.76727029887, 19052.895194637204, -187500.02235174447, 42610.33744935244, 16598.22661855538, 37825.56656903822, -187500.02235174447, -185129.1951691145, -0.0115, 1.0110000000000001, 0.08049999999999999, 192.0, 0.0, 0.0, 0.0, 0.0, 0.0, 0.0, 0.0, 0.0, 0.0, 1.6959317808325834E9, 0.0, 2023-09-28 15:09:40.832
6.0, 41423.99626064256, 2249.144285815273, 31672.31013444783, 48507.48759597392, -187500.02235174447, 67639.79853866083, -187500.02235174447, -187500.02235174447, 39995.29510680379, 19049.14010156871, -187500.02235174447, 42713.17782559131, 16737.656800467586, 37885.581002900726, -187500.02235174447, -184907.6446780735, -0.0115, 1.0110000000000001, 0.08049999999999999, 192.0, 0.0, 0.0, 0.0, 0.0, 0.0, 0.0, 0.0, 0.0, 0.0, 1.6959317808325949E9, 0.0, 2023-09-28 15:09:40.832
8.0, 41416.620184972315, 2239.9130153552314, 31636.74850901944, 48302.74561676331, -187500.02235174447, 67445.8748037666, -187500.02235174447, -187500.02235174447, 40079.516479911385, 19069.770761700962, -187500.02235174447, 42631.0128129736, 16613.135232107074, 37835.44604008747, -187500.02235174447, -185119.27099457633, -0.01075, 1.0135, 0.07625, 192.0, 127.5, 88.0, 15.5, 96.0, 1.0, 32.0, 0.0, 0.0, 0.0, 1.6959317808326056E9, 0.0, 2023-09-28 15:09:40.832
10.0, 41403.186786554674, 2218.276526722494, 31684.961221809535, 48527.67122121707, -187500.02235174447, 67654.66244872361, -187500.02235174447, -187500.02235174447, 39994.60220272568, 19039.841775875306, -187500.02235174447, 42717.15643610435, 16738.819091179263, 37888.419674446544, -187500.02235174447, -184941.23934998983, -0.01075, 1.0135, 0.07625, 192.0, 0.0, 0.0, 0.0, 0.0, 0.0, 0.0, 0.0, 0.0, 0.0, 1.6959317808326163E9, 0.0, 2023-09-28 15:09:40.832
12.0, 41427.594891499866, 2247.1102770698403, 31612.005127907414, 48269.55327624718, -187500.02235174447, 67405.79812595823, -187500.02235174447, -187500.02235174447, 40068.78764257284, 19056.605584216784, -187500.02235174447, 42625.29076639304, 16592.43751674146, 37806.366420551116, -187500.02235174447, -185104.2282705579, -0.01075, 1.0135, 0.07625, 192.0, 0.0, 0.0, 0.0, 0.0, 0.0, 0.0, 0.0, 0.0, 0.0, 1.6959317808326273E9, 0.0, 2023-09-28 15:09:40.832
14.0, 41398.850548130344, 2210.3640091853154, 31720.27697804892, 48546.20081737052, -187500.02235174447, 67664.63132675068, -187500.02235174447, -187500.02235174447, 40008.52733952133, 19066.708572710584, -187500.02235174447, 42724.51016003015, 16749.726742473453, 37892.82296810424, -187500.02235174447, -184952.63873966204, -0.01075, 1.0135, 0.07625, 192.0, 0.0, 0.0, 0.0, 0.0, 0.0, 0.0, 0.0, 0.0, 0.0, 1.69593178083264E9, 0.0, 2023-09-28 15:09:40.832
16.0, 41420.107057107336, 2233.63217516329, 31592.693220698027, 48271.83315418162, -187500.02235174447, 67401.84186718964, -187500.02235174447, -187500.02235174447, 40046.88293300664, 19038.47831946353, -187500.02235174447, 42616.48417907765, 16596.930217376976, 37793.44711225595, -187500.02235174447, -185039.40821163752, -0.01075, 1.0135, 0.07625, 192.0, 0.0, 0.0, 0.0, 0.0, 0.0, 0.0, 0.0, 0.0, 0.0, 1.695931780832651E9, 0.0, 2023-09-28 15:09:40.832
18.0, 41378.577515909376, 2186.4699943625924, 31740.035920147413, 48585.20461144503, -187500.02235174447, 67700.57293183482, -187500.02235174447, -187500.02235174447, 40001.28537431781, 19051.57644171434, -187500.02235174447, 42710.09328485648, 16738.908498157085, 37875.992104529396, -187500.02235174447, -184966.11684156858, -0.010374999999999999, 1.01375, 0.075125, 192.0, 127.5, 88.0, 15.5, 88.0, 1.0, 40.0, 0.0, 0.0, 0.0, 1.6959317808326616E9, 0.0, 2023-09-28 15:09:40.832
20.0, 41455.82514474692, 2269.5737802474237, 31592.380296275653, 48261.573703476635, -187500.02235174447, 67392.52118975177, -187500.02235174447, -187500.02235174447, 40049.09575570771, 19042.278116020934, -187500.02235174447, 42627.034202460556, 16598.67365344449, 37801.80666468223, -187500.02235174447, -185006.03705716575, -0.010374999999999999, 1.01375, 0.075125, 192.0, 0.0, 0.0, 0.0, 0.0, 0.0, 0.0, 0.0, 0.0, 0.0, 1.6959317808326726E9, 0.0, 2023-09-28 15:09:40.832
22.0, 41387.27234450249, 2192.504965365525, 31778.279754910443, 48600.58261163028, -187500.02235174447, 67710.13947846169, -187500.02235174447, -187500.02235174447, 40023.97239493995, 19076.364526315276, -187500.02235174447, 42733.428506067816, 16764.724763002963, 37908.625651434144, -187500.02235174447, -184969.06727183668, -0.010374999999999999, 1.01375, 0.075125, 192.0, 0.0, 0.0, 0.0, 0.0, 0.0, 0.0, 0.0, 0.0, 0.0, 1.6959317808326836E9, 0.0, 2023-09-28 15:09:40.832
24.0, 41452.49473482308, 2258.889646397787, 31588.669906696072, 48289.22281136785, -187500.02235174447, 67412.2130766169, -187500.02235174447, -187500.02235174447, 40045.07244170576, 19048.760121912972, -187500.02235174447, 42649.52005738259, 16628.155604381038, 37814.05542064374, -187500.02235174447, -184934.69028886443, -0.010374999999999999, 1.01375, 0.075125, 192.0, 0.0, 0.0, 0.0, 0.0, 0.0, 0.0, 0.0, 0.0, 0.0, 1.6959317808326943E9, 0.0, 2023-09-28 15:09:40.832
26.0, 41380.99150431055, 2175.2047151571173, 31774.323496141853, 48589.160870213615, -187500.02235174447, 67691.60988230823, -187500.02235174447, -187500.02235174447, 40024.75470599588, 19064.38399128723, -187500.02235174447, 42712.41786627983, 16736.78508243383, 37887.30208722378, -187500.02235174447, -184979.59494347512, -0.010374999999999999, 1.01375, 0.075125, 192.0, 0.0, 0.0, 0.0, 0.0, 0.0, 0.0, 0.0, 0.0, 0.0, 1.6959317808327053E9, 0.0, 2023-09-28 15:09:40.832
28.0, 41467.11277569685, 2266.600998234868, 31581.42794149255, 48282.204363608886, -187500.02235174447, 67394.26462581928, -187500.02235174447, -187500.02235174447, 40036.44466834601, 19033.002142071982, -187500.02235174447, 42650.861162049914, 16628.110900892127, 37800.6220222261, -187500.02235174447, -184907.6893815624, -0.010187499999999999, 1.014875, 0.07956250000000001, 192.0, 127.5, 88.0, 15.5, 96.0, 1.0, 80.0, 0.0, 0.0, 0.0, 1.695931780832718E9, 0.0, 2023-09-28 15:09:40.832
30.0, 41368.42982392667, 2156.1386771367406, 31785.76758930297, 48562.5622943118, -187500.02235174447, 67660.63036449318, -187500.02235174447, -187500.02235174447, 40052.26970342037, 19073.615261747273, -187500.02235174447, 42699.69972368476, 16737.813262678774, 37881.93766855451, -187500.02235174447, -185031.18276967798, -0.010187499999999999, 1.014875, 0.07956250000000001, 192.0, 0.0, 0.0, 0.0, 0.0, 0.0, 0.0, 0.0, 0.0, 0.0, 1.6959317808327308E9, 0.0, 2023-09-28 15:09:40.832
32.0, 41428.421906044714, 2226.636079148779, 31579.72920891395, 48341.66000386, -187500.02235174447, 67455.66486783802, -187500.02235174447, -187500.02235174447, 39994.84807191468, 18994.04305148638, -187500.02235174447, 42639.43942063325, 16637.43157832999, 37790.38492326557, -187500.02235174447, -184850.8265436681, -0.010187499999999999, 1.014875, 0.07956250000000001, 192.0, 0.0, 0.0, 0.0, 0.0, 0.0, 0.0, 0.0, 0.0, 0.0, 1.6959317808327417E9, 0.0, 2023-09-28 15:09:40.832
34.0, 41386.71355089111, 2182.021997215986, 31774.792882775415, 48536.20958759899, -187500.02235174447, 67637.20573630402, -187500.02235174447, -187500.02235174447, 40048.291092907326, 19054.52687198244, -187500.02235174447, 42676.45390945124, 16691.634558634112, 37859.94355201049, -187500.02235174447, -185006.6182025216, -0.010187499999999999, 1.014875, 0.07956250000000001, 192.0, 0.0, 0.0, 0.0, 0.0, 0.0, 0.0, 0.0, 0.0, 0.0, 1.6959317808327534E9, 0.0, 2023-09-28 15:09:40.832
36.0, 41447.89027546529, 2247.7361259145887, 31608.58531100575, 48355.13810576655, -187500.02235174447, 67463.28681269728, -187500.02235174447, -187500.02235174447, 40018.94325243751, 19021.982732055516, -187500.02235174447, 42695.54229921607, 16684.10202075267, 37834.55197030926, -187500.02235174447, -184819.4670461973, -0.010187499999999999, 1.014875, 0.07956250000000001, 192.0, 0.0, 0.0, 0.0, 0.0, 0.0, 0.0, 0.0, 0.0, 0.0, 1.695931780832765E9, 0.0, 2023-09-28 15:09:40.832
38.0, 41372.25197222853, 2163.0453661734305, 31775.597545575805, 48515.57892746675, -187500.02235174447, 67607.94730281203, -187500.02235174447, -187500.02235174447, 40049.22986617445, 19056.829101661337, -187500.02235174447, 42684.768758388615, 16697.40130870358, 37857.462508375946, -187500.02235174447, -185016.11769391512, -0.01109375, 1.0104375, 0.08178125, 192.0, 127.5, 80.0, 15.5, 56.0, 1.0, 80.0, 0.0, 0.0, 0.0, 1.6959317808327935E9, 0.0, 2023-09-28 15:09:40.832
40.0, 41426.52200776601, 2218.34358195586, 31617.660119254604, 48433.79389450478, -187500.02235174447, 67530.72202571893, -187500.02235174447, -187500.02235174447, 39980.83352814121, 19001.217961456536, -187500.02235174447, 42684.23231652169, 16677.642366605087, 37822.705545747944, -187500.02235174447, -184771.72372004078, -0.01109375, 1.0104375, 0.08178125, 192.0, 0.0, 0.0, 0.0, 0.0, 0.0, 0.0, 0.0, 0.0, 0.0, 1.695931780832806E9, 0.0, 2023-09-28 15:09:40.832
42.0, 41414.228548315594, 2201.736235825567, 31754.89983021019, 48472.37300543464, -187500.02235174447, 67563.33322087923, -187500.02235174447, -187500.02235174447, 40073.727378097465, 19075.42575304815, -187500.02235174447, 42661.835868577466, 16663.5831193427, 37834.68608077599, -187500.02235174447, -184987.9097924125, -0.01109375, 1.0104375, 0.08178125, 192.0, 0.0, 0.0, 0.0, 0.0, 0.0, 0.0, 0.0, 0.0, 0.0, 1.6959317808328166E9, 0.0, 2023-09-28 15:09:40.832
44.0, 41431.10411537935, 2217.24834647755, 31643.565791078305, 48483.750043362386, -187500.02235174447, 67576.72191580795, -187500.02235174447, -187500.02235174447, 40001.95592665147, 19032.778624627426, -187500.02235174447, 42717.9834506492, 16731.532422486835, 37840.25166514536, -187500.02235174447, -184719.46534150426, -0.01109375, 1.0104375, 0.08178125, 192.0, 0.0, 0.0, 0.0, 0.0, 0.0, 0.0, 0.0, 0.0, 0.0, 1.6959317808328273E9, 0.0, 2023-09-28 15:09:40.832
46.0, 41387.04882705794, 2171.449622088626, 31713.504399478963, 48475.770470591844, -187500.02235174447, 67567.11066569218, -187500.02235174447, -187500.02235174447, 40054.080194721246, 19048.693066679607, -187500.02235174447, 42644.15563871332, 16635.419921329012, 37806.76875195131, -187500.02235174447, -184933.84092257512, -0.01109375, 1.0104375, 0.08178125, 192.0, 0.0, 0.0, 0.0, 0.0, 0.0, 0.0, 0.0, 0.0, 0.0, 1.6959317808328383E9, 0.0, 2023-09-28 15:09:40.832
48.0, 41415.23437681608, 2200.5292416249804, 31630.266503127397, 48544.770305725375, -187500.02235174447, 67629.18146004457, -187500.02235174447, -187500.02235174447, 39971.9822373369, 19003.810763813348, -187500.02235174447, 42701.24199405217, 16713.382805989124, 37816.13413287808, -187500.02235174447, -184678.71811136225, -0.015546875, 1.01021875, 0.080890625, 192.0, 127.5, 48.0, 15.5, 72.0, 1.0, 64.0, 0.0, 0.0, 0.0, 1.6959317808328493E9, 0.0, 2023-09-28 15:09:40.832
50.0, 41418.96711814012, 2207.1677097282063, 31672.354837936742, 48443.94158648748, -187500.02235174447, 67528.95623790697, -187500.02235174447, -187500.02235174447, 40054.571933099265, 19044.15566255518, -187500.02235174447, 42632.53273159656, 16620.80188045524, 37796.06226635722, -187500.02235174447, -184884.44356732888, -0.015546875, 1.01021875, 0.080890625, 192.0, 0.0, 0.0, 0.0, 0.0, 0.0, 0.0, 0.0, 0.0, 0.0, 1.6959317808328602E9, 0.0, 2023-09-28 15:09:40.832
52.0, 41440.514199795034, 2225.674954137201, 31664.822300055304, 48569.67014904859, -187500.02235174447, 67645.92291664159, -187500.02235174447, -187500.02235174447, 40000.23484232841, 19043.730979410528, -187500.02235174447, 42736.80361948057, 16742.93181215904, 37869.57715387072, -187500.02235174447, -184652.20894243824, -0.015546875, 1.01021875, 0.080890625, 192.0, 0.0, 0.0, 0.0, 0.0, 0.0, 0.0, 0.0, 0.0, 0.0, 1.6959317808328707E9, 0.0, 2023-09-28 15:09:40.832
54.0, 41435.5297607815, 2221.115198268318, 31665.49285238896, 48384.128318325085, -187500.02235174447, 67461.29750744076, -187500.02235174447, -187500.02235174447, 40092.659305651105, 19075.11282862578, -187500.02235174447, 42660.04772902104, 16642.48307257689, 37828.49464756187, -187500.02235174447, -184873.69237824588, -0.015546875, 1.01021875, 0.080890625, 192.0, 0.0, 0.0, 0.0, 0.0, 0.0, 0.0, 0.0, 0.0, 0.0, 1.6959317808328831E9, 0.0, 2023-09-28 15:09:40.832
56.0, 41410.607565713835, 2190.8062327869216, 31712.297405278376, 48601.94606804205, -187500.02235174447, 67668.18525411907, -187500.02235174447, -187500.02235174447, 40007.946194165495, 19044.66975267765, -187500.02235174447, 42742.81623873905, 16779.09693468773, 37889.827834347234, -187500.02235174447, -184682.2943904751, -0.015546875, 1.01021875, 0.080890625, 192.0, 0.0, 0.0, 0.0, 0.0, 0.0, 0.0, 0.0, 0.0, 0.0, 1.6959317808328936E9, 0.0, 2023-09-28 15:09:40.832
58.0, 41435.44035380368, 2218.276526722494, 31655.814547039816, 48367.94565533944, -187500.02235174447, 67444.19842293244, -187500.02235174447, -187500.02235174447, 40067.223020460966, 19046.770816656448, -187500.02235174447, 42640.4676008782, 16634.279982361793, 37803.080714116186, -187500.02235174447, -184826.30668000065, -0.0147734375, 1.011109375, 0.0794453125, 192.0, 127.5, 72.0, 15.5, 80.0, 1.0, 56.0, 0.0, 0.0, 0.0, 1.6959317808329043E9, 0.0, 2023-09-28 15:09:40.832
60.0, 41416.396667527755, 2187.7216920520896, 31750.921219697146, 48632.63501317919, -187500.02235174447, 67692.74982127546, -187500.02235174447, -187500.02235174447, 40019.83732221572, 19047.66488643466, -187500.02235174447, 42749.07472718653, 16793.737327305953, 37892.130064026125, -187500.02235174447, -184648.45384936975, -0.0147734375, 1.011109375, 0.0794453125, 192.0, 0.0, 0.0, 0.0, 0.0, 0.0, 0.0, 0.0, 0.0, 0.0, 1.6959317808329148E9, 0.0, 2023-09-28 15:09:40.832
62.0, 41429.29362407847, 2203.3902649152596, 31639.274256142886, 48370.67256816299, -187500.02235174447, 67442.63380082056, -187500.02235174447, -187500.02235174447, 40064.294941937325, 19026.3413222243, -187500.02235174447, 42635.617272331394, 16632.402435827546, 37798.029219869284, -187500.02235174447, -184754.8034494881, -0.0147734375, 1.011109375, 0.0794453125, 192.0, 0.0, 0.0, 0.0, 0.0, 0.0, 0.0, 0.0, 0.0, 0.0, 1.6959317808329275E9, 0.0, 2023-09-28 15:09:40.832
64.0, 41387.182937524674, 2155.2446073585284, 31756.218583133053, 48689.3413888623, -187500.02235174447, 67752.71955164905, -187500.02235174447, -187500.02235174447, 39991.092978846194, 19025.782528612915, -187500.02235174447, 42719.41396229434, 16767.496379315424, 37864.235086945904, -187500.02235174447, -184620.33535484498, -0.0147734375, 1.011109375, 0.0794453125, 192.0, 0.0, 0.0, 0.0, 0.0, 0.0, 0.0, 0.0, 0.0, 0.0, 1.6959317808329382E9, 0.0, 2023-09-28 15:09:40.832
66.0, 41450.661891777745, 2224.7138291256224, 31604.941976659535, 48369.443222217946, -187500.02235174447, 67452.20034744745, -187500.02235174447, -187500.02235174447, 40050.95095049751, 19025.067272790347, -187500.02235174447, 42627.637699560844, 16624.91460143502, 37784.43935924046, -187500.02235174447, -184674.49363166018, -0.0147734375, 1.011109375, 0.0794453125, 192.0, 0.0, 0.0, 0.0, 0.0, 0.0, 0.0, 0.0, 0.0, 0.0, 1.6959317808329504E9, 0.0, 2023-09-28 15:09:40.832
68.0, 41407.523024979004, 2177.506944836014, 31774.144682186212, 48676.53383928941, -187500.02235174447, 67743.30946723335, -187500.02235174447, -187500.02235174447, 40023.48065656193, 19053.87867139324, -187500.02235174447, 42730.38866882189, 16791.010414482407, 37885.37983720063, -187500.02235174447, -184614.14392163086, -0.01438671875, 1.0085546875, 0.07772265625, 192.0, 127.5, 72.0, 15.5, 56.0, 1.0, 48.0, 0.0, 0.0, 0.0, 1.695931780832961E9, 0.0, 2023-09-28 15:09:40.832
70.0, 41457.099194180875, 2234.213320519128, 31600.181055090554, 48359.451992446426, -187500.02235174447, 67440.9127164975, -187500.02235174447, -187500.02235174447, 40041.60792131519, 19030.23052575952, -187500.02235174447, 42644.62502534688, 16647.445159845967, 37801.78431293778, -187500.02235174447, -184610.85821519594, -0.01438671875, 1.0085546875, 0.07772265625, 192.0, 0.0, 0.0, 0.0, 0.0, 0.0, 0.0, 0.0, 0.0, 0.0, 1.6959317808329718E9, 0.0, 2023-09-28 15:09:40.832
72.0, 41374.19657399614, 2147.577959010358, 31777.028057220945, 48684.62517078223, -187500.02235174447, 67748.07038880234, -187500.02235174447, -187500.02235174447, 40015.992822169406, 19060.67360170765, -187500.02235174447, 42719.01163089414, 16775.006565452404, 37887.63736339061, -187500.02235174447, -184631.2206543947, -0.01438671875, 1.0085546875, 0.07772265625, 192.0, 0.0, 0.0, 0.0, 0.0, 0.0, 0.0, 0.0, 0.0, 0.0, 1.6959317808329823E9, 0.0, 2023-09-28 15:09:40.832
74.0, 41444.89514170827, 2226.412561704226, 31570.252069264898, 48393.44899576295, -187500.02235174447, 67472.0263447793, -187500.02235174447, -187500.02235174447, 40013.02004015685, 19015.500726163475, -187500.02235174447, 42638.6124060884, 16628.557935781235, 37801.247871070846, -187500.02235174447, -184542.19365622924, -0.01438671875, 1.0085546875, 0.07772265625, 192.0, 0.0, 0.0, 0.0, 0.0, 0.0, 0.0, 0.0, 0.0, 0.0, 1.6959317808329933E9, 0.0, 2023-09-28 15:09:40.832
76.0, 41391.161548037715, 2165.4370028301482, 31775.28462115343, 48674.47747879952, -187500.02235174447, 67743.35417072228, -187500.02235174447, -187500.02235174447, 40032.22018864396, 19073.950537914105, -187500.02235174447, 42712.19434883528, 16757.527501288354, 37904.06589556526, -187500.02235174447, -184599.39177029036, -0.01438671875, 1.0085546875, 0.07772265625, 192.0, 0.0, 0.0, 0.0, 0.0, 0.0, 0.0, 0.0, 0.0, 0.0, 1.6959317808330035E9, 0.0, 2023-09-28 15:09:40.833
78.0, 41460.18373491571, 2244.4280677352035, 31586.457083994996, 48395.25948706383, -187500.02235174447, 67479.96121406094, -187500.02235174447, -187500.02235174447, 40034.00832820038, 19047.575479456842, -187500.02235174447, 42672.54235417156, 16677.329442182712, 37852.54512459578, -187500.02235174447, -184479.76523396556, -0.012193359375, 1.0122773437500001, 0.07986132812499999, 192.0, 127.5, 88.0, 15.5, 96.0, 1.0, 72.0, 0.0, 0.0, 0.0, 1.695931780833016E9, 0.0, 2023-09-28 15:09:40.833
80.0, 41375.96236180811, 2156.5857120258465, 31763.840527992314, 48651.92456864412, -187500.02235174447, 67718.47667914351, -187500.02235174447, -187500.02235174447, 40044.04426146082, 19075.62691874825, -187500.02235174447, 42700.9290696298, 16754.353553575704, 37911.03963983532, -187500.02235174447, -184605.27027908212, -0.012193359375, 1.0122773437500001, 0.07986132812499999, 192.0, 0.0, 0.0, 0.0, 0.0, 0.0, 0.0, 0.0, 0.0, 0.0, 1.6959317808330264E9, 0.0, 2023-09-28 15:09:40.833
82.0, 41433.56280726943, 2224.0432767919633, 31572.77781638835, 48463.02997625232, -187500.02235174447, 67538.94746767849, -187500.02235174447, -187500.02235174447, 40004.861653430664, 19029.448214703585, -187500.02235174447, 42670.75421461513, 16692.886256323607, 37851.449889117466, -187500.02235174447, -184422.74593386007, -0.012193359375, 1.0122773437500001, 0.07986132812499999, 192.0, 0.0, 0.0, 0.0, 0.0, 0.0, 0.0, 0.0, 0.0, 0.0, 1.6959317808330371E9, 0.0, 2023-09-28 15:09:40.833
84.0, 41404.10320807734, 2197.064721234408, 31752.374083086743, 48617.99462056096, -187500.02235174447, 67680.03167868039, -187500.02235174447, -187500.02235174447, 40054.90720926609, 19078.554997271898, -187500.02235174447, 42679.76196763062, 16732.87352715415, 37879.143700497596, -187500.02235174447, -184571.6085519324, -0.012193359375, 1.0122773437500001, 0.07986132812499999, 192.0, 0.0, 0.0, 0.0, 0.0, 0.0, 0.0, 0.0, 0.0, 0.0, 1.6959317808330476E9, 0.0, 2023-09-28 15:09:40.833
86.0, 41452.42767958971, 2265.9751493901194, 31599.622261479173, 48485.895810830094, -187500.02235174447, 67551.7997207403, -187500.02235174447, -187500.02235174447, 40026.6993077635, 19052.358752770277, -187500.02235174447, 42701.957249874744, 16731.867698653663, 37878.20492723047, -187500.02235174447, -184376.7683955155, -0.012193359375, 1.0122773437500001, 0.07986132812499999, 192.0, 0.0, 0.0, 0.0, 0.0, 0.0, 0.0, 0.0, 0.0, 0.0, 1.695931780833058E9, 0.0, 2023-09-28 15:09:40.833
88.0, 41396.88359461827, 2212.9791632865863, 31740.594713758794, 48594.50293713844, -187500.02235174447, 67650.28150681037, -187500.02235174447, -187500.02235174447, 40066.999503016414, 19081.796000217917, -187500.02235174447, 42672.22942974918, 16720.848288637197, 37899.52849144083, -187500.02235174447, -184569.39572923133, -0.0140966796875, 1.014138671875, 0.07993066406249999, 192.0, 127.5, 64.0, 15.5, 96.0, 1.0, 64.0, 0.0, 0.0, 0.0, 1.6959317808330688E9, 0.0, 2023-09-28 15:09:40.833
0.0, 20622.99348390025, 1075.3647774892781, 15985.274730357496, 24641.077177652976, -93750.01117587223, 34010.95080506215, -93750.01117587223, -93750.01117587223, 20004.38660435517, 9528.727475253043, -93750.01117587223, 21366.07722831693, 8402.75834831695, 18961.61067028173, -93750.01117587223, -92166.59124691383, -0.022, 1.008, 0.07200000000000001, 192.0, 127.5, 40.0, 15.5, 64.0, 1.0, 32.0, 0.0, 0.0, 0.0, 1.6959317814215543E9, 0.0, 2023-09-28 15:09:41.421
2.0, 41317.89252971322, 2227.5525006714465, 31800.564444132382, 49093.25976291415, -187500.02235174447, 67841.12070096978, -187500.02235174447, -187500.02235174447, 39405.4996258616, 19016.506554663963, -187500.02235174447, 42568.27146628755, 17129.594639491395, 37755.158574004, -187500.02235174447, -182312.9871264681, -0.022, 1.008, 0.07200000000000001, 192.0, 0.0, 0.0, 0.0, 0.0, 0.0, 0.0, 0.0, 0.0, 0.0, 1.6959317814216733E9, 0.0, 2023-09-28 15:09:41.421
4.0, 41255.262941749446, 2164.118249907285, 31898.308622635443, 49109.10714973297, -187500.02235174447, 67849.14497722924, -187500.02235174447, -187500.02235174447, 39441.66474839029, 19043.932145110626, -187500.02235174447, 42521.17634072022, 17073.87174056432, 37748.36364368959, -187500.02235174447, -182578.1011674525, -0.022, 1.008, 0.07200000000000001, 192.0, 0.0, 0.0, 0.0, 0.0, 0.0, 0.0, 0.0, 0.0, 0.0, 1.6959317814217024E9, 0.0, 2023-09-28 15:09:41.421
6.0, 41271.04327333489, 2177.506944836014, 31801.279699954954, 49160.739679424725, -187500.02235174447, 67891.56858820541, -187500.02235174447, -187500.02235174447, 39355.40936653726, 18991.785525296393, -187500.02235174447, 42561.43183248423, 17143.787997220516, 37733.99147200483, -187500.02235174447, -182361.043377047, -0.022, 1.008, 0.07200000000000001, 192.0, 0.0, 0.0, 0.0, 0.0, 0.0, 0.0, 0.0, 0.0, 0.0, 1.6959317814217265E9, 0.0, 2023-09-28 15:09:41.421
8.0, 41252.737194626, 2154.372889324771, 31870.234831599577, 49118.159606237365, -187500.02235174447, 67848.72029408459, -187500.02235174447, -187500.02235174447, 39399.576413580944, 19013.109089506757, -187500.02235174447, 42482.731340257094, 17070.541330640477, 37690.718494739354, -187500.02235174447, -182566.25474289118, -0.024, 1.006, 0.068, 192.0, 127.5, 32.0, 15.5, 56.0, 1.0, 16.0, 0.0, 0.0, 0.0, 1.695931781421749E9, 0.0, 2023-09-28 15:09:41.421
10.0, 41279.246363549995, 2181.9549419826203, 31838.62946493977, 49204.39263634594, -187500.02235174447, 67929.07481540141, -187500.02235174447, -187500.02235174447, 39317.031421307496, 18996.18881895409, -187500.02235174447, 42558.302588260485, 17139.45175879619, 37727.487114368334, -187500.02235174447, -182356.95300781168, -0.024, 1.006, 0.068, 192.0, 0.0, 0.0, 0.0, 0.0, 0.0, 0.0, 0.0, 0.0, 0.0, 1.695931781421772E9, 0.0, 2023-09-28 15:09:41.421
12.0, 41257.81104061735, 2154.082316646852, 31850.364130778806, 49064.64953001136, -187500.02235174447, 67791.8574561903, -187500.02235174447, -187500.02235174447, 39424.14098073733, 19024.597886156786, -187500.02235174447, 42477.210459376634, 17044.590955327865, 37698.966288443364, -187500.02235174447, -182620.92710982886, -0.024, 1.006, 0.068, 192.0, 0.0, 0.0, 0.0, 0.0, 0.0, 0.0, 0.0, 0.0, 0.0, 1.6959317814217937E9, 0.0, 2023-09-28 15:09:41.421
14.0, 41262.86253486425, 2152.6965084906233, 31866.79266295346, 49259.31087247263, -187500.02235174447, 67968.41388564276, -187500.02235174447, -187500.02235174447, 39303.41920893422, 18985.99642348247, -187500.02235174447, 42551.32884399043, 17158.227224138645, 37723.66496606648, -187500.02235174447, -182415.17930211776, -0.024, 1.006, 0.068, 192.0, 0.0, 0.0, 0.0, 0.0, 0.0, 0.0, 0.0, 0.0, 0.0, 1.6959317814218237E9, 0.0, 2023-09-28 15:09:41.421
16.0, 41266.304703510374, 2161.7713167394777, 31822.647967654226, 49055.77588746261, -187500.02235174447, 67768.61164195677, -187500.02235174447, -187500.02235174447, 39382.23145988363, 18997.75344106596, -187500.02235174447, 42458.83732543437, 17021.591010283355, 37679.69908472289, -187500.02235174447, -182614.66862138137, -0.024, 1.006, 0.068, 192.0, 0.0, 0.0, 0.0, 0.0, 0.0, 0.0, 0.0, 0.0, 0.0, 1.6959317814218397E9, 0.0, 2023-09-28 15:09:41.421
18.0, 41283.783767674424, 2170.4661453325925, 31893.525349322004, 49260.18259050639, -187500.02235174447, 67963.2953361625, -187500.02235174447, -187500.02235174447, 39317.90313934125, 19012.885572062205, -187500.02235174447, 42578.083882103434, 17162.317593373966, 37764.278085741775, -187500.02235174447, -182460.24041893965, -0.026000000000000002, 1.014, 0.068, 192.0, 127.5, 24.0, 15.5, 88.0, 1.0, 16.0, 0.0, 0.0, 0.0, 1.695931781421857E9, 0.0, 2023-09-28 15:09:41.421
20.0, 41295.83135793583, 2180.85970650431, 31818.378784463264, 49013.374628230886, -187500.02235174447, 67729.40668218216, -187500.02235174447, -187500.02235174447, 39387.774692508545, 19031.61633391575, -187500.02235174447, 42491.470872339116, 17035.270277890002, 37701.17911114444, -187500.02235174447, -182651.9736828773, -0.026000000000000002, 1.014, 0.068, 192.0, 0.0, 0.0, 0.0, 0.0, 0.0, 0.0, 0.0, 0.0, 0.0, 1.6959317814218752E9, 0.0, 2023-09-28 15:09:41.421
22.0, 41243.21535148804, 2128.6013279678023, 31916.525294366515, 49311.94923066488, -187500.02235174447, 68012.08919430843, -187500.02235174447, -187500.02235174447, 39312.605775905344, 19014.271380218433, -187500.02235174447, 42578.24034431462, 17184.043488984524, 37756.2091059934, -187500.02235174447, -182518.64552720138, -0.026000000000000002, 1.014, 0.068, 192.0, 0.0, 0.0, 0.0, 0.0, 0.0, 0.0, 0.0, 0.0, 0.0, 1.6959317814218912E9, 0.0, 2023-09-28 15:09:41.421
24.0, 41278.6428664497, 2159.5584940384024, 31775.396379875707, 49021.73418065717, -187500.02235174447, 67732.78179559491, -187500.02235174447, -187500.02235174447, 39356.12462235983, 18978.86621700123, -187500.02235174447, 42451.5730084864, 17030.79992899894, 37674.2452590758, -187500.02235174447, -182625.352755231, -0.026000000000000002, 1.014, 0.068, 192.0, 0.0, 0.0, 0.0, 0.0, 0.0, 0.0, 0.0, 0.0, 0.0, 1.6959317814219089E9, 0.0, 2023-09-28 15:09:41.421
26.0, 41247.439831190095, 2124.220386054562, 31929.60106487287, 49318.43123655692, -187500.02235174447, 68007.551790184, -187500.02235174447, -187500.02235174447, 39291.72924658409, 19002.067327745837, -187500.02235174447, 42548.311358488965, 17157.176692149245, 37748.74362334533, -187500.02235174447, -182587.26538267915, -0.026000000000000002, 1.014, 0.068, 192.0, 0.0, 0.0, 0.0, 0.0, 0.0, 0.0, 0.0, 0.0, 0.0, 1.6959317814219265E9, 0.0, 2023-09-28 15:09:41.421
28.0, 41287.896488654194, 2176.9705029690867, 31764.444025092605, 49016.392113732356, -187500.02235174447, 67719.59426636629, -187500.02235174447, -187500.02235174447, 39345.79811642148, 18983.962414737038, -187500.02235174447, 42470.21436336212, 17021.188678883158, 37677.55331725518, -187500.02235174447, -182637.1991797923, -0.028, 1.014, 0.066, 192.0, 127.5, 16.0, 15.5, 88.0, 1.0, 8.0, 0.0, 0.0, 0.0, 1.6959317814219449E9, 0.0, 2023-09-28 15:09:41.421
30.0, 41238.901464808165, 2124.9803453660425, 31927.56705612744, 49326.924899449936, -187500.02235174447, 68006.68007215024, -187500.02235174447, -187500.02235174447, 39327.76025864604, 19005.509496391955, -187500.02235174447, 42552.20056202418, 17176.108619702893, 37771.408292223015, -187500.02235174447, -182639.4120024934, -0.028, 1.014, 0.066, 192.0, 0.0, 0.0, 0.0, 0.0, 0.0, 0.0, 0.0, 0.0, 0.0, 1.6959317814219668E9, 0.0, 2023-09-28 15:09:41.421
32.0, 41301.262831838474, 2194.2260496885838, 31734.738556711505, 49016.99561083265, -187500.02235174447, 67717.29203668739, -187500.02235174447, -187500.02235174447, 39315.10917128434, 18981.57077808032, -187500.02235174447, 42482.19489839017, 17069.311984695432, 37687.87982319353, -187500.02235174447, -182626.91737734288, -0.028, 1.014, 0.066, 192.0, 0.0, 0.0, 0.0, 0.0, 0.0, 0.0, 0.0, 0.0, 0.0, 1.6959317814219832E9, 0.0, 2023-09-28 15:09:41.421
34.0, 41234.74404033948, 2124.4662552435702, 31943.347387712885, 49302.71796020484, -187500.02235174447, 67983.7471823391, -187500.02235174447, -187500.02235174447, 39325.25686326705, 19027.213040258055, -187500.02235174447, 42551.37354747934, 17195.331119934453, 37767.966123576894, -187500.02235174447, -182724.7286110793, -0.028, 1.014, 0.066, 192.0, 0.0, 0.0, 0.0, 0.0, 0.0, 0.0, 0.0, 0.0, 0.0, 1.6959317814219992E9, 0.0, 2023-09-28 15:09:41.421
36.0, 41299.027657392944, 2194.7848432999663, 31745.869725450248, 49025.75749465913, -187500.02235174447, 67720.91301928915, -187500.02235174447, -187500.02235174447, 39314.88565383979, 18975.602862310752, -187500.02235174447, 42489.2804013825, 17090.613197161343, 37678.33562831111, -187500.02235174447, -182672.11260463152, -0.028, 1.014, 0.066, 192.0, 0.0, 0.0, 0.0, 0.0, 0.0, 0.0, 0.0, 0.0, 0.0, 1.6959317814220164E9, 0.0, 2023-09-28 15:09:41.422
38.0, 41229.960767026045, 2123.281612787439, 31937.982969043613, 49278.689834915385, -187500.02235174447, 67955.11459769185, -187500.02235174447, -187500.02235174447, 39307.241357236075, 19023.770871611938, -187500.02235174447, 42542.83518109741, 17163.591642807918, 37734.39380340502, -187500.02235174447, -182806.96067893037, -0.022, 1.006, 0.062, 192.0, 127.5, 40.0, 15.5, 56.0, 0.5, 120.0, 0.0, 0.0, 0.0, 1.6959317814220338E9, 0.0, 2023-09-28 15:09:41.422
40.0, 41291.36100904477, 2184.8830205062654, 31738.538353268905, 49062.01202416563, -187500.02235174447, 67751.42315047064, -187500.02235174447, -187500.02235174447, 39334.89046512729, 18977.636871056184, -187500.02235174447, 42512.45916038265, 17094.14477278528, 37677.06157887716, -187500.02235174447, -182687.4235495834, -0.022, 1.006, 0.062, 192.0, 0.0, 0.0, 0.0, 0.0, 0.0, 0.0, 0.0, 0.0, 0.0, 1.6959317814220517E9, 0.0, 2023-09-28 15:09:41.422
42.0, 41247.55158991237, 2128.400162267704, 31936.753623098568, 49268.27392199921, -187500.02235174447, 67947.7385220216, -187500.02235174447, -187500.02235174447, 39324.67571791121, 19020.798089599382, -187500.02235174447, 42535.05677402697, 17193.654739100308, 37734.55026561621, -187500.02235174447, -182849.18312420647, -0.022, 1.006, 0.062, 192.0, 0.0, 0.0, 0.0, 0.0, 0.0, 0.0, 0.0, 0.0, 0.0, 1.695931781422068E9, 0.0, 2023-09-28 15:09:41.422
44.0, 41289.97520088854, 2178.7809942699664, 31764.846356492802, 49122.853472572984, -187500.02235174447, 67810.74468025503, -187500.02235174447, -187500.02235174447, 39296.71368559762, 18981.123743191212, -187500.02235174447, 42533.91683505975, 17101.878476366815, 37681.39781730149, -187500.02235174447, -182642.54124671713, -0.022, 1.006, 0.062, 192.0, 0.0, 0.0, 0.0, 0.0, 0.0, 0.0, 0.0, 0.0, 0.0, 1.695931781422084E9, 0.0, 2023-09-28 15:09:41.422
46.0, 41231.0336507599, 2123.505130231992, 31887.333916107884, 49229.7171628138, -187500.02235174447, 67905.89605640127, -187500.02235174447, -187500.02235174447, 39309.6776973817, 19032.15277578268, -187500.02235174447, 42509.68754407019, 17105.700624668672, 37717.294718896715, -187500.02235174447, -182875.669941386, -0.022, 1.006, 0.062, 192.0, 0.0, 0.0, 0.0, 0.0, 0.0, 0.0, 0.0, 0.0, 0.0, 1.6959317814221008E9, 0.0, 2023-09-28 15:09:41.422
48.0, 41293.10444511229, 2169.8179447433886, 31747.3449405843, 49145.38403098393, -187500.02235174447, 67828.93900024165, -187500.02235174447, -187500.02235174447, 39234.329966822865, 18976.18400766659, -187500.02235174447, 42521.668079098235, 17161.557634062487, 37691.277288350735, -187500.02235174447, -182707.00367772623, -0.022, 1.012, 0.07, 192.0, 127.5, 40.0, 15.5, 80.0, 1.0, 24.0, 0.0, 0.0, 0.0, 1.6959317814221182E9, 0.0, 2023-09-28 15:09:41.422
50.0, 41279.71575018355, 2145.990985154031, 31930.51748639554, 49200.07874966607, -187500.02235174447, 67879.49864619954, -187500.02235174447, -187500.02235174447, 39348.54738098948, 19038.81359563036, -187500.02235174447, 42518.47177964113, 17138.82590995144, 37718.25584390829, -187500.02235174447, -182924.4861512764, -0.022, 1.012, 0.07, 192.0, 0.0, 0.0, 0.0, 0.0, 0.0, 0.0, 0.0, 0.0, 0.0, 1.6959317814221368E9, 0.0, 2023-09-28 15:09:41.422
52.0, 41321.111180914784, 2194.538974110958, 31807.426429680163, 49169.6580254624, -187500.02235174447, 67845.25577369402, -187500.02235174447, -187500.02235174447, 39258.82747874588, 19004.727185336018, -187500.02235174447, 42565.61160869737, 17149.48769205662, 37733.09740222662, -187500.02235174447, -182708.9259277494, -0.022, 1.012, 0.07, 192.0, 0.0, 0.0, 0.0, 0.0, 0.0, 0.0, 0.0, 0.0, 0.0, 1.6959317814221575E9, 0.0, 2023-09-28 15:09:41.422
54.0, 41215.29802266336, 2099.5664119203584, 31801.257348210496, 49129.87192033195, -187500.02235174447, 67804.48619180753, -187500.02235174447, -187500.02235174447, 39378.476366815135, 19046.748464911994, -187500.02235174447, 42496.432959608195, 17177.0026894811, 37707.12467516955, -187500.02235174447, -183004.97478305994, -0.022, 1.012, 0.07, 192.0, 0.0, 0.0, 0.0, 0.0, 0.0, 0.0, 0.0, 0.0, 0.0, 1.6959317814221752E9, 0.0, 2023-09-28 15:09:41.422
56.0, 41315.255023867496, 2169.7508895100227, 31828.235903768054, 49215.07677019558, -187500.02235174447, 67886.78531489198, -187500.02235174447, -187500.02235174447, 39222.9082254062, 18977.81568501183, -187500.02235174447, 42534.27446297103, 17299.870228751926, 37688.52802378274, -187500.02235174447, -182778.66337044997, -0.022, 1.012, 0.07, 192.0, 0.0, 0.0, 0.0, 0.0, 0.0, 0.0, 0.0, 0.0, 0.0, 1.6959317814221957E9, 0.0, 2023-09-28 15:09:41.422
58.0, 41275.535973970414, 2140.671269973668, 31848.531287733473, 49097.841870527496, -187500.02235174447, 67772.63495595873, -187500.02235174447, -187500.02235174447, 39328.85549412436, 19031.839851360306, -187500.02235174447, 42488.43103509319, 17170.20775916669, 37674.222907331336, -187500.02235174447, -183049.43240278156, -0.02, 1.016, 0.062, 192.0, 127.5, 48.0, 15.5, 96.0, 0.5, 120.0, 0.0, 0.0, 0.0, 1.695931781422214E9, 0.0, 2023-09-28 15:09:41.422
60.0, 41294.87023292425, 2156.317491092383, 31883.64587827276, 49249.0737735121, -187500.02235174447, 67913.85327742735, -187500.02235174447, -187500.02235174447, 39201.51760596247, 19016.68536861961, -187500.02235174447, 42586.30932406298, 17218.912210334805, 37727.42005913497, -187500.02235174447, -182846.67972882747, -0.02, 1.016, 0.062, 192.0, 0.0, 0.0, 0.0, 0.0, 0.0, 0.0, 0.0, 0.0, 0.0, 1.6959317814222317E9, 0.0, 2023-09-28 15:09:41.422
62.0, 41253.854781848764, 2126.9249471336543, 31790.997897505513, 49058.681614241796, -187500.02235174447, 67731.99948453897, -187500.02235174447, -187500.02235174447, 39309.476531681605, 19014.85252557427, -187500.02235174447, 42473.67888375269, 17160.171825906258, 37654.77688965522, -187500.02235174447, -183069.83954546924, -0.02, 1.016, 0.062, 192.0, 0.0, 0.0, 0.0, 0.0, 0.0, 0.0, 0.0, 0.0, 0.0, 1.6959317814222517E9, 0.0, 2023-09-28 15:09:41.422
64.0, 41320.194759392114, 2153.344709079827, 31872.559413022926, 49263.20007600786, -187500.02235174447, 67923.37512056531, -187500.02235174447, -187500.02235174447, 39057.326502481286, 19010.940970294592, -187500.02235174447, 42574.798175668504, 17360.219938781254, 37716.95944272989, -187500.02235174447, -182917.9147384065, -0.02, 1.016, 0.062, 192.0, 0.0, 0.0, 0.0, 0.0, 0.0, 0.0, 0.0, 0.0, 0.0, 1.695931781422268E9, 0.0, 2023-09-28 15:09:41.422
66.0, 41270.52918321243, 2132.1999588251065, 31840.61877019629, 49027.925613871295, -187500.02235174447, 67706.09381271528, -187500.02235174447, -187500.02235174447, 39046.30709246482, 19042.90396486568, -187500.02235174447, 42506.24537542408, 17103.24193277859, 37668.05382586167, -187500.02235174447, -183096.72869404897, -0.02, 1.016, 0.062, 192.0, 0.0, 0.0, 0.0, 0.0, 0.0, 0.0, 0.0, 0.0, 0.0, 1.695931781422288E9, 0.0, 2023-09-28 15:09:41.422
68.0, 41312.01402092147, 2140.1348281067408, 31926.471820649127, 49287.071739086125, -187500.02235174447, 67950.9348214787, -187500.02235174447, -187500.02235174447, 38974.110957874174, 19016.66301687515, -187500.02235174447, 42580.117890848865, 17293.32116762652, 37707.571710058655, -187500.02235174447, -182953.07403243473, -0.028, 1.018, 0.066, 192.0, 127.5, 16.0, 15.5, 104.0, 1.0, 8.0, 0.0, 0.0, 0.0, 1.6959317814223063E9, 0.0, 2023-09-28 15:09:41.422
70.0, 41295.45137828009, 2139.1737030951626, 31776.04458046491, 49004.09865428194, -187500.02235174447, 67680.94810020305, -187500.02235174447, -187500.02235174447, 38914.94589030098, 19016.372444197234, -187500.02235174447, 42483.24543037957, 17147.140758888814, 37639.98003482581, -187500.02235174447, -183098.02509522738, -0.028, 1.018, 0.066, 192.0, 0.0, 0.0, 0.0, 0.0, 0.0, 0.0, 0.0, 0.0, 0.0, 1.6959317814223237E9, 0.0, 2023-09-28 15:09:41.422
72.0, 41263.35427324227, 2098.2029555085846, 31929.17638172822, 49322.76747498125, -187500.02235174447, 67986.295281207, -187500.02235174447, -187500.02235174447, 38579.31209556009, 19022.04978728888, -187500.02235174447, 42571.33365527793, 17307.51452535564, 37716.69122179642, -187500.02235174447, -183034.72495492996, -0.028, 1.018, 0.066, 192.0, 0.0, 0.0, 0.0, 0.0, 0.0, 0.0, 0.0, 0.0, 0.0, 1.695931781422341E9, 0.0, 2023-09-28 15:09:41.422
74.0, 41316.81964597936, 2156.5186567924807, 31800.29622319892, 49016.861500365914, -187500.02235174447, 67696.05787945483, -187500.02235174447, -187500.02235174447, 38539.570693918555, 19029.872897848236, -187500.02235174447, 42498.91400324273, 17110.349787515377, 37639.421241214426, -187500.02235174447, -183109.08920873277, -0.028, 1.018, 0.066, 192.0, 0.0, 0.0, 0.0, 0.0, 0.0, 0.0, 0.0, 0.0, 0.0, 1.6959317814225168E9, 0.0, 2023-09-28 15:09:41.422
76.0, 41262.68372090861, 2096.839499096811, 31956.199640774685, 49333.65277453099, -187500.02235174447, 67995.48184817814, -187500.02235174447, -187500.02235174447, 38414.356221479924, 19038.72418865254, -187500.02235174447, 42569.053777343484, 17295.332824627498, 37718.45700960839, -187500.02235174447, -183086.715112533, -0.028, 1.018, 0.066, 192.0, 0.0, 0.0, 0.0, 0.0, 0.0, 0.0, 0.0, 0.0, 0.0, 1.6959317814225304E9, 0.0, 2023-09-28 15:09:41.422
78.0, 41325.872102483765, 2162.643034773235, 31790.349696916306, 49005.77503511609, -187500.02235174447, 67681.8198182368, -187500.02235174447, -187500.02235174447, 38320.1436186008, 19006.314159192345, -187500.02235174447, 42485.16768040272, 17132.321552314945, 37622.836246828585, -187500.02235174447, -183111.79376981186, -0.028, 1.004, 0.058, 192.0, 127.5, 16.0, 15.5, 48.0, 0.5, 104.0, 0.0, 0.0, 0.0, 1.6959317814225442E9, 0.0, 2023-09-28 15:09:41.422
80.0, 41255.12883128272, 2084.8142605798557, 31979.087827096922, 49285.41770999643, -187500.02235174447, 67943.15641440827, -187500.02235174447, -187500.02235174447, 38275.41777794573, 19047.15079631219, -187500.02235174447, 42566.058643586475, 17244.102626335934, 37715.57363457366, -187500.02235174447, -183205.78285524642, -0.028, 1.004, 0.058, 192.0, 0.0, 0.0, 0.0, 0.0, 0.0, 0.0, 0.0, 0.0, 0.0, 1.6959317814225557E9, 0.0, 2023-09-28 15:09:41.422
82.0, 41313.422180822155, 2134.3680780372715, 31790.752028316503, 48997.66135187881, -187500.02235174447, 67669.14637913065, -187500.02235174447, -187500.02235174447, 38197.633707241264, 18977.79333326737, -187500.02235174447, 42486.24056413658, 17196.694576346228, 37613.627328113005, -187500.02235174447, -183176.79264268788, -0.028, 1.004, 0.058, 192.0, 0.0, 0.0, 0.0, 0.0, 0.0, 0.0, 0.0, 0.0, 0.0, 1.6959317814225676E9, 0.0, 2023-09-28 15:09:41.422
84.0, 41258.81686911784, 2069.12333597223, 31982.395885276306, 49264.09414578607, -187500.02235174447, 67917.34014956238, -187500.02235174447, -187500.02235174447, 38122.06245923787, 18983.202455425555, -187500.02235174447, 42512.369753404826, 17267.996641158657, 37644.07040406113, -187500.02235174447, -183294.02754235597, -0.028, 1.004, 0.058, 192.0, 0.0, 0.0, 0.0, 0.0, 0.0, 0.0, 0.0, 0.0, 0.0, 1.6959317814225793E9, 0.0, 2023-09-28 15:09:41.422
86.0, 41302.380419061235, 2123.5274819764477, 31772.33419088533, 49020.46013122322, -187500.02235174447, 67687.228940395, -187500.02235174447, -187500.02235174447, 38112.898244011194, 18978.910920490136, -187500.02235174447, 42502.378523633306, 17151.92403220225, 37614.655508357944, -187500.02235174447, -183195.4339975636, -0.028, 1.004, 0.058, 192.0, 0.0, 0.0, 0.0, 0.0, 0.0, 0.0, 0.0, 0.0, 0.0, 1.6959317814225907E9, 0.0, 2023-09-28 15:09:41.422
88.0, 41228.552607125355, 2039.64138503568, 31941.715710367647, 49253.9241020589, -187500.02235174447, 67910.81344018143, -187500.02235174447, -187500.02235174447, 38011.71189686202, 18988.768039794926, -187500.02235174447, 42497.7293607866, 17219.940390579748, 37654.2851512772, -187500.02235174447, -183357.68531056467, -0.022, 1.01, 0.066, 192.0, 127.5, 40.0, 15.5, 72.0, 1.0, 8.0, 0.0, 0.0, 0.0, 1.6959317814226024E9, 0.0, 2023-09-28 15:09:41.422
90.0, 41303.52035802846, 2120.3758860082494, 31761.91827796916, 49071.60092253696, -187500.02235174447, 67740.89547883219, -187500.02235174447, -187500.02235174447, 38052.14620258167, 18943.952792162036, -187500.02235174447, 42482.61958153482, 17241.30865827902, 37612.44268565687, -187500.02235174447, -183184.74986371398, -0.022, 1.01, 0.066, 192.0, 0.0, 0.0, 0.0, 0.0, 0.0, 0.0, 0.0, 0.0, 0.0, 1.6959317814226136E9, 0.0, 2023-09-28 15:09:41.422
92.0, 41250.92670332512, 2052.3371758862945, 31936.105422509365, 49237.49556988425, -187500.02235174447, 67898.45292549765, -187500.02235174447, -187500.02235174447, 38004.961670036515, 18991.3831938962, -187500.02235174447, 42491.91790722822, 17134.48967152711, 37659.06842459064, -187500.02235174447, -183403.3499244869, -0.022, 1.01, 0.066, 192.0, 0.0, 0.0, 0.0, 0.0, 0.0, 0.0, 0.0, 0.0, 0.0, 1.6959317814226282E9, 0.0, 2023-09-28 15:09:41.422
94.0, 41299.40763704868, 2113.6927144161123, 31740.795879458892, 49094.4891088592, -187500.02235174447, 67764.40951399917, -187500.02235174447, -187500.02235174447, 37961.979265448965, 18959.95664119204, -187500.02235174447, 42517.84593079638, 17173.73933479063, 37640.807049370655, -187500.02235174447, -183210.7449425155, -0.022, 1.01, 0.066, 192.0, 0.0, 0.0, 0.0, 0.0, 0.0, 0.0, 0.0, 0.0, 0.0, 1.6959317814226398E9, 0.0, 2023-09-28 15:09:41.422
96.0, 41284.25315430798, 2083.137879745708, 31935.278407964517, 49153.96710085477, -187500.02235174447, 67815.86322973529, -187500.02235174447, -187500.02235174447, 38057.91295265114, 19000.86033354525, -187500.02235174447, 42487.827537992904, 17221.66147490281, 37644.673901161426, -187500.02235174447, -183493.5615651085, -0.022, 1.01, 0.066, 192.0, 0.0, 0.0, 0.0, 0.0, 0.0, 0.0, 0.0, 0.0, 0.0, 1.6959317814226513E9, 0.0, 2023-09-28 15:09:41.422
98.0, 41305.26379409597, 2118.0960080738078, 31814.757801861502, 49118.27136495965, -187500.02235174447, 67780.16749384016, -187500.02235174447, -187500.02235174447, 37964.03562593885, 18958.392019080165, -187500.02235174447, 42536.621396138835, 17202.97541653817, 37624.55733115165, -187500.02235174447, -183290.83124289886, -0.018000000000000002, 1.004, 0.064, 192.0, 127.5, 56.0, 15.5, 48.0, 1.0, 0.0, 0.0, 0.0, 0.0, 1.6959317814226632E9, 0.0, 2023-09-28 15:09:41.422
100.0, 41258.16866852864, 2071.067937739842, 31923.8343148034, 49126.407399941374, -187500.02235174447, 67784.88371192024, -187500.02235174447, -187500.02235174447, 37996.89269028815, 18999.09454573328, -187500.02235174447, 42493.32606712891, 17142.4468925532, 37626.83720908609, -187500.02235174447, -183547.7868971571, -0.018000000000000002, 1.004, 0.064, 192.0, 0.0, 0.0, 0.0, 0.0, 0.0, 0.0, 0.0, 0.0, 0.0, 1.695931781422675E9, 0.0, 2023-09-28 15:09:41.422
102.0, 41296.7477794585, 2101.1086822877746, 31838.897685873235, 49138.45499020279, -187500.02235174447, 67793.86911319126, -187500.02235174447, -187500.02235174447, 37897.91916584005, 18966.3268883618, -187500.02235174447, 42556.91678010426, 17207.669282873783, 37641.11997379303, -187500.02235174447, -183335.8253044874, -0.018000000000000002, 1.004, 0.064, 192.0, 0.0, 0.0, 0.0, 0.0, 0.0, 0.0, 0.0, 0.0, 0.0, 1.6959317814226863E9, 0.0, 2023-09-28 15:09:41.422
104.0, 41254.61474116024, 2056.2934346548836, 31899.20269241365, 49087.560068078055, -187500.02235174447, 67744.40470271168, -187500.02235174447, -187500.02235174447, 37923.735430685934, 18970.46196108603, -187500.02235174447, 42461.81010744692, 17126.755967945574, 37589.420388867904, -187500.02235174447, -183608.20366241978, -0.018000000000000002, 1.004, 0.064, 192.0, 0.0, 0.0, 0.0, 0.0, 0.0, 0.0, 0.0, 0.0, 0.0, 1.6959317814226997E9, 0.0, 2023-09-28 15:09:41.422
106.0, 41253.29598823738, 2054.773516031923, 31863.68577047417, 49231.8182267926, -187500.02235174447, 67888.50639921504, -187500.02235174447, -187500.02235174447, 37857.93189500951, 18934.20743157952, -187500.02235174447, 42541.53877991901, 17208.161021251803, 37634.50385743426, -187500.02235174447, -183365.21784844613, -0.018000000000000002, 1.004, 0.064, 192.0, 0.0, 0.0, 0.0, 0.0, 0.0, 0.0, 0.0, 0.0, 0.0, 1.6959317814227111E9, 0.0, 2023-09-28 15:09:41.422
108.0, 41269.97038960104, 2079.0475105103865, 31874.72753223509, 49066.84000096798, -187500.02235174447, 67731.21717348303, -187500.02235174447, -187500.02235174447, 37891.66067739257, 18955.732161489985, -187500.02235174447, 42448.4214125182, 17061.779446813995, 37586.20173766634, -187500.02235174447, -183584.71197899725, -0.006, 1.008, 0.068, 192.0, 127.5, 104.0, 15.5, 64.0, 1.0, 16.0, 0.0, 0.0, 0.0, 1.6959317814227228E9, 0.0, 2023-09-28 15:09:41.422
110.0, 41264.78478488741, 2064.228303936518, 31859.327180305387, 49246.257453710736, -187500.02235174447, 67892.48500972809, -187500.02235174447, -187500.02235174447, 37874.20396497297, 18937.917821159106, -187500.02235174447, 42537.828390339426, 17250.115245594414, 37652.7875843987, -187500.02235174447, -183412.4023809913, -0.006, 1.008, 0.068, 192.0, 0.0, 0.0, 0.0, 0.0, 0.0, 0.0, 0.0, 0.0, 0.0, 1.6959317814227343E9, 0.0, 2023-09-28 15:09:41.422
112.0, 41308.92948018664, 2109.3341242473275, 31891.22311964311, 49024.25992778062, -187500.02235174447, 67680.03167868039, -187500.02235174447, -187500.02235174447, 37941.907398928095, 18985.527036848907, -187500.02235174447, 42474.37178783081, 17097.51988619803, 37603.0773047301, -187500.02235174447, -183621.48059862622, -0.006, 1.008, 0.068, 192.0, 0.0, 0.0, 0.0, 0.0, 0.0, 0.0, 0.0, 0.0, 0.0, 1.6959317814227457E9, 0.0, 2023-09-28 15:09:41.422
114.0, 41198.847138744255, 2014.9203556681105, 31886.171625396208, 49265.59171266457, -187500.02235174447, 67912.86980067132, -187500.02235174447, -187500.02235174447, 37848.61121757165, 18959.219033625013, -187500.02235174447, 42556.760317893066, 17218.912210334805, 37665.416320015946, -187500.02235174447, -183506.39146642585, -0.006, 1.008, 0.068, 192.0, 0.0, 0.0, 0.0, 0.0, 0.0, 0.0, 0.0, 0.0, 0.0, 1.6959317814227571E9, 0.0, 2023-09-28 15:09:41.422
116.0, 41276.78767165991, 2068.095155727286, 31768.422635605653, 49011.60884041892, -187500.02235174447, 67673.72848674399, -187500.02235174447, -187500.02235174447, 37985.18037619357, 18926.22785880898, -187500.02235174447, 42417.15132202522, 17098.168086787235, 37557.56915301909, -187500.02235174447, -183664.97709333626, -0.006, 1.008, 0.068, 192.0, 0.0, 0.0, 0.0, 0.0, 0.0, 0.0, 0.0, 0.0, 0.0, 1.6959317814227707E9, 0.0, 2023-09-28 15:09:41.422
118.0, 41284.07434035234, 2063.289530669395, 31950.142318027298, 49273.68304415739, -187500.02235174447, 67920.02235889701, -187500.02235174447, -187500.02235174447, 37964.57206780578, 18968.539711062876, -187500.02235174447, 42544.08687878691, 17258.18422534278, 37660.9906746138, -187500.02235174447, -183563.56722874253, -0.01, 1.012, 0.07, 192.0, 127.5, 88.0, 15.5, 80.0, 1.0, 24.0, 0.0, 0.0, 0.0, 1.695931781422783E9, 0.0, 2023-09-28 15:09:41.422
120.0, 41264.20363953157, 2066.575237104325, 31792.607223106294, 48981.009302259605, -187500.02235174447, 67645.8111579193, -187500.02235174447, -187500.02235174447, 37991.59532685224, 18968.070324429314, -187500.02235174447, 42462.59241850286, 17099.419784476733, 37590.2250516683, -187500.02235174447, -183685.29482904612, -0.01, 1.012, 0.07, 192.0, 0.0, 0.0, 0.0, 0.0, 0.0, 0.0, 0.0, 0.0, 0.0, 1.695931781904194E9, 0.0, 2023-09-28 15:09:41.904
122.0, 41222.78585705589, 2015.613259746225, 31910.378564641305, 49299.00757062526, -187500.02235174447, 67948.76670226654, -187500.02235174447, -187500.02235174447, 37993.89755653114, 18938.18604209257, -187500.02235174447, 42498.779892776, 17300.3843188744, 37641.58936042659, -187500.02235174447, -183656.6398926544, -0.01, 1.012, 0.07, 192.0, 0.0, 0.0, 0.0, 0.0, 0.0, 0.0, 0.0, 0.0, 0.0, 1.695931781904307E9, 0.0, 2023-09-28 15:09:41.904
124.0, 41262.25903776396, 2064.541228358892, 31775.083455453332, 49005.88679383836, -187500.02235174447, 67674.68961175557, -187500.02235174447, -187500.02235174447, 37898.299145495796, 18942.187004350068, -187500.02235174447, 42437.223188546086, 17050.357705397335, 37578.57979280708, -187500.02235174447, -183695.88955591794, -0.01, 1.012, 0.07, 192.0, 0.0, 0.0, 0.0, 0.0, 0.0, 0.0, 0.0, 0.0, 0.0, 1.695931781904334E9, 0.0, 2023-09-28 15:09:41.904
126.0, 41219.43309538759, 2017.7590272139344, 31937.22300973213, 49303.56732649414, -187500.02235174447, 67957.28271690401, -187500.02235174447, -187500.02235174447, 37944.67901524055, 18956.916803946115, -187500.02235174447, 42510.89453827078, 17193.587683866943, 37664.61165721556, -187500.02235174447, -183690.52513724865, -0.01, 1.012, 0.07, 192.0, 0.0, 0.0, 0.0, 0.0, 0.0, 0.0, 0.0, 0.0, 0.0, 1.6959317819043553E9, 0.0, 2023-09-28 15:09:41.904
128.0, 41274.88777338121, 2091.877411827733, 31736.303178823375, 48978.416499902785, -187500.02235174447, 67657.23289933597, -187500.02235174447, -187500.02235174447, 37990.991829751954, 18945.025675895893, -187500.02235174447, 42444.8674851498, 17159.3001078725, 37610.118104233516, -187500.02235174447, -183697.5659367521, -0.03, 1.018, 0.07, 192.0, 127.5, 8.0, 15.5, 104.0, 1.0, 24.0, 0.0, 0.0, 0.0, 1.6959317819043748E9, 0.0, 2023-09-28 15:09:41.904
130.0, 41198.15423466614, 2008.2148323315184, 31901.907253492744, 49274.10772730204, -187500.02235174447, 67939.75894925106, -187500.02235174447, -187500.02235174447, 38033.504847705946, 18961.65537377064, -187500.02235174447, 42485.45825308064, 17198.2591984581, 37677.083930621615, -187500.02235174447, -183816.2984032987, -0.03, 1.018, 0.07, 192.0, 0.0, 0.0, 0.0, 0.0, 0.0, 0.0, 0.0, 0.0, 0.0, 1.6959317819043963E9, 0.0, 2023-09-28 15:09:41.904
132.0, 41282.107386840275, 2093.777310106434, 31733.464507277553, 49012.43585496377, -187500.02235174447, 67695.78965852137, -187500.02235174447, -187500.02235174447, 38015.95872830853, 18934.430949024078, -187500.02235174447, 42441.73824092606, 17140.323476829944, 37614.74491533577, -187500.02235174447, -183715.5143875497, -0.03, 1.018, 0.07, 192.0, 0.0, 0.0, 0.0, 0.0, 0.0, 0.0, 0.0, 0.0, 0.0, 1.6959317819044168E9, 0.0, 2023-09-28 15:09:41.904
134.0, 41192.3204293633, 2020.4412365485714, 31907.45048611766, 49292.883192644505, -187500.02235174447, 67964.547033852, -187500.02235174447, -187500.02235174447, 37993.47287338649, 18972.09363843127, -187500.02235174447, 42474.21532561962, 17245.89076589236, 37668.97024738434, -187500.02235174447, -183839.79008672122, -0.03, 1.018, 0.07, 192.0, 0.0, 0.0, 0.0, 0.0, 0.0, 0.0, 0.0, 0.0, 0.0, 1.6959317819044352E9, 0.0, 2023-09-28 15:09:41.904
136.0, 41305.956698174086, 2144.292252575428, 31719.94170188209, 49038.65445120984, -187500.02235174447, 67724.82457456882, -187500.02235174447, -187500.02235174447, 37963.54388756083, 18943.70692297303, -187500.02235174447, 42441.268854292495, 17138.20006110669, 37611.74978157876, -187500.02235174447, -183713.79330322664, -0.03, 1.018, 0.07, 192.0, 0.0, 0.0, 0.0, 0.0, 0.0, 0.0, 0.0, 0.0, 0.0, 1.695931781904455E9, 0.0, 2023-09-28 15:09:41.904
138.0, 41199.09300793326, 2044.8269897493112, 31899.381506369296, 49240.84833155255, -187500.02235174447, 67921.3858153088, -187500.02235174447, -187500.02235174447, 38035.40474598465, 19013.354958695767, -187500.02235174447, 42488.878069982304, 17208.473945674177, 37697.51342505377, -187500.02235174447, -183903.58196539665, -0.046, 1.024, 0.07, 192.0, 127.0, 72.0, 16.0, 0.0, 1.0, 24.0, 0.0, 0.0, 0.0, 1.6959317819044733E9, 0.0, 2023-09-28 15:09:41.904
140.0, 41283.0461601074, 2133.7422291925227, 31716.723050680528, 49108.749521821686, -187500.02235174447, 67801.89338945072, -187500.02235174447, -187500.02235174447, 38048.56992346882, 18952.446455055055, -187500.02235174447, 42461.81010744692, 17167.63730855433, 37626.85956083054, -187500.02235174447, -183703.39974205493, -0.046, 1.024, 0.07, 192.0, 0.0, 0.0, 0.0, 0.0, 0.0, 0.0, 0.0, 0.0, 0.0, 1.6959317819044917E9, 0.0, 2023-09-28 15:09:41.904
142.0, 41192.141615407665, 2045.9892804609872, 31796.094095241322, 49214.47327309529, -187500.02235174447, 67906.29838780146, -187500.02235174447, -187500.02235174447, 37982.92285000358, 18992.56783635233, -187500.02235174447, 42453.271741065, 17140.971677419147, 37641.991691826785, -187500.02235174447, -183918.17765452596, -0.046, 1.024, 0.07, 192.0, 0.0, 0.0, 0.0, 0.0, 0.0, 0.0, 0.0, 0.0, 0.0, 1.6959317819045124E9, 0.0, 2023-09-28 15:09:41.904
144.0, 41251.50784868096, 2117.1125313177745, 31657.69209357406, 49138.90202509189, -187500.02235174447, 67839.93605851366, -187500.02235174447, -187500.02235174447, 37952.70329150001, 18942.254059583433, -187500.02235174447, 42457.60797948933, 17131.87451742584, 37610.96747052282, -187500.02235174447, -183745.19750418633, -0.046, 1.024, 0.07, 192.0, 0.0, 0.0, 0.0, 0.0, 0.0, 0.0, 0.0, 0.0, 0.0, 1.6959317819045312E9, 0.0, 2023-09-28 15:09:41.904
146.0, 41219.25428143195, 2081.148574489185, 31784.784112546935, 49199.25173512122, -187500.02235174447, 67900.3751755208, -187500.02235174447, -187500.02235174447, 38011.15310325064, 18997.932255021602, -187500.02235174447, 42435.14447631175, 17151.052314168493, 37622.4786189173, -187500.02235174447, -183963.685806237, -0.046, 1.024, 0.07, 192.0, 0.0, 0.0, 0.0, 0.0, 0.0, 0.0, 0.0, 0.0, 0.0, 1.6959317819045496E9, 0.0, 2023-09-28 15:09:41.904
148.0, 41251.59725565878, 2110.8540428702886, 31669.98555302448, 49206.806624747114, -187500.02235174447, 67912.82509718242, -187500.02235174447, -187500.02235174447, 38096.22384264754, 18968.76322850743, -187500.02235174447, 42497.03645670849, 17190.16786696528, 37631.17344751042, -187500.02235174447, -183718.2636521177, -0.054, 1.014, 0.07200000000000001, 192.0, 127.0, 40.0, 15.5, 88.0, 1.0, 32.0, 0.0, 0.0, 0.0, 1.6959317819045691E9, 0.0, 2023-09-28 15:09:41.904
150.0, 41214.94039475208, 2083.6519698681795, 31747.411995817663, 49171.937903396836, -187500.02235174447, 67879.16337003272, -187500.02235174447, -187500.02235174447, 38018.28330973188, 18985.012946726438, -187500.02235174447, 42419.49825519303, 17133.01445639306, 37597.13174070499, -187500.02235174447, -183966.25625684933, -0.054, 1.014, 0.07200000000000001, 192.0, 0.0, 0.0, 0.0, 0.0, 0.0, 0.0, 0.0, 0.0, 0.0, 1.695931781904588E9, 0.0, 2023-09-28 15:09:41.904
152.0, 41232.41945891613, 2110.027028325442, 31682.927213064104, 49240.33424143008, -187500.02235174447, 67938.14962365027, -187500.02235174447, -187500.02235174447, 37987.43790238356, 18960.873062714705, -187500.02235174447, 42480.11618615582, 17171.5041603451, 37624.75849685175, -187500.02235174447, -183773.04777777765, -0.054, 1.014, 0.07200000000000001, 192.0, 0.0, 0.0, 0.0, 0.0, 0.0, 0.0, 0.0, 0.0, 0.0, 1.6959317819046075E9, 0.0, 2023-09-28 15:09:41.904
154.0, 41243.05888927685, 2116.8219586398554, 31762.164147158164, 49119.97009753825, -187500.02235174447, 67816.17615415766, -187500.02235174447, -187500.02235174447, 38050.08984209178, 18985.348222893266, -187500.02235174447, 42410.758723111, 17094.2341797631, 37603.21141519683, -187500.02235174447, -184026.1365802451, -0.054, 1.014, 0.07200000000000001, 192.0, 0.0, 0.0, 0.0, 0.0, 0.0, 0.0, 0.0, 0.0, 0.0, 1.695931781904626E9, 0.0, 2023-09-28 15:09:41.904
156.0, 41220.26010993244, 2108.283592257928, 31772.28948739642, 49277.013454081236, -187500.02235174447, 67963.67531581824, -187500.02235174447, -187500.02235174447, 37985.046265726836, 18991.56200785184, -187500.02235174447, 42526.38429717831, 17195.644044356828, 37680.70491322338, -187500.02235174447, -183839.47716229883, -0.054, 1.014, 0.07200000000000001, 192.0, 0.0, 0.0, 0.0, 0.0, 0.0, 0.0, 0.0, 0.0, 0.0, 1.695931781904647E9, 0.0, 2023-09-28 15:09:41.904
158.0, 41236.26395896244, 2123.9745168655536, 31757.872612222745, 49082.64268429788, -187500.02235174447, 67777.21706357207, -187500.02235174447, -187500.02235174447, 38069.222935345526, 18988.790391539384, -187500.02235174447, 42418.33596448135, 17061.824150302906, 37618.6788223599, -187500.02235174447, -184042.69922288647, -0.034, 1.01, 0.064, 192.0, 127.0, 120.0, 15.5, 72.0, 1.0, 0.0, 0.0, 0.0, 0.0, 1.6959317819046657E9, 0.0, 2023-09-28 15:09:41.904
160.0, 41213.599290084756, 2094.7607868624673, 31805.77240059047, 49315.90548943347, -187500.02235174447, 68006.36714772787, -187500.02235174447, -187500.02235174447, 38019.780876610384, 18980.60965306874, -187500.02235174447, 42517.42124765173, 17252.685696206772, 37675.899288165485, -187500.02235174447, -183880.3585029076, -0.034, 1.01, 0.064, 192.0, 0.0, 0.0, 0.0, 0.0, 0.0, 0.0, 0.0, 0.0, 0.0, 1.6959317819046845E9, 0.0, 2023-09-28 15:09:41.904
162.0, 41242.52244740992, 2130.1659500796736, 31737.957207913067, 49048.86919842591, -187500.02235174447, 67766.48822623352, -187500.02235174447, -187500.02235174447, 38081.40463607367, 18987.873970016717, -187500.02235174447, 42427.63429017476, 17039.22653665859, 37608.70994433283, -187500.02235174447, -184038.20652225096, -0.034, 1.01, 0.064, 192.0, 0.0, 0.0, 0.0, 0.0, 0.0, 0.0, 0.0, 0.0, 0.0, 1.6959317819047034E9, 0.0, 2023-09-28 15:09:41.904
164.0, 41216.86264477523, 2102.583897421825, 31817.887046085245, 49303.343809049584, -187500.02235174447, 68015.7548803991, -187500.02235174447, -187500.02235174447, 37967.164870162596, 18993.260740430444, -187500.02235174447, 42535.41440193825, 17230.780986640573, 37706.85645423609, -187500.02235174447, -183914.19904401293, -0.034, 1.01, 0.064, 192.0, 0.0, 0.0, 0.0, 0.0, 0.0, 0.0, 0.0, 0.0, 0.0, 1.6959317819047213E9, 0.0, 2023-09-28 15:09:41.904
166.0, 41261.94611334159, 2158.2620928599945, 31691.264413745932, 48972.38152889985, -187500.02235174447, 67719.6389698552, -187500.02235174447, -187500.02235174447, 38101.32004038335, 18984.923539748615, -187500.02235174447, 42430.27179602049, 17088.758002371553, 37615.30370894715, -187500.02235174447, -184052.89161835812, -0.034, 1.01, 0.064, 192.0, 0.0, 0.0, 0.0, 0.0, 0.0, 0.0, 0.0, 0.0, 0.0, 1.6959317819047384E9, 0.0, 2023-09-28 15:09:41.904
168.0, 41192.65570553013, 2081.193277978096, 31849.559467978415, 49271.71609064533, -187500.02235174447, 68016.47013622167, -187500.02235174447, -187500.02235174447, 37990.54479486284, 18992.701946819063, -187500.02235174447, 42535.10147751588, 17215.626503899875, 37696.395837831005, -187500.02235174447, -183987.73628327087, -0.022, 1.012, 0.08, 192.0, 127.5, 40.0, 15.5, 80.0, 1.0, 64.0, 0.0, 0.0, 0.0, 1.695931781904761E9, 0.0, 2023-09-28 15:09:41.904
170.0, 41243.39416544368, 2138.212578083584, 31707.581187198306, 48964.580770084955, -187500.02235174447, 67736.84981308578, -187500.02235174447, -187500.02235174447, 38048.6816821911, 18941.807024694328, -187500.02235174447, 42409.86465333279, 17028.47534757559, 37571.67310377039, -187500.02235174447, -184039.189999007, -0.022, 1.012, 0.08, 192.0, 0.0, 0.0, 0.0, 0.0, 0.0, 0.0, 0.0, 0.0, 0.0, 1.695931781904796E9, 0.0, 2023-09-28 15:09:41.904
172.0, 41179.98226642398, 2078.645179110191, 31878.616735770316, 49259.668500383916, -187500.02235174447, 68027.82482240496, -187500.02235174447, -187500.02235174447, 38018.66328938762, 18979.22384491251, -187500.02235174447, 42507.02768648001, 17237.151233810335, 37673.08296836412, -187500.02235174447, -184022.8285220657, -0.022, 1.012, 0.08, 192.0, 0.0, 0.0, 0.0, 0.0, 0.0, 0.0, 0.0, 0.0, 0.0, 1.6959317819048164E9, 0.0, 2023-09-28 15:09:41.904
174.0, 41261.94611334159, 2153.545874779925, 31702.03795457339, 48940.396182584314, -187500.02235174447, 67737.20744099707, -187500.02235174447, -187500.02235174447, 38051.20742931455, 18953.2734695999, -187500.02235174447, 42429.84711287584, 17124.096110355393, 37602.2726419297, -187500.02235174447, -184034.3843739491, -0.022, 1.012, 0.08, 192.0, 0.0, 0.0, 0.0, 0.0, 0.0, 0.0, 0.0, 0.0, 0.0, 1.6959317819048529E9, 0.0, 2023-09-28 15:09:41.904
176.0, 41228.64201410318, 2115.033819083431, 31897.280442390496, 49191.76390072869, -187500.02235174447, 67980.88615904882, -187500.02235174447, -187500.02235174447, 38059.857554418755, 19003.631949857707, -187500.02235174447, 42513.37558190532, 17195.06289900099, 37694.67475350795, -187500.02235174447, -184108.83803472974, -0.022, 1.012, 0.08, 192.0, 0.0, 0.0, 0.0, 0.0, 0.0, 0.0, 0.0, 0.0, 0.0, 1.6959317819048753E9, 0.0, 2023-09-28 15:09:41.904
178.0, 41251.485496936504, 2150.193113111629, 31702.37323074022, 48921.3971997973, -187500.02235174447, 67740.42609219863, -187500.02235174447, -187500.02235174447, 38030.979100582495, 18971.60190005325, -187500.02235174447, 42470.03554940648, 17089.026223305016, 37622.2327497283, -187500.02235174447, -184043.97327232044, -0.01, 1.006, 0.084, 192.0, 127.5, 88.0, 15.5, 56.0, 1.0, 80.0, 0.0, 0.0, 0.0, 1.6959317819048948E9, 0.0, 2023-09-28 15:09:41.904
180.0, 41220.41657214363, 2104.640257911713, 31915.40770714375, 49168.87571440646, -187500.02235174447, 67985.96000504018, -187500.02235174447, -187500.02235174447, 38018.66328938762, 19013.24319997349, -187500.02235174447, 42515.431942395204, 17185.429297140756, 37691.47845405083, -187500.02235174447, -184144.84669504725, -0.01, 1.006, 0.084, 192.0, 0.0, 0.0, 0.0, 0.0, 0.0, 0.0, 0.0, 0.0, 0.0, 1.6959317819049158E9, 0.0, 2023-09-28 15:09:41.904
182.0, 41230.87718854871, 2131.663516958179, 31679.596803140263, 48928.77327546755, -187500.02235174447, 67772.25497630298, -187500.02235174447, -187500.02235174447, 38064.57377249882, 18956.536824290375, -187500.02235174447, 42477.635142521285, 17122.419729521243, 37609.000517010754, -187500.02235174447, -184000.76735028834, -0.01, 1.006, 0.084, 192.0, 0.0, 0.0, 0.0, 0.0, 0.0, 0.0, 0.0, 0.0, 0.0, 1.6959317819049375E9, 0.0, 2023-09-28 15:09:41.904
184.0, 41216.12503720821, 2094.6266763957356, 31874.59342176836, 49123.07699001754, -187500.02235174447, 67967.9444990092, -187500.02235174447, -187500.02235174447, 38192.06812287189, 18977.99449896747, -187500.02235174447, 42474.46119480863, 17227.897611605837, 37646.059709317655, -187500.02235174447, -184190.31014326934, -0.01, 1.006, 0.084, 192.0, 0.0, 0.0, 0.0, 0.0, 0.0, 0.0, 0.0, 0.0, 0.0, 1.6959317819049609E9, 0.0, 2023-09-28 15:09:41.904
186.0, 41259.71093889605, 2157.9044649487096, 31720.209922815553, 48920.23490908562, -187500.02235174447, 67790.31518582287, -187500.02235174447, -187500.02235174447, 37936.47592502546, 18976.94396697807, -187500.02235174447, 42505.95480274616, 17126.308933056465, 37642.30461624916, -187500.02235174447, -184044.42030720954, -0.01, 1.006, 0.084, 192.0, 0.0, 0.0, 0.0, 0.0, 0.0, 0.0, 0.0, 0.0, 0.0, 1.6959317819049828E9, 0.0, 2023-09-28 15:09:41.904
188.0, 41186.41956882711, 2072.9454842740874, 31866.837366442367, 49072.00325393716, -187500.02235174447, 67937.88140271681, -187500.02235174447, -187500.02235174447, 38080.55526978437, 18991.070269473825, -187500.02235174447, 42481.5243460565, 17183.238826184133, 37643.77983138321, -187500.02235174447, -184265.70257731708, -0.014, 1.014, 0.082, 192.0, 127.5, 72.0, 15.5, 88.0, 1.0, 72.0, 0.0, 0.0, 0.0, 1.6959317819050002E9, 0.0, 2023-09-28 15:09:41.905
190.0, 41281.10155833978, 2155.5351800364474, 31738.80657420237, 48943.23485413013, -187500.02235174447, 67817.67372103616, -187500.02235174447, -187500.02235174447, 38045.798307156365, 18952.602917266242, -187500.02235174447, 42490.26387813853, 17127.404168534777, 37606.899453031954, -187500.02235174447, -184067.95669412098, -0.014, 1.014, 0.082, 192.0, 0.0, 0.0, 0.0, 0.0, 0.0, 0.0, 0.0, 0.0, 0.0, 1.695931781905018E9, 0.0, 2023-09-28 15:09:41.905
192.0, 41225.132790223695, 2106.517804445959, 31886.104570162843, 48993.28040996557, -187500.02235174447, 67871.54142517346, -187500.02235174447, -187500.02235174447, 38103.175235173134, 19019.501688420976, -187500.02235174447, 42487.26874438152, 17154.20391013669, 37647.937255851895, -187500.02235174447, -184320.86668263277, -0.014, 1.014, 0.082, 192.0, 0.0, 0.0, 0.0, 0.0, 0.0, 0.0, 0.0, 0.0, 0.0, 1.6959317819050367E9, 0.0, 2023-09-28 15:09:41.905
194.0, 41279.35812227227, 2161.324281850372, 31756.687969766615, 48928.21448185617, -187500.02235174447, 67817.98664545854, -187500.02235174447, -187500.02235174447, 38000.33485893427, 18971.154865164146, -187500.02235174447, 42507.74294230258, 17192.805372811006, 37639.465944703334, -187500.02235174447, -184137.962357755, -0.014, 1.014, 0.082, 192.0, 0.0, 0.0, 0.0, 0.0, 0.0, 0.0, 0.0, 0.0, 0.0, 1.6959317819050577E9, 0.0, 2023-09-28 15:09:41.905
196.0, 41213.55458659585, 2101.6004206657913, 31865.608020497326, 48928.41564755626, -187500.02235174447, 67824.7592240285, -187500.02235174447, -187500.02235174447, 38115.289880667915, 19024.754348367973, -187500.02235174447, 42470.99667441806, 17174.11931444637, 37643.13163079401, -187500.02235174447, -184407.4796923971, -0.014, 1.014, 0.082, 192.0, 0.0, 0.0, 0.0, 0.0, 0.0, 0.0, 0.0, 0.0, 0.0, 1.6959317819050765E9, 0.0, 2023-09-28 15:09:41.905
198.0, 41234.8334473173, 2121.0017348529977, 31772.75887402998, 48987.088976751445, -187500.02235174447, 67889.48987597106, -187500.02235174447, -187500.02235174447, 38011.51073116192, 18964.382286594187, -187500.02235174447, 42514.62727959482, 17150.49352055711, 37637.051956302166, -187500.02235174447, -184152.4239364176, -0.02, 1.006, 0.08, 192.0, 127.5, 48.0, 15.5, 56.0, 1.0, 64.0, 0.0, 0.0, 0.0, 1.695931781905095E9, 0.0, 2023-09-28 15:09:41.905
200.0, 41222.53998786688, 2103.925002089143, 31834.337930004353, 48908.857871157874, -187500.02235174447, 67824.82627926186, -187500.02235174447, -187500.02235174447, 38109.63488932072, 18994.80301079786, -187500.02235174447, 42439.68188043617, 17100.894999610784, 37610.0286972557, -187500.02235174447, -184391.43113987817, -0.02, 1.006, 0.08, 192.0, 0.0, 0.0, 0.0, 0.0, 0.0, 0.0, 0.0, 0.0, 0.0, 1.6959317819051132E9, 0.0, 2023-09-28 15:09:41.905
202.0, 41233.26882520543, 2122.320487775861, 31798.396324920217, 49025.8692533814, -187500.02235174447, 67948.90081273328, -187500.02235174447, -187500.02235174447, 38030.219141271016, 18964.225824383, -187500.02235174447, 42517.13067497381, 17226.154175538322, 37647.60197968507, -187500.02235174447, -184160.80584058832, -0.02, 1.006, 0.08, 192.0, 0.0, 0.0, 0.0, 0.0, 0.0, 0.0, 0.0, 0.0, 0.0, 1.6959317819051309E9, 0.0, 2023-09-28 15:09:41.905
204.0, 41233.76056358344, 2118.0960080738078, 31805.10184825681, 48852.35266117485, -187500.02235174447, 67791.34336606781, -187500.02235174447, -187500.02235174447, 38059.499926507466, 19015.456022674563, -187500.02235174447, 42445.09100259435, 17081.113705767835, 37633.36391846704, -187500.02235174447, -184403.41167490624, -0.02, 1.006, 0.08, 192.0, 0.0, 0.0, 0.0, 0.0, 0.0, 0.0, 0.0, 0.0, 0.0, 1.6959317819051497E9, 0.0, 2023-09-28 15:09:41.905
206.0, 41225.199845457064, 2108.574164935847, 31819.42931645266, 49044.89058791287, -187500.02235174447, 67976.72873458013, -187500.02235174447, -187500.02235174447, 38017.14337076466, 18979.693231546073, -187500.02235174447, 42519.67877384171, 17206.01525378409, 37679.14029111151, -187500.02235174447, -184216.9757744045, -0.02, 1.006, 0.08, 192.0, 0.0, 0.0, 0.0, 0.0, 0.0, 0.0, 0.0, 0.0, 0.0, 1.6959317819051697E9, 0.0, 2023-09-28 15:09:41.905
208.0, 41221.981194255495, 2119.5935749523132, 31748.417824318152, 48806.151605385734, -187500.02235174447, 67755.46881621705, -187500.02235174447, -187500.02235174447, 38081.5387465404, 18981.257853657946, -187500.02235174447, 42418.3136127369, 17094.725918141117, 37600.99859249575, -187500.02235174447, -184402.96464001713, -0.026000000000000002, 1.012, 0.074, 192.0, 127.5, 24.0, 15.5, 80.0, 1.0, 40.0, 0.0, 0.0, 0.0, 1.6959317819051883E9, 0.0, 2023-09-28 15:09:41.905
210.0, 41258.906276095666, 2142.1017816188078, 31856.35439829283, 49021.84593937945, -187500.02235174447, 67960.27785066102, -187500.02235174447, -187500.02235174447, 38096.35795311427, 19015.09839476328, -187500.02235174447, 42532.32986120342, 17220.566239424497, 37694.630050019034, -187500.02235174447, -184270.26233318596, -0.026000000000000002, 1.012, 0.074, 192.0, 0.0, 0.0, 0.0, 0.0, 0.0, 0.0, 0.0, 0.0, 0.0, 1.6959317819052124E9, 0.0, 2023-09-28 15:09:41.905
212.0, 41241.136639253695, 2130.188301824129, 31752.374083086743, 48759.92819785216, -187500.02235174447, 67715.61565585324, -187500.02235174447, -187500.02235174447, 38063.92557190962, 19018.160583753655, -187500.02235174447, 42452.802354431435, 17110.841525893393, 37622.4786189173, -187500.02235174447, -184431.3737072198, -0.026000000000000002, 1.012, 0.074, 192.0, 0.0, 0.0, 0.0, 0.0, 0.0, 0.0, 0.0, 0.0, 0.0, 1.6959317819052331E9, 0.0, 2023-09-28 15:09:41.905
214.0, 41227.81499955833, 2107.0989498017966, 31885.992811440567, 49035.949890130745, -187500.02235174447, 67986.16117074028, -187500.02235174447, -187500.02235174447, 38028.162780781124, 18995.09358347578, -187500.02235174447, 42529.222968724134, 17224.433091215265, 37663.47171824834, -187500.02235174447, -184328.9580141256, -0.026000000000000002, 1.012, 0.074, 192.0, 0.0, 0.0, 0.0, 0.0, 0.0, 0.0, 0.0, 0.0, 0.0, 1.6959317819052527E9, 0.0, 2023-09-28 15:09:41.905
216.0, 41277.41352050466, 2164.900560963221, 31757.313818611365, 48720.11974097726, -187500.02235174447, 67698.56127483383, -187500.02235174447, -187500.02235174447, 38119.15673245868, 19007.297635948376, -187500.02235174447, 42440.12891532528, 17123.179688832723, 37586.15703417743, -187500.02235174447, -184449.4339167397, -0.026000000000000002, 1.012, 0.074, 192.0, 0.0, 0.0, 0.0, 0.0, 0.0, 0.0, 0.0, 0.0, 0.0, 1.695931781905269E9, 0.0, 2023-09-28 15:09:41.905
218.0, 41203.98803996897, 2082.0202925229423, 31899.64972730276, 49042.43189602279, -187500.02235174447, 68009.6528541628, -187500.02235174447, -187500.02235174447, 38039.33865300878, 19017.71354886455, -187500.02235174447, 42535.05677402697, 17253.08802760697, 37670.19959332938, -187500.02235174447, -184407.1220644858, -0.026000000000000002, 1.014, 0.074, 192.0, 127.5, 24.0, 15.5, 88.0, 1.0, 40.0, 0.0, 0.0, 0.0, 1.6959317819052868E9, 0.0, 2023-09-28 15:09:41.905
220.0, 41284.007285118976, 2168.6333022872573, 31708.542312209884, 48713.77184555195, -187500.02235174447, 67707.18904819358, -187500.02235174447, -187500.02235174447, 38100.42597060513, 18987.337528149787, -187500.02235174447, 42439.48071473607, 17081.493685423575, 37586.000571966244, -187500.02235174447, -184427.39509670678, -0.026000000000000002, 1.014, 0.074, 192.0, 0.0, 0.0, 0.0, 0.0, 0.0, 0.0, 0.0, 0.0, 0.0, 1.6959317819053068E9, 0.0, 2023-09-28 15:09:41.905
222.0, 41244.44469743308, 2122.923984876154, 31918.60400660086, 48993.34746519893, -187500.02235174447, 67970.44789438818, -187500.02235174447, -187500.02235174447, 38106.907976497176, 19043.82038638835, -187500.02235174447, 42554.74866089209, 17216.341759722443, 37701.648497778, -187500.02235174447, -184472.45621352867, -0.026000000000000002, 1.014, 0.074, 192.0, 0.0, 0.0, 0.0, 0.0, 0.0, 0.0, 0.0, 0.0, 0.0, 1.695931781905325E9, 0.0, 2023-09-28 15:09:41.905
224.0, 41269.74687215649, 2150.3048718339055, 31727.831867674813, 48714.15182520769, -187500.02235174447, 67709.33481566129, -187500.02235174447, -187500.02235174447, 38064.86434517674, 18999.13924922219, -187500.02235174447, 42483.87127922431, 17093.51892394053, 37612.152112978954, -187500.02235174447, -184441.8343236249, -0.026000000000000002, 1.014, 0.074, 192.0, 0.0, 0.0, 0.0, 0.0, 0.0, 0.0, 0.0, 0.0, 0.0, 1.6959317819053423E9, 0.0, 2023-09-28 15:09:41.905
226.0, 41216.952051753055, 2086.445937925093, 31921.934416524702, 49006.75851187212, -187500.02235174447, 67997.15822901229, -187500.02235174447, -187500.02235174447, 38083.259830863455, 19003.922522535628, -187500.02235174447, 42521.399858164776, 17207.579875895965, 37663.29290429269, -187500.02235174447, -184518.56786233996, -0.026000000000000002, 1.014, 0.074, 192.0, 0.0, 0.0, 0.0, 0.0, 0.0, 0.0, 0.0, 0.0, 0.0, 1.6959317819053602E9, 0.0, 2023-09-28 15:09:41.905
228.0, 41278.754625171976, 2158.1056306488076, 31718.55589372586, 48713.92830776314, -187500.02235174447, 67729.1384612487, -187500.02235174447, -187500.02235174447, 38075.30260983737, 18979.335603634787, -187500.02235174447, 42484.050093179954, 17121.123328342837, 37595.12008370401, -187500.02235174447, -184445.25414052655, -0.034, 1.016, 0.074, 192.0, 127.0, 120.0, 15.5, 96.0, 1.0, 40.0, 0.0, 0.0, 0.0, 1.6959317819053783E9, 0.0, 2023-09-28 15:09:41.905
230.0, 41217.712011064534, 2080.7238913445344, 31920.12392522382, 48954.14250542432, -187500.02235174447, 67954.01936221354, -187500.02235174447, -187500.02235174447, 38113.01000273347, 19017.512383164452, -187500.02235174447, 42521.91394828725, 17191.68778558824, 37651.96056985385, -187500.02235174447, -184594.45203476574, -0.034, 1.016, 0.074, 192.0, 0.0, 0.0, 0.0, 0.0, 0.0, 0.0, 0.0, 0.0, 0.0, 1.6959317819053962E9, 0.0, 2023-09-28 15:09:41.905
232.0, 41257.18519177261, 2126.8131884113777, 31744.126289382733, 48762.45394497561, -187500.02235174447, 67776.9488426386, -187500.02235174447, -187500.02235174447, 38080.890545951195, 18970.260795385933, -187500.02235174447, 42486.79935774796, 17162.4517038407, 37603.412580896926, -187500.02235174447, -184464.11901284684, -0.034, 1.016, 0.074, 192.0, 0.0, 0.0, 0.0, 0.0, 0.0, 0.0, 0.0, 0.0, 0.0, 1.695931781905416E9, 0.0, 2023-09-28 15:09:41.905
234.0, 41237.04627001837, 2099.968743320554, 31922.64967234727, 48915.94337415021, -187500.02235174447, 67923.57628626541, -187500.02235174447, -187500.02235174447, 38140.3014827134, 19004.70483359156, -187500.02235174447, 42488.967476960126, 17158.473093327655, 37639.063613303144, -187500.02235174447, -184617.20611062125, -0.034, 1.016, 0.074, 192.0, 0.0, 0.0, 0.0, 0.0, 0.0, 0.0, 0.0, 0.0, 0.0, 1.6959317819054337E9, 0.0, 2023-09-28 15:09:41.905
236.0, 41261.7896511304, 2136.670307716168, 31755.033940676924, 48773.54041022545, -187500.02235174447, 67790.29283407841, -187500.02235174447, -187500.02235174447, 38094.34629611329, 18984.52120834842, -187500.02235174447, 42509.17345394772, 17173.515817346077, 37639.24242725878, -187500.02235174447, -184460.09569884487, -0.034, 1.016, 0.074, 192.0, 0.0, 0.0, 0.0, 0.0, 0.0, 0.0, 0.0, 0.0, 0.0, 1.695931781905454E9, 0.0, 2023-09-28 15:09:41.905
238.0, 41215.65565057465, 2074.3983476636827, 31888.652669030747, 48887.86958311434, -187500.02235174447, 67901.06807959892, -187500.02235174447, -187500.02235174447, 38114.865197523264, 18994.08775497529, -187500.02235174447, 42466.88395343828, 17186.2563116856, 37635.30852023465, -187500.02235174447, -184677.19819273928, -0.03, 1.012, 0.076, 192.0, 127.5, 8.0, 15.5, 80.0, 1.0, 48.0, 0.0, 0.0, 0.0, 1.695931781905471E9, 0.0, 2023-09-28 15:09:41.905
240.0, 41285.48250025303, 2152.2941770904276, 31761.38183610223, 48789.07487262188, -187500.02235174447, 67812.5998750448, -187500.02235174447, -187500.02235174447, 38071.27929583541, 18974.440571599076, -187500.02235174447, 42513.50969237205, 17158.562500305474, 37634.92854057891, -187500.02235174447, -184496.32787660693, -0.03, 1.012, 0.076, 192.0, 0.0, 0.0, 0.0, 0.0, 0.0, 0.0, 0.0, 0.0, 0.0, 1.6959317819054873E9, 0.0, 2023-09-28 15:09:41.905
242.0, 41219.85777853224, 2082.154402989674, 31868.245526343053, 48821.41784684871, -187500.02235174447, 67844.67462833818, -187500.02235174447, -187500.02235174447, 38158.071119555374, 19016.66301687515, -187500.02235174447, 42484.765349002526, 17161.11059917338, 37647.244351773785, -187500.02235174447, -184751.607150031, -0.03, 1.012, 0.076, 192.0, 0.0, 0.0, 0.0, 0.0, 0.0, 0.0, 0.0, 0.0, 0.0, 1.6959317823822565E9, 0.0, 2023-09-28 15:09:42.382
244.0, 41266.05883432136, 2127.8860721452324, 31788.80742654889, 48821.50725382653, -187500.02235174447, 67846.19454696114, -187500.02235174447, -187500.02235174447, 38112.20533993308, 18976.698097789063, -187500.02235174447, 42521.19869246468, 17215.917076577793, 37636.49316269078, -187500.02235174447, -184544.4511824192, -0.03, 1.012, 0.076, 192.0, 0.0, 0.0, 0.0, 0.0, 0.0, 0.0, 0.0, 0.0, 0.0, 1.6959317823822844E9, 0.0, 2023-09-28 15:09:42.382
246.0, 41222.137656466686, 2079.2710279549397, 31852.912229646714, 48779.06129110591, -187500.02235174447, 67810.38705234374, -187500.02235174447, -187500.02235174447, 38140.07796526885, 19000.56976086733, -187500.02235174447, 42456.73626145557, 17109.34395901489, 37621.71865960582, -187500.02235174447, -184795.34951393004, -0.03, 1.012, 0.076, 192.0, 0.0, 0.0, 0.0, 0.0, 0.0, 0.0, 0.0, 0.0, 0.0, 1.6959317823822985E9, 0.0, 2023-09-28 15:09:42.382
248.0, 41265.65650292117, 2115.346743505805, 31806.1076767573, 48859.61697812283, -187500.02235174447, 67895.05546034045, -187500.02235174447, -187500.02235174447, 38099.487197338014, 18966.37159185071, -187500.02235174447, 42520.036401753, 17202.036643271047, 37644.42803197241, -187500.02235174447, -184580.83982239245, -0.026000000000000002, 1.012, 0.068, 192.0, 127.5, 24.0, 15.5, 80.0, 1.0, 16.0, 0.0, 0.0, 0.0, 1.6959317823823118E9, 0.0, 2023-09-28 15:09:42.382
250.0, 41242.41068868765, 2099.678170642635, 31835.410813738206, 48746.00306105651, -187500.02235174447, 67788.68350847764, -187500.02235174447, -187500.02235174447, 38175.93016337516, 19005.062461502846, -187500.02235174447, 42454.92577015469, 17141.642229752808, 37615.59428162507, -187500.02235174447, -184816.15898801794, -0.026000000000000002, 1.012, 0.068, 192.0, 0.0, 0.0, 0.0, 0.0, 0.0, 0.0, 0.0, 0.0, 0.0, 1.6959317823823245E9, 0.0, 2023-09-28 15:09:42.382
252.0, 41264.65067442068, 2121.962859864576, 31847.45840399962, 48903.20287981068, -187500.02235174447, 67936.45089107167, -187500.02235174447, -187500.02235174447, 38133.037165765425, 18975.066420443825, -187500.02235174447, 42541.67289038574, 17241.17454781229, 37666.06452060515, -187500.02235174447, -184602.43160753627, -0.026000000000000002, 1.012, 0.068, 192.0, 0.0, 0.0, 0.0, 0.0, 0.0, 0.0, 0.0, 0.0, 0.0, 1.695931782382337E9, 0.0, 2023-09-28 15:09:42.382
254.0, 41259.19684877359, 2120.241775541517, 31818.401136207718, 48693.56586856436, -187500.02235174447, 67740.98488581002, -187500.02235174447, -187500.02235174447, 38163.21202078009, 19017.154755253167, -187500.02235174447, 42465.34168307087, 17106.594694446885, 37618.54471189317, -187500.02235174447, -184848.5913692226, -0.026000000000000002, 1.012, 0.068, 192.0, 0.0, 0.0, 0.0, 0.0, 0.0, 0.0, 0.0, 0.0, 0.0, 1.6959317823823504E9, 0.0, 2023-09-28 15:09:42.382
0.0, 41237.158028740654, 2089.0387402819088, 31868.15611936523, 48950.47681933366, -187500.02235174447, 67981.69082184922, -187500.02235174447, -187500.02235174447, 38125.03524125043, 18976.072248944314, -187500.02235174447, 42543.59514040889, 17268.667193492318, 37666.01981711624, -187500.02235174447, -184671.11851824744, -0.026000000000000002, 1.012, 0.068, 192.0, 0.0, 0.0, 0.0, 0.0, 0.0, 0.0, 0.0, 0.0, 0.0, 1.6959317823823628E9, 0.0, 2023-09-28 15:09:42.382
2.0, 41259.50977319596, 2112.0386853264195, 31786.99693524801, 48692.76120576396, -187500.02235174447, 67739.6884846316, -187500.02235174447, -187500.02235174447, 38164.150794047215, 18975.155827421648, -187500.02235174447, 42448.756688685025, 17096.71522339764, 37584.83828125457, -187500.02235174447, -184834.64388068247, -0.034, 1.014, 0.068, 192.0, 127.0, 120.0, 15.5, 88.0, 1.0, 16.0, 0.0, 0.0, 0.0, 1.6959317823823774E9, 0.0, 2023-09-28 15:09:42.382
4.0, 41217.42143838661, 2067.6481208381797, 31868.469043787605, 48955.59536881392, -187500.02235174447, 67985.58002538444, -187500.02235174447, -187500.02235174447, 38159.56868643388, 18977.256891400444, -187500.02235174447, 42542.54460841949, 17235.005466342624, 37668.21028807286, -187500.02235174447, -184735.82681844555, -0.034, 1.014, 0.068, 192.0, 0.0, 0.0, 0.0, 0.0, 0.0, 0.0, 0.0, 0.0, 0.0, 1.695931782382392E9, 0.0, 2023-09-28 15:09:42.382
6.0, 41278.620514705246, 2124.6674209436683, 31759.638400034717, 48654.20444657856, -187500.02235174447, 67698.11423994473, -187500.02235174447, -187500.02235174447, 38137.529866400946, 18964.695211016562, -187500.02235174447, 42439.592473458346, 17085.71816512563, 37567.895658957445, -187500.02235174447, -184865.4892880308, -0.034, 1.014, 0.068, 192.0, 0.0, 0.0, 0.0, 0.0, 0.0, 0.0, 0.0, 0.0, 0.0, 1.6959317823824048E9, 0.0, 2023-09-28 15:09:42.382
8.0, 41217.89082502018, 2062.93190275811, 31906.42230587272, 48953.91898797977, -187500.02235174447, 67982.6966503497, -187500.02235174447, -187500.02235174447, 38103.465807851055, 18986.21994092702, -187500.02235174447, 42550.188905023206, 17268.980117914693, 37658.844907146085, -187500.02235174447, -184816.38250546248, -0.034, 1.014, 0.068, 192.0, 0.0, 0.0, 0.0, 0.0, 0.0, 0.0, 0.0, 0.0, 0.0, 1.6959317823824172E9, 0.0, 2023-09-28 15:09:42.382
10.0, 41282.55442172938, 2133.4516565146037, 31779.1514729442, 48643.94499587357, -187500.02235174447, 67694.51560908742, -187500.02235174447, -187500.02235174447, 38176.26543954199, 18967.51153081793, -187500.02235174447, 42467.01806390501, 17098.391604231787, 37574.8694032275, -187500.02235174447, -184871.34544507807, -0.034, 1.014, 0.068, 192.0, 0.0, 0.0, 0.0, 0.0, 0.0, 0.0, 0.0, 0.0, 0.0, 1.6959317823824296E9, 0.0, 2023-09-28 15:09:42.382
12.0, 41206.759656281436, 2044.2011409045626, 31909.775067541013, 48962.59146482843, -187500.02235174447, 68000.6003976584, -187500.02235174447, -187500.02235174447, 38216.67739351719, 18991.785525296393, -187500.02235174447, 42558.68256791623, 17262.52046376711, 37670.6913317074, -187500.02235174447, -184874.83231721312, -0.034, 1.012, 0.07, 192.0, 127.0, 120.0, 15.5, 80.0, 1.0, 24.0, 0.0, 0.0, 0.0, 1.695931782382442E9, 0.0, 2023-09-28 15:09:42.382
14.0, 41281.5932967178, 2121.7616941644783, 31743.791013215905, 48654.91970240113, -187500.02235174447, 67714.4310133971, -187500.02235174447, -187500.02235174447, 38135.562912888876, 18950.144225376156, -187500.02235174447, 42467.554505771936, 17105.454755479666, 37572.20954563732, -187500.02235174447, -184864.37170080803, -0.034, 1.012, 0.07, 192.0, 0.0, 0.0, 0.0, 0.0, 0.0, 0.0, 0.0, 0.0, 0.0, 1.6959317823824563E9, 0.0, 2023-09-28 15:09:42.382
16.0, 41204.09979869125, 2043.2623676374399, 31912.390221642283, 48933.73536273663, -187500.02235174447, 67981.4449526602, -187500.02235174447, -187500.02235174447, 38136.59109313382, 18979.313251890333, -187500.02235174447, 42540.13062001832, 17239.408760000322, 37649.278360519216, -187500.02235174447, -184937.39484994352, -0.034, 1.012, 0.07, 192.0, 0.0, 0.0, 0.0, 0.0, 0.0, 0.0, 0.0, 0.0, 0.0, 1.6959317823824687E9, 0.0, 2023-09-28 15:09:42.382
18.0, 41281.28037229543, 2116.8219586398554, 31711.76096341145, 48669.04600489688, -187500.02235174447, 67733.85467932877, -187500.02235174447, -187500.02235174447, 38177.74065467604, 18929.31239954381, -187500.02235174447, 42473.991808175066, 17154.986221192627, 37579.18328990737, -187500.02235174447, -184871.61366601154, -0.034, 1.012, 0.07, 192.0, 0.0, 0.0, 0.0, 0.0, 0.0, 0.0, 0.0, 0.0, 0.0, 1.695931782382481E9, 0.0, 2023-09-28 15:09:42.382
20.0, 41220.75184831046, 2056.2487311659734, 31916.972329255623, 48926.269880088556, -187500.02235174447, 67977.26517644706, -187500.02235174447, -187500.02235174447, 38245.51114386453, 18989.058612472847, -187500.02235174447, 42529.26767221304, 17211.491431175644, 37659.336645524105, -187500.02235174447, -184974.1187660836, -0.034, 1.012, 0.07, 192.0, 0.0, 0.0, 0.0, 0.0, 0.0, 0.0, 0.0, 0.0, 0.0, 1.6959317823824935E9, 0.0, 2023-09-28 15:09:42.382
22.0, 41286.73419794252, 2124.9132901326766, 31723.205056572566, 48673.337539832304, -187500.02235174447, 67739.59907765378, -187500.02235174447, -187500.02235174447, 38172.331532517856, 18956.4250655681, -187500.02235174447, 42490.30858162744, 17166.318555631467, 37599.568080850615, -187500.02235174447, -184850.379508779, -0.036000000000000004, 1.012, 0.076, 192.0, 127.0, 112.0, 15.5, 80.0, 1.0, 48.0, 0.0, 0.0, 0.0, 1.695931782382506E9, 0.0, 2023-09-28 15:09:42.382
24.0, 41215.65565057465, 2040.8260274918114, 31923.968425270134, 48896.87733612983, -187500.02235174447, 67948.65494354427, -187500.02235174447, -187500.02235174447, 38187.68718095865, 18993.19368519708, -187500.02235174447, 42503.94314574518, 17253.93739389627, 37653.4357849879, -187500.02235174447, -185052.19340946598, -0.036000000000000004, 1.012, 0.076, 192.0, 0.0, 0.0, 0.0, 0.0, 0.0, 0.0, 0.0, 0.0, 0.0, 1.6959317823825183E9, 0.0, 2023-09-28 15:09:42.382
26.0, 41272.89846812469, 2115.5926126948134, 31751.323551097343, 48709.72617980554, -187500.02235174447, 67775.74184843802, -187500.02235174447, -187500.02235174447, 38165.961285348094, 18964.628155783197, -187500.02235174447, 42499.89747999877, 17151.991087435614, 37607.50295013225, -187500.02235174447, -184885.9858376963, -0.036000000000000004, 1.012, 0.076, 192.0, 0.0, 0.0, 0.0, 0.0, 0.0, 0.0, 0.0, 0.0, 0.0, 1.6959317823825307E9, 0.0, 2023-09-28 15:09:42.382
28.0, 41221.712973322035, 2044.3128996268392, 31903.024840715512, 48856.778306577005, -187500.02235174447, 67911.90867565974, -187500.02235174447, -187500.02235174447, 38224.09817267635, 19003.028452757415, -187500.02235174447, 42495.65064855226, 17186.59158785243, 37630.63700564349, -187500.02235174447, -185104.3847327691, -0.036000000000000004, 1.012, 0.076, 192.0, 0.0, 0.0, 0.0, 0.0, 0.0, 0.0, 0.0, 0.0, 0.0, 1.6959317823825448E9, 0.0, 2023-09-28 15:09:42.382
30.0, 41258.59335167329, 2091.4080251941714, 31736.973731157035, 48752.619177415276, -187500.02235174447, 67811.9069709667, -187500.02235174447, -187500.02235174447, 38143.29661647041, 18954.61457426722, -187500.02235174447, 42508.74877080307, 17207.982207296158, 37608.59818561056, -187500.02235174447, -184911.01979148627, -0.036000000000000004, 1.012, 0.076, 192.0, 0.0, 0.0, 0.0, 0.0, 0.0, 0.0, 0.0, 0.0, 0.0, 1.6959317823825572E9, 0.0, 2023-09-28 15:09:42.382
32.0, 41240.086107264295, 2059.64619632318, 31897.12398017931, 48821.060218937426, -187500.02235174447, 67875.38592521977, -187500.02235174447, -187500.02235174447, 38203.512216033014, 19008.61638887124, -187500.02235174447, 42483.49129956857, 17195.73345133465, 37633.6321394005, -187500.02235174447, -185144.59552104422, -0.036000000000000004, 1.018, 0.07200000000000001, 192.0, 127.0, 112.0, 15.5, 104.0, 1.0, 32.0, 0.0, 0.0, 0.0, 1.69593178238257E9, 0.0, 2023-09-28 15:09:42.382
34.0, 41251.351386469774, 2081.2379814670066, 31776.648077565205, 48814.689971767664, -187500.02235174447, 67871.45201819563, -187500.02235174447, -187500.02235174447, 38173.67263718518, 18974.88760648818, -187500.02235174447, 42536.33082346092, 17194.034718756047, 37642.39402322698, -187500.02235174447, -184929.7058498509, -0.036000000000000004, 1.018, 0.07200000000000001, 192.0, 0.0, 0.0, 0.0, 0.0, 0.0, 0.0, 0.0, 0.0, 0.0, 1.6959317823825824E9, 0.0, 2023-09-28 15:09:42.382
36.0, 41225.199845457064, 2057.8357050223, 31858.611924482815, 48816.63457353527, -187500.02235174447, 67870.96027981762, -187500.02235174447, -187500.02235174447, 38263.16902198423, 18991.584359596298, -187500.02235174447, 42463.24061909207, 17154.516834559065, 37631.5310754217, -187500.02235174447, -185153.82679150425, -0.036000000000000004, 1.018, 0.07200000000000001, 192.0, 0.0, 0.0, 0.0, 0.0, 0.0, 0.0, 0.0, 0.0, 0.0, 1.6959317823825948E9, 0.0, 2023-09-28 15:09:42.382
38.0, 41266.103537810275, 2111.3457812483052, 31780.269060166964, 48854.94546353167, -187500.02235174447, 67903.95145463366, -187500.02235174447, -187500.02235174447, 38147.11876477227, 18980.877874002206, -187500.02235174447, 42532.59808213688, 17215.134765521856, 37679.207346344876, -187500.02235174447, -184935.89728306502, -0.036000000000000004, 1.018, 0.07200000000000001, 192.0, 0.0, 0.0, 0.0, 0.0, 0.0, 0.0, 0.0, 0.0, 0.0, 1.6959317823826072E9, 0.0, 2023-09-28 15:09:42.382
40.0, 41247.55158991237, 2092.8832403282213, 31820.54690367543, 48759.79408738543, -187500.02235174447, 67816.39967160221, -187500.02235174447, -187500.02235174447, 38228.27794888949, 19030.05171180388, -187500.02235174447, 42470.72845348459, 17159.031886939036, 37656.11799432254, -187500.02235174447, -185193.29997221232, -0.036000000000000004, 1.018, 0.07200000000000001, 192.0, 0.0, 0.0, 0.0, 0.0, 0.0, 0.0, 0.0, 0.0, 0.0, 1.6959317823826213E9, 0.0, 2023-09-28 15:09:42.382
42.0, 41253.54185742639, 2110.3623044922715, 31817.954101318614, 48910.08721710291, -187500.02235174447, 67963.42944662922, -187500.02235174447, -187500.02235174447, 38167.436500482145, 18991.673766574117, -187500.02235174447, 42545.40563170977, 17266.968460913715, 37685.17526211444, -187500.02235174447, -184974.9010771395, -0.038, 1.018, 0.08, 192.0, 127.0, 104.0, 15.5, 104.0, 1.0, 64.0, 0.0, 0.0, 0.0, 1.6959317823826337E9, 0.0, 2023-09-28 15:09:42.382
44.0, 41244.80232534437, 2114.095045816308, 31799.826836565357, 48765.22556128807, -187500.02235174447, 67828.29079965244, -187500.02235174447, -187500.02235174447, 38214.4198673272, 19005.822420814326, -187500.02235174447, 42454.52343875449, 17114.931895128717, 37623.55150265116, -187500.02235174447, -185174.39039640315, -0.038, 1.018, 0.08, 192.0, 0.0, 0.0, 0.0, 0.0, 0.0, 0.0, 0.0, 0.0, 0.0, 1.695931782382646E9, 0.0, 2023-09-28 15:09:42.382
46.0, 41230.49720889297, 2118.900670874199, 31813.371993705274, 48954.03074670205, -187500.02235174447, 68004.89193259382, -187500.02235174447, -187500.02235174447, 38175.349018019326, 19003.319025435332, -187500.02235174447, 42536.75550660557, 17246.13663508137, 37676.88276492152, -187500.02235174447, -184988.3568273016, -0.038, 1.018, 0.08, 192.0, 0.0, 0.0, 0.0, 0.0, 0.0, 0.0, 0.0, 0.0, 0.0, 1.6959317823826585E9, 0.0, 2023-09-28 15:09:42.382
48.0, 41242.79066834339, 2131.954089636098, 31758.63257153423, 48739.811627842384, -187500.02235174447, 67801.28989235043, -187500.02235174447, -187500.02235174447, 38225.08164943238, 18988.991557239482, -187500.02235174447, 42434.3174617669, 17120.184555075713, 37620.31049970514, -187500.02235174447, -185167.23783817745, -0.038, 1.018, 0.08, 192.0, 0.0, 0.0, 0.0, 0.0, 0.0, 0.0, 0.0, 0.0, 0.0, 1.695931782382671E9, 0.0, 2023-09-28 15:09:42.382
50.0, 41238.767354341435, 2134.7927611819223, 31831.96864509209, 48965.02780497406, -187500.02235174447, 68018.28062752254, -187500.02235174447, -187500.02235174447, 38182.14394833374, 19003.319025435332, -187500.02235174447, 42546.56792242145, 17267.75077196965, 37706.722343769354, -187500.02235174447, -185010.6191647791, -0.038, 1.018, 0.08, 192.0, 0.0, 0.0, 0.0, 0.0, 0.0, 0.0, 0.0, 0.0, 0.0, 1.6959317823826835E9, 0.0, 2023-09-28 15:09:42.382
52.0, 41226.29508093537, 2135.6868309601346, 31748.060196406866, 48703.22182216905, -187500.02235174447, 67770.77976116893, -187500.02235174447, -187500.02235174447, 38217.079724917385, 19029.515269936954, -187500.02235174447, 42455.752784699536, 17136.076645383437, 37655.04511058868, -187500.02235174447, -185190.32719019978, -0.038, 1.014, 0.076, 192.0, 127.0, 104.0, 15.5, 88.0, 1.0, 48.0, 0.0, 0.0, 0.0, 1.6959317823826976E9, 0.0, 2023-09-28 15:09:42.382
54.0, 41186.93365894957, 2092.838536839311, 31827.431240967664, 49002.60108740343, -187500.02235174447, 68057.95497393071, -187500.02235174447, -187500.02235174447, 38146.58232290534, 18978.79916176786, -187500.02235174447, 42502.75850328905, 17294.148182171368, 37685.66700049245, -187500.02235174447, -185067.52670616232, -0.038, 1.014, 0.076, 192.0, 0.0, 0.0, 0.0, 0.0, 0.0, 0.0, 0.0, 0.0, 0.0, 1.69593178238271E9, 0.0, 2023-09-28 15:09:42.382
56.0, 41250.74788936948, 2165.1017266633185, 31708.743477909982, 48683.4405283261, -187500.02235174447, 67755.8934993617, -187500.02235174447, -187500.02235174447, 38191.44227402715, 18997.52992362141, -187500.02235174447, 42430.67412742068, 17090.881418094807, 37632.04516554417, -187500.02235174447, -185178.68193133856, -0.038, 1.014, 0.076, 192.0, 0.0, 0.0, 0.0, 0.0, 0.0, 0.0, 0.0, 0.0, 0.0, 1.695931782382723E9, 0.0, 2023-09-28 15:09:42.382
58.0, 41213.01814472892, 2117.5372144624253, 31873.431131056685, 48987.714825596195, -187500.02235174447, 68040.78883418904, -187500.02235174447, -187500.02235174447, 38190.48114901557, 19025.201383257077, -187500.02235174447, 42528.865340812845, 17286.61564428993, 37729.878751025055, -187500.02235174447, -185160.26409390738, -0.038, 1.014, 0.076, 192.0, 0.0, 0.0, 0.0, 0.0, 0.0, 0.0, 0.0, 0.0, 0.0, 1.695931782382736E9, 0.0, 2023-09-28 15:09:42.382
60.0, 41251.50784868096, 2166.5992935418244, 31715.560759968852, 48690.23545864051, -187500.02235174447, 67758.8439296298, -187500.02235174447, -187500.02235174447, 38227.42858260019, 18999.63098760021, -187500.02235174447, 42452.511781753514, 17109.925104370726, 37651.3347210091, -187500.02235174447, -185174.4574516365, -0.038, 1.014, 0.076, 192.0, 0.0, 0.0, 0.0, 0.0, 0.0, 0.0, 0.0, 0.0, 0.0, 1.6959317823827484E9, 0.0, 2023-09-28 15:09:42.382
62.0, 41201.19407191206, 2112.150444048696, 31902.64486105977, 48990.55349714202, -187500.02235174447, 68043.47104352368, -187500.02235174447, -187500.02235174447, 38264.44307141818, 19017.825307586827, -187500.02235174447, 42527.65834661226, 17261.805207944537, 37735.33257667215, -187500.02235174447, -185190.52835589988, -0.028, 1.01, 0.082, 192.0, 127.5, 16.0, 15.5, 72.0, 1.0, 72.0, 0.0, 0.0, 0.0, 1.695931782382761E9, 0.0, 2023-09-28 15:09:42.382
64.0, 41240.220217731025, 2156.1610288811958, 31710.576320955315, 48717.795159553905, -187500.02235174447, 67788.9517294111, -187500.02235174447, -187500.02235174447, 38147.096413027815, 18972.115990175724, -187500.02235174447, 42460.53605801297, 17152.795750236004, 37641.45524995986, -187500.02235174447, -185137.3535558407, -0.028, 1.01, 0.082, 192.0, 0.0, 0.0, 0.0, 0.0, 0.0, 0.0, 0.0, 0.0, 0.0, 1.6959317823827744E9, 0.0, 2023-09-28 15:09:42.382
66.0, 41178.46234780101, 2090.5586589048694, 31907.383430884296, 49000.41061644681, -187500.02235174447, 68048.54488951503, -187500.02235174447, -187500.02235174447, 38172.64445694023, 18999.362766666745, -187500.02235174447, 42506.021857979526, 17211.40202419782, 37695.23354711933, -187500.02235174447, -185223.34071676026, -0.028, 1.01, 0.082, 192.0, 0.0, 0.0, 0.0, 0.0, 0.0, 0.0, 0.0, 0.0, 0.0, 1.6959317823827899E9, 0.0, 2023-09-28 15:09:42.382
68.0, 41253.89948533768, 2177.551648324925, 31689.11864627822, 48724.567738123864, -187500.02235174447, 67783.83317993084, -187500.02235174447, -187500.02235174447, 38192.15752984971, 18964.80696973884, -187500.02235174447, 42459.57493300139, 17119.558706230964, 37624.82555208511, -187500.02235174447, -185132.21265461596, -0.028, 1.01, 0.082, 192.0, 0.0, 0.0, 0.0, 0.0, 0.0, 0.0, 0.0, 0.0, 0.0, 1.6959317823828037E9, 0.0, 2023-09-28 15:09:42.382
70.0, 41196.99194395446, 2102.8074148663777, 31896.07344818991, 48962.2561886616, -187500.02235174447, 68007.03770006153, -187500.02235174447, -187500.02235174447, 38220.61130054132, 19020.060482032357, -187500.02235174447, 42503.11613120033, 17247.209518815223, 37700.97794544434, -187500.02235174447, -185295.89447926218, -0.028, 1.01, 0.082, 192.0, 0.0, 0.0, 0.0, 0.0, 0.0, 0.0, 0.0, 0.0, 0.0, 1.695931782382819E9, 0.0, 2023-09-28 15:09:42.382
72.0, 41245.3834707002, 2167.6945290201343, 31711.76096341145, 48775.10503233731, -187500.02235174447, 67834.68339856666, -187500.02235174447, -187500.02235174447, 38198.25955608601, 18963.66703077162, -187500.02235174447, 42477.09870065436, 17169.02311671056, 37645.29975000617, -187500.02235174447, -185132.3020615938, -0.03, 1.012, 0.078, 192.0, 127.5, 8.0, 15.5, 80.0, 1.0, 56.0, 0.0, 0.0, 0.0, 1.6959317823828332E9, 0.0, 2023-09-28 15:09:42.382
74.0, 41182.95504843653, 2102.315676488361, 31875.867471202313, 48947.19111289873, -187500.02235174447, 67997.82878134595, -187500.02235174447, -187500.02235174447, 38229.015556456514, 19013.734938351507, -187500.02235174447, 42485.86058448083, 17195.219361212177, 37691.52315753975, -187500.02235174447, -185312.74769458149, -0.03, 1.012, 0.078, 192.0, 0.0, 0.0, 0.0, 0.0, 0.0, 0.0, 0.0, 0.0, 0.0, 1.6959317823828473E9, 0.0, 2023-09-28 15:09:42.382
76.0, 41271.065625079355, 2186.9393809961534, 31733.844486933293, 48807.4703583086, -187500.02235174447, 67862.51132041351, -187500.02235174447, -187500.02235174447, 38210.06127715841, 18972.004231453448, -187500.02235174447, 42493.773102018014, 17178.70142205971, 37657.168526311936, -187500.02235174447, -185130.82684645973, -0.03, 1.012, 0.078, 192.0, 0.0, 0.0, 0.0, 0.0, 0.0, 0.0, 0.0, 0.0, 0.0, 1.6959317823828616E9, 0.0, 2023-09-28 15:09:42.382
78.0, 41198.288345132874, 2118.8559673852883, 31893.815921999925, 48924.21351959867, -187500.02235174447, 67968.57034785395, -187500.02235174447, -187500.02235174447, 38241.532533351485, 19030.23052575952, -187500.02235174447, 42495.06950319642, 17195.018195512082, 37704.710686768376, -187500.02235174447, -185357.36177651427, -0.03, 1.012, 0.078, 192.0, 0.0, 0.0, 0.0, 0.0, 0.0, 0.0, 0.0, 0.0, 0.0, 1.6959317823828769E9, 0.0, 2023-09-28 15:09:42.382
80.0, 41249.5855986578, 2174.936494223654, 31737.443117790597, 48853.60435886435, -187500.02235174447, 67893.13321031729, -187500.02235174447, -187500.02235174447, 38163.256724269006, 18972.808894253838, -187500.02235174447, 42508.391142891785, 17192.984186766647, 37673.57470674213, -187500.02235174447, -185133.03966916082, -0.03, 1.012, 0.078, 192.0, 0.0, 0.0, 0.0, 0.0, 0.0, 0.0, 0.0, 0.0, 0.0, 1.6959317823828905E9, 0.0, 2023-09-28 15:09:42.382
82.0, 41186.79954848284, 2113.759769649478, 31847.525459232984, 48905.05807460047, -187500.02235174447, 67940.96594345164, -187500.02235174447, -187500.02235174447, 38275.12720526781, 19020.418109943643, -187500.02235174447, 42463.419433047704, 17197.678053102263, 37677.59802074409, -187500.02235174447, -185369.0517388644, -0.03, 1.016, 0.08, 192.0, 127.5, 8.0, 15.5, 96.0, 1.0, 64.0, 0.0, 0.0, 0.0, 1.6959317823829043E9, 0.0, 2023-09-28 15:09:42.382
84.0, 41239.84023807529, 2161.480744061559, 31725.976672885023, 48892.45169072768, -187500.02235174447, 67931.24293461358, -187500.02235174447, -187500.02235174447, 38168.82230863837, 18978.083905945292, -187500.02235174447, 42503.74198004508, 17228.41170172831, 37675.98869514331, -187500.02235174447, -185141.01924193135, -0.03, 1.016, 0.08, 192.0, 0.0, 0.0, 0.0, 0.0, 0.0, 0.0, 0.0, 0.0, 0.0, 1.6959317823829172E9, 0.0, 2023-09-28 15:09:42.382
86.0, 41198.1765864106, 2119.8841476302323, 31814.623691394772, 48853.73846933109, -187500.02235174447, 67893.24496903956, -187500.02235174447, -187500.02235174447, 38248.126297965806, 19008.951665038072, -187500.02235174447, 42445.11335433881, 17156.86376772687, 37664.92458163793, -187500.02235174447, -185375.48904126754, -0.03, 1.016, 0.08, 192.0, 0.0, 0.0, 0.0, 0.0, 0.0, 0.0, 0.0, 0.0, 0.0, 1.695931782382936E9, 0.0, 2023-09-28 15:09:42.382
88.0, 41226.451543146555, 2154.9540346806093, 31777.408036876684, 48945.67119427576, -187500.02235174447, 67975.83466480192, -187500.02235174447, -187500.02235174447, 38212.02823067048, 18982.598958325263, -187500.02235174447, 42505.64187832378, 17235.966591354205, 37686.873994693044, -187500.02235174447, -185128.23404410292, -0.03, 1.016, 0.08, 192.0, 0.0, 0.0, 0.0, 0.0, 0.0, 0.0, 0.0, 0.0, 0.0, 1.6959317823829608E9, 0.0, 2023-09-28 15:09:42.382
90.0, 41201.59640331226, 2122.923984876154, 31786.99693524801, 48820.009686948026, -187500.02235174447, 67852.765959831, -187500.02235174447, -187500.02235174447, 38257.84930680386, 19008.728147593516, -187500.02235174447, 42421.80048487193, 17129.214659835656, 37639.063613303144, -187500.02235174447, -185363.5532097284, -0.03, 1.016, 0.08, 192.0, 0.0, 0.0, 0.0, 0.0, 0.0, 0.0, 0.0, 0.0, 0.0, 1.695931782382974E9, 0.0, 2023-09-28 15:09:42.382
92.0, 41194.84617648675, 2116.665496428668, 31787.063990481376, 48997.79546234554, -187500.02235174447, 68017.16304029978, -187500.02235174447, -187500.02235174447, 38184.3120675459, 18957.430894068588, -187500.02235174447, 42498.15404393125, 17277.965519185724, 37664.96928512684, -187500.02235174447, -185162.61102707518, -0.032, 1.014, 0.074, 192.0, 127.5, 0.0, 15.5, 88.0, 1.0, 40.0, 0.0, 0.0, 0.0, 1.6959317823829904E9, 0.0, 2023-09-28 15:09:42.382
94.0, 41218.47197037601, 2140.5595112513915, 31748.775452229438, 48783.2634190635, -187500.02235174447, 67811.48228782204, -187500.02235174447, -187500.02235174447, 38241.86780951832, 18975.3793448662, -187500.02235174447, 42407.02598178697, 17123.62672372183, 37613.51556939072, -187500.02235174447, -185367.30830279688, -0.032, 1.014, 0.074, 192.0, 0.0, 0.0, 0.0, 0.0, 0.0, 0.0, 0.0, 0.0, 0.0, 1.6959317823830056E9, 0.0, 2023-09-28 15:09:42.383
96.0, 41246.99279630098, 2160.4525638166147, 31831.119278802787, 48965.11721195188, -187500.02235174447, 67975.99112701311, -187500.02235174447, -187500.02235174447, 38234.24586465906, 19007.498801648475, -187500.02235174447, 42528.91004430176, 17279.083106408492, 37705.42594259095, -187500.02235174447, -185220.01030683643, -0.032, 1.014, 0.074, 192.0, 0.0, 0.0, 0.0, 0.0, 0.0, 0.0, 0.0, 0.0, 0.0, 1.6959317823830192E9, 0.0, 2023-09-28 15:09:42.383
98.0, 41226.76446756893, 2146.549778765414, 31746.875553950737, 48707.33454314883, -187500.02235174447, 67728.7361298485, -187500.02235174447, -187500.02235174447, 38302.999830603585, 19011.589170883795, -187500.02235174447, 42441.894703137245, 17167.16792192077, 37640.739994137286, -187500.02235174447, -185418.9184807442, -0.032, 1.014, 0.074, 192.0, 0.0, 0.0, 0.0, 0.0, 0.0, 0.0, 0.0, 0.0, 0.0, 1.6959317823830333E9, 0.0, 2023-09-28 15:09:42.383
100.0, 41220.61773784372, 2119.0347813409307, 31862.657590229228, 48995.5155844111, -187500.02235174447, 68002.36618547037, -187500.02235174447, -187500.02235174447, 38222.55590230893, 18996.90407477666, -187500.02235174447, 42524.73026808861, 17279.440734319774, 37696.32878259764, -187500.02235174447, -185310.46781664705, -0.032, 1.014, 0.074, 192.0, 0.0, 0.0, 0.0, 0.0, 0.0, 0.0, 0.0, 0.0, 0.0, 1.6959317823830469E9, 0.0, 2023-09-28 15:09:42.383
102.0, 41227.16679896913, 2136.200921082607, 31699.26633826093, 48723.15957822318, -187500.02235174447, 67752.22781327103, -187500.02235174447, -187500.02235174447, 38284.29142049449, 18964.829321483296, -187500.02235174447, 42422.314574994394, 17149.86767171236, 37598.49519711676, -187500.02235174447, -185377.4112912907, -0.036000000000000004, 1.02, 0.076, 192.0, 127.0, 112.0, 15.5, 112.0, 1.0, 48.0, 0.0, 0.0, 0.0, 1.6959317823830607E9, 0.0, 2023-09-28 15:09:42.383
104.0, 41206.80435977034, 2106.4954527015034, 31860.936505906167, 49027.36682025991, -187500.02235174447, 68042.66638072328, -187500.02235174447, -187500.02235174447, 38247.075765976406, 18998.51340037744, -187500.02235174447, 42525.713744844645, 17305.435813121298, 37684.61646850306, -187500.02235174447, -185314.62524111572, -0.036000000000000004, 1.02, 0.076, 192.0, 0.0, 0.0, 0.0, 0.0, 0.0, 0.0, 0.0, 0.0, 0.0, 1.6959317823830771E9, 0.0, 2023-09-28 15:09:42.383
106.0, 41256.40288071667, 2164.118249907285, 31691.286765490386, 48732.1002760053, -187500.02235174447, 67770.93622338012, -187500.02235174447, -187500.02235174447, 38274.36724595633, 18969.65729828564, -187500.02235174447, 42437.75963041301, 17137.127177372837, 37612.286223445684, -187500.02235174447, -185336.1499710262, -0.036000000000000004, 1.02, 0.076, 192.0, 0.0, 0.0, 0.0, 0.0, 0.0, 0.0, 0.0, 0.0, 0.0, 1.6959317828631682E9, 0.0, 2023-09-28 15:09:42.863
108.0, 41206.22321441451, 2111.859871370777, 31859.55069774994, 49031.5242447286, -187500.02235174447, 68050.35538081592, -187500.02235174447, -187500.02235174447, 38264.77834758501, 19017.780604097916, -187500.02235174447, 42526.60781462286, 17290.795420503073, 37720.53572184274, -187500.02235174447, -185324.1470842537, -0.036000000000000004, 1.02, 0.076, 192.0, 0.0, 0.0, 0.0, 0.0, 0.0, 0.0, 0.0, 0.0, 0.0, 1.695931782863218E9, 0.0, 2023-09-28 15:09:42.863
110.0, 41247.90921782365, 2159.2679213604833, 31687.75518986645, 48746.56185466789, -187500.02235174447, 67780.23454907353, -187500.02235174447, -187500.02235174447, 38258.13987948178, 18982.1295716917, -187500.02235174447, 42446.87914215078, 17172.86761675687, 37626.99367129728, -187500.02235174447, -185304.27638343294, -0.036000000000000004, 1.02, 0.076, 192.0, 0.0, 0.0, 0.0, 0.0, 0.0, 0.0, 0.0, 0.0, 0.0, 1.695931782863248E9, 0.0, 2023-09-28 15:09:42.863
112.0, 41181.52453679139, 2084.5013361574815, 31859.617752983304, 49043.48242801219, -187500.02235174447, 68058.558471031, -187500.02235174447, -187500.02235174447, 38235.96694898212, 18997.0828887323, -187500.02235174447, 42502.311468399945, 17277.451429063254, 37687.790416215714, -187500.02235174447, -185367.01773011897, -0.034, 1.02, 0.08600000000000001, 192.0, 127.0, 120.0, 15.5, 112.0, 1.0, 88.0, 0.0, 0.0, 0.0, 1.6959317828632743E9, 0.0, 2023-09-28 15:09:42.863
114.0, 41258.41453771765, 2169.1920958986398, 31683.575413653307, 48764.48795372104, -187500.02235174447, 67797.28893009292, -187500.02235174447, -187500.02235174447, 38282.88326059381, 18971.154865164146, -187500.02235174447, 42454.81401143241, 17202.72954734916, 37609.492255388766, -187500.02235174447, -185306.489206134, -0.034, 1.02, 0.08600000000000001, 192.0, 0.0, 0.0, 0.0, 0.0, 0.0, 0.0, 0.0, 0.0, 0.0, 1.695931782863299E9, 0.0, 2023-09-28 15:09:42.863
116.0, 41186.620734527205, 2092.1009292722856, 31893.570052810916, 49023.47761672469, -187500.02235174447, 68035.98320913115, -187500.02235174447, -187500.02235174447, 38262.99020802858, 19002.447307401577, -187500.02235174447, 42501.64091606628, 17270.2765190931, 37681.643686490504, -187500.02235174447, -185427.56860584838, -0.034, 1.02, 0.08600000000000001, 192.0, 0.0, 0.0, 0.0, 0.0, 0.0, 0.0, 0.0, 0.0, 0.0, 1.6959317828633263E9, 0.0, 2023-09-28 15:09:42.863
118.0, 41244.48940092199, 2149.7460782225226, 31713.571454712328, 48821.127274170794, -187500.02235174447, 67842.17123295918, -187500.02235174447, -187500.02235174447, 38239.49852460605, 18950.121873631702, -187500.02235174447, 42463.1735638587, 17175.281605158045, 37616.44364791437, -187500.02235174447, -185293.14521469417, -0.034, 1.02, 0.08600000000000001, 192.0, 0.0, 0.0, 0.0, 0.0, 0.0, 0.0, 0.0, 0.0, 0.0, 1.6959317828633468E9, 0.0, 2023-09-28 15:09:42.863
120.0, 41215.32037440781, 2117.939545862621, 31905.21531167213, 48998.51071816811, -187500.02235174447, 68000.42158370276, -187500.02235174447, -187500.02235174447, 38313.79572317549, 19010.00219702747, -187500.02235174447, 42480.80909023394, 17237.397102999344, 37682.6942184799, -187500.02235174447, -185444.89120780127, -0.034, 1.02, 0.08600000000000001, 192.0, 0.0, 0.0, 0.0, 0.0, 0.0, 0.0, 0.0, 0.0, 0.0, 1.695931782863374E9, 0.0, 2023-09-28 15:09:42.863
122.0, 41274.32897976982, 2178.4233663586815, 31737.510173023962, 48825.19529166166, -187500.02235174447, 67827.53084034096, -187500.02235174447, -187500.02235174447, 38236.23516991558, 18986.04112697138, -187500.02235174447, 42501.50680559955, 17235.78777739856, 37666.15392758297, -187500.02235174447, -185286.37263612423, -0.03, 1.004, 0.078, 192.0, 127.5, 8.0, 15.5, 48.0, 1.0, 56.0, 0.0, 0.0, 0.0, 1.6959317828633993E9, 0.0, 2023-09-28 15:09:42.863
124.0, 41196.34374336526, 2091.4974321719924, 31890.820788242912, 48968.93936025374, -187500.02235174447, 67959.87551926084, -187500.02235174447, -187500.02235174447, 38310.15238882928, 19018.585266898306, -187500.02235174447, 42478.193936132666, 17265.64970799085, 37670.02077937374, -187500.02235174447, -185511.34294406688, -0.03, 1.004, 0.078, 192.0, 0.0, 0.0, 0.0, 0.0, 0.0, 0.0, 0.0, 0.0, 0.0, 1.695931782863422E9, 0.0, 2023-09-28 15:09:42.863
126.0, 41249.45148819107, 2148.9414154221317, 31736.37023405674, 48878.34773997638, -187500.02235174447, 67875.36357347532, -187500.02235174447, -187500.02235174447, 38248.30511192144, 18954.81573996732, -187500.02235174447, 42481.9266774567, 17228.299943006034, 37621.85277007255, -187500.02235174447, -185298.24141242998, -0.03, 1.004, 0.078, 192.0, 0.0, 0.0, 0.0, 0.0, 0.0, 0.0, 0.0, 0.0, 0.0, 1.6959317828634465E9, 0.0, 2023-09-28 15:09:42.863
128.0, 41220.08129597679, 2110.4070079811822, 31871.799453711446, 48930.58376676843, -187500.02235174447, 67919.24004784109, -187500.02235174447, -187500.02235174447, 38282.14565302678, 19004.973054525024, -187500.02235174447, 42450.65658696373, 17206.372881695377, 37622.2327497283, -187500.02235174447, -185535.86280773437, -0.03, 1.004, 0.078, 192.0, 0.0, 0.0, 0.0, 0.0, 0.0, 0.0, 0.0, 0.0, 0.0, 1.6959317828634732E9, 0.0, 2023-09-28 15:09:42.863
130.0, 41265.745909898986, 2165.548761552425, 31776.223394420555, 48898.73253091962, -187500.02235174447, 67883.7231259016, -187500.02235174447, -187500.02235174447, 38274.52370816752, 18996.971130010024, -187500.02235174447, 42518.248262196576, 17243.02974260208, 37649.16660179694, -187500.02235174447, -185343.45899146306, -0.03, 1.004, 0.078, 192.0, 0.0, 0.0, 0.0, 0.0, 0.0, 0.0, 0.0, 0.0, 0.0, 1.695931782863498E9, 0.0, 2023-09-28 15:09:42.863
132.0, 41228.95493852555, 2118.341877262816, 31865.943296664158, 48885.07561505742, -187500.02235174447, 67862.95835530262, -187500.02235174447, -187500.02235174447, 38327.63145299333, 19020.105185521268, -187500.02235174447, 42460.60311324634, 17230.982152340668, 37640.87410460402, -187500.02235174447, -185585.9977705476, -0.026000000000000002, 1.004, 0.084, 192.0, 127.5, 24.0, 15.5, 48.0, 1.0, 80.0, 0.0, 0.0, 0.0, 1.695931782863516E9, 0.0, 2023-09-28 15:09:42.863
134.0, 41263.60014243128, 2153.8140957133887, 31814.802505350413, 48933.73536273663, -187500.02235174447, 67903.37030927782, -187500.02235174447, -187500.02235174447, 38250.65204508925, 19002.76023182395, -187500.02235174447, 42529.647651868785, 17286.213312889733, 37657.48145073431, -187500.02235174447, -185382.48513728206, -0.026000000000000002, 1.004, 0.084, 192.0, 0.0, 0.0, 0.0, 0.0, 0.0, 0.0, 0.0, 0.0, 0.0, 1.69593178286353E9, 0.0, 2023-09-28 15:09:42.863
136.0, 41227.90440653615, 2119.5935749523132, 31857.561392493415, 48836.81819877842, -187500.02235174447, 67812.66693027818, -187500.02235174447, -187500.02235174447, 38345.356386346386, 19018.5405634094, -187500.02235174447, 42452.467078264606, 17204.271817716577, 37599.501025617246, -187500.02235174447, -185627.59436697894, -0.026000000000000002, 1.004, 0.084, 192.0, 0.0, 0.0, 0.0, 0.0, 0.0, 0.0, 0.0, 0.0, 0.0, 1.695931782863544E9, 0.0, 2023-09-28 15:09:42.863
138.0, 41252.22310450353, 2131.32824079135, 31845.759671421016, 48980.62932260386, -187500.02235174447, 67946.46447258764, -187500.02235174447, -187500.02235174447, 38258.51985913752, 18988.09748746127, -187500.02235174447, 42533.40274493727, 17310.979045746215, 37641.47760170431, -187500.02235174447, -185415.34220163134, -0.026000000000000002, 1.004, 0.084, 192.0, 0.0, 0.0, 0.0, 0.0, 0.0, 0.0, 0.0, 0.0, 0.0, 1.695931782863568E9, 0.0, 2023-09-28 15:09:42.863
