%OpenBCI Raw EXG Data
%Number of channels = 16
%Sample Rate = 125 Hz
%Board = OpenBCI_GUI$BoardCytonSerialDaisy
Sample Index, EXG Channel 0, EXG Channel 1, EXG Channel 2, EXG Channel 3, EXG Channel 4, EXG Channel 5, EXG Channel 6, EXG Channel 7, EXG Channel 8, EXG Channel 9, EXG Channel 10, EXG Channel 11, EXG Channel 12, EXG Channel 13, EXG Channel 14, EXG Channel 15, Accel Channel 0, Accel Channel 1, Accel Channel 2, Other, Other, Other, Other, Other, Other, Other, Analog Channel 0, Analog Channel 1, Analog Channel 2, Timestamp, Other, Timestamp (Formatted)
0.0, 31503.50976032135, 19656.235832719307, -60807.40670054039, -40872.936352841425, -28580.929765812132, -33341.806631303625, -187500.02235174447, -51481.163678307974, 0.0, 0.0, 0.0, 0.0, 0.0, 0.0, 0.0, 0.0, -0.004, 0.504, 0.052000000000000005, 192.0, 127.5, 96.0, 15.5, 64.0, 1.5, 32.0, 0.0, 0.0, 0.0, 1.695337465197762E9, 0.0, 2023-09-21 18:04:25.197
254.0, 31431.291273986255, 19679.347536486093, -60775.35429899148, -40832.591454099595, -28585.60128040329, -33304.59097678554, -187500.02235174447, -51442.22693946683, -30650.030750039907, -27944.35208372499, -60019.95474337992, -70087.20279779469, -29561.970181700013, -187500.02235174447, -49844.032507423464, -35220.560159750006, -0.004, 0.504, 0.052000000000000005, 192.0, 0.0, 0.0, 0.0, 0.0, 0.0, 0.0, 0.0, 0.0, 0.0, 1.695337465197771E9, 0.0, 2023-09-21 18:04:25.197
0.0, 31502.95096670997, 19688.46704822386, -60779.98111009373, -40844.08025074962, -28554.152375954676, -33327.5685700856, -187500.02235174447, -51463.12582053254, -30641.045348768876, -27910.131562963914, -60011.32697002018, -70069.47786444162, -29530.5212772514, -187500.02235174447, -49813.209451819595, -35218.83907542695, -0.004, 0.504, 0.052000000000000005, 192.0, 0.0, 0.0, 0.0, 0.0, 0.0, 0.0, 0.0, 0.0, 0.0, 1.695337465197776E9, 0.0, 2023-09-21 18:04:25.197
2.0, 31439.69552990145, 19694.054984337687, -60774.9966710802, -40831.473866876826, -28577.912280310666, -33303.96512794079, -187500.02235174447, -51452.55344540518, -30640.620665624225, -27915.339519422, -60006.00725483981, -70064.76164636156, -29543.440585546567, -187500.02235174447, -49826.39698104823, -35227.31038657551, -0.004, 0.504, 0.052000000000000005, 192.0, 0.0, 0.0, 0.0, 0.0, 0.0, 0.0, 0.0, 0.0, 0.0, 1.695337465197779E9, 0.0, 2023-09-21 18:04:25.197
4.0, 31522.352280897176, 19688.109420312576, -60793.21334281127, -40852.730375853826, -28566.13291098272, -33324.23816016175, -187500.02235174447, -51460.488314686816, -30665.274639758427, -27910.936225764304, -60031.19767084094, -70083.47005647064, -29541.518335523408, -187500.02235174447, -49801.63124819175, -35214.748706191625, -0.004, 0.504, 0.052000000000000005, 192.0, 0.0, 0.0, 0.0, 0.0, 0.0, 0.0, 0.0, 0.0, 0.0, 1.695337465197783E9, 0.0, 2023-09-21 18:04:25.197
6.0, 31452.257210285334, 19711.154068845997, -60773.56615943506, -40825.885930763, -28592.731486884535, -33297.0584389041, -187500.02235174447, -51439.18710222091, -30654.948133820075, -27916.881789789415, -60016.37846426707, -70073.61293716586, -29552.671856006607, -187500.02235174447, -49825.45820778111, -35215.88864515885, -0.009000000000000001, 0.756, 0.07700000000000001, 192.0, 127.5, 72.0, 15.5, 64.0, 1.5, 24.0, 0.0, 0.0, 0.0, 1.695337465197786E9, 0.0, 2023-09-21 18:04:25.197
8.0, 31506.527245822817, 19729.7060167439, -60759.462208683755, -40817.16875042543, -28545.189326428095, -33290.82230220107, -187500.02235174447, -51426.60307009257, -30634.71980508802, -27884.963498707235, -59995.32312099018, -70048.86955605383, -29569.94975447056, -187500.02235174447, -49818.32800129986, -35237.23456111366, -0.009000000000000001, 0.756, 0.07700000000000001, 192.0, 0.0, 0.0, 0.0, 0.0, 0.0, 0.0, 0.0, 0.0, 0.0, 1.69533746519779E9, 0.0, 2023-09-21 18:04:25.197
10.0, 31454.760605664327, 19737.752644747812, -60752.84609232499, -40801.611936284535, -28569.731541840025, -33274.282011304145, -187500.02235174447, -51414.37666587552, -30620.90642701464, -27877.69918175926, -59975.02773702476, -70030.09409071137, -29538.970236655503, -187500.02235174447, -49807.129777327755, -35228.83030519847, -0.009000000000000001, 0.756, 0.07700000000000001, 192.0, 0.0, 0.0, 0.0, 0.0, 0.0, 0.0, 0.0, 0.0, 0.0, 1.695337465197793E9, 0.0, 2023-09-21 18:04:25.197
12.0, 31511.0870016917, 19719.290103827727, -60781.5457322056, -40837.061802990655, -28552.49834686498, -33316.63856704695, -187500.02235174447, -51460.15303851999, -30644.17459299262, -27888.56212956454, -60002.38627223805, -70052.84816656688, -29555.666989763617, -187500.02235174447, -49801.94417261412, -35233.99355816765, -0.009000000000000001, 0.756, 0.07700000000000001, 192.0, 0.0, 0.0, 0.0, 0.0, 0.0, 0.0, 0.0, 0.0, 0.0, 1.695337465197798E9, 0.0, 2023-09-21 18:04:25.197
0.0, 15071.580120513454, 10304.914153208036, -29540.490155278465, -18025.94429563812, -14479.705927336923, -16587.90011261703, -93750.01117587223, -24300.168371220636, -15317.717530455297, -13949.924880257235, -29992.9788700317, -35023.08249748737, -14776.693555914588, -93750.01117587223, -24911.48858207328, -17615.47686046086, -0.012, 1.01, 0.078, 192.0, 127.5, 80.0, 15.5, 72.0, 1.0, 56.0, 0.0, 0.0, 0.0, 1.695337465332702E9, 0.0, 2023-09-21 18:04:25.332
2.0, 30163.63443894797, 20615.61740823, -59088.17757227154, -36045.13836445074, -29000.472009238245, -33162.36682681642, -187500.02235174447, -48596.514594139415, -28182.53227264074, -28636.585609505848, -59883.47499173582, -68687.15658034761, -27510.482372103022, -121053.38228385238, -49705.94343017858, -21123.873725399226, -0.012, 1.01, 0.078, 192.0, 0.0, 0.0, 0.0, 0.0, 0.0, 0.0, 0.0, 0.0, 0.0, 1.695337465332714E9, 0.0, 2023-09-21 18:04:25.332
4.0, 30088.264356644675, 20619.70777746532, -59071.90550230807, -36033.26958814497, -28984.468160208246, -33155.95187615775, -187500.02235174447, -48586.031625989875, -28144.199030899887, -28627.466097768083, -59840.91727029291, -68645.98466706094, -27608.338309328356, -121110.37923221341, -49765.95786404108, -21181.8988540052, -0.012, 1.01, 0.078, 192.0, 0.0, 0.0, 0.0, 0.0, 0.0, 0.0, 0.0, 0.0, 0.0, 1.695337465332718E9, 0.0, 2023-09-21 18:04:25.332
6.0, 30165.48963373776, 20632.247106104747, -59078.141639011104, -36035.772983523966, -28988.826750377033, -33157.51649826962, -187500.02235174447, -48588.35620741323, -28168.987115500822, -28625.990882634032, -59869.77337238472, -68667.82232139377, -27522.3958518977, -121024.01209163811, -49713.81124422685, -21137.620048239238, -0.012, 1.01, 0.078, 192.0, 0.0, 0.0, 0.0, 0.0, 0.0, 0.0, 0.0, 0.0, 0.0, 1.695337465332721E9, 0.0, 2023-09-21 18:04:25.332
8.0, 30077.28965011712, 20627.061501391116, -59070.7432115964, -36034.07425094536, -28993.274747523636, -33156.10833836893, -187500.02235174447, -48584.489355622456, -28147.551792568185, -28626.817897178877, -59840.98432552628, -68642.67660888155, -27606.728983727575, -121059.73017927769, -49759.81113431587, -21180.334231893332, -0.01, 1.01, 0.062, 192.0, 127.5, 88.0, 15.5, 72.0, 0.5, 120.0, 0.0, 0.0, 0.0, 1.695337465332725E9, 0.0, 2023-09-21 18:04:25.332
10.0, 30168.39536051695, 20638.66205676342, -59080.60033090119, -36042.389099882734, -28994.43703823531, -33162.45623379424, -187500.02235174447, -48595.866393550205, -28170.708199823883, -28627.890780912734, -59868.32050899512, -68670.23630979494, -27538.17618348315, -120990.55153018852, -49720.80734024136, -21145.197289609587, -0.01, 1.01, 0.062, 192.0, 0.0, 0.0, 0.0, 0.0, 0.0, 0.0, 0.0, 0.0, 0.0, 1.695337465332728E9, 0.0, 2023-09-21 18:04:25.332
12.0, 30069.064208157568, 20637.857393963026, -59062.71893533695, -36023.501875818, -28991.888939367407, -33145.17833533029, -187500.02235174447, -48577.40385263012, -28145.51778382275, -28620.917036642677, -59833.9211742784, -68636.84280357872, -27608.09244013935, -121013.52912348857, -49764.16972448465, -21184.782229039934, -0.01, 1.01, 0.062, 192.0, 0.0, 0.0, 0.0, 0.0, 0.0, 0.0, 0.0, 0.0, 0.0, 1.695337465332732E9, 0.0, 2023-09-21 18:04:25.332
14.0, 30170.87640415149, 20637.343303840556, -59085.58476991472, -36049.407547641706, -28983.55173868558, -33167.731245485695, -187500.02235174447, -48593.60886736022, -28160.828728774635, -28616.133763329242, -59856.4293809449, -68656.78055963285, -27547.496860921012, -120982.34843997342, -49724.67419203212, -21167.079647431332, -0.01, 1.01, 0.062, 192.0, 0.0, 0.0, 0.0, 0.0, 0.0, 0.0, 0.0, 0.0, 0.0, 1.695337465332736E9, 0.0, 2023-09-21 18:04:25.332
16.0, 30069.399484324396, 20626.83798394656, -59084.04249954731, -36041.003291726505, -29023.6507682384, -33156.1753936023, -187500.02235174447, -48592.51363188191, -28177.346667927108, -28648.834365467355, -59865.70535489385, -68667.9564318605, -27593.47439926558, -120950.18427970223, -49763.45446866208, -21167.70549627608, -0.01, 1.01, 0.062, 192.0, 0.0, 0.0, 0.0, 0.0, 0.0, 0.0, 0.0, 0.0, 0.0, 1.695337465392467E9, 0.0, 2023-09-21 18:04:25.392
18.0, 30169.98233437328, 20625.3180653236, -59104.24847653491, -36068.94297229564, -29005.83642790752, -33185.27736488311, -187500.02235174447, -48612.786664102874, -28189.1036855106, -28637.949065917623, -59883.56439871364, -68682.03803086735, -27561.22083201657, -120924.32331136744, -49745.394259142195, -21157.826025226837, -0.01, 1.014, 0.058, 192.0, 127.5, 88.0, 15.5, 88.0, 0.5, 104.0, 0.0, 0.0, 0.0, 1.695337465392481E9, 0.0, 2023-09-21 18:04:25.392
20.0, 30061.106987131476, 20635.80103347314, -59084.62364490314, -36039.63983531473, -29024.298968827603, -33153.537887756574, -187500.02235174447, -48585.27166667839, -28179.581842372638, -28651.695388757635, -59866.934700838894, -68668.1575975606, -27593.40734403221, -120879.50806373455, -49771.16582049916, -21157.781321737926, -0.01, 1.014, 0.058, 192.0, 0.0, 0.0, 0.0, 0.0, 0.0, 0.0, 0.0, 0.0, 0.0, 1.695337465392484E9, 0.0, 2023-09-21 18:04:25.392
22.0, 30146.691816650848, 20638.79616723015, -59099.17463054355, -36064.96436178259, -28996.381640002925, -33175.1296729004, -187500.02235174447, -48607.93633555607, -28171.535214368727, -28626.08028961185, -59867.31468049463, -68665.81066439279, -27580.64449794823, -120904.11733437984, -49755.20667495808, -21179.060182459376, -0.01, 1.014, 0.058, 192.0, 0.0, 0.0, 0.0, 0.0, 0.0, 0.0, 0.0, 0.0, 0.0, 1.695337465392488E9, 0.0, 2023-09-21 18:04:25.392
24.0, 30049.57348699254, 20636.248068362245, -59087.864647849165, -36046.07713771786, -29027.383509562434, -33150.810974933025, -187500.02235174447, -48584.824631789284, -28180.118284239565, -28648.700255000625, -59872.76850614173, -68676.2042255645, -27576.46472173509, -120842.53827840547, -49764.32618669584, -21167.23610964252, -0.01, 1.014, 0.058, 192.0, 0.0, 0.0, 0.0, 0.0, 0.0, 0.0, 0.0, 0.0, 0.0, 1.695337465392491E9, 0.0, 2023-09-21 18:04:25.392
26.0, 30122.842505317036, 20654.017705204216, -59080.08624077872, -36051.7097773206, -28973.985192058706, -33157.47179478071, -187500.02235174447, -48584.04232073335, -28153.542060082207, -28620.55940873139, -59851.53434890918, -68653.4054462201, -27583.21494856059, -120893.94729065268, -49762.09101225031, -21209.48090666305, -0.01, 1.014, 0.058, 192.0, 0.0, 0.0, 0.0, 0.0, 0.0, 0.0, 0.0, 0.0, 0.0, 1.695337465392494E9, 0.0, 2023-09-21 18:04:25.392
28.0, 30051.585143993518, 20639.399664330445, -59092.469107206955, -36055.17429771117, -29017.41463153537, -33156.04128313557, -187500.02235174447, -48586.47866087898, -28171.24464169081, -28638.261990339994, -59866.21944501632, -68667.41998999358, -27555.20821275809, -120817.90665601572, -49748.85877953277, -21186.01157498498, -0.014, 1.01, 0.066, 192.0, 127.5, 72.0, 15.5, 72.0, 1.0, 8.0, 0.0, 0.0, 0.0, 1.695337465392498E9, 0.0, 2023-09-21 18:04:25.392
30.0, 30116.069926747077, 20649.256783635235, -59093.519639196355, -36064.31616119339, -28984.490511952703, -33167.64183850787, -187500.02235174447, -48599.4203209186, -28166.126092210543, -28631.154135603207, -59865.41478221593, -68665.60949869269, -27600.626957491277, -120865.53822344998, -49767.053099519384, -21217.348720711318, -0.014, 1.01, 0.066, 192.0, 0.0, 0.0, 0.0, 0.0, 0.0, 0.0, 0.0, 0.0, 0.0, 1.695337465452749E9, 0.0, 2023-09-21 18:04:25.452
32.0, 30063.990362166212, 20646.351056856045, -59092.2455897624, -36046.92650400716, -29025.573018261555, -33152.33089355599, -187500.02235174447, -48587.059806234814, -28176.854929549092, -28639.9607229186, -59872.388526485985, -68672.49383598493, -27555.252916247002, -120766.6541059797, -49747.785895798916, -21179.66367955967, -0.014, 1.01, 0.066, 192.0, 0.0, 0.0, 0.0, 0.0, 0.0, 0.0, 0.0, 0.0, 0.0, 1.695337465452761E9, 0.0, 2023-09-21 18:04:25.452
34.0, 30105.966938253277, 20650.620240047007, -59091.910313595574, -36061.835117558854, -28994.191169046306, -33171.173414131816, -187500.02235174447, -48604.60592563223, -28168.294211422708, -28628.360167546296, -59864.11838103752, -68661.89910911312, -27621.1682106457, -120827.38379566478, -49765.68964310762, -21222.176697513663, -0.014, 1.01, 0.066, 192.0, 0.0, 0.0, 0.0, 0.0, 0.0, 0.0, 0.0, 0.0, 0.0, 1.695337465452765E9, 0.0, 2023-09-21 18:04:25.452
36.0, 30067.9466209348, 20668.076952466603, -59074.31949070925, -36031.302634632906, -29013.12309659995, -33137.91401838232, -187500.02235174447, -48572.33000663877, -28167.75776955578, -28633.18814434864, -59861.86085484754, -68664.31309751428, -27556.45991044759, -120725.90687583768, -49740.18630268411, -21180.8483220158, -0.014, 1.01, 0.066, 192.0, 0.0, 0.0, 0.0, 0.0, 0.0, 0.0, 0.0, 0.0, 0.0, 1.695337465452768E9, 0.0, 2023-09-21 18:04:25.452
38.0, 30081.96116470828, 20667.294641410666, -59071.48081916342, -36048.51347786349, -28975.12513102593, -33162.25506809414, -187500.02235174447, -48589.96553301401, -28141.00273144278, -28612.021042349465, -59837.05041850215, -68639.05562627979, -27620.94469320115, -120816.52084785949, -49764.57205588485, -21242.15915705671, -0.012, 1.006, 0.058, 192.0, 127.5, 80.0, 15.5, 56.0, 0.5, 104.0, 0.0, 0.0, 0.0, 1.695337465452772E9, 0.0, 2023-09-21 18:04:25.452
40.0, 30081.223557141253, 20662.600775075054, -59080.82384834574, -36044.579570839356, -29012.296082055105, -33151.70504471124, -187500.02235174447, -48580.4660416205, -28171.691676579914, -28638.61961825128, -59872.90261660846, -68673.11968482968, -27542.914753307672, -120694.8379510448, -49717.141654150684, -21180.691859804614, -0.012, 1.006, 0.058, 192.0, 0.0, 0.0, 0.0, 0.0, 0.0, 0.0, 0.0, 0.0, 0.0, 1.695337465452775E9, 0.0, 2023-09-21 18:04:25.452
42.0, 30072.61813552596, 20662.533719841686, -59077.806362844276, -36050.63689358674, -28983.55173868558, -33161.13748087138, -187500.02235174447, -48591.396044659145, -28141.85209773208, -28625.76736518948, -59843.867700561015, -68644.48710018244, -27632.27702763999, -120776.33241132885, -49766.0472710189, -21237.57704944337, -0.012, 1.006, 0.058, 192.0, 0.0, 0.0, 0.0, 0.0, 0.0, 0.0, 0.0, 0.0, 0.0, 1.695337465452779E9, 0.0, 2023-09-21 18:04:25.452
44.0, 30105.274034175163, 20652.00604820324, -59100.47103172196, -36063.46679490409, -29027.718785729267, -33168.13357688589, -187500.02235174447, -48605.164719243614, -28179.179510972444, -28647.694426500137, -59885.55370397016, -68685.56960649129, -27544.009988785983, -120652.68256100209, -49717.141654150684, -21172.131141678234, -0.012, 1.006, 0.058, 192.0, 0.0, 0.0, 0.0, 0.0, 0.0, 0.0, 0.0, 0.0, 0.0, 1.695337465452782E9, 0.0, 2023-09-21 18:04:25.452
46.0, 30069.533594791126, 20641.70189400934, -59101.02982533334, -36075.7155508656, -29021.728518215245, -33181.05288518106, -187500.02235174447, -48615.84885309325, -28165.81316778817, -28648.007350922508, -59872.20971253035, -68672.4044290071, -27647.967952247614, -120716.31797746634, -49777.08903277982, -21223.428395203162, -0.012, 1.006, 0.058, 192.0, 0.0, 0.0, 0.0, 0.0, 0.0, 0.0, 0.0, 0.0, 0.0, 1.695337465513006E9, 0.0, 2023-09-21 18:04:25.513
48.0, 30109.744383066227, 20664.18774893138, -59087.32820598224, -36051.486259876045, -29030.132774130438, -33156.555373258045, -187500.02235174447, -48592.580687115274, -28181.90642379599, -28646.95681893311, -59891.92395113993, -68689.54821700433, -27560.013837815983, -120606.92854010208, -49741.03566897341, -21171.840569000313, -0.008, 1.008, 0.06, 192.0, 127.5, 96.0, 15.5, 64.0, 0.5, 112.0, 0.0, 0.0, 0.0, 1.695337465513018E9, 0.0, 2023-09-21 18:04:25.513
50.0, 30040.342216532496, 20678.51521712723, -59061.19901671398, -36034.74480327902, -28999.466180737756, -33147.815841176016, -187500.02235174447, -48579.19199218655, -28139.125184908535, -28624.113336099785, -59841.833691815584, -68643.7047891265, -27644.36932139031, -120683.50561660597, -49783.41457646067, -21234.9618953421, -0.008, 1.008, 0.06, 192.0, 0.0, 0.0, 0.0, 0.0, 0.0, 0.0, 0.0, 0.0, 0.0, 1.695337465513022E9, 0.0, 2023-09-21 18:04:25.513
52.0, 30111.688984833836, 20669.21689143382, -59090.61391241717, -36063.75736758201, -29019.35923330298, -33177.61071653494, -187500.02235174447, -48611.110283268725, -28159.53232759623, -28621.341719787328, -59867.67230840592, -68666.95060336002, -27553.21890750157, -120602.43583946656, -49722.61783154224, -21192.359470410287, -0.008, 1.008, 0.06, 192.0, 0.0, 0.0, 0.0, 0.0, 0.0, 0.0, 0.0, 0.0, 0.0, 1.695337465513025E9, 0.0, 2023-09-21 18:04:25.513
54.0, 30029.434565238305, 20666.534682099187, -59077.06875527725, -36053.18499245465, -29019.69450946981, -33166.2783820961, -187500.02235174447, -48600.001466274436, -28162.594516586607, -28651.13659514625, -59863.26901474822, -68666.0565335818, -27649.08553947038, -120634.9799793935, -49777.692529880114, -21228.39048247224, -0.008, 1.008, 0.06, 192.0, 0.0, 0.0, 0.0, 0.0, 0.0, 0.0, 0.0, 0.0, 0.0, 1.695337465513029E9, 0.0, 2023-09-21 18:04:25.513
56.0, 30113.141848223433, 20683.90198754096, -59074.945339554, -36049.02756798596, -29005.41174476287, -33159.841079692975, -187500.02235174447, -48592.75950107092, -28162.750978797794, -28628.538981501937, -59866.577072927605, -68667.39763824912, -27573.179015300157, -120573.71384784149, -49733.3913723697, -21202.283644948442, -0.008, 1.008, 0.06, 192.0, 0.0, 0.0, 0.0, 0.0, 0.0, 0.0, 0.0, 0.0, 0.0, 1.695337465513032E9, 0.0, 2023-09-21 18:04:25.513
58.0, 30022.907855857356, 20678.09053398258, -59066.27286270534, -36042.254989416004, -29010.440887265315, -33153.71670171222, -187500.02235174447, -48589.76436731391, -28154.302019393686, -28634.037510637943, -59844.85117731705, -68650.455015952, -27630.153611916736, -120594.18804576255, -49765.01909077395, -21236.079482564866, -0.006, 1.014, 0.048, 192.0, 127.5, 104.0, 15.5, 88.0, 0.5, 64.0, 0.0, 0.0, 0.0, 1.695337465513036E9, 0.0, 2023-09-21 18:04:25.513
60.0, 30119.176819226366, 20675.587138603587, -59088.93753158302, -36065.29963794943, -29009.345651787004, -33177.722475257215, -187500.02235174447, -48612.89842282515, -28170.775255057248, -28620.62646396476, -59866.82294211662, -68667.41998999358, -27566.428788474655, -120544.0530829493, -49732.07261944683, -21211.559618897394, -0.006, 1.014, 0.048, 192.0, 0.0, 0.0, 0.0, 0.0, 0.0, 0.0, 0.0, 0.0, 0.0, 1.695337465573381E9, 0.0, 2023-09-21 18:04:25.573
62.0, 30016.939940087792, 20675.117751970025, -59071.90550230807, -36043.57374233887, -29028.858724696485, -33155.638951735375, -187500.02235174447, -48598.19097497356, -28172.272821935752, -28639.357225818305, -59861.682040891894, -68666.83884463774, -27637.015597464517, -120537.07933867925, -49779.27950373644, -21230.33508423985, -0.006, 1.014, 0.048, 192.0, 0.0, 0.0, 0.0, 0.0, 0.0, 0.0, 0.0, 0.0, 0.0, 1.695337465573396E9, 0.0, 2023-09-21 18:04:25.573
64.0, 30122.507229150204, 20682.85145555156, -59076.71112736597, -36054.146117466225, -29000.74023017171, -33167.37361757441, -187500.02235174447, -48607.265783222414, -28160.985190985823, -28610.367013259773, -59860.18447401339, -68663.91076611409, -27589.048753863426, -120517.76743146985, -49749.14935221068, -21225.641217904238, -0.006, 1.014, 0.048, 192.0, 0.0, 0.0, 0.0, 0.0, 0.0, 0.0, 0.0, 0.0, 0.0, 1.6953374655734E9, 0.0, 2023-09-21 18:04:25.573
66.0, 30026.70765241476, 20665.14887394296, -59071.03378427432, -36045.71950980658, -29028.948131674308, -33154.43195753479, -187500.02235174447, -48596.53694588387, -28159.308810151677, -28627.354339045807, -59854.976517555304, -68663.70960041399, -27619.76005074502, -120486.76556191035, -49767.9471692976, -21229.35160748382, -0.006, 1.014, 0.048, 192.0, 0.0, 0.0, 0.0, 0.0, 0.0, 0.0, 0.0, 0.0, 0.0, 1.695337465573403E9, 0.0, 2023-09-21 18:04:25.573
68.0, 30131.559685654604, 20662.019629719216, -59073.4924761644, -36055.08489073335, -29005.679965696334, -33166.211326862736, -187500.02235174447, -48609.61271639022, -28164.67322882095, -28614.01034760599, -59869.594558429075, -68675.1089900862, -27598.19061734565, -120480.01533508484, -49751.31747142285, -21228.435185961152, -0.01, 1.022, 0.042, 192.0, 127.5, 88.0, 15.5, 120.0, 0.5, 40.0, 0.0, 0.0, 0.0, 1.695337465573407E9, 0.0, 2023-09-21 18:04:25.573
70.0, 30046.153670090876, 20637.18684162937, -59075.3923744431, -36054.99548375553, -29050.763434262688, -33164.602001261956, -187500.02235174447, -48613.59132690327, -28164.270897420753, -28631.08708036984, -59873.21554103083, -68684.69788845752, -27612.719251241597, -120431.55675310573, -49771.50109666599, -21221.930828324657, -0.01, 1.022, 0.042, 192.0, 0.0, 0.0, 0.0, 0.0, 0.0, 0.0, 0.0, 0.0, 0.0, 1.69533746557341E9, 0.0, 2023-09-21 18:04:25.573
72.0, 30144.34488348304, 20625.496879279242, -59073.4924761644, -36063.84677455983, -29013.726593700245, -33173.92267869981, -187500.02235174447, -48616.854681593744, -28167.802473044692, -28624.739184944534, -59886.76069817075, -68698.66772874209, -27622.755184502028, -120447.56060213574, -49777.71488162457, -21241.153328556222, -0.01, 1.022, 0.042, 192.0, 0.0, 0.0, 0.0, 0.0, 0.0, 0.0, 0.0, 0.0, 0.0, 1.695337465573414E9, 0.0, 2023-09-21 18:04:25.573
74.0, 30065.15265287789, 20607.660187203906, -59058.11447597915, -36035.01302421249, -29039.94518994632, -33142.96551262921, -187500.02235174447, -48586.05397773433, -28181.548795884704, -28634.082214126855, -59886.06779409263, -68697.01369965241, -27615.80379197643, -120370.20121457592, -49776.21731474606, -21217.214610244588, -0.01, 1.022, 0.042, 192.0, 0.0, 0.0, 0.0, 0.0, 0.0, 0.0, 0.0, 0.0, 0.0, 1.695337465573417E9, 0.0, 2023-09-21 18:04:25.573
76.0, 30140.478031692273, 20609.60478897152, -59050.82780728672, -36038.61165506979, -28999.376773759937, -33148.82166967651, -187500.02235174447, -48589.69731208054, -28178.732476083336, -28616.938426129633, -59890.44873600588, -68697.23721709696, -27638.691978298662, -120408.44504933894, -49776.46318393507, -21242.852061134825, -0.01, 1.022, 0.042, 192.0, 0.0, 0.0, 0.0, 0.0, 0.0, 0.0, 0.0, 0.0, 0.0, 1.695337465632761E9, 0.0, 2023-09-21 18:04:25.632
78.0, 30080.32948736304, 20602.161658067904, -59035.91919373503, -36014.67293675816, -29018.196942591305, -33122.82659087498, -187500.02235174447, -48565.78094551336, -28154.838461260613, -28600.152266043697, -59868.32050899512, -68674.706658686, -27602.683317981162, -120344.6531706635, -49769.8470675763, -21230.849174362324, -0.01, 1.014, 0.05, 192.0, 127.5, 88.0, 15.5, 88.0, 0.5, 72.0, 0.0, 0.0, 0.0, 1.695337465632772E9, 0.0, 2023-09-21 18:04:25.632
80.0, 30155.811328388612, 20577.284166489146, -59058.986194012905, -36053.54262036594, -28998.683869681823, -33162.09860588296, -187500.02235174447, -48595.262896449916, -28172.71985682486, -28607.930673114144, -59890.5381429837, -68697.39367930814, -27633.99811196305, -120389.3119560852, -49775.07737577884, -21259.79468343195, -0.01, 1.014, 0.05, 192.0, 0.0, 0.0, 0.0, 0.0, 0.0, 0.0, 0.0, 0.0, 0.0, 1.695337465632775E9, 0.0, 2023-09-21 18:04:25.632
82.0, 30117.366327925483, 20590.98578584025, -59034.33221987871, -36012.95185243509, -29014.55360824509, -33121.4184309743, -187500.02235174447, -48554.69448026353, -28168.450673633895, -28612.602187705303, -59886.40307025946, -68695.22556009598, -27588.08762885185, -120284.1917019119, -49758.35827092627, -21218.44395618963, -0.01, 1.014, 0.05, 192.0, 0.0, 0.0, 0.0, 0.0, 0.0, 0.0, 0.0, 0.0, 0.0, 1.695337465632779E9, 0.0, 2023-09-21 18:04:25.632
84.0, 30158.962924356812, 20583.430896214355, -59039.96485948144, -36031.45909684409, -28979.68488689481, -33145.60301847494, -187500.02235174447, -48572.41941361659, -28148.334103624118, -28591.278623494938, -59867.158218283446, -68676.53950173134, -27643.36349288982, -120362.42280750547, -49773.75862285598, -21273.96568941661, -0.01, 1.014, 0.05, 192.0, 0.0, 0.0, 0.0, 0.0, 0.0, 0.0, 0.0, 0.0, 0.0, 1.695337465632782E9, 0.0, 2023-09-21 18:04:25.632
86.0, 30154.313761510108, 20568.92461406286, -59057.42157190104, -36035.75063177951, -29027.07058514006, -33146.58649523097, -187500.02235174447, -48575.123974695685, -28179.157159227987, -28613.071574338865, -59897.46718376484, -68704.83681021175, -27568.97688734256, -120248.25009682776, -49746.95888125407, -21220.835592846346, -0.01, 1.014, 0.05, 192.0, 0.0, 0.0, 0.0, 0.0, 0.0, 0.0, 0.0, 0.0, 0.0, 1.695337465632785E9, 0.0, 2023-09-21 18:04:25.632
88.0, 30165.10965408202, 20576.233634499746, -59039.04843795877, -36027.94987296461, -28983.887014852407, -33140.99855911715, -187500.02235174447, -48566.1162216802, -28165.209670687876, -28609.495295226014, -59881.77625915722, -68688.65414722612, -27653.779405805995, -120319.7980308292, -49794.65750392169, -21274.613890005814, -0.008, 1.01, 0.048, 192.0, 127.5, 96.0, 15.5, 72.0, 0.5, 64.0, 0.0, 0.0, 0.0, 1.695337465632789E9, 0.0, 2023-09-21 18:04:25.632
90.0, 30186.63438399248, 20561.459131414787, -59062.562473125756, -36040.444498115125, -29025.528314772644, -33150.073367366, -187500.02235174447, -48578.02970147487, -28181.235871462333, -28613.80918190589, -59900.79759368868, -68706.87081895719, -27568.060465819894, -120207.7710876192, -49744.61194808626, -21220.232095746054, -0.008, 1.01, 0.048, 192.0, 0.0, 0.0, 0.0, 0.0, 0.0, 0.0, 0.0, 0.0, 0.0, 1.695337465692579E9, 0.0, 2023-09-21 18:04:25.692
92.0, 30172.88806115247, 20548.629230097442, -59068.75390633988, -36053.63202734375, -29009.569169231556, -33166.814823963025, -187500.02235174447, -48591.79837605934, -28179.67124935046, -28621.587588976337, -59895.05319536367, -68699.69590898704, -27669.492682158078, -120264.72333249132, -49788.890753852225, -21267.930718413678, -0.008, 1.01, 0.048, 192.0, 0.0, 0.0, 0.0, 0.0, 0.0, 0.0, 0.0, 0.0, 0.0, 1.695337465692597E9, 0.0, 2023-09-21 18:04:25.692
94.0, 30210.416640092928, 20562.710829104286, -59068.709202850965, -36038.16462018068, -29028.277579340647, -33149.71573945472, -187500.02235174447, -48580.39898638713, -28204.794610118224, -28630.103603613807, -59923.12698639953, -68724.19342091006, -27590.16634108619, -120142.19106938734, -49752.23389294552, -21213.191296242632, -0.008, 1.01, 0.048, 192.0, 0.0, 0.0, 0.0, 0.0, 0.0, 0.0, 0.0, 0.0, 0.0, 1.695337465692601E9, 0.0, 2023-09-21 18:04:25.692
96.0, 30166.718979682802, 20562.286145959635, -59058.427400401524, -36040.71271904859, -29004.249454051194, -33152.68852146727, -187500.02235174447, -48585.182259700574, -28181.079409251146, -28617.743088930023, -59892.25922730676, -68693.99621415093, -27684.133074776302, -120208.32988123059, -49795.439814977624, -21272.35636381583, -0.008, 1.01, 0.048, 192.0, 0.0, 0.0, 0.0, 0.0, 0.0, 0.0, 0.0, 0.0, 0.0, 1.695337465692604E9, 0.0, 2023-09-21 18:04:25.692
98.0, 30235.227076438317, 20556.20647146779, -59081.18147625703, -36058.549411123924, -29029.395166563412, -33168.75942573064, -187500.02235174447, -48600.11322499672, -28205.241645007332, -28624.448612266617, -59919.75187298678, -68722.62879879818, -27587.93116664066, -120096.30293802058, -49739.60515732827, -21214.174772998664, -0.006, 1.01, 0.056, 192.0, 127.5, 104.0, 15.5, 72.0, 0.5, 96.0, 0.0, 0.0, 0.0, 1.695337465692608E9, 0.0, 2023-09-21 18:04:25.692
100.0, 30160.12521506849, 20567.516454162178, -59044.32344965023, -36026.47465783056, -28998.326241770537, -33138.450460249245, -187500.02235174447, -48567.94906472553, -28181.1017609956, -28624.940350644632, -59885.4866487368, -68694.21973159548, -27682.90372883126, -120143.04043567664, -49796.37858824475, -21265.092046867856, -0.006, 1.01, 0.056, 192.0, 0.0, 0.0, 0.0, 0.0, 0.0, 0.0, 0.0, 0.0, 0.0, 1.695337465692612E9, 0.0, 2023-09-21 18:04:25.692
102.0, 30233.193067692886, 20585.196684026323, -59043.11645544964, -36018.428029826646, -28990.011392833163, -33129.30859676702, -187500.02235174447, -48562.71875652299, -28189.81894133317, -28606.209588791084, -59896.10372735307, -68699.00300490893, -27591.730963198064, -120069.97258305224, -49735.80536077087, -21237.889973865746, -0.006, 1.01, 0.056, 192.0, 0.0, 0.0, 0.0, 0.0, 0.0, 0.0, 0.0, 0.0, 0.0, 1.695337465692616E9, 0.0, 2023-09-21 18:04:25.692
104.0, 30136.320607223584, 20595.724355664774, -59008.27008584382, -35992.768227191955, -28963.859851820453, -33101.234805731154, -187500.02235174447, -48534.80142769831, -28143.90845822197, -28581.8461873348, -59842.99598252726, -68648.01867580636, -27663.77063557752, -120131.08225239304, -49773.57980890034, -21299.111401928832, -0.006, 1.01, 0.056, 192.0, 0.0, 0.0, 0.0, 0.0, 0.0, 0.0, 0.0, 0.0, 0.0, 1.695337465692619E9, 0.0, 2023-09-21 18:04:25.692
106.0, 30227.1357449455, 20589.957605595304, -59033.37109486713, -36017.13162864824, -28971.705314124265, -33123.58655018646, -187500.02235174447, -48557.354337853714, -28169.791778301216, -28582.360277457272, -59876.70241316586, -68677.23240580945, -27572.620221688776, -120074.30882147656, -49711.82193897032, -21270.322355070395, -0.006, 1.01, 0.056, 192.0, 0.0, 0.0, 0.0, 0.0, 0.0, 0.0, 0.0, 0.0, 0.0, 1.695337465752883E9, 0.0, 2023-09-21 18:04:25.752
108.0, 30137.125270023975, 20576.323041477568, -59034.35457162316, -36015.634061769735, -28986.144541042395, -33120.3678989849, -187500.02235174447, -48552.90634070711, -28158.52649909574, -28593.938481085122, -59859.71508737983, -68665.31892601478, -27645.308094657434, -120090.78205714012, -49757.26303544796, -21297.658538539235, -0.008, 1.01, 0.056, 192.0, 127.5, 96.0, 15.5, 72.0, 0.5, 96.0, 0.0, 0.0, 0.0, 1.69533746575291E9, 0.0, 2023-09-21 18:04:25.752
110.0, 30245.0394922542, 20571.15978850839, -59061.80251381428, -36043.9090185057, -28994.63820393541, -33146.16181208632, -187500.02235174447, -48581.203649187526, -28198.446714692916, -28610.344661515315, -59905.312646068654, -68707.60842652422, -27591.507445753512, -120027.70543428724, -49725.41179959915, -21254.9667066296, -0.008, 1.01, 0.056, 192.0, 0.0, 0.0, 0.0, 0.0, 0.0, 0.0, 0.0, 0.0, 0.0, 1.695337465752914E9, 0.0, 2023-09-21 18:04:25.752
112.0, 30133.57134265558, 20591.276358518167, -59023.558679051246, -36000.36782030676, -28990.257262022173, -33100.832474330964, -187500.02235174447, -48538.08713413324, -28161.14165319701, -28605.76255390198, -59860.09506703557, -68669.36459176119, -27653.46648138362, -120024.75500401916, -49770.94230305461, -21283.420477321208, -0.008, 1.01, 0.056, 192.0, 0.0, 0.0, 0.0, 0.0, 0.0, 0.0, 0.0, 0.0, 0.0, 1.695337465752921E9, 0.0, 2023-09-21 18:04:25.752
114.0, 30238.155154961965, 20585.911939848895, -59053.621775343636, -36036.89057074673, -28979.26020375016, -33137.44463174875, -187500.02235174447, -48573.69346305054, -28173.613926603073, -28592.575024673348, -59880.05517483416, -68685.43549602455, -27608.338309328356, -120014.45084982525, -49729.16689266764, -21277.83254120738, -0.008, 1.01, 0.056, 192.0, 0.0, 0.0, 0.0, 0.0, 0.0, 0.0, 0.0, 0.0, 0.0, 1.695337465752927E9, 0.0, 2023-09-21 18:04:25.752
116.0, 30135.650054889928, 20576.211282755292, -59052.16891195404, -36027.74870726451, -28999.17560805984, -33129.55446595603, -187500.02235174447, -48568.977244970476, -28168.674191078448, -28611.238731293528, -59868.85695086205, -68678.19353082104, -27638.535516087475, -119982.66666920981, -49759.9452447826, -21280.827674964392, -0.008, 1.01, 0.056, 192.0, 0.0, 0.0, 0.0, 0.0, 0.0, 0.0, 0.0, 0.0, 0.0, 1.69533746575293E9, 0.0, 2023-09-21 18:04:25.752
118.0, 30230.287340913696, 20582.715640391783, -59065.915234794054, -36043.21611442758, -28979.483721194712, -33148.06171036502, -187500.02235174447, -48582.723567810484, -28195.004546046803, -28617.564274974382, -59899.50119251027, -68703.67451950008, -27629.03602469397, -119976.40818076232, -49749.529331866426, -21279.12894238579, -0.014, 1.01, 0.052000000000000005, 192.0, 127.5, 72.0, 15.5, 72.0, 0.5, 80.0, 0.0, 0.0, 0.0, 1.695337465752934E9, 0.0, 2023-09-21 18:04:25.752
120.0, 30135.87357233448, 20590.31523350659, -59049.64316483059, -36016.93046294814, -28997.610985947966, -33124.659433920315, -187500.02235174447, -48555.70030876402, -28174.10566498109, -28617.921902885664, -59872.47793346381, -68681.0098506224, -27642.290609155967, -119926.83201156044, -49763.633282617724, -21278.25722435203, -0.014, 1.01, 0.052000000000000005, 192.0, 0.0, 0.0, 0.0, 0.0, 0.0, 0.0, 0.0, 0.0, 0.0, 1.695337465813044E9, 0.0, 2023-09-21 18:04:25.813
122.0, 30219.916131486432, 20598.048937088126, -59064.529426637826, -36038.142268436226, -28966.25148847717, -33151.88385866688, -187500.02235174447, -48582.030663732374, -28173.680981836438, -28603.817952134366, -59874.37783174251, -68683.64735646812, -27648.07971096989, -119955.01756131859, -49752.32329992334, -21297.949111217156, -0.014, 1.01, 0.052000000000000005, 192.0, 0.0, 0.0, 0.0, 0.0, 0.0, 0.0, 0.0, 0.0, 0.0, 1.695337465813058E9, 0.0, 2023-09-21 18:04:25.813
124.0, 30137.594656657537, 20602.89926563493, -59057.22040620094, -36016.57283503686, -29005.724669185245, -33127.520457210594, -187500.02235174447, -48563.165791412095, -28175.737342326327, -28620.76057443149, -59872.388526485985, -68685.05551636881, -27624.431565336177, -119871.4890922891, -49753.68675633511, -21267.77425620249, -0.014, 1.01, 0.052000000000000005, 192.0, 0.0, 0.0, 0.0, 0.0, 0.0, 0.0, 0.0, 0.0, 0.0, 1.695337465813062E9, 0.0, 2023-09-21 18:04:25.813
126.0, 30200.40305857695, 20615.103318107525, -59058.38269691262, -36030.00623345449, -28968.710180367256, -33143.5243062406, -187500.02235174447, -48572.08413744976, -28156.783063028226, -28596.196007275106, -59856.13880826698, -68665.45303648151, -27659.277934942, -119930.36358718439, -49759.85583780478, -21306.912160743734, -0.014, 1.01, 0.052000000000000005, 192.0, 0.0, 0.0, 0.0, 0.0, 0.0, 0.0, 0.0, 0.0, 0.0, 1.695337465813066E9, 0.0, 2023-09-21 18:04:25.813
128.0, 30138.376967713473, 20614.298655307135, -59059.50028413538, -36018.6515472712, -29012.54195124411, -33128.90626536683, -187500.02235174447, -48562.606997800714, -28161.05224621919, -28608.601225447805, -59861.25735774724, -68671.42095225108, -27612.495733797045, -119835.36867324934, -49741.23683467351, -21272.468122538106, -0.01, 1.008, 0.056, 192.0, 127.5, 88.0, 15.5, 64.0, 0.5, 96.0, 0.0, 0.0, 0.0, 1.69533746581307E9, 0.0, 2023-09-21 18:04:25.813
130.0, 30179.995915889256, 20621.56297225511, -59056.30398467827, -36025.89351247472, -28976.01920080414, -33134.85182939194, -187500.02235174447, -48567.1667536696, -28155.24079266081, -28602.23097827804, -59859.379811212995, -68667.35293476022, -27667.23515596809, -119895.29370013402, -49766.717823352556, -21316.411652137238, -0.01, 1.008, 0.056, 192.0, 0.0, 0.0, 0.0, 0.0, 0.0, 0.0, 0.0, 0.0, 0.0, 1.695337465813074E9, 0.0, 2023-09-21 18:04:25.813
132.0, 30153.10676730952, 20609.18010582687, -59071.54787439679, -36033.71662303407, -29014.732422200734, -33140.819745161505, -187500.02235174447, -48577.359149141215, -28154.704350793883, -28601.6498329222, -59858.44103794588, -68667.35293476022, -27602.25863483651, -119798.55535013144, -49738.08523870531, -21277.87724469629, -0.01, 1.008, 0.056, 192.0, 0.0, 0.0, 0.0, 0.0, 0.0, 0.0, 0.0, 0.0, 0.0, 1.695337465813077E9, 0.0, 2023-09-21 18:04:25.813
134.0, 30171.703418696336, 20605.000329613726, -59069.42445867354, -36042.679672560655, -28988.91615735485, -33153.38142554539, -187500.02235174447, -48586.88099227918, -28168.42832188944, -28622.95104538811, -59871.91913985243, -68682.462714012, -27676.377019450312, -119845.06933034294, -49769.48943966501, -21311.628378823803, -0.01, 1.008, 0.056, 192.0, 0.0, 0.0, 0.0, 0.0, 0.0, 0.0, 0.0, 0.0, 0.0, 1.695337465813081E9, 0.0, 2023-09-21 18:04:25.813
136.0, 30165.601392460037, 20602.675748190373, -59074.76652559835, -36037.33760563584, -29025.975349661752, -33146.65355046434, -187500.02235174447, -48581.9189050101, -28178.710124338882, -28627.264932067985, -59883.94437836938, -68693.63858623966, -27598.16826560119, -119730.00254988701, -49731.58088106882, -21265.0696951234, -0.01, 1.008, 0.056, 192.0, 0.0, 0.0, 0.0, 0.0, 0.0, 0.0, 0.0, 0.0, 0.0, 1.695337465873363E9, 0.0, 2023-09-21 18:04:25.873
138.0, 30149.39637772994, 20616.198553585837, -59048.570281096734, -36022.2501781285, -28984.848139863985, -33133.44366949125, -187500.02235174447, -48565.84800074673, -28148.892897235502, -28609.584702203836, -59852.85310183205, -68664.58131844774, -27690.257452757058, -119807.20547523565, -49777.625474646746, -21329.353312176863, -0.012, 1.01, 0.058, 192.0, 127.5, 80.0, 15.5, 72.0, 0.5, 104.0, 0.0, 0.0, 0.0, 1.695337465873375E9, 0.0, 2023-09-21 18:04:25.873
140.0, 30162.9191831254, 20615.572704741087, -59053.59942359918, -36013.86827395776, -29011.379660532435, -33125.82172463199, -187500.02235174447, -48565.669186791085, -28163.689752064915, -28606.254292279995, -59870.7344973963, -68681.03220236686, -27599.710535968607, -119707.53904670943, -49727.69167753359, -21287.622605278804, -0.012, 1.01, 0.058, 192.0, 0.0, 0.0, 0.0, 0.0, 0.0, 0.0, 0.0, 0.0, 0.0, 1.695337465873379E9, 0.0, 2023-09-21 18:04:25.873
142.0, 30134.0630810336, 20596.12668706497, -59062.51776963685, -36035.638873057236, -28999.712049926766, -33152.286190067076, -187500.02235174447, -48587.976227757485, -28159.487624107318, -28609.830571392846, -59863.11255253704, -68674.72901043046, -27684.58010966541, -119777.18708243217, -49767.38837568622, -21342.585544894406, -0.012, 1.01, 0.058, 192.0, 0.0, 0.0, 0.0, 0.0, 0.0, 0.0, 0.0, 0.0, 0.0, 1.695337465873383E9, 0.0, 2023-09-21 18:04:25.873
144.0, 30174.229165819786, 20603.2121900573, -59065.132923738114, -36028.70983227609, -29020.633282736933, -33142.54082948456, -187500.02235174447, -48581.18129744307, -28180.878243551047, -28617.29605404092, -59887.61006446005, -68696.72312697448, -27597.676527223175, -119662.27676418744, -49727.04347694439, -21286.460314567128, -0.012, 1.01, 0.058, 192.0, 0.0, 0.0, 0.0, 0.0, 0.0, 0.0, 0.0, 0.0, 0.0, 1.695337465873386E9, 0.0, 2023-09-21 18:04:25.873
146.0, 30116.069926747077, 20595.947873109326, -59052.19126369849, -36028.642777042725, -28999.60029120449, -33141.69146319526, -187500.02235174447, -48579.19199218655, -28156.604249072585, -28609.919978370664, -59859.75979086874, -68670.59393770623, -27689.206920767658, -119723.31937829488, -49783.99572181651, -21339.50100415957, -0.012, 1.01, 0.058, 192.0, 0.0, 0.0, 0.0, 0.0, 0.0, 0.0, 0.0, 0.0, 0.0, 1.69533746587339E9, 0.0, 2023-09-21 18:04:25.873
148.0, 30179.370067044507, 20602.31812027909, -59057.84625504569, -36030.40856485469, -29005.83642790752, -33139.1210125829, -187500.02235174447, -48574.967512484494, -28179.112455739076, -28614.591492961827, -59888.99587261628, -68699.38298456467, -27594.815503932896, -119623.6305980242, -49737.012354971455, -21289.813076235423, -0.01, 1.012, 0.06, 192.0, 127.5, 88.0, 15.5, 80.0, 0.5, 112.0, 0.0, 0.0, 0.0, 1.695337465873393E9, 0.0, 2023-09-21 18:04:25.873
150.0, 30107.15158070941, 20590.091716062037, -59062.003679514375, -36039.66218705919, -29007.669270952854, -33148.776966187594, -187500.02235174447, -48580.80131778733, -28161.14165319701, -28616.71490868508, -59867.33703223909, -68680.8086849223, -27678.72395261812, -119673.13971199271, -49787.3037799959, -21340.193908237685, -0.01, 1.012, 0.06, 192.0, 0.0, 0.0, 0.0, 0.0, 0.0, 0.0, 0.0, 0.0, 0.0, 1.695337465932793E9, 0.0, 2023-09-21 18:04:25.932
152.0, 30189.338945071573, 20599.390041755443, -59069.15623774007, -36041.003291726505, -29015.917064656864, -33148.91107665432, -187500.02235174447, -48585.78575680086, -28187.516711654273, -28619.799449419912, -59904.128003612524, -68711.63174052618, -27601.386916802756, -119583.59862370475, -49745.75188705348, -21291.44475358066, -0.01, 1.012, 0.06, 192.0, 0.0, 0.0, 0.0, 0.0, 0.0, 0.0, 0.0, 0.0, 0.0, 1.695337465932805E9, 0.0, 2023-09-21 18:04:25.932
154.0, 30095.483970103738, 20598.831248144063, -59051.92304276503, -36031.52615207746, -29003.06481159506, -33138.0704805935, -187500.02235174447, -48573.358186883714, -28150.345760625096, -28607.014251591478, -59860.65386064695, -68670.48217898395, -27688.37990622281, -119627.1845253926, -49799.66429467968, -21343.569021650437, -0.01, 1.012, 0.06, 192.0, 0.0, 0.0, 0.0, 0.0, 0.0, 0.0, 0.0, 0.0, 0.0, 1.695337465932809E9, 0.0, 2023-09-21 18:04:25.932
156.0, 30195.038639907678, 20602.45223074582, -59074.36419419816, -36050.77100405347, -29005.322337785048, -33160.48928028218, -187500.02235174447, -48595.70993133902, -28174.73151382584, -28611.886931882735, -59891.43221276191, -68698.84654269773, -27614.17211463119, -119566.45483570754, -49750.021070244446, -21309.50496310055, -0.01, 1.012, 0.06, 192.0, 0.0, 0.0, 0.0, 0.0, 0.0, 0.0, 0.0, 0.0, 0.0, 1.695337465932813E9, 0.0, 2023-09-21 18:04:25.932
158.0, 30089.158426422888, 20614.924504151884, -59044.56931883923, -36015.38819258072, -29012.005509377184, -33127.40869848832, -187500.02235174447, -48562.98697745645, -28156.939525239413, -28620.224132564563, -59866.19709327187, -68678.14882733213, -27683.797798609474, -119573.96502184452, -49796.69151266712, -21340.260963471053, -0.008, 1.012, 0.062, 192.0, 127.5, 96.0, 15.5, 80.0, 0.5, 120.0, 0.0, 0.0, 0.0, 1.695337465932816E9, 0.0, 2023-09-21 18:04:25.932
160.0, 30188.802503204646, 20627.486184535766, -59052.48183637641, -36023.03248918444, -28990.88311086692, -33141.28913179506, -187500.02235174447, -48571.36888162719, -28149.339932124607, -28589.199911260595, -59865.77241012722, -68674.79606566383, -27621.727004257085, -119559.39168445965, -49753.26207319046, -21336.394111680285, -0.008, 1.012, 0.062, 192.0, 0.0, 0.0, 0.0, 0.0, 0.0, 0.0, 0.0, 0.0, 0.0, 1.69533746593282E9, 0.0, 2023-09-21 18:04:25.932
162.0, 30082.944641464313, 20629.050806647636, -59035.13688267909, -35999.831378439834, -28996.78397140312, -33111.382497713865, -187500.02235174447, -48544.770305725375, -28131.1903156269, -28590.31749848336, -59839.21853771431, -68650.92440258556, -27651.41012089373, -119548.86401282121, -49773.646864133705, -21351.79446360999, -0.008, 1.012, 0.062, 192.0, 0.0, 0.0, 0.0, 0.0, 0.0, 0.0, 0.0, 0.0, 0.0, 1.695337465932823E9, 0.0, 2023-09-21 18:04:25.932
164.0, 30195.44097130787, 20604.486239491252, -59084.869514092155, -36054.213172699594, -28998.996794104198, -33168.87118445292, -187500.02235174447, -48606.304658210836, -28168.473025378353, -28602.0521643224, -59882.55857021315, -68689.2129408375, -27616.004957676527, -119530.55793411231, -49746.109514964766, -21334.829489568412, -0.008, 1.012, 0.062, 192.0, 0.0, 0.0, 0.0, 0.0, 0.0, 0.0, 0.0, 0.0, 0.0, 1.695337465932827E9, 0.0, 2023-09-21 18:04:25.932
166.0, 30089.448999100805, 20612.89049540645, -59059.67909809102, -36022.58545429533, -29024.388375805425, -33131.07438457899, -187500.02235174447, -48568.59726531473, -28165.67905732144, -28626.19204833413, -59874.78016314271, -68685.07786811327, -27656.506318629545, -119479.08186663174, -49797.58558244534, -21328.526297632015, -0.008, 1.012, 0.062, 192.0, 0.0, 0.0, 0.0, 0.0, 0.0, 0.0, 0.0, 0.0, 0.0, 1.69533746599256E9, 0.0, 2023-09-21 18:04:25.992
168.0, 30184.913299669424, 20618.769004198195, -59072.151371497086, -36047.440594129635, -28990.97251784474, -33157.114166869425, -187500.02235174447, -48586.05397773433, -28161.454577619385, -28605.673146924157, -59874.46723872033, -68683.66970821259, -27654.025274995005, -119500.69600352002, -49780.5982566593, -21347.435873441205, -0.012, 1.012, 0.058, 192.0, 127.5, 80.0, 15.5, 80.0, 0.5, 104.0, 0.0, 0.0, 0.0, 1.695337465992573E9, 0.0, 2023-09-21 18:04:25.992
170.0, 30100.781333539646, 20620.847716432538, -59066.205807471975, -36029.98388171004, -29020.32035831456, -33139.322178283, -187500.02235174447, -48578.94612299754, -28166.215499188365, -28622.593417476826, -59873.66257591994, -68685.54725474682, -27649.733740059586, -119429.12571777412, -49783.772204371955, -21331.052044755466, -0.012, 1.012, 0.058, 192.0, 0.0, 0.0, 0.0, 0.0, 0.0, 0.0, 0.0, 0.0, 0.0, 1.695337465992578E9, 0.0, 2023-09-21 18:04:25.992
172.0, 30172.284564052174, 20635.13048113948, -59064.55177838228, -36034.23071315655, -28980.288383995103, -33147.99465513166, -187500.02235174447, -48581.404814887625, -28152.558583326172, -28601.381611988738, -59862.08437229209, -68670.54923421732, -27666.85517631235, -119474.43270378503, -49789.09191955232, -21363.37266723784, -0.012, 1.012, 0.058, 192.0, 0.0, 0.0, 0.0, 0.0, 0.0, 0.0, 0.0, 0.0, 0.0, 1.695337465992581E9, 0.0, 2023-09-21 18:04:25.992
174.0, 30102.301252162608, 20641.478376564788, -59053.15238871007, -36010.6496227562, -29015.425326278848, -33115.584625671465, -187500.02235174447, -48552.99574768493, -28153.787929271213, -28606.656623680192, -59857.70343037885, -68668.24700453843, -27633.5734288184, -119399.37554590411, -49770.56232339887, -21335.58944887989, -0.012, 1.012, 0.058, 192.0, 0.0, 0.0, 0.0, 0.0, 0.0, 0.0, 0.0, 0.0, 0.0, 1.695337465992585E9, 0.0, 2023-09-21 18:04:25.992
176.0, 30175.05618036463, 20620.914771665906, -59085.87534259264, -36057.87885879027, -28997.45452373678, -33167.35126582995, -187500.02235174447, -48602.25899246443, -28162.23688867532, -28597.55946368688, -59866.733535138796, -68673.79023716334, -27671.794911836972, -119449.39874999509, -49780.12887002574, -21363.663239915757, -0.012, 1.012, 0.058, 192.0, 0.0, 0.0, 0.0, 0.0, 0.0, 0.0, 0.0, 0.0, 0.0, 1.695337465992588E9, 0.0, 2023-09-21 18:04:25.992
178.0, 30119.646205859925, 20639.779643986185, -59066.87635980563, -36021.06553567237, -29027.27175084016, -33127.58751244396, -187500.02235174447, -48571.70415779402, -28176.363191171076, -28620.961740131588, -59875.47306722082, -68684.94375764654, -27637.529687586986, -119333.21438231641, -49775.30089322339, -21317.50688761555, -0.012, 1.01, 0.06, 192.0, 127.5, 80.0, 15.5, 72.0, 0.5, 112.0, 0.0, 0.0, 0.0, 1.695337465992592E9, 0.0, 2023-09-21 18:04:25.992
180.0, 30150.62572367498, 20652.341324370067, -59058.78502831281, -36026.29584387491, -28986.01043057566, -33140.3727102724, -187500.02235174447, -48579.14728869764, -28147.37297861254, -28592.41856246216, -59848.56156689663, -68655.55121368781, -27698.68406041671, -119411.91487454354, -49800.73717841353, -21374.123856320843, -0.012, 1.01, 0.06, 192.0, 0.0, 0.0, 0.0, 0.0, 0.0, 0.0, 0.0, 0.0, 0.0, 1.69533746605291E9, 0.0, 2023-09-21 18:04:26.052
182.0, 30126.128211751966, 20653.83889124857, -59056.8404265452, -36015.81287572537, -29021.7508699597, -33128.03454733307, -187500.02235174447, -48568.61961705919, -28162.9968479868, -28607.41658299167, -59863.716049637325, -68671.5550627178, -27624.69978626964, -119304.15711452451, -49765.242608218505, -21323.87713478531, -0.012, 1.01, 0.06, 192.0, 0.0, 0.0, 0.0, 0.0, 0.0, 0.0, 0.0, 0.0, 0.0, 1.695337466052933E9, 0.0, 2023-09-21 18:04:26.052
184.0, 30136.789993857146, 20650.5755365581, -59057.041592245296, -36028.419259598166, -28985.429285219823, -33146.78766093107, -187500.02235174447, -48583.05884397732, -28139.907495964468, -28591.926824084145, -59838.23506095828, -68648.06337929529, -27696.67240341573, -119380.68948753948, -49797.94321035662, -21377.7448389226, -0.012, 1.01, 0.06, 192.0, 0.0, 0.0, 0.0, 0.0, 0.0, 0.0, 0.0, 0.0, 0.0, 1.695337466052937E9, 0.0, 2023-09-21 18:04:26.052
186.0, 30146.423595717384, 20647.17807140089, -59069.42445867354, -36029.13451542074, -29029.618684007968, -33141.17737307279, -187500.02235174447, -48584.24348643345, -28170.507034123784, -28614.747955173014, -59870.86860786303, -68681.23336806695, -27624.923303714193, -119252.5022330883, -49757.73242208152, -21315.02584398101, -0.012, 1.01, 0.06, 192.0, 0.0, 0.0, 0.0, 0.0, 0.0, 0.0, 0.0, 0.0, 0.0, 1.695337466052941E9, 0.0, 2023-09-21 18:04:26.052
188.0, 30130.0621187761, 20640.874879464493, -59069.78208658482, -36041.56208533789, -29007.82573316404, -33159.30463782605, -187500.02235174447, -48596.2687249504, -28148.579972813128, -28610.27760628195, -59846.43815117337, -68663.01669633588, -27723.516848506555, -119318.79750714274, -49806.772149416465, -21370.681687674725, -0.01, 1.016, 0.052000000000000005, 192.0, 127.5, 88.0, 15.5, 96.0, 0.5, 80.0, 0.0, 0.0, 0.0, 1.695337466052944E9, 0.0, 2023-09-21 18:04:26.052
190.0, 30152.12329055349, 20654.911774982425, -59060.68492659151, -36018.11510540427, -29023.427250793848, -33136.70702418173, -187500.02235174447, -48568.44080310355, -28168.048342233702, -28618.771269174966, -59871.203884029856, -68685.83782742475, -27636.725024786596, -119199.19332256238, -49761.8451430613, -21312.813021279933, -0.01, 1.016, 0.052000000000000005, 192.0, 0.0, 0.0, 0.0, 0.0, 0.0, 0.0, 0.0, 0.0, 0.0, 1.695337466052948E9, 0.0, 2023-09-21 18:04:26.052
192.0, 30100.379002139452, 20657.102245939048, -59046.692734562486, -36013.86827395776, -28992.470084723245, -33135.65649219233, -187500.02235174447, -48567.54673332533, -28124.641254501494, -28593.04441130691, -59828.37794165349, -68642.38603620364, -27727.338996808412, -119288.17561723896, -49805.98983836053, -21384.696231448204, -0.01, 1.016, 0.052000000000000005, 192.0, 0.0, 0.0, 0.0, 0.0, 0.0, 0.0, 0.0, 0.0, 0.0, 1.695337466052951E9, 0.0, 2023-09-21 18:04:26.052
194.0, 30149.664598663403, 20659.85151050705, -59058.583862612715, -36017.04222167042, -29009.45741050928, -33134.58360845847, -187500.02235174447, -48568.99959671493, -28151.061016447667, -28603.99676609001, -59861.10089553606, -68671.68917318454, -27619.80475423393, -119191.97370910332, -49753.26207319046, -21338.45047217017, -0.01, 1.016, 0.052000000000000005, 192.0, 0.0, 0.0, 0.0, 0.0, 0.0, 0.0, 0.0, 0.0, 0.0, 1.695337466052955E9, 0.0, 2023-09-21 18:04:26.052
196.0, 30081.469426330263, 20654.732961026784, -59050.91721426454, -36016.17050363666, -28996.44869523629, -33134.15892531382, -187500.02235174447, -48559.4106983436, -28126.697614991383, -28603.52737945645, -59832.64712484445, -68646.38699846114, -27703.176761052226, -119259.40892212497, -49803.26292553698, -21396.565007753972, -0.01, 1.016, 0.052000000000000005, 192.0, 0.0, 0.0, 0.0, 0.0, 0.0, 0.0, 0.0, 0.0, 0.0, 1.695337466113125E9, 0.0, 2023-09-21 18:04:26.113
198.0, 30157.48770922276, 20649.03326619068, -59080.35446171218, -36039.43866961464, -29013.570131489058, -33151.90621041134, -187500.02235174447, -48581.87420152118, -28156.313676394664, -28612.33396677184, -59868.544026439675, -68680.38400177765, -27618.32953909988, -119174.2264240058, -49753.3961836572, -21351.28037348752, -0.008, 1.014, 0.062, 192.0, 127.5, 96.0, 15.5, 88.0, 0.5, 120.0, 0.0, 0.0, 0.0, 1.695337466113142E9, 0.0, 2023-09-21 18:04:26.113
200.0, 30077.46846407276, 20638.952629441337, -59075.95116805449, -36039.103393447804, -29019.381585047435, -33153.269666823115, -187500.02235174447, -48580.37663464268, -28155.151385682988, -28632.584647248346, -59860.31858448012, -68674.84076915274, -27711.022223356038, -119200.24385455178, -49807.80032966141, -21385.657356459782, -0.008, 1.014, 0.062, 192.0, 0.0, 0.0, 0.0, 0.0, 0.0, 0.0, 0.0, 0.0, 0.0, 1.695337466113146E9, 0.0, 2023-09-21 18:04:26.113
202.0, 30169.60235471754, 20642.70772250983, -59094.39135723012, -36055.3084081779, -29024.41072754988, -33168.31239084154, -187500.02235174447, -48600.359094185726, -28169.702371323394, -28634.596304249324, -59887.3865470155, -68699.24887409793, -27639.34017888787, -119125.43256585987, -49769.66825362066, -21349.626344397824, -0.008, 1.014, 0.062, 192.0, 0.0, 0.0, 0.0, 0.0, 0.0, 0.0, 0.0, 0.0, 0.0, 1.69533746611315E9, 0.0, 2023-09-21 18:04:26.113
204.0, 30063.878603443936, 20653.347152870556, -59061.221368458435, -36020.75261125, -29019.51569551417, -33132.52724796859, -187500.02235174447, -48566.18327691356, -28146.36715011205, -28630.48358326955, -59855.64706988896, -68670.32571677277, -27723.76271769556, -119149.59480161605, -49822.97716414656, -21388.630138472337, -0.008, 1.014, 0.062, 192.0, 0.0, 0.0, 0.0, 0.0, 0.0, 0.0, 0.0, 0.0, 0.0, 1.695337466113153E9, 0.0, 2023-09-21 18:04:26.113
206.0, 30160.90752612442, 20658.868033751016, -59080.68973787901, -36042.23263767155, -29015.98411989023, -33156.197745346755, -187500.02235174447, -48587.30567542383, -28163.019199731258, -28613.831533650344, -59874.556645698154, -68683.33443204575, -27658.294458185967, -119114.39080409895, -49775.03267228993, -21367.08305681742, -0.008, 1.014, 0.062, 192.0, 0.0, 0.0, 0.0, 0.0, 0.0, 0.0, 0.0, 0.0, 0.0, 1.695337466113156E9, 0.0, 2023-09-21 18:04:26.113
208.0, 30053.440338783308, 20654.688257537873, -59060.68492659151, -36023.0548409289, -29025.997701406206, -33138.33870152697, -187500.02235174447, -48570.18423917106, -28146.076577434134, -28620.76057443149, -59851.42259018691, -68664.76013240339, -27708.854104143873, -119115.75426051072, -49813.768245430976, -21389.792429184014, -0.016, 1.012, 0.068, 192.0, 127.5, 64.0, 15.5, 80.0, 1.0, 16.0, 0.0, 0.0, 0.0, 1.69533746611316E9, 0.0, 2023-09-21 18:04:26.113
210.0, 30160.885174379968, 20645.099359166546, -59092.200886273495, -36061.29867569193, -29019.6498059809, -33178.68360026879, -187500.02235174447, -48607.10932101123, -28166.260202677277, -28615.731431929045, -59873.79668638667, -68681.94862388952, -27659.009714008538, -119088.79805669762, -49772.19400074411, -21372.112199319865, -0.016, 1.012, 0.068, 192.0, 0.0, 0.0, 0.0, 0.0, 0.0, 0.0, 0.0, 0.0, 0.0, 1.695337466173457E9, 0.0, 2023-09-21 18:04:26.173
212.0, 30053.641504483403, 20652.38602785898, -59072.26313021936, -36031.61555905528, -29051.456338340802, -33142.94316088476, -187500.02235174447, -48575.4145473736, -28184.63333661954, -28649.236696867552, -59882.84914289107, -68694.04091763985, -27702.461505229654, -119028.76127109067, -49810.81781516288, -21358.83526311341, -0.016, 1.012, 0.068, 192.0, 0.0, 0.0, 0.0, 0.0, 0.0, 0.0, 0.0, 0.0, 0.0, 1.695337466173471E9, 0.0, 2023-09-21 18:04:26.173
214.0, 30154.49257546575, 20656.610507561032, -59083.64016814711, -36056.247181445025, -29020.052137381095, -33173.47564381071, -187500.02235174447, -48603.44363492056, -28168.048342233702, -28610.94815861561, -59869.393392728976, -68676.38303952015, -27684.133074776302, -119042.37348346395, -49788.734291641034, -21372.358068508875, -0.016, 1.012, 0.068, 192.0, 0.0, 0.0, 0.0, 0.0, 0.0, 0.0, 0.0, 0.0, 0.0, 1.695337466173476E9, 0.0, 2023-09-21 18:04:26.173
216.0, 30060.972876664746, 20665.059466965136, -59070.47499066294, -36028.419259598166, -29054.786748264643, -33148.508745254134, -187500.02235174447, -48593.76532957141, -28189.237795977333, -28643.537002031448, -59879.943416111884, -68689.19058909305, -27690.90565334626, -118966.9810494162, -49803.32998077035, -21348.75462636407, -0.016, 1.012, 0.068, 192.0, 0.0, 0.0, 0.0, 0.0, 0.0, 0.0, 0.0, 0.0, 0.0, 1.695337466173479E9, 0.0, 2023-09-21 18:04:26.173
218.0, 30141.662674148403, 20681.175074717412, -59063.03185975932, -36033.381346867245, -29010.865570409966, -33154.588419745975, -187500.02235174447, -48592.55833537082, -28157.43126361743, -28598.118257298265, -59851.22142448681, -68658.456940467, -27687.888167844794, -119010.23167493721, -49802.0559313364, -21384.47271400365, -0.016, 1.01, 0.062, 192.0, 127.5, 64.0, 15.5, 72.0, 0.5, 120.0, 0.0, 0.0, 0.0, 1.695337466173483E9, 0.0, 2023-09-21 18:04:26.173
220.0, 30046.84657416899, 20681.219778206323, -59054.26997593284, -36013.91297744668, -29041.621570780466, -33132.571951457496, -187500.02235174447, -48571.79356477184, -28160.694618307905, -28610.456420237595, -59849.36622969702, -68659.77569338986, -27672.688981615185, -118943.15408982684, -49792.48938470953, -21369.206472540674, -0.016, 1.01, 0.062, 192.0, 0.0, 0.0, 0.0, 0.0, 0.0, 0.0, 0.0, 0.0, 0.0, 1.695337466173487E9, 0.0, 2023-09-21 18:04:26.173
222.0, 30108.1574092099, 20693.356775445554, -59053.73353406591, -36024.03831768493, -28999.622642948943, -33144.88776265237, -187500.02235174447, -48581.13659395416, -28146.076577434134, -28586.94238507061, -59837.96684002481, -68646.78932986133, -27699.466371472645, -119005.31429115705, -49791.50590795349, -21413.1052986509, -0.016, 1.01, 0.062, 192.0, 0.0, 0.0, 0.0, 0.0, 0.0, 0.0, 0.0, 0.0, 0.0, 1.695337466173491E9, 0.0, 2023-09-21 18:04:26.173
224.0, 30050.80283293758, 20694.317900457132, -59053.08533347671, -36008.19093086612, -29036.927704444854, -33122.82659087498, -187500.02235174447, -48567.25616064741, -28161.81220553067, -28600.46519046607, -59853.45659893234, -68660.75917014589, -27652.393597649767, -118915.9743685692, -49774.00449204499, -21374.83911214341, -0.016, 1.01, 0.062, 192.0, 0.0, 0.0, 0.0, 0.0, 0.0, 0.0, 0.0, 0.0, 0.0, 1.695337466173495E9, 0.0, 2023-09-21 18:04:26.173
226.0, 30110.77256331117, 20683.61141486304, -59071.65963311907, -36041.986768482544, -29010.30677679858, -33165.94310592927, -187500.02235174447, -48602.88484130918, -28148.781138513226, -28589.46813219406, -59841.476063904294, -68649.58329791825, -27699.511074961552, -118976.81581697654, -49795.81979463337, -21412.47944980615, -0.016, 1.01, 0.062, 192.0, 0.0, 0.0, 0.0, 0.0, 0.0, 0.0, 0.0, 0.0, 0.0, 1.69533746623383E9, 0.0, 2023-09-21 18:04:26.233
228.0, 30068.304248846085, 20694.988452790793, -59055.700487577975, -36013.19772162411, -29047.52243131667, -33131.56612295701, -187500.02235174447, -48576.97916948547, -28170.082350979133, -28619.37476627526, -59860.11741878002, -68670.07984758375, -27657.19922270766, -118859.42445509727, -49777.26784673546, -21360.176367780732, -0.02, 1.014, 0.06, 192.0, 127.5, 48.0, 15.5, 88.0, 0.5, 112.0, 0.0, 0.0, 0.0, 1.695337466233844E9, 0.0, 2023-09-21 18:04:26.233
230.0, 30096.445095115316, 20686.3830311755, -59064.03768825981, -36035.88474224624, -29018.353404802492, -33160.265762837626, -187500.02235174447, -48596.00050401694, -28148.110586179566, -28594.22905376304, -59838.07859874709, -68646.67757113905, -27725.036767129513, -118942.79646191555, -49806.839204649834, -21419.29673186502, -0.02, 1.014, 0.06, 192.0, 0.0, 0.0, 0.0, 0.0, 0.0, 0.0, 0.0, 0.0, 0.0, 1.69533746623385E9, 0.0, 2023-09-21 18:04:26.233
232.0, 30080.508301318685, 20696.441316180386, -59057.15335096757, -36015.94698619211, -29039.006416679196, -33135.94706487025, -187500.02235174447, -48578.58849508625, -28165.924926510448, -28615.686728440134, -59857.25639548974, -68669.05166733882, -27648.057359225437, -118823.34873954639, -49770.47291642105, -21363.462074215662, -0.02, 1.014, 0.06, 192.0, 0.0, 0.0, 0.0, 0.0, 0.0, 0.0, 0.0, 0.0, 0.0, 1.695337466233856E9, 0.0, 2023-09-21 18:04:26.233
234.0, 30078.831920484536, 20691.18865623339, -59063.72476383743, -36033.13547767824, -29013.570131489058, -33158.723492470206, -187500.02235174447, -48593.34064642676, -28145.58483905612, -28598.006498575985, -59836.8269010576, -68649.44918745151, -27721.505191505577, -118900.99869978413, -49807.33094302785, -21422.671845277768, -0.02, 1.014, 0.06, 192.0, 0.0, 0.0, 0.0, 0.0, 0.0, 0.0, 0.0, 0.0, 0.0, 1.695337466233861E9, 0.0, 2023-09-21 18:04:26.233
236.0, 30090.365420623475, 20690.026365521713, -59072.777220341835, -36031.079117188354, -29047.477727827758, -33154.23079183469, -187500.02235174447, -48596.492242394954, -28168.540080611718, -28614.211513306083, -59863.291366492675, -68675.89130114214, -27644.302266156945, -118784.32259372743, -49772.32811121084, -21366.010173083567, -0.02, 1.014, 0.06, 192.0, 0.0, 0.0, 0.0, 0.0, 0.0, 0.0, 0.0, 0.0, 0.0, 1.69533746623387E9, 0.0, 2023-09-21 18:04:26.233
238.0, 30061.062283642565, 20689.3334614436, -59061.15431322507, -36029.670957287664, -29023.98604440523, -33151.7720999446, -187500.02235174447, -48586.88099227918, -28151.91038273697, -28611.9539871161, -59843.733590094285, -68655.81943462127, -27741.48765104862, -118858.01629519658, -49823.1112746133, -21422.51538306658, -0.016, 1.016, 0.06, 192.0, 127.5, 64.0, 15.5, 96.0, 0.5, 112.0, 0.0, 0.0, 0.0, 1.695337466233874E9, 0.0, 2023-09-21 18:04:26.233
240.0, 30101.787162040135, 20685.354850930555, -59077.381679699625, -36039.125745192265, -29049.578791806554, -33160.57868726, -187500.02235174447, -48596.939277284066, -28171.825787046648, -28618.32423428586, -59870.578035185106, -68681.38983027815, -27645.866888268818, -118746.36933164232, -49776.53023916844, -21364.669068416246, -0.016, 1.016, 0.06, 192.0, 0.0, 0.0, 0.0, 0.0, 0.0, 0.0, 0.0, 0.0, 0.0, 1.695337466293202E9, 0.0, 2023-09-21 18:04:26.293
242.0, 30046.17602183533, 20693.580292890107, -59059.5896911132, -36026.36289910828, -29028.523448529657, -33150.386291788374, -187500.02235174447, -48588.80324230233, -28149.630504802528, -28618.972434875064, -59846.34874419555, -68659.93215560105, -27739.744214981107, -118800.01351833505, -49828.14041711574, -21410.266627105073, -0.016, 1.016, 0.06, 192.0, 0.0, 0.0, 0.0, 0.0, 0.0, 0.0, 0.0, 0.0, 0.0, 1.69533746629322E9, 0.0, 2023-09-21 18:04:26.293
244.0, 30102.927101007357, 20703.81739185064, -59062.60717661467, -36023.9042072182, -29040.235762624237, -33146.92177139781, -187500.02235174447, -48585.62929458968, -28156.134862439023, -28610.590530704325, -59861.03384030269, -68672.87381564068, -27649.19729819266, -118709.64541550225, -49776.46318393507, -21369.7429144076, -0.016, 1.016, 0.06, 192.0, 0.0, 0.0, 0.0, 0.0, 0.0, 0.0, 0.0, 0.0, 0.0, 1.695337466293226E9, 0.0, 2023-09-21 18:04:26.293
246.0, 30026.66294892585, 20699.19058074839, -59054.20292069947, -36018.562140293376, -29034.334902088038, -33141.46794575071, -187500.02235174447, -48581.13659395416, -28137.80643198567, -28610.47877198205, -59838.123302236, -68651.0585130523, -27736.637322501818, -118765.74829408508, -49820.76434144549, -21421.9565894552, -0.016, 1.016, 0.06, 192.0, 0.0, 0.0, 0.0, 0.0, 0.0, 0.0, 0.0, 0.0, 0.0, 1.69533746629323E9, 0.0, 2023-09-21 18:04:26.293
248.0, 30099.820208528068, 20714.47917395582, -59053.28649917681, -36015.03056466944, -29026.489439784225, -33136.975245115194, -187500.02235174447, -48575.43689911806, -28141.338007609607, -28598.721754398557, -59848.00277328525, -68659.19454803402, -27650.4266441377, -118700.72706946458, -49776.48553567952, -21394.530999008537, -0.01, 1.01, 0.06, 192.0, 127.5, 88.0, 15.5, 72.0, 0.5, 112.0, 0.0, 0.0, 0.0, 1.695337466293235E9, 0.0, 2023-09-21 18:04:26.293
250.0, 30014.391841219884, 20708.175982019424, -59046.11158920665, -36015.924634447656, -29022.89080892692, -33138.159887571324, -187500.02235174447, -48569.67014904859, -28129.826859215125, -28606.18723704663, -59828.199127697844, -68643.79419610431, -27721.639301972307, -118738.30035189395, -49809.633172706745, -21436.462871606695, -0.01, 1.01, 0.06, 192.0, 0.0, 0.0, 0.0, 0.0, 0.0, 0.0, 0.0, 0.0, 0.0, 1.69533746629324E9, 0.0, 2023-09-21 18:04:26.293
252.0, 30105.274034175163, 20715.328540245122, -59057.30981317876, -36029.35803286529, -29016.095878612505, -33149.358111543435, -187500.02235174447, -48586.7692335569, -28143.841402988604, -28597.55946368688, -59845.968764539815, -68660.13332130114, -27656.23809769608, -118684.72322043458, -49756.12309648074, -21408.322025337464, -0.01, 1.01, 0.06, 192.0, 0.0, 0.0, 0.0, 0.0, 0.0, 0.0, 0.0, 0.0, 0.0, 1.695337466293245E9, 0.0, 2023-09-21 18:04:26.293
254.0, 30006.74754461617, 20700.129354015513, -59057.935662023505, -36029.08981193183, -29037.12887014495, -33148.03935862057, -187500.02235174447, -48584.10937596671, -28147.507089079274, -28619.240655808528, -59843.308906949635, -68661.49677771292, -27722.19809558369, -118693.14982809423, -49804.38051275975, -21430.18203141475, -0.01, 1.01, 0.06, 192.0, 0.0, 0.0, 0.0, 0.0, 0.0, 0.0, 0.0, 0.0, 0.0, 1.695337466293249E9, 0.0, 2023-09-21 18:04:26.293
0.0, 30103.552949852106, 20708.24303725279, -59058.986194012905, -36032.37551836676, -29015.715898956765, -33156.24244883567, -187500.02235174447, -48590.211402203015, -28155.464310105363, -28606.81308589138, -59856.13880826698, -68674.3043272858, -27668.688019357687, -118655.66595264268, -49773.26688447796, -21409.28315034904, -0.01, 1.01, 0.06, 192.0, 0.0, 0.0, 0.0, 0.0, 0.0, 0.0, 0.0, 0.0, 0.0, 1.69533746635298E9, 0.0, 2023-09-21 18:04:26.352
2.0, 30006.769896360627, 20693.200313234367, -59058.91913877954, -36031.10146893281, -29049.08705342854, -33155.16956510181, -187500.02235174447, -48594.23471620497, -28147.551792568185, -28617.966606374575, -59844.493549405764, -68668.02348709387, -27711.513961734054, -118645.42885368216, -49803.061759836884, -21421.397795843815, -0.014, 1.018, 0.058, 192.0, 127.5, 72.0, 15.5, 104.0, 0.5, 104.0, 0.0, 0.0, 0.0, 1.69533746635299E9, 0.0, 2023-09-21 18:04:26.352
4.0, 30109.54321736613, 20692.127429500513, -59066.36226968316, -36040.51155334849, -29030.624512508457, -33162.970323916714, -187500.02235174447, -48596.447538906046, -28164.986153243324, -28613.8538853948, -59869.75102064026, -68688.29651931483, -27680.042705540982, -118627.03336799543, -49783.68279739413, -21412.322987594962, -0.014, 1.018, 0.058, 192.0, 0.0, 0.0, 0.0, 0.0, 0.0, 0.0, 0.0, 0.0, 0.0, 1.695337466352994E9, 0.0, 2023-09-21 18:04:26.352
6.0, 30005.31703297103, 20697.558903403155, -59027.805510497754, -35999.78667495092, -29040.83925972453, -33118.088021050455, -187500.02235174447, -48556.57202679778, -28143.841402988604, -28610.501123726503, -59847.019296529215, -68667.41998999358, -27707.35653726537, -118598.51254207046, -49809.58846921784, -21418.49206906463, -0.014, 1.018, 0.058, 192.0, 0.0, 0.0, 0.0, 0.0, 0.0, 0.0, 0.0, 0.0, 0.0, 1.695337466352997E9, 0.0, 2023-09-21 18:04:26.352
8.0, 30107.084525476042, 20686.226568964314, -59039.5848798257, -36025.781753752446, -29008.004547119686, -33150.65451272184, -187500.02235174447, -48581.49422186545, -28135.213629628855, -28580.728600112034, -59847.93571805188, -68665.81066439279, -27685.34006897689, -118629.11208022978, -49783.86161134978, -21437.267534407085, -0.014, 1.018, 0.058, 192.0, 0.0, 0.0, 0.0, 0.0, 0.0, 0.0, 0.0, 0.0, 0.0, 1.695337466353001E9, 0.0, 2023-09-21 18:04:26.353
10.0, 30023.17607679082, 20670.08860946758, -59030.48771983239, -36006.201625609596, -29043.275599870158, -33128.77215490009, -187500.02235174447, -48565.04333794634, -28143.595533799595, -28603.773248645455, -59858.08341003459, -68678.84173141024, -27682.702563131163, -118565.56607074334, -49794.389282988224, -21419.944932454222, -0.014, 1.018, 0.058, 192.0, 0.0, 0.0, 0.0, 0.0, 0.0, 0.0, 0.0, 0.0, 0.0, 1.695337466353004E9, 0.0, 2023-09-21 18:04:26.353
12.0, 30106.9057115204, 20661.170263429914, -59031.381789610605, -36021.95960545059, -29013.45837276678, -33150.02866387709, -187500.02235174447, -48579.34845439774, -28148.155289668477, -28589.624594405246, -59870.19805552937, -68687.35774604771, -27699.66753717274, -118597.37260310324, -49797.0044370895, -21438.452176863215, -0.012, 1.014, 0.058, 192.0, 127.5, 80.0, 15.5, 88.0, 0.5, 104.0, 0.0, 0.0, 0.0, 1.695337466353007E9, 0.0, 2023-09-21 18:04:26.353
14.0, 30046.913629402356, 20640.02551317519, -59025.25741162985, -36009.08500064433, -29046.807175494097, -33135.03064334758, -187500.02235174447, -48566.80912575831, -28149.85402224708, -28595.90543459719, -59869.63926191798, -68689.27999607087, -27678.276917729014, -118518.78386959838, -49792.66819866517, -21410.62425501636, -0.012, 1.014, 0.058, 192.0, 0.0, 0.0, 0.0, 0.0, 0.0, 0.0, 0.0, 0.0, 0.0, 1.695337466413128E9, 0.0, 2023-09-21 18:04:26.413
16.0, 30132.744328110737, 20615.639759974452, -59047.89972876308, -36044.51251560599, -29023.89663742741, -33172.89449845487, -187500.02235174447, -48604.62827737669, -28165.924926510448, -28601.26985326646, -59888.10180283807, -68706.0661561568, -27714.509095491067, -118550.90332638066, -49806.86155639429, -21430.673769792767, -0.012, 1.014, 0.058, 192.0, 0.0, 0.0, 0.0, 0.0, 0.0, 0.0, 0.0, 0.0, 0.0, 1.69533746641314E9, 0.0, 2023-09-21 18:04:26.413
18.0, 30093.67347880286, 20601.84873364553, -59044.72578105042, -36026.36289910828, -29063.839204769043, -33148.642855720864, -187500.02235174447, -48581.65068407663, -28189.371906444063, -28628.069594868375, -59908.08426238111, -68727.68029304508, -27677.427551439712, -118430.6509412111, -49800.33484701334, -21379.37651626784, -0.012, 1.014, 0.058, 192.0, 0.0, 0.0, 0.0, 0.0, 0.0, 0.0, 0.0, 0.0, 0.0, 1.695337466413144E9, 0.0, 2023-09-21 18:04:26.413
20.0, 30140.902714836924, 20603.569817968586, -59033.10287393366, -36025.31236711888, -29012.676061710845, -33151.593285988965, -187500.02235174447, -48583.75174805543, -28159.10764445158, -28597.38064973124, -59878.892884122484, -68697.66190024161, -27743.454604560688, -118507.74210783746, -49830.95673691711, -21436.976961729164, -0.012, 1.014, 0.058, 192.0, 0.0, 0.0, 0.0, 0.0, 0.0, 0.0, 0.0, 0.0, 0.0, 1.695337466413148E9, 0.0, 2023-09-21 18:04:26.413
22.0, 30135.650054889928, 20582.670936902876, -59053.08533347671, -36030.095640432315, -29061.961658234795, -33153.98492264568, -187500.02235174447, -48590.30080918084, -28187.784932587736, -28617.497219741013, -59911.36996881604, -68726.65211280013, -27671.549042647966, -118391.55774015878, -49800.29014352443, -21384.47271400365, -0.014, 1.014, 0.06, 192.0, 127.5, 72.0, 15.5, 88.0, 0.5, 112.0, 0.0, 0.0, 0.0, 1.695337466413152E9, 0.0, 2023-09-21 18:04:26.413
24.0, 30155.453700477326, 20595.74670740923, -59025.793853496776, -36010.42610531165, -29010.105611098483, -33144.261913807626, -187500.02235174447, -48568.35139612573, -28161.722798552848, -28602.61095793378, -59882.737384168795, -68699.89707468713, -27754.496366321608, -118460.53522354785, -49844.613652779306, -21443.48131936566, -0.014, 1.014, 0.06, 192.0, 0.0, 0.0, 0.0, 0.0, 0.0, 0.0, 0.0, 0.0, 0.0, 1.695337466413155E9, 0.0, 2023-09-21 18:04:26.413
26.0, 30161.600430202536, 20613.98573088476, -59013.545097535265, -35985.74977943299, -29021.61675949297, -33117.14924778334, -187500.02235174447, -48543.96564292499, -28147.99882745729, -28583.343754213307, -59868.52167469522, -68686.2625105694, -27660.194356464668, -118367.21669044695, -49789.918934097164, -21405.818629958467, -0.014, 1.014, 0.06, 192.0, 0.0, 0.0, 0.0, 0.0, 0.0, 0.0, 0.0, 0.0, 0.0, 1.695337466413159E9, 0.0, 2023-09-21 18:04:26.413
28.0, 30161.39926450244, 20601.871085389983, -59020.69765576097, -36006.55925352088, -29004.160047073372, -33143.85958240743, -187500.02235174447, -48565.84800074673, -28130.072728404135, -28568.16691972815, -59852.2272529873, -68669.92338537257, -27732.032863144024, -118449.1581856201, -49823.558309502405, -21463.888462053357, -0.014, 1.014, 0.06, 192.0, 0.0, 0.0, 0.0, 0.0, 0.0, 0.0, 0.0, 0.0, 0.0, 1.695337466413163E9, 0.0, 2023-09-21 18:04:26.413
30.0, 30196.64796550846, 20582.760343880695, -59041.104798448665, -36017.08692515933, -29043.36500684798, -33148.642855720864, -187500.02235174447, -48575.682768307066, -28168.33891491162, -28598.98997533202, -59893.82384941863, -68713.28576961586, -27644.011693479028, -118330.26925686232, -49780.19592525911, -21404.09754563541, -0.014, 1.014, 0.06, 192.0, 0.0, 0.0, 0.0, 0.0, 0.0, 0.0, 0.0, 0.0, 0.0, 1.695337466473453E9, 0.0, 2023-09-21 18:04:26.473
32.0, 30164.77437791519, 20583.87793110346, -59027.51493781983, -36012.68363150163, -29010.373832031946, -33147.592323731464, -187500.02235174447, -48567.88200949216, -28142.924981465934, -28599.28054800994, -59865.683003149396, -68688.94471990403, -27741.577058026443, -118401.50426644139, -49840.411524821706, -21465.788360332055, -0.004, 1.01, 0.064, 192.0, 127.5, 112.0, 15.5, 72.0, 1.0, 0.0, 0.0, 0.0, 0.0, 1.695337466473477E9, 0.0, 2023-09-21 18:04:26.473
34.0, 30221.883084998502, 20581.44159095783, -59039.67428680352, -36020.08205891634, -29028.858724696485, -33149.201649332244, -187500.02235174447, -48572.33000663877, -28169.680019578936, -28604.108524812287, -59893.24270406279, -68714.58217079427, -27647.2750481695, -118294.75233492284, -49785.13566078373, -21409.99840617161, -0.004, 1.01, 0.064, 192.0, 0.0, 0.0, 0.0, 0.0, 0.0, 0.0, 0.0, 0.0, 0.0, 1.695337466473481E9, 0.0, 2023-09-21 18:04:26.473
36.0, 30163.857956392523, 20584.72729739276, -59021.54702205027, -36009.688497744624, -29005.92583488534, -33140.79739341705, -187500.02235174447, -48564.37278561268, -28139.1922401419, -28595.346640985805, -59856.20586350034, -68684.1614465906, -27741.68881674872, -118359.8853182656, -49835.360030574804, -21465.408380676316, -0.004, 1.01, 0.064, 192.0, 0.0, 0.0, 0.0, 0.0, 0.0, 0.0, 0.0, 0.0, 0.0, 1.695337466473484E9, 0.0, 2023-09-21 18:04:26.473
38.0, 30234.623579338026, 20589.73408815075, -59032.6334873001, -36014.158846635684, -29017.101707112994, -33143.79252717406, -187500.02235174447, -48576.643893318644, -28164.00267648729, -28589.75870487198, -59884.12319232502, -68707.47431605749, -27647.453862125145, -118274.36754397959, -49780.486497937025, -21419.81082198749, -0.004, 1.01, 0.064, 192.0, 0.0, 0.0, 0.0, 0.0, 0.0, 0.0, 0.0, 0.0, 0.0, 1.695337466473488E9, 0.0, 2023-09-21 18:04:26.473
40.0, 30154.269058021197, 20584.54848343712, -59016.428472570005, -36006.961584921075, -29007.535160486124, -33136.86348639292, -187500.02235174447, -48564.50689607941, -28146.076577434134, -28594.161998529675, -59858.03870654568, -68686.32956580276, -27731.16114511027, -118321.79794571376, -49830.33088807236, -21466.704781854725, -0.004, 1.01, 0.064, 192.0, 0.0, 0.0, 0.0, 0.0, 0.0, 0.0, 0.0, 0.0, 0.0, 1.695337466473491E9, 0.0, 2023-09-21 18:04:26.473
42.0, 30243.18429746441, 20584.97316658177, -59031.33708612169, -36022.38428859524, -29011.55847448808, -33151.302713311044, -187500.02235174447, -48582.99178874395, -28164.829691032137, -28593.692611896113, -59879.876360878516, -68705.8649904567, -27649.465519126123, -118254.25097396983, -49781.49232643752, -21428.52800232506, -0.01, 1.016, 0.066, 192.0, 127.5, 88.0, 15.5, 96.0, 1.0, 8.0, 0.0, 0.0, 0.0, 1.695337466473495E9, 0.0, 2023-09-21 18:04:26.473
44.0, 30149.44108121885, 20585.487256704244, -59009.38767306658, -35999.18317785063, -29009.63622446492, -33128.235713033166, -187500.02235174447, -48557.13082040916, -28153.542060082207, -28603.99676609001, -59857.12228502301, -68690.62110073818, -27736.413805057266, -118276.51331144731, -49828.00630664901, -21459.35105792893, -0.01, 1.016, 0.066, 192.0, 0.0, 0.0, 0.0, 0.0, 0.0, 0.0, 0.0, 0.0, 0.0, 1.695337466533719E9, 0.0, 2023-09-21 18:04:26.533
46.0, 30254.203707480876, 20576.568910666574, -59039.003734469865, -36033.29193988942, -29010.418535520857, -33160.042245393066, -187500.02235174447, -48592.08894873726, -28167.53425211123, -28589.89281533871, -59873.12613405301, -68704.52388578939, -27664.776464078008, -118235.43080513846, -49783.97337007205, -21433.19951691622, -0.01, 1.016, 0.066, 192.0, 0.0, 0.0, 0.0, 0.0, 0.0, 0.0, 0.0, 0.0, 0.0, 1.695337466533734E9, 0.0, 2023-09-21 18:04:26.533
48.0, 30150.603371930527, 20585.487256704244, -59012.53926903478, -36000.16665460666, -29025.595370006013, -33123.206570530725, -187500.02235174447, -48554.001576185416, -28173.837444047625, -28618.547751730413, -59871.405049729954, -68706.62494976819, -27723.092165361904, -118222.93617998794, -49829.30270782742, -21440.03915071954, -0.01, 1.016, 0.066, 192.0, 0.0, 0.0, 0.0, 0.0, 0.0, 0.0, 0.0, 0.0, 0.0, 1.695337466533737E9, 0.0, 2023-09-21 18:04:26.533
50.0, 30242.469041641838, 20598.13834406595, -59013.545097535265, -36007.94506167711, -28995.6440324359, -33133.51072472462, -187500.02235174447, -48566.54090482485, -28146.478908834328, -28568.7927685729, -59847.95806979634, -68679.15465583261, -27672.554871148455, -118229.84286902462, -49797.697341167615, -21451.34913341393, -0.01, 1.016, 0.066, 192.0, 0.0, 0.0, 0.0, 0.0, 0.0, 0.0, 0.0, 0.0, 0.0, 1.695337466533741E9, 0.0, 2023-09-21 18:04:26.533
52.0, 30150.290447508152, 20587.968300338784, -59012.31575159023, -36001.97714590754, -29019.69450946981, -33126.44757347674, -187500.02235174447, -48557.93548320955, -28162.728627053337, -28598.028850320443, -59855.91529082243, -68687.9165396591, -27701.276862773524, -118203.73603150083, -49810.415483762685, -21451.304429925018, -0.016, 1.014, 0.07200000000000001, 192.0, 127.5, 64.0, 15.5, 88.0, 1.0, 32.0, 0.0, 0.0, 0.0, 1.695337466533744E9, 0.0, 2023-09-21 18:04:26.533
54.0, 30253.64491386949, 20589.354108495012, -59033.39344661158, -36023.61363454028, -28996.649860936388, -33149.31340805452, -187500.02235174447, -48581.18129744307, -28172.272821935752, -28587.9482135711, -59869.61691017353, -68698.31010083081, -27684.5354061765, -118198.30455759818, -49786.163841028676, -21447.0128949896, -0.016, 1.014, 0.07200000000000001, 192.0, 0.0, 0.0, 0.0, 0.0, 0.0, 0.0, 0.0, 0.0, 0.0, 1.695337466533748E9, 0.0, 2023-09-21 18:04:26.533
56.0, 30160.080511579577, 20588.817666628085, -59024.34099010718, -36007.27450934345, -29026.914122928876, -33127.78867814406, -187500.02235174447, -48566.317387380295, -28171.602269602095, -28604.533207956938, -59864.073677548615, -68695.04674614033, -27704.562569208454, -118145.9344203394, -49806.52628022746, -21438.094548951933, -0.016, 1.014, 0.07200000000000001, 192.0, 0.0, 0.0, 0.0, 0.0, 0.0, 0.0, 0.0, 0.0, 0.0, 1.695337466533751E9, 0.0, 2023-09-21 18:04:26.533
58.0, 30250.336855690108, 20601.088774334046, -59032.45467334446, -36020.394983338716, -28996.649860936388, -33149.827498176994, -187500.02235174447, -48585.89751552314, -28171.512862624273, -28595.70426889709, -59868.99106132878, -68695.65024324063, -27698.30408076097, -118163.07820833662, -49798.747873157015, -21451.14796771383, -0.016, 1.014, 0.07200000000000001, 192.0, 0.0, 0.0, 0.0, 0.0, 0.0, 0.0, 0.0, 0.0, 0.0, 1.695337466533754E9, 0.0, 2023-09-21 18:04:26.533
60.0, 30166.83073840508, 20591.678689918364, -59036.768560024335, -36017.48925655952, -29030.579809019546, -33144.35132078544, -187500.02235174447, -48585.85281203423, -28160.739321796817, -28602.65566142269, -59856.31762222262, -68685.21197858, -27683.66368814274, -118096.64882381546, -49803.777015659456, -21435.010008217097, -0.016, 1.014, 0.07200000000000001, 192.0, 0.0, 0.0, 0.0, 0.0, 0.0, 0.0, 0.0, 0.0, 0.0, 1.695337466593249E9, 0.0, 2023-09-21 18:04:26.593
62.0, 30236.255256683264, 20600.865256889494, -59044.792836283785, -36035.14713467922, -29000.06967783805, -33166.79247221857, -187500.02235174447, -48602.437806420065, -28176.251432448797, -28611.015213848976, -59875.83069513211, -68701.8640281992, -27708.96586286615, -118129.14826025347, -49809.18613781764, -21459.52987188457, -0.018000000000000002, 1.008, 0.064, 192.0, 127.5, 56.0, 15.5, 64.0, 1.0, 0.0, 0.0, 0.0, 0.0, 1.695337466593259E9, 0.0, 2023-09-21 18:04:26.593
64.0, 30171.01051461822, 20607.347262781535, -59037.528519335814, -36011.18606462313, -29035.273675355158, -33140.260951550124, -187500.02235174447, -48578.45438461952, -28173.34570566961, -28619.307711041896, -59871.3826979855, -68697.55014151933, -27677.494606673077, -118041.75293943322, -49801.98887610303, -21435.56880182848, -0.018000000000000002, 1.008, 0.064, 192.0, 0.0, 0.0, 0.0, 0.0, 0.0, 0.0, 0.0, 0.0, 0.0, 1.695337466593262E9, 0.0, 2023-09-21 18:04:26.593
66.0, 30228.07451821262, 20605.89439939194, -59051.31954566474, -36035.28124514595, -29006.149352329896, -33163.46206229473, -187500.02235174447, -48602.862489564715, -28173.010429502778, -28609.763516159477, -59873.66257591994, -68696.16433336311, -27719.024147871038, -118090.7256115348, -49812.62830646376, -21469.096418511443, -0.018000000000000002, 1.008, 0.064, 192.0, 0.0, 0.0, 0.0, 0.0, 0.0, 0.0, 0.0, 0.0, 0.0, 1.695337466593266E9, 0.0, 2023-09-21 18:04:26.593
68.0, 30176.48669200977, 20614.924504151884, -59043.67524906102, -36011.007250667484, -29038.89465795692, -33134.13657356937, -187500.02235174447, -48576.62154157419, -28172.943374269413, -28619.173600575163, -59876.009509087744, -68699.09241188674, -27677.919289817728, -117991.86384580897, -49799.217259790574, -21428.95268546971, -0.018000000000000002, 1.008, 0.064, 192.0, 0.0, 0.0, 0.0, 0.0, 0.0, 0.0, 0.0, 0.0, 0.0, 1.695337466593269E9, 0.0, 2023-09-21 18:04:26.593
70.0, 30204.001689434255, 20612.51051575071, -59050.87251077563, -36029.64860554321, -29009.569169231556, -33158.94700991476, -187500.02235174447, -48601.9237162976, -28152.111548437068, -28602.7003649116, -59860.497398435764, -68683.02150762339, -27747.83554647393, -118069.08912290206, -49826.419332792684, -21482.21689250671, -0.018000000000000002, 1.008, 0.064, 192.0, 0.0, 0.0, 0.0, 0.0, 0.0, 0.0, 0.0, 0.0, 0.0, 1.695337466593272E9, 0.0, 2023-09-21 18:04:26.593
72.0, 30180.465302522818, 20618.120803608992, -59043.474083360925, -36008.906186688684, -29038.715844001275, -33133.66718693581, -187500.02235174447, -48581.65068407663, -28168.249507933797, -28616.75961217399, -59880.502209723265, -68704.27801660038, -27680.981478808106, -117953.99999070168, -49797.60793418979, -21431.411377359793, -0.01, 1.01, 0.07200000000000001, 192.0, 127.5, 88.0, 15.5, 72.0, 1.0, 32.0, 0.0, 0.0, 0.0, 1.695337466593276E9, 0.0, 2023-09-21 18:04:26.593
74.0, 30185.65090723645, 20613.628102973475, -59041.998868226874, -36019.970300194065, -29004.56237847357, -33152.95674240074, -187500.02235174447, -48590.99371325895, -28135.794774984694, -28591.256271750484, -59846.862834318024, -68673.58907146324, -27754.20579364369, -118033.61690445148, -49828.63215549376, -21488.274215254096, -0.01, 1.01, 0.07200000000000001, 192.0, 0.0, 0.0, 0.0, 0.0, 0.0, 0.0, 0.0, 0.0, 0.0, 1.69533746665358E9, 0.0, 2023-09-21 18:04:26.653
76.0, 30195.88800619698, 20618.858411176017, -59042.69177230499, -36007.27450934345, -29039.006416679196, -33131.92375086829, -187500.02235174447, -48575.07927120677, -28163.980324742835, -28612.8033534054, -59878.04351783318, -68705.44030731205, -27670.498510658566, -117913.31981579302, -49784.91214333918, -21427.09749067992, -0.01, 1.01, 0.07200000000000001, 192.0, 0.0, 0.0, 0.0, 0.0, 0.0, 0.0, 0.0, 0.0, 0.0, 1.695337466653617E9, 0.0, 2023-09-21 18:04:26.653
78.0, 30170.742293684758, 20612.734033195262, -59037.08148444671, -36011.61074776778, -29009.03272736463, -33140.43976550576, -187500.02235174447, -48581.94125675455, -28135.86183021806, -28597.76062938698, -59850.305002964145, -68677.90295814311, -27759.078473934947, -117995.70834585528, -49834.93534743015, -21488.900064098845, -0.01, 1.01, 0.07200000000000001, 192.0, 0.0, 0.0, 0.0, 0.0, 0.0, 0.0, 0.0, 0.0, 0.0, 1.695337466653623E9, 0.0, 2023-09-21 18:04:26.653
80.0, 30198.905491698446, 20617.69612046434, -59036.81326351324, -36002.42418079665, -29025.796535706108, -33128.14630605534, -187500.02235174447, -48572.82174501679, -28157.967705484356, -28608.84709463681, -59876.50124746576, -68704.14390613364, -27669.09035075788, -117887.05651605804, -49785.80621311739, -21437.021665218075, -0.01, 1.01, 0.07200000000000001, 192.0, 0.0, 0.0, 0.0, 0.0, 0.0, 0.0, 0.0, 0.0, 0.0, 1.695337466653628E9, 0.0, 2023-09-21 18:04:26.653
82.0, 30153.263229520708, 20613.225771573278, -59028.76663550933, -36003.78763720842, -29002.617776705956, -33134.96358811422, -187500.02235174447, -48573.49229735044, -28122.048452144678, -28589.222263005053, -59836.71514233531, -68666.9058998711, -27757.24563088961, -117970.71909555425, -49833.72835322957, -21500.63472993788, -0.01, 1.014, 0.062, 192.0, 127.5, 88.0, 15.5, 88.0, 0.5, 120.0, 0.0, 0.0, 0.0, 1.695337466653639E9, 0.0, 2023-09-21 18:04:26.653
84.0, 30216.78688726269, 20612.421108772887, -59044.390504883595, -36015.03056466944, -29027.450564795803, -33142.25025680665, -187500.02235174447, -48584.623466089186, -28160.493452607807, -28607.43893473613, -59881.15041031247, -68709.93300794758, -27659.792025064475, -117860.27912620058, -49779.57007641436, -21433.758310527603, -0.01, 1.014, 0.062, 192.0, 0.0, 0.0, 0.0, 0.0, 0.0, 0.0, 0.0, 0.0, 0.0, 1.695337466653643E9, 0.0, 2023-09-21 18:04:26.653
86.0, 30138.175802013375, 20614.656283218417, -59021.05528367225, -36000.56898600686, -29010.574997732045, -33130.13561131187, -187500.02235174447, -48567.1667536696, -28131.167963882443, -28606.455457980093, -59846.54990989565, -68678.59586222123, -27754.54106981052, -117921.99229264168, -49839.852731210325, -21488.408325720826, -0.01, 1.014, 0.062, 192.0, 0.0, 0.0, 0.0, 0.0, 0.0, 0.0, 0.0, 0.0, 0.0, 1.695337466653646E9, 0.0, 2023-09-21 18:04:26.653
88.0, 30217.815067507636, 20612.041129117148, -59048.27970841881, -36023.47952407355, -29027.651730495898, -33152.24148657817, -187500.02235174447, -48595.84404180575, -28153.72087403785, -28606.678975424646, -59875.92010210993, -68704.94856893404, -27664.083559999894, -117843.20239343673, -49786.11913753976, -21447.415226389796, -0.01, 1.014, 0.062, 192.0, 0.0, 0.0, 0.0, 0.0, 0.0, 0.0, 0.0, 0.0, 0.0, 1.69533746665365E9, 0.0, 2023-09-21 18:04:26.653
90.0, 30124.138906495442, 20621.384158299465, -59020.56354529424, -35997.90912841668, -29013.905407655886, -33126.22405603219, -187500.02235174447, -48566.85382924722, -28133.693711005893, -28607.03660333593, -59848.963898296824, -68681.79216167834, -27747.612029029373, -117875.16538800781, -49845.507722557515, -21488.028346065086, -0.01, 1.014, 0.062, 192.0, 0.0, 0.0, 0.0, 0.0, 0.0, 0.0, 0.0, 0.0, 0.0, 1.695337466714433E9, 0.0, 2023-09-21 18:04:26.714
92.0, 30211.86950348252, 20619.640722231954, -59036.746208279874, -36013.51064604648, -29011.51377099917, -33141.06561435051, -187500.02235174447, -48577.76148054141, -28149.563449569163, -28590.429257205637, -59868.387564228484, -68697.10310663022, -27674.320658960423, -117820.3589106034, -49793.29404750992, -21458.859319550913, -0.01, 1.012, 0.06, 192.0, 127.5, 88.0, 15.5, 80.0, 0.5, 112.0, 0.0, 0.0, 0.0, 1.695337466714445E9, 0.0, 2023-09-21 18:04:26.714
94.0, 30107.24098768723, 20626.636818246465, -59013.52274579081, -35986.688552700114, -29008.898616897895, -33114.44468670424, -187500.02235174447, -48553.53218955186, -28127.926960936424, -28592.686783395624, -59837.788026069175, -68669.99044060594, -27745.130985394837, -117848.43270163926, -49835.1141613858, -21496.34319500246, -0.01, 1.012, 0.06, 192.0, 0.0, 0.0, 0.0, 0.0, 0.0, 0.0, 0.0, 0.0, 0.0, 1.69533746671445E9, 0.0, 2023-09-21 18:04:26.714
96.0, 30203.800523734157, 20621.115937366, -59040.92598449302, -36011.722506490056, -29005.903483140886, -33143.41254751832, -187500.02235174447, -48581.9189050101, -28148.17764141293, -28584.37193445825, -59864.65482290445, -68690.2634728269, -27685.027144554515, -117813.2063523777, -49789.293085252415, -21469.766970845103, -0.01, 1.012, 0.06, 192.0, 0.0, 0.0, 0.0, 0.0, 0.0, 0.0, 0.0, 0.0, 0.0, 1.695337466714453E9, 0.0, 2023-09-21 18:04:26.714
98.0, 30091.974746224256, 20632.671789249398, -59010.549963778256, -35976.80908165086, -29013.59248323351, -33106.353355211424, -187500.02235174447, -48547.921901693575, -28133.47019356134, -28591.32332698385, -59840.716104592815, -68671.82328365128, -27736.52556377954, -117805.27148309608, -49822.999515891024, -21482.01572680661, -0.01, 1.012, 0.06, 192.0, 0.0, 0.0, 0.0, 0.0, 0.0, 0.0, 0.0, 0.0, 0.0, 1.695337466714457E9, 0.0, 2023-09-21 18:04:26.714
100.0, 30195.128046885497, 20628.492013036255, -59034.84631000118, -36013.91297744668, -29001.991927861207, -33146.58649523097, -187500.02235174447, -48587.216268446005, -28140.890972720503, -28573.55369014188, -59848.80743608564, -68677.94766163203, -27688.893996345283, -117801.49403828313, -49788.108442796285, -21472.560938902014, -0.011, 1.014, 0.056, 192.0, 127.5, 80.0, 15.5, 96.0, 0.5, 80.0, 0.0, 0.0, 0.0, 1.695337466714461E9, 0.0, 2023-09-21 18:04:26.714
102.0, 30093.829941014046, 20624.02166414519, -59033.14757742257, -36001.083076129325, -29036.19009687783, -33128.88391362237, -187500.02235174447, -48575.50395435142, -28151.038664703214, -28607.215417291573, -59852.31665996512, -68688.47533327047, -27719.91821764925, -117757.79637787299, -49821.881928668256, -21463.28496495306, -0.011, 1.014, 0.056, 192.0, 0.0, 0.0, 0.0, 0.0, 0.0, 0.0, 0.0, 0.0, 0.0, 1.695337466714464E9, 0.0, 2023-09-21 18:04:26.714
104.0, 30177.49252051026, 20646.1722429004, -59019.53536504929, -35994.511663259465, -28989.5420061996, -33121.530189696576, -187500.02235174447, -48562.249369889425, -28140.063958175655, -28587.03179204843, -59846.01346802872, -68679.24406281044, -27712.832714656917, -117774.6495931923, -49806.839204649834, -21471.91273831281, -0.011, 1.014, 0.056, 192.0, 0.0, 0.0, 0.0, 0.0, 0.0, 0.0, 0.0, 0.0, 0.0, 1.695337466773274E9, 0.0, 2023-09-21 18:04:26.773
106.0, 30089.069019445065, 20630.99540841525, -59027.805510497754, -35995.09280861531, -29029.59633226351, -33120.25614026262, -187500.02235174447, -48565.75859376891, -28141.0921384206, -28595.257234007986, -59841.56547088212, -68674.95252787501, -27706.753040165073, -117729.5884763704, -49802.99470460352, -21464.73782834266, -0.011, 1.014, 0.056, 192.0, 0.0, 0.0, 0.0, 0.0, 0.0, 0.0, 0.0, 0.0, 0.0, 1.695337466773289E9, 0.0, 2023-09-21 18:04:26.773
108.0, 30174.63149721998, 20625.541582768154, -59046.84919677368, -36026.63112004175, -29006.84225640801, -33153.64964647885, -187500.02235174447, -48593.5194603824, -28152.357417626074, -28593.24557700701, -59855.691773377876, -68684.38496403515, -27718.286540304012, -117752.11903478135, -49802.81589064788, -21473.566767402503, -0.011, 1.014, 0.056, 192.0, 0.0, 0.0, 0.0, 0.0, 0.0, 0.0, 0.0, 0.0, 0.0, 1.695337466773293E9, 0.0, 2023-09-21 18:04:26.773
110.0, 30093.137036935932, 20632.291809593655, -59034.33221987871, -36001.82068369635, -29046.829527238555, -33122.6701286638, -187500.02235174447, -48570.363053126704, -28167.33308641113, -28621.162905831687, -59866.46531420533, -68698.84654269773, -27709.81522915545, -117662.66735347122, -49810.10255934031, -21439.0109704746, -0.010499999999999999, 1.016, 0.052000000000000005, 192.0, 127.5, 88.0, 15.5, 104.0, 0.5, 64.0, 0.0, 0.0, 0.0, 1.695337466773297E9, 0.0, 2023-09-21 18:04:26.773
112.0, 30163.276811036685, 20621.875896677484, -59058.06977249024, -36042.32204464937, -29018.30870131358, -33160.91396342683, -187500.02235174447, -48603.66715236511, -28155.933696738924, -28598.14060904272, -59858.99983155726, -68690.37523154917, -27744.862764461373, -117719.08315647641, -49816.919841399176, -21477.38891570436, -0.010499999999999999, 1.016, 0.052000000000000005, 192.0, 0.0, 0.0, 0.0, 0.0, 0.0, 0.0, 0.0, 0.0, 0.0, 1.695337466773301E9, 0.0, 2023-09-21 18:04:26.773
114.0, 30107.397449898417, 20621.384158299465, -59060.70727833597, -36027.9051694757, -29057.245440154726, -33141.60205621744, -187500.02235174447, -48588.535021368865, -28173.256298691787, -28624.873295411267, -59874.37783174251, -68707.58607477976, -27706.216598298146, -117608.35261444481, -49808.49323373953, -21432.126633182364, -0.010499999999999999, 1.016, 0.052000000000000005, 192.0, 0.0, 0.0, 0.0, 0.0, 0.0, 0.0, 0.0, 0.0, 0.0, 1.695337466773305E9, 0.0, 2023-09-21 18:04:26.773
116.0, 30153.240877776254, 20614.455117518322, -59074.230083731425, -36050.68159707566, -29038.134698645437, -33172.626277521405, -187500.02235174447, -48615.67003913761, -28173.390409158517, -28623.085155854842, -59878.401145744465, -68711.25176087044, -27769.270869406566, -117662.08620811538, -49832.856635195814, -21471.68922086826, -0.010499999999999999, 1.016, 0.052000000000000005, 192.0, 0.0, 0.0, 0.0, 0.0, 0.0, 0.0, 0.0, 0.0, 0.0, 1.695337466773308E9, 0.0, 2023-09-21 18:04:26.773
118.0, 30114.617063357484, 20634.191707872356, -59052.79476079879, -36013.19772162411, -29060.307629145103, -33131.54377121255, -187500.02235174447, -48586.031625989875, -28176.407894659984, -28630.081251869353, -59878.75877365575, -68712.72697600449, -27720.767583938552, -117555.60249753029, -49818.5068152555, -21429.53383082555, -0.010499999999999999, 1.016, 0.052000000000000005, 192.0, 0.0, 0.0, 0.0, 0.0, 0.0, 0.0, 0.0, 0.0, 0.0, 1.695337466773311E9, 0.0, 2023-09-21 18:04:26.773
120.0, 30140.120403780988, 20623.641684489452, -59067.792781328295, -36038.499896347515, -29028.5010967852, -33162.99267566117, -187500.02235174447, -48602.75073084244, -28154.123205438045, -28609.13766731473, -59857.435209445386, -68691.04578388283, -27782.100770723915, -117638.1698415482, -49845.19479813514, -21488.67654665429, -0.01225, 1.016, 0.057, 192.0, 127.5, 72.0, 15.5, 96.0, 0.5, 120.0, 0.0, 0.0, 0.0, 1.695337466833047E9, 0.0, 2023-09-21 18:04:26.833
122.0, 30128.29633096413, 20640.85252772004, -59056.54985386728, -36013.46594255757, -29061.693437301332, -33132.88487587987, -187500.02235174447, -48579.4155096311, -28174.128016725543, -28628.94131290213, -59879.22816028931, -68712.34699634874, -27698.05821157196, -117515.05643308836, -49805.14047207123, -21430.070272692476, -0.01225, 1.016, 0.057, 192.0, 0.0, 0.0, 0.0, 0.0, 0.0, 0.0, 0.0, 0.0, 0.0, 1.695337466833058E9, 0.0, 2023-09-21 18:04:26.833
124.0, 30122.28371170565, 20631.487146793264, -59062.02603125883, -36031.79437301092, -29038.425271323358, -33160.48928028218, -187500.02235174447, -48601.45432966403, -28151.731568781328, -28616.267873795972, -59854.99886929976, -68688.25181582592, -27783.73244806915, -117597.91434978419, -49842.646699267236, -21491.694032155756, -0.01225, 1.016, 0.057, 192.0, 0.0, 0.0, 0.0, 0.0, 0.0, 0.0, 0.0, 0.0, 0.0, 1.695337466833061E9, 0.0, 2023-09-21 18:04:26.833
126.0, 30140.075700292076, 20636.22571661779, -59067.41280167256, -36026.07232643036, -29062.90043150192, -33149.782794688086, -187500.02235174447, -48597.67688485109, -28176.0502667487, -28632.361129803794, -59880.74807891227, -68714.22454288299, -27702.729726163117, -117480.83591232728, -49806.19100406063, -21434.115938438885, -0.01225, 1.016, 0.057, 192.0, 0.0, 0.0, 0.0, 0.0, 0.0, 0.0, 0.0, 0.0, 0.0, 1.695337466833065E9, 0.0, 2023-09-21 18:04:26.833
128.0, 30112.62775810096, 20633.051768905138, -59071.14554299659, -36035.974149224065, -29047.74594876122, -33162.52328902761, -187500.02235174447, -48604.337704698766, -28159.219403173855, -28621.36407153178, -59862.17377926991, -68692.63275773916, -27796.07061100848, -117551.98151492853, -49859.34345237535, -21488.900064098845, -0.01225, 1.016, 0.057, 192.0, 0.0, 0.0, 0.0, 0.0, 0.0, 0.0, 0.0, 0.0, 0.0, 1.695337466833068E9, 0.0, 2023-09-21 18:04:26.833
130.0, 30142.86966834899, 20651.55901331413, -59050.02314448633, -36010.02377391145, -29049.847012740018, -33131.63317819037, -187500.02235174447, -48578.58849508625, -28167.243679433308, -28619.799449419912, -59881.35157601257, -68709.15069689164, -27703.66849943024, -117442.61442930871, -49815.82460592087, -21436.619333817882, -0.011125, 1.013, 0.0635, 192.0, 127.5, 88.0, 15.5, 72.0, 1.0, 24.0, 0.0, 0.0, 0.0, 1.695337466833072E9, 0.0, 2023-09-21 18:04:26.833
132.0, 30078.608403039983, 20648.4744725793, -59038.28847864729, -36009.77790472245, -29020.78974494812, -33134.36009101392, -187500.02235174447, -48574.38636712866, -28126.071766146633, -28599.19114103212, -59834.077636489594, -68667.50939697139, -27783.665392835785, -117526.63463671622, -49852.45911508312, -21509.44131725327, -0.011125, 1.013, 0.0635, 192.0, 0.0, 0.0, 0.0, 0.0, 0.0, 0.0, 0.0, 0.0, 0.0, 1.695337466833075E9, 0.0, 2023-09-21 18:04:26.833
134.0, 30148.703473651825, 20641.23250737578, -59068.55274063978, -36030.81089625489, -29046.874230727462, -33155.61659999092, -187500.02235174447, -48601.051998263836, -28156.514842094763, -28614.032699350442, -59870.60038692956, -68703.965092178, -27680.82501659692, -117431.4162053366, -49794.881021366244, -21457.09353173894, -0.011125, 1.013, 0.0635, 192.0, 0.0, 0.0, 0.0, 0.0, 0.0, 0.0, 0.0, 0.0, 0.0, 1.695337466893349E9, 0.0, 2023-09-21 18:04:26.893
136.0, 30072.729894248238, 20639.198498630347, -59053.01827824334, -36021.154942650195, -29042.895620214418, -33146.65355046434, -187500.02235174447, -48588.736187068964, -28140.600400042582, -28624.985054133544, -59848.85213957455, -68684.7649436909, -27776.73635205464, -117475.15856923565, -49852.839094738854, -21501.417040993816, -0.011125, 1.013, 0.0635, 192.0, 0.0, 0.0, 0.0, 0.0, 0.0, 0.0, 0.0, 0.0, 0.0, 1.695337466893363E9, 0.0, 2023-09-21 18:04:26.893
138.0, 30153.464395220806, 20654.777664515696, -59058.91913877954, -36020.596149038814, -29049.355274362002, -33145.49125975266, -187500.02235174447, -48594.39117841616, -28165.321429410153, -28626.9073041567, -59879.49638122277, -68711.87760971519, -27695.912444104248, -117393.39588801813, -49804.04523659292, -21454.321915426484, -0.011125, 1.013, 0.0635, 192.0, 0.0, 0.0, 0.0, 0.0, 0.0, 0.0, 0.0, 0.0, 0.0, 1.695337466893367E9, 0.0, 2023-09-21 18:04:26.893
140.0, 30055.250830084187, 20662.354905886044, -59035.87449024612, -36001.440704040615, -29040.213410879784, -33128.54863745554, -187500.02235174447, -48577.068576463294, -28122.249617844776, -28606.656623680192, -59832.401255655444, -68667.7552661604, -27777.83158753295, -117443.91083048712, -49852.19089414965, -21507.11673582992, -0.0095625, 1.0114999999999998, 0.06775, 192.0, 127.5, 96.0, 15.5, 72.0, 1.0, 32.0, 0.0, 0.0, 0.0, 1.695337466893371E9, 0.0, 2023-09-21 18:04:26.893
142.0, 30160.10286332403, 20646.686333022873, -59073.85010407569, -36044.154887694705, -29047.567134805577, -33169.89936469786, -187500.02235174447, -48612.786664102874, -28151.08336819212, -28610.814048148877, -59866.75588688325, -68699.22652235348, -27695.934795848705, -117392.0100798619, -49797.898506867714, -21474.125561013887, -0.0095625, 1.0114999999999998, 0.06775, 192.0, 0.0, 0.0, 0.0, 0.0, 0.0, 0.0, 0.0, 0.0, 0.0, 1.695337466893376E9, 0.0, 2023-09-21 18:04:26.893
144.0, 30057.910687674368, 20641.187803886867, -59065.06586850475, -36027.48048633105, -29067.884870515452, -33151.436823777774, -187500.02235174447, -48591.15017547014, -28153.72087403785, -28640.206592107606, -59865.101857793554, -68702.57928402178, -27763.749988526106, -117379.44839947802, -49848.77107724799, -21487.58131117598, -0.0095625, 1.0114999999999998, 0.06775, 192.0, 0.0, 0.0, 0.0, 0.0, 0.0, 0.0, 0.0, 0.0, 0.0, 1.695337466893381E9, 0.0, 2023-09-21 18:04:26.893
146.0, 30155.40899698842, 20649.547356313153, -59075.25826397637, -36038.052861458404, -29048.148280161415, -33166.32308558501, -187500.02235174447, -48608.02574253389, -28161.14165319701, -28622.28049305445, -59877.641186432986, -68708.92717944708, -27717.727746692628, -117347.86538456267, -49821.747818201526, -21474.39378194735, -0.0095625, 1.0114999999999998, 0.06775, 192.0, 0.0, 0.0, 0.0, 0.0, 0.0, 0.0, 0.0, 0.0, 0.0, 1.695337466893386E9, 0.0, 2023-09-21 18:04:26.893
148.0, 30047.695940458292, 20656.4763970943, -59055.700487577975, -36013.55534953539, -29065.537937347646, -33136.818782904, -187500.02235174447, -48580.55544859832, -28147.909420479467, -28629.656568724702, -59856.94347106737, -68693.213903095, -27752.238840131624, -117331.32509366574, -49851.90032147173, -21494.979738590686, -0.0095625, 1.0114999999999998, 0.06775, 192.0, 0.0, 0.0, 0.0, 0.0, 0.0, 0.0, 0.0, 0.0, 0.0, 1.695337466893391E9, 0.0, 2023-09-21 18:04:26.893
150.0, 30135.314778723096, 20674.04486823617, -59053.84529278819, -36023.0548409289, -29035.631303266444, -33147.90524815384, -187500.02235174447, -48592.69244583755, -28136.778251740725, -28605.42727773515, -59849.29917446365, -68682.93210064556, -27724.880304918326, -117340.35519842568, -49824.78765544744, -21505.239189295673, -0.01078125, 1.0107499999999998, 0.067875, 192.0, 127.5, 80.0, 15.5, 72.0, 1.0, 16.0, 0.0, 0.0, 0.0, 1.695337466953542E9, 0.0, 2023-09-21 18:04:26.953
152.0, 30039.89518164339, 20668.05460072215, -59052.213615442946, -36013.37653557975, -29070.924707761373, -33134.76242241412, -187500.02235174447, -48582.3659398992, -28144.936638466912, -28624.71683320008, -59852.674287876405, -68688.5647402483, -27742.404072571288, -117296.29991010427, -49837.30463234242, -21496.700822913746, -0.01078125, 1.0107499999999998, 0.067875, 192.0, 0.0, 0.0, 0.0, 0.0, 0.0, 0.0, 0.0, 0.0, 0.0, 1.695337466953553E9, 0.0, 2023-09-21 18:04:26.953
154.0, 30131.24676123223, 20673.866054280526, -59062.763638825854, -36035.191838168124, -29039.22993412375, -33161.89744018286, -187500.02235174447, -48604.136538998675, -28134.67718776193, -28606.99189984702, -59847.86866281852, -68683.62500472367, -27741.800575470996, -117318.7410615374, -49822.932460657656, -21512.056471354543, -0.01078125, 1.0107499999999998, 0.067875, 192.0, 0.0, 0.0, 0.0, 0.0, 0.0, 0.0, 0.0, 0.0, 0.0, 1.695337466953557E9, 0.0, 2023-09-21 18:04:26.953
156.0, 30043.024425867134, 20675.98947000378, -59047.96678399644, -36013.98003268004, -29070.030637983164, -33138.53986722707, -187500.02235174447, -48583.68469282206, -28141.516821565252, -28630.148307102718, -59846.50520640674, -68687.2683390699, -27731.943456166206, -117250.30002001525, -49826.37462930377, -21490.911721099823, -0.01078125, 1.0107499999999998, 0.067875, 192.0, 0.0, 0.0, 0.0, 0.0, 0.0, 0.0, 0.0, 0.0, 0.0, 1.69533746695356E9, 0.0, 2023-09-21 18:04:26.953
158.0, 30115.57818836906, 20674.62601359201, -59059.9920225134, -36034.81185851239, -29041.80038473611, -33165.40666406234, -187500.02235174447, -48606.930507055586, -28141.114490165055, -28615.753783673503, -59850.48381691978, -68687.22363558097, -27746.069758661957, -117292.12013389113, -49825.25704208101, -21516.862096412435, -0.01078125, 1.0107499999999998, 0.067875, 192.0, 0.0, 0.0, 0.0, 0.0, 0.0, 0.0, 0.0, 0.0, 0.0, 1.695337466953564E9, 0.0, 2023-09-21 18:04:26.953
160.0, 30051.585143993518, 20673.19550194687, -59058.80738005727, -36025.29001537443, -29078.94898402083, -33153.470832523206, -187500.02235174447, -48604.85179482124, -28141.449766331883, -28625.812068678388, -59847.42162792941, -68685.77077219138, -27719.314720548955, -117208.88223753957, -49816.65162046572, -21487.134276286874, -0.011390625, 1.009375, 0.06793750000000001, 192.0, 127.5, 80.0, 15.5, 64.0, 1.0, 16.0, 0.0, 0.0, 0.0, 1.695337466953567E9, 0.0, 2023-09-21 18:04:26.953
162.0, 30117.321624436576, 20673.508426369244, -59069.58092088472, -36047.59705634083, -29053.51269883069, -33178.86241422444, -187500.02235174447, -48626.3765247317, -28163.28742066472, -28635.870353683276, -59869.14752353997, -68704.43447881157, -27767.92976473925, -117240.46525245492, -49828.18512060465, -21503.20518055024, -0.011390625, 1.009375, 0.06793750000000001, 192.0, 0.0, 0.0, 0.0, 0.0, 0.0, 0.0, 0.0, 0.0, 0.0, 1.69533746695357E9, 0.0, 2023-09-21 18:04:26.953
164.0, 30057.977742907733, 20694.362603946043, -59039.11549319214, -36007.63213725473, -29073.919841518386, -33136.68467243727, -187500.02235174447, -48585.47283237849, -28145.9424669674, -28623.24161806603, -59849.4779884193, -68683.53559774585, -27726.981368897126, -117153.02522814575, -49823.066571124386, -21478.77472386059, -0.011390625, 1.009375, 0.06793750000000001, 192.0, 0.0, 0.0, 0.0, 0.0, 0.0, 0.0, 0.0, 0.0, 0.0, 1.695337467013975E9, 0.0, 2023-09-21 18:04:27.013
166.0, 30091.48300784624, 20696.32955745811, -59044.390504883595, -36022.94308220662, -29038.26880911217, -33161.651570993854, -187500.02235174447, -48603.44363492056, -28130.31859759314, -28607.707155669592, -59834.9717062678, -68667.12941731566, -27783.01719224658, -117236.24077275286, -49841.84203646684, -21534.564678021037, -0.011390625, 1.009375, 0.06793750000000001, 192.0, 0.0, 0.0, 0.0, 0.0, 0.0, 0.0, 0.0, 0.0, 0.0, 1.695337467013986E9, 0.0, 2023-09-21 18:04:27.013
168.0, 30068.03602791262, 20697.782420847707, -59052.146560209585, -36016.72929724804, -29071.058818228106, -33148.46404176522, -187500.02235174447, -48591.86543129271, -28142.589705299106, -28615.70908018459, -59845.16410173942, -68678.81937966579, -27712.363328023355, -117131.58990521311, -49808.40382676171, -21486.48607569767, -0.011390625, 1.009375, 0.06793750000000001, 192.0, 0.0, 0.0, 0.0, 0.0, 0.0, 0.0, 0.0, 0.0, 0.0, 1.69533746701399E9, 0.0, 2023-09-21 18:04:27.013
170.0, 30083.1011036755, 20680.57157761712, -59073.8948075646, -36051.37450115377, -29055.546707576123, -33185.634992794396, -187500.02235174447, -48627.06942880982, -28143.170850654944, -28616.37963251825, -59844.51590115022, -68676.69596394253, -27786.92874752626, -117202.89197002555, -49843.74193474554, -21537.157480377853, -0.013695312500000001, 1.0056875, 0.06596875, 192.0, 127.5, 64.0, 15.5, 40.0, 1.0, 0.0, 0.0, 0.0, 0.0, 1.695337467013994E9, 0.0, 2023-09-21 18:04:27.013
172.0, 30085.179815909843, 20691.590987633586, -59069.15623774007, -36035.25889340149, -29086.36976317999, -33163.01502740563, -187500.02235174447, -48611.49026292447, -28170.43997889042, -28640.184240363153, -59872.097953808065, -68704.09920264473, -27716.833676914415, -117069.60851783855, -49810.683704696145, -21472.896215068846, -0.013695312500000001, 1.0056875, 0.06596875, 192.0, 0.0, 0.0, 0.0, 0.0, 0.0, 0.0, 0.0, 0.0, 0.0, 1.695337467013998E9, 0.0, 2023-09-21 18:04:27.013
174.0, 30064.75032147769, 20690.540455644186, -59058.96384226845, -36038.052861458404, -29061.536975090145, -33169.497033297666, -187500.02235174447, -48616.362943215725, -28145.76365301176, -28624.22509482206, -59845.65584011744, -68678.99819362143, -27809.615768148396, -117145.33622805313, -49857.39885060774, -21533.335332075996, -0.013695312500000001, 1.0056875, 0.06596875, 192.0, 0.0, 0.0, 0.0, 0.0, 0.0, 0.0, 0.0, 0.0, 0.0, 1.695337467014001E9, 0.0, 2023-09-21 18:04:27.014
176.0, 30096.467446859773, 20690.026365521713, -59070.58674938521, -36036.62234981327, -29091.89064406045, -33162.635047749885, -187500.02235174447, -48614.84302459277, -28170.730551568337, -28631.578818747857, -59874.981328842805, -68707.18374337957, -27716.252531558577, -117032.54932553165, -49808.51558548398, -21477.00893604862, -0.013695312500000001, 1.0056875, 0.06596875, 192.0, 0.0, 0.0, 0.0, 0.0, 0.0, 0.0, 0.0, 0.0, 0.0, 1.695337467014005E9, 0.0, 2023-09-21 18:04:27.014
178.0, 30053.395635294397, 20689.266406210234, -59061.66840334755, -36035.08007944585, -29068.533071104655, -33167.06069315204, -187500.02235174447, -48617.23466124948, -28141.338007609607, -28623.42043202167, -59843.33125869409, -68677.43357150955, -27810.465134437698, -117107.33826247911, -49864.327891388886, -21540.063207157044, -0.013695312500000001, 1.0056875, 0.06596875, 192.0, 0.0, 0.0, 0.0, 0.0, 0.0, 0.0, 0.0, 0.0, 0.0, 1.695337467014008E9, 0.0, 2023-09-21 18:04:27.014
180.0, 30101.250720173208, 20701.604569149564, -59063.255377203874, -36028.419259598166, -29084.492216645747, -33158.634085492384, -187500.02235174447, -48608.85275707874, -28164.62852533204, -28627.779022190458, -59868.85695086205, -68698.39950780863, -27716.319586791946, -117003.04502285064, -49810.683704696145, -21486.128447786385, -0.01784765625, 1.00684375, 0.06698437500000001, 192.0, 127.5, 40.0, 15.5, 64.0, 1.0, 16.0, 0.0, 0.0, 0.0, 1.695337467073346E9, 0.0, 2023-09-21 18:04:27.073
182.0, 30026.864114625947, 20702.409231949954, -59046.0892374622, -36021.62432928375, -29062.252230912716, -33151.63798947787, -187500.02235174447, -48595.97815227249, -28135.012463928757, -28615.731431929045, -59835.73166557928, -68665.78831264834, -27809.414602448298, -117070.79316029468, -49857.82353375239, -21544.198279881275, -0.01784765625, 1.00684375, 0.06698437500000001, 192.0, 0.0, 0.0, 0.0, 0.0, 0.0, 0.0, 0.0, 0.0, 0.0, 1.695337467073357E9, 0.0, 2023-09-21 18:04:27.073
184.0, 30098.166179438376, 20703.549170917177, -59066.898711550086, -36034.32012013437, -29078.725466576278, -33166.03251290709, -187500.02235174447, -48614.5748036593, -28157.0959874506, -28618.056013352398, -59866.733535138796, -68695.91846417409, -27718.934740893215, -116985.5659586866, -49806.72744592756, -21497.192561291762, -0.01784765625, 1.00684375, 0.06698437500000001, 192.0, 0.0, 0.0, 0.0, 0.0, 0.0, 0.0, 0.0, 0.0, 0.0, 1.695337467073361E9, 0.0, 2023-09-21 18:04:27.073
186.0, 30022.55022794607, 20690.339289944088, -59069.80443832927, -36038.36578588078, -29082.949946278328, -33174.12384439991, -187500.02235174447, -48618.15108277215, -28146.00952220077, -28631.265894325483, -59850.39440994197, -68684.67553671307, -27804.474866923676, -117017.14897360194, -49856.705946529626, -21532.12833787541, -0.01784765625, 1.00684375, 0.06698437500000001, 192.0, 0.0, 0.0, 0.0, 0.0, 0.0, 0.0, 0.0, 0.0, 0.0, 1.695337467073364E9, 0.0, 2023-09-21 18:04:27.073
188.0, 30105.497551619716, 20703.504467428265, -59069.73738309591, -36033.78367826744, -29078.345486920534, -33170.03347516459, -187500.02235174447, -48615.89355658216, -28168.249507933797, -28633.366958304283, -59880.368099256535, -68711.7658509929, -27728.076604375437, -116935.02866447314, -49818.75268444451, -21487.201331520242, -0.01784765625, 1.00684375, 0.06698437500000001, 192.0, 0.0, 0.0, 0.0, 0.0, 0.0, 0.0, 0.0, 0.0, 0.0, 1.695337467073368E9, 0.0, 2023-09-21 18:04:27.073
190.0, 30013.810695864046, 20692.66387136744, -59061.221368458435, -36031.23557939954, -29078.792521809642, -33162.67975123879, -187500.02235174447, -48603.19776573155, -28136.644141273995, -28626.10264135631, -59842.43718891587, -68676.38303952015, -27795.310651697, -116965.78466484365, -49857.06357444091, -21529.44612854077, -0.015923828125, 1.0094218750000001, 0.062492187500000004, 192.0, 127.5, 72.0, 15.5, 80.0, 0.5, 104.0, 0.0, 0.0, 0.0, 1.695337467073371E9, 0.0, 2023-09-21 18:04:27.073
192.0, 30109.09618247702, 20692.842685323085, -59082.276711735336, -36049.184030197146, -29084.201643967826, -33180.382332847395, -187500.02235174447, -48628.09760905476, -28171.781083557737, -28636.76442346149, -59885.66546269244, -68716.54912430634, -27731.474069532644, -116905.5914170255, -49816.00341987651, -21492.610453678426, -0.015923828125, 1.0094218750000001, 0.062492187500000004, 192.0, 0.0, 0.0, 0.0, 0.0, 0.0, 0.0, 0.0, 0.0, 0.0, 1.695337467073375E9, 0.0, 2023-09-21 18:04:27.073
194.0, 29988.396762418364, 20722.23522928181, -59027.64904828657, -35990.57775623533, -29065.046198969627, -33118.64681466184, -187500.02235174447, -48565.3115588798, -28128.84338245909, -28624.67212971117, -59836.17870046839, -68671.53271097335, -27797.009384275603, -116920.43297534382, -49862.24917915454, -21530.11668087443, -0.015923828125, 1.0094218750000001, 0.062492187500000004, 192.0, 0.0, 0.0, 0.0, 0.0, 0.0, 0.0, 0.0, 0.0, 0.0, 1.69533746713325E9, 0.0, 2023-09-21 18:04:27.133
196.0, 30094.411086369884, 20718.748357146786, -59057.73449632341, -36028.73218402054, -29050.65167554041, -33161.11512912693, -187500.02235174447, -48604.38240818768, -28130.3409493376, -28596.218359019564, -59844.13592149448, -68674.99723136393, -27738.604276013884, -116922.1540596669, -49809.499062240015, -21530.004922152155, -0.015923828125, 1.0094218750000001, 0.062492187500000004, 192.0, 0.0, 0.0, 0.0, 0.0, 0.0, 0.0, 0.0, 0.0, 0.0, 1.695337467133262E9, 0.0, 2023-09-21 18:04:27.133
198.0, 29997.65038462286, 20713.026310566227, -59050.55958635326, -36016.70694550359, -29078.859577043007, -33147.77113768711, -187500.02235174447, -48591.35134117024, -28142.790870999204, -28624.29215005543, -59849.05330527465, -68685.6143099802, -27774.612936331385, -116885.83247492701, -49836.03058290847, -21526.518050017126, -0.015923828125, 1.0094218750000001, 0.062492187500000004, 192.0, 0.0, 0.0, 0.0, 0.0, 0.0, 0.0, 0.0, 0.0, 0.0, 1.695337467133266E9, 0.0, 2023-09-21 18:04:27.133
200.0, 30101.228368428754, 20705.71729012934, -59070.676156363035, -36048.15584995221, -29061.08994020104, -33178.88476596889, -187500.02235174447, -48623.00141131895, -28157.408911872975, -28622.258141309994, -59870.42157297392, -68704.18860962255, -27761.134834424836, -116885.340736549, -49822.55248100191, -21522.852363926457, -0.0169619140625, 1.0107109375, 0.06024609375000001, 192.0, 127.5, 56.0, 15.5, 80.0, 0.5, 104.0, 0.0, 0.0, 0.0, 1.69533746713327E9, 0.0, 2023-09-21 18:04:27.133
202.0, 29999.17030324582, 20711.260522754255, -59038.377885625116, -36009.8002564669, -29074.746856063233, -33134.96358811422, -187500.02235174447, -48581.78479454337, -28144.802528000182, -28631.444708281128, -59854.79770359966, -68695.42672579607, -27777.429256132753, -116837.88798307038, -49853.4649435836, -21515.520991745114, -0.0169619140625, 1.0107109375, 0.06024609375000001, 192.0, 0.0, 0.0, 0.0, 0.0, 0.0, 0.0, 0.0, 0.0, 0.0, 1.695337467133273E9, 0.0, 2023-09-21 18:04:27.133
204.0, 30082.60936529748, 20708.846534353084, -59038.89197574759, -36025.133553163236, -29038.82760272355, -33153.202611589746, -187500.02235174447, -48599.2191552185, -28123.031928900713, -28595.793675874913, -59841.67722960439, -68682.37330703417, -27776.535186354544, -116884.8937016599, -49833.50483578502, -21542.991285680688, -0.0169619140625, 1.0107109375, 0.06024609375000001, 192.0, 0.0, 0.0, 0.0, 0.0, 0.0, 0.0, 0.0, 0.0, 0.0, 1.695337467133276E9, 0.0, 2023-09-21 18:04:27.133
206.0, 30005.249977737665, 20697.737717358796, -59030.77829251031, -36010.04612565591, -29081.362972422, -33134.18127705828, -187500.02235174447, -48586.590419601256, -28130.9891499268, -28614.211513306083, -59853.38954369898, -68696.87958918567, -27754.4516628327, -116813.47987812519, -49831.873158439776, -21516.772689434612, -0.0169619140625, 1.0107109375, 0.06024609375000001, 192.0, 0.0, 0.0, 0.0, 0.0, 0.0, 0.0, 0.0, 0.0, 0.0, 1.69533746713328E9, 0.0, 2023-09-21 18:04:27.133
208.0, 30086.073885688056, 20676.928243270904, -59044.12228395013, -36034.67774804566, -29057.536012832647, -33169.675847253304, -187500.02235174447, -48615.13359727068, -28132.352606338576, -28603.750896901, -59859.871549591015, -68699.85237119823, -27778.770360800074, -116856.05995131255, -49840.92561494418, -21541.337256590996, -0.0169619140625, 1.0107109375, 0.06024609375000001, 192.0, 0.0, 0.0, 0.0, 0.0, 0.0, 0.0, 0.0, 0.0, 0.0, 1.695337467133283E9, 0.0, 2023-09-21 18:04:27.133
210.0, 30038.509373487163, 20661.41613261892, -59036.58974606869, -36014.47177105806, -29098.32794646358, -33148.866373165416, -187500.02235174447, -48589.89847778064, -28147.462385590363, -28622.772231432467, -59874.28842476469, -68717.51024931791, -27747.567325540465, -116750.87264190587, -49838.444571309636, -21497.25961652513, -0.01648095703125, 1.01235546875, 0.058123046875, 192.0, 127.5, 64.0, 15.5, 88.0, 0.5, 96.0, 0.0, 0.0, 0.0, 1.695337467193433E9, 0.0, 2023-09-21 18:04:27.193
212.0, 30086.09623743251, 20657.482225594787, -59022.95518195095, -36015.25408211399, -29051.948076718818, -33153.4261290343, -187500.02235174447, -48591.77602431489, -28129.13395513701, -28595.52545494145, -59861.056192047145, -68702.40047006613, -27807.22413149168, -116815.60329384844, -49867.68065305718, -21543.907707203354, -0.01648095703125, 1.01235546875, 0.058123046875, 192.0, 0.0, 0.0, 0.0, 0.0, 0.0, 0.0, 0.0, 0.0, 0.0, 1.695337467193449E9, 0.0, 2023-09-21 18:04:27.193
214.0, 30055.876678928937, 20647.692161523362, -59014.752091735856, -35999.54080576191, -29080.37949566597, -33128.68274792227, -187500.02235174447, -48571.79356477184, -28136.107699407068, -28597.33594624233, -59869.61691017353, -68710.35769109223, -27735.810307956974, -116724.78815612652, -49840.09860039933, -21507.6755294413, -0.01648095703125, 1.01235546875, 0.058123046875, 192.0, 0.0, 0.0, 0.0, 0.0, 0.0, 0.0, 0.0, 0.0, 0.0, 1.695337467193453E9, 0.0, 2023-09-21 18:04:27.193
216.0, 30104.983461497246, 20605.69323369184, -59047.1397694516, -36045.406585384204, -29066.119082703484, -33178.81771073553, -187500.02235174447, -48617.122902527204, -28144.66841753345, -28595.771324130455, -59878.84818063357, -68719.25368538544, -27798.372840687378, -116785.85312197842, -49858.650548297235, -21544.198279881275, -0.01648095703125, 1.01235546875, 0.058123046875, 192.0, 0.0, 0.0, 0.0, 0.0, 0.0, 0.0, 0.0, 0.0, 0.0, 1.695337467193456E9, 0.0, 2023-09-21 18:04:27.193
218.0, 30095.14869393691, 20623.03818738916, -59018.59659178217, -36003.31825057486, -29080.60301311052, -33132.03550959057, -187500.02235174447, -48574.699291551035, -28169.05417073419, -28618.7042139416, -59901.33403555561, -68743.34886590825, -27739.565401025466, -116655.49774831507, -49842.80316147842, -21480.54051167256, -0.01648095703125, 1.01235546875, 0.058123046875, 192.0, 0.0, 0.0, 0.0, 0.0, 0.0, 0.0, 0.0, 0.0, 0.0, 1.695337467193459E9, 0.0, 2023-09-21 18:04:27.193
220.0, 30104.737592308236, 20606.654358703418, -59022.39638833957, -36024.5524078074, -29044.706111515297, -33158.432919792285, -187500.02235174447, -48591.887783037164, -28130.586818526604, -28587.858806593278, -59862.866683348024, -68705.90969394562, -27826.334873000967, -116752.95135414021, -49878.27537992899, -21554.524785819627, -0.014240478515625, 1.012177734375, 0.0590615234375, 192.0, 127.5, 80.0, 15.5, 80.0, 0.5, 112.0, 0.0, 0.0, 0.0, 1.695337467193463E9, 0.0, 2023-09-21 18:04:27.193
222.0, 30131.984368799254, 20598.339509766043, -59028.56546980923, -36020.28322461644, -29079.239556698747, -33150.22982957719, -187500.02235174447, -48590.367864414206, -28170.43997889042, -28616.066708095874, -59906.363178058054, -68747.99802875496, -27747.612029029373, -116626.73105320109, -49832.05197239542, -21493.549226945546, -0.014240478515625, 1.012177734375, 0.0590615234375, 192.0, 0.0, 0.0, 0.0, 0.0, 0.0, 0.0, 0.0, 0.0, 0.0, 1.695337467193467E9, 0.0, 2023-09-21 18:04:27.193
224.0, 30114.72882207976, 20596.64077718744, -59012.15928937904, -36011.297823345405, -29044.97433244876, -33144.306617296534, -187500.02235174447, -48579.8178410313, -28132.553772038675, -28595.637213663726, -59866.867645605525, -68709.28480735836, -27842.852812153436, -116712.76291760957, -49883.86331604282, -21563.241966157195, -0.014240478515625, 1.012177734375, 0.0590615234375, 192.0, 0.0, 0.0, 0.0, 0.0, 0.0, 0.0, 0.0, 0.0, 0.0, 1.695337467253671E9, 0.0, 2023-09-21 18:04:27.253
226.0, 30170.295258795653, 20591.83515212955, -59025.14565290757, -36016.7516489925, -29070.23180368326, -33146.541791742064, -187500.02235174447, -48586.05397773433, -28163.957972998378, -28607.103658569296, -59899.70235821037, -68737.58211583878, -27740.705339992684, -116600.40069823274, -49825.74878045902, -21501.9758346052, -0.014240478515625, 1.012177734375, 0.0590615234375, 192.0, 0.0, 0.0, 0.0, 0.0, 0.0, 0.0, 0.0, 0.0, 0.0, 1.695337467253683E9, 0.0, 2023-09-21 18:04:27.253
228.0, 30127.536371652648, 20580.748686879717, -59019.66947551602, -36016.10344840329, -29049.399977850913, -33155.080158123994, -187500.02235174447, -48589.719663824995, -28130.251542359776, -28589.110504282777, -59858.44103794588, -68697.19251360804, -27835.297922527545, -116673.8932340018, -49879.32591191839, -21564.27014640214, -0.014240478515625, 1.012177734375, 0.0590615234375, 192.0, 0.0, 0.0, 0.0, 0.0, 0.0, 0.0, 0.0, 0.0, 0.0, 1.695337467253687E9, 0.0, 2023-09-21 18:04:27.253
230.0, 30202.906453955944, 20576.323041477568, -59038.35553388066, -36027.301672375404, -29073.85278628502, -33164.110262883936, -187500.02235174447, -48597.47571915099, -28187.360249443085, -28620.00061512001, -59918.63428576402, -68753.78713056889, -27736.01147365707, -116551.69624706462, -49825.83818743684, -21495.71734615771, -0.0131202392578125, 1.0100888671875001, 0.06453076171875, 192.0, 127.5, 80.0, 15.5, 64.0, 1.0, 24.0, 0.0, 0.0, 0.0, 1.69533746725369E9, 0.0, 2023-09-21 18:04:27.253
232.0, 30129.34686295353, 20579.921672334873, -59017.27783885931, -36010.26964310046, -29052.17159416337, -33149.44751852125, -187500.02235174447, -48580.19782068704, -28140.734510509315, -28606.097830068808, -59866.241796760776, -68706.78141197938, -27837.823669650996, -116609.56491345941, -49888.89245854527, -21551.708466018255, -0.0131202392578125, 1.0100888671875001, 0.06453076171875, 192.0, 0.0, 0.0, 0.0, 0.0, 0.0, 0.0, 0.0, 0.0, 0.0, 1.695337467253693E9, 0.0, 2023-09-21 18:04:27.253
234.0, 30218.016233207734, 20577.507683933698, -59040.031914714804, -36027.18991365313, -29064.55446059161, -33166.412492562835, -187500.02235174447, -48600.94023954156, -28174.440941147917, -28612.57983596085, -59904.30681756816, -68740.6219530847, -27745.645075517306, -116513.94415067961, -49832.00726890651, -21499.427735737292, -0.0131202392578125, 1.0100888671875001, 0.06453076171875, 192.0, 0.0, 0.0, 0.0, 0.0, 0.0, 0.0, 0.0, 0.0, 0.0, 1.695337467253697E9, 0.0, 2023-09-21 18:04:27.253
236.0, 30127.49166816374, 20578.044125800625, -59019.89299296057, -36009.28616634443, -29061.93930649034, -33144.97716963019, -187500.02235174447, -48581.695387565545, -28147.216516401353, -28604.95789110159, -59868.52167469522, -68708.32368234679, -27835.208515549723, -116545.99655222852, -49884.69033058767, -21544.44414907028, -0.0131202392578125, 1.0100888671875001, 0.06453076171875, 192.0, 0.0, 0.0, 0.0, 0.0, 0.0, 0.0, 0.0, 0.0, 0.0, 1.6953374672537E9, 0.0, 2023-09-21 18:04:27.253
238.0, 30223.35830013255, 20566.48827391723, -59048.03383922981, -36037.158791680195, -29064.912088502897, -33173.676809510805, -187500.02235174447, -48608.33866695627, -28169.724723067848, -28603.013289333976, -59897.84716342058, -68733.89407800366, -27770.947250240715, -116492.17355158014, -49841.88673995576, -21512.570561477016, -0.0131202392578125, 1.0100888671875001, 0.06453076171875, 192.0, 0.0, 0.0, 0.0, 0.0, 0.0, 0.0, 0.0, 0.0, 0.0, 1.695337467253703E9, 0.0, 2023-09-21 18:04:27.253
