%OpenBCI Raw EXG Data
%Number of channels = 16
%Sample Rate = 125 Hz
%Board = OpenBCI_GUI$BoardCytonSerialDaisy
Sample Index, EXG Channel 0, EXG Channel 1, EXG Channel 2, EXG Channel 3, EXG Channel 4, EXG Channel 5, EXG Channel 6, EXG Channel 7, EXG Channel 8, EXG Channel 9, EXG Channel 10, EXG Channel 11, EXG Channel 12, EXG Channel 13, EXG Channel 14, EXG Channel 15, Accel Channel 0, Accel Channel 1, Accel Channel 2, Other, Other, Other, Other, Other, Other, Other, Analog Channel 0, Analog Channel 1, Analog Channel 2, Timestamp, Other, Timestamp (Formatted)
254.0, 29683.362505836787, 21119.93981837509, -58496.54924828401, -35434.93574082086, -29998.030364278602, -33486.668287118475, -187500.02235174447, -48909.77429268054, -27817.640044407854, -28276.655468542038, -59710.114861740454, -69150.12826325039, -30222.41952686543, -76707.61069150099, -50529.44875114546, -24861.688895426858, -0.012, 1.012, 0.082, 192.0, 127.5, 80.0, 15.5, 80.0, 1.0, 72.0, 0.0, 0.0, 0.0, 1.69533751363613E9, 0.0, 2023-09-21 18:05:13.636
0.0, 29633.42870872363, 21109.14392580318, -58501.332521597455, -35445.15048803693, -29997.583329389494, -33495.29606047822, -187500.02235174447, -48919.765522452064, -27814.622558906387, -28294.961547250936, -59706.53858262761, -69150.53059465058, -30312.027670386753, -76770.50850039822, -50575.96273135695, -24897.8763697, -0.012, 1.012, 0.082, 192.0, 0.0, 0.0, 0.0, 0.0, 0.0, 0.0, 0.0, 0.0, 0.0, 1.695337513636139E9, 0.0, 2023-09-21 18:05:13.636
2.0, 29689.620994284272, 21123.046710854378, -58507.32278911147, -35437.64030189995, -30014.078916797513, -33484.67898186195, -187500.02235174447, -48910.15427233628, -27827.810088135015, -28293.26281467233, -59728.800920105095, -69169.84250185997, -30235.27177992723, -76690.28808954812, -50531.48275989089, -24846.847337108535, -0.012, 1.012, 0.082, 192.0, 0.0, 0.0, 0.0, 0.0, 0.0, 0.0, 0.0, 0.0, 0.0, 1.695337513636143E9, 0.0, 2023-09-21 18:05:13.636
4.0, 29607.724202600028, 21134.826080182323, -58476.56678874097, -35409.499455630714, -29986.139236228377, -33459.533269349726, -187500.02235174447, -48881.34287373339, -27793.83543656295, -28285.30559364624, -59690.9370649978, -69136.24782994365, -30313.458182031893, -76765.99344801826, -50583.539972727296, -24901.542055790673, -0.012, 1.012, 0.082, 192.0, 0.0, 0.0, 0.0, 0.0, 0.0, 0.0, 0.0, 0.0, 0.0, 1.695337513636147E9, 0.0, 2023-09-21 18:05:13.636
6.0, 29692.12438966327, 21131.3392080473, -58504.10413790991, -35431.9629588083, -29997.806846834046, -33484.81309232868, -187500.02235174447, -48904.789853667, -27802.64202387834, -28272.274526628797, -59707.52205938364, -69147.08842600447, -30222.17365767642, -76719.07713640656, -50527.99588775586, -24869.087322841566, -0.012, 1.012, 0.082, 192.0, 0.0, 0.0, 0.0, 0.0, 0.0, 0.0, 0.0, 0.0, 0.0, 1.69533751363615E9, 0.0, 2023-09-21 18:05:13.636
8.0, 29609.110010756256, 21131.629780725216, -58489.41904180277, -35418.77542957967, -30000.533759657596, -33468.42926364294, -187500.02235174447, -48893.92690586173, -27797.255253464613, -28287.2278436694, -59696.27913192262, -69138.59476311145, -30306.685603461934, -76754.70581706832, -50576.9909116019, -24899.664509256425, -0.006, 1.012, 0.088, 192.0, 127.5, 104.0, 15.5, 80.0, 1.0, 96.0, 0.0, 0.0, 0.0, 1.695337513636154E9, 0.0, 2023-09-21 18:05:13.636
10.0, 29701.467418845587, 21127.718225445537, -58510.697902524225, -35442.96001708031, -30002.8806928254, -33489.70812436439, -187500.02235174447, -48911.58478398142, -27813.706137383717, -28282.578680822695, -59720.79899559009, -69159.35953371043, -30237.998692750778, -76712.93040668135, -50536.221329715416, -24866.9192036294, -0.006, 1.012, 0.088, 192.0, 0.0, 0.0, 0.0, 0.0, 0.0, 0.0, 0.0, 0.0, 0.0, 1.695337513636157E9, 0.0, 2023-09-21 18:05:13.636
12.0, 29613.71447011405, 21119.068100341334, -58498.00211167361, -35433.080546031066, -30010.90496908486, -33484.544871395214, -187500.02235174447, -48895.26801052905, -27799.043393021035, -28291.720544304913, -59697.95551275677, -69143.91447829182, -30301.075315603655, -76729.87302897847, -50582.78001341582, -24888.68980272887, -0.006, 1.012, 0.088, 192.0, 0.0, 0.0, 0.0, 0.0, 0.0, 0.0, 0.0, 0.0, 0.0, 1.695337513636161E9, 0.0, 2023-09-21 18:05:13.636
14.0, 29700.97568046757, 21121.862068398248, -58505.06526292149, -35440.30015949013, -30000.84668407997, -33497.79945585722, -187500.02235174447, -48912.94824039319, -27816.32129148499, -28288.59130008117, -59719.52494615614, -69164.3216209795, -30262.831480840625, -76706.4036973004, -50552.53810316779, -24867.67916294088, -0.006, 1.012, 0.088, 192.0, 0.0, 0.0, 0.0, 0.0, 0.0, 0.0, 0.0, 0.0, 0.0, 1.695337513636164E9, 0.0, 2023-09-21 18:05:13.636
0.0, 14909.798194145942, 10604.204011464599, -29229.800907349698, -17677.838227491167, -15077.548036283022, -16738.059131867783, -93750.01117587223, -24501.80345795196, -13906.853068691858, -14150.285917554607, -29854.643923597807, -34578.88627992705, -15131.415740420312, -38331.87828443984, -25282.34872607574, -12430.475643929916, -0.005, 1.01, 0.092, 192.0, 127.5, 112.0, 15.5, 64.0, 1.5, 0.0, 0.0, 0.0, 0.0, 1.69533751380464E9, 0.0, 2023-09-21 18:05:13.804
2.0, 29716.890122519748, 21218.086328278343, -58435.57368940994, -35324.40636448936, -30165.556688971126, -33443.81999299765, -187500.02235174447, -48968.849953275916, -27733.15045036679, -28254.393131064553, -59637.96343063872, -69132.35862640842, -30366.208298946418, -74523.59938902849, -50709.69321843305, -25097.812723852723, -0.005, 1.01, 0.092, 192.0, 0.0, 0.0, 0.0, 0.0, 0.0, 0.0, 0.0, 0.0, 0.0, 1.695337513804656E9, 0.0, 2023-09-21 18:05:13.804
4.0, 29775.965783115123, 21222.86960159178, -58438.211195255666, -35334.442297749796, -30128.72101410878, -33461.0978914616, -187500.02235174447, -48981.23281970416, -27720.834639171917, -28230.92379938648, -59630.922631135305, -69122.99324548164, -30377.361819429618, -74590.4087532054, -50699.098491561235, -25130.490974246382, -0.005, 1.01, 0.092, 192.0, 0.0, 0.0, 0.0, 0.0, 0.0, 0.0, 0.0, 0.0, 0.0, 1.69533751380466E9, 0.0, 2023-09-21 18:05:13.804
6.0, 29719.97466325458, 21207.670415362172, -58454.30445126349, -35337.68330069582, -30172.619840219006, -33463.66834207396, -187500.02235174447, -48980.89754353733, -27726.221409585647, -28241.674988469484, -59632.01786661361, -69125.65310307183, -30330.736080495844, -74535.95990371227, -50688.190840267045, -25104.92057858951, -0.005, 1.01, 0.092, 192.0, 0.0, 0.0, 0.0, 0.0, 0.0, 0.0, 0.0, 0.0, 0.0, 1.695337513804663E9, 0.0, 2023-09-21 18:05:13.804
8.0, 29769.103797567346, 21205.614054872283, -58466.642614202814, -35359.23038235073, -30146.378892228473, -33488.746999352814, -187500.02235174447, -49004.72450312669, -27750.338941852922, -28257.656485755026, -59658.50468379315, -69150.6200016284, -30376.020714762297, -74581.04337227863, -50708.218003299, -25120.633854941592, -0.004, 1.006, 0.1, 192.0, 127.5, 112.0, 15.5, 56.0, 1.5, 16.0, 0.0, 0.0, 0.0, 1.695337513804667E9, 0.0, 2023-09-21 18:05:13.804
10.0, 29723.238017945056, 21207.871581062267, -58461.7475821671, -35337.10215533998, -30182.387552545973, -33464.11537696307, -187500.02235174447, -48985.32318893948, -27747.142642395815, -28257.41061656602, -59655.464846547235, -69150.03885627257, -30335.072318920174, -74499.59361548348, -50695.99159908195, -25080.6689358555, -0.004, 1.006, 0.1, 192.0, 0.0, 0.0, 0.0, 0.0, 0.0, 0.0, 0.0, 0.0, 0.0, 1.69533751380467E9, 0.0, 2023-09-21 18:05:13.804
12.0, 29746.349721711842, 21212.25252297551, -58453.41038148527, -35341.706614697774, -30143.696682893835, -33469.189222954425, -187500.02235174447, -48991.5146221536, -27725.886133418815, -28240.959732646912, -59636.51056724913, -69127.95533275072, -30400.294709240763, -74587.03363979264, -50722.67958196159, -25131.25093355786, -0.004, 1.006, 0.1, 192.0, 0.0, 0.0, 0.0, 0.0, 0.0, 0.0, 0.0, 0.0, 0.0, 1.695337513804674E9, 0.0, 2023-09-21 18:05:13.804
14.0, 29728.848305803338, 21206.32931069485, -58464.8991781353, -35344.83585892151, -30181.851110679047, -33466.12703396405, -187500.02235174447, -48990.48644190865, -27741.10767139288, -28252.292067085753, -59653.18496861279, -69143.64625735834, -30327.875057205565, -74500.44298177278, -50682.75936636441, -25084.647546368546, -0.004, 1.006, 0.1, 192.0, 0.0, 0.0, 0.0, 0.0, 0.0, 0.0, 0.0, 0.0, 0.0, 1.695337513804677E9, 0.0, 2023-09-21 18:05:13.804
16.0, 29737.341968696353, 21210.643197374728, -58456.36081175337, -35351.31786481355, -30148.323493996086, -33475.134786979535, -187500.02235174447, -48994.576811143976, -27732.05521488848, -28254.348427575642, -59641.00326788465, -69135.26435318761, -30398.819494106712, -74580.70809611179, -50719.103302848736, -25127.31702653373, -0.004, 1.006, 0.1, 192.0, 0.0, 0.0, 0.0, 0.0, 0.0, 0.0, 0.0, 0.0, 0.0, 1.695337513864987E9, 0.0, 2023-09-21 18:05:13.864
18.0, 29742.549925154442, 21224.143651025734, -58457.88073037633, -35340.007882119164, -30174.407979775428, -33465.16590895247, -187500.02235174447, -48988.94417154124, -27739.96773242566, -28252.64969499704, -59649.13930286638, -69143.57920212498, -30323.069432147677, -74486.74136242169, -50676.99261629494, -25070.610650850613, -0.006, 1.01, 0.1, 192.0, 127.5, 104.0, 15.5, 72.0, 1.5, 16.0, 0.0, 0.0, 0.0, 1.695337513864999E9, 0.0, 2023-09-21 18:05:13.864
20.0, 29719.661738832205, 21229.97745632857, -58455.77966639754, -35347.786289189615, -30152.48091846477, -33473.99484801231, -187500.02235174447, -48995.80615708902, -27725.327339807434, -28245.184212348966, -59632.19668056926, -69124.75903329361, -30411.381174490594, -74576.79654083212, -50724.37831454019, -25127.004102111354, -0.006, 1.01, 0.1, 192.0, 0.0, 0.0, 0.0, 0.0, 0.0, 0.0, 0.0, 0.0, 0.0, 1.695337513865003E9, 0.0, 2023-09-21 18:05:13.865
22.0, 29745.567410655905, 21235.09600580883, -58460.60764319988, -35345.349949043986, -30178.431293777383, -33469.21157469888, -187500.02235174447, -48997.437834434255, -27752.261191876078, -28255.73423573187, -59661.32100359452, -69149.99415278365, -30327.24920836082, -74482.2263100417, -50677.573761650776, -25071.236499695362, -0.006, 1.01, 0.1, 192.0, 0.0, 0.0, 0.0, 0.0, 0.0, 0.0, 0.0, 0.0, 0.0, 1.695337513865007E9, 0.0, 2023-09-21 18:05:13.865
24.0, 29701.69093629014, 21234.939543597644, -58439.41818945625, -35331.625977948424, -30146.35654048402, -33459.08623446062, -187500.02235174447, -48978.95294176971, -27720.946397894193, -28239.708034957413, -59623.233631042676, -69115.2595419001, -30418.801953649756, -74574.22609021974, -50725.78647444087, -25132.12265159162, -0.006, 1.01, 0.1, 192.0, 0.0, 0.0, 0.0, 0.0, 0.0, 0.0, 0.0, 0.0, 0.0, 1.695337513865011E9, 0.0, 2023-09-21 18:05:13.865
26.0, 29754.79868111595, 21231.922058096177, -58450.90698610628, -35338.86794315195, -30169.892927395456, -33461.90255426199, -187500.02235174447, -48990.48644190865, -27745.175688883748, -28240.28918031325, -59650.793331956076, -69139.82410905648, -30325.14814438202, -74488.9318333783, -50669.92946504706, -25075.28216544177, -0.006, 1.01, 0.1, 192.0, 0.0, 0.0, 0.0, 0.0, 0.0, 0.0, 0.0, 0.0, 0.0, 1.695337513865015E9, 0.0, 2023-09-21 18:05:13.865
28.0, 29699.92514847817, 21212.92307530917, -58449.18590178322, -35349.35091130149, -30167.74715992775, -33471.983191011335, -187500.02235174447, -48999.114215268404, -27730.15531660978, -28244.379549548576, -59631.1237968354, -69125.5189926051, -30407.8272471222, -74560.92680226885, -50717.65043945914, -25123.092546831675, -0.004, 1.014, 0.096, 192.0, 127.5, 112.0, 15.5, 88.0, 1.5, 0.0, 0.0, 0.0, 0.0, 1.695337513865019E9, 0.0, 2023-09-21 18:05:13.865
30.0, 29778.42447500521, 21193.76763031097, -58466.75437292509, -35365.17594637584, -30184.801540947145, -33486.82474932966, -187500.02235174447, -49015.49804395414, -27764.040561204027, -28254.795462464746, -59672.54157931109, -69163.40519945684, -30325.9081036935, -74475.09610356047, -50669.63889236914, -25062.653429824524, -0.004, 1.014, 0.096, 192.0, 0.0, 0.0, 0.0, 0.0, 0.0, 0.0, 0.0, 0.0, 0.0, 1.695337513924416E9, 0.0, 2023-09-21 18:05:13.924
32.0, 29692.772590252473, 21200.294339691918, -58424.82250032693, -35327.513256968654, -30167.9706773723, -33448.87148724455, -187500.02235174447, -48983.42329066078, -27735.005645156583, -28256.96358167691, -59641.4279510293, -69138.25948694462, -30412.945796602464, -74528.2932553641, -50727.75342795294, -25108.63096816909, -0.004, 1.014, 0.096, 192.0, 0.0, 0.0, 0.0, 0.0, 0.0, 0.0, 0.0, 0.0, 0.0, 1.695337513924438E9, 0.0, 2023-09-21 18:05:13.924
34.0, 29776.658687193238, 21194.885217533734, -58425.269535216044, -35334.777573916625, -30152.458566720317, -33458.66155131597, -187500.02235174447, -48989.48061340817, -27726.042595630002, -28223.25715103831, -59644.66895397532, -69136.35958866592, -30330.803135729213, -74497.1349235934, -50673.304578459814, -25086.838017325168, -0.004, 1.014, 0.096, 192.0, 0.0, 0.0, 0.0, 0.0, 0.0, 0.0, 0.0, 0.0, 0.0, 1.695337513924442E9, 0.0, 2023-09-21 18:05:13.924
36.0, 29690.24684312902, 21187.263272674474, -58398.73801454759, -35311.75527712766, -30154.447871976838, -33434.81223998216, -187500.02235174447, -48963.12790669536, -27720.92404614974, -28233.78482267676, -59632.71077069173, -69129.89993451834, -30395.91376732752, -74530.10374666497, -50708.77679691039, -25113.10131706015, -0.004, 1.014, 0.096, 192.0, 0.0, 0.0, 0.0, 0.0, 0.0, 0.0, 0.0, 0.0, 0.0, 1.695337513924445E9, 0.0, 2023-09-21 18:05:13.924
38.0, 29792.66253622324, 21163.928051463135, -58425.62716312733, -35344.165306587856, -30155.565459199606, -33472.877260789544, -187500.02235174447, -49001.30468622502, -27743.320494093954, -28228.39805226303, -59663.3326605955, -69157.10200752044, -30339.29679862223, -74503.37106029643, -50664.31917718878, -25087.06153476972, -0.004, 1.014, 0.10400000000000001, 192.0, 127.5, 112.0, 15.5, 88.0, 1.5, 32.0, 0.0, 0.0, 0.0, 1.695337513924449E9, 0.0, 2023-09-21 18:05:13.924
40.0, 29709.53639859395, 21156.79784498189, -58402.94014250519, -35317.589082430495, -30167.836566905567, -33447.66449304396, -187500.02235174447, -48972.24741843312, -27747.96965694066, -28251.97914266338, -59662.57270128402, -69161.39354245586, -30392.62806089259, -74499.07952536101, -50710.564936466806, -25096.04693604075, -0.004, 1.014, 0.10400000000000001, 192.0, 0.0, 0.0, 0.0, 0.0, 0.0, 0.0, 0.0, 0.0, 0.0, 1.695337513924452E9, 0.0, 2023-09-21 18:05:13.924
42.0, 29811.795629476983, 21159.748275249993, -58402.60486633836, -35322.30530051056, -30141.841488104044, -33456.40402512599, -187500.02235174447, -48979.7129010812, -27739.565401025466, -28220.664348681494, -59660.002250671656, -69151.55877489553, -30357.044083719742, -74503.37106029643, -50682.804069853315, -25092.62711913909, -0.004, 1.014, 0.10400000000000001, 192.0, 0.0, 0.0, 0.0, 0.0, 0.0, 0.0, 0.0, 0.0, 0.0, 1.695337513924457E9, 0.0, 2023-09-21 18:05:13.924
44.0, 29725.719061579595, 21157.826025226837, -58386.779831264, -35300.735867111194, -30156.615991189003, -33431.66064401396, -187500.02235174447, -48952.10849667889, -27735.25151434559, -28231.214372064398, -59650.88273893389, -69143.75801608062, -30377.115950240608, -74496.4867230042, -50711.190785311555, -25102.752459377345, -0.004, 1.014, 0.10400000000000001, 192.0, 0.0, 0.0, 0.0, 0.0, 0.0, 0.0, 0.0, 0.0, 0.0, 1.69533751392446E9, 0.0, 2023-09-21 18:05:13.924
46.0, 29833.320359387442, 21141.37514130773, -58415.25595370006, -35341.974835631234, -30142.82496486008, -33477.9511067809, -187500.02235174447, -49000.61178214691, -27740.3477120814, -28217.780973646757, -59663.24325361768, -69151.11174000642, -30355.032426718764, -74519.26315060415, -50685.70979663251, -25108.094526302164, -0.004, 1.014, 0.10400000000000001, 192.0, 0.0, 0.0, 0.0, 0.0, 0.0, 0.0, 0.0, 0.0, 0.0, 1.695337513984742E9, 0.0, 2023-09-21 18:05:13.984
48.0, 29760.811300374426, 21144.32557157583, -58403.14130820529, -35313.69987889527, -30176.97843038779, -33446.72571977684, -187500.02235174447, -48972.470935877674, -27767.013343216582, -28251.15212811853, -59683.96332072775, -69173.03880131707, -30369.873985037088, -74457.34881846295, -50712.867166145705, -25079.931328288476, -0.004, 1.008, 0.108, 192.0, 127.5, 112.0, 15.5, 64.0, 1.5, 48.0, 0.0, 0.0, 0.0, 1.695337513984754E9, 0.0, 2023-09-21 18:05:13.984
50.0, 29848.743063061604, 21151.344019334796, -58398.46979361413, -35319.35487024247, -30134.733633367257, -33463.8471560296, -187500.02235174447, -48975.421366145776, -27742.649941760297, -28218.406822491506, -59663.60088152896, -69150.88822256187, -30382.43566542097, -74508.33314756551, -50710.296715533346, -25111.648453670558, -0.004, 1.008, 0.108, 192.0, 0.0, 0.0, 0.0, 0.0, 0.0, 0.0, 0.0, 0.0, 0.0, 1.695337513984759E9, 0.0, 2023-09-21 18:05:13.984
52.0, 29791.36613504483, 21147.9912576665, -58395.40760462375, -35305.921471824826, -30169.73646518427, -33446.77042326575, -187500.02235174447, -48959.73044153815, -27742.784052227027, -28228.15218307402, -59658.0800006485, -69149.54711789454, -30361.24621167734, -74456.76767310711, -50704.23939278596, -25090.950738304942, -0.004, 1.008, 0.108, 192.0, 0.0, 0.0, 0.0, 0.0, 0.0, 0.0, 0.0, 0.0, 0.0, 1.695337513984763E9, 0.0, 2023-09-21 18:05:13.984
54.0, 29861.10357774539, 21138.536469761904, -58408.99746525258, -35332.85532389347, -30137.594656657537, -33476.63235385804, -187500.02235174447, -48988.65359886332, -27748.282581363033, -28222.63130219356, -59666.90893970835, -69155.067998775, -30392.62806089259, -74510.21069409975, -50706.60867769822, -25117.325796762205, -0.004, 1.008, 0.108, 192.0, 0.0, 0.0, 0.0, 0.0, 0.0, 0.0, 0.0, 0.0, 0.0, 1.695337513984766E9, 0.0, 2023-09-21 18:05:13.984
56.0, 29819.171705147233, 21134.826080182323, -58416.395892667286, -35330.62014944794, -30173.73742744177, -33467.646952587005, -187500.02235174447, -48981.501040637624, -27758.16205241228, -28236.534087244763, -59675.156733412354, -69163.33814422347, -30355.032426718764, -74435.77938506358, -50699.34436075024, -25081.786523078266, -0.004, 1.008, 0.108, 192.0, 0.0, 0.0, 0.0, 0.0, 0.0, 0.0, 0.0, 0.0, 0.0, 1.69533751398477E9, 0.0, 2023-09-21 18:05:13.984
58.0, 29870.603069138895, 21142.716245975047, -58406.00233149557, -35325.36748950094, -30132.72197636628, -33467.75871130928, -187500.02235174447, -48975.66723533478, -27753.043502932014, -28230.58852321965, -59672.452172333265, -69159.38188545489, -30407.670784911013, -74498.27486256062, -50722.098436605746, -25115.694119416967, -0.006, 1.004, 0.106, 192.0, 127.5, 104.0, 15.5, 48.0, 1.5, 40.0, 0.0, 0.0, 0.0, 1.695337513984774E9, 0.0, 2023-09-21 18:05:13.984
60.0, 29841.27758041353, 21142.157452363666, -58409.7350728196, -35316.963233585746, -30168.68593319487, -33452.17954542393, -187500.02235174447, -48971.75568005511, -27754.4516628327, -28228.82273540768, -59670.485218821195, -69159.0242575436, -30347.991627215342, -74420.33432964496, -50697.17624153808, -25080.28895619976, -0.006, 1.004, 0.106, 192.0, 0.0, 0.0, 0.0, 0.0, 0.0, 0.0, 0.0, 0.0, 0.0, 1.695337514045689E9, 0.0, 2023-09-21 18:05:14.045
62.0, 29861.282391701032, 21135.206059838067, -58409.06452048595, -35329.79313490309, -30134.711281622804, -33464.6965223189, -187500.02235174447, -48978.50590688061, -27748.506098807586, -28225.693491183938, -59665.27726236311, -69154.0174667856, -30419.427802494505, -74504.60040624147, -50727.619317486206, -25132.480279502903, -0.006, 1.004, 0.106, 192.0, 0.0, 0.0, 0.0, 0.0, 0.0, 0.0, 0.0, 0.0, 0.0, 1.695337514045705E9, 0.0, 2023-09-21 18:05:14.045
64.0, 29855.62740035384, 21136.502461016473, -58411.54556412048, -35321.85826562146, -30163.656790692425, -33455.197030925396, -187500.02235174447, -48972.51563936659, -27769.49438685112, -28240.803270435725, -59686.086736451005, -69175.38573448488, -30350.159746427507, -74406.45389633822, -50686.17918326607, -25076.10917998662, -0.006, 1.004, 0.106, 192.0, 0.0, 0.0, 0.0, 0.0, 0.0, 0.0, 0.0, 0.0, 0.0, 1.695337514045709E9, 0.0, 2023-09-21 18:05:14.045
66.0, 29854.800385808994, 21139.18467035111, -58400.07911921491, -35320.96419584325, -30129.48097342026, -33458.10275770459, -187500.02235174447, -48970.90631376581, -27749.131947652335, -28226.766374917792, -59662.080962906, -69152.67636211829, -30431.49774450037, -74495.16797008133, -50724.35596279574, -25132.145003336074, -0.006, 1.004, 0.106, 192.0, 0.0, 0.0, 0.0, 0.0, 0.0, 0.0, 0.0, 0.0, 0.0, 1.695337514045713E9, 0.0, 2023-09-21 18:05:14.045
68.0, 29871.318324961463, 21138.156490106165, -58409.7350728196, -35324.026384833625, -30163.992066859257, -33460.80731878368, -187500.02235174447, -48978.68472083625, -27766.096921693912, -28230.38735751955, -59679.85059974797, -69170.66951640481, -30339.877943978066, -74401.44710558023, -50680.300674474325, -25077.874967798587, -0.004, 1.008, 0.10200000000000001, 192.0, 127.5, 112.0, 15.5, 64.0, 1.5, 24.0, 0.0, 0.0, 0.0, 1.695337514045717E9, 0.0, 2023-09-21 18:05:14.045
70.0, 29845.725577560137, 21139.251725584476, -58398.24627616958, -35315.84564636298, -30135.113613022997, -33452.38071112403, -187500.02235174447, -48966.79359278603, -27749.31076160798, -28224.978235361366, -59659.443457060275, -69150.86587081742, -30426.64741595357, -74488.44009500029, -50727.12757910819, -25134.156660337052, -0.004, 1.008, 0.10200000000000001, 192.0, 0.0, 0.0, 0.0, 0.0, 0.0, 0.0, 0.0, 0.0, 0.0, 1.695337514045721E9, 0.0, 2023-09-21 18:05:14.045
72.0, 29889.557348436996, 21131.495670258486, -58417.49112814559, -35329.32374826953, -30165.534337226673, -33467.55754560918, -187500.02235174447, -48984.47382265018, -27776.691648565728, -28231.88492439806, -59690.60178883097, -69178.17970254179, -30336.68164452096, -74394.562768288, -50673.01400578189, -25076.48915964236, -0.004, 1.008, 0.10200000000000001, 192.0, 0.0, 0.0, 0.0, 0.0, 0.0, 0.0, 0.0, 0.0, 0.0, 1.695337514045724E9, 0.0, 2023-09-21 18:05:14.045
74.0, 29841.56815309145, 21124.030187610413, -58411.03147399801, -35330.798963403584, -30155.9677905998, -33468.51867062076, -187500.02235174447, -48981.36693017089, -27767.97446822816, -28240.602104735626, -59676.497838079675, -69166.35562972495, -30429.9331223885, -74465.95424007824, -50726.68054421909, -25121.080889830697, -0.004, 1.008, 0.10200000000000001, 192.0, 0.0, 0.0, 0.0, 0.0, 0.0, 0.0, 0.0, 0.0, 0.0, 1.695337514045728E9, 0.0, 2023-09-21 18:05:14.045
76.0, 29896.844017129424, 21131.383911536206, -58414.40658741076, -35326.97681510172, -30163.701494181336, -33465.411778141475, -187500.02235174447, -48983.84797380543, -27780.513796867588, -28237.338750045154, -59693.8874952659, -69182.15831305484, -30347.52224058178, -74384.057448394, -50678.84781108473, -25065.42504613698, -0.004, 1.008, 0.10200000000000001, 192.0, 0.0, 0.0, 0.0, 0.0, 0.0, 0.0, 0.0, 0.0, 0.0, 1.695337514104815E9, 0.0, 2023-09-21 18:05:14.104
78.0, 29834.460298354665, 21128.880516157213, -58402.42605238272, -35322.551169699575, -30152.950305098333, -33460.71791180586, -187500.02235174447, -48978.99764525863, -27755.278677377544, -28234.410671521506, -59661.27630010561, -69153.8163010855, -30429.441384010483, -74453.14669050535, -50732.871977433206, -25118.555142707246, -0.006, 1.004, 0.106, 192.0, 127.5, 104.0, 15.5, 48.0, 1.5, 40.0, 0.0, 0.0, 0.0, 1.695337514104845E9, 0.0, 2023-09-21 18:05:14.104
80.0, 29911.998499870122, 21139.1399668622, -58411.903192031765, -35326.730945912714, -30155.945438855346, -33458.72860654934, -187500.02235174447, -48981.433985404256, -27777.87629102186, -28239.283351812763, -59691.09352720899, -69181.24189153218, -30348.43866210445, -74383.47630303816, -50681.44061344154, -25070.34242991715, -0.006, 1.004, 0.106, 192.0, 0.0, 0.0, 0.0, 0.0, 0.0, 0.0, 0.0, 0.0, 0.0, 1.695337514104849E9, 0.0, 2023-09-21 18:05:14.104
82.0, 29826.748946517582, 21152.03692341291, -58388.36680512033, -35301.1829020003, -30142.534392182162, -33437.650911527984, -187500.02235174447, -48963.26201716209, -27742.135851637824, -28230.096784841633, -59649.6310412444, -69144.27210620309, -30421.10418332865, -74444.02717876759, -50731.553224510346, -25121.59497995317, -0.006, 1.004, 0.106, 192.0, 0.0, 0.0, 0.0, 0.0, 0.0, 0.0, 0.0, 0.0, 0.0, 1.695337514104853E9, 0.0, 2023-09-21 18:05:14.104
84.0, 29910.54563648053, 21158.80950198287, -58403.47658437212, -35317.589082430495, -30137.25938049071, -33455.88993500351, -187500.02235174447, -48978.08122373596, -27752.73057850964, -28212.14833404402, -59663.82439897352, -69151.91640280682, -30350.964409227898, -74408.01851845009, -50672.969302292986, -25093.051802283742, -0.006, 1.004, 0.106, 192.0, 0.0, 0.0, 0.0, 0.0, 0.0, 0.0, 0.0, 0.0, 0.0, 1.695337514104856E9, 0.0, 2023-09-21 18:05:14.104
86.0, 29814.589597533897, 21172.57817656734, -58383.85175274036, -35290.72228559521, -30140.478031692273, -33426.542094533695, -187500.02235174447, -48949.828618744454, -27737.91137193577, -28220.239665536843, -59641.00326788465, -69132.64919908634, -30409.369517489617, -74440.5179548881, -50714.61060221322, -25124.92538987701, -0.006, 1.004, 0.106, 192.0, 0.0, 0.0, 0.0, 0.0, 0.0, 0.0, 0.0, 0.0, 0.0, 1.695337514104859E9, 0.0, 2023-09-21 18:05:14.104
88.0, 29905.717659678183, 21181.787095282925, -58394.35707263435, -35304.42390494632, -30123.423650672874, -33441.11543191856, -187500.02235174447, -48965.430136374256, -27729.86474393186, -28191.67413612296, -59636.577622482495, -69123.32852164848, -30350.29385689424, -74442.75312933364, -50669.30361620231, -25113.97303509391, -0.01, 1.004, 0.1, 192.0, 127.5, 88.0, 15.5, 48.0, 1.5, 16.0, 0.0, 0.0, 0.0, 1.695337514104863E9, 0.0, 2023-09-21 18:05:14.104
90.0, 29812.51088529955, 21169.225414899043, -58400.21322968164, -35302.79222760108, -30151.720959153292, -33441.204838896374, -187500.02235174447, -48963.68670030674, -27741.130023137335, -28220.619645192583, -59642.523186507606, -69133.49856537564, -30385.34139220016, -74439.93680953227, -50699.232602027965, -25115.939988605976, -0.01, 1.004, 0.1, 192.0, 0.0, 0.0, 0.0, 0.0, 0.0, 0.0, 0.0, 0.0, 0.0, 1.695337514104867E9, 0.0, 2023-09-21 18:05:14.104
92.0, 29898.58745319694, 21173.941632979113, -58409.57861060842, -35314.66100390685, -30130.28563622065, -33453.453594857885, -187500.02235174447, -48979.69054933674, -27745.220392372656, -28211.142505543532, -59653.430837801796, -69141.79106256856, -30361.603839588624, -74442.73077758918, -50675.472697671976, -25109.413279225028, -0.01, 1.004, 0.1, 192.0, 0.0, 0.0, 0.0, 0.0, 0.0, 0.0, 0.0, 0.0, 0.0, 1.695337514165129E9, 0.0, 2023-09-21 18:05:14.165
94.0, 29811.14742888778, 21173.069914945354, -58393.999444723064, -35293.91858505232, -30151.989180086755, -33430.43129806892, -187500.02235174447, -48955.349499624914, -27734.156278867278, -28223.950055116424, -59637.51639574962, -69130.07874847397, -30378.457054907925, -74421.65308256782, -50697.08683456026, -25108.38509898008, -0.01, 1.004, 0.1, 192.0, 0.0, 0.0, 0.0, 0.0, 0.0, 0.0, 0.0, 0.0, 0.0, 1.695337514165137E9, 0.0, 2023-09-21 18:05:14.165
96.0, 29894.653546172805, 21172.153493422687, -58408.59513385238, -35317.030288819115, -30135.515944423194, -33455.66641755896, -187500.02235174447, -48983.44564240523, -27739.744214981107, -28211.209560776897, -59649.161654610834, -69137.61128635542, -30365.24717393484, -74438.79687056504, -50679.093680273734, -25107.423973968504, -0.01, 1.004, 0.1, 192.0, 0.0, 0.0, 0.0, 0.0, 0.0, 0.0, 0.0, 0.0, 0.0, 1.695337514165141E9, 0.0, 2023-09-21 18:05:14.165
98.0, 29809.113420142345, 21182.368240638763, -58391.764270277534, -35290.74463733967, -30157.040674333653, -33430.76657423575, -187500.02235174447, -48954.41072635779, -27715.000833869082, -28212.640072422037, -59629.67093344581, -69124.62492282689, -30363.05670297822, -74407.2138556497, -50699.880802617176, -25103.53477043328, -0.006, 1.008, 0.098, 192.0, 127.5, 104.0, 15.5, 64.0, 1.5, 8.0, 0.0, 0.0, 0.0, 1.695337514165145E9, 0.0, 2023-09-21 18:05:14.165
100.0, 29886.137531535333, 21159.18948163861, -58419.949820035676, -35324.74164065619, -30144.05431080512, -33473.86073754558, -187500.02235174447, -48996.20848848921, -27743.231087116135, -28211.500133454818, -59651.46388428973, -69137.63363809987, -30370.611592604113, -74443.15546073383, -50678.37842445117, -25110.039128069777, -0.006, 1.008, 0.098, 192.0, 0.0, 0.0, 0.0, 0.0, 0.0, 0.0, 0.0, 0.0, 0.0, 1.695337514165149E9, 0.0, 2023-09-21 18:05:14.165
102.0, 29819.842257480894, 21155.434388570116, -58424.46487241565, -35316.404439974365, -30191.194139861364, -33459.041530971714, -187500.02235174447, -48990.732311097665, -27770.41080837379, -28246.950000160934, -59673.837980489494, -69161.61705990041, -30359.279258165272, -74353.39085500131, -50688.10143328922, -25065.939136259454, -0.006, 1.008, 0.098, 192.0, 0.0, 0.0, 0.0, 0.0, 0.0, 0.0, 0.0, 0.0, 0.0, 1.695337514165152E9, 0.0, 2023-09-21 18:05:14.165
104.0, 29855.783862565026, 21188.38085989724, -58383.00238645106, -35286.38604717088, -30120.58497912705, -33431.48183005832, -187500.02235174447, -48957.98700547064, -27729.06008113147, -28202.335918228142, -59633.582488725486, -69119.0593384575, -30406.53084594379, -74433.47715538468, -50712.598945212245, -25119.382157252094, -0.006, 1.008, 0.098, 192.0, 0.0, 0.0, 0.0, 0.0, 0.0, 0.0, 0.0, 0.0, 0.0, 1.695337514165156E9, 0.0, 2023-09-21 18:05:14.165
106.0, 29806.36415557434, 21198.550903624404, -58368.74197348857, -35267.74469229516, -30132.654921132915, -33406.693745457385, -187500.02235174447, -48932.573072024956, -27721.371081038844, -28191.182397744942, -59621.60195369744, -69108.33050111897, -30341.688435278946, -74372.83687267744, -50667.18020047906, -25088.514398159314, -0.006, 1.008, 0.098, 192.0, 0.0, 0.0, 0.0, 0.0, 0.0, 0.0, 0.0, 0.0, 0.0, 1.695337514225408E9, 0.0, 2023-09-21 18:05:14.225
108.0, 29852.945191019204, 21178.344926636808, -58402.336645404896, -35314.70570739576, -30125.502362907217, -33460.00265598329, -187500.02235174447, -48982.752738327115, -27716.543104236498, -28190.064810522177, -59623.54655546505, -69112.063242443, -30388.69415386846, -74454.64425738386, -50677.774927350874, -25127.004102111354, -0.004, 1.01, 0.1, 192.0, 127.5, 112.0, 15.5, 72.0, 1.5, 16.0, 0.0, 0.0, 0.0, 1.695337514225416E9, 0.0, 2023-09-21 18:05:14.225
110.0, 29830.526391330528, 21172.28760388942, -58407.54460186298, -35309.43069570431, -30176.844319921056, -33448.46915584435, -187500.02235174447, -48981.501040637624, -27761.58186931394, -28234.880058155068, -59667.87006471993, -69157.99607729865, -30332.859496219102, -74336.35882572638, -50667.11314524569, -25057.66899081099, -0.004, 1.01, 0.1, 192.0, 0.0, 0.0, 0.0, 0.0, 0.0, 0.0, 0.0, 0.0, 0.0, 1.69533751422542E9, 0.0, 2023-09-21 18:05:14.225
112.0, 29836.539010589007, 21173.025211456446, -58397.732186047106, -35312.02349806112, -30140.835659603556, -33454.370016380555, -187500.02235174447, -48978.23768594715, -27740.30300859249, -28219.479706225364, -59646.34533480947, -69137.20895495522, -30415.940930359477, -74422.03306222356, -50714.58825046876, -25112.475468215405, -0.004, 1.01, 0.1, 192.0, 0.0, 0.0, 0.0, 0.0, 0.0, 0.0, 0.0, 0.0, 0.0, 1.695337514225423E9, 0.0, 2023-09-21 18:05:14.225
114.0, 29835.28731289951, 21185.072801717855, -58390.04318595448, -35289.828215817004, -30160.035808090666, -33429.35841433507, -187500.02235174447, -48959.28340664905, -27754.116386665868, -28221.24549403733, -59657.56591052603, -69149.01067602762, -30340.57084805618, -74327.35107271088, -50669.88476155815, -25064.329810658674, -0.004, 1.01, 0.1, 192.0, 0.0, 0.0, 0.0, 0.0, 0.0, 0.0, 0.0, 0.0, 0.0, 1.695337514225427E9, 0.0, 2023-09-21 18:05:14.225
116.0, 29823.150315660278, 21176.53443533593, -58388.6797295427, -35297.60662288745, -30124.29536870663, -33442.85886798607, -187500.02235174447, -48969.45345037621, -27719.940569393704, -28198.20084550391, -59620.05968333002, -69110.25275114212, -30418.801953649756, -74431.59960885043, -50704.88759337516, -25132.8826109031, -0.004, 1.01, 0.1, 192.0, 0.0, 0.0, 0.0, 0.0, 0.0, 0.0, 0.0, 0.0, 0.0, 1.69533751422543E9, 0.0, 2023-09-21 18:05:14.225
118.0, 29850.061815984467, 21161.737580506513, -58419.525136891025, -35318.57255918653, -30167.72480818329, -33455.28643790322, -187500.02235174447, -48984.54087788354, -27767.92976473925, -28225.29115978374, -59671.22282638822, -69160.38771395537, -30329.19381012843, -74325.27236047655, -50659.535903875345, -25066.654392082026, -0.006, 1.014, 0.098, 192.0, 127.5, 104.0, 15.5, 88.0, 1.5, 8.0, 0.0, 0.0, 0.0, 1.695337514225434E9, 0.0, 2023-09-21 18:05:14.225
120.0, 29812.04149866599, 21152.260440857466, -58418.72047409064, -35327.91558836884, -30153.10676730952, -33464.070673474154, -187500.02235174447, -48991.82754657597, -27760.553689069, -28236.847011667134, -59661.07513440552, -69153.14574875185, -30426.93798863149, -74397.53555030056, -50716.778721425384, -25118.30927351824, -0.006, 1.014, 0.098, 192.0, 0.0, 0.0, 0.0, 0.0, 0.0, 0.0, 0.0, 0.0, 0.0, 1.695337514225437E9, 0.0, 2023-09-21 18:05:14.225
122.0, 29852.274638685543, 21159.882385716723, -58422.252049714574, -35325.970986601234, -30164.729674426282, -33457.74512979331, -187500.02235174447, -48985.770223828586, -27769.941421740226, -28230.543819730738, -59674.01679444514, -69166.26622274712, -30343.923609724476, -74309.35791842436, -50676.36676745019, -25068.040200238254, -0.006, 1.014, 0.098, 192.0, 0.0, 0.0, 0.0, 0.0, 0.0, 0.0, 0.0, 0.0, 0.0, 1.695337514285731E9, 0.0, 2023-09-21 18:05:14.285
124.0, 29794.495379268574, 21159.636516527717, -58415.27830544452, -35320.7853818876, -30156.861860378012, -33450.27964714523, -187500.02235174447, -48979.22116270318, -27760.73250302464, -28237.897543656534, -59659.510512293644, -69154.24098423016, -30437.286846314295, -74371.54047149903, -50730.055657631834, -25115.35884325014, -0.006, 1.014, 0.098, 192.0, 0.0, 0.0, 0.0, 0.0, 0.0, 0.0, 0.0, 0.0, 0.0, 1.69533751428574E9, 0.0, 2023-09-21 18:05:14.285
126.0, 29853.079301485934, 21171.639403300214, -58423.727264848625, -35319.75720164266, -30164.21558430381, -33450.61492331206, -187500.02235174447, -48986.86545930689, -27768.488558350633, -28227.191058062443, -59670.99930894367, -69161.23708024467, -30351.746720283834, -74298.36086015236, -50688.36965422269, -25074.142226474552, -0.006, 1.014, 0.098, 192.0, 0.0, 0.0, 0.0, 0.0, 0.0, 0.0, 0.0, 0.0, 0.0, 1.695337514285744E9, 0.0, 2023-09-21 18:05:14.285
128.0, 29779.47500699461, 21168.487807332018, -58415.30065718898, -35313.78928587309, -30165.10965408202, -33448.983245966825, -187500.02235174447, -48979.35527316991, -27750.271886619557, -28226.408747006506, -59646.2782795761, -69136.69486483275, -30432.63768346759, -74357.28005853655, -50732.313183821825, -25125.104203832652, -0.012, 1.018, 0.094, 192.0, 127.5, 80.0, 15.5, 104.0, 1.0, 120.0, 0.0, 0.0, 0.0, 1.695337514285748E9, 0.0, 2023-09-21 18:05:14.285
130.0, 29856.43206315423, 21177.361449880773, -58425.336590449406, -35319.17605628682, -30168.93180238388, -33462.28253391773, -187500.02235174447, -48996.61081988941, -27770.366104884877, -28224.24062779434, -59672.161599655345, -69157.95137380974, -30351.947885983933, -74291.52122634902, -50678.24431398443, -25084.15580799053, -0.012, 1.018, 0.094, 192.0, 0.0, 0.0, 0.0, 0.0, 0.0, 0.0, 0.0, 0.0, 0.0, 1.695337514285752E9, 0.0, 2023-09-21 18:05:14.285
132.0, 29768.299134766956, 21174.23220565703, -58414.45129089968, -35311.24118700519, -30166.62957270498, -33457.00752222628, -187500.02235174447, -48987.290142451544, -27746.360331339878, -28219.457354480906, -59637.29287830507, -69126.94950425024, -30419.204285049953, -74336.62704665984, -50727.73107620848, -25126.668825944525, -0.012, 1.018, 0.094, 192.0, 0.0, 0.0, 0.0, 0.0, 0.0, 0.0, 0.0, 0.0, 0.0, 1.695337514285756E9, 0.0, 2023-09-21 18:05:14.285
134.0, 29848.944228761702, 21182.994089483513, -58425.9400875497, -35323.9369778558, -30158.605296445527, -33469.01040899878, -187500.02235174447, -49003.29399148154, -27758.519680323563, -28223.346558016132, -59657.498855292666, -69149.68122836128, -30356.0159034748, -74301.31129042045, -50685.061596043306, -25100.673747143002, -0.012, 1.018, 0.094, 192.0, 0.0, 0.0, 0.0, 0.0, 0.0, 0.0, 0.0, 0.0, 0.0, 1.69533751428576E9, 0.0, 2023-09-21 18:05:14.285
136.0, 29756.74328288356, 21189.85607503129, -58406.02468324002, -35299.46181767724, -30161.39926450244, -33444.82582149814, -187500.02235174447, -48971.018072488085, -27737.598447513396, -28217.66921492448, -59628.1733665673, -69120.17692568028, -30402.954566830944, -74327.28401747752, -50721.94197439456, -25134.424881270515, -0.012, 1.018, 0.094, 192.0, 0.0, 0.0, 0.0, 0.0, 0.0, 0.0, 0.0, 0.0, 0.0, 1.69533751434654E9, 0.0, 2023-09-21 18:05:14.346
138.0, 29848.00545549458, 21190.459572131585, -58422.3414566924, -35320.025422576124, -30148.658770162914, -33465.56824035266, -187500.02235174447, -48998.89069782385, -27750.607162786386, -28209.041441564732, -59647.46292203223, -69135.89020203236, -30355.837089519155, -74312.42010741474, -50680.25597098541, -25118.26457002933, -0.008, 1.018, 0.094, 192.0, 127.5, 96.0, 15.5, 104.0, 1.0, 120.0, 0.0, 0.0, 0.0, 1.695337514346546E9, 0.0, 2023-09-21 18:05:14.346
140.0, 29747.80258510144, 21202.23894145953, -58395.340549390385, -35285.89430879287, -30155.677217921882, -33423.52460903223, -187500.02235174447, -48953.941339724224, -27736.30204633499, -28217.132773057554, -59628.28512528958, -69120.7133675472, -30388.470636423903, -74307.45802014566, -50710.922564378096, -25131.07211960222, -0.008, 1.018, 0.094, 192.0, 0.0, 0.0, 0.0, 0.0, 0.0, 0.0, 0.0, 0.0, 0.0, 1.69533751434655E9, 0.0, 2023-09-21 18:05:14.346
142.0, 29834.974388477134, 21201.300168192407, -58414.920677533235, -35312.04584980558, -30128.92217980888, -33455.08527220312, -187500.02235174447, -48983.42329066078, -27725.550857251987, -28192.076467523155, -59624.59708745445, -69114.72310003318, -30361.35797039962, -74340.11391879487, -50673.01400578189, -25139.8340034287, -0.008, 1.018, 0.094, 192.0, 0.0, 0.0, 0.0, 0.0, 0.0, 0.0, 0.0, 0.0, 0.0, 1.695337514346554E9, 0.0, 2023-09-21 18:05:14.346
144.0, 29747.512012423518, 21201.724851337058, -58406.7846425515, -35294.589137385985, -30158.49353772325, -33436.0415859272, -187500.02235174447, -48963.88786600684, -27740.973560926148, -28220.038499836744, -59635.92942189329, -69128.42471938429, -30368.130548969573, -74303.23354044362, -50688.973151322985, -25125.037148599287, -0.008, 1.018, 0.094, 192.0, 0.0, 0.0, 0.0, 0.0, 0.0, 0.0, 0.0, 0.0, 0.0, 1.695337514346558E9, 0.0, 2023-09-21 18:05:14.346
146.0, 29831.442812853198, 21192.672394832658, -58427.3929509393, -35327.021518590635, -30138.30991248011, -33473.90544103449, -187500.02235174447, -48998.89069782385, -27740.86180220387, -28203.632319406548, -59641.94204115177, -69129.65406532932, -30362.497909366837, -74334.03424430302, -50676.6126366392, -25132.43557601399, -0.008, 1.018, 0.094, 192.0, 0.0, 0.0, 0.0, 0.0, 0.0, 0.0, 0.0, 0.0, 0.0, 1.695337514346562E9, 0.0, 2023-09-21 18:05:14.346
148.0, 29749.41191070222, 21195.086383233833, -58413.19959321018, -35303.12750376791, -30169.043561106155, -33448.223286655346, -187500.02235174447, -48970.816906787986, -27745.220392372656, -28224.30768302771, -59643.35020105245, -69135.06318748751, -30355.01007497431, -74277.6854965312, -50691.901229846626, -25109.994424580866, -0.01, 1.01, 0.1, 192.0, 127.5, 88.0, 15.5, 72.0, 1.5, 16.0, 0.0, 0.0, 0.0, 1.695337514346566E9, 0.0, 2023-09-21 18:05:14.346
150.0, 29817.80824873546, 21191.934787265636, -58421.15681423627, -35321.008899332155, -30133.97367405578, -33477.213499213874, -187500.02235174447, -48992.475747165176, -27734.558610267475, -28206.314528741186, -59636.24234631567, -69124.44610887124, -30380.714581097913, -74342.01381707357, -50694.136404292156, -25147.27713433232, -0.01, 1.01, 0.1, 192.0, 0.0, 0.0, 0.0, 0.0, 0.0, 0.0, 0.0, 0.0, 0.0, 1.69533751434657E9, 0.0, 2023-09-21 18:05:14.346
152.0, 29763.247640520054, 21201.166057725677, -58423.54845089298, -35312.626995161416, -30180.107674611532, -33460.6955600614, -187500.02235174447, -48979.824659803475, -27743.745177238605, -28223.92770337197, -59646.725314465206, -69136.40429215482, -30348.14808942653, -74263.93917369118, -50686.49210768844, -25111.35788099264, -0.01, 1.01, 0.1, 192.0, 0.0, 0.0, 0.0, 0.0, 0.0, 0.0, 0.0, 0.0, 0.0, 1.695337514404876E9, 0.0, 2023-09-21 18:05:14.404
154.0, 29810.923911443224, 21191.75597330999, -58420.95564853617, -35320.80773363206, -30141.05917704811, -33474.30777243469, -187500.02235174447, -48989.54766864153, -27723.38273803982, -28207.700336897415, -59633.62719221439, -69123.55203909303, -30391.39871494755, -74327.46283143316, -50703.568840452295, -25147.970038410433, -0.01, 1.01, 0.1, 192.0, 0.0, 0.0, 0.0, 0.0, 0.0, 0.0, 0.0, 0.0, 0.0, 1.695337514404882E9, 0.0, 2023-09-21 18:05:14.404
156.0, 29764.164062042724, 21183.91051100618, -58422.72143634814, -35307.82137010353, -30172.731598941282, -33458.080405960136, -187500.02235174447, -48983.28918019404, -27740.124194636846, -28230.566171475195, -59642.65729697434, -69133.87854503137, -30342.00135970132, -74248.98585665057, -50679.27249422938, -25111.961378092932, -0.01, 1.01, 0.1, 192.0, 0.0, 0.0, 0.0, 0.0, 0.0, 0.0, 0.0, 0.0, 0.0, 1.695337514404886E9, 0.0, 2023-09-21 18:05:14.404
158.0, 29784.884129152793, 21177.741429536516, -58423.34728519288, -35319.10900105345, -30139.29338923614, -33470.46327238838, -187500.02235174447, -48989.65942736381, -27738.35840682488, -28223.145392316033, -59642.23261382969, -69127.97768449518, -30406.419087221515, -74328.42395644473, -50705.245221286445, -25160.129387394118, -0.014, 1.004, 0.10400000000000001, 192.0, 127.5, 72.0, 15.5, 48.0, 1.5, 32.0, 0.0, 0.0, 0.0, 1.69533751440489E9, 0.0, 2023-09-21 18:05:14.404
160.0, 29768.433245233686, 21172.17584516714, -58436.98184931062, -35319.98071908721, -30174.407979775428, -33466.23879268632, -187500.02235174447, -48986.30666569551, -27759.413750101776, -28243.26196232581, -59665.76900074113, -69152.94458305175, -30340.10146142262, -74231.64090295327, -50678.065500028795, -25107.222808268405, -0.014, 1.004, 0.10400000000000001, 192.0, 0.0, 0.0, 0.0, 0.0, 0.0, 0.0, 0.0, 0.0, 0.0, 1.695337514404894E9, 0.0, 2023-09-21 18:05:14.404
162.0, 29762.21946027511, 21173.829874256837, -58423.235526470606, -35316.76206788565, -30133.34782521103, -33468.85394678759, -187500.02235174447, -48986.239610462144, -27729.998854398593, -28226.09582258413, -59633.448378258756, -69124.53551584906, -30418.041994338277, -74328.42395644473, -50723.66305871762, -25165.851433974676, -0.014, 1.004, 0.10400000000000001, 192.0, 0.0, 0.0, 0.0, 0.0, 0.0, 0.0, 0.0, 0.0, 0.0, 1.695337514404898E9, 0.0, 2023-09-21 18:05:14.404
164.0, 29769.55083245645, 21175.1486271797, -58438.9935063116, -35320.874788865425, -30176.665505965415, -33468.00458049829, -187500.02235174447, -48996.61081988941, -27757.379741356344, -28239.126889601575, -59662.25977686165, -69152.5198999071, -30330.177286884464, -74235.39599602175, -50676.99261629494, -25112.095488559662, -0.014, 1.004, 0.10400000000000001, 192.0, 0.0, 0.0, 0.0, 0.0, 0.0, 0.0, 0.0, 0.0, 0.0, 1.695337514404902E9, 0.0, 2023-09-21 18:05:14.404
166.0, 29747.109681023325, 21169.94067072161, -58436.75833186607, -35328.31791976904, -30154.82785163258, -33472.743150322814, -187500.02235174447, -48993.25805822111, -27749.422520330256, -28239.93155240197, -59651.329773823, -69142.12633873538, -30416.432668737492, -74317.67276736174, -50722.47841626149, -25164.912660707556, -0.014, 1.004, 0.10400000000000001, 192.0, 0.0, 0.0, 0.0, 0.0, 0.0, 0.0, 0.0, 0.0, 0.0, 1.695337514465186E9, 0.0, 2023-09-21 18:05:14.465
168.0, 29771.741303413073, 21174.321612634852, -58444.201462769684, -35327.33444301301, -30174.407979775428, -33469.99388575481, -187500.02235174447, -48992.7663198431, -27757.87147973436, -28239.372758790585, -59661.92450069482, -69153.25750747413, -30327.316263594184, -74234.03253960998, -50679.7642326074, -25115.53765720578, -0.01, 0.998, 0.098, 192.0, 127.5, 88.0, 15.5, 24.0, 1.5, 8.0, 0.0, 0.0, 0.0, 1.695337514465197E9, 0.0, 2023-09-21 18:05:14.465
170.0, 29719.929959765668, 21182.077667960843, -58419.6368956133, -35309.676564893314, -30141.506211937216, -33453.52065009125, -187500.02235174447, -48973.92379926727, -27736.92789517974, -28231.750813931325, -59635.66120095983, -69129.16232695131, -30419.427802494505, -74319.08092726242, -50728.49103551997, -25172.825178244733, -0.01, 0.998, 0.098, 192.0, 0.0, 0.0, 0.0, 0.0, 0.0, 0.0, 0.0, 0.0, 0.0, 1.695337514465201E9, 0.0, 2023-09-21 18:05:14.465
172.0, 29778.871509894314, 21169.918318977157, -58446.28017500403, -35328.072050580035, -30173.06687510811, -33469.99388575481, -187500.02235174447, -48997.97427630118, -27762.230069903144, -28231.571999975684, -59666.23838737469, -69155.80560634204, -30326.533952538248, -74234.85955415483, -50668.85658131321, -25117.88459037359, -0.01, 0.998, 0.098, 192.0, 0.0, 0.0, 0.0, 0.0, 0.0, 0.0, 0.0, 0.0, 0.0, 1.695337514465205E9, 0.0, 2023-09-21 18:05:14.465
174.0, 29713.87263701828, 21159.27888861643, -58446.36958198185, -35332.475344237726, -30169.132968083977, -33472.22906020034, -187500.02235174447, -49001.25998273611, -27755.926877966747, -28250.459224040416, -59657.09652389247, -69152.09521676245, -30417.0808693267, -74293.46582811663, -50732.91668092211, -25158.60946877116, -0.01, 0.998, 0.098, 192.0, 0.0, 0.0, 0.0, 0.0, 0.0, 0.0, 0.0, 0.0, 0.0, 1.695337514465209E9, 0.0, 2023-09-21 18:05:14.465
176.0, 29781.441960506676, 21177.696726047605, -58441.22868075713, -35325.65806217886, -30161.622781946993, -33467.17756595345, -187500.02235174447, -48993.034540776556, -27764.599354815407, -28243.306665814718, -59668.78648624259, -69160.81239710002, -30347.254019648317, -74230.45626049713, -50695.388101981654, -25118.421032240516, -0.01, 0.998, 0.098, 192.0, 0.0, 0.0, 0.0, 0.0, 0.0, 0.0, 0.0, 0.0, 0.0, 1.695337514465213E9, 0.0, 2023-09-21 18:05:14.465
178.0, 29703.367317124288, 21174.455723101586, -58433.740846364606, -35323.601701688975, -30165.0202471042, -33462.818975784656, -187500.02235174447, -48993.14629949883, -27749.467223819167, -28245.58654374916, -59646.6806109763, -69139.53353637857, -30421.662976940035, -74280.70298203266, -50726.3229163078, -25157.35777108166, -0.008, 1.0, 0.10200000000000001, 192.0, 127.5, 96.0, 15.5, 32.0, 1.5, 24.0, 0.0, 0.0, 0.0, 1.695337514465217E9, 0.0, 2023-09-21 18:05:14.465
180.0, 29780.123207583812, 21199.042642002423, -58428.957573051164, -35316.42679171882, -30150.893944608444, -33456.62754257054, -187500.02235174447, -48989.324151196975, -27750.517755808563, -28228.0627760962, -59652.737933723685, -69143.48979514716, -30353.266638906796, -74236.98296987808, -50680.83711634125, -25126.73588117789, -0.008, 1.0, 0.10200000000000001, 192.0, 0.0, 0.0, 0.0, 0.0, 0.0, 0.0, 0.0, 0.0, 0.0, 1.695337514465221E9, 0.0, 2023-09-21 18:05:14.465
182.0, 29687.78815123894, 21197.165095468175, -58418.09462524589, -35301.13819851139, -30152.816194631603, -33445.0940424316, -187500.02235174447, -48977.4106714023, -27722.689833961707, -28221.513714970795, -59617.84686062895, -69110.63273079786, -30408.766020389325, -74287.6320228138, -50716.80107316984, -25169.561823554257, -0.008, 1.0, 0.10200000000000001, 192.0, 0.0, 0.0, 0.0, 0.0, 0.0, 0.0, 0.0, 0.0, 0.0, 1.695337514525562E9, 0.0, 2023-09-21 18:05:14.525
184.0, 29790.360306544342, 21181.0494877159, -58452.49395996261, -35339.873771652434, -30168.238898305764, -33485.64010687353, -187500.02235174447, -49014.38045673138, -27758.184404156735, -28232.399014520528, -59660.33752683849, -69148.76480683862, -30348.14808942653, -74253.18798460817, -50669.48243015796, -25134.804860926255, -0.008, 1.0, 0.10200000000000001, 192.0, 0.0, 0.0, 0.0, 0.0, 0.0, 0.0, 0.0, 0.0, 0.0, 1.695337514525589E9, 0.0, 2023-09-21 18:05:14.525
186.0, 29700.461590345098, 21180.647156315703, -58438.16649176675, -35323.869922622434, -30178.96773564431, -33470.77619681075, -187500.02235174447, -48998.51071816811, -27747.232049373633, -28246.994703649845, -59643.1266836079, -69137.58893461096, -30400.294709240763, -74246.48246127159, -50709.93908762206, -25141.219811584928, -0.008, 1.0, 0.10200000000000001, 192.0, 0.0, 0.0, 0.0, 0.0, 0.0, 0.0, 0.0, 0.0, 0.0, 1.695337514525594E9, 0.0, 2023-09-21 18:05:14.525
188.0, 29788.32629779891, 21186.61507208527, -58439.462892945165, -35333.4364692493, -30151.117462053, -33482.77908358325, -187500.02235174447, -49005.77503511609, -27748.908430207783, -28238.05400586772, -59652.313250579035, -69146.21670797071, -30371.729179826878, -74241.02863562449, -50679.98775005195, -25133.821384170224, -0.006, 1.0, 0.10400000000000001, 192.0, 127.5, 104.0, 15.5, 32.0, 1.5, 32.0, 0.0, 0.0, 0.0, 1.695337514525597E9, 0.0, 2023-09-21 18:05:14.525
190.0, 29694.650136786717, 21185.899816262703, -58426.29771546098, -35315.24214926269, -30175.570270487104, -33460.71791180586, -187500.02235174447, -48987.1113284959, -27734.312741078465, -28242.1667268475, -59632.55430848054, -69130.03404498506, -30393.857406837633, -74232.28910354247, -50705.35698000872, -25144.326704064217, -0.006, 1.0, 0.10400000000000001, 192.0, 0.0, 0.0, 0.0, 0.0, 0.0, 0.0, 0.0, 0.0, 0.0, 1.695337514525601E9, 0.0, 2023-09-21 18:05:14.525
192.0, 29787.40987627624, 21179.909548748677, -58446.36958198185, -35341.75131818668, -30159.72288366829, -33490.17751099796, -187500.02235174447, -49015.92272709879, -27746.181517384233, -28236.958770389414, -59650.72627672271, -69146.46257715972, -30377.562985129713, -74246.70597871614, -50684.70396813202, -25144.21494534194, -0.006, 1.0, 0.10400000000000001, 192.0, 0.0, 0.0, 0.0, 0.0, 0.0, 0.0, 0.0, 0.0, 0.0, 1.695337514525611E9, 0.0, 2023-09-21 18:05:14.525
194.0, 29708.999956727024, 21183.91051100618, -58438.16649176675, -35322.2382452772, -30192.088209639576, -33467.49049037582, -187500.02235174447, -48999.248325735134, -27749.646037774808, -28257.678837499483, -59650.65922148934, -69148.18366148278, -30383.128569499087, -74197.33097521437, -50702.27243927389, -25125.86416314413, -0.006, 1.0, 0.10400000000000001, 192.0, 0.0, 0.0, 0.0, 0.0, 0.0, 0.0, 0.0, 0.0, 0.0, 1.695337514525614E9, 0.0, 2023-09-21 18:05:14.525
196.0, 29778.111550582835, 21190.996013998512, -58436.91479407726, -35329.23434129171, -30155.364293499508, -33477.03468525824, -187500.02235174447, -49006.82556710549, -27743.365197582865, -28236.847011667134, -59648.02171564361, -69141.88046954638, -30394.460903937925, -74237.60881872283, -50700.37254099519, -25146.02543664282, -0.006, 1.0, 0.10400000000000001, 192.0, 0.0, 0.0, 0.0, 0.0, 0.0, 0.0, 0.0, 0.0, 0.0, 1.695337514585764E9, 0.0, 2023-09-21 18:05:14.585
198.0, 29710.98926198355, 21179.887197004224, -58446.25782325958, -35326.105097067964, -30199.263119609728, -33472.609039856085, -187500.02235174447, -49004.25511649312, -27753.73640701013, -28251.26388684081, -59655.82247445852, -69148.09425450495, -30372.176214715986, -74181.30477443991, -50705.58049745327, -25127.674654445014, -0.01, 1.01, 0.106, 192.0, 127.5, 88.0, 15.5, 72.0, 1.5, 40.0, 0.0, 0.0, 0.0, 1.695337514585778E9, 0.0, 2023-09-21 18:05:14.585
200.0, 29763.94054459817, 21190.191351198122, -58435.43957894321, -35327.021518590635, -30147.876459106978, -33475.0006765128, -187500.02235174447, -49002.75754961462, -27738.693682991707, -28230.141488330544, -59642.590241740974, -69130.83870778546, -30402.753401130845, -74249.05291188395, -50723.32778255079, -25164.59973628518, -0.01, 1.01, 0.106, 192.0, 0.0, 0.0, 0.0, 0.0, 0.0, 0.0, 0.0, 0.0, 0.0, 1.695337514585782E9, 0.0, 2023-09-21 18:05:14.585
202.0, 29713.40325038472, 21183.128199950243, -58445.90019534829, -35322.99820458868, -30193.45166605135, -33466.05997873068, -187500.02235174447, -48996.47670942268, -27751.948267453703, -28242.367892547598, -59655.531901780596, -69142.95335328023, -30357.58052558667, -74176.58855635984, -50704.64172418615, -25128.099337589665, -0.01, 1.01, 0.106, 192.0, 0.0, 0.0, 0.0, 0.0, 0.0, 0.0, 0.0, 0.0, 0.0, 1.695337514585786E9, 0.0, 2023-09-21 18:05:14.585
204.0, 29752.13882352577, 21174.634537057227, -58457.59015769842, -35344.94761764379, -30167.657752949926, -33488.52348190826, -187500.02235174447, -49012.88288985287, -27755.166918655268, -28246.54766876074, -59661.99155592818, -69149.74828359464, -30418.93606411649, -74246.39305429376, -50720.73498019397, -25163.191576384495, -0.01, 1.01, 0.106, 192.0, 0.0, 0.0, 0.0, 0.0, 0.0, 0.0, 0.0, 0.0, 0.0, 1.695337514585789E9, 0.0, 2023-09-21 18:05:14.585
206.0, 29715.034927729957, 21191.19717969861, -58438.345305722396, -35316.22562601872, -30184.198043846853, -33459.48856586082, -187500.02235174447, -48985.81492731749, -27745.376854583843, -28238.88102041257, -59649.720448222215, -69139.80175731203, -30368.242307691853, -74170.9559167571, -50701.71364566251, -25130.73684343539, -0.01, 1.01, 0.106, 192.0, 0.0, 0.0, 0.0, 0.0, 0.0, 0.0, 0.0, 0.0, 0.0, 1.695337514585793E9, 0.0, 2023-09-21 18:05:14.585
208.0, 29728.87065754779, 21203.691804849124, -58422.542622392495, -35309.43069570431, -30141.305046237117, -33454.90645824748, -187500.02235174447, -48982.66333134929, -27730.311778820967, -28223.8606481386, -59634.342448036965, -69121.69684430324, -30430.313102044238, -74264.34150509138, -50723.640706973165, -25183.397553372095, -0.006, 1.01, 0.10400000000000001, 192.0, 127.5, 104.0, 15.5, 72.0, 1.5, 32.0, 0.0, 0.0, 0.0, 1.695337514585797E9, 0.0, 2023-09-21 18:05:14.585
210.0, 29724.959102268112, 21200.786078069938, -58435.90896557677, -35311.04002130509, -30179.03479087768, -33457.67807455994, -187500.02235174447, -48986.61959011789, -27743.4993080496, -28225.24645629483, -59645.76418945363, -69133.90089677583, -30343.67774053547, -74181.12596048426, -50677.216133739494, -25132.524982991814, -0.006, 1.01, 0.10400000000000001, 192.0, 0.0, 0.0, 0.0, 0.0, 0.0, 0.0, 0.0, 0.0, 0.0, 1.6953375145858E9, 0.0, 2023-09-21 18:05:14.585
212.0, 29722.053375488926, 21186.682127318636, -58445.296698248, -35331.58127445952, -30161.645133691447, -33484.4554644174, -187500.02235174447, -49007.3173054835, -27733.910409678272, -28229.806212163712, -59632.62136371391, -69123.88731525985, -30423.36170951864, -74271.09173191688, -50717.73984643696, -25182.54818708279, -0.006, 1.01, 0.10400000000000001, 192.0, 0.0, 0.0, 0.0, 0.0, 0.0, 0.0, 0.0, 0.0, 0.0, 1.695337514645161E9, 0.0, 2023-09-21 18:05:14.645
214.0, 29743.08636702137, 21190.34781340931, -58452.449256473694, -35328.9884721027, -30192.11056138403, -33475.44771140191, -187500.02235174447, -49010.290087496054, -27767.460378105687, -28251.532107774274, -59666.506608308155, -69159.53834766606, -30345.24236264734, -74160.20472767409, -50682.87112508668, -25115.135325805586, -0.006, 1.01, 0.10400000000000001, 192.0, 0.0, 0.0, 0.0, 0.0, 0.0, 0.0, 0.0, 0.0, 0.0, 1.695337514645173E9, 0.0, 2023-09-21 18:05:14.645
216.0, 29716.264273675, 21190.48192387604, -58439.865224345354, -35326.35096625698, -30165.556688971126, -33472.184356711434, -187500.02235174447, -48996.05202627803, -27749.44487207471, -28248.35816006162, -59646.032410387095, -69140.71817883471, -30434.7834509353, -74243.10734785884, -50735.82240770131, -25168.578346798226, -0.006, 1.01, 0.10400000000000001, 192.0, 0.0, 0.0, 0.0, 0.0, 0.0, 0.0, 0.0, 0.0, 0.0, 1.695337514645177E9, 0.0, 2023-09-21 18:05:14.645
218.0, 29752.31763748141, 21212.11841250878, -58427.3929509393, -35306.79318985858, -30162.807424403123, -33451.75486227928, -187500.02235174447, -48983.42329066078, -27741.040616159513, -28233.382491276563, -59642.99257314117, -69138.572411367, -30341.084938178654, -74168.47487312257, -50685.62038965469, -25125.975921866408, -0.006, 1.014, 0.1, 192.0, 127.5, 104.0, 15.5, 88.0, 1.5, 16.0, 0.0, 0.0, 0.0, 1.695337514645181E9, 0.0, 2023-09-21 18:05:14.645
220.0, 29702.026212456967, 21195.511066378484, -58435.126654520835, -35325.479248223215, -30156.83950863356, -33473.90544103449, -187500.02235174447, -48996.677875122776, -27721.326377549933, -28231.50494474232, -59621.333732763975, -69119.97575998018, -30414.085735569686, -74257.23365035458, -50723.30543080634, -25186.32563189574, -0.006, 1.014, 0.1, 192.0, 0.0, 0.0, 0.0, 0.0, 0.0, 0.0, 0.0, 0.0, 0.0, 1.695337514645184E9, 0.0, 2023-09-21 18:05:14.645
222.0, 29759.55960268493, 21195.44401114512, -58453.9468233522, -35337.95152162928, -30182.275793823697, -33483.27082196126, -187500.02235174447, -49009.57483167349, -27756.373912855855, -28252.0685496412, -59663.46677106223, -69159.91832732181, -30331.563095040692, -74170.77710280145, -50677.79727909533, -25127.07115734472, -0.006, 1.014, 0.1, 192.0, 0.0, 0.0, 0.0, 0.0, 0.0, 0.0, 0.0, 0.0, 0.0, 1.695337514645188E9, 0.0, 2023-09-21 18:05:14.645
224.0, 29687.676392516663, 21199.556732124893, -58434.791378354006, -35321.768858643634, -30166.69662793835, -33467.24462118681, -187500.02235174447, -48990.55349714202, -27731.518773021555, -28254.348427575642, -59634.834186414984, -69136.20312645473, -30419.964244361432, -74237.0723768559, -50733.989564655974, -25179.37423937014, -0.006, 1.014, 0.1, 192.0, 0.0, 0.0, 0.0, 0.0, 0.0, 0.0, 0.0, 0.0, 0.0, 1.695337514645192E9, 0.0, 2023-09-21 18:05:14.645
226.0, 29777.150425571257, 21185.832761029335, -58472.78934392802, -35360.68324574033, -30186.120293870008, -33511.52342695277, -187500.02235174447, -49035.525206986094, -27748.662561018773, -28241.78674719176, -59657.834131459495, -69155.51503366411, -30338.648598033025, -74180.2095389616, -50681.21709599699, -25141.331570307204, -0.006, 1.014, 0.1, 192.0, 0.0, 0.0, 0.0, 0.0, 0.0, 0.0, 0.0, 0.0, 0.0, 1.695337514704949E9, 0.0, 2023-09-21 18:05:14.704
228.0, 29689.15160765071, 21193.499409377506, -58445.676677903735, -35328.787306402606, -30186.232052592284, -33479.51572889277, -187500.02235174447, -49003.56221241501, -27752.909392465284, -28274.39794235205, -59655.397791313866, -69158.24194648766, -30425.775697919813, -74198.69443162614, -50734.34719256726, -25165.069122918743, -0.004, 1.014, 0.1, 192.0, 127.5, 112.0, 15.5, 88.0, 1.5, 16.0, 0.0, 0.0, 0.0, 1.695337514704961E9, 0.0, 2023-09-21 18:05:14.704
230.0, 29778.93856512768, 21187.553845352395, -58467.24611130311, -35352.21193459177, -30183.773360702202, -33504.03559256024, -187500.02235174447, -49022.047105079546, -27752.842337231916, -28250.92861067398, -59662.55034953956, -69159.24777498815, -30370.9692205154, -74173.68282958065, -50688.88374434516, -25145.69016047599, -0.004, 1.014, 0.1, 192.0, 0.0, 0.0, 0.0, 0.0, 0.0, 0.0, 0.0, 0.0, 0.0, 1.695337514704965E9, 0.0, 2023-09-21 18:05:14.704
232.0, 29680.523834290965, 21202.753031582004, -58438.9935063116, -35321.165361543346, -30187.416695048418, -33467.937525264926, -187500.02235174447, -48990.709959353204, -27747.902601707294, -28269.435855082975, -59647.909956921336, -69147.17783298228, -30431.922427645022, -74190.26782396648, -50732.96138441103, -25169.561823554257, -0.004, 1.014, 0.1, 192.0, 0.0, 0.0, 0.0, 0.0, 0.0, 0.0, 0.0, 0.0, 0.0, 1.695337514704969E9, 0.0, 2023-09-21 18:05:14.704
234.0, 29775.094065081368, 21197.09804023481, -58453.633898929824, -35344.210010076764, -30166.763683171714, -33490.24456623132, -187500.02235174447, -49012.83818636396, -27743.0969766494, -28238.813965179204, -59647.351163309955, -69142.43926315776, -30379.351124686138, -74187.49620765403, -50691.70006414653, -25160.196442627486, -0.004, 1.014, 0.1, 192.0, 0.0, 0.0, 0.0, 0.0, 0.0, 0.0, 0.0, 0.0, 0.0, 1.695337514704972E9, 0.0, 2023-09-21 18:05:14.704
236.0, 29678.78039822345, 21199.735546080537, -58434.210232998164, -35315.37625972942, -30186.902604925945, -33462.23783042882, -187500.02235174447, -48989.72648259717, -27745.48861330612, -28266.530128303784, -59642.724352207704, -69143.26627770261, -30412.11878205762, -74177.0132395045, -50723.3724860397, -25167.863090975654, -0.004, 1.014, 0.1, 192.0, 0.0, 0.0, 0.0, 0.0, 0.0, 0.0, 0.0, 0.0, 0.0, 1.695337514704976E9, 0.0, 2023-09-21 18:05:14.704
238.0, 29772.098931324355, 21197.589778612826, -58444.693201147704, -35332.81062040456, -30162.561555214117, -33487.60706038559, -187500.02235174447, -49009.28425899557, -27734.82683120094, -28235.81883142219, -59635.79531142656, -69133.23034444217, -30380.06638050871, -74199.90142582673, -50693.0635205583, -25170.32178286574, -0.004, 1.018, 0.1, 192.0, 127.5, 112.0, 15.5, 104.0, 1.5, 16.0, 0.0, 0.0, 0.0, 1.69533751470498E9, 0.0, 2023-09-21 18:05:14.704
240.0, 29683.049581414412, 21195.62282510076, -58433.96436380916, -35311.82233236102, -30192.11056138403, -33459.28740016072, -187500.02235174447, -48989.65942736381, -27748.39434008531, -28259.176404377988, -59645.47361677571, -69142.01458001311, -30387.86713932361, -74158.23777416203, -50707.61450619871, -25152.35098032367, -0.004, 1.018, 0.1, 192.0, 0.0, 0.0, 0.0, 0.0, 0.0, 0.0, 0.0, 0.0, 0.0, 1.695337514704984E9, 0.0, 2023-09-21 18:05:14.704
242.0, 29769.819053389914, 21192.873560532757, -58439.8428726009, -35329.27904478062, -30162.11452032501, -33478.10756899209, -187500.02235174447, -49005.551517671534, -27743.34284583841, -28234.880058155068, -59647.95466041025, -69141.52284163509, -30387.129531756585, -74192.25712922301, -50694.80695662582, -25164.30916360726, -0.004, 1.018, 0.1, 192.0, 0.0, 0.0, 0.0, 0.0, 0.0, 0.0, 0.0, 0.0, 0.0, 1.695337514765101E9, 0.0, 2023-09-21 18:05:14.765
244.0, 29691.54324430743, 21196.71806057907, -58413.60192461037, -35299.99825954417, -30182.767532201713, -33444.781118009225, -187500.02235174447, -48981.143412726335, -27731.451717788186, -28236.690549455947, -59632.84488115846, -69130.50343161862, -30382.72623809889, -74153.07452119286, -50705.33462826427, -25154.20617511346, -0.004, 1.018, 0.1, 192.0, 0.0, 0.0, 0.0, 0.0, 0.0, 0.0, 0.0, 0.0, 0.0, 1.695337514765119E9, 0.0, 2023-09-21 18:05:14.765
246.0, 29770.020219090013, 21172.958156223078, -58432.44444518619, -35338.353853029475, -30156.414825488908, -33487.31648770768, -187500.02235174447, -49012.189985774756, -27734.513906778564, -28225.224104550376, -59642.56788999652, -69139.77940556758, -30399.91472958502, -74209.89265559825, -50694.85166011473, -25178.390762614104, -0.004, 1.018, 0.1, 192.0, 0.0, 0.0, 0.0, 0.0, 0.0, 0.0, 0.0, 0.0, 0.0, 1.695337514765124E9, 0.0, 2023-09-21 18:05:14.765
248.0, 29714.587892840853, 21157.557804293374, -58424.8895555603, -35318.79607663108, -30203.353488845052, -33467.87047003156, -187500.02235174447, -48995.40382568882, -27768.17563392826, -28263.132663146578, -59676.09550667948, -69174.60342342895, -30374.321982183694, -74120.32921556583, -50692.75059613593, -25132.480279502903, -0.01, 1.018, 0.098, 192.0, 127.5, 88.0, 15.5, 104.0, 1.5, 8.0, 0.0, 0.0, 0.0, 1.695337514765128E9, 0.0, 2023-09-21 18:05:14.765
250.0, 29767.919155111213, 21160.776455494935, -58405.957628006654, -35316.15857078535, -30151.832717875568, -33476.319429435665, -187500.02235174447, -48993.14629949883, -27736.212639357167, -28231.840220909147, -59647.351163309955, -69147.73662659367, -30417.147924560064, -74198.20269324812, -50712.08485508977, -25180.000088214885, -0.01, 1.018, 0.098, 192.0, 0.0, 0.0, 0.0, 0.0, 0.0, 0.0, 0.0, 0.0, 0.0, 1.695337514765131E9, 0.0, 2023-09-21 18:05:14.765
252.0, 29734.235076217068, 21155.90377520368, -58406.739939062594, -35307.597852658975, -30194.815122463126, -33466.37290315305, -187500.02235174447, -48988.96652328569, -27759.033770446036, -28248.246401339344, -59670.86519847694, -69170.69186814927, -30359.033388976266, -74110.87442766124, -50686.73797687745, -25136.280076060306, -0.01, 1.018, 0.098, 192.0, 0.0, 0.0, 0.0, 0.0, 0.0, 0.0, 0.0, 0.0, 0.0, 1.695337514765135E9, 0.0, 2023-09-21 18:05:14.765
254.0, 29768.880280122794, 21155.792016481402, -58393.954741234156, -35306.21204450274, -30150.983351586267, -33468.0492839872, -187500.02235174447, -48986.41842441779, -27736.659674246275, -28222.407784749008, -59651.28507033409, -69148.76480683862, -30420.92536937301, -74201.64486189424, -50716.48814874746, -25190.08072496423, -0.01, 1.018, 0.098, 192.0, 0.0, 0.0, 0.0, 0.0, 0.0, 0.0, 0.0, 0.0, 0.0, 1.695337514765139E9, 0.0, 2023-09-21 18:05:14.765
0.0, 29759.760768385026, 21148.438292555606, -58396.07815695741, -35301.227605489206, -30189.24953809375, -33455.15232743649, -187500.02235174447, -48977.991816758135, -27755.03280818854, -28229.113308085598, -59667.89241646438, -69164.12045527941, -30345.555287069714, -74115.43418353012, -50682.75936636441, -25144.460814530947, -0.01, 1.018, 0.098, 192.0, 0.0, 0.0, 0.0, 0.0, 0.0, 0.0, 0.0, 0.0, 0.0, 1.695337514825398E9, 0.0, 2023-09-21 18:05:14.825
2.0, 29779.05032384996, 21136.681274972114, -58397.285151157994, -35313.99045157319, -30162.092168580555, -33470.12799622154, -187500.02235174447, -48990.15116574182, -27755.59160179992, -28229.40388076352, -59667.15480889736, -69162.86875758991, -30422.7805641628, -74198.64972813723, -50720.24324181596, -25191.198312186996, -0.006, 1.008, 0.098, 192.0, 127.5, 104.0, 15.5, 64.0, 1.5, 8.0, 0.0, 0.0, 0.0, 1.695337514825415E9, 0.0, 2023-09-21 18:05:14.825
4.0, 29791.075562366914, 21139.877574429225, -58398.134517447295, -35302.00991654515, -30182.16403510142, -33454.370016380555, -187500.02235174447, -48979.98112201466, -27768.287392650534, -28231.370834275585, -59681.50462883766, -69175.94452809627, -30349.66800804949, -74103.29718629089, -50688.28024724487, -25135.40835802655, -0.006, 1.008, 0.098, 192.0, 0.0, 0.0, 0.0, 0.0, 0.0, 0.0, 0.0, 0.0, 0.0, 1.695337514825419E9, 0.0, 2023-09-21 18:05:14.825
6.0, 29782.537195984984, 21129.953399891067, -58396.01110172404, -35310.43652420479, -30154.604334188025, -33466.39525489751, -187500.02235174447, -48983.42329066078, -27751.322418608957, -28230.946151130935, -59664.24908211817, -69158.28664997658, -30427.429727009505, -74193.0617920234, -50733.38606755568, -25190.818332531257, -0.006, 1.008, 0.098, 192.0, 0.0, 0.0, 0.0, 0.0, 0.0, 0.0, 0.0, 0.0, 0.0, 1.695337514825422E9, 0.0, 2023-09-21 18:05:14.825
8.0, 29814.56724578944, 21142.828004697323, -58392.56893307793, -35297.40545718735, -30176.576098987593, -33448.625618055536, -187500.02235174447, -48969.676967820764, -27769.248517662112, -28234.54478198824, -59684.3880038724, -69175.98923158518, -30337.10632766561, -74101.35258452328, -50690.40366296812, -25136.36948303813, -0.006, 1.008, 0.098, 192.0, 0.0, 0.0, 0.0, 0.0, 0.0, 0.0, 0.0, 0.0, 0.0, 1.695337514825426E9, 0.0, 2023-09-21 18:05:14.825
10.0, 29784.95118438616, 21135.85426042727, -58389.953778976655, -35306.681431136305, -30159.387607501463, -33464.80828104118, -187500.02235174447, -48979.467031892185, -27740.660636503773, -28219.54676145873, -59653.40848605734, -69147.22253647119, -30422.53469497379, -74195.52048391348, -50738.66107924713, -25202.08361173673, -0.006, 1.008, 0.098, 192.0, 0.0, 0.0, 0.0, 0.0, 0.0, 0.0, 0.0, 0.0, 0.0, 1.695337514825429E9, 0.0, 2023-09-21 18:05:14.825
12.0, 29838.304798400975, 21142.716245975047, -58391.51840108853, -35298.65715487685, -30172.284564052174, -33456.806356526184, -187500.02235174447, -48973.052081233516, -27764.286430393033, -28231.974331375877, -59681.884608493405, -69172.97174608371, -30334.647635775524, -74107.05227935938, -50682.69231113104, -25145.868974431633, -0.002, 1.006, 0.096, 192.0, 127.5, 120.0, 15.5, 56.0, 1.5, 0.0, 0.0, 0.0, 0.0, 1.695337514825432E9, 0.0, 2023-09-21 18:05:14.825
14.0, 29788.482760010098, 21137.105958116765, -58388.2326946536, -35295.97494554221, -30159.119386568, -33457.81218502667, -187500.02235174447, -48968.917008509285, -27740.325360336945, -28224.44179349444, -59650.25689008914, -69143.17687072478, -30419.53956121678, -74186.69154485363, -50726.009991885425, -25198.864960535167, -0.002, 1.006, 0.096, 192.0, 0.0, 0.0, 0.0, 0.0, 0.0, 0.0, 0.0, 0.0, 0.0, 1.695337514825436E9, 0.0, 2023-09-21 18:05:14.825
16.0, 29859.270734700054, 21145.689027987602, -58396.189915679686, -35297.874843820915, -30164.752026170736, -33454.72764429184, -187500.02235174447, -48973.72263356717, -27759.234936146135, -28220.57494170367, -59673.48035257821, -69161.84057734496, -30341.57667655667, -74111.7908491839, -50678.959569807004, -25145.712512220445, -0.002, 1.006, 0.096, 192.0, 0.0, 0.0, 0.0, 0.0, 0.0, 0.0, 0.0, 0.0, 0.0, 1.695337514885657E9, 0.0, 2023-09-21 18:05:14.885
18.0, 29780.74905642856, 21154.070932158345, -58367.02088916551, -35276.26070693263, -30147.40707247342, -33428.844324212594, -187500.02235174447, -48951.3038338785, -27730.177668354234, -28213.40003173352, -59637.2258230717, -69129.25173392914, -30423.96520661893, -74178.39904766071, -50726.47937851899, -25195.31103316677, -0.002, 1.006, 0.096, 192.0, 0.0, 0.0, 0.0, 0.0, 0.0, 0.0, 0.0, 0.0, 0.0, 1.695337514885689E9, 0.0, 2023-09-21 18:05:14.885
20.0, 29865.663333614273, 21156.775493237437, -58385.7292992746, -35292.46572166273, -30150.558668441616, -33445.89870523199, -187500.02235174447, -48968.20175268671, -27743.34284583841, -28207.05213630821, -59656.73889598119, -69147.62486787139, -30343.29776087973, -74139.41760533066, -50674.153944749116, -25161.872823461632, -0.002, 1.006, 0.096, 192.0, 0.0, 0.0, 0.0, 0.0, 0.0, 0.0, 0.0, 0.0, 0.0, 1.695337514885693E9, 0.0, 2023-09-21 18:05:14.885
22.0, 29778.55858547194, 21157.17782463763, -58369.74780198906, -35276.70774182174, -30148.859935863013, -33430.9900916803, -187500.02235174447, -48955.438906602736, -27719.96292113816, -28206.38158397455, -59626.25111654415, -69120.9592367362, -30411.53763670178, -74191.29600421143, -50717.4716255035, -25206.26338794987, -0.002, 1.012, 0.098, 192.0, 127.5, 120.0, 15.5, 80.0, 1.5, 8.0, 0.0, 0.0, 0.0, 1.695337514885697E9, 0.0, 2023-09-21 18:05:14.885
24.0, 29881.980107066647, 21140.682237229616, -58402.761328549546, -35311.46470444974, -30159.521717968193, -33467.155214208986, -187500.02235174447, -48991.20169773122, -27758.474976834656, -28215.05406082321, -59669.34527985398, -69160.45476918874, -30341.15199341202, -74147.44188159012, -50667.04609001233, -25164.420922329537, -0.002, 1.012, 0.098, 192.0, 0.0, 0.0, 0.0, 0.0, 0.0, 0.0, 0.0, 0.0, 0.0, 1.695337514885701E9, 0.0, 2023-09-21 18:05:14.885
26.0, 29782.961879129634, 21161.849339228793, -58363.62342400831, -35268.19172718427, -30158.292372023152, -33419.63540549701, -187500.02235174447, -48944.508903564085, -27742.091148148913, -28220.127906814567, -59642.2773173186, -69137.90185903333, -30402.64164240857, -74155.3543991273, -50721.69610520555, -25181.341192882206, -0.002, 1.012, 0.098, 192.0, 0.0, 0.0, 0.0, 0.0, 0.0, 0.0, 0.0, 0.0, 0.0, 1.695337514885705E9, 0.0, 2023-09-21 18:05:14.885
28.0, 29877.979144809146, 21147.90185068868, -58395.29584590148, -35304.89329157988, -30144.72486313878, -33457.298094904196, -187500.02235174447, -48974.057909734, -27748.327284851945, -28197.709107125895, -59653.229672101705, -69142.43926315776, -30361.33561865516, -74159.98121022954, -50680.39008145215, -25178.010782958365, -0.002, 1.012, 0.098, 192.0, 0.0, 0.0, 0.0, 0.0, 0.0, 0.0, 0.0, 0.0, 0.0, 1.695337514885709E9, 0.0, 2023-09-21 18:05:14.885
30.0, 29786.98519313159, 21129.975751635524, -58399.94500874818, -35302.00991654515, -30174.720904197802, -33452.47011810185, -187500.02235174447, -48976.7624708131, -27763.146491425814, -28228.0627760962, -59665.56783504103, -69157.5266906651, -30395.6231946496, -74130.27574184844, -50710.38612251117, -25171.819349744244, -0.002, 1.012, 0.098, 192.0, 0.0, 0.0, 0.0, 0.0, 0.0, 0.0, 0.0, 0.0, 0.0, 1.695337514944912E9, 0.0, 2023-09-21 18:05:14.944
32.0, 29875.118121518866, 21138.737635462003, -58403.34247390539, -35314.146913784374, -30147.92116259589, -33462.5954583401, -187500.02235174447, -48981.18811621525, -27760.084302435436, -28222.519543471284, -59668.49591356468, -69161.23708024467, -30390.594052147157, -74139.95404719759, -50699.3667124947, -25169.539471809803, -0.004, 1.012, 0.098, 192.0, 127.5, 112.0, 15.5, 80.0, 1.5, 8.0, 0.0, 0.0, 0.0, 1.695337514944923E9, 0.0, 2023-09-21 18:05:14.944
34.0, 29799.345707815377, 21131.540373747393, -58406.047034984476, -35307.53079742561, -30184.868596180513, -33460.516746105764, -187500.02235174447, -48975.26490393459, -27761.291296636024, -28235.908238400014, -59665.41137282985, -69161.46059768923, -30391.06343878072, -74097.26221528795, -50704.060578830315, -25157.156605381562, -0.004, 1.012, 0.098, 192.0, 0.0, 0.0, 0.0, 0.0, 0.0, 0.0, 0.0, 0.0, 0.0, 1.695337514944927E9, 0.0, 2023-09-21 18:05:14.944
36.0, 29872.234746484133, 21139.452891284574, -58409.80212805297, -35319.891312109394, -30155.990142344257, -33481.706199849395, -187500.02235174447, -49000.54472691354, -27762.811215258982, -28229.24741855233, -59672.742745011186, -69166.10976053592, -30401.322889485706, -74126.76651796896, -50705.64755268664, -25173.22750964493, -0.004, 1.012, 0.098, 192.0, 0.0, 0.0, 0.0, 0.0, 0.0, 0.0, 0.0, 0.0, 0.0, 1.69533751494493E9, 0.0, 2023-09-21 18:05:14.944
38.0, 29793.735419957095, 21153.400379824685, -58387.53979057548, -35283.0779889915, -30175.480863509285, -33438.05324292818, -187500.02235174447, -48958.81402001548, -27752.708226765186, -28235.64001746655, -59663.39971582887, -69159.0689610325, -30383.575604388192, -74076.85507260026, -50716.89048014766, -25164.823253729734, -0.004, 1.012, 0.098, 192.0, 0.0, 0.0, 0.0, 0.0, 0.0, 0.0, 0.0, 0.0, 0.0, 1.695337514944933E9, 0.0, 2023-09-21 18:05:14.944
40.0, 29860.500080645095, 21144.41497855365, -58396.79341277998, -35306.36850671393, -30134.57717115607, -33468.406911898484, -187500.02235174447, -48985.07731975047, -27733.373967811345, -28201.419496705475, -59637.985782383184, -69131.03987348556, -30403.11102904213, -74149.63235254675, -50707.279230031876, -25202.910626281577, -0.004, 1.012, 0.098, 192.0, 0.0, 0.0, 0.0, 0.0, 0.0, 0.0, 0.0, 0.0, 0.0, 1.695337514944937E9, 0.0, 2023-09-21 18:05:14.944
42.0, 29811.683870754707, 21137.821213939336, -58415.814747311444, -35303.35102121246, -30197.206759119843, -33461.9472577509, -187500.02235174447, -48991.22404947568, -27782.391343401832, -28252.78380546377, -59684.20918991676, -69178.06794381952, -30359.279258165272, -74044.04271173986, -50688.950799578524, -25143.16441335254, -0.006, 1.012, 0.092, 192.0, 127.5, 104.0, 15.5, 80.0, 1.0, 112.0, 0.0, 0.0, 0.0, 1.69533751494494E9, 0.0, 2023-09-21 18:05:14.944
44.0, 29844.80915603747, 21153.154510635675, -58401.44257562669, -35294.49973040816, -30146.423595717384, -33458.50508910479, -187500.02235174447, -48977.365967913385, -27756.508023322585, -28231.102613342122, -59660.3822303274, -69151.4693679177, -30418.26551178283, -74123.41375630067, -50720.17618658259, -25194.104038966187, -0.006, 1.012, 0.092, 192.0, 0.0, 0.0, 0.0, 0.0, 0.0, 0.0, 0.0, 0.0, 0.0, 1.695337514944944E9, 0.0, 2023-09-21 18:05:14.944
46.0, 29806.788838718992, 21156.864900215256, -58402.80603203846, -35284.441445403274, -30175.50321525374, -33443.68588253092, -187500.02235174447, -48965.94422649673, -27758.92201172376, -28231.706110442414, -59662.662108261844, -69155.98442029768, -30349.735063282857, -74046.63551409668, -50687.31912223329, -25152.21686985694, -0.006, 1.012, 0.092, 192.0, 0.0, 0.0, 0.0, 0.0, 0.0, 0.0, 0.0, 0.0, 0.0, 1.695337515004963E9, 0.0, 2023-09-21 18:05:15.004
48.0, 29821.742155759595, 21161.447007828596, -58399.63208432581, -35292.86805306293, -30141.528563681673, -33456.76165303727, -187500.02235174447, -48977.90240978032, -27737.218467857656, -28216.149296301523, -59640.95856439574, -69135.57727760998, -30411.53763670178, -74141.98805594303, -50717.04694235885, -25206.062222249773, -0.006, 1.012, 0.092, 192.0, 0.0, 0.0, 0.0, 0.0, 0.0, 0.0, 0.0, 0.0, 0.0, 1.695337515004974E9, 0.0, 2023-09-21 18:05:15.004
50.0, 29814.477838811617, 21165.112693919265, -58410.38327340881, -35288.48711114968, -30183.10280836854, -33446.7927750102, -187500.02235174447, -48975.53312486805, -27757.223279145157, -28228.867438896592, -59663.779695484605, -69157.75020810965, -30332.56892354118, -74043.68508382859, -50676.36676745019, -25151.702779734467, -0.006, 1.012, 0.092, 192.0, 0.0, 0.0, 0.0, 0.0, 0.0, 0.0, 0.0, 0.0, 0.0, 1.695337515004978E9, 0.0, 2023-09-21 18:05:15.004
52.0, 29806.095934640878, 21166.14087416421, -58397.68748255819, -35287.50363439365, -30140.187459014352, -33452.4477663574, -187500.02235174447, -48974.77316555657, -27717.973615881638, -28202.984118817345, -59624.12770082089, -69116.69005354524, -30418.198456549464, -74148.44771009061, -50720.46675926051, -25220.300283467805, -0.006, 1.01, 0.09, 192.0, 127.5, 104.0, 15.5, 72.0, 1.0, 104.0, 0.0, 0.0, 0.0, 1.695337515004982E9, 0.0, 2023-09-21 18:05:15.004
54.0, 29820.736327259106, 21155.479092059028, -58417.62523861232, -35299.618279888426, -30186.45557003684, -33458.25921991577, -187500.02235174447, -48983.69151159424, -27750.987142442125, -28225.626435950573, -59662.103314650456, -69154.822129586, -30330.1102316511, -74046.70256933005, -50671.42703192557, -25158.877689704623, -0.006, 1.01, 0.09, 192.0, 0.0, 0.0, 0.0, 0.0, 0.0, 0.0, 0.0, 0.0, 0.0, 1.695337515004986E9, 0.0, 2023-09-21 18:05:15.004
56.0, 29798.451638037164, 21140.74929246298, -58423.883727059816, -35316.404439974365, -30174.16211058642, -33480.32039169317, -187500.02235174447, -49001.617610647394, -27755.748064011106, -28239.462165768407, -59663.913805951335, -69157.66080113183, -30420.12070657262, -74117.95993065357, -50721.29377380536, -25201.92714952554, -0.006, 1.01, 0.09, 192.0, 0.0, 0.0, 0.0, 0.0, 0.0, 0.0, 0.0, 0.0, 0.0, 1.69533751500499E9, 0.0, 2023-09-21 18:05:15.004
58.0, 29829.297045385487, 21152.66277225766, -58420.53096539152, -35303.105152023454, -30187.148474114954, -33461.61198158407, -187500.02235174447, -48983.870325549884, -27773.472997364166, -28240.043311124246, -59683.24806490518, -69176.61508042993, -30346.91874348149, -74018.472316083, -50682.75936636441, -25145.60075349817, -0.006, 1.01, 0.09, 192.0, 0.0, 0.0, 0.0, 0.0, 0.0, 0.0, 0.0, 0.0, 0.0, 1.695337515004994E9, 0.0, 2023-09-21 18:05:15.004
60.0, 29772.03187609099, 21160.150606650186, -58395.049976712464, -35287.9283175383, -30154.760796399212, -33447.86565874406, -187500.02235174447, -48969.74402305413, -27741.979389426637, -28222.49719172683, -59646.70296272075, -69141.38873116836, -30439.566724248736, -74105.82293341434, -50735.308317578834, -25208.185637973027, -0.006, 1.01, 0.09, 192.0, 0.0, 0.0, 0.0, 0.0, 0.0, 0.0, 0.0, 0.0, 0.0, 1.69533751506534E9, 0.0, 2023-09-21 18:05:15.065
62.0, 29827.173629662233, 21158.22835662703, -58406.9858082516, -35294.61148913044, -30164.01441860371, -33456.113452448066, -187500.02235174447, -48981.299874937526, -27743.87928770534, -28207.320357241675, -59652.55911976804, -69145.36734168141, -30347.321074881685, -74045.45087164055, -50673.68455811555, -25166.857262475165, -0.004, 1.012, 0.092, 192.0, 127.5, 112.0, 15.5, 80.0, 1.0, 112.0, 0.0, 0.0, 0.0, 1.695337515065366E9, 0.0, 2023-09-21 18:05:15.065
64.0, 29764.678152165194, 21148.885327444714, -58403.27541867202, -35293.89623330787, -30164.34969477054, -33458.81801352716, -187500.02235174447, -48983.15506972731, -27752.216488387166, -28233.06956685419, -59654.45901804674, -69148.98832428317, -30423.808744407746, -74098.15628506617, -50713.69418069055, -25200.921321025053, -0.004, 1.012, 0.092, 192.0, 0.0, 0.0, 0.0, 0.0, 0.0, 0.0, 0.0, 0.0, 0.0, 1.69533751506537E9, 0.0, 2023-09-21 18:05:15.065
66.0, 29834.08031869892, 21158.921260705145, -58408.32691291892, -35293.02451527411, -30168.68593319487, -33455.91228674797, -187500.02235174447, -48985.39024417284, -27770.00847697359, -28230.07443309718, -59674.57558805652, -69163.58401341249, -30345.979970214365, -74028.44119411007, -50670.711776102995, -25152.77566346832, -0.004, 1.012, 0.092, 192.0, 0.0, 0.0, 0.0, 0.0, 0.0, 0.0, 0.0, 0.0, 0.0, 1.695337515065374E9, 0.0, 2023-09-21 18:05:15.065
68.0, 29751.51297468102, 21166.81142649787, -58385.81870625242, -35273.44438713126, -30162.047465091644, -33439.52845806223, -187500.02235174447, -48967.91118000879, -27737.643151002307, -28220.843162637135, -59635.66120095983, -69129.05056822904, -30423.696985685467, -74088.07564831682, -50720.71262844952, -25202.597701859202, -0.004, 1.012, 0.092, 192.0, 0.0, 0.0, 0.0, 0.0, 0.0, 0.0, 0.0, 0.0, 0.0, 1.695337515065378E9, 0.0, 2023-09-21 18:05:15.065
70.0, 29844.295065914997, 21159.10007466079, -58415.211250211156, -35307.06141079204, -30175.50321525374, -33473.99484801231, -187500.02235174447, -49003.383398459366, -27754.272848877055, -28215.411688734497, -59660.42693381631, -69150.68705686177, -30345.845859747635, -74045.47322338501, -50677.283188972855, -25173.36162011166, -0.004, 1.012, 0.092, 192.0, 0.0, 0.0, 0.0, 0.0, 0.0, 0.0, 0.0, 0.0, 0.0, 1.695337515065382E9, 0.0, 2023-09-21 18:05:15.065
72.0, 29760.096044551858, 21143.878536686723, -58413.35605542136, -35305.67560263581, -30198.30199459815, -33471.558507866685, -187500.02235174447, -48998.063683279004, -27758.54203206802, -28243.306665814718, -59660.29282334958, -69155.04564703055, -30402.172255775007, -74049.92122053161, -50726.300564563346, -25189.968966241955, -0.012, 1.012, 0.092, 192.0, 127.5, 80.0, 15.5, 80.0, 1.0, 112.0, 0.0, 0.0, 0.0, 1.695337515065387E9, 0.0, 2023-09-21 18:05:15.065
74.0, 29850.240629940112, 21151.545185034895, -58427.34824745038, -35318.013765575146, -30194.03281140719, -33485.79656908471, -187500.02235174447, -49016.45916896572, -27779.530320111553, -28244.49130827085, -59688.67953880782, -69181.17483629881, -30362.54261285575, -74006.73765024396, -50701.266610773404, -25159.257669360362, -0.012, 1.012, 0.092, 192.0, 0.0, 0.0, 0.0, 0.0, 0.0, 0.0, 0.0, 0.0, 0.0, 1.695337515065391E9, 0.0, 2023-09-21 18:05:15.065
76.0, 29744.226305988588, 21160.150606650186, -58399.72149130362, -35288.26359370513, -30190.031849149687, -33454.571182080654, -187500.02235174447, -48979.24351444763, -27738.53722078052, -28231.527296486773, -59642.54553825207, -69140.71817883471, -30412.54346520227, -74026.80951676483, -50739.644556003164, -25190.997146486898, -0.012, 1.012, 0.092, 192.0, 0.0, 0.0, 0.0, 0.0, 0.0, 0.0, 0.0, 0.0, 0.0, 1.695337515125561E9, 0.0, 2023-09-21 18:05:15.125
78.0, 29833.47682159863, 21157.80367348238, -58416.90998278976, -35314.05750680656, -30165.914316882412, -33480.923888793455, -187500.02235174447, -49005.52916592707, -27743.007569671583, -28215.746964901326, -59654.23550060219, -69147.89308880486, -30370.253964692827, -74041.58401984979, -50696.95272409353, -25193.835818032723, -0.012, 1.012, 0.092, 192.0, 0.0, 0.0, 0.0, 0.0, 0.0, 0.0, 0.0, 0.0, 0.0, 1.695337515125572E9, 0.0, 2023-09-21 18:05:15.125
80.0, 29738.1689832412, 21162.85516772928, -58400.593209337385, -35288.84473906097, -30190.9259189279, -33446.43514709892, -187500.02235174447, -48980.249342948126, -27762.49829083661, -28252.336770574664, -59665.724297252214, -69164.79100761306, -30395.48908418287, -74004.90480719863, -50716.644610958654, -25185.006878972876, -0.012, 1.012, 0.092, 192.0, 0.0, 0.0, 0.0, 0.0, 0.0, 0.0, 0.0, 0.0, 0.0, 1.695337515125576E9, 0.0, 2023-09-21 18:05:15.125
82.0, 29817.65178652427, 21168.95719396558, -58401.39787213777, -35298.34423045447, -30153.956133598822, -33459.399158882996, -187500.02235174447, -48986.44077616224, -27740.034787659024, -28212.17068578848, -59646.05476213155, -69141.67930384628, -30382.90505205453, -74049.11655773122, -50703.97117185249, -25208.029175761843, -0.01, 1.01, 0.094, 192.0, 127.5, 88.0, 15.5, 72.0, 1.0, 120.0, 0.0, 0.0, 0.0, 1.695337515125579E9, 0.0, 2023-09-21 18:05:15.125
84.0, 29727.328387180376, 21182.167074938665, -58379.85079048286, -35261.732073036685, -30170.02703786219, -33423.65871949896, -187500.02235174447, -48954.61189205789, -27727.808383441974, -28215.702261412414, -59629.89445089036, -69126.3683588944, -30372.131511227075, -74023.45675509653, -50705.55814570882, -25207.71625133947, -0.01, 1.01, 0.094, 192.0, 0.0, 0.0, 0.0, 0.0, 0.0, 0.0, 0.0, 0.0, 0.0, 1.695337515125583E9, 0.0, 2023-09-21 18:05:15.125
86.0, 29803.927815428713, 21170.588871310818, -58401.88961051579, -35294.18680598579, -30150.536316697162, -33462.28253391773, -187500.02235174447, -48984.25030520562, -27737.643151002307, -28210.91898809898, -59642.34437255197, -69136.6725130883, -30375.551328128735, -74075.29045048839, -50683.49697393143, -25228.99511206092, -0.01, 1.01, 0.094, 192.0, 0.0, 0.0, 0.0, 0.0, 0.0, 0.0, 0.0, 0.0, 0.0, 1.695337515125587E9, 0.0, 2023-09-21 18:05:15.125
88.0, 29737.297265207442, 21174.969813224056, -58394.37942437881, -35277.534756366585, -30184.376857802494, -33445.7422430208, -187500.02235174447, -48967.933531753246, -27734.737424223116, -28223.88299988306, -59636.82349167151, -69135.44316714325, -30351.43379586146, -74020.55102831734, -50690.69423564604, -25206.442201905516, -0.01, 1.01, 0.094, 192.0, 0.0, 0.0, 0.0, 0.0, 0.0, 0.0, 0.0, 0.0, 0.0, 1.695337515125592E9, 0.0, 2023-09-21 18:05:15.125
90.0, 29794.56243450194, 21170.00772595498, -58403.61069483885, -35300.71351536674, -30149.172860285387, -33472.92196427846, -187500.02235174447, -48992.14047099835, -27730.177668354234, -28212.97534858887, -59634.00717187014, -69131.0175217411, -30387.464807923414, -74085.97458433802, -50700.12667180618, -25238.71812089898, -0.01, 1.01, 0.094, 192.0, 0.0, 0.0, 0.0, 0.0, 0.0, 0.0, 0.0, 0.0, 0.0, 1.695337515187082E9, 0.0, 2023-09-21 18:05:15.187
92.0, 29747.98139905708, 21174.85805450178, -58407.1869739517, -35288.84473906097, -30191.864692195024, -33456.20285942589, -187500.02235174447, -48985.85963080641, -27753.35642735439, -28234.522430243785, -59650.793331956076, -69148.36247543842, -30340.10146142262, -73997.48402803947, -50690.22484901248, -25191.8465127762, -0.008, 1.008, 0.10200000000000001, 192.0, 127.5, 96.0, 15.5, 64.0, 1.5, 24.0, 0.0, 0.0, 0.0, 1.695337515187094E9, 0.0, 2023-09-21 18:05:15.187
94.0, 29781.821940162416, 21161.29054561741, -58422.02853227002, -35316.7844196301, -30165.936668626866, -33485.5059964068, -187500.02235174447, -49005.059779293515, -27749.4001685858, -28228.308645285208, -59648.580509255, -69144.31680969201, -30392.717467870414, -74072.65294464266, -50718.76802668191, -25233.867792352175, -0.008, 1.008, 0.10200000000000001, 192.0, 0.0, 0.0, 0.0, 0.0, 0.0, 0.0, 0.0, 0.0, 0.0, 1.695337515187098E9, 0.0, 2023-09-21 18:05:15.187
96.0, 29750.685960136172, 21181.161246438176, -58403.99067449459, -35283.480320391696, -30190.36712531652, -33448.17858316643, -187500.02235174447, -48972.336825410945, -27750.897735464307, -28235.81883142219, -59650.74862846716, -69149.34595219445, -30339.408557344505, -73984.49766451093, -50694.89636360364, -25190.013669730863, -0.008, 1.008, 0.10200000000000001, 192.0, 0.0, 0.0, 0.0, 0.0, 0.0, 0.0, 0.0, 0.0, 0.0, 1.695337515187102E9, 0.0, 2023-09-21 18:05:15.187
98.0, 29768.299134766956, 21167.817254998357, -58417.96051477916, -35309.60950965995, -30165.847261649047, -33481.706199849395, -187500.02235174447, -49000.47767168018, -27734.849182945396, -28222.49719172683, -59634.65537245934, -69134.52674562058, -30407.916654100023, -74074.70930513255, -50716.577555725285, -25242.763786645388, -0.008, 1.008, 0.10200000000000001, 192.0, 0.0, 0.0, 0.0, 0.0, 0.0, 0.0, 0.0, 0.0, 0.0, 1.695337515187106E9, 0.0, 2023-09-21 18:05:15.187
100.0, 29768.053265577946, 21175.32744113534, -58418.11697699034, -35297.07018102052, -30196.93853818638, -33463.57893509614, -187500.02235174447, -48985.12202323938, -27759.68197103524, -28239.819793679693, -59660.1810646273, -69160.90180407785, -30330.870190962578, -73969.8572718927, -50680.725357618976, -25179.821274259244, -0.008, 1.008, 0.10200000000000001, 192.0, 0.0, 0.0, 0.0, 0.0, 0.0, 0.0, 0.0, 0.0, 0.0, 1.695337515187109E9, 0.0, 2023-09-21 18:05:15.187
102.0, 29755.335122982877, 21171.125313177745, -58412.08200598741, -35301.54052991158, -30169.17767157289, -33474.19601371241, -187500.02235174447, -48995.135604755356, -27734.223334100647, -28225.693491183938, -59631.01203811313, -69131.03987348556, -30415.717412914924, -74064.29339221638, -50727.66402097512, -25239.94746684402, -0.008, 1.004, 0.1, 192.0, 127.5, 96.0, 15.5, 48.0, 1.5, 16.0, 0.0, 0.0, 0.0, 1.695337515187113E9, 0.0, 2023-09-21 18:05:15.187
104.0, 29777.75392267155, 21186.01157498498, -58408.93041001921, -35283.055637247046, -30186.701439225846, -33456.51578384826, -187500.02235174447, -48984.27265695008, -27752.931744209738, -28238.277523312274, -59652.35795406794, -69152.9222313073, -30335.407595087006, -73964.29168752333, -50682.93818032005, -25181.296489393295, -0.008, 1.004, 0.1, 192.0, 0.0, 0.0, 0.0, 0.0, 0.0, 0.0, 0.0, 0.0, 0.0, 1.695337515187116E9, 0.0, 2023-09-21 18:05:15.187
106.0, 29743.421643188198, 21183.91051100618, -58399.49797385907, -35281.69218083527, -30155.856031877523, -33455.93463849242, -187500.02235174447, -48977.94711326923, -27719.381775782324, -28219.77027890328, -59613.66708441581, -69114.72310003318, -30424.322834530216, -74059.06308401383, -50718.72332319299, -25242.47321396747, -0.008, 1.004, 0.1, 192.0, 0.0, 0.0, 0.0, 0.0, 0.0, 0.0, 0.0, 0.0, 0.0, 1.695337515245983E9, 0.0, 2023-09-21 18:05:15.245
108.0, 29792.439018778685, 21187.37503139675, -58415.72534033363, -35292.24220421818, -30179.303011811142, -33458.72860654934, -187500.02235174447, -48986.79840407353, -27740.59358127041, -28226.900485384525, -59641.76322719613, -69143.53449863607, -30331.026653173765, -73973.210033561, -50667.24725571243, -25186.012707473365, -0.008, 1.004, 0.1, 192.0, 0.0, 0.0, 0.0, 0.0, 0.0, 0.0, 0.0, 0.0, 0.0, 1.695337515246013E9, 0.0, 2023-09-21 18:05:15.246
110.0, 29733.944503539147, 21183.821104028357, -58409.84683154188, -35292.10809375144, -30172.46337800782, -33456.69459780391, -187500.02235174447, -48985.189078472744, -27723.270979317545, -28228.53216272976, -59621.53489846407, -69124.5131641046, -30417.237331537883, -74048.44600539756, -50722.05373311684, -25240.081577310753, -0.008, 1.004, 0.1, 192.0, 0.0, 0.0, 0.0, 0.0, 0.0, 0.0, 0.0, 0.0, 0.0, 1.695337515246016E9, 0.0, 2023-09-21 18:05:15.246
112.0, 29787.543986742974, 21198.752069324502, -58408.773947808026, -35282.31802968002, -30173.513909997215, -33444.06586218665, -187500.02235174447, -48972.135659710846, -27731.474069532644, -28225.71584292839, -59635.77295968211, -69137.05249274403, -30328.702071750413, -73988.25275757942, -50674.3104069603, -25200.854265791688, -0.004, 1.006, 0.098, 192.0, 127.5, 112.0, 15.5, 56.0, 1.5, 8.0, 0.0, 0.0, 0.0, 1.69533751524602E9, 0.0, 2023-09-21 18:05:15.246
114.0, 29715.68312831916, 21192.873560532757, -58405.24237218409, -35286.833082059995, -30167.233069805276, -33449.65379830048, -187500.02235174447, -48974.9072760233, -27706.48481923161, -28220.39612774803, -59605.329883733975, -69110.56567556449, -30402.976918575398, -74063.30991546034, -50719.66209646012, -25253.872603639677, -0.004, 1.006, 0.098, 192.0, 0.0, 0.0, 0.0, 0.0, 0.0, 0.0, 0.0, 0.0, 0.0, 1.695337515246023E9, 0.0, 2023-09-21 18:05:15.246
116.0, 29796.104704869358, 21192.828857043845, -58434.54550916499, -35315.01863181814, -30186.45557003684, -33474.03955150122, -187500.02235174447, -49002.51168042561, -27735.519735279053, -28223.05598533821, -59645.29480282007, -69144.18269922528, -30332.881847963556, -74001.14971413014, -50676.03149128336, -25206.12927748314, -0.004, 1.006, 0.098, 192.0, 0.0, 0.0, 0.0, 0.0, 0.0, 0.0, 0.0, 0.0, 0.0, 1.695337515246026E9, 0.0, 2023-09-21 18:05:15.246
118.0, 29710.139895694247, 21160.10590316128, -58433.38321845332, -35315.15274228487, -30200.537169043684, -33472.273763689256, -187500.02235174447, -48997.013151289604, -27745.466261561665, -28263.60204978014, -59649.34046856648, -69153.63748712988, -30407.134343044087, -74024.28376964138, -50726.18880584107, -25231.051472550807, -0.004, 1.006, 0.098, 192.0, 0.0, 0.0, 0.0, 0.0, 0.0, 0.0, 0.0, 0.0, 0.0, 1.695337515246029E9, 0.0, 2023-09-21 18:05:15.246
120.0, 29787.83455942089, 21170.678278288637, -58435.819558598945, -35317.454971963765, -30187.483750281783, -33476.07356024666, -187500.02235174447, -49005.819738604994, -27753.334075609935, -28258.729369488883, -59661.00807917215, -69162.4217227008, -30360.06156922121, -73988.36451630169, -50692.0129885689, -25204.385841415628, -0.004, 1.006, 0.098, 192.0, 0.0, 0.0, 0.0, 0.0, 0.0, 0.0, 0.0, 0.0, 0.0, 1.695337515304941E9, 0.0, 2023-09-21 18:05:15.304
122.0, 29694.31486061989, 21157.647211271193, -58436.28894523251, -35317.589082430495, -30205.476904568306, -33475.31360093517, -187500.02235174447, -49002.690494381255, -27733.083395133424, -28254.616648509105, -59637.69520970526, -69142.81924281351, -30413.16931404702, -74015.76775500391, -50735.71064897903, -25236.974684831464, -0.008, 1.01, 0.1, 192.0, 127.5, 96.0, 15.5, 72.0, 1.5, 16.0, 0.0, 0.0, 0.0, 1.695337515304973E9, 0.0, 2023-09-21 18:05:15.304
124.0, 29787.253414065053, 21144.70555123157, -58457.67956467624, -35342.44422226479, -30196.11152364153, -33503.096819293125, -187500.02235174447, -49025.93630861477, -27768.57796532845, -28270.68755277247, -59679.80589625906, -69183.09708632197, -30372.15386297153, -73986.37521104518, -50702.42890148508, -25211.627806619144, -0.008, 1.01, 0.1, 192.0, 0.0, 0.0, 0.0, 0.0, 0.0, 0.0, 0.0, 0.0, 0.0, 1.695337515304979E9, 0.0, 2023-09-21 18:05:15.304
126.0, 29686.469398316076, 21160.932917706123, -58427.48235791712, -35302.72517236772, -30206.952119702357, -33458.214516426866, -187500.02235174447, -48988.631247118865, -27746.472090062154, -28278.644773798558, -59650.68157323379, -69159.71716162171, -30411.470581468417, -73981.83780692075, -50739.89042519217, -25222.33429221324, -0.008, 1.01, 0.1, 192.0, 0.0, 0.0, 0.0, 0.0, 0.0, 0.0, 0.0, 0.0, 0.0, 1.695337515304983E9, 0.0, 2023-09-21 18:05:15.304
128.0, 29776.50222498205, 21146.38193206572, -58455.71261116417, -35337.34802452898, -30195.50802654124, -33491.67507787646, -187500.02235174447, -49020.52718645659, -27756.575078555954, -28258.59525902215, -59669.81466648754, -69169.7307431377, -30384.447322421947, -73995.78529546085, -50711.548413222845, -25222.535457913335, -0.008, 1.01, 0.1, 192.0, 0.0, 0.0, 0.0, 0.0, 0.0, 0.0, 0.0, 0.0, 0.0, 1.695337515304988E9, 0.0, 2023-09-21 18:05:15.304
130.0, 29686.335287849342, 21151.47812980153, -58440.8934045903, -35313.85634110646, -30219.782021019702, -33464.6965223189, -187500.02235174447, -48999.58360190196, -27757.469148334167, -28280.052933699244, -59667.57949204201, -69171.31771699402, -30398.9759563179, -73958.39082698713, -50732.80492219984, -25214.779402587345, -0.008, 1.01, 0.1, 192.0, 0.0, 0.0, 0.0, 0.0, 0.0, 0.0, 0.0, 0.0, 0.0, 1.695337515304992E9, 0.0, 2023-09-21 18:05:15.304
132.0, 29758.330256739886, 21163.212795640564, -58437.361828966365, -35316.44914346327, -30173.089226852564, -33476.028856757745, -187500.02235174447, -49005.08213103797, -27742.605238271386, -28255.086035142667, -59655.174273869314, -69155.71619936421, -30399.40063946255, -74005.30713859882, -50716.55520398083, -25237.33231274275, -0.006, 1.006, 0.106, 192.0, 127.5, 104.0, 15.5, 56.0, 1.5, 40.0, 0.0, 0.0, 0.0, 1.695337515304996E9, 0.0, 2023-09-21 18:05:15.304
134.0, 29673.81831095437, 21181.451819116097, -58413.15488972126, -35280.239317445674, -30195.150398629954, -33434.47696381533, -187500.02235174447, -48967.26297941959, -27729.417709042755, -28257.83529971067, -59636.77878818259, -69141.07580674598, -30379.932270041976, -73970.99721085993, -50717.58338422578, -25231.69967314001, -0.006, 1.006, 0.106, 192.0, 0.0, 0.0, 0.0, 0.0, 0.0, 0.0, 0.0, 0.0, 0.0, 1.695337515304999E9, 0.0, 2023-09-21 18:05:15.304
136.0, 29752.98818981507, 21160.731752006024, -58442.9944685691, -35326.77564940163, -30173.26804080821, -33487.562356896684, -187500.02235174447, -49007.83139560597, -27728.993025898104, -28238.344578545642, -59639.84097717297, -69137.85715554442, -30386.548386400747, -74030.49755459995, -50701.71364566251, -25258.253545552918, -0.006, 1.006, 0.106, 192.0, 0.0, 0.0, 0.0, 0.0, 0.0, 0.0, 0.0, 0.0, 0.0, 1.695337515365173E9, 0.0, 2023-09-21 18:05:15.365
138.0, 29690.738581507037, 21173.919281234656, -58425.269535216044, -35298.2324717322, -30211.534227315693, -33453.49829834679, -187500.02235174447, -48983.62445636088, -27759.078473934947, -28280.723486032904, -59665.34431759648, -69166.26622274712, -30357.37935988657, -73935.32382670925, -50698.91967760559, -25205.883408294132, -0.006, 1.006, 0.106, 192.0, 0.0, 0.0, 0.0, 0.0, 0.0, 0.0, 0.0, 0.0, 0.0, 1.695337515365186E9, 0.0, 2023-09-21 18:05:15.365
140.0, 29732.40223317173, 21180.8483220158, -58417.37936942332, -35299.46181767724, -30158.381779000974, -33463.53423160723, -187500.02235174447, -48985.23378196166, -27712.67625244573, -28234.231857565865, -59620.41731124131, -69120.69101580275, -30402.149904030553, -74035.45964186903, -50716.10816909173, -25264.914365400597, -0.006, 1.006, 0.106, 192.0, 0.0, 0.0, 0.0, 0.0, 0.0, 0.0, 0.0, 0.0, 0.0, 1.69533751536519E9, 0.0, 2023-09-21 18:05:15.365
142.0, 29701.757991523504, 21183.441124372617, -58425.694218360695, -35291.83987281798, -30202.302956855652, -33452.80539426868, -187500.02235174447, -48981.72455808218, -27735.11740387886, -28256.427139809985, -59639.237480072676, -69138.30419043353, -30336.368720098584, -73950.50066119441, -50685.329816976766, -25217.305149710795, -0.008, 1.006, 0.108, 192.0, 127.5, 96.0, 15.5, 56.0, 1.5, 48.0, 0.0, 0.0, 0.0, 1.695337515365194E9, 0.0, 2023-09-21 18:05:15.365
144.0, 29736.805526829427, 21177.294394647408, -58433.83025334242, -35313.252844006165, -30179.25830832223, -33483.449635916906, -187500.02235174447, -49004.1657095153, -27730.378834054332, -28250.682741484972, -59635.102407348444, -69133.87854503137, -30396.226691749896, -74026.96597897602, -50712.71070393452, -25255.57133621828, -0.008, 1.006, 0.108, 192.0, 0.0, 0.0, 0.0, 0.0, 0.0, 0.0, 0.0, 0.0, 0.0, 1.695337515365206E9, 0.0, 2023-09-21 18:05:15.365
146.0, 29726.814297057903, 21177.361449880773, -58437.47358768864, -35309.92243408232, -30211.623634293515, -33475.17949046844, -187500.02235174447, -49001.32703796948, -27740.280656848034, -28259.288163100264, -59645.98770689818, -69145.43439691477, -30329.0596996617, -73930.33938769573, -50682.33468321976, -25200.87661753614, -0.008, 1.006, 0.108, 192.0, 0.0, 0.0, 0.0, 0.0, 0.0, 0.0, 0.0, 0.0, 0.0, 1.695337515365209E9, 0.0, 2023-09-21 18:05:15.365
148.0, 29724.199142956633, 21180.691859804614, -58428.37642769533, -35310.16830327133, -30177.11254085452, -33479.51572889277, -187500.02235174447, -49001.79642460304, -27729.44006078721, -28260.20458462293, -59636.175291082305, -69139.2206119562, -30407.335508744185, -74011.2750543684, -50723.573651739796, -25244.864850624188, -0.008, 1.006, 0.108, 192.0, 0.0, 0.0, 0.0, 0.0, 0.0, 0.0, 0.0, 0.0, 0.0, 1.695337515365213E9, 0.0, 2023-09-21 18:05:15.365
150.0, 29732.22341921609, 21195.91339777868, -58422.609677625864, -35295.43850367529, -30196.40209631945, -33461.88020251754, -187500.02235174447, -48993.593334387944, -27735.63149400133, -28255.644828754048, -59644.5795469975, -69144.76384458112, -30326.288083349238, -73922.98566376993, -50683.18404950906, -25196.65213783409, -0.008, 1.006, 0.108, 192.0, 0.0, 0.0, 0.0, 0.0, 0.0, 0.0, 0.0, 0.0, 0.0, 1.695337515425448E9, 0.0, 2023-09-21 18:05:15.425
152.0, 29705.088401447345, 21204.272950204962, -58414.60775311086, -35296.064352520036, -30167.25542154973, -33467.937525264926, -187500.02235174447, -48995.336770455455, -27704.271996530533, -28235.416500021995, -59609.93434309177, -69108.10698367441, -30408.363688989128, -74023.43440335208, -50721.74080869446, -25260.600478720724, -0.014, 1.01, 0.10400000000000001, 192.0, 127.5, 72.0, 15.5, 72.0, 1.5, 32.0, 0.0, 0.0, 0.0, 1.695337515425491E9, 0.0, 2023-09-21 18:05:15.425
154.0, 29743.89102982176, 21200.96489202558, -58438.52411967804, -35308.64838464837, -30209.25434938125, -33475.78298756874, -187500.02235174447, -49015.38628523186, -27737.754909724583, -28247.240572838855, -59647.57468075451, -69142.61807711341, -30315.71570822188, -73925.35494868219, -50673.863372071195, -25197.36739365666, -0.014, 1.01, 0.10400000000000001, 192.0, 0.0, 0.0, 0.0, 0.0, 0.0, 0.0, 0.0, 0.0, 0.0, 1.695337515425495E9, 0.0, 2023-09-21 18:05:15.425
156.0, 29698.539340321942, 21198.48384839104, -58422.20734622567, -35304.62507064641, -30178.11836935501, -33477.839348058624, -187500.02235174447, -49002.62343914789, -27707.11066807636, -28238.746909945836, -59613.2200495267, -69112.57733256547, -30409.101296556153, -74015.27601662588, -50737.85641644674, -25262.969763632987, -0.014, 1.01, 0.10400000000000001, 192.0, 0.0, 0.0, 0.0, 0.0, 0.0, 0.0, 0.0, 0.0, 0.0, 1.695337515425499E9, 0.0, 2023-09-21 18:05:15.425
158.0, 29752.11647178131, 21200.070822247366, -58434.90313707628, -35307.19552125878, -30198.30199459815, -33471.44674914441, -187500.02235174447, -49001.908183325315, -27748.170822640757, -28261.322171845695, -59658.549387282066, -69158.59957439895, -30322.1083071361, -73923.00801551438, -50677.149078506125, -25198.7979053018, -0.014, 1.01, 0.10400000000000001, 192.0, 0.0, 0.0, 0.0, 0.0, 0.0, 0.0, 0.0, 0.0, 0.0, 1.695337515425503E9, 0.0, 2023-09-21 18:05:15.425
160.0, 29681.14968313571, 21193.34294716632, -58419.01104676856, -35296.824311831515, -30170.36231402902, -33460.22617342784, -187500.02235174447, -48979.55643887001, -27707.24477854309, -28243.507831514817, -59612.01305532611, -69114.67839654427, -30417.192628048975, -74009.26339736741, -50728.13340760868, -25258.320600786283, -0.014, 1.01, 0.10400000000000001, 192.0, 0.0, 0.0, 0.0, 0.0, 0.0, 0.0, 0.0, 0.0, 0.0, 1.695337515425506E9, 0.0, 2023-09-21 18:05:15.425
162.0, 29748.674303135194, 21197.187447212633, -58430.1422155073, -35302.054620034054, -30180.621764734005, -33455.91228674797, -187500.02235174447, -48984.004436016614, -27739.721863236653, -28257.432968310473, -59650.05572438905, -69150.57529813949, -30333.664159019492, -73936.64257963211, -50666.21907546748, -25205.168152471564, -0.01, 1.008, 0.1, 192.0, 127.5, 88.0, 15.5, 64.0, 1.5, 16.0, 0.0, 0.0, 0.0, 1.695337515425509E9, 0.0, 2023-09-21 18:05:15.425
164.0, 29663.000066638004, 21194.706403578093, -58418.832232812914, -35291.75046584016, -30178.54305249966, -33445.697539531895, -187500.02235174447, -48971.420403888274, -27719.359424037866, -28255.0189799093, -59621.959581608724, -69124.93784724925, -30414.510418714337, -73997.75224897293, -50717.2704598034, -25252.352685016715, -0.01, 1.008, 0.1, 192.0, 0.0, 0.0, 0.0, 0.0, 0.0, 0.0, 0.0, 0.0, 0.0, 1.695337515425513E9, 0.0, 2023-09-21 18:05:15.425
166.0, 29755.40217821624, 21180.915377249166, -58449.69999190569, -35326.48507672371, -30193.675183495903, -33483.024952772255, -187500.02235174447, -49012.189985774756, -27736.369101568354, -28255.73423573187, -59646.63590748738, -69147.40135042684, -30342.940132968444, -73956.02154207487, -50666.241427211935, -25221.104946268195, -0.01, 1.008, 0.1, 192.0, 0.0, 0.0, 0.0, 0.0, 0.0, 0.0, 0.0, 0.0, 0.0, 1.695337515485749E9, 0.0, 2023-09-21 18:05:15.485
168.0, 29669.213851596578, 21168.420752098653, -58449.69999190569, -35321.88061736591, -30214.328195372607, -33477.504071891795, -187500.02235174447, -49005.484462438166, -27752.909392465284, -28290.334736148685, -59657.14122738138, -69163.13697852337, -30407.983709333388, -73963.01763808938, -50722.23254707248, -25237.71229239849, -0.01, 1.008, 0.1, 192.0, 0.0, 0.0, 0.0, 0.0, 0.0, 0.0, 0.0, 0.0, 0.0, 1.695337515485763E9, 0.0, 2023-09-21 18:05:15.485
170.0, 29751.736492125572, 21183.91051100618, -58444.96142208116, -35316.404439974365, -30180.666468222913, -33473.927792778944, -187500.02235174447, -48996.43200593376, -27744.281619105535, -28264.45141606944, -59652.84969244596, -69154.15157725234, -30369.248136192342, -73948.04196930432, -50697.489165960455, -25225.262370736884, -0.01, 1.008, 0.1, 192.0, 0.0, 0.0, 0.0, 0.0, 0.0, 0.0, 0.0, 0.0, 0.0, 1.695337515485767E9, 0.0, 2023-09-21 18:05:15.485
172.0, 29666.241069584023, 21167.504330575983, -58453.61154718537, -35323.95932960026, -30214.30584362815, -33478.93458353694, -187500.02235174447, -49004.74685487114, -27753.758758754586, -28282.869253500612, -59654.816645958024, -69156.94554530925, -30408.698965155956, -73947.88550709313, -50722.9701546395, -25235.03008306385, -0.01, 1.01, 0.096, 192.0, 127.5, 88.0, 15.5, 72.0, 1.5, 0.0, 0.0, 0.0, 0.0, 1.695337515485771E9, 0.0, 2023-09-21 18:05:15.485
174.0, 29762.822957375403, 21168.420752098653, -58465.70384093569, -35340.11964084145, -30197.92201494241, -33500.638127403035, -187500.02235174447, -49028.84203539396, -27771.953078741204, -28284.165654679022, -59679.9847102147, -69179.16317929783, -30391.421066692004, -73931.41227142958, -50704.50761371942, -25218.75801310039, -0.01, 1.01, 0.096, 192.0, 0.0, 0.0, 0.0, 0.0, 0.0, 0.0, 0.0, 0.0, 0.0, 1.695337515485774E9, 0.0, 2023-09-21 18:05:15.485
176.0, 29668.4538922851, 21187.37503139675, -58431.639782385806, -35296.48903566469, -30208.114410414033, -33458.482737360326, -187500.02235174447, -48985.16672672829, -27745.77918598404, -28280.79054126627, -59647.3288115655, -69151.62583012889, -30419.964244361432, -73915.98956775542, -50733.83310244478, -25224.32359746976, -0.01, 1.01, 0.096, 192.0, 0.0, 0.0, 0.0, 0.0, 0.0, 0.0, 0.0, 0.0, 0.0, 1.695337515485777E9, 0.0, 2023-09-21 18:05:15.485
178.0, 29756.83268986138, 21190.258406431487, -58442.77095112455, -35313.72223063972, -30184.1756921024, -33479.26985970377, -187500.02235174447, -49008.189023517254, -27743.0969766494, -28258.662314255515, -59650.011020900136, -69151.20114698424, -30400.40646796304, -73946.16442277007, -50701.57953519578, -25231.587914417734, -0.01, 1.01, 0.096, 192.0, 0.0, 0.0, 0.0, 0.0, 0.0, 0.0, 0.0, 0.0, 0.0, 1.695337515485781E9, 0.0, 2023-09-21 18:05:15.485
180.0, 29665.72697946155, 21209.23503747404, -58415.90415428927, -35273.10911096443, -30203.912282456433, -33433.38172833702, -187500.02235174447, -48968.51467710909, -27724.120345606847, -28258.036465410765, -59624.217107798715, -69126.72598680569, -30402.462828452928, -73923.45505040349, -50711.59311671175, -25230.872658595166, -0.01, 1.01, 0.096, 192.0, 0.0, 0.0, 0.0, 0.0, 0.0, 0.0, 0.0, 0.0, 0.0, 1.695337515546043E9, 0.0, 2023-09-21 18:05:15.546
182.0, 29738.817183830404, 21219.04745328992, -58418.42990141272, -35285.89430879287, -30170.004686117732, -33450.3467023786, -187500.02235174447, -48983.02095926058, -27710.754002422575, -28228.040424351744, -59612.90712510433, -69112.64438779883, -30405.34620348766, -73990.75615295842, -50698.69616016104, -25261.15927233211, -0.006, 1.01, 0.096, 192.0, 127.5, 104.0, 15.5, 72.0, 1.5, 0.0, 0.0, 0.0, 0.0, 1.695337515546061E9, 0.0, 2023-09-21 18:05:15.546
184.0, 29686.625860527263, 21195.779287311947, -58440.26755574555, -35302.65811713435, -30219.759669275245, -33466.61877234206, -187500.02235174447, -48999.76241585761, -27730.870572432348, -28254.50488978683, -59630.31913403501, -69132.93977176426, -30368.555232114224, -73926.47253590495, -50689.733110634465, -25225.19531550352, -0.006, 1.01, 0.096, 192.0, 0.0, 0.0, 0.0, 0.0, 0.0, 0.0, 0.0, 0.0, 0.0, 1.695337515546065E9, 0.0, 2023-09-21 18:05:15.546
186.0, 29747.064977534414, 21199.91436003618, -58439.06056154497, -35312.78345737261, -30188.69074448237, -33481.706199849395, -187500.02235174447, -49007.27260199459, -27746.606200528888, -28261.389227079064, -59647.03823888758, -69147.78133008258, -30410.285939012283, -73963.41996948958, -50700.75252065093, -25240.774481388868, -0.006, 1.01, 0.096, 192.0, 0.0, 0.0, 0.0, 0.0, 0.0, 0.0, 0.0, 0.0, 0.0, 1.695337515546068E9, 0.0, 2023-09-21 18:05:15.546
188.0, 29684.86007271529, 21221.997883558022, -58412.59609610988, -35273.08675921998, -30205.990994690776, -33440.69074877391, -187500.02235174447, -48968.96171199819, -27729.663578231764, -28252.761453719315, -59627.86044214493, -69130.83870778546, -30374.29963043924, -73901.86326525966, -50692.683540902566, -25216.411079932583, -0.006, 1.01, 0.096, 192.0, 0.0, 0.0, 0.0, 0.0, 0.0, 0.0, 0.0, 0.0, 0.0, 1.695337515546072E9, 0.0, 2023-09-21 18:05:15.546
190.0, 29727.663663347204, 21208.072746762366, -58437.0936080329, -35310.70474513826, -30184.063933380123, -33483.6060981281, -187500.02235174447, -49009.77599737358, -27715.693737947196, -28229.739156930347, -59618.271543773604, -69117.71823379019, -30412.208189035442, -73997.17110361709, -50702.98769509646, -25267.32835380177, -0.006, 1.01, 0.096, 192.0, 0.0, 0.0, 0.0, 0.0, 0.0, 0.0, 0.0, 0.0, 0.0, 1.695337515546077E9, 0.0, 2023-09-21 18:05:15.546
192.0, 29695.723020520574, 21215.068842776876, -58429.404607940276, -35290.63287861739, -30213.41177384994, -33459.44386237191, -187500.02235174447, -48991.134642497855, -27733.48572653362, -28249.565154262207, -59637.04700911606, -69138.99709451165, -30351.634961561558, -73903.60670132717, -50687.52028793339, -25220.61320789018, -0.006, 1.014, 0.098, 192.0, 127.5, 104.0, 15.5, 88.0, 1.5, 8.0, 0.0, 0.0, 0.0, 1.695337515546083E9, 0.0, 2023-09-21 18:05:15.546
194.0, 29714.140857951745, 21206.619883372772, -58432.22092774164, -35306.32380322502, -30186.053238636643, -33477.794644569716, -187500.02235174447, -49009.15014852884, -27729.082432875926, -28246.25709608282, -59634.25304105914, -69135.91255377681, -30422.40058450706, -73984.45296102202, -50714.476491746485, -25268.110664857708, -0.006, 1.014, 0.098, 192.0, 0.0, 0.0, 0.0, 0.0, 0.0, 0.0, 0.0, 0.0, 0.0, 1.695337515546087E9, 0.0, 2023-09-21 18:05:15.546
196.0, 29707.144761937234, 21205.614054872283, -58436.311296976965, -35299.30535546605, -30213.679994783404, -33466.57406885315, -187500.02235174447, -49002.399921703334, -27731.809345699472, -28241.898505914036, -59636.152939337844, -69139.60059161193, -30353.08782495115, -73901.81856177075, -50682.22292449748, -25227.81046960479, -0.006, 1.014, 0.098, 192.0, 0.0, 0.0, 0.0, 0.0, 0.0, 0.0, 0.0, 0.0, 0.0, 1.695337515605348E9, 0.0, 2023-09-21 18:05:15.605
198.0, 29705.177808425167, 21177.18263592513, -58450.23643377262, -35328.697899424784, -30196.93853818638, -33495.02783954475, -187500.02235174447, -49023.67878242479, -27736.92789517974, -28253.342599075153, -59641.47265451821, -69146.57433588199, -30433.777622434813, -73980.58610923126, -50718.70097144854, -25274.43620853856, -0.006, 1.014, 0.098, 192.0, 0.0, 0.0, 0.0, 0.0, 0.0, 0.0, 0.0, 0.0, 0.0, 1.695337515605358E9, 0.0, 2023-09-21 18:05:15.605
200.0, 29721.181657455167, 21183.441124372617, -58443.41915171375, -35311.42000096083, -30225.906399000454, -33471.51380437777, -187500.02235174447, -49011.81000611902, -27770.58962232943, -28274.97908770789, -59682.2869398936, -69187.99211835768, -30362.855537278123, -73860.87016592863, -50680.300674474325, -25202.530646625837, -0.006, 1.014, 0.098, 192.0, 0.0, 0.0, 0.0, 0.0, 0.0, 0.0, 0.0, 0.0, 0.0, 1.695337515605362E9, 0.0, 2023-09-21 18:05:15.605
202.0, 29687.4081715832, 21185.899816262703, -58411.67967458721, -35296.64549787587, -30179.63828797797, -33459.466214116364, -187500.02235174447, -48992.27458146508, -27712.698604190184, -28234.20950582141, -59623.07716883149, -69131.88923977486, -30452.150756377076, -73967.39858000263, -50730.01095414293, -25280.404124308126, -0.008, 1.008, 0.094, 192.0, 127.5, 96.0, 15.5, 64.0, 1.0, 120.0, 0.0, 0.0, 0.0, 1.695337515605366E9, 0.0, 2023-09-21 18:05:15.605
204.0, 29731.441108160154, 21182.792923783414, -58411.29969493148, -35291.79516932907, -30204.135799900985, -33453.54300183571, -187500.02235174447, -48992.07341576498, -27736.614970757364, -28236.511735500306, -59653.09556163497, -69159.78421685509, -30352.327865639672, -73882.70782026146, -50674.89155231614, -25228.704539383, -0.008, 1.008, 0.094, 192.0, 0.0, 0.0, 0.0, 0.0, 0.0, 0.0, 0.0, 0.0, 0.0, 1.695337515605369E9, 0.0, 2023-09-21 18:05:15.605
206.0, 29684.30127910391, 21166.163225908665, -58393.9323894897, -35286.609564615435, -30180.934689156376, -33457.00752222628, -187500.02235174447, -48983.28918019404, -27715.604330969374, -28229.336825530154, -59630.54265147956, -69138.90768753382, -30433.934084646, -73965.92336486858, -50723.10426510624, -25286.349688333237, -0.008, 1.008, 0.094, 192.0, 0.0, 0.0, 0.0, 0.0, 0.0, 0.0, 0.0, 0.0, 0.0, 1.695337515605373E9, 0.0, 2023-09-21 18:05:15.605
208.0, 29757.927925339693, 21158.340115349307, -58405.7341105621, -35298.768913599124, -30199.9783754323, -33472.85490904509, -187500.02235174447, -49004.34452347094, -27749.4001685858, -28238.188116334455, -59670.17229439882, -69177.08446706348, -30347.678702792968, -73884.87593947363, -50670.443555169535, -25224.837687592233, -0.008, 1.008, 0.094, 192.0, 0.0, 0.0, 0.0, 0.0, 0.0, 0.0, 0.0, 0.0, 0.0, 1.695337515605376E9, 0.0, 2023-09-21 18:05:15.605
210.0, 29705.87071250328, 21141.062216885355, -58396.14521219078, -35298.61245138794, -30194.949232929855, -33476.07356024666, -187500.02235174447, -48996.20848848921, -27738.090185891415, -28244.245439081842, -59654.86134944694, -69164.29926923505, -30421.260645539838, -73936.64257963211, -50719.66209646012, -25261.7627694324, -0.008, 1.008, 0.094, 192.0, 0.0, 0.0, 0.0, 0.0, 0.0, 0.0, 0.0, 0.0, 0.0, 1.695337515665658E9, 0.0, 2023-09-21 18:05:15.665
212.0, 29791.209672833644, 21147.633629755215, -58394.22296216762, -35294.18680598579, -30197.11735214202, -33472.81020555618, -187500.02235174447, -48995.98497104466, -27769.82966301795, -28254.72840723138, -59690.0876987085, -69194.56353122754, -30353.57956332917, -73859.95374440595, -50677.75257560642, -25212.208951974982, -0.01, 1.008, 0.10200000000000001, 192.0, 127.5, 88.0, 15.5, 64.0, 1.5, 24.0, 0.0, 0.0, 0.0, 1.695337515665673E9, 0.0, 2023-09-21 18:05:15.665
214.0, 29708.239997415545, 21159.010667682967, -58363.48931354157, -35265.95655273873, -30184.823892691602, -33442.5906470526, -187500.02235174447, -48965.206618929704, -27729.037729387015, -28236.19881107793, -59640.93621265128, -69148.20601322723, -30436.34807304717, -73921.86807654717, -50728.35692505323, -25264.892013656143, -0.01, 1.008, 0.10200000000000001, 192.0, 0.0, 0.0, 0.0, 0.0, 0.0, 0.0, 0.0, 0.0, 0.0, 1.695337515665678E9, 0.0, 2023-09-21 18:05:15.665
216.0, 29808.889902697792, 21149.444121056094, -58380.76721200553, -35287.21306171573, -30178.677162966393, -33463.310714162675, -187500.02235174447, -48976.71776732418, -27740.30300859249, -28221.15608705951, -59661.16454138333, -69162.01939130061, -30364.19664194544, -73897.50467509088, -50676.63498838365, -25242.830841878756, -0.01, 1.008, 0.10200000000000001, 192.0, 0.0, 0.0, 0.0, 0.0, 0.0, 0.0, 0.0, 0.0, 0.0, 1.695337515665683E9, 0.0, 2023-09-21 18:05:15.665
218.0, 29741.65585537623, 21125.460699255553, -58390.55727607695, -35295.23733797519, -30209.27670112571, -33471.2008799554, -187500.02235174447, -48989.43590991925, -27751.277715120046, -28251.35329381863, -59667.78065774211, -69170.84833036046, -30410.531808201293, -73897.01293671285, -50702.65241892963, -25247.792929147832, -0.01, 1.008, 0.10200000000000001, 192.0, 0.0, 0.0, 0.0, 0.0, 0.0, 0.0, 0.0, 0.0, 0.0, 1.695337515665687E9, 0.0, 2023-09-21 18:05:15.665
220.0, 29842.90925775877, 21132.814423181346, -58391.80897376645, -35295.46085541974, -30193.853997451544, -33474.95597302389, -187500.02235174447, -48991.33580819795, -27762.38653211433, -28246.748834460835, -59687.02550971813, -69185.24285378968, -30381.452188664938, -73869.22971835491, -50682.60290415322, -25221.931960813043, -0.01, 1.008, 0.10200000000000001, 192.0, 0.0, 0.0, 0.0, 0.0, 0.0, 0.0, 0.0, 0.0, 0.0, 1.695337515665692E9, 0.0, 2023-09-21 18:05:15.665
222.0, 29758.68788465117, 21128.65699871266, -58379.493162571576, -35276.57363135501, -30207.17563714691, -33456.247562914796, -187500.02235174447, -48967.710014308694, -27742.962866182672, -28248.0675873837, -59663.3326605955, -69168.74726638166, -30417.796125149267, -73873.3871428236, -50719.61739297121, -25235.8570976087, -0.008, 1.006, 0.108, 192.0, 127.5, 96.0, 15.5, 56.0, 1.5, 48.0, 0.0, 0.0, 0.0, 1.695337515665696E9, 0.0, 2023-09-21 18:05:15.665
224.0, 29853.61574335286, 21132.32268480333, -58388.076232442414, -35290.05173326156, -30172.88806115247, -33471.60321135559, -187500.02235174447, -48985.70316859522, -27745.846241217405, -28232.711938942903, -59671.08871592149, -69172.7258768947, -30382.569775887703, -73884.83123598472, -50689.2637240009, -25229.33038822775, -0.008, 1.006, 0.108, 192.0, 0.0, 0.0, 0.0, 0.0, 0.0, 0.0, 0.0, 0.0, 0.0, 1.695337515665701E9, 0.0, 2023-09-21 18:05:15.665
226.0, 29772.41185574673, 21135.94366740509, -58376.52038055901, -35279.50170987865, -30193.339907329075, -33457.05222571519, -187500.02235174447, -48969.07347072047, -27733.128098622336, -28241.49617451384, -59654.70488723575, -69160.2759552331, -30391.756342858833, -73863.84294794119, -50709.6708666886, -25228.883353338642, -0.008, 1.006, 0.108, 192.0, 0.0, 0.0, 0.0, 0.0, 0.0, 0.0, 0.0, 0.0, 0.0, 1.695337515725492E9, 0.0, 2023-09-21 18:05:15.725
228.0, 29862.62349636835, 21131.51802200294, -58392.70304354466, -35302.99339330118, -30170.049389606644, -33481.7509033383, -187500.02235174447, -48995.42617743328, -27740.43711905922, -28234.030691865766, -59669.34527985398, -69172.14473153887, -30383.53090089928, -73891.98379421042, -50692.92941009157, -25238.71812089898, -0.008, 1.006, 0.108, 192.0, 0.0, 0.0, 0.0, 0.0, 0.0, 0.0, 0.0, 0.0, 0.0, 1.695337515725504E9, 0.0, 2023-09-21 18:05:15.725
230.0, 29794.718896713126, 21115.022434594925, -58398.44744186967, -35297.22664323171, -30204.91811095692, -33474.73245557934, -187500.02235174447, -48989.391206430344, -27745.309799350478, -28254.281372342277, -59666.39484958588, -69172.81528387252, -30380.424008419992, -73843.01112210883, -50706.07223583129, -25225.821164348265, -0.008, 1.006, 0.108, 192.0, 0.0, 0.0, 0.0, 0.0, 0.0, 0.0, 0.0, 0.0, 0.0, 1.695337515725508E9, 0.0, 2023-09-21 18:05:15.725
232.0, 29873.687609873727, 21107.534600202394, -58417.781700823514, -35324.83104763401, -30189.137779371475, -33505.26493850529, -187500.02235174447, -49018.91786085581, -27768.376799628357, -28262.64092476856, -59693.30634991007, -69196.23991206169, -30406.754363388347, -73868.67092474354, -50709.00031435494, -25236.66176040909, -0.004, 1.01, 0.106, 192.0, 127.5, 112.0, 15.5, 72.0, 1.5, 40.0, 0.0, 0.0, 0.0, 1.695337515725512E9, 0.0, 2023-09-21 18:05:15.725
234.0, 29803.27961483951, 21131.540373747393, -58377.21328463713, -35275.74661681016, -30201.49829405526, -33450.32435063414, -187500.02235174447, -48965.07250846297, -27754.16109015478, -28262.283296857277, -59674.70969852325, -69181.51011246564, -30393.455075437436, -73802.8226855782, -50713.31420103481, -25217.863943322176, -0.004, 1.01, 0.106, 192.0, 0.0, 0.0, 0.0, 0.0, 0.0, 0.0, 0.0, 0.0, 0.0, 1.695337515725516E9, 0.0, 2023-09-21 18:05:15.725
236.0, 29858.041388755013, 21126.444176011584, -58389.37263362082, -35303.61924214593, -30165.48963373776, -33483.91902255047, -187500.02235174447, -48993.79450008804, -27736.01147365707, -28228.39805226303, -59653.45318954626, -69158.26429823211, -30420.232465294896, -73893.6378233001, -50709.96143936652, -25267.931850902063, -0.004, 1.01, 0.106, 192.0, 0.0, 0.0, 0.0, 0.0, 0.0, 0.0, 0.0, 0.0, 0.0, 1.69533751572552E9, 0.0, 2023-09-21 18:05:15.725
238.0, 29818.076469668922, 21125.483051000007, -58394.80410752346, -35292.08574200699, -30211.1318959155, -33462.617810084565, -187500.02235174447, -48980.249342948126, -27767.013343216582, -28259.042293911254, -59685.57264632853, -69191.74721142616, -30365.515394868304, -73797.90530179803, -50693.4658519585, -25216.99222528842, -0.004, 1.01, 0.106, 192.0, 0.0, 0.0, 0.0, 0.0, 0.0, 0.0, 0.0, 0.0, 0.0, 1.695337515725523E9, 0.0, 2023-09-21 18:05:15.725
240.0, 29844.026844981534, 21139.542298262393, -58377.21328463713, -35286.52015763762, -30164.863784893012, -33463.444824629405, -187500.02235174447, -48979.84701154793, -27736.950246924192, -28230.610874964106, -59656.47067504772, -69160.70063837775, -30425.753346175356, -73892.05084944378, -50721.338477294266, -25274.816188194298, -0.004, 1.01, 0.106, 192.0, 0.0, 0.0, 0.0, 0.0, 0.0, 0.0, 0.0, 0.0, 0.0, 1.695337515785661E9, 0.0, 2023-09-21 18:05:15.785
242.0, 29833.65563555427, 21129.059330112857, -58390.82549701042, -35290.14114023938, -30207.041526680176, -33468.38456015403, -187500.02235174447, -48984.585581372456, -27756.351561111398, -28240.803270435725, -59673.86033223395, -69175.69865890726, -30351.29968539473, -73801.01219427731, -50681.21709599699, -25226.894048082122, -0.008, 1.012, 0.10200000000000001, 192.0, 127.5, 96.0, 15.5, 80.0, 1.5, 24.0, 0.0, 0.0, 0.0, 1.695337515785675E9, 0.0, 2023-09-21 18:05:15.785
244.0, 29837.81306002296, 21132.970885392533, -58381.10248817236, -35286.78837857108, -30170.518776240206, -33467.62460084255, -187500.02235174447, -48981.67985459326, -27749.333113352433, -28237.092880856144, -59664.98668968519, -69167.1826442698, -30432.727090445413, -73879.69033476, -50720.04207611586, -25274.257394582917, -0.008, 1.012, 0.10200000000000001, 192.0, 0.0, 0.0, 0.0, 0.0, 0.0, 0.0, 0.0, 0.0, 0.0, 1.695337515785679E9, 0.0, 2023-09-21 18:05:15.785
246.0, 29840.80819377997, 21135.85426042727, -58378.68849977118, -35274.0255324871, -30193.138741628976, -33453.163022179964, -187500.02235174447, -48964.021976473574, -27760.196061157712, -28241.227953580375, -59677.79423925808, -69181.10778106544, -30348.058682448707, -73795.49131339685, -50681.53002041936, -25228.23515274944, -0.008, 1.012, 0.10200000000000001, 192.0, 0.0, 0.0, 0.0, 0.0, 0.0, 0.0, 0.0, 0.0, 0.0, 1.695337515785683E9, 0.0, 2023-09-21 18:05:15.785
