%OpenBCI Raw EXG Data
%Number of channels = 16
%Sample Rate = 125 Hz
%Board = OpenBCI_GUI$BoardCytonSerialDaisy
Sample Index, EXG Channel 0, EXG Channel 1, EXG Channel 2, EXG Channel 3, EXG Channel 4, EXG Channel 5, EXG Channel 6, EXG Channel 7, EXG Channel 8, EXG Channel 9, EXG Channel 10, EXG Channel 11, EXG Channel 12, EXG Channel 13, EXG Channel 14, EXG Channel 15, Accel Channel 0, Accel Channel 1, Accel Channel 2, Other, Other, Other, Other, Other, Other, Other, Analog Channel 0, Analog Channel 1, Analog Channel 2, Timestamp, Other, Timestamp (Formatted)
0.0, 7681.780479166566, 16839.223127272504, 22218.34924439779, 17255.211443330223, 26687.334679047428, -6837.957422489813, -187500.02235174447, 20843.13581504057, 0.0, 0.0, 0.0, 0.0, 0.0, 0.0, 0.0, 0.0, 0.0, 0.0, 0.0, 192.0, 0.0, 0.0, 0.0, 0.0, 0.0, 0.0, 0.0, 0.0, 0.0, 1.6959287131147337E9, 0.0, 2023-09-28 14:18:33.114
224.0, 7547.222977545617, 16864.659412462643, 22223.57955260033, 17286.772106501117, 26734.206287170207, -6799.847698193515, -187500.02235174447, 20867.253347307844, 11160.270710023728, -32334.368805214028, -187500.02235174447, 47382.680759749506, 23449.952715629664, -5727.5451096946135, 54307.184136770265, 43189.35938946717, 0.036000000000000004, 0.497, 0.11900000000000001, 192.0, 1.0, 32.0, 15.5, 8.0, 3.5, 56.0, 0.0, 0.0, 0.0, 1.6959287131147516E9, 0.0, 2023-09-28 14:18:33.114
226.0, 7661.306281245504, 16848.968487855018, 22221.5455438549, 17244.370847269398, 26677.9469463762, -6854.16243721991, -187500.02235174447, 20830.79765210124, 11178.710899199355, -32324.48933416478, -187500.02235174447, 47378.29981783627, 23458.44637852268, -5725.6675631603675, 54248.30964187499, 43139.15737142055, 0.036000000000000004, 0.497, 0.11900000000000001, 192.0, 0.0, 0.0, 0.0, 0.0, 0.0, 0.0, 0.0, 0.0, 0.0, 1.695928713114764E9, 0.0, 2023-09-28 14:18:33.114
228.0, 7587.076137909429, 16889.022813918928, 22210.05674720487, 17282.927606454803, 26721.734013764148, -6802.127576127956, -187500.02235174447, 20872.03662062128, 11161.053021079662, -32327.64093013298, -187500.02235174447, 47391.59910578717, 23437.480442223605, -5747.0358308596415, 54308.12291003739, 43191.5945639127, 0.036000000000000004, 0.497, 0.11900000000000001, 192.0, 0.0, 0.0, 0.0, 0.0, 0.0, 0.0, 0.0, 0.0, 0.0, 1.695928713114776E9, 0.0, 2023-09-28 14:18:33.114
230.0, 7626.661077339778, 16882.09377313778, 22225.166526456658, 17253.535062496074, 26691.916786660768, -6844.30531791512, -187500.02235174447, 20835.089187036658, 11181.147239344984, -32295.186197183873, -187500.02235174447, 47376.735195724395, 23458.31226805595, -5718.045618301108, 54213.1950513357, 43123.46644681293, 0.036000000000000004, 0.497, 0.11900000000000001, 192.0, 0.0, 0.0, 0.0, 0.0, 0.0, 0.0, 0.0, 0.0, 0.0, 1.6959287131147873E9, 0.0, 2023-09-28 14:18:33.114
232.0, 7631.712571586678, 16897.91880821214, 22199.14909591068, 17262.162835855823, 26713.57562703796, -6817.4608728242965, -187500.02235174447, 20857.396228003054, 11157.029707077707, -32330.92663656791, -187500.02235174447, 47391.75556799836, 23431.06549156493, -5752.154380339906, 54321.06457007701, 43208.447779232, 0.036000000000000004, 0.497, 0.11900000000000001, 192.0, 0.0, 0.0, 0.0, 0.0, 0.0, 0.0, 0.0, 0.0, 0.0, 1.6959287131148007E9, 0.0, 2023-09-28 14:18:33.114
234.0, 7599.07902468193, 16893.068479665337, 22225.993541001506, 17252.70804795123, 26690.53097850454, -6844.931166759869, -187500.02235174447, 20842.59937317364, 11193.440698795403, -32282.57981331108, -187500.02235174447, 47372.108384622145, 23469.666954239245, -5713.329400221039, 54193.167888303746, 43113.452865296946, 0.054000000000000006, 0.7475, 0.1795, 192.0, 1.0, 32.0, 15.5, 24.0, 3.5, 64.0, 0.0, 0.0, 0.0, 1.695928713114812E9, 0.0, 2023-09-28 14:18:33.114
236.0, 7669.330557504959, 16920.87404976774, 22195.326947608824, 17260.93348991078, 26714.112068904888, -6821.573593804073, -187500.02235174447, 20859.005553603834, 11158.616680934034, -32307.144380467464, -187500.02235174447, 47406.08303619421, 23431.73604389859, -5754.143685596429, 54324.70790442323, 43217.88021539214, 0.054000000000000006, 0.7475, 0.1795, 192.0, 0.0, 0.0, 0.0, 0.0, 0.0, 0.0, 0.0, 0.0, 0.0, 1.6959287131148229E9, 0.0, 2023-09-28 14:18:33.114
238.0, 7565.596111487879, 16929.63593359422, 22239.4492911636, 17271.952899927248, 26715.18495263874, -6821.059503681601, -187500.02235174447, 20872.662469466028, 11199.02863490923, -32252.7625862077, -187500.02235174447, 47384.982989428405, 23476.953622931676, -5709.015513541164, 54186.90939985626, 43109.92128967301, 0.054000000000000006, 0.7475, 0.1795, 192.0, 0.0, 0.0, 0.0, 0.0, 0.0, 0.0, 0.0, 0.0, 0.0, 1.6959287131148338E9, 0.0, 2023-09-28 14:18:33.114
240.0, 7697.851383429931, 16962.113018287782, 22217.38811938621, 17275.50682729564, 26725.48910683264, -6806.44146280783, -187500.02235174447, 20873.534187499787, 11179.180285832917, -32282.736275522268, -187500.02235174447, 47435.07324875275, 23443.962448115642, -5738.273947033161, 54335.7273144397, 43227.49146550793, 0.054000000000000006, 0.7475, 0.1795, 192.0, 0.0, 0.0, 0.0, 0.0, 0.0, 0.0, 0.0, 0.0, 0.0, 1.6959287131148453E9, 0.0, 2023-09-28 14:18:33.114
242.0, 7528.760436625534, 16980.709669674598, 22267.92541359966, 17311.359025401955, 26726.8078597555, -6791.510497511685, -187500.02235174447, 20883.391306804577, 11233.942059748419, -32205.46629494027, -187500.02235174447, 47418.465902622454, 23499.305367386984, -5669.765850277645, 54193.72668191513, 43123.42174332401, 0.054000000000000006, 0.7475, 0.1795, 192.0, 0.0, 0.0, 0.0, 0.0, 0.0, 0.0, 0.0, 0.0, 0.0, 1.6959287131148567E9, 0.0, 2023-09-28 14:18:33.114
244.0, 7739.716200794721, 16990.432678512654, 22215.01883447395, 17284.626339033406, 26688.206397081187, -6814.041055922635, -187500.02235174447, 20848.232012776378, 11207.499946057791, -32229.09208882953, -187500.02235174447, 47482.68246444255, 23452.322000541928, -5702.55585939358, 54352.31230882553, 43245.5069715389, 0.062000000000000006, 0.87375, 0.20775, 192.0, 1.0, 24.0, 15.5, 32.0, 3.5, 48.0, 0.0, 0.0, 0.0, 1.6959287131148777E9, 0.0, 2023-09-28 14:18:33.114
246.0, 7547.82647464591, 16986.901102888718, 22247.07123602286, 17301.501906097164, 26702.355051321396, -6801.30056158311, -187500.02235174447, 20871.14255084307, 11219.033446196729, -32192.167006989363, -187500.02235174447, 47430.71465858396, 23471.320983328937, -5665.519018831136, 54219.67705722774, 43141.16902842153, 0.062000000000000006, 0.87375, 0.20775, 192.0, 0.0, 0.0, 0.0, 0.0, 0.0, 0.0, 0.0, 0.0, 0.0, 1.6959287131149E9, 0.0, 2023-09-28 14:18:33.114
248.0, 7775.858971578953, 16982.520160975477, 22214.281226906925, 17270.880016193394, 26698.801123953002, -6818.891384469436, -187500.02235174447, 20851.763588400318, 11192.25605633927, -32229.270902785174, -187500.02235174447, 47469.561990447284, 23438.933305613198, -5711.138929264418, 54349.29482332407, 43243.338852326735, 0.062000000000000006, 0.87375, 0.20775, 192.0, 0.0, 0.0, 0.0, 0.0, 0.0, 0.0, 0.0, 0.0, 0.0, 1.695928713114912E9, 0.0, 2023-09-28 14:18:33.114
250.0, 7543.981974599597, 16965.756352633995, 22230.508593381477, 17276.914987196327, 26708.658243257792, -6824.680486283361, -187500.02235174447, 20856.45745473593, 11205.063605912163, -32210.160161275886, -187500.02235174447, 47411.06747520775, 23469.666954239245, -5694.419824411849, 54216.860737426374, 43135.894016730075, 0.062000000000000006, 0.87375, 0.20775, 192.0, 0.0, 0.0, 0.0, 0.0, 0.0, 0.0, 0.0, 0.0, 0.0, 1.695928713114925E9, 0.0, 2023-09-28 14:18:33.114
252.0, 7785.425518205824, 16980.55320746341, 22209.319139637846, 17260.598213743953, 26702.71267923268, -6839.387934134953, -187500.02235174447, 20840.74417838385, 11182.644806223489, -32245.52062100418, -187500.02235174447, 47450.63006289364, 23439.335637013395, -5727.500406205703, 54323.09857882245, 43216.38264851364, 0.062000000000000006, 0.87375, 0.20775, 192.0, 0.0, 0.0, 0.0, 0.0, 0.0, 0.0, 0.0, 0.0, 0.0, 1.6959287131149473E9, 0.0, 2023-09-28 14:18:33.114
254.0, 7515.774073097, 16990.99147212404, 22241.371541186756, 17297.210371161746, 26740.509479106604, -6805.860317451992, -187500.02235174447, 20875.74701020086, 11207.589353035612, -32200.07952452654, -187500.02235174447, 47420.41050439006, 23472.371515318337, -5700.343036692505, 54210.2446210676, 43126.05924916974, 0.067, 0.936875, 0.21687499999999998, 192.0, 1.0, 32.0, 15.5, 32.0, 3.5, 8.0, 0.0, 0.0, 0.0, 1.6959287131149638E9, 0.0, 2023-09-28 14:18:33.114
0.0, 7782.430384448813, 16991.326748290867, 22217.119898452747, 17259.88295792138, 26698.89053093082, -6843.388896392453, -187500.02235174447, 20841.414730717508, 11202.604914022078, -32217.55858869059, -187500.02235174447, 47465.31515900078, 23455.987686632598, -5713.977600810243, 54315.14135779636, 43199.238860516416, 0.067, 0.936875, 0.21687499999999998, 192.0, 0.0, 0.0, 0.0, 0.0, 0.0, 0.0, 0.0, 0.0, 0.0, 1.6959287131149757E9, 0.0, 2023-09-28 14:18:33.114
2.0, 7519.864442332321, 16994.187771581146, 22229.77098581445, 17292.94118797078, 26730.13826967934, -6814.152814644911, -187500.02235174447, 20863.185329816977, 11202.537858788713, -32198.805475092588, -187500.02235174447, 47427.071324237746, 23463.87785242532, -5698.711359347268, 54238.40781908129, 43142.890112744586, 0.067, 0.936875, 0.21687499999999998, 192.0, 0.0, 0.0, 0.0, 0.0, 0.0, 0.0, 0.0, 0.0, 0.0, 1.6959287131149888E9, 0.0, 2023-09-28 14:18:33.114
4.0, 7778.6529396358665, 16987.50459998901, 22209.699119293586, 17254.093856107458, 26686.95469939169, -6859.593911122551, -187500.02235174447, 20821.856954319115, 11201.420271565947, -32211.99300432122, -187500.02235174447, 47463.415260722075, 23449.662142951747, -5717.755045623189, 54295.874154075886, 43194.52264243634, 0.067, 0.936875, 0.21687499999999998, 192.0, 0.0, 0.0, 0.0, 0.0, 0.0, 0.0, 0.0, 0.0, 0.0, 1.6959287131150002E9, 0.0, 2023-09-28 14:18:33.115
6.0, 7529.140416281273, 17008.626998499276, 22224.473622378544, 17297.724461284215, 26730.115917934887, -6805.882669196448, -187500.02235174447, 20869.957908386936, 11199.162745375961, -32196.078562269042, -187500.02235174447, 47441.06351626677, 23455.473596510124, -5707.1826704958285, 54253.76346752208, 43159.095127474684, 0.067, 0.936875, 0.21687499999999998, 192.0, 0.0, 0.0, 0.0, 0.0, 0.0, 0.0, 0.0, 0.0, 0.0, 1.6959287131150115E9, 0.0, 2023-09-28 14:18:33.115
8.0, 7768.237026719693, 16980.575559207864, 22201.227808145024, 17241.196899556744, 26668.08982707141, -6870.658024627927, -187500.02235174447, 20808.132983223557, 11208.84105072511, -32202.94054781682, -187500.02235174447, 47472.87004862667, 23453.39488427578, -5709.03786528562, 54276.137563721844, 43184.196136497994, 0.0655, 0.9694375, 0.2244375, 192.0, 1.0, 0.0, 15.5, 40.0, 3.5, 32.0, 0.0, 0.0, 0.0, 1.695928713115023E9, 0.0, 2023-09-28 14:18:33.115
10.0, 7550.888663636287, 17002.07793737387, 22214.48239260702, 17291.197751903266, 26730.63000805736, -6810.956515187802, -187500.02235174447, 20864.839358906673, 11191.674910983433, -32212.641204910426, -187500.02235174447, 47436.48140865343, 23443.91774462673, -5719.5655369240685, 54258.85966525789, 43177.95999979496, 0.0655, 0.9694375, 0.2244375, 192.0, 0.0, 0.0, 0.0, 0.0, 0.0, 0.0, 0.0, 0.0, 0.0, 1.6959287131150339E9, 0.0, 2023-09-28 14:18:33.115
12.0, 7724.025276187096, 16995.484172759556, 22225.993541001506, 17266.99081265817, 26694.129609361844, -6847.367506905497, -187500.02235174447, 20841.012399317315, 11220.84393749761, -32197.352611702994, -187500.02235174447, 47465.06928981177, 23467.007096649064, -5696.498536646192, 54244.66630752877, 43170.62862761362, 0.0655, 0.9694375, 0.2244375, 192.0, 0.0, 0.0, 0.0, 0.0, 0.0, 0.0, 0.0, 0.0, 0.0, 1.6959287131150453E9, 0.0, 2023-09-28 14:18:33.115
14.0, 7582.091698895896, 16982.810733653394, 22190.87895046222, 17269.047173148057, 26708.658243257792, -6833.73294278776, -187500.02235174447, 20849.148434299044, 11193.150126117484, -32218.631472424448, -187500.02235174447, 47451.39002220512, 23447.382265017306, -5712.927068820843, 54290.04034877305, 43204.759741396876, 0.0655, 0.9694375, 0.2244375, 192.0, 0.0, 0.0, 0.0, 0.0, 0.0, 0.0, 0.0, 0.0, 0.0, 1.6959287131150584E9, 0.0, 2023-09-28 14:18:33.115
16.0, 7716.000999927641, 16969.01970732447, 22203.61944480174, 17242.31448677951, 26676.31526903096, -6872.937902562368, -187500.02235174447, 20816.134907738557, 11200.25798085427, -32217.290367757127, -187500.02235174447, 47438.69423135451, 23448.052817350963, -5714.715208377267, 54229.668286999266, 43161.330301920214, 0.0655, 0.9694375, 0.2244375, 192.0, 0.0, 0.0, 0.0, 0.0, 0.0, 0.0, 0.0, 0.0, 0.0, 1.69592871311507E9, 0.0, 2023-09-28 14:18:33.115
18.0, 7619.709684814177, 16979.390916751734, 22192.82355222983, 17265.828521946492, 26713.866199715878, -6831.6095270645055, -187500.02235174447, 20847.874384865092, 11180.320224800138, -32236.848144155523, -187500.02235174447, 47444.37157444615, 23432.138375298786, -5732.551900452602, 54293.147241252336, 43211.5993752002, 0.06575, 0.98471875, 0.22821875000000003, 192.0, 1.0, 8.0, 15.5, 32.0, 3.5, 32.0, 0.0, 0.0, 0.0, 1.6959287131150815E9, 0.0, 2023-09-28 14:18:33.115
20.0, 7687.860153658409, 16967.11980904577, 22208.626235559732, 17245.46608274771, 26680.942080133213, -6866.902931559436, -187500.02235174447, 20816.179611227468, 11206.494117557302, -32215.479876456247, -187500.02235174447, 47433.083943496225, 23456.233555821607, -5708.36731295196, 54207.62946696633, 43146.62285406862, 0.06575, 0.98471875, 0.22821875000000003, 192.0, 0.0, 0.0, 0.0, 0.0, 0.0, 0.0, 0.0, 0.0, 0.0, 1.6959287131150937E9, 0.0, 2023-09-28 14:18:33.115
22.0, 7627.9127750292755, 16999.015748383492, 22206.34635762529, 17286.19096114528, 26736.977903482664, -6808.453119808808, -187500.02235174447, 20878.09394336867, 11186.31049231416, -32237.608103467002, -187500.02235174447, 47448.327833214746, 23441.07907308091, -5734.451798731304, 54306.625343158885, 43214.37099151266, 0.06575, 0.98471875, 0.22821875000000003, 192.0, 0.0, 0.0, 0.0, 0.0, 0.0, 0.0, 0.0, 0.0, 0.0, 1.695928713115105E9, 0.0, 2023-09-28 14:18:33.115
24.0, 7626.437559895225, 16979.88265512975, 22229.12278522525, 17267.929585925292, 26703.0032519106, -6849.2227016952875, -187500.02235174447, 20838.106672538124, 11228.823510268154, -32193.12813200094, -187500.02235174447, 47441.77877208934, 23483.45798056817, -5689.167164464851, 54192.609094692365, 43128.74145850437, 0.06575, 0.98471875, 0.22821875000000003, 192.0, 0.0, 0.0, 0.0, 0.0, 0.0, 0.0, 0.0, 0.0, 0.0, 1.695928713115116E9, 0.0, 2023-09-28 14:18:33.115
26.0, 7676.013729097096, 16983.727155176064, 22185.000441670472, 17266.923757424804, 26722.33751086444, -6832.2577276537095, -187500.02235174447, 20851.60712618913, 11187.78570744821, -32238.43511801185, -187500.02235174447, 47460.71069964299, 23438.441567235182, -5724.460568959781, 54312.81677637301, 43239.38259355815, 0.06575, 0.98471875, 0.22821875000000003, 192.0, 0.0, 0.0, 0.0, 0.0, 0.0, 0.0, 0.0, 0.0, 0.0, 1.695928713115127E9, 0.0, 2023-09-28 14:18:33.115
28.0, 7598.184954903717, 16982.006070853004, 22226.3958724017, 17273.80809471704, 26725.980845210655, -6843.791227792648, -187500.02235174447, 20851.718884911406, 11220.039274697217, -32193.284594212128, -187500.02235174447, 47429.77588531684, 23476.12660838683, -5693.7939755671, 54184.29424575499, 43139.69381328748, 0.064875, 0.993359375, 0.227109375, 192.0, 1.0, 0.0, 15.5, 40.0, 3.5, 8.0, 0.0, 0.0, 0.0, 1.69592871311514E9, 0.0, 2023-09-28 14:18:33.115
30.0, 7708.021427157096, 16988.13044883376, 22188.710831250053, 17263.1239608674, 26721.24227538613, -6836.63866956695, -187500.02235174447, 20845.996838330848, 11186.578713247623, -32238.32335928957, -187500.02235174447, 47467.37151949066, 23438.866250379833, -5742.520778479669, 54345.40561978884, 43246.64691050612, 0.064875, 0.993359375, 0.227109375, 192.0, 0.0, 0.0, 0.0, 0.0, 0.0, 0.0, 0.0, 0.0, 0.0, 1.6959287131151528E9, 0.0, 2023-09-28 14:18:33.115
32.0, 7596.709739769667, 16970.49492245852, 22221.076157221338, 17259.70414396574, 26704.970205422665, -6854.520065131196, -187500.02235174447, 20838.39724521604, 11214.116062416562, -32196.83852158052, -187500.02235174447, 47418.97999274493, 23470.382210061816, -5701.550030893091, 54206.46717625466, 43138.553874320256, 0.064875, 0.993359375, 0.227109375, 192.0, 0.0, 0.0, 0.0, 0.0, 0.0, 0.0, 0.0, 0.0, 0.0, 1.695928713115164E9, 0.0, 2023-09-28 14:18:33.115
34.0, 7765.755983085154, 16985.44823949912, 22185.447476559577, 17257.4242660313, 26712.27922585955, -6847.702783072327, -187500.02235174447, 20828.294256722245, 11176.54277998719, -32240.022091868177, -187500.02235174447, 47459.14607753111, 23423.5776571724, -5745.560615725591, 54353.31813732602, 43252.301901853316, 0.064875, 0.993359375, 0.227109375, 192.0, 0.0, 0.0, 0.0, 0.0, 0.0, 0.0, 0.0, 0.0, 0.0, 1.6959287131151752E9, 0.0, 2023-09-28 14:18:33.115
36.0, 7582.426975062725, 16982.274291786467, 22227.401700902188, 17275.573882529006, 26716.99544393962, -6839.2985271571315, -187500.02235174447, 20850.847166877647, 11211.009169937273, -32193.306945956585, -187500.02235174447, 47419.13645495611, 23468.281146083016, -5703.964019294264, 54203.53909773101, 43133.2788626288, 0.064875, 0.993359375, 0.227109375, 192.0, 0.0, 0.0, 0.0, 0.0, 0.0, 0.0, 0.0, 0.0, 0.0, 1.6959287131151862E9, 0.0, 2023-09-28 14:18:33.115
38.0, 7794.3215124990365, 16987.191675566635, 22195.550465053377, 17254.36207704092, 26702.891493188323, -6853.894216286447, -187500.02235174447, 20821.901657808026, 11190.40086154948, -32228.779164407155, -187500.02235174447, 47466.58920843473, 23435.088805566884, -5738.005726099697, 54337.94013714077, 43238.04148889083, 0.06543750000000001, 0.9976796875, 0.22855468750000002, 192.0, 1.0, 8.0, 15.5, 40.0, 3.5, 24.0, 0.0, 0.0, 0.0, 1.6959287131151972E9, 0.0, 2023-09-28 14:18:33.115
40.0, 7559.359974784848, 16999.820411183886, 22235.67184635065, 17290.41544084733, 26737.78256628306, -6829.039076452145, -187500.02235174447, 20860.950155371447, 11212.372626349048, -32193.016373278664, -187500.02235174447, 47415.22489967643, 23464.906032670264, -5712.882365331932, 54194.95602786017, 43128.272071870815, 0.06543750000000001, 0.9976796875, 0.22855468750000002, 192.0, 0.0, 0.0, 0.0, 0.0, 0.0, 0.0, 0.0, 0.0, 0.0, 1.6959287131152098E9, 0.0, 2023-09-28 14:18:33.115
42.0, 7803.843355636997, 17003.84372518584, 22201.674843034132, 17266.36496381342, 26711.608673525894, -6845.5793673490725, -187500.02235174447, 20834.55274516973, 11209.064568169662, -32209.98134732024, -187500.02235174447, 47477.38510100664, 23449.43862550719, -5724.684086404334, 54323.210337544726, 43229.65958472009, 0.06543750000000001, 0.9976796875, 0.22855468750000002, 192.0, 0.0, 0.0, 0.0, 0.0, 0.0, 0.0, 0.0, 0.0, 0.0, 1.6959287131152208E9, 0.0, 2023-09-28 14:18:33.115
44.0, 7550.084000835896, 17001.94382690714, 22229.659227092176, 17291.08599318099, 26739.302484906017, -6818.44434958033, -187500.02235174447, 20870.09201885367, 11222.721484031856, -32177.861890537966, -187500.02235174447, 47431.184045217524, 23476.439532809203, -5690.105937731974, 54202.957952375175, 43139.40324060956, 0.06543750000000001, 0.9976796875, 0.22855468750000002, 192.0, 0.0, 0.0, 0.0, 0.0, 0.0, 0.0, 0.0, 0.0, 0.0, 1.6959287131152318E9, 0.0, 2023-09-28 14:18:33.115
46.0, 7805.229163793227, 17004.491925775044, 22214.72826179603, 17269.94124292627, 26723.879781231855, -6840.997259735735, -187500.02235174447, 20836.206774259423, 11207.969332691353, -32204.37105946196, -187500.02235174447, 47469.696100914014, 23450.153881329763, -5716.011609555675, 54304.72544488018, 43218.05902934779, 0.06543750000000001, 0.9976796875, 0.22855468750000002, 192.0, 0.0, 0.0, 0.0, 0.0, 0.0, 0.0, 0.0, 0.0, 0.0, 1.695928713115243E9, 0.0, 2023-09-28 14:18:33.115
48.0, 7554.867274149332, 16991.617320968788, 22219.19861068709, 17285.52040881162, 26737.24612441613, -6825.39574210593, -187500.02235174447, 20869.689687453472, 11222.02857995374, -32179.962954516766, -187500.02235174447, 47425.26083293687, 23471.812721706956, -5702.377045437938, 54214.424397280745, 43146.55579883526, 0.06871875000000001, 0.99583984375, 0.23127734375000003, 192.0, 1.0, 32.0, 15.5, 8.0, 3.5, 40.0, 0.0, 0.0, 0.0, 1.695928713115254E9, 0.0, 2023-09-28 14:18:33.115
50.0, 7810.034788851117, 16987.83987615584, 22205.63110180272, 17258.452446276242, 26715.09554566092, -6854.2071407088215, -187500.02235174447, 20834.955076569924, 11205.778861734732, -32209.243739753216, -187500.02235174447, 47455.659205396085, 23447.20345106166, -5727.232185272239, 54284.541819637045, 43210.10180832169, 0.06871875000000001, 0.99583984375, 0.23127734375000003, 192.0, 0.0, 0.0, 0.0, 0.0, 0.0, 0.0, 0.0, 0.0, 0.0, 1.6959287131152651E9, 0.0, 2023-09-28 14:18:33.115
52.0, 7556.767172428033, 16991.50556224651, 22223.19957294459, 17291.04128969208, 26751.797110056534, -6820.008971692201, -187500.02235174447, 20864.88406239558, 11218.474652585346, -32182.42164640685, -187500.02235174447, 47431.98870801791, 23471.5892042624, -5703.718150105256, 54221.688714228716, 43163.81134555475, 0.06871875000000001, 0.99583984375, 0.23127734375000003, 192.0, 0.0, 0.0, 0.0, 0.0, 0.0, 0.0, 0.0, 0.0, 0.0, 1.695928713115276E9, 0.0, 2023-09-28 14:18:33.115
54.0, 7805.631495193422, 16981.581387708353, 22206.54752332539, 17249.891728149858, 26711.943949692723, -6867.305262959631, -187500.02235174447, 20826.617875888096, 11211.098576915096, -32208.237911252727, -187500.02235174447, 47455.18981876252, 23453.64075346479, -5725.600507927002, 54269.63320608535, 43198.83652911622, 0.06871875000000001, 0.99583984375, 0.23127734375000003, 192.0, 0.0, 0.0, 0.0, 0.0, 0.0, 0.0, 0.0, 0.0, 0.0, 1.6959287131152887E9, 0.0, 2023-09-28 14:18:33.115
56.0, 7573.329815069415, 16998.23343732756, 22216.91873275265, 17288.359080357444, 26749.181955955264, -6821.573593804073, -187500.02235174447, 20868.437989763974, 11205.398882078993, -32202.962899561277, -187500.02235174447, 47423.651507336086, 23452.903145897766, -5719.878461346443, 54245.71683951817, 43178.40703468407, 0.06871875000000001, 0.99583984375, 0.23127734375000003, 192.0, 0.0, 0.0, 0.0, 0.0, 0.0, 0.0, 0.0, 0.0, 0.0, 1.6959287131153004E9, 0.0, 2023-09-28 14:18:33.115
58.0, 7790.588771175, 16975.79228589443, 22200.669014533643, 17242.113321079414, 26693.660222728282, -6872.222646739799, -187500.02235174447, 20816.64899786103, 11212.17146064895, -32203.65580363939, -187500.02235174447, 47439.90122555509, 23450.220936563128, -5719.3867229684265, 54252.22119715467, 43178.09411026169, 0.071359375, 0.992919921875, 0.23163867187500004, 192.0, 1.0, 40.0, 15.0, 120.0, 3.5, 32.0, 0.0, 0.0, 0.0, 1.6959287131153116E9, 0.0, 2023-09-28 14:18:33.115
60.0, 7584.639797763801, 17014.50550729102, 22210.928465238627, 17291.063641436536, 26756.401569414327, -6806.754387230205, -187500.02235174447, 20879.03271663579, 11199.810945965166, -32206.71799262977, -187500.02235174447, 47427.540710871304, 23445.482366738604, -5722.89594684791, 54257.83148501295, 43183.34677020869, 0.071359375, 0.992919921875, 0.23163867187500004, 192.0, 0.0, 0.0, 0.0, 0.0, 0.0, 0.0, 0.0, 0.0, 0.0, 1.6959287131153226E9, 0.0, 2023-09-28 14:18:33.115
62.0, 7730.14965416785, 17001.675605973676, 22219.466831620557, 17262.207539344734, 26721.555199808503, -6849.02153599519, -187500.02235174447, 20847.40499823153, 11232.310382403182, -32179.046532994096, -187500.02235174447, 47450.33949021572, 23472.975012418632, -5688.36250166446, 54223.96859216316, 43165.93476127801, 0.071359375, 0.992919921875, 0.23163867187500004, 192.0, 0.0, 0.0, 0.0, 0.0, 0.0, 0.0, 0.0, 0.0, 0.0, 1.6959287131153352E9, 0.0, 2023-09-28 14:18:33.115
64.0, 7606.656266052279, 16990.74560293503, 22184.933386437107, 17264.12978936789, 26741.53765935155, -6832.615355564994, -187500.02235174447, 20857.597393703152, 11201.174402376939, -32208.237911252727, -187500.02235174447, 47437.062554009266, 23445.437663249693, -5721.532490436136, 54272.78480205355, 43217.5002357364, 0.071359375, 0.992919921875, 0.23163867187500004, 192.0, 0.0, 0.0, 0.0, 0.0, 0.0, 0.0, 0.0, 0.0, 0.0, 1.6959287131153471E9, 0.0, 2023-09-28 14:18:33.115
66.0, 7712.223555114693, 16977.960405106594, 22199.931406966618, 17243.119149579903, 26705.86427520088, -6877.296492731153, -187500.02235174447, 20825.813213087706, 11217.491175829313, -32195.56447214657, -187500.02235174447, 47422.89154802461, 23461.93325065771, -5716.190423511318, 54199.8957633848, 43161.71028157596, 0.071359375, 0.992919921875, 0.23163867187500004, 192.0, 0.0, 0.0, 0.0, 0.0, 0.0, 0.0, 0.0, 0.0, 0.0, 1.69592871311536E9, 0.0, 2023-09-28 14:18:33.115
68.0, 7662.155647534806, 16981.69314643063, 22168.460150773546, 17255.032629374582, 26730.272380146074, -6853.961271519813, -187500.02235174447, 20836.78791961526, 11181.281349811716, -32226.991024850733, -187500.02235174447, 47429.68647833902, 23422.750642627558, -5752.646118717924, 54282.440755658245, 43224.13870383963, 0.0726796875, 0.9914599609375, 0.23081933593750004, 192.0, 1.0, 40.0, 15.0, 120.0, 3.5, 24.0, 0.0, 0.0, 0.0, 1.6959287131153715E9, 0.0, 2023-09-28 14:18:33.115
70.0, 7684.1497640788275, 16980.08382082985, 22213.565971084354, 17253.84798691845, 26718.24714162912, -6874.860152585525, -187500.02235174447, 20826.93080031047, 11209.60101003659, -32207.723821130257, -187500.02235174447, 47412.609745575166, 23453.752512187068, -5720.5043101911915, 54176.873466595825, 43143.784182522795, 0.0726796875, 0.9914599609375, 0.23081933593750004, 192.0, 0.0, 0.0, 0.0, 0.0, 0.0, 0.0, 0.0, 0.0, 0.0, 1.6959287131153824E9, 0.0, 2023-09-28 14:18:33.115
72.0, 7685.80379316852, 16989.583312223353, 22180.261871845945, 17253.289193307068, 26739.078967461464, -6854.363602920009, -187500.02235174447, 20841.101806295133, 11191.004358649774, -32231.170801063872, -187500.02235174447, 47441.91288255607, 23433.412424732738, -5744.085400591541, 54292.63315112986, 43234.3534510557, 0.0726796875, 0.9914599609375, 0.23081933593750004, 192.0, 0.0, 0.0, 0.0, 0.0, 0.0, 0.0, 0.0, 0.0, 0.0, 1.6959287131154704E9, 0.0, 2023-09-28 14:18:33.115
74.0, 7650.577443906956, 16984.21889355408, 22205.787564013906, 17244.03557110257, 26716.99544393962, -6875.284835730176, -187500.02235174447, 20831.490556179353, 11214.630152539034, -32197.553777403093, -187500.02235174447, 47407.625306561626, 23462.26852682454, -5716.682161889335, 54187.02115857854, 43136.54221731928, 0.0726796875, 0.9914599609375, 0.23081933593750004, 192.0, 0.0, 0.0, 0.0, 0.0, 0.0, 0.0, 0.0, 0.0, 0.0, 1.6959287131154888E9, 0.0, 2023-09-28 14:18:33.115
76.0, 7716.38097958338, 16983.570692964877, 22171.38822929719, 17241.778044912582, 26732.082871446954, -6854.140085475456, -187500.02235174447, 20839.380721972077, 11182.6895097124, -32240.46912675728, -187500.02235174447, 47442.69519361201, 23420.336654226383, -5747.728734937756, 54321.06457007701, 43244.83641920524, 0.0726796875, 0.9914599609375, 0.23081933593750004, 192.0, 0.0, 0.0, 0.0, 0.0, 0.0, 0.0, 0.0, 0.0, 0.0, 1.695928713115511E9, 0.0, 2023-09-28 14:18:33.115
78.0, 7596.128594413829, 16987.236379055546, 22215.622331574243, 17251.903385150836, 26725.734976021646, -6858.83395181107, -187500.02235174447, 20837.011437059813, 11225.783673022232, -32190.960012788775, -187500.02235174447, 47406.19479491649, 23471.20922460666, -5695.939743034809, 54176.1358590288, 43126.68509801449, 0.07233984375000001, 0.9927299804687499, 0.22840966796875, 192.0, 1.0, 32.0, 15.5, 8.0, 3.5, 8.0, 0.0, 0.0, 0.0, 1.6959287131155348E9, 0.0, 2023-09-28 14:18:33.115
80.0, 7737.77159902711, 16996.445297771133, 22171.52233976392, 17245.08610309197, 26732.284037147052, -6854.810637809114, -187500.02235174447, 20845.147472041546, 11187.964521403852, -32235.864667399488, -187500.02235174447, 47443.96924304596, 23424.002340317053, -5753.271967562672, 54327.07718933549, 43244.72466048296, 0.07233984375000001, 0.9927299804687499, 0.22840966796875, 192.0, 0.0, 0.0, 0.0, 0.0, 0.0, 0.0, 0.0, 0.0, 0.0, 1.695928713115551E9, 0.0, 2023-09-28 14:18:33.115
82.0, 7572.882780180309, 16985.291777287934, 22211.844886761297, 17256.709010208728, 26729.71358653469, -6859.906835544924, -187500.02235174447, 20841.794710373248, 11222.095635187106, -32185.819111564055, -187500.02235174447, 47408.541728084296, 23468.527015272026, -5701.371216937449, 54189.43514697971, 43133.32356611772, 0.07233984375000001, 0.9927299804687499, 0.22840966796875, 192.0, 0.0, 0.0, 0.0, 0.0, 0.0, 0.0, 0.0, 0.0, 0.0, 1.6959287131155686E9, 0.0, 2023-09-28 14:18:33.115
84.0, 7772.573265144023, 16976.79811439492, 22164.794464682873, 17228.434053472763, 26709.060574657986, -6879.799888110148, -187500.02235174447, 20818.12421299508, 11184.45529752437, -32239.79857442362, -187500.02235174447, 47444.37157444615, 23422.97416007211, -5755.440086774836, 54335.03441036158, 43241.260140092396, 0.07233984375000001, 0.9927299804687499, 0.22840966796875, 192.0, 0.0, 0.0, 0.0, 0.0, 0.0, 0.0, 0.0, 0.0, 0.0, 1.6959287131155896E9, 0.0, 2023-09-28 14:18:33.115
86.0, 7571.83224819091, 16969.31028000239, 22199.663186033154, 17248.058885104525, 26722.404566097804, -6870.367451950008, -187500.02235174447, 20832.83166084667, 11204.214239622861, -32205.198074006807, -187500.02235174447, 47388.76043424135, 23454.534823243004, -5722.650077658901, 54193.1902400482, 43130.88722597209, 0.07233984375000001, 0.9927299804687499, 0.22840966796875, 192.0, 0.0, 0.0, 0.0, 0.0, 0.0, 0.0, 0.0, 0.0, 0.0, 1.6959287131156063E9, 0.0, 2023-09-28 14:18:33.115
88.0, 7828.340867560014, 16951.183015249135, 22150.355237764747, 17210.798527097526, 26691.670917471758, -6907.426644256908, -187500.02235174447, 20789.31281439219, 11167.40091650497, -32259.9151444334, -187500.02235174447, 47431.251100450885, 23406.63503487528, -5774.684938750856, 54335.41439001732, 43244.34468082723, 0.07216992187500001, 0.998364990234375, 0.22420483398437502, 192.0, 1.0, 32.0, 15.5, 48.0, 3.0, 112.0, 0.0, 0.0, 0.0, 1.6959287131156178E9, 0.0, 2023-09-28 14:18:33.115
0.0, 1131.042972927448, 8519.456806118109, 10939.100198638464, 8648.04639196949, 13433.554879850732, -3160.111982835768, -93750.01117587223, 10264.703364932939, 5587.176154515285, -16117.61940927737, -93750.01117587223, 23692.938529603307, 11713.74460622604, -2876.2224765089127, 27122.277274403248, 21584.61023385647, 0.062, 0.982, 0.268, 192.0, 0.5, 120.0, 15.0, 88.0, 4.0, 48.0, 0.0, 0.0, 0.0, 1.6959287137045708E9, 0.0, 2023-09-28 14:18:33.704
2.0, 2347.111981762884, 17038.243059902557, 21950.374180123115, 17289.834295491495, 26844.84742222398, -6345.190864228113, -187500.02235174447, 20506.160915632358, 11859.299166119, -31696.51707369293, -187500.02235174447, 47349.84604714466, 23023.235562233396, -5182.028434518389, 52092.26037171607, 41021.7319156804, 0.062, 0.982, 0.268, 192.0, 0.0, 0.0, 0.0, 0.0, 0.0, 0.0, 0.0, 0.0, 0.0, 1.695928713704633E9, 0.0, 2023-09-28 14:18:33.704
4.0, 2401.627886489378, 17041.461711104123, 21899.25574055383, 17289.409612346844, 26862.527652088127, -6327.980020997527, -187500.02235174447, 20514.833392481018, 11841.06014264347, -31717.12538208072, -187500.02235174447, 47393.09667266568, 23001.30850092274, -5210.750426143459, 52151.71601196719, 41128.48384719895, 0.062, 0.982, 0.268, 192.0, 0.0, 0.0, 0.0, 0.0, 0.0, 0.0, 0.0, 0.0, 0.0, 1.6959287137046535E9, 0.0, 2023-09-28 14:18:33.704
6.0, 2318.926432004742, 17027.782443497472, 21936.761967749833, 17274.344536583965, 26828.26242783814, -6355.003280043993, -187500.02235174447, 20503.411651064354, 11854.62765152784, -31702.75321039596, -187500.02235174447, 47348.99668085536, 23027.75061461337, -5184.554181641839, 52074.155458707275, 41025.397601771074, 0.062, 0.982, 0.268, 192.0, 0.0, 0.0, 0.0, 0.0, 0.0, 0.0, 0.0, 0.0, 0.0, 1.6959287137046704E9, 0.0, 2023-09-28 14:18:33.704
8.0, 2454.556817359545, 17027.782443497472, 21890.18093230497, 17270.030649904093, 26847.104948413962, -6348.007184029482, -187500.02235174447, 20495.700299227276, 11814.014531852548, -31741.13115562572, -187500.02235174447, 47381.80904171575, 22982.06364894672, -5230.241147308487, 52141.79183742903, 41133.960024590495, 0.05, 0.968, 0.28800000000000003, 192.0, 0.5, 72.0, 15.0, 32.0, 4.5, 0.0, 0.0, 0.0, 0.0, 1.6959287137046866E9, 0.0, 2023-09-28 14:18:33.704
10.0, 2309.784568522521, 17009.476364788577, 21937.4772235724, 17278.32314709701, 26832.889238940388, -6352.566939898365, -187500.02235174447, 20512.62056977994, 11855.67818351724, -31700.071001061322, -187500.02235174447, 47336.814980127216, 23023.906114567057, -5195.506536424939, 52071.696766817186, 41014.288784776785, 0.05, 0.968, 0.28800000000000003, 192.0, 0.0, 0.0, 0.0, 0.0, 0.0, 0.0, 0.0, 0.0, 0.0, 1.6959287137047029E9, 0.0, 2023-09-28 14:18:33.704
12.0, 2491.8618788554527, 17014.88548694676, 21892.147885817038, 17261.872263177906, 26828.575352260516, -6351.225835231046, -187500.02235174447, 20494.381546304412, 11823.402264523776, -31734.51503926695, -187500.02235174447, 47384.357140583656, 22982.533035580283, -5225.949612373068, 52168.457468564215, 41135.18937053554, 0.05, 0.968, 0.28800000000000003, 192.0, 0.0, 0.0, 0.0, 0.0, 0.0, 0.0, 0.0, 0.0, 0.0, 1.695928713704718E9, 0.0, 2023-09-28 14:18:33.704
14.0, 2281.755480975566, 17028.98943769806, 21957.303220904258, 17304.09470845398, 26866.50626260117, -6321.006276727471, -187500.02235174447, 20542.706017816785, 11862.674279531751, -31672.153672236644, -187500.02235174447, 47344.59338719767, 23035.193745516986, -5173.512419880917, 52061.839647512395, 41014.93698536599, 0.05, 0.968, 0.28800000000000003, 192.0, 0.0, 0.0, 0.0, 0.0, 0.0, 0.0, 0.0, 0.0, 0.0, 1.6959287137047348E9, 0.0, 2023-09-28 14:18:33.704
16.0, 2530.97743165224, 17013.969065424095, 21906.43065052398, 17267.303737080543, 26833.06805289603, -6354.288024221423, -187500.02235174447, 20495.610892249453, 11833.684066973217, -31727.965978141547, -187500.02235174447, 47400.83037624721, 22992.97130024091, -5217.835929135791, 52198.49821311214, 41151.12616433217, 0.05, 0.968, 0.28800000000000003, 192.0, 0.0, 0.0, 0.0, 0.0, 0.0, 0.0, 0.0, 0.0, 0.0, 1.6959287137047503E9, 0.0, 2023-09-28 14:18:33.704
18.0, 2289.8468124683873, 17033.258620889024, 21952.00585746835, 17307.201600933266, 26874.239966182708, -6322.794416283896, -187500.02235174447, 20530.92664848884, 11856.818122484461, -31692.806684113348, -187500.02235174447, 47349.957805866936, 23027.32593146872, -5182.0731380073, 52067.986377237605, 41043.726032224426, 0.038, 0.968, 0.296, 192.0, 0.5, 24.0, 15.0, 32.0, 4.5, 32.0, 0.0, 0.0, 0.0, 1.6959287137047653E9, 0.0, 2023-09-28 14:18:33.704
20.0, 2553.2397691297256, 17019.624056771285, 21917.025377395796, 17259.950013154747, 26819.58995098948, -6366.425021460655, -187500.02235174447, 20485.61966247793, 11842.244785099601, -31711.649204689173, -187500.02235174447, 47406.97710597242, 23005.823553302715, -5211.532737199394, 52183.768413516096, 41149.270969542384, 0.038, 0.968, 0.296, 192.0, 0.0, 0.0, 0.0, 0.0, 0.0, 0.0, 0.0, 0.0, 0.0, 1.6959287137047808E9, 0.0, 2023-09-28 14:18:33.704
22.0, 2314.701952302689, 17030.88933597676, 21930.771700235808, 17295.265769394133, 26849.11660541494, -6336.92071877965, -187500.02235174447, 20517.225029137735, 11838.91437517576, -31684.625945642707, -187500.02235174447, 47355.36692802512, 23015.07717550721, -5200.401568460652, 52074.714252318656, 41052.97965442892, 0.038, 0.968, 0.296, 192.0, 0.0, 0.0, 0.0, 0.0, 0.0, 0.0, 0.0, 0.0, 0.0, 1.6959287137047963E9, 0.0, 2023-09-28 14:18:33.704
24.0, 2573.6022083285106, 17025.390806840755, 21928.268304856814, 17265.64970799085, 26818.40530853335, -6363.631053403742, -187500.02235174447, 20481.685755453796, 11838.243822842102, -31688.336335222288, -187500.02235174447, 47411.112178696654, 22999.967396255422, -5212.091530810778, 52170.24560812064, 41131.90366410061, 0.038, 0.968, 0.296, 192.0, 0.0, 0.0, 0.0, 0.0, 0.0, 0.0, 0.0, 0.0, 0.0, 1.695928713704811E9, 0.0, 2023-09-28 14:18:33.704
26.0, 2347.626071885356, 17013.343216579346, 21924.021473410306, 17285.98979544518, 26850.41300659335, -6344.542663638909, -187500.02235174447, 20510.58656103451, 11840.00961065407, -31686.771713110415, -187500.02235174447, 47372.533067766795, 23014.674844107016, -5203.55316442885, 52080.14572622129, 41068.93879997001, 0.038, 0.968, 0.296, 192.0, 0.0, 0.0, 0.0, 0.0, 0.0, 0.0, 0.0, 0.0, 0.0, 1.695928713704828E9, 0.0, 2023-09-28 14:18:33.704
28.0, 2600.3348946970577, 17012.18092586767, 21925.6755025, 17251.36694328391, 26817.086555610487, -6383.2111815465905, -187500.02235174447, 20464.698429667766, 11824.81042442446, -31718.220617559033, -187500.02235174447, 47388.87219296362, 22992.010175229334, -5234.644440966183, 52149.61494798839, 41126.24867275342, 0.032, 0.968, 0.306, 192.0, 0.5, 0.0, 15.0, 32.0, 4.5, 72.0, 0.0, 0.0, 0.0, 1.6959287137048433E9, 0.0, 2023-09-28 14:18:33.704
30.0, 2371.207162285705, 17019.333484093368, 21916.555990762234, 17291.264807136635, 26854.25750663966, -6332.606832099776, -187500.02235174447, 20529.987875221716, 11826.553860491975, -31707.782352898404, -187500.02235174447, 47362.09480310617, 23005.577684113705, -5215.444292479074, 52091.99215078261, 41078.63945706361, 0.032, 0.968, 0.306, 192.0, 0.0, 0.0, 0.0, 0.0, 0.0, 0.0, 0.0, 0.0, 0.0, 1.6959287137048583E9, 0.0, 2023-09-28 14:18:33.704
32.0, 2588.5108218802, 17018.148841637238, 21943.936877719985, 17261.536987011074, 26827.45776503775, -6373.979911086549, -187500.02235174447, 20489.95590090226, 11843.697648489197, -31692.04672480187, -187500.02235174447, 47397.365855856646, 23012.752594083857, -5209.230507520498, 52152.99006140114, 41107.98729753343, 0.032, 0.968, 0.306, 192.0, 0.0, 0.0, 0.0, 0.0, 0.0, 0.0, 0.0, 0.0, 0.0, 1.6959287137048736E9, 0.0, 2023-09-28 14:18:33.704
34.0, 2404.265392335104, 17015.623094513787, 21910.319854059202, 17284.112248910937, 26853.51989907264, -6345.906120050683, -187500.02235174447, 20516.330959359522, 11829.414883782254, -31699.065172560833, -187500.02235174447, 47372.9801026559, 23004.393041657575, -5213.879670367202, 52093.62382812784, 41098.28664043983, 0.032, 0.968, 0.306, 192.0, 0.0, 0.0, 0.0, 0.0, 0.0, 0.0, 0.0, 0.0, 0.0, 1.6959287137048886E9, 0.0, 2023-09-28 14:18:33.704
36.0, 2572.84224901703, 17008.47053628809, 21948.027246955306, 17259.637088732372, 26823.233285335697, -6377.667948921675, -187500.02235174447, 20484.345613043977, 11840.72486647664, -31691.55498642385, -187500.02235174447, 47381.65257950456, 23009.824515560213, -5209.923411598613, 52128.179625055745, 41081.41107337607, 0.032, 0.968, 0.306, 192.0, 0.0, 0.0, 0.0, 0.0, 0.0, 0.0, 0.0, 0.0, 0.0, 1.6959287137049036E9, 0.0, 2023-09-28 14:18:33.704
38.0, 2425.1195699119057, 17034.51031857852, 21913.62791223859, 17291.42126934782, 26862.572355577035, -6328.225890186535, -187500.02235174447, 20537.341599147512, 11834.846357684894, -31699.311041749843, -187500.02235174447, 47378.00924515835, 23001.710832322937, -5210.348094743264, 52094.33908395041, 41094.01745724886, 0.026000000000000002, 0.98, 0.304, 192.0, 0.0, 104.0, 15.0, 80.0, 4.5, 64.0, 0.0, 0.0, 0.0, 1.6959287137049186E9, 0.0, 2023-09-28 14:18:33.704
40.0, 2544.3884783254243, 17027.670684775196, 21962.645287829077, 17273.159894127835, 26838.723044243223, -6358.221931245557, -187500.02235174447, 20504.261017353656, 11857.086343417925, -31684.26831773142, -187500.02235174447, 47384.200678372465, 23018.742861597882, -5199.663960893627, 52115.12620629385, 41072.33626512722, 0.026000000000000002, 0.98, 0.304, 192.0, 0.0, 0.0, 0.0, 0.0, 0.0, 0.0, 0.0, 0.0, 0.0, 1.6959287137049353E9, 0.0, 2023-09-28 14:18:33.704
42.0, 2452.0310702360953, 17028.765920253507, 21916.04190063976, 17291.644786792374, 26860.381884620416, -6326.303640163379, -187500.02235174447, 20525.562229819567, 11843.071799644447, -31696.494721948475, -187500.02235174447, 47403.11025418166, 23014.98776852939, -5202.927315584102, 52125.6538779323, 41119.38668720564, 0.026000000000000002, 0.98, 0.304, 192.0, 0.0, 0.0, 0.0, 0.0, 0.0, 0.0, 0.0, 0.0, 0.0, 1.6959287137049506E9, 0.0, 2023-09-28 14:18:33.704
44.0, 2527.1776350948376, 17015.84661195834, 21959.49369186088, 17265.739114968674, 26828.41889004933, -6368.794306372918, -187500.02235174447, 20491.85579918096, 11851.587814281918, -31687.643431144174, -187500.02235174447, 47382.77016672733, 23023.54848665577, -5197.249972492454, 52109.40415971329, 41067.351826113685, 0.026000000000000002, 0.98, 0.304, 192.0, 0.0, 0.0, 0.0, 0.0, 0.0, 0.0, 0.0, 0.0, 0.0, 1.6959287137049656E9, 0.0, 2023-09-28 14:18:33.704
46.0, 2493.0912248004943, 17039.919440736707, 21920.80282220874, 17293.008243204145, 26877.36921040645, -6325.767198296452, -187500.02235174447, 20527.3950728649, 11831.225375083135, -31715.359594268753, -187500.02235174447, 47398.50579482386, 23003.901303279556, -5211.778606388403, 52126.7044099217, 41136.08344031375, 0.026000000000000002, 0.98, 0.304, 192.0, 0.0, 0.0, 0.0, 0.0, 0.0, 0.0, 0.0, 0.0, 0.0, 1.6959287137049809E9, 0.0, 2023-09-28 14:18:33.704
48.0, 2494.3429224899915, 17040.1206064368, 21983.521817150333, 17286.526237312108, 26850.480061826715, -6350.8682073197615, -187500.02235174447, 20517.225029137735, 11871.212645913678, -31668.912669290625, -187500.02235174447, 47386.793480729284, 23045.475547966427, -5175.948760026546, 52089.175830981236, 41051.616198017146, 0.032, 0.986, 0.31, 192.0, 0.5, 0.0, 15.0, 104.0, 4.5, 88.0, 0.0, 0.0, 0.0, 1.6959287137049973E9, 0.0, 2023-09-28 14:18:33.704
50.0, 2524.07074261555, 17043.830996016382, 21928.134194390084, 17289.52137106912, 26866.193338178797, -6329.924622765139, -187500.02235174447, 20520.667197783852, 11841.350715321389, -31698.707544649547, -187500.02235174447, 47420.58931834571, 23005.823553302715, -5204.558992929339, 52149.50318926611, 41149.60624570921, 0.032, 0.986, 0.31, 192.0, 0.0, 0.0, 0.0, 0.0, 0.0, 0.0, 0.0, 0.0, 0.0, 1.6959287137050123E9, 0.0, 2023-09-28 14:18:33.705
52.0, 2451.6063870914445, 17039.51710933651, 21987.321613707736, 17297.165667672834, 26859.17489041983, -6338.73121008053, -187500.02235174447, 20530.50196534419, 11875.280663404545, -31657.222706940498, -187500.02235174447, 47385.050044661766, 23040.98284733091, -5174.205323959032, 52089.68992110371, 41048.688119493505, 0.032, 0.986, 0.31, 192.0, 0.0, 0.0, 0.0, 0.0, 0.0, 0.0, 0.0, 0.0, 0.0, 1.6959287137050292E9, 0.0, 2023-09-28 14:18:33.705
54.0, 2558.715946521276, 17045.306211150433, 21922.68036874299, 17280.513618053632, 26858.236117152708, -6340.072314747848, -187500.02235174447, 20530.949000233293, 11839.987258909614, -31702.641451673684, -187500.02235174447, 47420.276393923334, 22997.50870436534, -5213.611449433738, 52164.34474758444, 41166.884144173164, 0.032, 0.986, 0.31, 192.0, 0.0, 0.0, 0.0, 0.0, 0.0, 0.0, 0.0, 0.0, 0.0, 1.6959287137050445E9, 0.0, 2023-09-28 14:18:33.705
56.0, 2451.9863667471845, 17019.780518982472, 21962.421770384524, 17276.13267614039, 26830.363491816937, -6350.01884103046, -187500.02235174447, 20516.688587270808, 11861.936671964726, -31671.88545130318, -187500.02235174447, 47371.16961135502, 23032.355073971165, -5179.9497222840455, 52072.948464506684, 41056.0418434193, 0.032, 0.986, 0.31, 192.0, 0.0, 0.0, 0.0, 0.0, 0.0, 0.0, 0.0, 0.0, 0.0, 1.6959287137050595E9, 0.0, 2023-09-28 14:18:33.705
58.0, 2604.9617057993064, 17034.75618776753, 21917.58417100718, 17274.61275751743, 26859.577221820025, -6337.9488990245945, -187500.02235174447, 20525.2940088861, 11828.72197970414, -31708.989347098992, -187500.02235174447, 47407.64765830609, 22993.664204319026, -5218.305315769353, 52145.21165433069, 41166.19124009505, 0.032, 0.974, 0.324, 192.0, 0.5, 0.0, 15.0, 56.0, 5.0, 16.0, 0.0, 0.0, 0.0, 1.6959287137050748E9, 0.0, 2023-09-28 14:18:33.705
60.0, 2434.1273229273943, 17024.049702173437, 21953.01168596884, 17276.31149009603, 26850.524765315626, -6336.987774013016, -187500.02235174447, 20533.988837479217, 11855.074686416947, -31679.797968840357, -187500.02235174447, 47346.31447152072, 23026.945951812977, -5182.631931618683, 52067.80756328197, 41048.621064260136, 0.032, 0.974, 0.324, 192.0, 0.0, 0.0, 0.0, 0.0, 0.0, 0.0, 0.0, 0.0, 0.0, 1.69592871370509E9, 0.0, 2023-09-28 14:18:33.705
62.0, 2640.948014372351, 17026.463690574612, 21909.38108079208, 17253.51271075162, 26831.726948228712, -6345.839064817317, -187500.02235174447, 20510.430098823323, 11829.638401226808, -31717.617120458737, -187500.02235174447, 47380.11030913715, 22989.372669383607, -5215.421940734618, 52149.4584857772, 41158.97162663599, 0.032, 0.974, 0.324, 192.0, 0.0, 0.0, 0.0, 0.0, 0.0, 0.0, 0.0, 0.0, 0.0, 1.695928713705105E9, 0.0, 2023-09-28 14:18:33.705
64.0, 2426.2818606235815, 17023.312094606412, 21935.666732271522, 17274.23277786169, 26854.32456187303, -6326.504805863477, -187500.02235174447, 20532.692436300807, 11847.139817135314, -31686.83876834378, -187500.02235174447, 47302.147424477036, 23015.41245167404, -5188.711606110526, 52024.087551127384, 41043.8377909467, 0.032, 0.974, 0.324, 192.0, 0.0, 0.0, 0.0, 0.0, 0.0, 0.0, 0.0, 0.0, 0.0, 1.695928713705129E9, 0.0, 2023-09-28 14:18:33.705
66.0, 2666.652520495954, 17025.92724870768, 21909.425784280993, 17253.423303773798, 26848.826032737023, -6343.8274078163395, -187500.02235174447, 20515.25807562567, 11835.405151296276, -31714.621986701728, -187500.02235174447, 47342.89465461906, 22997.978090998902, -5217.902984369157, 52127.285555277536, 41154.948312634035, 0.032, 0.974, 0.324, 192.0, 0.0, 0.0, 0.0, 0.0, 0.0, 0.0, 0.0, 0.0, 0.0, 1.6959287137051444E9, 0.0, 2023-09-28 14:18:33.705
68.0, 2428.8076077470314, 17034.867946489805, 21922.05451989824, 17276.535007540584, 26869.32258240254, -6314.837195257806, -187500.02235174447, 20539.68853231532, 11859.746201008105, -31697.075867304313, -187500.02235174447, 47285.33891264664, 23029.784623358802, -5188.21986773251, 52025.406304050244, 41050.856238705666, 0.036000000000000004, 0.96, 0.318, 192.0, 0.5, 16.0, 15.0, 0.0, 4.5, 120.0, 0.0, 0.0, 0.0, 1.69592871370516E9, 0.0, 2023-09-28 14:18:33.705
70.0, 2706.2374599263026, 17009.74458572204, 21905.42482202349, 17246.404856014833, 26845.24975362417, -6348.185997985125, -187500.02235174447, 20505.423308065332, 11845.463436301165, -31723.450925761575, -187500.02235174447, 47327.40489571153, 22996.50287586485, -5212.605620933249, 52123.21753778667, 41144.800620651324, 0.036000000000000004, 0.96, 0.318, 192.0, 0.0, 0.0, 0.0, 0.0, 0.0, 0.0, 0.0, 0.0, 0.0, 1.6959287137051752E9, 0.0, 2023-09-28 14:18:33.705
72.0, 2470.627721622911, 17030.107024920824, 21920.601656508643, 17287.867341979425, 26875.871643527946, -6301.984942196005, -187500.02235174447, 20546.617573096464, 11859.96971845266, -31690.437399201084, -187500.02235174447, 47295.97834300737, 23025.04605353428, -5186.878763065191, 52027.5297197735, 41063.909657467564, 0.036000000000000004, 0.96, 0.318, 192.0, 0.0, 0.0, 0.0, 0.0, 0.0, 0.0, 0.0, 0.0, 0.0, 1.6959287137051902E9, 0.0, 2023-09-28 14:18:33.705
74.0, 2752.282053504235, 17018.908800948717, 21917.405357051535, 17252.685696206772, 26845.36151234645, -6342.553358382387, -187500.02235174447, 20516.755642504173, 11856.281680617534, -31711.537445966896, -187500.02235174447, 47350.091916333666, 23012.059690005743, -5200.245106249465, 52124.4021802428, 41148.801582908825, 0.036000000000000004, 0.96, 0.318, 192.0, 0.0, 0.0, 0.0, 0.0, 0.0, 0.0, 0.0, 0.0, 0.0, 1.6959287137052174E9, 0.0, 2023-09-28 14:18:33.705
76.0, 2540.9016061903963, 17026.4189870857, 21903.882551656076, 17281.966481443225, 26874.17291094934, -6313.697256290586, -187500.02235174447, 20543.555384106086, 11854.448837572198, -31699.199283027567, -187500.02235174447, 47317.32425896219, 23017.535867397295, -5186.9905217874675, 52041.231339124606, 41093.65982933758, 0.036000000000000004, 0.96, 0.318, 192.0, 0.0, 0.0, 0.0, 0.0, 0.0, 0.0, 0.0, 0.0, 0.0, 1.6959287137052343E9, 0.0, 2023-09-28 14:18:33.705
78.0, 2794.571554013676, 17024.3179231069, 21917.628874496088, 17263.54864401205, 26839.661817510347, -6338.753561824985, -187500.02235174447, 20510.832430223516, 11846.983354924127, -31716.924216380623, -187500.02235174447, 47340.81594238472, 22997.64281483207, -5202.659094650638, 52125.63152618784, 41141.49256247194, 0.044, 0.96, 0.32, 192.0, 0.5, 48.0, 15.0, 0.0, 5.0, 0.0, 0.0, 0.0, 0.0, 1.6959287137052495E9, 0.0, 2023-09-28 14:18:33.705
80.0, 2583.615789844488, 17040.478234348087, 21915.23723783937, 17307.08984221099, 26887.56160587807, -6296.017026426438, -187500.02235174447, 20561.97322153726, 11869.648023801807, -31679.239175228977, -187500.02235174447, 47332.814017869714, 23026.498916923872, -5177.759251327426, 52053.61420555285, 41110.960079545985, 0.044, 0.96, 0.32, 192.0, 0.0, 0.0, 0.0, 0.0, 0.0, 0.0, 0.0, 0.0, 0.0, 1.6959287137052648E9, 0.0, 2023-09-28 14:18:33.705
82.0, 2822.89121423855, 17025.726083007587, 21925.809612966732, 17256.530196253087, 26822.987416146687, -6362.245245247513, -187500.02235174447, 20501.623511507933, 11869.670375546262, -31694.818341114325, -187500.02235174447, 47354.76343092483, 23018.139364497587, -5195.752405613948, 52122.01054358608, 41134.876446113165, 0.044, 0.96, 0.32, 192.0, 0.0, 0.0, 0.0, 0.0, 0.0, 0.0, 0.0, 0.0, 0.0, 1.6959287137052813E9, 0.0, 2023-09-28 14:18:33.705
84.0, 2665.356119317546, 17032.3198476219, 21887.163446803504, 17288.67200477982, 26858.906669486365, -6321.185090683114, -187500.02235174447, 20535.26288691317, 11832.991162895103, -31719.1370390817, -187500.02235174447, 47324.74503812135, 22989.126800194597, -5219.601716947761, 52062.08551670141, 41129.13204778815, 0.044, 0.96, 0.32, 192.0, 0.0, 0.0, 0.0, 0.0, 0.0, 0.0, 0.0, 0.0, 0.0, 1.6959287137052991E9, 0.0, 2023-09-28 14:18:33.705
86.0, 2843.5218743707987, 17016.517164292, 21915.214886094916, 17252.685696206772, 26807.27413979461, -6371.565922685376, -187500.02235174447, 20490.134714857904, 11851.476055559642, -31700.540387694884, -187500.02235174447, 47339.74305865086, 23005.64473934707, -5202.435577206084, 52089.26523795906, 41109.82014057877, 0.044, 0.96, 0.32, 192.0, 0.0, 0.0, 0.0, 0.0, 0.0, 0.0, 0.0, 0.0, 0.0, 1.6959287137053185E9, 0.0, 2023-09-28 14:18:33.705
88.0, 2733.9312713064282, 17033.280972633478, 21882.223711278883, 17290.70601352525, 26844.98153269071, -6331.310430921368, -187500.02235174447, 20525.673988541843, 11832.588831494908, -31724.859085662258, -187500.02235174447, 47336.16677953801, 22982.801256513747, -5219.355847758752, 52080.81627855495, 41141.13493456065, 0.046, 0.97, 0.312, 192.0, 0.5, 56.0, 15.0, 40.0, 4.5, 96.0, 0.0, 0.0, 0.0, 1.6959287137053337E9, 0.0, 2023-09-28 14:18:33.705
90.0, 2857.447011166455, 17012.896181690237, 21926.301351344748, 17260.486455021673, 26804.41311650433, -6383.412347246689, -187500.02235174447, 20487.273691567625, 11851.945442193204, -31708.22938778751, -187500.02235174447, 47330.869416102105, 23005.60003585816, -5202.793205117369, 52092.819165327455, 41100.45475965199, 0.046, 0.97, 0.312, 192.0, 0.0, 0.0, 0.0, 0.0, 0.0, 0.0, 0.0, 0.0, 0.0, 1.695928713705362E9, 0.0, 2023-09-28 14:18:33.705
92.0, 2801.701760494919, 17045.954411739636, 21885.308252013714, 17282.301757610054, 26850.636524037902, -6336.227814701536, -187500.02235174447, 20518.677892527332, 11827.492633759099, -31729.776469442426, -187500.02235174447, 47338.26784351681, 22983.36005012513, -5217.545356457872, 52104.03974104402, 41159.0163301249, 0.046, 0.97, 0.312, 192.0, 0.0, 0.0, 0.0, 0.0, 0.0, 0.0, 0.0, 0.0, 0.0, 1.69592871370538E9, 0.0, 2023-09-28 14:18:33.705
94.0, 2848.081630239681, 17026.4189870857, 21940.829985240696, 17261.112303866423, 26818.07003236652, -6375.790402387429, -187500.02235174447, 20499.187171362304, 11859.835607985928, -31688.626907900205, -187500.02235174447, 47327.24843350035, 23015.144230740578, -5190.812670089325, 52090.47223215965, 41090.37412290265, 0.046, 0.97, 0.312, 192.0, 0.0, 0.0, 0.0, 0.0, 0.0, 0.0, 0.0, 0.0, 0.0, 1.6959287137053995E9, 0.0, 2023-09-28 14:18:33.705
96.0, 2864.8230868367064, 17041.12643493729, 21890.38209800507, 17274.389240072876, 26840.891163455388, -6350.130599752736, -187500.02235174447, 20516.599180292986, 11832.365314050356, -31720.880475149213, -187500.02235174447, 47348.75081166635, 22983.225939658398, -5235.22558632202, 52111.84049985892, 41168.87344942969, 0.046, 0.97, 0.312, 192.0, 0.0, 0.0, 0.0, 0.0, 0.0, 0.0, 0.0, 0.0, 0.0, 1.695928713705416E9, 0.0, 2023-09-28 14:18:33.705
98.0, 2838.604490590631, 17029.525879564986, 21953.77164528032, 17273.56222552803, 26821.60160799046, -6371.7670883854735, -187500.02235174447, 20503.076374897526, 11874.096020948413, -31679.060361273336, -187500.02235174447, 47332.612852169616, 23024.710777367447, -5192.9807893014895, 52056.11760093184, 41067.26241913586, 0.04, 0.976, 0.294, 192.0, 0.5, 32.0, 15.0, 64.0, 4.5, 24.0, 0.0, 0.0, 0.0, 1.6959287137054334E9, 0.0, 2023-09-28 14:18:33.705
100.0, 2919.115474118647, 17045.999115228547, 21894.89715038504, 17273.003431916648, 26848.378997847918, -6362.915797581172, -187500.02235174447, 20510.944188945796, 11843.563538022463, -31702.84261737378, -187500.02235174447, 47381.272599848824, 22993.686556063483, -5222.686257682593, 52129.453674489705, 41176.741263477954, 0.04, 0.976, 0.294, 192.0, 0.0, 0.0, 0.0, 0.0, 0.0, 0.0, 0.0, 0.0, 0.0, 1.6959287137054513E9, 0.0, 2023-09-28 14:18:33.705
102.0, 2842.247824936846, 17021.85923121682, 21949.72597953391, 17266.78964695807, 26827.144840615376, -6379.433736733644, -187500.02235174447, 20497.331976572514, 11861.243767886612, -31675.37232343821, -187500.02235174447, 47332.65755565853, 23013.06551850623, -5206.481242952495, 52057.34694687688, 41071.55395407128, 0.04, 0.976, 0.294, 192.0, 0.0, 0.0, 0.0, 0.0, 0.0, 0.0, 0.0, 0.0, 0.0, 1.6959287137054694E9, 0.0, 2023-09-28 14:18:33.705
104.0, 2985.3883964286324, 17059.276051435, 21922.166278620516, 17287.576769301508, 26849.40717809286, -6349.370640441256, -187500.02235174447, 20521.58361930652, 11843.787055467017, -31708.765829654436, -187500.02235174447, 47392.06849242074, 22992.054878718245, -5220.048751836866, 52139.91429089478, 41189.81703398431, 0.04, 0.976, 0.294, 192.0, 0.0, 0.0, 0.0, 0.0, 0.0, 0.0, 0.0, 0.0, 0.0, 1.6959287137054853E9, 0.0, 2023-09-28 14:18:33.705
106.0, 2861.0456420237592, 17063.299365436957, 21966.668601831032, 17295.154010671857, 26825.40140454786, -6363.8992743372055, -187500.02235174447, 20494.515656771142, 11878.119334950368, -31645.420985868095, -187500.02235174447, 47359.03261411579, 23014.004291773355, -5175.233504203976, 52042.281871114006, 41076.82896576273, 0.04, 0.976, 0.294, 192.0, 0.0, 0.0, 0.0, 0.0, 0.0, 0.0, 0.0, 0.0, 0.0, 1.6959287137055013E9, 0.0, 2023-09-28 14:18:33.705
108.0, 3055.0587838958245, 17076.486894665588, 21926.055482155738, 17283.732269255193, 26807.07297409451, -6379.16551580018, -187500.02235174447, 20481.95397638726, 11862.763686509572, -31667.057474500834, -187500.02235174447, 47422.35510615768, 22984.67880304799, -5202.189708017077, 52116.98140108364, 41189.45940607302, 0.032, 0.982, 0.29, 192.0, 0.5, 0.0, 15.0, 88.0, 4.5, 8.0, 0.0, 0.0, 0.0, 1.6959287137055175E9, 0.0, 2023-09-28 14:18:33.705
110.0, 2874.9260753305052, 17062.695868336665, 21962.95821225145, 17292.784725759593, 26826.094308625976, -6377.8691146217725, -187500.02235174447, 20491.922854414326, 11871.413811613776, -31656.328637162285, -187500.02235174447, 47367.168649097526, 23004.03541374629, -5187.683425865582, 52004.35096077335, 41070.16814591505, 0.032, 0.982, 0.29, 192.0, 0.0, 0.0, 0.0, 0.0, 0.0, 0.0, 0.0, 0.0, 0.0, 1.695928713705534E9, 0.0, 2023-09-28 14:18:33.705
112.0, 3099.5387553618857, 17055.006868244036, 21937.790147994776, 17272.511693538632, 26841.02527392212, -6391.056643850404, -187500.02235174447, 20483.786819432597, 11840.478997287632, -31692.314945735332, -187500.02235174447, 47414.93432699851, 22969.613727285116, -5218.953516358557, 52107.705427134686, 41179.49052804596, 0.032, 0.982, 0.29, 192.0, 0.0, 0.0, 0.0, 0.0, 0.0, 0.0, 0.0, 0.0, 0.0, 1.695928713705552E9, 0.0, 2023-09-28 14:18:33.705
114.0, 2836.011688233815, 17071.904787052248, 21984.97468053993, 17313.214220191745, 26862.237079410206, -6363.11696328127, -187500.02235174447, 20516.129793659424, 11891.440974645731, -31641.93411373307, -187500.02235174447, 47366.69926246396, 23035.46196645045, -5177.513382138417, 52006.92141138571, 41057.897038209085, 0.032, 0.982, 0.29, 192.0, 0.0, 0.0, 0.0, 0.0, 0.0, 0.0, 0.0, 0.0, 0.0, 1.695928713705572E9, 0.0, 2023-09-28 14:18:33.705
116.0, 3103.8526420417597, 17045.485025106078, 21941.679351529998, 17254.51853925211, 26818.807639933544, -6416.738798229551, -187500.02235174447, 20457.2776505086, 11860.930843464237, -31688.537500922383, -187500.02235174447, 47409.86048100716, 22993.440686874474, -5226.0837228397995, 52114.58976442692, 41165.833612183764, 0.032, 0.982, 0.29, 192.0, 0.0, 0.0, 0.0, 0.0, 0.0, 0.0, 0.0, 0.0, 0.0, 1.695928713705592E9, 0.0, 2023-09-28 14:18:33.705
118.0, 2870.5227816728097, 17040.411179114722, 21953.92810749151, 17278.725478497206, 26831.92811392881, -6388.665007193686, -187500.02235174447, 20495.990871905193, 11855.34290735041, -31686.794064854872, -187500.02235174447, 47342.24645402985, 22998.08984972118, -5217.388894246686, 52012.88932715527, 41078.684160552526, 0.03, 0.986, 0.28400000000000003, 192.0, 0.0, 120.0, 15.0, 104.0, 4.0, 112.0, 0.0, 0.0, 0.0, 1.6959287137056117E9, 0.0, 2023-09-28 14:18:33.705
120.0, 3118.917717804637, 17051.072961219903, 21957.59379358218, 17267.393144058366, 26815.8795614099, -6403.595972489831, -187500.02235174447, 20473.169740816324, 11853.018325927058, -31691.197358512567, -187500.02235174447, 47378.50098353637, 22986.623404815604, -5233.102170598766, 52101.29047647602, 41149.069803842285, 0.03, 0.986, 0.28400000000000003, 192.0, 0.0, 0.0, 0.0, 0.0, 0.0, 0.0, 0.0, 0.0, 0.0, 1.6959287141840432E9, 0.0, 2023-09-28 14:18:34.184
122.0, 2871.3944997065664, 17055.856234533338, 21955.96211623694, 17297.32212988402, 26849.138957159397, -6373.197600030613, -187500.02235174447, 20502.227008608224, 11865.334137121932, -31661.491890131463, -187500.02235174447, 47337.016145827314, 23005.823553302715, -5204.067254551323, 52013.40341727775, 41078.259477407875, 0.03, 0.986, 0.28400000000000003, 192.0, 0.0, 0.0, 0.0, 0.0, 0.0, 0.0, 0.0, 0.0, 0.0, 1.6959287141840968E9, 0.0, 2023-09-28 14:18:34.184
124.0, 3140.174226781634, 17051.296478664455, 21951.692933045975, 17255.837292174972, 26806.49182873867, -6427.8252634793835, -187500.02235174447, 20440.871470078408, 11856.102866661891, -31689.11864627822, -187500.02235174447, 47372.957750911446, 22981.817779757712, -5226.016667606434, 52093.53442115002, 41131.8589606117, 0.03, 0.986, 0.28400000000000003, 192.0, 0.0, 0.0, 0.0, 0.0, 0.0, 0.0, 0.0, 0.0, 0.0, 1.6959287141841235E9, 0.0, 2023-09-28 14:18:34.184
126.0, 2903.402197766566, 17067.546196883464, 21953.369313880125, 17309.839106778993, 26852.64818103888, -6373.398765730712, -187500.02235174447, 20508.999587178183, 11857.041639929013, -31670.991381524967, -187500.02235174447, 47342.76054415233, 22994.826495030702, -5211.085702310289, 52021.986487148584, 41075.376102373135, 0.03, 0.986, 0.28400000000000003, 192.0, 0.0, 0.0, 0.0, 0.0, 0.0, 0.0, 0.0, 0.0, 0.0, 1.69592871418415E9, 0.0, 2023-09-28 14:18:34.184
128.0, 3133.1557790226675, 17064.774580571007, 21980.370221182136, 17277.451429063254, 26817.377128288404, -6416.001190662527, -187500.02235174447, 20471.001621604162, 11867.546959823008, -31671.974858281003, -187500.02235174447, 47382.6360562606, 22989.327965894696, -5203.21788826202, 52096.17192699575, 41111.60828013519, 0.042, 0.992, 0.28200000000000003, 192.0, 0.5, 40.0, 15.5, 0.0, 4.0, 104.0, 0.0, 0.0, 0.0, 1.6959287141841738E9, 0.0, 2023-09-28 14:18:34.184
130.0, 2957.3369571372223, 17074.29642370897, 21949.81538651173, 17290.393089102876, 26837.806622720556, -6393.537687484943, -187500.02235174447, 20482.468066509733, 11866.071744688958, -31667.057474500834, -187500.02235174447, 47360.999567627856, 22991.160808940032, -5206.7718156304145, 52044.02530718152, 41089.45770137998, 0.042, 0.992, 0.28200000000000003, 192.0, 0.0, 0.0, 0.0, 0.0, 0.0, 0.0, 0.0, 0.0, 0.0, 1.695928714184196E9, 0.0, 2023-09-28 14:18:34.184
132.0, 3158.726174679539, 17072.86591206383, 21978.91735779254, 17265.023859146102, 26804.144895570862, -6433.837882737861, -187500.02235174447, 20449.454539949245, 11856.907529462282, -31675.61819262722, -187500.02235174447, 47366.386338041586, 22982.555387324737, -5221.2110425485425, 52075.13893546331, 41085.68025656704, 0.042, 0.992, 0.28200000000000003, 192.0, 0.0, 0.0, 0.0, 0.0, 0.0, 0.0, 0.0, 0.0, 0.0, 1.6959287141842203E9, 0.0, 2023-09-28 14:18:34.184
134.0, 3025.2639085369005, 17067.70265909465, 21947.311991132738, 17290.88482748089, 26842.992227434188, -6400.287914310446, -187500.02235174447, 20472.454484993756, 11847.318631090955, -31688.023410799913, -187500.02235174447, 47358.339710037675, 22986.288128648775, -5222.84271989378, 52049.2332636396, 41094.688009582525, 0.042, 0.992, 0.28200000000000003, 192.0, 0.0, 0.0, 0.0, 0.0, 0.0, 0.0, 0.0, 0.0, 0.0, 1.6959287141842437E9, 0.0, 2023-09-28 14:18:34.184
136.0, 3153.138238565712, 17074.47523766461, 22010.79094538581, 17282.90525471035, 26811.945654385767, -6423.019638421493, -187500.02235174447, 20457.56822318652, 11876.532361094041, -31663.190622710066, -187500.02235174447, 47356.886846648085, 23013.93723653999, -5195.350074213752, 52066.801734781475, 41064.66961677904, 0.042, 0.992, 0.28200000000000003, 192.0, 0.0, 0.0, 0.0, 0.0, 0.0, 0.0, 0.0, 0.0, 0.0, 1.6959287141842685E9, 0.0, 2023-09-28 14:18:34.184
138.0, 3061.65254851014, 17082.81243834644, 21970.043715243784, 17305.055833465558, 26859.6889805423, -6384.194658302625, -187500.02235174447, 20485.820828178028, 11866.027041200048, -31676.914593805624, -187500.02235174447, 47354.51756173582, 23002.336681167686, -5199.418091704619, 52085.59955186839, 41119.54314941682, 0.056, 0.998, 0.276, 192.0, 0.5, 96.0, 15.5, 24.0, 4.0, 80.0, 0.0, 0.0, 0.0, 1.6959287141842928E9, 0.0, 2023-09-28 14:18:34.184
140.0, 3131.389991210698, 17072.24006321908, 22029.007617116884, 17295.24341764968, 26824.06029988054, -6418.79515871944, -187500.02235174447, 20467.559452958045, 11888.490544377632, -31662.676532587593, -187500.02235174447, 47335.496227204356, 23028.868201836136, -5184.889457808668, 52079.58693260991, 41069.229372647926, 0.056, 0.998, 0.276, 192.0, 0.0, 0.0, 0.0, 0.0, 0.0, 0.0, 0.0, 0.0, 0.0, 1.6959287141843176E9, 0.0, 2023-09-28 14:18:34.184
142.0, 3093.906115759148, 17089.137982027292, 21977.73271533641, 17313.52714461412, 26847.194355391784, -6384.59698970282, -187500.02235174447, 20484.412668277346, 11860.349698108399, -31686.727009621503, -187500.02235174447, 47357.98208212639, 23000.36972765562, -5214.79609188987, 52107.638371901325, 41139.8608851267, 0.056, 0.998, 0.276, 192.0, 0.0, 0.0, 0.0, 0.0, 0.0, 0.0, 0.0, 0.0, 0.0, 1.6959287141843412E9, 0.0, 2023-09-28 14:18:34.184
144.0, 3118.068351515335, 17073.111781252835, 22042.776291701353, 17293.52233332662, 26822.674491724312, -6414.995362162038, -187500.02235174447, 20463.46908372272, 11889.474021133665, -31659.07790173029, -187500.02235174447, 47343.18522729698, 23026.65537913506, -5180.620274617705, 52074.26721742955, 41052.93495094001, 0.056, 0.998, 0.276, 192.0, 0.0, 0.0, 0.0, 0.0, 0.0, 0.0, 0.0, 0.0, 0.0, 1.695928714184364E9, 0.0, 2023-09-28 14:18:34.184
146.0, 3144.7339826505167, 17087.79687735997, 22002.744317381897, 17309.727348056716, 26859.621925308937, -6377.600893688309, -187500.02235174447, 20496.415555049844, 11866.675241789251, -31687.442265444075, -187500.02235174447, 47382.591352771684, 23005.734146324892, -5206.347132485764, 52116.33320049444, 41152.26610329939, 0.056, 0.998, 0.276, 192.0, 0.0, 0.0, 0.0, 0.0, 0.0, 0.0, 0.0, 0.0, 0.0, 1.6959287141843884E9, 0.0, 2023-09-28 14:18:34.184
148.0, 3096.9012495161596, 17077.202150488156, 22063.47400706697, 17302.485382853196, 26834.230343607705, -6398.991513132038, -187500.02235174447, 20482.065735109536, 11888.669358333274, -31649.51135510342, -187500.02235174447, 47352.34944252366, 23035.93135308401, -5160.995442985945, 52035.01755416603, 41052.689081751, 0.076, 1.0, 0.27, 192.0, 1.0, 48.0, 15.5, 32.0, 4.0, 56.0, 0.0, 0.0, 0.0, 1.6959287141844118E9, 0.0, 2023-09-28 14:18:34.184
150.0, 3219.813492275893, 17068.775542828505, 21992.68603237701, 17286.12390591191, 26821.623959734912, -6402.299571311423, -187500.02235174447, 20462.5303104556, 11848.659735758274, -31693.767809124925, -187500.02235174447, 47383.0830911497, 22986.846922260156, -5206.168318530121, 52107.012523056575, 41161.83264992627, 0.076, 1.0, 0.27, 192.0, 0.0, 0.0, 0.0, 0.0, 0.0, 0.0, 0.0, 0.0, 0.0, 1.695928714184434E9, 0.0, 2023-09-28 14:18:34.184
152.0, 3111.4522351565643, 17061.064190991427, 22049.235945848937, 17294.550513571565, 26830.45289879476, -6403.417158534188, -187500.02235174447, 20475.069639095025, 11859.612090541374, -31681.496701418964, -187500.02235174447, 47321.705200875425, 23012.953759783955, -5181.9390275405685, 52023.41699879373, 41050.07392764973, 0.076, 1.0, 0.27, 192.0, 0.0, 0.0, 0.0, 0.0, 0.0, 0.0, 0.0, 0.0, 0.0, 1.695928714184459E9, 0.0, 2023-09-28 14:18:34.184
154.0, 3269.9484550891466, 17083.214769746635, 22005.78415462782, 17285.162780900333, 26828.865924938433, -6394.699978196619, -187500.02235174447, 20470.085200081492, 11851.006668926082, -31698.75224813846, -187500.02235174447, 47369.113250865135, 22996.480524120394, -5194.925391069101, 52125.96680235468, 41166.37005405069, 0.076, 1.0, 0.27, 192.0, 0.0, 0.0, 0.0, 0.0, 0.0, 0.0, 0.0, 0.0, 0.0, 1.695928714184482E9, 0.0, 2023-09-28 14:18:34.184
156.0, 3116.2131567255446, 17066.361554427334, 22026.07953859324, 17276.356193584943, 26804.524875226605, -6409.765053959496, -187500.02235174447, 20458.81992087602, 11869.782134268538, -31676.78048333889, -187500.02235174447, 47299.621677353585, 23015.904190052057, -5166.7398413109595, 52027.21679535112, 41052.107936395165, 0.076, 1.0, 0.27, 192.0, 0.0, 0.0, 0.0, 0.0, 0.0, 0.0, 0.0, 0.0, 0.0, 1.695928714184523E9, 0.0, 2023-09-28 14:18:34.184
158.0, 3344.379764125319, 17061.935909025182, 21985.73463985141, 17270.432981304286, 26816.527761999103, -6407.663989980697, -187500.02235174447, 20458.484644709188, 11837.81913969745, -31718.041803603388, -187500.02235174447, 47343.0734685747, 22973.63704128707, -5219.579365203305, 52101.80456659849, 41158.77046093589, 0.094, 0.984, 0.268, 192.0, 1.0, 120.0, 15.0, 96.0, 4.0, 48.0, 0.0, 0.0, 0.0, 1.6959287141845467E9, 0.0, 2023-09-28 14:18:34.184
160.0, 3148.7796483969273, 17060.058362490938, 22013.830782631732, 17300.496077596676, 26836.01848316413, -6396.868097408784, -187500.02235174447, 20478.377697274413, 11848.369163080355, -31690.727971879005, -187500.02235174447, 47299.80049130923, 23010.249198704863, -5184.040091519367, 52019.90777491424, 41051.66090150606, 0.094, 0.984, 0.268, 192.0, 0.0, 0.0, 0.0, 0.0, 0.0, 0.0, 0.0, 0.0, 0.0, 1.69592871418457E9, 0.0, 2023-09-28 14:18:34.184
162.0, 3385.4399186897185, 17074.944624298172, 21992.73073586592, 17293.008243204145, 26823.233285335697, -6399.729120699063, -187500.02235174447, 20472.208615804746, 11843.854110700382, -31707.22355928702, -187500.02235174447, 47358.00443387085, 22991.11610545112, -5204.223716762509, 52128.44784598921, 41149.33802477575, 0.094, 0.984, 0.268, 192.0, 0.0, 0.0, 0.0, 0.0, 0.0, 0.0, 0.0, 0.0, 0.0, 1.6959287141845925E9, 0.0, 2023-09-28 14:18:34.184
164.0, 3144.689279161606, 17080.465505178632, 22017.719986166954, 17318.42217664983, 26838.767747732134, -6376.21508553208, -187500.02235174447, 20496.303796327567, 11871.994956969615, -31662.050683742844, -187500.02235174447, 47316.07256127269, 23030.27636173682, -5157.843847017747, 52035.621051266324, 41054.276055607326, 0.094, 0.984, 0.268, 192.0, 0.0, 0.0, 0.0, 0.0, 0.0, 0.0, 0.0, 0.0, 0.0, 1.6959287141846168E9, 0.0, 2023-09-28 14:18:34.184
166.0, 3408.1045875674, 17076.28572896549, 22007.68405290652, 17282.569978543517, 26818.651177722357, -6405.920553913183, -187500.02235174447, 20456.227118519204, 11849.553805536487, -31693.94662308057, -187500.02235174447, 47372.75658521135, 23002.1802189565, -5188.689254366071, 52146.86568342039, 41153.09311784424, 0.094, 0.984, 0.268, 192.0, 0.0, 0.0, 0.0, 0.0, 0.0, 0.0, 0.0, 0.0, 0.0, 1.6959287141846392E9, 0.0, 2023-09-28 14:18:34.184
168.0, 3170.10321260729, 17083.304176724458, 22021.251561790894, 17306.821621277526, 26839.103023898962, -6385.334597269845, -187500.02235174447, 20490.134714857904, 11866.87640748935, -31666.0739977448, -187500.02235174447, 47335.2727097598, 23026.99065530189, -5154.625195816183, 52070.378013894326, 41070.212849403964, 0.10200000000000001, 0.982, 0.254, 192.0, 1.5, 24.0, 15.0, 88.0, 3.5, 120.0, 0.0, 0.0, 0.0, 1.695928714184661E9, 0.0, 2023-09-28 14:18:34.184
170.0, 3429.5175587555837, 17091.127287283813, 22044.49737602441, 17282.167647143324, 26809.956349129243, -6410.45795803761, -187500.02235174447, 20465.234871534693, 11856.795770740006, -31680.423817685107, -187500.02235174447, 47372.77893695581, 23006.181181213997, -5191.952609056546, 52153.4594480347, 41144.55475146231, 0.10200000000000001, 0.982, 0.254, 192.0, 0.0, 0.0, 0.0, 0.0, 0.0, 0.0, 0.0, 0.0, 0.0, 1.6959287141846836E9, 0.0, 2023-09-28 14:18:34.184
172.0, 3219.4335126201527, 17079.973766800616, 22029.678169450544, 17292.89648448187, 26827.077785382007, -6401.427853277666, -187500.02235174447, 20471.582766959997, 11850.738447992617, -31675.37232343821, -187500.02235174447, 47331.38350622458, 23012.0820417502, -5181.9390275405685, 52076.27887443053, 41083.33332339923, 0.10200000000000001, 0.982, 0.254, 192.0, 0.0, 0.0, 0.0, 0.0, 0.0, 0.0, 0.0, 0.0, 0.0, 1.6959287141847064E9, 0.0, 2023-09-28 14:18:34.184
174.0, 3468.2754836410863, 17079.705545867153, 22065.530367556858, 17264.576824256997, 26799.361622257427, -6432.27326062599, -187500.02235174447, 20451.600307416953, 11848.816197969461, -31693.991326569478, -187500.02235174447, 47359.099669349154, 22996.726393309404, -5196.445309692062, 52133.61109895839, 41123.834684352245, 0.10200000000000001, 0.982, 0.254, 192.0, 0.0, 0.0, 0.0, 0.0, 0.0, 0.0, 0.0, 0.0, 0.0, 1.6959287141847289E9, 0.0, 2023-09-28 14:18:34.184
176.0, 3229.3129836693984, 17103.331339756412, 22074.22519614997, 17307.022786977624, 26851.910573471854, -6380.372510000767, -187500.02235174447, 20503.322244086536, 11868.798657512505, -31670.432587913587, -187500.02235174447, 47343.453448230444, 23029.60580940316, -5167.768021555904, 52063.42662136872, 41089.167128702065, 0.10200000000000001, 0.982, 0.254, 192.0, 0.0, 0.0, 0.0, 0.0, 0.0, 0.0, 0.0, 0.0, 0.0, 1.6959287141847544E9, 0.0, 2023-09-28 14:18:34.184
178.0, 3474.0645854550107, 17065.288670693477, 22097.538065616856, 17240.235774545166, 26777.479264435682, -6453.440362625166, -187500.02235174447, 20430.209687973223, 11855.208796883679, -31698.193454527078, -187500.02235174447, 47358.00443387085, 23008.014024259333, -5189.963303800024, 52142.06005836249, 41108.61314637818, 0.106, 0.992, 0.258, 192.0, 1.5, 40.0, 15.5, 0.0, 4.0, 8.0, 0.0, 0.0, 0.0, 1.6959287141847787E9, 0.0, 2023-09-28 14:18:34.184
180.0, 3280.0067400940347, 17102.303159511466, 22080.416629364092, 17287.487362323685, 26841.494660555683, -6391.481326995055, -187500.02235174447, 20489.061831124047, 11839.562575764963, -31695.75711438145, -187500.02235174447, 47336.256186515835, 23004.974187013413, -5196.959399814535, 52075.56361860796, 41090.977620002945, 0.106, 0.992, 0.258, 192.0, 0.0, 0.0, 0.0, 0.0, 0.0, 0.0, 0.0, 0.0, 0.0, 1.6959287141848028E9, 0.0, 2023-09-28 14:18:34.184
182.0, 3445.0073176631117, 17071.033069018493, 22140.34165624877, 17248.88589964937, 26796.187674544773, -6440.632813052275, -187500.02235174447, 20443.911307324328, 11862.92014872076, -31681.78727409688, -187500.02235174447, 47355.36692802512, 23025.35897795665, -5180.21794321751, 52105.49260443361, 41074.92906748403, 0.106, 0.992, 0.258, 192.0, 0.0, 0.0, 0.0, 0.0, 0.0, 0.0, 0.0, 0.0, 0.0, 1.6959287141848269E9, 0.0, 2023-09-28 14:18:34.184
184.0, 3337.7189442776375, 17068.797894572963, 22085.08814395525, 17256.97723114219, 26822.473326024214, -6417.766978474496, -187500.02235174447, 20465.927775612807, 11831.784168694518, -31708.51996046543, -187500.02235174447, 47341.44179122947, 23001.487314878384, -5205.967152830023, 52075.02717674103, 41107.249689966404, 0.106, 0.992, 0.258, 192.0, 0.0, 0.0, 0.0, 0.0, 0.0, 0.0, 0.0, 0.0, 0.0, 1.6959287141848533E9, 0.0, 2023-09-28 14:18:34.184
186.0, 3444.940262429746, 17070.38486842929, 22155.58554596729, 17244.88493739187, 26791.940843098266, -6445.684307299174, -187500.02235174447, 20436.08819676497, 11848.369163080355, -31693.27607074691, -187500.02235174447, 47336.524407449295, 23016.731204596905, -5187.594018887761, 52068.23224642662, 41059.595770787695, 0.106, 0.992, 0.258, 192.0, 0.0, 0.0, 0.0, 0.0, 0.0, 0.0, 0.0, 0.0, 0.0, 1.6959287141848772E9, 0.0, 2023-09-28 14:18:34.184
188.0, 3368.1396684813108, 17082.946548813172, 22108.021033766396, 17273.204597616746, 26820.081689367496, -6406.0993678688255, -187500.02235174447, 20467.939432613784, 11833.549956506486, -31704.13901855219, -187500.02235174447, 47353.91406463552, 23001.487314878384, -5198.389911459674, 52077.642330842296, 41107.89789055561, 0.112, 0.998, 0.262, 192.0, 1.5, 64.0, 15.5, 24.0, 4.0, 24.0, 0.0, 0.0, 0.0, 1.6959287141849043E9, 0.0, 2023-09-28 14:18:34.184
190.0, 3414.363076014886, 17077.783295843994, 22176.842054944285, 17258.161873598325, 26800.613319946926, -6437.168292661702, -187500.02235174447, 20446.973496314706, 11855.454666072686, -31675.729951349495, -187500.02235174447, 47346.537988965276, 23022.855582577657, -5168.125649467189, 52054.26240614205, 41040.75325021187, 0.112, 0.998, 0.262, 192.0, 0.0, 0.0, 0.0, 0.0, 0.0, 0.0, 0.0, 0.0, 0.0, 1.69592871418493E9, 0.0, 2023-09-28 14:18:34.184
192.0, 3407.4340352337404, 17091.283749495, 22125.656560141633, 17275.66328950683, 26828.46359353824, -6411.486138282555, -187500.02235174447, 20462.172682544315, 11837.416808297254, -31697.500550448964, -187500.02235174447, 47375.99758815737, 22998.98391949939, -5194.947742813557, 52090.44988041519, 41127.07568729826, 0.112, 0.998, 0.262, 192.0, 0.0, 0.0, 0.0, 0.0, 0.0, 0.0, 0.0, 0.0, 0.0, 1.6959287141849566E9, 0.0, 2023-09-28 14:18:34.184
194.0, 3383.8976483223023, 17089.495609938574, 22199.082040677316, 17270.053001648546, 26805.44129674927, -6423.198452377135, -187500.02235174447, 20461.166854043826, 11865.11061967738, -31668.1750617236, -187500.02235174447, 47350.94128262297, 23028.22000124693, -5157.106239450722, 52039.24203386808, 41041.624968245625, 0.112, 0.998, 0.262, 192.0, 0.0, 0.0, 0.0, 0.0, 0.0, 0.0, 0.0, 0.0, 0.0, 1.6959287141850083E9, 0.0, 2023-09-28 14:18:34.185
196.0, 3433.2726518240756, 17109.43336599271, 22149.260002286435, 17273.495170294664, 26828.150669115865, -6401.31609455539, -187500.02235174447, 20469.52640647011, 11856.505198062086, -31682.41312294163, -187500.02235174447, 47392.314361609744, 23011.523248138816, -5170.606693101728, 52094.897877561794, 41137.42454498107, 0.112, 0.998, 0.262, 192.0, 0.0, 0.0, 0.0, 0.0, 0.0, 0.0, 0.0, 0.0, 0.0, 1.695928714185038E9, 0.0, 2023-09-28 14:18:34.185
198.0, 3369.5701801264504, 17081.873665079318, 22192.063592918348, 17249.93643163877, 26791.06912506451, -6442.376249119789, -187500.02235174447, 20435.32823745349, 11864.752991766096, -31667.83978555677, -187500.02235174447, 47341.97823309639, 23026.588323901695, -5168.483277378474, 52010.810614920934, 41037.46754377694, 0.11, 0.994, 0.266, 192.0, 1.5, 56.0, 15.5, 8.0, 4.0, 40.0, 0.0, 0.0, 0.0, 1.695928714185067E9, 0.0, 2023-09-28 14:18:34.185
200.0, 3496.796309566058, 17104.113650812345, 22142.710941161033, 17256.440789275264, 26820.618131234423, -6417.543461029943, -187500.02235174447, 20444.76067361363, 11837.081532130425, -31700.808608628347, -187500.02235174447, 47378.545687025275, 22991.853713018147, -5200.915658583124, 52072.90376101778, 41145.53822821835, 0.11, 0.994, 0.266, 192.0, 0.0, 0.0, 0.0, 0.0, 0.0, 0.0, 0.0, 0.0, 0.0, 1.6959287141850953E9, 0.0, 2023-09-28 14:18:34.185
202.0, 3342.8151420134477, 17110.036863093002, 22201.607787800764, 17277.965519185724, 26831.190506361785, -6411.061455137904, -187500.02235174447, 20466.553624457556, 11884.02019548657, -31654.540497605863, -187500.02235174447, 47341.97823309639, 23046.70489391147, -5146.131532923167, 51998.651265937246, 41024.30236629276, 0.11, 0.994, 0.266, 192.0, 0.0, 0.0, 0.0, 0.0, 0.0, 0.0, 0.0, 0.0, 0.0, 1.6959287141851254E9, 0.0, 2023-09-28 14:18:34.185
204.0, 3541.388039754396, 17093.13894428479, 22140.38635973768, 17241.442768745754, 26806.26831129412, -6432.519129814998, -187500.02235174447, 20438.926868310795, 11856.996936440104, -31692.963146324535, -187500.02235174447, 47380.289123092785, 23004.348338168664, -5186.856411320736, 52132.04647684652, 41137.35748974771, 0.11, 0.994, 0.266, 192.0, 0.0, 0.0, 0.0, 0.0, 0.0, 0.0, 0.0, 0.0, 0.0, 1.6959287141851535E9, 0.0, 2023-09-28 14:18:34.185
206.0, 3369.7936975710036, 17081.113705767835, 22175.970336910526, 17250.539928739065, 26813.085593352986, -6427.51233905701, -187500.02235174447, 20452.941412084274, 11865.177674910747, -31684.156559009145, -187500.02235174447, 47306.751883834826, 23020.21807673193, -5174.8982280371465, 52022.21000459314, 41018.893244134575, 0.11, 0.994, 0.266, 192.0, 0.0, 0.0, 0.0, 0.0, 0.0, 0.0, 0.0, 0.0, 0.0, 1.6959287141851864E9, 0.0, 2023-09-28 14:18:34.185
208.0, 3602.6765230508477, 17077.3809644438, 22143.04621732786, 17226.198879027233, 26787.53754944057, -6444.253795654035, -187500.02235174447, 20435.015313031116, 11847.430389813231, -31718.041803603388, -187500.02235174447, 47360.597236227666, 22995.318233408718, -5200.423920205107, 52117.22727027265, 41129.44497221053, 0.116, 0.99, 0.266, 192.0, 1.5, 80.0, 15.0, 120.0, 4.0, 40.0, 0.0, 0.0, 0.0, 1.6959287141852157E9, 0.0, 2023-09-28 14:18:34.185
210.0, 3389.5973431584052, 17075.86104582084, 22165.91205190564, 17256.686658464274, 26812.884427652887, -6416.425873807178, -187500.02235174447, 20462.351496499956, 11854.582948038931, -31698.41697197163, -187500.02235174447, 47298.52644187528, 23007.634044603594, -5182.319007196308, 51988.90590535473, 41027.856293661156, 0.116, 0.99, 0.266, 192.0, 0.0, 0.0, 0.0, 0.0, 0.0, 0.0, 0.0, 0.0, 0.0, 1.6959287141852412E9, 0.0, 2023-09-28 14:18:34.185
212.0, 3624.2906599391295, 17074.966976042626, 22158.893604146673, 17227.204707527722, 26791.292642509063, -6438.375286862289, -187500.02235174447, 20431.528440896087, 11872.173770925257, -31715.828980902315, -187500.02235174447, 47355.00930011384, 23006.89643703657, -5188.555143899339, 52093.04268277201, 41129.221454765975, 0.116, 0.99, 0.266, 192.0, 0.0, 0.0, 0.0, 0.0, 0.0, 0.0, 0.0, 0.0, 0.0, 1.695928714185266E9, 0.0, 2023-09-28 14:18:34.185
214.0, 3378.577933141939, 17055.722124066608, 22171.902319419663, 17260.46410327722, 26819.58995098948, -6406.144071357736, -187500.02235174447, 20467.067714580025, 11871.994956969615, -31696.51707369293, -187500.02235174447, 47301.45452039892, 23019.994559287377, -5167.008062244423, 51978.40058546074, 41033.377174541616, 0.116, 0.99, 0.266, 192.0, 0.0, 0.0, 0.0, 0.0, 0.0, 0.0, 0.0, 0.0, 0.0, 1.6959287141852913E9, 0.0, 2023-09-28 14:18:34.185
216.0, 3619.529738370149, 17029.816452242907, 22185.402773070666, 17238.64880068884, 26806.134200827386, -6432.183853648169, -187500.02235174447, 20442.34668521246, 11863.009555698582, -31740.52765852543, -187500.02235174447, 47350.76246866733, 23012.03733826129, -5169.645568090149, 52069.4392406272, 41119.990184305934, 0.116, 0.99, 0.266, 192.0, 0.0, 0.0, 0.0, 0.0, 0.0, 0.0, 0.0, 0.0, 0.0, 1.69592871418532E9, 0.0, 2023-09-28 14:18:34.185
218.0, 3380.522534909551, 16997.518181504987, 22165.599127483267, 17254.809111930026, 26816.281892810097, -6411.195565604636, -187500.02235174447, 20463.357325000445, 11855.63348002833, -31748.239010362508, -187500.02235174447, 47295.4642528849, 23018.720509853425, -5176.172277471099, 51972.05269003543, 41046.36353807015, 0.108, 0.988, 0.27, 192.0, 1.5, 48.0, 15.0, 112.0, 4.0, 56.0, 0.0, 0.0, 0.0, 1.6959287141853547E9, 0.0, 2023-09-28 14:18:34.185
220.0, 3633.05254376561, 16971.970137592572, 22171.76820895293, 17218.845155101437, 26792.43258147628, -6444.209092165124, -187500.02235174447, 20424.28647569257, 11831.2924303165, -31790.1038277273, -187500.02235174447, 47319.60413689663, 22994.290053163775, -5187.973998543501, 52054.86590324234, 41100.27594569635, 0.108, 0.988, 0.27, 192.0, 0.0, 0.0, 0.0, 0.0, 0.0, 0.0, 0.0, 0.0, 0.0, 1.6959287141853797E9, 0.0, 2023-09-28 14:18:34.185
222.0, 3383.070633777456, 16973.043021326426, 22151.76339766543, 17268.577786514496, 26832.397500562372, -6389.715539183086, -187500.02235174447, 20482.736287443196, 11826.084473858415, -31778.637382821726, -187500.02235174447, 47277.69461604293, 23002.493143378873, -5176.239332704465, 51979.831097105875, 41043.90484618006, 0.108, 0.988, 0.27, 192.0, 0.0, 0.0, 0.0, 0.0, 0.0, 0.0, 0.0, 0.0, 0.0, 1.6959287141854053E9, 0.0, 2023-09-28 14:18:34.185
224.0, 3597.669732292859, 16951.428884438144, 22192.95766269656, 17236.190108798757, 26807.654119450348, -6426.908841956716, -187500.02235174447, 20448.314600982023, 11846.871596201849, -31758.878440723234, -187500.02235174447, 47319.067695029706, 23016.261817963343, -5157.128591195177, 52058.73275503311, 41083.95917224397, 0.108, 0.988, 0.27, 192.0, 0.0, 0.0, 0.0, 0.0, 0.0, 0.0, 0.0, 0.0, 0.0, 1.6959287141854303E9, 0.0, 2023-09-28 14:18:34.185
226.0, 3400.1026630523997, 16945.997410535503, 22141.034560326883, 17256.03845787507, 26832.50925928465, -6393.470632251577, -187500.02235174447, 20475.091990839483, 11826.822081425438, -31769.13789142822, -187500.02235174447, 47284.64600856853, 23009.958626026946, -5156.122762694688, 52006.139100329776, 41079.35471288618, 0.108, 0.988, 0.27, 192.0, 0.0, 0.0, 0.0, 0.0, 0.0, 0.0, 0.0, 0.0, 0.0, 1.695928714185457E9, 0.0, 2023-09-28 14:18:34.185
228.0, 3611.930145255345, 16923.243334680003, 22178.876063689717, 17219.73922487965, 26778.06040979152, -6441.683345041674, -187500.02235174447, 20433.115414752414, 11816.29440978699, -31773.541185085916, -187500.02235174447, 47293.31848541719, 22994.513570608327, -5156.547445839339, 52039.86788271283, 41085.032055977834, 0.11, 0.986, 0.274, 192.0, 1.5, 56.0, 15.0, 104.0, 4.0, 72.0, 0.0, 0.0, 0.0, 1.6959287141854808E9, 0.0, 2023-09-28 14:18:34.185
230.0, 3452.025765422078, 16954.714590873074, 22125.47774618599, 17267.08021963599, 26823.233285335697, -6385.401652503211, -187500.02235174447, 20476.164874573336, 11790.254627496557, -31769.96490597307, -187500.02235174447, 47282.81316552319, 22976.520416321804, -5164.437611632063, 52007.68137069719, 41099.09130324022, 0.11, 0.986, 0.274, 192.0, 0.0, 0.0, 0.0, 0.0, 0.0, 0.0, 0.0, 0.0, 0.0, 1.6959287141855044E9, 0.0, 2023-09-28 14:18:34.185
232.0, 3571.607598257971, 16974.853512627305, 22211.151982683183, 17270.52238828211, 26807.609415961437, -6400.913763155194, -187500.02235174447, 20475.069639095025, 11834.53343326252, -31715.04666984638, -187500.02235174447, 47305.96957277889, 23012.976111528413, -5112.827433684759, 52021.15947260374, 41066.23423889092, 0.11, 0.986, 0.274, 192.0, 0.0, 0.0, 0.0, 0.0, 0.0, 0.0, 0.0, 0.0, 0.0, 1.6959287141855292E9, 0.0, 2023-09-28 14:18:34.185
234.0, 3470.2647888976085, 16990.99147212404, 22150.19877555356, 17282.793495988073, 26837.359587831448, -6368.682547650641, -187500.02235174447, 20494.62741549342, 11812.71813067414, -31717.818286158836, -187500.02235174447, 47325.214424754915, 22994.111239208134, -5126.305535591309, 52040.91841470223, 41130.47315245547, 0.11, 0.986, 0.274, 192.0, 0.0, 0.0, 0.0, 0.0, 0.0, 0.0, 0.0, 0.0, 0.0, 1.6959287141855552E9, 0.0, 2023-09-28 14:18:34.185
236.0, 3555.5143422501496, 16979.30150977391, 22216.426994374633, 17262.18518760028, 26806.40242176085, -6409.452129537121, -187500.02235174447, 20456.85296736395, 11829.43723552671, -31679.485044417987, -187500.02235174447, 47316.541947906255, 23008.103431237156, -5110.927535406057, 52031.95536517565, 41082.439253621014, 0.11, 0.986, 0.274, 192.0, 0.0, 0.0, 0.0, 0.0, 0.0, 0.0, 0.0, 0.0, 0.0, 1.6959287141855805E9, 0.0, 2023-09-28 14:18:34.185
238.0, 3498.0703590000107, 17032.69982727764, 22157.15016807916, 17298.70793804025, 26856.22446015173, -6351.315242208868, -187500.02235174447, 20498.717784728742, 11805.00677883706, -31682.12255026371, -187500.02235174447, 47340.61477668462, 22989.01504147232, -5118.460073287496, 52061.079688200916, 41154.90360914512, 0.10400000000000001, 0.978, 0.278, 192.0, 1.5, 32.0, 15.0, 72.0, 4.0, 88.0, 0.0, 0.0, 0.0, 1.6959287141856096E9, 0.0, 2023-09-28 14:18:34.185
240.0, 3513.8730423299126, 17035.94083022366, 22226.82055554635, 17287.397955345867, 26821.512201012636, -6388.776765915963, -187500.02235174447, 20482.915101398838, 11852.079552659936, -31613.368584319185, -187500.02235174447, 47338.8713406171, 23032.489184437894, -5069.599159908194, 52016.80088243495, 41080.204079175484, 0.10400000000000001, 0.978, 0.278, 192.0, 0.0, 0.0, 0.0, 0.0, 0.0, 0.0, 0.0, 0.0, 0.0, 1.6959287146639829E9, 0.0, 2023-09-28 14:18:34.663
242.0, 3561.594016741993, 17045.574432083897, 22141.503946960445, 17284.1793041443, 26819.522895756116, -6382.361815257289, -187500.02235174447, 20480.14348508638, 11805.856145126361, -31654.920477261603, -187500.02235174447, 47367.52627700881, 22981.21428265742, -5118.974163409968, 52062.957234735164, 41180.943391435554, 0.10400000000000001, 0.978, 0.278, 192.0, 0.0, 0.0, 0.0, 0.0, 0.0, 0.0, 0.0, 0.0, 0.0, 1.6959287146640136E9, 0.0, 2023-09-28 14:18:34.664
244.0, 3504.9993997811557, 17058.270222934512, 22203.06065119036, 17284.581635544495, 26811.319805541018, -6396.354007286312, -187500.02235174447, 20469.86168263694, 11832.834700683916, -31607.266558082887, -187500.02235174447, 47330.55649167973, 23009.690405093483, -5092.643808441617, 52002.29460028346, 41075.77843377333, 0.10400000000000001, 0.978, 0.278, 192.0, 0.0, 0.0, 0.0, 0.0, 0.0, 0.0, 0.0, 0.0, 0.0, 1.6959287146640322E9, 0.0, 2023-09-28 14:18:34.664
246.0, 3582.1576216408757, 17083.4829906801, 22155.563194222832, 17297.05390895056, 26837.87367795392, -6364.681585393141, -187500.02235174447, 20492.90633117036, 11816.428520253721, -31621.772840234382, -187500.02235174447, 47380.80321321526, 22987.316308893718, -5105.5184132478735, 52092.99797928309, 41186.84425197176, 0.10400000000000001, 0.978, 0.278, 192.0, 0.0, 0.0, 0.0, 0.0, 0.0, 0.0, 0.0, 0.0, 0.0, 1.69592871466405E9, 0.0, 2023-09-28 14:18:34.664
248.0, 3457.412535835807, 17094.36829022983, 22222.484317122024, 17316.47757488222, 26835.057358152553, -6361.284120235935, -187500.02235174447, 20501.042366152094, 11857.846302729406, -31567.72632214145, -187500.02235174447, 47358.09384084867, 23032.198611759977, -5059.183246992022, 52008.53073698649, 41088.742445557415, 0.112, 0.982, 0.28200000000000003, 192.0, 1.5, 64.0, 15.0, 88.0, 4.0, 104.0, 0.0, 0.0, 0.0, 1.6959287146640682E9, 0.0, 2023-09-28 14:18:34.664
250.0, 3624.402418661406, 17079.884359822794, 22149.975258109007, 17282.301757610054, 26813.040889864074, -6384.284065280445, -187500.02235174447, 20470.420476248324, 11817.568459220942, -31613.34623257473, -187500.02235174447, 47404.02667570433, 22984.142361181064, -5108.558250493795, 52096.998941540594, 41216.527368608404, 0.112, 0.982, 0.28200000000000003, 192.0, 0.0, 0.0, 0.0, 0.0, 0.0, 0.0, 0.0, 0.0, 0.0, 1.6959287146640863E9, 0.0, 2023-09-28 14:18:34.664
252.0, 3457.189018391254, 17092.5354471845, 22203.306520379367, 17305.189943932288, 26822.719195213223, -6370.224818018058, -187500.02235174447, 20492.34753755898, 11845.374029323344, -31572.509595454885, -187500.02235174447, 47349.93545412248, 23015.144230740578, -5069.196828507999, 51989.01766407701, 41088.2954106683, 0.112, 0.982, 0.28200000000000003, 192.0, 0.0, 0.0, 0.0, 0.0, 0.0, 0.0, 0.0, 0.0, 0.0, 1.6959287146641052E9, 0.0, 2023-09-28 14:18:34.664
254.0, 3659.7405266452465, 17090.568493672432, 22148.72356041951, 17277.049097663057, 26804.703689182246, -6382.78649840194, -187500.02235174447, 20473.840293149984, 11823.67048545724, -31594.68252595455, -187500.02235174447, 47404.11608268214, 22978.800294256245, -5100.533974234339, 52082.805583811474, 41202.11049343473, 0.112, 0.982, 0.28200000000000003, 192.0, 0.0, 0.0, 0.0, 0.0, 0.0, 0.0, 0.0, 0.0, 0.0, 1.6959287146641226E9, 0.0, 2023-09-28 14:18:34.664
0.0, 3444.15795137381, 17097.92221759823, 22191.415392329145, 17305.122888698923, 26837.292532598083, -6360.993547558016, -187500.02235174447, 20504.19396212029, 11849.91143344777, -31554.784662101825, -187500.02235174447, 47347.83439014368, 23017.960550541946, -5065.598197650695, 51964.07311726488, 41084.115634455164, 0.112, 0.982, 0.28200000000000003, 192.0, 0.0, 0.0, 0.0, 0.0, 0.0, 0.0, 0.0, 0.0, 0.0, 1.6959287146641407E9, 0.0, 2023-09-28 14:18:34.664
2.0, 3687.9037246589337, 17095.262360008044, 22163.833339671295, 17275.84210346247, 26812.280930552595, -6389.223800805069, -187500.02235174447, 20468.788798903086, 11823.782244179518, -31596.649479466618, -187500.02235174447, 47395.30949536675, 22979.135570423077, -5099.617552711672, 52085.30897919047, 41197.371923610204, 0.11, 0.982, 0.28, 192.0, 1.5, 56.0, 15.0, 88.0, 4.0, 96.0, 0.0, 0.0, 0.0, 1.695928714664158E9, 0.0, 2023-09-28 14:18:34.664
4.0, 3466.6214545513935, 17087.551008170965, 22174.785694454396, 17288.493190824174, 26807.855285150443, -6383.524105968965, -187500.02235174447, 20488.704203212765, 11843.652945000285, -31562.786586616825, -187500.02235174447, 47350.158971567034, 23007.187009714486, -5071.230837253433, 51987.944780343154, 41090.24001243592, 0.11, 0.982, 0.28, 192.0, 0.0, 0.0, 0.0, 0.0, 0.0, 0.0, 0.0, 0.0, 0.0, 1.6959287146641772E9, 0.0, 2023-09-28 14:18:34.664
6.0, 3703.795814966657, 17106.125307813323, 22176.30561307736, 17285.31924311152, 26814.359642786938, -6385.669873436675, -187500.02235174447, 20475.606080961952, 11817.702569687674, -31595.06250561029, -187500.02235174447, 47394.12485291062, 22971.0218871858, -5103.953791136002, 52069.6404063273, 41178.59645826775, 0.11, 0.982, 0.28, 192.0, 0.0, 0.0, 0.0, 0.0, 0.0, 0.0, 0.0, 0.0, 0.0, 1.6959287146641943E9, 0.0, 2023-09-28 14:18:34.664
8.0, 3457.032556180067, 17110.305084026466, 22183.122895136225, 17322.266676696145, 26848.26723912564, -6350.108248008281, -187500.02235174447, 20507.3902615774, 11847.609203768874, -31562.20544126099, -187500.02235174447, 47358.78674492678, 23014.831306318203, -5067.073412784745, 51990.314065255414, 41094.106864226684, 0.11, 0.982, 0.28, 192.0, 0.0, 0.0, 0.0, 0.0, 0.0, 0.0, 0.0, 0.0, 0.0, 1.695928714664214E9, 0.0, 2023-09-28 14:18:34.664
10.0, 3714.8375767275784, 17110.506249726564, 22197.20449414307, 17288.940225713282, 26814.69491895377, -6381.020710589971, -187500.02235174447, 20477.953014129762, 11851.565462537465, -31559.500880181895, -187500.02235174447, 47416.96833574395, 23010.22684696041, -5069.822677352748, 52098.85413633039, 41168.068786629294, 0.11, 0.982, 0.28, 192.0, 0.0, 0.0, 0.0, 0.0, 0.0, 0.0, 0.0, 0.0, 0.0, 1.6959287146642303E9, 0.0, 2023-09-28 14:18:34.664
12.0, 3494.73994907617, 17100.224447277124, 22162.939269893082, 17300.116097940936, 26829.603532505458, -6369.956597084594, -187500.02235174447, 20485.843179922485, 11836.567442007952, -31567.77102563036, -187500.02235174447, 47367.25805607534, 23003.65543409055, -5069.465049441463, 52014.56570798942, 41113.79875109181, 0.106, 0.978, 0.276, 192.0, 1.5, 40.0, 15.0, 72.0, 4.0, 80.0, 0.0, 0.0, 0.0, 1.6959287146642516E9, 0.0, 2023-09-28 14:18:34.664
14.0, 3737.390486882983, 17101.14086879979, 22185.82745621532, 17279.55249304205, 26800.143933313364, -6401.293742810934, -187500.02235174447, 20461.81505463303, 11829.079607615426, -31587.06058109529, -187500.02235174447, 47389.27452436382, 22984.45528560344, -5092.040311341323, 52088.7958513255, 41153.98718762245, 0.106, 0.978, 0.276, 192.0, 0.0, 0.0, 0.0, 0.0, 0.0, 0.0, 0.0, 0.0, 0.0, 1.6959287146642685E9, 0.0, 2023-09-28 14:18:34.664
16.0, 3528.2005105257645, 17107.041729335993, 22156.52431923441, 17306.821621277526, 26837.27018085363, -6369.017823817471, -187500.02235174447, 20494.135677115402, 11837.908546675271, -31565.178223273546, -187500.02235174447, 47366.65455897505, 23001.867294534124, -5079.657444913083, 52021.11476911483, 41121.599509906715, 0.106, 0.978, 0.276, 192.0, 0.0, 0.0, 0.0, 0.0, 0.0, 0.0, 0.0, 0.0, 0.0, 1.6959287146642857E9, 0.0, 2023-09-28 14:18:34.664
18.0, 3767.721804108835, 17097.698700153673, 22190.34250859529, 17266.968460913715, 26787.96223258522, -6414.593030761842, -187500.02235174447, 20450.438016705277, 11826.218584325146, -31581.785569403837, -187500.02235174447, 47382.725463238414, 22983.74002978087, -5091.459165985485, 52068.32165340443, 41145.53822821835, 0.106, 0.978, 0.276, 192.0, 0.0, 0.0, 0.0, 0.0, 0.0, 0.0, 0.0, 0.0, 0.0, 1.6959287146643023E9, 0.0, 2023-09-28 14:18:34.664
20.0, 3599.1672991713644, 17106.170011302234, 22151.070493587315, 17293.544685071076, 26826.1837156038, -6378.137335555236, -187500.02235174447, 20478.310642041048, 11826.397398280787, -31578.34340075772, -187500.02235174447, 47366.98983514188, 22989.46207636143, -5089.983950851435, 52023.886385427286, 41141.179638049565, 0.106, 0.978, 0.276, 192.0, 0.0, 0.0, 0.0, 0.0, 0.0, 0.0, 0.0, 0.0, 0.0, 1.6959287146643207E9, 0.0, 2023-09-28 14:18:34.664
22.0, 3774.3155687231506, 17097.028147820016, 22205.318177380344, 17274.769219728616, 26794.623052432904, -6413.922478428183, -187500.02235174447, 20460.317487754524, 11839.450817042687, -31561.91486858307, -187500.02235174447, 47374.16474511204, 22997.285186920784, -5091.190945052022, 52034.078780898904, 41120.817198850775, 0.106, 0.98, 0.276, 192.0, 1.5, 40.0, 15.0, 80.0, 4.0, 80.0, 0.0, 0.0, 0.0, 1.695928714664338E9, 0.0, 2023-09-28 14:18:34.664
24.0, 3653.146762030931, 17113.72490092813, 22148.4776912305, 17299.356138629453, 26830.139974372385, -6373.979911086549, -187500.02235174447, 20482.02103162063, 11823.67048545724, -31568.44157796402, -187500.02235174447, 47373.784765456294, 22984.857617003636, -5096.0636253432785, 52028.24497559607, 41144.0630130843, 0.106, 0.98, 0.276, 192.0, 0.0, 0.0, 0.0, 0.0, 0.0, 0.0, 0.0, 0.0, 0.0, 1.6959287146643648E9, 0.0, 2023-09-28 14:18:34.664
26.0, 3764.681966862913, 17108.20402004767, 22219.891514765208, 17284.201655888755, 26806.44712524976, -6407.999266147526, -187500.02235174447, 20467.268880280124, 11853.308898604977, -31562.473662194454, -187500.02235174447, 47380.937323681996, 23013.624312117616, -5071.655520398083, 52038.01268792304, 41090.50823336938, 0.106, 0.98, 0.276, 192.0, 0.0, 0.0, 0.0, 0.0, 0.0, 0.0, 0.0, 0.0, 0.0, 1.6959287146643825E9, 0.0, 2023-09-28 14:18:34.664
28.0, 3706.9697626793104, 17111.10974682686, 22147.695380174566, 17292.158876914844, 26824.9320179143, -6378.4055564887, -187500.02235174447, 20491.744040458685, 11824.564555235453, -31588.178168318056, -187500.02235174447, 47387.44168131849, 22985.461114103928, -5098.835241655736, 52067.986377237605, 41152.914303888596, 0.106, 0.98, 0.276, 192.0, 0.0, 0.0, 0.0, 0.0, 0.0, 0.0, 0.0, 0.0, 0.0, 1.6959287146644008E9, 0.0, 2023-09-28 14:18:34.664
30.0, 3757.3729464260277, 17118.99991261958, 22227.69227358011, 17295.80221126106, 26822.65213997986, -6392.353045028812, -187500.02235174447, 20474.44379025028, 11850.067895658958, -31554.941124313013, -187500.02235174447, 47374.29885557877, 23010.74093708288, -5075.902351844591, 52034.39170532128, 41092.00580024788, 0.106, 0.98, 0.276, 192.0, 0.0, 0.0, 0.0, 0.0, 0.0, 0.0, 0.0, 0.0, 0.0, 1.6959287146644177E9, 0.0, 2023-09-28 14:18:34.664
32.0, 3747.0687922321313, 17144.883232698827, 22177.892586933685, 17318.645694094383, 26839.661817510347, -6354.73505911053, -187500.02235174447, 20497.220217850234, 11844.412904311766, -31557.712740625473, -187500.02235174447, 47424.36676315866, 23000.32502416671, -5070.0014913083905, 52070.19919993868, 41177.523574533894, 0.10400000000000001, 0.988, 0.268, 192.0, 1.5, 32.0, 15.0, 112.0, 4.0, 48.0, 0.0, 0.0, 0.0, 1.6959287146644373E9, 0.0, 2023-09-28 14:18:34.664
34.0, 3750.4886091337935, 17131.092206369904, 22231.804994559883, 17303.46885960923, 26790.890311108866, -6388.7320624270515, -187500.02235174447, 20458.70816215374, 11872.799619770005, -31507.577777812217, -187500.02235174447, 47402.55146057028, 23016.194762729974, -5046.375697419131, 52006.72024568561, 41094.688009582525, 0.10400000000000001, 0.988, 0.268, 192.0, 0.0, 0.0, 0.0, 0.0, 0.0, 0.0, 0.0, 0.0, 0.0, 1.695928714664454E9, 0.0, 2023-09-28 14:18:34.664
36.0, 3792.6663509209575, 17158.048410183004, 22177.57966251131, 17319.159784216856, 26828.061262138042, -6356.813771344873, -187500.02235174447, 20485.507903755653, 11842.021267655047, -31547.073310264746, -187500.02235174447, 47438.42601042104, 22986.064611204223, -5068.839200596714, 52054.508275331056, 41187.89478396116, 0.10400000000000001, 0.988, 0.268, 192.0, 0.0, 0.0, 0.0, 0.0, 0.0, 0.0, 0.0, 0.0, 0.0, 1.69592871466447E9, 0.0, 2023-09-28 14:18:34.664
38.0, 3715.7092947613355, 17129.371122046843, 22241.46094816458, 17299.75847002965, 26808.749354928656, -6396.957504386605, -187500.02235174447, 20460.518653454623, 11878.611073328386, -31512.38340287011, -187500.02235174447, 47402.64086754809, 23031.818632104234, -5031.131807700612, 51999.210059548626, 41087.17782344554, 0.10400000000000001, 0.988, 0.268, 192.0, 0.0, 0.0, 0.0, 0.0, 0.0, 0.0, 0.0, 0.0, 0.0, 1.695928714664486E9, 0.0, 2023-09-28 14:18:34.664
40.0, 3844.4776945683593, 17132.925049415237, 22176.171502610625, 17286.54858905656, 26818.49471551117, -6392.755376429007, -187500.02235174447, 20457.881147608896, 11833.214680339657, -31576.376447245653, -187500.02235174447, 47425.77492305934, 22978.509721578328, -5100.288105045332, 52081.93386577772, 41190.934621207074, 0.10400000000000001, 0.988, 0.268, 192.0, 0.0, 0.0, 0.0, 0.0, 0.0, 0.0, 0.0, 0.0, 0.0, 1.6959287146645029E9, 0.0, 2023-09-28 14:18:34.664
42.0, 3712.8035679821455, 17124.00670337757, 22234.420148661156, 17295.981025216704, 26823.30034056906, -6396.309303797401, -187500.02235174447, 20469.079371581003, 11871.413811613776, -31533.192876958, -187500.02235174447, 47383.12779463861, 23027.057710535253, -5055.629319623628, 51985.86606810881, 41076.426634362535, 0.106, 0.992, 0.262, 192.0, 1.5, 40.0, 15.5, 0.0, 4.0, 24.0, 0.0, 0.0, 0.0, 1.6959287146645195E9, 0.0, 2023-09-28 14:18:34.664
44.0, 3890.4105294240153, 17127.739444701605, 22172.43876128659, 17282.167647143324, 26817.7794596886, -6396.152841586214, -187500.02235174447, 20452.784949873087, 11834.555785006974, -31577.896365868615, -187500.02235174447, 47425.886681781616, 22982.08600069118, -5111.978067395457, 52085.06311000146, 41194.95793520903, 0.106, 0.992, 0.262, 192.0, 0.0, 0.0, 0.0, 0.0, 0.0, 0.0, 0.0, 0.0, 0.0, 1.6959287146645355E9, 0.0, 2023-09-28 14:18:34.664
46.0, 3703.438187055372, 17136.568383761452, 22228.653398591687, 17308.118022455936, 26833.626846507414, -6381.043062334426, -187500.02235174447, 20487.787781690095, 11871.749087780607, -31528.275493177833, -187500.02235174447, 47384.40184407256, 23030.723396625926, -5052.723592844438, 51973.77377435849, 41077.87949775213, 0.106, 0.992, 0.262, 192.0, 0.0, 0.0, 0.0, 0.0, 0.0, 0.0, 0.0, 0.0, 0.0, 1.6959287146645532E9, 0.0, 2023-09-28 14:18:34.664
48.0, 3930.0848758321854, 17117.77056667454, 22186.81093297135, 17279.55249304205, 26818.49471551117, -6401.651370722219, -187500.02235174447, 20456.38358073039, 11835.62866874083, -31574.81182513378, -187500.02235174447, 47431.116989984155, 22988.45624786094, -5101.428044012552, 52079.09519423189, 41196.321391620804, 0.106, 0.992, 0.262, 192.0, 0.0, 0.0, 0.0, 0.0, 0.0, 0.0, 0.0, 0.0, 0.0, 1.6959287146645691E9, 0.0, 2023-09-28 14:18:34.664
50.0, 3715.508129061238, 17112.49555498309, 22214.616503073754, 17291.488324581187, 26831.771651717623, -6391.235457806046, -187500.02235174447, 20468.945261114273, 11861.891968475815, -31540.747766583892, -187500.02235174447, 47378.970370169925, 23025.001350045368, -5066.156991262078, 51966.2635882215, 41076.694855296, 0.106, 0.992, 0.262, 192.0, 0.0, 0.0, 0.0, 0.0, 0.0, 0.0, 0.0, 0.0, 0.0, 1.6959287146645846E9, 0.0, 2023-09-28 14:18:34.664
52.0, 3968.3957658285817, 17115.557743973462, 22189.91782545064, 17262.49811202265, 26801.50738972514, -6410.435606293155, -187500.02235174447, 20446.90644108134, 11832.857052428371, -31573.24720302191, -187500.02235174447, 47428.50183588289, 22984.388230370074, -5104.91491614758, 52071.16032495026, 41168.73933896296, 0.108, 0.99, 0.27, 192.0, 1.5, 48.0, 15.0, 120.0, 4.0, 56.0, 0.0, 0.0, 0.0, 1.6959287146646E9, 0.0, 2023-09-28 14:18:34.664
54.0, 3709.2496406137516, 17130.801633691983, 22214.54944784039, 17304.51939159863, 26849.049550181575, -6367.766126127974, -187500.02235174447, 20496.549665516577, 11851.431352070733, -31543.318217196254, -187500.02235174447, 47378.81390795874, 23014.56308538474, -5062.804229593781, 51947.57752985687, 41063.66378827856, 0.108, 0.99, 0.27, 192.0, 0.0, 0.0, 0.0, 0.0, 0.0, 0.0, 0.0, 0.0, 0.0, 1.695928714664616E9, 0.0, 2023-09-28 14:18:34.664
56.0, 3971.5026583078693, 17123.15733708827, 22213.767136784452, 17266.208501602236, 26811.11863984092, -6403.059530622903, -187500.02235174447, 20454.19310977377, 11844.3458490784, -31556.081063280235, -187500.02235174447, 47434.6485656081, 23002.202570700952, -5077.310511745276, 52073.39549939579, 41157.27289405738, 0.108, 0.99, 0.27, 192.0, 0.0, 0.0, 0.0, 0.0, 0.0, 0.0, 0.0, 0.0, 0.0, 1.695928714664632E9, 0.0, 2023-09-28 14:18:34.664
58.0, 3719.598498296559, 17134.087340126913, 22204.312348879856, 17303.84883926497, 26847.999018192175, -6366.939111583128, -187500.02235174447, 20489.642976479885, 11850.984317181626, -31536.411528159566, -187500.02235174447, 47391.2861813648, 23017.64762611957, -5060.636110381617, 51978.33353022737, 41077.52186984085, 0.108, 0.99, 0.27, 192.0, 0.0, 0.0, 0.0, 0.0, 0.0, 0.0, 0.0, 0.0, 0.0, 1.6959287146646492E9, 0.0, 2023-09-28 14:18:34.664
60.0, 3979.8175072452436, 17120.76570043155, 22218.282189164423, 17271.908196438337, 26807.967043872723, -6403.730082956563, -187500.02235174447, 20455.802435374553, 11848.950308436193, -31549.57670564374, -187500.02235174447, 47431.83224580673, 23002.64960559006, -5074.67300589955, 52075.40715639677, 41140.531437460355, 0.108, 0.99, 0.27, 192.0, 0.0, 0.0, 0.0, 0.0, 0.0, 0.0, 0.0, 0.0, 0.0, 1.6959287146646652E9, 0.0, 2023-09-28 14:18:34.664
62.0, 3736.40701012695, 17137.77537796204, 22195.01402318645, 17314.108289969958, 26850.614172293448, -6360.099477779803, -187500.02235174447, 20496.95199691677, 11854.337078849921, -31526.889685021604, -187500.02235174447, 47403.40082685958, 23020.665111621038, -5061.708994115472, 51997.08664382537, 41089.68121882453, 0.114, 0.986, 0.272, 192.0, 1.5, 72.0, 15.0, 104.0, 4.0, 64.0, 0.0, 0.0, 0.0, 1.6959287146646817E9, 0.0, 2023-09-28 14:18:34.664
64.0, 3987.9535422269755, 17119.558706230964, 22218.662168820163, 17266.119094624413, 26797.551130956548, -6411.575545260375, -187500.02235174447, 20444.80537710254, 11843.071799644447, -31543.228810218432, -187500.02235174447, 47427.18308296002, 23000.45913463344, -5067.341633718209, 52081.59858961089, 41129.15439953261, 0.114, 0.986, 0.272, 192.0, 0.0, 0.0, 0.0, 0.0, 0.0, 0.0, 0.0, 0.0, 0.0, 1.6959287146646976E9, 0.0, 2023-09-28 14:18:34.664
66.0, 3800.042426591209, 17127.650037723786, 22170.76238045244, 17289.09668792447, 26825.647273736868, -6380.2160477895795, -187500.02235174447, 20479.53998798609, 11830.241898327102, -31545.553391641784, -187500.02235174447, 47396.62824828962, 22993.686556063483, -5082.071433314256, 52012.44229226617, 41111.742390601925, 0.114, 0.986, 0.272, 192.0, 0.0, 0.0, 0.0, 0.0, 0.0, 0.0, 0.0, 0.0, 0.0, 1.6959287146647136E9, 0.0, 2023-09-28 14:18:34.664
68.0, 4004.1809087015286, 17118.597581219386, 22222.55137235539, 17265.4261905463, 26790.73384889768, -6415.442397051143, -187500.02235174447, 20439.083330521982, 11839.696686231695, -31543.698196851994, -187500.02235174447, 47415.53782409881, 22995.20647468644, -5072.504886687385, 52038.01268792304, 41118.76083836089, 0.114, 0.986, 0.272, 192.0, 0.0, 0.0, 0.0, 0.0, 0.0, 0.0, 0.0, 0.0, 0.0, 1.695928714664729E9, 0.0, 2023-09-28 14:18:34.664
70.0, 3833.011249662787, 17128.96879064665, 22177.512607277946, 17306.173420688323, 26833.69390174078, -6369.64367266222, -187500.02235174447, 20484.81499967754, 11838.892023431305, -31537.52911538233, -187500.02235174447, 47413.12383569763, 23000.012099744334, -5064.815886594759, 51997.75719615903, 41127.70153614301, 0.114, 0.986, 0.272, 192.0, 0.0, 0.0, 0.0, 0.0, 0.0, 0.0, 0.0, 0.0, 0.0, 1.6959287146647463E9, 0.0, 2023-09-28 14:18:34.664
72.0, 3986.6571410485676, 17132.29920057049, 22250.893384324718, 17283.240530877178, 26811.319805541018, -6405.898202168728, -187500.02235174447, 20456.54004294158, 11858.338041107421, -31523.358109397665, -187500.02235174447, 47419.181158445026, 23016.37357668562, -5053.192979478, 52030.63661225279, 41118.023230793864, 0.122, 0.994, 0.268, 192.0, 1.5, 104.0, 15.5, 8.0, 4.0, 48.0, 0.0, 0.0, 0.0, 1.6959287146647615E9, 0.0, 2023-09-28 14:18:34.664
74.0, 3866.270645412284, 17152.795750236004, 22206.748689025484, 17323.9877610192, 26856.895012485387, -6356.634957389231, -187500.02235174447, 20504.909217942863, 11852.325421848944, -31521.48056286342, -187500.02235174447, 47434.87208305265, 23014.74189934038, -5043.0005840063795, 52032.7823797205, 41159.262199313904, 0.122, 0.994, 0.268, 192.0, 0.0, 0.0, 0.0, 0.0, 0.0, 0.0, 0.0, 0.0, 0.0, 1.695928714664778E9, 0.0, 2023-09-28 14:18:34.664
76.0, 3960.9973384138752, 17143.072741397948, 22272.842797379828, 17294.908141482847, 26818.74058470018, -6395.839917163839, -187500.02235174447, 20463.96082210074, 11877.001747727603, -31494.814931728237, -187500.02235174447, 47431.51932138435, 23038.479451951916, -5026.214423920444, 52040.20315887966, 41109.574271389756, 0.122, 0.994, 0.268, 192.0, 0.0, 0.0, 0.0, 0.0, 0.0, 0.0, 0.0, 0.0, 0.0, 1.6959287146647935E9, 0.0, 2023-09-28 14:18:34.664
78.0, 3918.2160995264176, 17150.381761834833, 22208.693290793097, 17318.444528394288, 26844.713311757245, -6366.8944080942165, -187500.02235174447, 20489.86649392444, 11844.859939200871, -31532.96935951345, -187500.02235174447, 47438.895397054606, 23007.477582392406, -5060.233778981421, 52060.87852250082, 41176.76361522241, 0.122, 0.994, 0.268, 192.0, 0.0, 0.0, 0.0, 0.0, 0.0, 0.0, 0.0, 0.0, 0.0, 1.6959287146648092E9, 0.0, 2023-09-28 14:18:34.664
80.0, 3959.7009372354673, 17129.594639491395, 22277.737829415542, 17297.389185117387, 26809.93399738479, -6408.043969636437, -187500.02235174447, 20454.61779291842, 11867.658718545285, -31522.754612297373, -187500.02235174447, 47415.20254793198, 23032.51153618235, -5035.624508336128, 52014.45394926715, 41106.73559984393, 0.122, 0.994, 0.268, 192.0, 0.0, 0.0, 0.0, 0.0, 0.0, 0.0, 0.0, 0.0, 0.0, 1.6959287146648247E9, 0.0, 2023-09-28 14:18:34.664
82.0, 3990.4345858615147, 17142.29043034201, 22208.87210474874, 17305.972254988224, 26828.798869705068, -6386.340425770334, -187500.02235174447, 20469.66051693684, 11839.182596109224, -31549.688464366016, -187500.02235174447, 47445.645623880104, 23001.84494278967, -5060.412592937064, 52048.67447002822, 41203.16102542413, 0.112, 1.002, 0.26, 192.0, 1.5, 64.0, 15.5, 40.0, 4.0, 16.0, 0.0, 0.0, 0.0, 1.6959287146648424E9, 0.0, 2023-09-28 14:18:34.664
84.0, 3947.8321609296995, 17141.53047103053, 22286.32089928638, 17307.76039454465, 26831.54813427307, -6400.198507332624, -187500.02235174447, 20464.05022907856, 11872.084363947435, -31505.320251622234, -187500.02235174447, 47419.20351018948, 23039.485280452405, -5025.812092520248, 51977.327701726885, 41106.42267542156, 0.112, 1.002, 0.26, 192.0, 0.0, 0.0, 0.0, 0.0, 0.0, 0.0, 0.0, 0.0, 0.0, 1.6959287146648588E9, 0.0, 2023-09-28 14:18:34.664
86.0, 4023.895147311109, 17173.247596412613, 22231.15679397068, 17319.629170850418, 26850.435358337803, -6372.839972119328, -187500.02235174447, 20479.33882228599, 11856.907529462282, -31529.68365307852, -187500.02235174447, 47454.36280421768, 23017.871143564123, -5045.9957177633905, 52061.01263296755, 41206.64789755916, 0.112, 1.002, 0.26, 192.0, 0.0, 0.0, 0.0, 0.0, 0.0, 0.0, 0.0, 0.0, 0.0, 1.6959287146648746E9, 0.0, 2023-09-28 14:18:34.664
88.0, 3934.39876251206, 17143.58683152042, 22295.79803893543, 17319.182135961313, 26836.577276775515, -6389.73789092754, -187500.02235174447, 20465.212519790235, 11884.176657697757, -31500.782847497805, -187500.02235174447, 47413.43676012001, 23056.874937638633, -5008.824766734215, 51979.831097105875, 41102.08643699723, 0.112, 1.002, 0.26, 192.0, 0.0, 0.0, 0.0, 0.0, 0.0, 0.0, 0.0, 0.0, 0.0, 1.6959287146648915E9, 0.0, 2023-09-28 14:18:34.664
90.0, 4095.7783574793766, 17159.613032294874, 22228.765157313963, 17307.983911989202, 26827.949503415766, -6385.781632158952, -187500.02235174447, 20476.85777865145, 11845.262270601068, -31546.380406186632, -187500.02235174447, 47447.72433611445, 23009.489239393384, -5060.814924337259, 52064.63361556931, 41214.40395288515, 0.112, 1.002, 0.26, 192.0, 0.0, 0.0, 0.0, 0.0, 0.0, 0.0, 0.0, 0.0, 0.0, 1.6959287146649072E9, 0.0, 2023-09-28 14:18:34.664
92.0, 3938.287966047283, 17162.049372440502, 22280.420038750177, 17323.33956043, 26838.007788420655, -6381.3559867568, -187500.02235174447, 20487.474857267724, 11881.986186741136, -31501.207530642456, -187500.02235174447, 47402.81968150374, 23054.215080048452, -5010.456444079452, 51956.27235844998, 41096.23027994994, 0.112, 0.994, 0.264, 192.0, 1.5, 64.0, 15.5, 8.0, 4.0, 32.0, 0.0, 0.0, 0.0, 1.695928714664924E9, 0.0, 2023-09-28 14:18:34.664
94.0, 4149.735468594488, 17161.736448018128, 22229.16748871416, 17289.119039668924, 26826.049605137065, -6402.12075735578, -187500.02235174447, 20458.417589475823, 11845.329325834433, -31554.941124313013, -187500.02235174447, 47437.17431273154, 23008.058727748245, -5067.5427994183065, 52061.16909517874, 41211.565281339324, 0.112, 0.994, 0.264, 192.0, 0.0, 0.0, 0.0, 0.0, 0.0, 0.0, 0.0, 0.0, 0.0, 1.6959287146649404E9, 0.0, 2023-09-28 14:18:34.664
96.0, 3955.0964778776743, 17147.81131122247, 22266.003163576504, 17307.246304422177, 26840.287666355096, -6390.855478150306, -187500.02235174447, 20471.403953004356, 11873.760744781584, -31504.51558882184, -187500.02235174447, 47382.30078009376, 23044.045036321288, -5025.163891931044, 51938.525073352466, 41096.9008322836, 0.112, 0.994, 0.264, 192.0, 0.0, 0.0, 0.0, 0.0, 0.0, 0.0, 0.0, 0.0, 0.0, 1.6959287146649573E9, 0.0, 2023-09-28 14:18:34.664
98.0, 4189.54392546939, 17166.475017842655, 22240.83509931983, 17289.566074558028, 26827.278951082106, -6397.516297997988, -187500.02235174447, 20459.155197042848, 11849.620860769852, -31536.63504560412, -187500.02235174447, 47434.29093769681, 23011.925579539013, -5057.864494069158, 52035.10696114385, 41202.401066112645, 0.112, 0.994, 0.264, 192.0, 0.0, 0.0, 0.0, 0.0, 0.0, 0.0, 0.0, 0.0, 0.0, 1.6959287146649728E9, 0.0, 2023-09-28 14:18:34.664
100.0, 3945.9769661399087, 17172.219416167667, 22269.467683967076, 17322.736063329707, 26855.37509386243, -6377.131507054747, -187500.02235174447, 20487.273691567625, 11886.322425165466, -31487.796483969272, -187500.02235174447, 47394.437777333, 23057.970173116944, -5010.6576097795505, 51940.15675069771, 41096.207928205484, 0.112, 0.994, 0.264, 192.0, 0.0, 0.0, 0.0, 0.0, 0.0, 0.0, 0.0, 0.0, 0.0, 1.6959287146649885E9, 0.0, 2023-09-28 14:18:34.664
102.0, 4206.419492533147, 17168.710192288185, 22251.899212825207, 17285.118077411422, 26818.829991678, -6406.45699578011, -187500.02235174447, 20449.85687134944, 11864.708288277185, -31540.18897297251, -187500.02235174447, 47441.91288255607, 23019.771041842825, -5057.037479524312, 52054.0388886975, 41186.620734527205, 0.106, 0.992, 0.26, 192.0, 1.5, 40.0, 15.5, 0.0, 4.0, 16.0, 0.0, 0.0, 0.0, 1.6959287146650045E9, 0.0, 2023-09-28 14:18:34.665
104.0, 3954.7164982219338, 17174.566349335473, 22257.911832083682, 17320.187964461802, 26862.37118987694, -6370.917722096172, -187500.02235174447, 20490.87232242493, 11880.488619862632, -31508.67301329053, -187500.02235174447, 47393.85663197716, 23045.22967877742, -5028.248432665877, 51941.18493094265, 41084.65207632209, 0.106, 0.992, 0.26, 192.0, 0.0, 0.0, 0.0, 0.0, 0.0, 0.0, 0.0, 0.0, 0.0, 1.6959287151453652E9, 0.0, 2023-09-28 14:18:35.145
106.0, 4229.486492811024, 17157.713134016172, 22254.246145993013, 17281.139466898378, 26812.683261952792, -6422.684362254663, -187500.02235174447, 20441.05028403405, 11874.54305583752, -31524.878028020627, -187500.02235174447, 47446.651452380596, 23027.63885589109, -5046.33099393022, 52035.86692045533, 41164.13487960516, 0.106, 0.992, 0.26, 192.0, 0.0, 0.0, 0.0, 0.0, 0.0, 0.0, 0.0, 0.0, 0.0, 1.6959287151453931E9, 0.0, 2023-09-28 14:18:35.145
108.0, 4012.9204407835537, 17151.432293824233, 22223.937180511617, 17297.746813028672, 26832.419852306826, -6400.757300944007, -187500.02235174447, 20467.313583769035, 11853.018325927058, -31531.0918129792, -187500.02235174447, 47393.499004065874, 23017.692329608482, -5055.472857412441, 51942.436628632146, 41104.880405054144, 0.106, 0.992, 0.26, 192.0, 0.0, 0.0, 0.0, 0.0, 0.0, 0.0, 0.0, 0.0, 0.0, 1.69592871514541E9, 0.0, 2023-09-28 14:18:35.145
110.0, 4263.975234505562, 17149.711209501173, 22259.83408210684, 17275.216254617724, 26812.057413108043, -6424.360743088811, -187500.02235174447, 20439.977400300195, 11852.414828826766, -31544.72637709694, -187500.02235174447, 47421.95277475748, 23010.629178360603, -5063.832409838726, 52027.663830240235, 41147.77340266388, 0.106, 0.992, 0.26, 192.0, 0.0, 0.0, 0.0, 0.0, 0.0, 0.0, 0.0, 0.0, 0.0, 1.695928715145424E9, 0.0, 2023-09-28 14:18:35.145
112.0, 4048.7279354009556, 17150.694686257208, 22231.894401537706, 17309.839106778993, 26846.412044335848, -6383.144126313225, -187500.02235174447, 20475.29315653958, 11859.142703907813, -31532.634083346617, -187500.02235174447, 47402.171480914534, 23024.50961166735, -5045.749848574383, 51962.32968119737, 41107.49555915542, 0.114, 0.992, 0.262, 192.0, 1.5, 72.0, 15.5, 0.0, 4.0, 24.0, 0.0, 0.0, 0.0, 1.6959287151454377E9, 0.0, 2023-09-28 14:18:35.145
114.0, 4276.447507911624, 17141.44106405271, 22271.50169271251, 17272.75756272764, 26804.279006037596, -6423.913708199705, -187500.02235174447, 20442.212574745725, 11864.328308621443, -31549.129670754635, -187500.02235174447, 47425.41729514805, 23017.245294719374, -5049.6390521096055, 52023.7299232161, 41125.37695471966, 0.114, 0.992, 0.262, 192.0, 0.0, 0.0, 0.0, 0.0, 0.0, 0.0, 0.0, 0.0, 0.0, 1.6959287151454513E9, 0.0, 2023-09-28 14:18:35.145
116.0, 4098.974656936486, 17153.756875247585, 22224.16069795617, 17298.52912408461, 26846.12147165793, -6388.8438211493285, -187500.02235174447, 20469.4817029812, 11848.257404358079, -31551.700121366994, -187500.02235174447, 47402.19383265899, 23013.55725688425, -5064.927645317036, 51971.158620257214, 41123.968794818975, 0.114, 0.992, 0.262, 192.0, 0.0, 0.0, 0.0, 0.0, 0.0, 0.0, 0.0, 0.0, 0.0, 1.6959287151454644E9, 0.0, 2023-09-28 14:18:35.145
118.0, 4287.46691792809, 17129.706398213675, 22274.340364258333, 17260.75467595514, 26794.287776266072, -6436.788313005962, -187500.02235174447, 20433.495394408154, 11854.605299783385, -31544.81578407476, -187500.02235174447, 47406.70888503896, 23016.21711447443, -5059.451467925485, 51991.498707711544, 41113.17290224706, 0.114, 0.992, 0.262, 192.0, 0.0, 0.0, 0.0, 0.0, 0.0, 0.0, 0.0, 0.0, 0.0, 1.6959287151454775E9, 0.0, 2023-09-28 14:18:35.145
120.0, 4155.993957041974, 17147.498386800096, 22212.180162928125, 17287.979100701705, 26829.87175343892, -6395.5940479748315, -187500.02235174447, 20460.093970309972, 11837.86384318636, -31562.026627305346, -187500.02235174447, 47401.72444602543, 22999.341547410673, -5069.777973863837, 51961.033280018964, 41134.608225179705, 0.114, 0.992, 0.262, 192.0, 0.0, 0.0, 0.0, 0.0, 0.0, 0.0, 0.0, 0.0, 0.0, 1.6959287151454923E9, 0.0, 2023-09-28 14:18:35.145
122.0, 4284.024749281973, 17131.025151136535, 22280.844721894828, 17266.4767225357, 26799.24986353515, -6430.351010602833, -187500.02235174447, 20438.61394388842, 11866.20585515569, -31537.752632826883, -187500.02235174447, 47405.16661467154, 23023.83905933369, -5046.71097358596, 51974.6678441367, 41101.05825675229, 0.11, 0.99, 0.268, 192.0, 1.5, 56.0, 15.0, 120.0, 4.0, 48.0, 0.0, 0.0, 0.0, 1.6959287151455052E9, 0.0, 2023-09-28 14:18:35.145
124.0, 4218.26591709446, 17148.81713972296, 22211.48725885001, 17282.346461098965, 26835.079709897007, -6398.298609053923, -187500.02235174447, 20458.462292964734, 11835.785130952017, -31572.308429754787, -187500.02235174447, 47404.406655360064, 22994.31240490823, -5078.428098968041, 51995.566725202414, 41161.586780737256, 0.11, 0.99, 0.268, 192.0, 0.0, 0.0, 0.0, 0.0, 0.0, 0.0, 0.0, 0.0, 0.0, 1.6959287151455183E9, 0.0, 2023-09-28 14:18:35.145
126.0, 4274.793478821931, 17149.86767171236, 22293.004070878516, 17282.592330287975, 26818.673529466814, -6419.376304075277, -187500.02235174447, 20450.57212717201, 11872.486695347632, -31541.418318917553, -187500.02235174447, 47398.14816691258, 23030.61163790365, -5043.268804939843, 51962.910826553205, 41089.48005312444, 0.11, 0.99, 0.268, 192.0, 0.0, 0.0, 0.0, 0.0, 0.0, 0.0, 0.0, 0.0, 0.0, 1.6959287151455314E9, 0.0, 2023-09-28 14:18:35.145
128.0, 4255.995661735018, 17169.917186488772, 22231.670884093153, 17297.880923495402, 26846.970837947232, -6387.100385081814, -187500.02235174447, 20470.28636578159, 11859.835607985928, -31543.541734640807, -187500.02235174447, 47432.56985337375, 23014.339567940184, -5066.067584284257, 51997.84660313685, 41163.0172923824, 0.11, 0.99, 0.268, 192.0, 0.0, 0.0, 0.0, 0.0, 0.0, 0.0, 0.0, 0.0, 0.0, 1.6959287151455443E9, 0.0, 2023-09-28 14:18:35.145
130.0, 4256.50975185749, 17158.87542472785, 22302.548265760932, 17290.348385613965, 26823.970892902722, -6410.4132545487, -187500.02235174447, 20459.42341797631, 11884.377823397854, -31510.885835991605, -187500.02235174447, 47406.75358852787, 23044.55912644376, -5040.81011304976, 51951.62319560328, 41079.66763730856, 0.11, 0.99, 0.268, 192.0, 0.0, 0.0, 0.0, 0.0, 0.0, 0.0, 0.0, 0.0, 0.0, 1.695928715145557E9, 0.0, 2023-09-28 14:18:35.145
132.0, 4302.062607057405, 17168.77724752155, 22237.16941322916, 17294.57286531602, 26846.412044335848, -6384.865210636283, -187500.02235174447, 20472.879168138406, 11858.53920680752, -31540.546600883798, -187500.02235174447, 47439.76711508836, 23011.36678592763, -5066.201694750988, 52016.5773649904, 41173.94729542104, 0.10400000000000001, 0.994, 0.274, 192.0, 1.5, 32.0, 15.5, 8.0, 4.0, 72.0, 0.0, 0.0, 0.0, 1.6959287151455717E9, 0.0, 2023-09-28 14:18:35.145
134.0, 4232.347516101303, 17153.309840358477, 22303.151762861224, 17290.683661780797, 26835.97377967522, -6405.428815535166, -187500.02235174447, 20461.323316255013, 11896.78304157055, -31500.626385286618, -187500.02235174447, 47406.95475422797, 23055.66794343805, -5020.738246528894, 51943.17423619917, 41063.10499466718, 0.10400000000000001, 0.994, 0.274, 192.0, 0.0, 0.0, 0.0, 0.0, 0.0, 0.0, 0.0, 0.0, 0.0, 1.6959287151455863E9, 0.0, 2023-09-28 14:18:35.145
136.0, 4364.334567109891, 17148.705381000684, 22231.4473666486, 17272.019955160613, 26833.962122674242, -6410.07797838187, -187500.02235174447, 20450.348609727458, 11856.661660273274, -31545.843964319705, -187500.02235174447, 47443.92453955705, 23008.706928337448, -5070.873209342148, 52035.30812684395, 41180.250487357436, 0.10400000000000001, 0.994, 0.274, 192.0, 0.0, 0.0, 0.0, 0.0, 0.0, 0.0, 0.0, 0.0, 0.0, 1.6959287151455991E9, 0.0, 2023-09-28 14:18:35.145
138.0, 4263.8411240388305, 17131.919220914748, 22278.006050349006, 17268.443676047766, 26817.73475619969, -6428.920498957694, -187500.02235174447, 20437.071673521004, 11870.385631368832, -31518.865408762147, -187500.02235174447, 47385.34061733969, 23033.89734433858, -5046.733325330416, 51925.67282029067, 41071.330436626726, 0.10400000000000001, 0.994, 0.274, 192.0, 0.0, 0.0, 0.0, 0.0, 0.0, 0.0, 0.0, 0.0, 0.0, 1.695928715145612E9, 0.0, 2023-09-28 14:18:35.145
140.0, 4448.019498350561, 17136.076645383437, 22215.39881412969, 17250.718742694706, 26803.54139847057, -6433.569661804398, -187500.02235174447, 20427.303961194037, 11830.465415771654, -31566.653438407593, -187500.02235174447, 47414.621402576144, 22983.963547225423, -5093.58258170874, 51994.33737925737, 41184.89965020414, 0.10400000000000001, 0.994, 0.274, 192.0, 0.0, 0.0, 0.0, 0.0, 0.0, 0.0, 0.0, 0.0, 0.0, 1.6959287151456249E9, 0.0, 2023-09-28 14:18:35.145
