%OpenBCI Raw EXG Data
%Number of channels = 16
%Sample Rate = 125 Hz
%Board = OpenBCI_GUI$BoardCytonSerialDaisy
Sample Index, EXG Channel 0, EXG Channel 1, EXG Channel 2, EXG Channel 3, EXG Channel 4, EXG Channel 5, EXG Channel 6, EXG Channel 7, EXG Channel 8, EXG Channel 9, EXG Channel 10, EXG Channel 11, EXG Channel 12, EXG Channel 13, EXG Channel 14, EXG Channel 15, Accel Channel 0, Accel Channel 1, Accel Channel 2, Other, Other, Other, Other, Other, Other, Other, Analog Channel 0, Analog Channel 1, Analog Channel 2, Timestamp, Other, Timestamp (Formatted)
0.0, -57226.120796933275, -27106.65340502899, -45539.53356022043, -28791.7961230035, -7501.62541885679, -11600.287151370901, -187500.02235174447, -10203.169012447479, 0.0, 0.0, 0.0, 0.0, 0.0, 0.0, 0.0, 0.0, 0.0, 0.0, 0.0, 192.0, 0.0, 0.0, 0.0, 0.0, 0.0, 0.0, 0.0, 0.0, 0.0, 1.696032130594896E9, 0.0, 2023-09-29 19:02:10.594
210.0, -57223.393884109726, -27162.62217314508, -45548.049574857905, -28834.57736189096, -7512.622477128802, -11612.670017799142, -187500.02235174447, -10213.272000941277, -23820.544638698655, 9930.231860903725, -17567.845293026603, -23458.49108201159, 5735.189406298328, -13120.652809220888, -20397.419678857288, -37639.465944703334, 0.0, 0.0, 0.0, 192.0, 0.0, 0.0, 0.0, 0.0, 0.0, 0.0, 0.0, 0.0, 0.0, 1.696032130594921E9, 0.0, 2023-09-29 19:02:10.594
212.0, -57225.56200332189, -27139.5551728672, -45537.208978797076, -28791.97493695914, -7494.897543775743, -11596.666168769141, -187500.02235174447, -10197.156393189001, -23798.751687854732, 9926.20854690177, -17644.757645697315, -23449.796253418477, 5744.554787225103, -13105.185402057816, -20388.255463630612, -37638.79539236968, 0.0, 0.0, 0.0, 192.0, 0.0, 0.0, 0.0, 0.0, 0.0, 0.0, 0.0, 0.0, 0.0, 1.696032130594925E9, 0.0, 2023-09-29 19:02:10.594
214.0, -57225.29378238843, -27145.18781246994, -45557.68317671814, -28834.7561758466, -7515.550555652447, -11618.906154502172, -187500.02235174447, -10215.350713175621, -23807.602978659033, 9930.947116726295, -17561.407990623473, -23462.045009379985, 5732.797769641611, -13114.014341117661, -20398.649024802333, -37639.197723769874, 0.065, 0.501, 0.095, 192.0, 2.0, 8.0, 15.5, 40.0, 2.5, 120.0, 0.0, 0.0, 0.0, 1.696032130594928E9, 0.0, 2023-09-29 19:02:10.594
216.0, -57239.57654709537, -27138.7058065779, -45545.05444110089, -28800.04391670751, -7499.8372793003655, -11599.929523459617, -187500.02235174447, -10202.431404880454, -23817.974188086297, 9928.689590536307, -17648.624497488083, -23465.196605348185, 5721.890118347421, -13127.246573835204, -20399.14076318035, -37651.5358867092, 0.065, 0.501, 0.095, 192.0, 0.0, 0.0, 0.0, 0.0, 0.0, 0.0, 0.0, 0.0, 0.0, 1.696032130594932E9, 0.0, 2023-09-29 19:02:10.594
218.0, -57218.252982885, -27152.452129417914, -45541.0981823323, -28817.858257038388, -7507.570982881902, -11601.561200804854, -187500.02235174447, -10199.97271299037, -23813.28032175068, 9926.588526557509, -17565.252490669787, -23456.546480243982, 5735.681144676345, -13110.996855616195, -20392.03290844356, -37634.660319645445, 0.065, 0.501, 0.095, 192.0, 0.0, 0.0, 0.0, 0.0, 0.0, 0.0, 0.0, 0.0, 0.0, 1.696032130594935E9, 0.0, 2023-09-29 19:02:10.594
220.0, -57224.46676784358, -27177.106103552116, -45535.01850784046, -28783.525977555037, -7501.290142689961, -11592.754613489464, -187500.02235174447, -10196.932875744447, -23807.781792614674, 9920.307686365568, -17660.62738426058, -23453.64075346479, 5738.6986301778115, -13107.197059058793, -20388.344870608435, -37632.983938811296, 0.065, 0.501, 0.095, 192.0, 0.0, 0.0, 0.0, 0.0, 0.0, 0.0, 0.0, 0.0, 0.0, 1.696032130594938E9, 0.0, 2023-09-29 19:02:10.594
222.0, -57217.53772706244, -27150.798100328222, -45534.39265899571, -28805.11776269886, -7504.15116598024, -11596.196782135581, -187500.02235174447, -10194.764756532282, -23799.221074488294, 9940.245442419702, -17560.044534211702, -23456.07709361042, 5738.676278433357, -13109.58869571551, -20389.820085742485, -37623.462095673334, 0.065, 0.501, 0.095, 192.0, 0.0, 0.0, 0.0, 0.0, 0.0, 0.0, 0.0, 0.0, 0.0, 1.696032130594942E9, 0.0, 2023-09-29 19:02:10.594
224.0, -57230.725256291065, -27201.84948466414, -45528.38003973723, -28790.70088752519, -7492.4388518856595, -11592.017005922438, -187500.02235174447, -10188.729785529351, -23801.94798731184, 9927.884927735917, -17659.48744529336, -23449.282163296004, 5742.721944179767, -13117.255344063682, -20379.158303637305, -37628.290072475684, 0.0995, 0.7545, 0.14450000000000002, 192.0, 2.0, 24.0, 15.5, 64.0, 3.0, 8.0, 0.0, 0.0, 0.0, 1.696032130594945E9, 0.0, 2023-09-29 19:02:10.594
0.0, -28547.80448052937, -13501.168906828036, -22758.83677707157, -14374.764487119257, -3850.624424293569, -5867.489381729291, -93750.01117587223, -5090.855668885192, -11907.422471931277, 4959.9415016104585, -8776.479515609684, -11731.111911667815, 2861.112697257125, -6558.739430754117, -10194.362425132087, -18814.089156876704, 0.134, 0.998, 0.194, 192.0, 2.0, 24.0, 15.5, 24.0, 3.0, 8.0, 0.0, 0.0, 0.0, 1.696032130748192E9, 0.0, 2023-09-29 19:02:10.748
2.0, -57092.27855113489, -27137.588219355133, -45520.33341173332, -28789.382134602325, -7710.323656835993, -11740.589051316865, -187500.02235174447, -10181.912503470481, -23850.607734991045, 9759.397478031811, -17764.764161677856, -23498.724222031145, 5947.352164668103, -13100.983274100217, -20352.425617268756, -37555.42338555138, 0.134, 0.998, 0.194, 192.0, 0.0, 0.0, 0.0, 0.0, 0.0, 0.0, 0.0, 0.0, 0.0, 1.696032130748203E9, 0.0, 2023-09-29 19:02:10.748
4.0, -57105.75665304145, -27061.614639951546, -45517.33827797631, -28746.243267803584, -7692.263447316104, -11737.75037977104, -187500.02235174447, -10180.526695314253, -23839.58832497458, 9771.64623399332, -17808.573580810258, -23496.064364440965, 5957.164580483983, -13099.038672332606, -20342.769663664065, -37546.23681858025, 0.134, 0.998, 0.194, 192.0, 0.0, 0.0, 0.0, 0.0, 0.0, 0.0, 0.0, 0.0, 0.0, 1.696032130748207E9, 0.0, 2023-09-29 19:02:10.748
6.0, -57099.38640587168, -27138.504640877803, -45524.33437399082, -28791.684364281224, -7706.032121900574, -11747.51809209801, -187500.02235174447, -10193.870686754071, -23860.3307438291, 9761.722059455164, -17763.624222710638, -23503.46279185567, 5952.358955426092, -13103.6431316904, -20349.631649211842, -37557.65855999691, 0.134, 0.998, 0.194, 192.0, 0.0, 0.0, 0.0, 0.0, 0.0, 0.0, 0.0, 0.0, 0.0, 1.69603213074821E9, 0.0, 2023-09-29 19:02:10.748
8.0, -57093.19497265756, -27067.135520832006, -45517.45003669859, -28749.618381216336, -7693.448089772236, -11738.599746060341, -187500.02235174447, -10191.657864052995, -23848.01493263423, 9764.761896701086, -17824.443319373528, -23500.60176856539, 5958.103353751106, -13103.39726250139, -20343.03788459753, -37553.4117285504, 0.134, 0.998, 0.196, 192.0, 2.0, 24.0, 15.5, 24.0, 3.0, 16.0, 0.0, 0.0, 0.0, 1.696032130748221E9, 0.0, 2023-09-29 19:02:10.748
10.0, -57087.98701619948, -27088.25791934227, -45525.6978304026, -28791.058515436474, -7708.71433123521, -11749.775618287995, -187500.02235174447, -10200.77737579076, -23843.81280467663, 9775.624844506365, -17740.736036388404, -23502.434611610726, 5946.100466978606, -13106.370044513948, -20356.381876037347, -37557.79267046364, 0.134, 0.998, 0.196, 192.0, 0.0, 0.0, 0.0, 0.0, 0.0, 0.0, 0.0, 0.0, 0.0, 1.696032130748225E9, 0.0, 2023-09-29 19:02:10.748
12.0, -57100.59340007227, -27099.970233436852, -45506.184757493116, -28754.938096396698, -7690.296493804038, -11730.977801201083, -187500.02235174447, -10181.621930792562, -23835.72147318381, 9765.857132179395, -17833.316961922286, -23495.70673652968, 5958.192760728927, -13105.78889915811, -20349.676352700753, -37558.48557454176, 0.134, 0.998, 0.196, 192.0, 0.0, 0.0, 0.0, 0.0, 0.0, 0.0, 0.0, 0.0, 0.0, 1.696032130748228E9, 0.0, 2023-09-29 19:02:10.748
14.0, -57095.027815702895, -27086.201558852383, -45518.746437876995, -28784.35299209988, -7713.832880715476, -11747.965126987116, -187500.02235174447, -10193.49070709833, -23846.070330866616, 9779.446992808222, -17745.899289357578, -23502.993405222107, 5942.6135948435785, -13106.906486380874, -20357.87944291585, -37552.5623622611, 0.134, 0.998, 0.196, 192.0, 0.0, 0.0, 0.0, 0.0, 0.0, 0.0, 0.0, 0.0, 0.0, 1.696032130748232E9, 0.0, 2023-09-29 19:02:10.748
16.0, -57101.01808321692, -27111.28021613124, -45508.06230402736, -28756.92740165322, -7701.897049176342, -11728.98849594456, -187500.02235174447, -10179.699680769407, -23845.824461677606, 9765.141876356825, -17831.19354619903, -23500.713527287666, 5951.755458325799, -13090.477954206224, -20360.226376083658, -37561.257190854216, 0.134, 0.998, 0.196, 192.0, 0.0, 0.0, 0.0, 0.0, 0.0, 0.0, 0.0, 0.0, 0.0, 1.696032130808057E9, 0.0, 2023-09-29 19:02:10.808
18.0, -57092.70323427954, -27074.31043080216, -45516.354801220274, -28764.817567445945, -7709.42958705778, -11742.4218943622, -187500.02235174447, -10187.902770984503, -23843.4775285098, 9782.151553887315, -17746.927469602524, -23495.013832451565, 5954.907054293997, -13079.056212789561, -20353.431445769245, -37543.10757435651, 0.138, 1.002, 0.20400000000000001, 192.0, 2.0, 40.0, 15.5, 40.0, 3.0, 48.0, 0.0, 0.0, 0.0, 1.696032130808067E9, 0.0, 2023-09-29 19:02:10.808
20.0, -57103.65558906265, -27118.633940057032, -45510.11866451725, -28746.958523626152, -7697.1808310962715, -11733.347086113345, -187500.02235174447, -10181.219599392367, -23850.965362902327, 9759.665698965277, -17835.462729389994, -23499.774754020546, 5953.923577537964, -13095.104765308472, -20354.057294613995, -37561.23483910976, 0.138, 1.002, 0.20400000000000001, 192.0, 0.0, 0.0, 0.0, 0.0, 0.0, 0.0, 0.0, 0.0, 0.0, 1.696032130808071E9, 0.0, 2023-09-29 19:02:10.808
22.0, -57099.431109360594, -27062.665171940946, -45517.33827797631, -28755.563945241447, -7705.093348633451, -11739.315001882911, -187500.02235174447, -10189.042709951724, -23852.015894891727, 9790.824030735974, -17750.056713826267, -23501.27232089905, 5948.983842013341, -13086.812268115553, -20349.58694572293, -37548.114365114496, 0.138, 1.002, 0.20400000000000001, 192.0, 0.0, 0.0, 0.0, 0.0, 0.0, 0.0, 0.0, 0.0, 0.0, 1.696032130808074E9, 0.0, 2023-09-29 19:02:10.808
24.0, -57099.0287779604, -27148.451167160412, -45505.51420515945, -28751.94296263969, -7695.325636306481, -11732.788292501962, -187500.02235174447, -10186.516962828275, -23855.949801915864, 9754.614204718377, -17846.28097370636, -23499.730050531634, 5948.201530957405, -13095.30593100857, -20351.30803004599, -37562.799461221635, 0.138, 1.002, 0.20400000000000001, 192.0, 0.0, 0.0, 0.0, 0.0, 0.0, 0.0, 0.0, 0.0, 0.0, 1.696032130808077E9, 0.0, 2023-09-29 19:02:10.808
26.0, -57088.25523713294, -27060.340590517593, -45500.507414401465, -28750.847727161377, -7701.829993942976, -11736.856309992829, -187500.02235174447, -10186.516962828275, -23842.91873489842, 9797.08251918346, -17754.951745861978, -23495.70673652968, 5952.470714148369, -13090.50030595068, -20342.344980519414, -37540.40301327741, 0.138, 1.002, 0.20400000000000001, 192.0, 0.0, 0.0, 0.0, 0.0, 0.0, 0.0, 0.0, 0.0, 0.0, 1.696032130808081E9, 0.0, 2023-09-29 19:02:10.808
28.0, -57088.97049295551, -27163.47153943438, -45490.69499858558, -28752.568811484434, -7695.906781662319, -11738.264469893513, -187500.02235174447, -10185.645244794518, -23837.353150529045, 9765.544207757022, -17844.895165550133, -23487.973032948143, 5950.79433331422, -13084.152410525372, -20342.948477619706, -37551.48947852725, 0.136, 1.006, 0.196, 192.0, 2.0, 32.0, 15.5, 56.0, 3.0, 16.0, 0.0, 0.0, 0.0, 1.696032130808084E9, 0.0, 2023-09-29 19:02:10.808
30.0, -57093.61965580221, -27021.06857550962, -45491.65612359716, -28745.416253258736, -7706.52386027859, -11744.388847874267, -187500.02235174447, -10200.844431024127, -23848.305505312146, 9792.299245870025, -17746.65924866906, -23497.13724817482, 5945.988708256329, -13079.547951167579, -20346.278887543547, -37537.29612079813, 0.136, 1.006, 0.196, 192.0, 0.0, 0.0, 0.0, 0.0, 0.0, 0.0, 0.0, 0.0, 0.0, 1.696032130868408E9, 0.0, 2023-09-29 19:02:10.868
32.0, -57092.725586024004, -27155.71548410839, -45478.37918739071, -28761.688323222203, -7699.147784608339, -11745.953469986138, -187500.02235174447, -10199.659788567995, -23845.511537255235, 9750.300318038502, -17828.66779907558, -23491.392849849803, 5950.839036803131, -13093.45073621878, -20347.77645442205, -37560.899562942934, 0.136, 1.006, 0.196, 192.0, 0.0, 0.0, 0.0, 0.0, 0.0, 0.0, 0.0, 0.0, 0.0, 1.696032130868429E9, 0.0, 2023-09-29 19:02:10.868
34.0, -57090.57981855629, -27026.678863367903, -45478.93798100209, -28730.90997110724, -7705.853307944931, -11739.694981538652, -187500.02235174447, -10198.318683900678, -23839.320104041115, 9786.420737078279, -17763.64657445509, -23489.291785871006, 5958.975071784863, -13076.530465666112, -20341.16033806328, -37540.89475165543, 0.136, 1.006, 0.196, 192.0, 0.0, 0.0, 0.0, 0.0, 0.0, 0.0, 0.0, 0.0, 0.0, 1.696032130868442E9, 0.0, 2023-09-29 19:02:10.868
36.0, -57086.75767025443, -27155.00022828582, -45492.885469542205, -28754.78163418551, -7706.568563767501, -11749.462693865622, -187500.02235174447, -10200.643265324028, -23841.532926742188, 9765.141876356825, -17821.604647827702, -23487.436591081216, 5956.739897339332, -13092.981349585218, -20349.475187000655, -37558.23970535275, 0.136, 1.006, 0.196, 192.0, 0.0, 0.0, 0.0, 0.0, 0.0, 0.0, 0.0, 0.0, 0.0, 1.696032130868448E9, 0.0, 2023-09-29 19:02:10.868
38.0, -57072.11727763621, -27006.763459058224, -45503.636658625204, -28723.377433225804, -7705.1604038668165, -11743.271260651502, -187500.02235174447, -10190.897904741514, -23832.055787093137, 9796.590780805444, -17759.779722664323, -23491.571663805447, 5951.666051347977, -13082.140753524394, -20345.429521254246, -37543.44285052334, 0.136, 1.008, 0.196, 192.0, 2.0, 32.0, 15.5, 64.0, 3.0, 16.0, 0.0, 0.0, 0.0, 1.696032130868453E9, 0.0, 2023-09-29 19:02:10.868
40.0, -57077.45934456102, -27176.8155308742, -45505.491853415, -28751.719445195133, -7700.2877235755595, -11739.426760605189, -187500.02235174447, -10183.58888430463, -23835.81088016163, 9768.427582791755, -17814.787365768836, -23477.55712003197, 5965.32296721017, -13069.44496267378, -20345.74244567662, -37556.29510358514, 0.136, 1.008, 0.196, 192.0, 0.0, 0.0, 0.0, 0.0, 0.0, 0.0, 0.0, 0.0, 0.0, 1.696032130868459E9, 0.0, 2023-09-29 19:02:10.868
42.0, -57089.506934822435, -27030.63512213649, -45516.175987264636, -28720.941093080175, -7701.04768288704, -11738.08565593787, -187500.02235174447, -10180.549047058708, -23828.926542869394, 9787.98535919015, -17780.209217096475, -23484.21793987965, 5960.4055834300025, -13057.911462534841, -20342.747311919607, -37534.36804227448, 0.136, 1.008, 0.196, 192.0, 0.0, 0.0, 0.0, 0.0, 0.0, 0.0, 0.0, 0.0, 0.0, 1.696032130868464E9, 0.0, 2023-09-29 19:02:10.868
44.0, -57087.763498754925, -27160.029370788263, -45523.842635612804, -28780.173215886738, -7712.245906859149, -11750.75909504403, -187500.02235174447, -10186.360500617087, -23854.921621670917, 9767.801733947008, -17790.289853845818, -23497.494876086104, 5943.865292533075, -13084.130058780916, -20363.377972051858, -37558.68674024186, 0.136, 1.008, 0.196, 192.0, 0.0, 0.0, 0.0, 0.0, 0.0, 0.0, 0.0, 0.0, 0.0, 1.696032130868469E9, 0.0, 2023-09-29 19:02:10.868
46.0, -57091.27272263441, -27044.359093232048, -45512.82322559634, -28747.249096304073, -7703.439319543758, -11741.661935050719, -187500.02235174447, -10177.218637134867, -23839.476566252302, 9784.744356244131, -17797.643577771614, -23502.769887777555, 5956.583435128145, -13078.475067433725, -20352.403265524303, -37543.10757435651, 0.136, 1.008, 0.196, 192.0, 0.0, 0.0, 0.0, 0.0, 0.0, 0.0, 0.0, 0.0, 0.0, 1.696032130928715E9, 0.0, 2023-09-29 19:02:10.928
48.0, -57076.34175733826, -27162.108083022606, -45520.95926057807, -28794.947718971696, -7709.362531824414, -11755.587071846376, -187500.02235174447, -10184.840581994127, -23839.34245578557, 9761.36443154388, -17789.9992811679, -23504.915655245266, 5959.042127018229, -13102.50319272318, -20353.163224835782, -37555.19986810683, 0.134, 1.002, 0.192, 192.0, 2.0, 24.0, 15.5, 40.0, 3.0, 0.0, 0.0, 0.0, 0.0, 1.696032130928728E9, 0.0, 2023-09-29 19:02:10.928
50.0, -57098.26881864892, -27043.308561242648, -45522.21095826757, -28753.328770795917, -7709.071959146495, -11752.591938089365, -187500.02235174447, -10186.516962828275, -23841.734092442286, 9775.043699150527, -17810.071147688766, -23507.620216324358, 5950.503760636301, -13093.942474596797, -20355.443102770223, -37554.86459194, 0.134, 1.002, 0.192, 192.0, 0.0, 0.0, 0.0, 0.0, 0.0, 0.0, 0.0, 0.0, 0.0, 1.696032130928738E9, 0.0, 2023-09-29 19:02:10.928
52.0, -57107.29892340886, -27137.27529493276, -45515.751304119985, -28785.135303155817, -7712.648238259344, -11754.693002068163, -187500.02235174447, -10184.77352676076, -23853.111130370038, 9746.902852881296, -17782.980833408932, -23504.80389652299, 5957.209283972894, -13094.322454252537, -20350.21279456768, -37557.52444953018, 0.134, 1.002, 0.192, 192.0, 0.0, 0.0, 0.0, 0.0, 0.0, 0.0, 0.0, 0.0, 0.0, 1.696032130928745E9, 0.0, 2023-09-29 19:02:10.928
54.0, -57100.705158794546, -27058.21717479434, -45510.5433476619, -28746.7350061816, -7702.14291836535, -11745.595842074854, -187500.02235174447, -10185.82405875016, -23844.70687445484, 9754.748315185108, -17821.42583387206, -23509.6989285587, 5957.678670606455, -13088.10866929396, -20348.715227689176, -37552.89763842793, 0.134, 1.002, 0.192, 192.0, 0.0, 0.0, 0.0, 0.0, 0.0, 0.0, 0.0, 0.0, 0.0, 1.696032130928751E9, 0.0, 2023-09-29 19:02:10.928
56.0, -57091.71975752351, -27118.32101563466, -45518.85819659927, -28794.143056171306, -7719.018485429107, -11763.790162061474, -187500.02235174447, -10201.514983357785, -23838.627199963, 9768.338175813935, -17773.07901061523, -23517.007948995586, 5949.31911818017, -13096.691739164798, -20359.93580340574, -37561.05602515412, 0.134, 1.002, 0.192, 192.0, 0.0, 0.0, 0.0, 0.0, 0.0, 0.0, 0.0, 0.0, 0.0, 1.696032130928786E9, 0.0, 2023-09-29 19:02:10.928
58.0, -57098.98407447149, -27077.97611689283, -45506.363571448754, -28753.26171556255, -7703.640485243855, -11755.117685212814, -187500.02235174447, -10196.39643387752, -23832.23460104878, 9744.757085413587, -17843.084674249254, -23514.079870471942, 5960.271472963271, -13099.39630024389, -20354.459626014188, -37560.072548398086, 0.138, 1.0, 0.186, 192.0, 2.0, 40.0, 15.5, 32.0, 2.5, 104.0, 0.0, 0.0, 0.0, 1.696032130928793E9, 0.0, 2023-09-29 19:02:10.928
60.0, -57100.86162100573, -27089.062582142662, -45518.411161710166, -28789.382134602325, -7719.890203462864, -11775.167199989224, -187500.02235174447, -10207.438195638442, -23844.259839565737, 9749.36154477138, -17756.85164414068, -23518.03612924053, 5951.151961225505, -13099.597465943989, -20360.606355739397, -37562.10655714352, 0.138, 1.0, 0.186, 192.0, 0.0, 0.0, 0.0, 0.0, 0.0, 0.0, 0.0, 0.0, 0.0, 1.696032130988935E9, 0.0, 2023-09-29 19:02:10.988
62.0, -57105.35432164125, -27087.45325654188, -45507.43645518261, -28753.35112254037, -7700.555944509023, -11759.342164914868, -187500.02235174447, -10191.68021579745, -23845.75740644424, 9736.017553331561, -17844.62694461667, -23513.208152438183, 5951.867217048075, -13095.909428108864, -20352.26915505757, -37565.57107753409, 0.138, 1.0, 0.186, 192.0, 0.0, 0.0, 0.0, 0.0, 0.0, 0.0, 0.0, 0.0, 0.0, 1.696032130988969E9, 0.0, 2023-09-29 19:02:10.988
64.0, -57095.74307152547, -27093.957614178376, -45513.69494363009, -28777.893337952297, -7711.1506713808385, -11774.228426722102, -187500.02235174447, -10201.693797313428, -23839.655380207943, 9763.957233900695, -17768.496903001895, -23510.52594310355, 5955.197626971916, -13094.277750763626, -20347.061198599484, -37555.311626829105, 0.138, 1.0, 0.186, 192.0, 0.0, 0.0, 0.0, 0.0, 0.0, 0.0, 0.0, 0.0, 0.0, 1.696032130988974E9, 0.0, 2023-09-29 19:02:10.988
66.0, -57093.64200754667, -27122.92547499245, -45502.38496093571, -28753.149956840272, -7698.968970652697, -11771.009775520537, -187500.02235174447, -10195.278846654755, -23838.426034262902, 9741.538434212021, -17860.094351779742, -23515.622140839358, 5951.219016458871, -13102.97257935674, -20348.469358500166, -37567.62743802398, 0.138, 1.0, 0.186, 192.0, 0.0, 0.0, 0.0, 0.0, 0.0, 0.0, 0.0, 0.0, 0.0, 1.696032130988978E9, 0.0, 2023-09-29 19:02:10.988
68.0, -57088.948141211054, -27078.132579104018, -45515.34897271979, -28772.88654719431, -7716.045703416551, -11775.256606967045, -187500.02235174447, -10203.97367524787, -23834.179202816395, 9773.4567252942, -17757.857472641168, -23518.639626340824, 5951.219016458871, -13087.505172193667, -20352.604431224398, -37554.50696402871, 0.14, 0.998, 0.194, 192.0, 2.0, 48.0, 15.5, 24.0, 3.0, 8.0, 0.0, 0.0, 0.0, 1.696032130988982E9, 0.0, 2023-09-29 19:02:10.988
70.0, -57105.82370827481, -27144.450204902914, -45511.415065695655, -28753.999323129574, -7709.586049268967, -11771.345051687367, -187500.02235174447, -10200.196230434924, -23829.08300508058, 9743.036001090528, -17868.63271816167, -23508.000195980097, 5945.273452433759, -13089.092146049994, -20357.544166749023, -37568.81208048011, 0.14, 0.998, 0.194, 192.0, 0.0, 0.0, 0.0, 0.0, 0.0, 0.0, 0.0, 0.0, 0.0, 1.696032130988986E9, 0.0, 2023-09-29 19:02:10.988
72.0, -57094.35726336924, -27065.436788253402, -45515.08075178632, -28768.88558493681, -7720.270183118604, -11781.179819247702, -187500.02235174447, -10208.622838094574, -23840.81767091962, 9763.063164122483, -17754.951745861978, -23520.80774555299, 5934.857539517587, -13092.534314696111, -20365.27787033056, -37561.83833621006, 0.14, 0.998, 0.194, 192.0, 0.0, 0.0, 0.0, 0.0, 0.0, 0.0, 0.0, 0.0, 0.0, 1.69603213098899E9, 0.0, 2023-09-29 19:02:10.988
74.0, -57102.44859486206, -27155.134338752552, -45504.2401557255, -28764.951677912675, -7709.5636975245125, -11775.793048833973, -187500.02235174447, -10201.358521146598, -23841.085891853083, 9734.944669597706, -17864.564700670802, -23509.788335536523, 5947.352164668103, -13093.204867029772, -20356.69480045972, -37571.7178072593, 0.14, 0.998, 0.194, 192.0, 0.0, 0.0, 0.0, 0.0, 0.0, 0.0, 0.0, 0.0, 0.0, 1.696032130988994E9, 0.0, 2023-09-29 19:02:10.988
76.0, -57095.385443614185, -27049.96938109033, -45510.96803080655, -28768.50560528107, -7721.43247383028, -11783.414993693232, -187500.02235174447, -10214.724864330872, -23837.844888907064, 9765.097172867916, -17764.764161677856, -23524.361672921383, 5943.84294078862, -13094.993006586195, -20355.577213236957, -37556.60802800751, 0.14, 0.998, 0.194, 192.0, 0.0, 0.0, 0.0, 0.0, 0.0, 0.0, 0.0, 0.0, 0.0, 1.696032131048309E9, 0.0, 2023-09-29 19:02:11.048
78.0, -57095.184277914086, -27162.17513825597, -45509.71633311705, -28775.948736184688, -7720.046665674051, -11784.130249515802, -187500.02235174447, -10214.657809097507, -23840.974133130807, 9739.325611510947, -17857.278031978374, -23517.253818184596, 5940.9148622649745, -13099.820983388541, -20363.713248218686, -37572.27660087068, 0.132, 1.0, 0.192, 192.0, 2.0, 16.0, 15.5, 32.0, 3.0, 0.0, 0.0, 0.0, 0.0, 1.69603213104832E9, 0.0, 2023-09-29 19:02:11.048
80.0, -57098.71585353802, -27039.374654218514, -45506.05064702638, -28759.833128432412, -7722.997095942152, -11784.443173938176, -187500.02235174447, -10213.272000941277, -23833.01691210472, 9768.785210703041, -17774.867150171656, -23516.69502457321, 5940.825455287154, -13086.700509393277, -20356.493634759623, -37554.48461228426, 0.132, 1.0, 0.192, 192.0, 0.0, 0.0, 0.0, 0.0, 0.0, 0.0, 0.0, 0.0, 0.0, 1.696032131048325E9, 0.0, 2023-09-29 19:02:11.048
82.0, -57090.24454238946, -27158.5094521653, -45500.19448997909, -28773.199471616685, -7722.952392453241, -11781.04570878097, -187500.02235174447, -10216.669466098485, -23830.28999928117, 9737.805692887985, -17840.20129921452, -23516.359748406383, 5941.026620987252, -13104.201925301782, -20361.880405173353, -37570.60022003653, 0.132, 1.0, 0.192, 192.0, 0.0, 0.0, 0.0, 0.0, 0.0, 0.0, 0.0, 0.0, 0.0, 1.69603213104833E9, 0.0, 2023-09-29 19:02:11.048
84.0, -57089.573990055804, -27024.7789650892, -45499.56864113434, -28751.004189372565, -7721.454825574735, -11774.116667999824, -187500.02235174447, -10212.266172440788, -23835.922638883905, 9769.053431636505, -17772.47551351494, -23515.063347227973, 5938.836150030631, -13089.203904772272, -20354.616088225375, -37548.5614000036, 0.132, 1.0, 0.192, 192.0, 0.0, 0.0, 0.0, 0.0, 0.0, 0.0, 0.0, 0.0, 0.0, 1.696032131048335E9, 0.0, 2023-09-29 19:02:11.048
86.0, -57090.713929023026, -27176.56966168519, -45496.48410039951, -28777.111026896364, -7713.162328381816, -11770.249816209056, -187500.02235174447, -10206.275904926766, -23836.883763895486, 9743.058352834983, -17840.380113170162, -23510.12361170335, 5946.5475018677125, -13098.658692676867, -20350.79393992352, -37560.966618176295, 0.132, 1.0, 0.192, 192.0, 0.0, 0.0, 0.0, 0.0, 0.0, 0.0, 0.0, 0.0, 0.0, 1.69603213104834E9, 0.0, 2023-09-29 19:02:11.048
88.0, -57091.40683310114, -27031.618598892524, -45502.49671965799, -28746.489136992594, -7709.071959146495, -11771.926197043205, -187500.02235174447, -10205.962980504391, -23828.43480449138, 9772.473248538166, -17793.217932369465, -23518.617274596367, 5946.659260589989, -13091.260265262159, -20345.69774218771, -37543.53225750116, 0.138, 1.004, 0.194, 192.0, 2.0, 40.0, 15.5, 48.0, 3.0, 8.0, 0.0, 0.0, 0.0, 1.696032131048345E9, 0.0, 2023-09-29 19:02:11.048
90.0, -57081.84028647427, -27157.23540273135, -45502.988458036, -28784.196529888693, -7714.52578479359, -11778.966996546627, -187500.02235174447, -10214.277829441766, -23834.268609794213, 9737.984506843628, -17822.0069792279, -23520.74069031962, 5940.020792486763, -13100.715053166754, -20351.978582379652, -37558.77614721968, 0.138, 1.004, 0.194, 192.0, 0.0, 0.0, 0.0, 0.0, 0.0, 0.0, 0.0, 0.0, 0.0, 1.696032131108872E9, 0.0, 2023-09-29 19:02:11.108
92.0, -57095.944237225565, -27025.985959289785, -45499.456882412065, -28745.438605003194, -7706.210935856216, -11772.552045887953, -187500.02235174447, -10210.96977126238, -23827.496031224255, 9752.490788995123, -17808.171249410065, -23521.008911253084, 5947.732144323843, -13092.266093762648, -20343.328457275446, -37546.862667425, 0.138, 1.004, 0.194, 192.0, 0.0, 0.0, 0.0, 0.0, 0.0, 0.0, 0.0, 0.0, 0.0, 1.696032131108891E9, 0.0, 2023-09-29 19:02:11.108
94.0, -57089.7751557559, -27152.407425929003, -45505.31303945935, -28783.682439766224, -7718.258526117626, -11781.738612859084, -187500.02235174447, -10211.863841040593, -23835.743824928264, 9728.216794516658, -17814.161516924087, -23515.756251306088, 5941.5630628541785, -13103.084338079017, -20348.4023032668, -37560.765452476204, 0.138, 1.004, 0.194, 192.0, 0.0, 0.0, 0.0, 0.0, 0.0, 0.0, 0.0, 0.0, 0.0, 1.696032131108897E9, 0.0, 2023-09-29 19:02:11.108
96.0, -57104.057920462845, -27000.460267121827, -45506.85530982677, -28740.700035178666, -7717.386808083869, -11781.872723325816, -187500.02235174447, -10213.406111408009, -23830.692330681366, 9757.02819311955, -17804.863191230677, -23520.51717287507, 5938.500873863802, -13092.377852484924, -20345.675390443255, -37543.353443545515, 0.138, 1.004, 0.194, 192.0, 0.0, 0.0, 0.0, 0.0, 0.0, 0.0, 0.0, 0.0, 0.0, 1.696032131108901E9, 0.0, 2023-09-29 19:02:11.108
98.0, -57088.85873423323, -27126.814678527677, -45504.32956270332, -28783.92830895523, -7727.199223899749, -11785.784278605495, -187500.02235174447, -10215.507175386809, -23840.5270982417, 9746.07583833645, -17799.968159194967, -23521.008911253084, 5934.231690672838, -13103.576076457033, -20353.87848065835, -37561.52541178768, 0.136, 1.002, 0.194, 192.0, 2.0, 32.0, 15.5, 40.0, 3.0, 8.0, 0.0, 0.0, 0.0, 1.696032131108915E9, 0.0, 2023-09-29 19:02:11.108
100.0, -57083.76253649742, -27041.609828664044, -45497.24405971099, -28736.609665943346, -7715.442206316257, -11774.496647655566, -187500.02235174447, -10211.774434062772, -23825.23850503427, 9751.373201772358, -17837.832014302257, -23515.17510595025, 5946.279280934248, -13103.196096801294, -20341.98735260813, -37547.24264708074, 0.136, 1.002, 0.194, 192.0, 0.0, 0.0, 0.0, 0.0, 0.0, 0.0, 0.0, 0.0, 0.0, 1.69603213110892E9, 0.0, 2023-09-29 19:02:11.108
102.0, -57075.671205004604, -27131.687358818934, -45506.83295808232, -28780.173215886738, -7724.896994220852, -11787.23714199509, -187500.02235174447, -10222.391512679043, -23839.14129008547, 9739.526777211044, -17799.074089416754, -23513.521076860558, 5938.523225608257, -13101.340902011503, -20352.44796901321, -37558.53027803067, 0.136, 1.002, 0.194, 192.0, 0.0, 0.0, 0.0, 0.0, 0.0, 0.0, 0.0, 0.0, 0.0, 1.696032131108925E9, 0.0, 2023-09-29 19:02:11.108
104.0, -57081.99674868545, -27080.993602394297, -45494.87477479873, -28734.039215330988, -7712.424720814792, -11775.144848244769, -187500.02235174447, -10207.795823549726, -23825.171449800906, 9751.97669887265, -17852.338296453752, -23505.78737327902, 5942.457132632391, -13092.35550074047, -20345.898907887808, -37552.316493072096, 0.136, 1.002, 0.194, 192.0, 0.0, 0.0, 0.0, 0.0, 0.0, 0.0, 0.0, 0.0, 0.0, 1.696032131108939E9, 0.0, 2023-09-29 19:02:11.108
106.0, -57090.31159762283, -27123.283102903737, -45508.86696682775, -28772.908898938764, -7733.189491413772, -11789.651130396263, -187500.02235174447, -10222.615030123596, -23830.625275447997, 9757.721097197664, -17782.019708397354, -23506.7484982906, 5938.634984330533, -13090.25443676167, -20348.469358500166, -37548.3602343035, 0.136, 1.002, 0.194, 192.0, 0.0, 0.0, 0.0, 0.0, 0.0, 0.0, 0.0, 0.0, 0.0, 1.696032131168284E9, 0.0, 2023-09-29 19:02:11.168
108.0, -57099.74403378297, -27086.067448385653, -45511.482120929024, -28750.87007890583, -7732.787160013576, -11788.310025728944, -187500.02235174447, -10226.280716214265, -23837.91194414043, 9734.564689941966, -17850.885433064155, -23522.41707115377, 5928.196719669905, -13109.454585248779, -20360.74046620613, -37562.374778076985, 0.134, 1.002, 0.2, 192.0, 2.0, 24.0, 15.5, 40.0, 3.0, 32.0, 0.0, 0.0, 0.0, 1.696032131168295E9, 0.0, 2023-09-29 19:02:11.168
110.0, -57080.18625738457, -27090.224872854338, -45516.75713262047, -28783.235404877116, -7738.978593227696, -11796.714281644141, -187500.02235174447, -10230.616954638595, -23845.869165166518, 9748.243957548613, -17769.18980708001, -23525.054576999497, 5931.393019127014, -13109.275771293136, -20364.629669741353, -37560.541935031644, 0.134, 1.002, 0.2, 192.0, 0.0, 0.0, 0.0, 0.0, 0.0, 0.0, 0.0, 0.0, 0.0, 1.696032131168301E9, 0.0, 2023-09-29 19:02:11.168
112.0, -57087.62938828819, -27125.250056415804, -45498.3392951893, -28751.585334728403, -7721.566584297012, -11781.246874481069, -187500.02235174447, -10216.714169587394, -23836.05674935064, 9735.97284984265, -17870.331450740272, -23517.052652484497, 5941.451304131902, -13114.237858562215, -20355.756027192598, -37566.845126968044, 0.134, 1.002, 0.2, 192.0, 0.0, 0.0, 0.0, 0.0, 0.0, 0.0, 0.0, 0.0, 0.0, 1.696032131168306E9, 0.0, 2023-09-29 19:02:11.168
114.0, -57087.49527782146, -27083.675811728936, -45507.48115867152, -28769.22086110364, -7744.119494452417, -11799.932932845704, -187500.02235174447, -10229.007629037813, -23831.742862670766, 9753.518969240067, -17777.079972872732, -23521.36653916437, 5940.646641331511, -13102.011454345162, -20355.5548614925, -37552.584714005556, 0.134, 1.002, 0.2, 192.0, 0.0, 0.0, 0.0, 0.0, 0.0, 0.0, 0.0, 0.0, 0.0, 1.696032131168312E9, 0.0, 2023-09-29 19:02:11.168
116.0, -57081.54971379635, -27117.78457376773, -45496.21587946604, -28753.619343473834, -7731.937793724274, -11793.3838717203, -187500.02235174447, -10224.716094102394, -23839.968304630318, 9717.420901944746, -17856.428665689073, -23522.21590545367, 5935.528091851246, -13113.723768439742, -20360.963983650683, -37568.40974907992, 0.134, 1.002, 0.2, 192.0, 0.0, 0.0, 0.0, 0.0, 0.0, 0.0, 0.0, 0.0, 0.0, 1.696032131168317E9, 0.0, 2023-09-29 19:02:11.168
118.0, -57074.59832127074, -27061.346419018082, -45500.86504231275, -28762.69415172269, -7738.240985660671, -11794.568514176432, -187500.02235174447, -10226.995972036835, -23822.980978844284, 9754.345983784913, -17766.909929145568, -23516.873838528853, 5936.55627209619, -13098.368119998948, -20352.805596924496, -37547.44381278084, 0.14, 1.004, 0.2, 192.0, 2.0, 48.0, 15.5, 48.0, 3.0, 32.0, 0.0, 0.0, 0.0, 1.696032131168322E9, 0.0, 2023-09-29 19:02:11.168
120.0, -57097.3747488707, -27139.152841467007, -45492.751359075475, -28751.898259150777, -7726.372209354903, -11789.315854229433, -187500.02235174447, -10214.769567819783, -23835.363845272524, 9721.265401991059, -17863.648279148136, -23512.38113789334, 5936.779789540743, -13109.07460559304, -20352.202099824204, -37559.40199606443, 0.14, 1.004, 0.2, 192.0, 0.0, 0.0, 0.0, 0.0, 0.0, 0.0, 0.0, 0.0, 0.0, 1.696032131228003E9, 0.0, 2023-09-29 19:02:11.228
122.0, -57095.40779535864, -27026.276531967706, -45505.00011503698, -28759.94488715469, -7743.0242589741065, -11801.3857962353, -187500.02235174447, -10224.067893513191, -23851.90413616945, 9749.294489538013, -17758.773894163834, -23523.288789187525, 5936.757437796287, -13106.92883812533, -20353.006762624595, -37546.05800462461, 0.14, 1.004, 0.2, 192.0, 0.0, 0.0, 0.0, 0.0, 0.0, 0.0, 0.0, 0.0, 0.0, 1.696032131228016E9, 0.0, 2023-09-29 19:02:11.228
124.0, -57085.26010337593, -27142.28208569075, -45492.751359075475, -28759.36374179885, -7724.874642476398, -11788.935874573694, -187500.02235174447, -10213.093186985634, -23844.170432587915, 9728.35090498339, -17865.72699138248, -23509.587169836424, 5935.863368018076, -13112.092091094506, -20354.057294613995, -37565.727539745276, 0.14, 1.004, 0.2, 192.0, 0.0, 0.0, 0.0, 0.0, 0.0, 0.0, 0.0, 0.0, 0.0, 1.696032131228021E9, 0.0, 2023-09-29 19:02:11.228
126.0, -57082.28732136337, -27024.086061011087, -45497.646391111186, -28750.199526572174, -7737.525729838101, -11794.054424053958, -187500.02235174447, -10226.236012725356, -23836.369673773013, 9780.341062586434, -17777.28113857283, -23514.41514663877, 5932.734123794333, -13103.531372968124, -20347.240012555125, -37542.28055981166, 0.14, 1.004, 0.2, 192.0, 0.0, 0.0, 0.0, 0.0, 0.0, 0.0, 0.0, 0.0, 0.0, 1.696032131228026E9, 0.0, 2023-09-29 19:02:11.228
128.0, -57071.98316716948, -27173.32865873917, -45489.53270787391, -28764.88462267931, -7725.276973876593, -11791.260455997046, -187500.02235174447, -10223.956134790915, -23841.24235406427, 9732.329515496434, -17864.83292160427, -23508.357823891383, 5935.259870917782, -13113.276733550638, -20351.799768424007, -37561.41365306541, 0.134, 1.0, 0.198, 192.0, 2.0, 24.0, 15.5, 32.0, 3.0, 24.0, 0.0, 0.0, 0.0, 1.696032131228031E9, 0.0, 2023-09-29 19:02:11.228
130.0, -57087.09294642126, -27031.998578548264, -45503.860176069764, -28754.960448141155, -7736.34108738197, -11803.531563703009, -187500.02235174447, -10237.456588441919, -23836.816708662118, 9755.396515774311, -17788.412307311573, -23515.64449258381, 5937.897376763508, -13097.094070564995, -20347.93291663324, -37542.07939411156, 0.134, 1.0, 0.198, 192.0, 0.0, 0.0, 0.0, 0.0, 0.0, 0.0, 0.0, 0.0, 0.0, 1.696032131228036E9, 0.0, 2023-09-29 19:02:11.228
132.0, -57091.69740577906, -27170.869966849088, -45500.46271091255, -28780.93317519822, -7728.652087289344, -11804.537392203498, -187500.02235174447, -10237.478940186375, -23843.92456339891, 9709.68719836321, -17860.20611050202, -23516.583265850935, 5939.327888408648, -13117.255344063682, -20359.868748172375, -37572.25424912623, 0.134, 1.0, 0.198, 192.0, 0.0, 0.0, 0.0, 0.0, 0.0, 0.0, 0.0, 0.0, 0.0, 1.69603213122804E9, 0.0, 2023-09-29 19:02:11.228
134.0, -57086.73531850998, -27039.374654218514, -45499.658048112164, -28755.988628386098, -7735.402314114847, -11799.66471191224, -187500.02235174447, -10240.116446032102, -23832.39106325997, 9759.375126287357, -17802.29274061832, -23520.628931597344, 5944.289975677726, -13105.744195669198, -20355.3536957924, -37552.07062388308, 0.134, 1.0, 0.198, 192.0, 0.0, 0.0, 0.0, 0.0, 0.0, 0.0, 0.0, 0.0, 0.0, 1.696032131228045E9, 0.0, 2023-09-29 19:02:11.228
136.0, -57083.18139114158, -27159.80585334371, -45495.43356841011, -28781.246099620595, -7734.932927481285, -11802.548086946976, -187500.02235174447, -10235.69080062995, -23844.617467477023, 9727.21096601617, -17843.01761901589, -23523.959341521186, 5935.349277895603, -13129.817024447564, -20362.93093716275, -37568.83443222457, 0.134, 1.0, 0.198, 192.0, 0.0, 0.0, 0.0, 0.0, 0.0, 0.0, 0.0, 0.0, 0.0, 1.696032131288549E9, 0.0, 2023-09-29 19:02:11.288
138.0, -57074.8218387153, -27036.26776173923, -45485.66585608314, -28737.906067121756, -7725.276973876593, -11783.2808832265, -187500.02235174447, -10214.948381775426, -23827.652493435442, 9756.938786141729, -17809.445298844017, -23514.191629194218, 5945.452266389402, -13100.558590955567, -20344.758968920585, -37540.9618068888, 0.134, 0.996, 0.198, 192.0, 2.0, 24.0, 15.5, 16.0, 3.0, 24.0, 0.0, 0.0, 0.0, 1.696032131288563E9, 0.0, 2023-09-29 19:02:11.288
140.0, -57078.37576608369, -27175.295612251237, -45498.18283297811, -28778.250965863583, -7729.948488467752, -11787.013624550536, -187500.02235174447, -10214.769567819783, -23841.44351976437, 9716.772701355541, -17838.72608408047, -23519.37723390785, 5936.600975585101, -13103.933704368319, -20350.21279456768, -37548.69551047034, 0.134, 0.996, 0.198, 192.0, 0.0, 0.0, 0.0, 0.0, 0.0, 0.0, 0.0, 0.0, 0.0, 1.696032131288568E9, 0.0, 2023-09-29 19:02:11.288
142.0, -57089.26106563343, -27048.96355258984, -45491.87964104171, -28735.715596165133, -7721.544232552556, -11776.843580823372, -187500.02235174447, -10207.907582272004, -23839.99065637477, 9746.277004036547, -17827.61726708618, -23520.494821130615, 5943.284147177237, -13093.897771107886, -20342.233221797138, -37531.14939107292, 0.134, 0.996, 0.198, 192.0, 0.0, 0.0, 0.0, 0.0, 0.0, 0.0, 0.0, 0.0, 0.0, 1.696032131288573E9, 0.0, 2023-09-29 19:02:11.288
144.0, -57079.806277728836, -27156.6095538866, -45491.11968173023, -28769.73495122611, -7728.629735544889, -11788.690005384686, -187500.02235174447, -10216.758873076305, -23843.164604087426, 9735.771684142552, -17823.705711806502, -23514.012815238573, 5946.03341174524, -13098.949265354786, -20340.78035840754, -37542.52642900067, 0.134, 0.996, 0.198, 192.0, 0.0, 0.0, 0.0, 0.0, 0.0, 0.0, 0.0, 0.0, 0.0, 1.696032131288577E9, 0.0, 2023-09-29 19:02:11.288
146.0, -57075.26887360441, -27047.68950315589, -45478.200373435066, -28734.530953709003, -7725.634601787878, -11785.001967549559, -187500.02235174447, -10218.614067866096, -23831.407586503934, 9758.101076853405, -17832.62405784417, -23512.202323937694, 5948.4921036353235, -13097.49640196519, -20334.58892519342, -37534.99389111923, 0.134, 0.996, 0.198, 192.0, 0.0, 0.0, 0.0, 0.0, 0.0, 0.0, 0.0, 0.0, 0.0, 1.696032131288582E9, 0.0, 2023-09-29 19:02:11.288
148.0, -57068.49629503445, -27146.640675859533, -45479.3850158912, -28776.261660607062, -7736.274032148604, -11800.983464835104, -187500.02235174447, -10235.087303529657, -23832.055787093137, 9756.268233808069, -17813.021577956864, -23512.716414060167, 5950.101429236106, -13112.36031202797, -20340.959172363186, -37550.4612982823, 0.13, 0.998, 0.196, 192.0, 2.0, 8.0, 15.5, 24.0, 3.0, 16.0, 0.0, 0.0, 0.0, 1.696032131288586E9, 0.0, 2023-09-29 19:02:11.288
150.0, -57084.65660627563, -27065.325029531126, -45481.061396725345, -28731.379357740803, -7729.322639623004, -11791.148697274768, -187500.02235174447, -10227.063027270202, -23827.85365913554, 9742.700724923698, -17847.890299307146, -23519.153716463294, 5953.029507759751, -13115.847184162998, -20340.087454329427, -37542.48172551176, 0.13, 0.998, 0.196, 192.0, 0.0, 0.0, 0.0, 0.0, 0.0, 0.0, 0.0, 0.0, 0.0, 1.696032131348598E9, 0.0, 2023-09-29 19:02:11.348
152.0, -57076.54292303836, -27120.489134846823, -45494.45009165408, -28771.45603554917, -7743.24777641866, -11803.643322425285, -187500.02235174447, -10231.55572790572, -23849.42309253491, 9722.427692702735, -17797.911798705078, -23528.630856112344, 5933.98582148383, -13110.996855616195, -20352.850300413407, -37548.00260639222, 0.13, 0.998, 0.196, 192.0, 0.0, 0.0, 0.0, 0.0, 0.0, 0.0, 0.0, 0.0, 0.0, 1.696032131348611E9, 0.0, 2023-09-29 19:02:11.348
154.0, -57074.8218387153, -27075.629183725025, -45483.85536478226, -28729.16653503973, -7730.350819867947, -11785.605464649852, -187500.02235174447, -10219.485785899853, -23836.034397606185, 9727.345076482901, -17862.195415758542, -23519.578399607944, 5947.329812923648, -13106.481803236224, -20344.960134620684, -37543.845181923534, 0.13, 0.998, 0.196, 192.0, 0.0, 0.0, 0.0, 0.0, 0.0, 0.0, 0.0, 0.0, 0.0, 1.696032131348615E9, 0.0, 2023-09-29 19:02:11.348
156.0, -57076.34175733826, -27099.098515403097, -45491.74553057498, -28766.06926513544, -7743.068962463018, -11799.977636334615, -187500.02235174447, -10229.007629037813, -23842.47170000931, 9751.462608750178, -17796.123659148652, -23520.56187636398, 5943.977051255352, -13105.051291591084, -20348.15643407779, -37542.48172551176, 0.13, 0.998, 0.196, 192.0, 0.0, 0.0, 0.0, 0.0, 0.0, 0.0, 0.0, 0.0, 0.0, 1.696032131348619E9, 0.0, 2023-09-29 19:02:11.348
158.0, -57080.700347507045, -27077.327916303628, -45479.183850191104, -28734.35213975336, -7732.72010478021, -11788.533543173498, -187500.02235174447, -10223.01736152379, -23842.85167966505, 9738.275079521547, -17872.924253097088, -23522.08179498694, 5943.775885555254, -13103.799593901587, -20343.529622975544, -37545.70037671332, 0.132, 1.004, 0.196, 192.0, 2.0, 16.0, 15.5, 48.0, 3.0, 16.0, 0.0, 0.0, 0.0, 1.696032131348623E9, 0.0, 2023-09-29 19:02:11.348
160.0, -57078.599283528245, -27103.524160805246, -45478.02155947943, -28767.7903494585, -7734.2176716587155, -11791.551028674965, -187500.02235174447, -10226.727751103372, -23838.604848218543, 9744.846492391407, -17796.034252170833, -23522.864106042874, 5946.502798378801, -13105.341864269003, -20339.998047351604, -37541.542952244636, 0.132, 1.004, 0.196, 192.0, 0.0, 0.0, 0.0, 0.0, 0.0, 0.0, 0.0, 0.0, 0.0, 1.696032131348628E9, 0.0, 2023-09-29 19:02:11.348
162.0, -57085.30480686484, -27118.03044295674, -45475.272294911425, -28739.202468300162, -7728.786197756076, -11793.361519975844, -187500.02235174447, -10227.487710414853, -23838.09075809607, 9721.35480896888, -17890.425669005595, -23518.863143785376, 5954.169446726972, -13125.369027300958, -20333.247820526103, -37542.50407725621, 0.132, 1.004, 0.196, 192.0, 0.0, 0.0, 0.0, 0.0, 0.0, 0.0, 0.0, 0.0, 0.0, 1.696032131348633E9, 0.0, 2023-09-29 19:02:11.348
164.0, -57079.359242839724, -27072.45523601237, -45481.93311475911, -28761.017770888542, -7742.890148507375, -11799.642360167785, -187500.02235174447, -10236.182539007967, -23846.71853145582, 9742.521910968055, -17778.689298473513, -23522.528829876046, 5950.280243191748, -13102.68200667882, -20342.724960175154, -37535.597388219525, 0.132, 1.004, 0.196, 192.0, 0.0, 0.0, 0.0, 0.0, 0.0, 0.0, 0.0, 0.0, 0.0, 1.696032131348637E9, 0.0, 2023-09-29 19:02:11.348
166.0, -57072.96664392551, -27123.640730815023, -45475.00407397796, -28743.73987242459, -7731.647221046355, -11792.221581008624, -187500.02235174447, -10229.633477882562, -23846.80793843364, 9715.945686810695, -17871.560796685317, -23520.628931597344, 5941.496007620813, -13114.796652173598, -20344.98248636514, -37546.12505985797, 0.132, 1.004, 0.196, 192.0, 0.0, 0.0, 0.0, 0.0, 0.0, 0.0, 0.0, 0.0, 0.0, 1.696032131408841E9, 0.0, 2023-09-29 19:02:11.408
168.0, -57073.994824170455, -27054.998523592774, -45479.51912635793, -28744.49983173607, -7742.063133962529, -11803.129232302814, -187500.02235174447, -10238.954155320425, -23830.13353706998, 9778.195295118725, -17787.987624166923, -23507.17318143525, 5956.426972916958, -13090.96969258424, -20335.93002986074, -37530.076507339065, 0.132, 0.996, 0.19, 192.0, 2.0, 16.0, 15.5, 16.0, 2.5, 120.0, 0.0, 0.0, 0.0, 1.696032131408851E9, 0.0, 2023-09-29 19:02:11.408
170.0, -57066.10465837773, -27142.930286279952, -45471.09251869828, -28743.337541024393, -7727.892127977864, -11791.819249608428, -187500.02235174447, -10227.487710414853, -23839.118938341016, 9718.739654867608, -17874.377116486685, -23511.956454748688, 5949.632042602545, -13114.617838217955, -20344.714265431674, -37548.27082732569, 0.132, 0.996, 0.19, 192.0, 0.0, 0.0, 0.0, 0.0, 0.0, 0.0, 0.0, 0.0, 0.0, 1.696032131408856E9, 0.0, 2023-09-29 19:02:11.408
172.0, -57070.32913807978, -27069.191881321894, -45472.09834719877, -28742.82345090192, -7735.648183303855, -11791.729842630606, -187500.02235174447, -10223.374989435077, -23830.804089403642, 9754.435390762734, -17785.46187704347, -23507.64256806881, 5955.376440927558, -13098.68104442132, -20335.997085094106, -37523.929777613856, 0.132, 0.996, 0.19, 192.0, 0.0, 0.0, 0.0, 0.0, 0.0, 0.0, 0.0, 0.0, 0.0, 1.69603213140886E9, 0.0, 2023-09-29 19:02:11.408
174.0, -57075.58179802678, -27178.648373919532, -45466.666873296126, -28744.812756158444, -7732.116607679917, -11792.66861589773, -187500.02235174447, -10223.844376068637, -23840.37063603051, 9723.053541547482, -17878.311023510818, -23508.581341335936, 5959.89149330753, -13125.12315811195, -20337.382893250335, -37537.8102109206, 0.132, 0.996, 0.19, 192.0, 0.0, 0.0, 0.0, 0.0, 0.0, 0.0, 0.0, 0.0, 0.0, 1.696032131408865E9, 0.0, 2023-09-29 19:02:11.408
176.0, -57066.931672922576, -27074.556299991167, -45464.498754083965, -28726.21610477163, -7734.597651314456, -11784.979615805105, -187500.02235174447, -10220.916297544993, -23828.345397513556, 9764.068992622972, -17790.870999201656, -23506.256759912583, 5966.015871288285, -13099.061024077062, -20328.01751232356, -37518.69946941131, 0.132, 0.996, 0.19, 192.0, 0.0, 0.0, 0.0, 0.0, 0.0, 0.0, 0.0, 0.0, 0.0, 1.69603213140887E9, 0.0, 2023-09-29 19:02:11.408
178.0, -57072.00551891393, -27177.933118096964, -45465.23636165099, -28744.07514859142, -7741.05730546204, -11796.267246755035, -187500.02235174447, -10230.371085449588, -23838.604848218543, 9733.31299225247, -17862.217767502996, -23509.207190180685, 5960.56204564119, -13110.572172471544, -20333.873669370852, -37533.56337947409, 0.134, 0.998, 0.19, 192.0, 2.0, 24.0, 15.5, 24.0, 2.5, 120.0, 0.0, 0.0, 0.0, 1.696032131408875E9, 0.0, 2023-09-29 19:02:11.408
180.0, -57069.68093749058, -27044.470851954324, -45465.10225118426, -28726.931360594197, -7745.415895630825, -11796.133136288303, -187500.02235174447, -10228.02415228178, -23834.492127238766, 9760.73858269913, -17797.174191138052, -23511.93410300423, 5963.825400331664, -13095.976483342229, -20336.712340916674, -37523.9074258694, 0.134, 0.998, 0.19, 192.0, 0.0, 0.0, 0.0, 0.0, 0.0, 0.0, 0.0, 0.0, 0.0, 1.69603213146914E9, 0.0, 2023-09-29 19:02:11.469
182.0, -57062.48367577597, -27179.609498931113, -45470.24315240898, -28758.849651676377, -7741.77256128461, -11802.793956135984, -187500.02235174447, -10220.379855678066, -23853.133482114492, 9730.429617217735, -17859.043819790342, -23514.549257105504, 5971.290882979737, -13112.740291683709, -20340.98152410764, -37543.59931273452, 0.134, 0.998, 0.19, 192.0, 0.0, 0.0, 0.0, 0.0, 0.0, 0.0, 0.0, 0.0, 0.0, 1.696032131469156E9, 0.0, 2023-09-29 19:02:11.469
184.0, -57070.03856540186, -27020.509781898236, -45484.212992693545, -28734.910933364743, -7742.510168851634, -11800.424671223722, -187500.02235174447, -10215.976562020369, -23843.85750816554, 9763.845475178417, -17804.103231919198, -23525.345149677414, 5976.94587432693, -13101.11738456695, -20338.031093839538, -37528.24366429373, 0.134, 0.998, 0.19, 192.0, 0.0, 0.0, 0.0, 0.0, 0.0, 0.0, 0.0, 0.0, 0.0, 1.696032131469162E9, 0.0, 2023-09-29 19:02:11.469
186.0, -57067.490466533956, -27166.80194935822, -45497.31111494436, -28767.16450061375, -7732.496587335657, -11800.29056075699, -187500.02235174447, -10203.370178147576, -23845.600944233054, 9730.250803262092, -17846.035104517356, -23520.025434497053, 5993.732034412866, -13101.095032822495, -20342.099111330404, -37549.58958024855, 0.134, 0.998, 0.19, 192.0, 0.0, 0.0, 0.0, 0.0, 0.0, 0.0, 0.0, 0.0, 0.0, 1.696032131469167E9, 0.0, 2023-09-29 19:02:11.469
188.0, -57075.98412942698, -27033.429090193404, -45519.14876927719, -28738.017825844032, -7733.457712347235, -11783.303234970956, -187500.02235174447, -10191.210829163889, -23839.76713893022, 9764.203103089703, -17814.67560704656, -23528.496745645614, 5990.826307633675, -13103.6431316904, -20344.49074798712, -37532.42344050687, 0.134, 1.004, 0.2, 192.0, 2.0, 24.0, 15.5, 48.0, 3.0, 32.0, 0.0, 0.0, 0.0, 1.696032131469173E9, 0.0, 2023-09-29 19:02:11.469
190.0, -57075.33592883777, -27178.737780897354, -45532.15748455018, -28784.084771166417, -7737.078694948995, -11784.3314152159, -187500.02235174447, -10186.181686661444, -23847.43378727839, 9728.30620149448, -17840.983610270454, -23527.08858574493, 6002.225697305882, -13106.571210214044, -20353.36439053588, -37543.55460924561, 0.134, 1.004, 0.2, 192.0, 0.0, 0.0, 0.0, 0.0, 0.0, 0.0, 0.0, 0.0, 0.0, 1.696032131469178E9, 0.0, 2023-09-29 19:02:11.469
192.0, -57064.87531243269, -27076.657363969967, -45532.40335373919, -28749.6854364497, -7732.3401251244695, -11777.737650601584, -187500.02235174447, -10187.835715751138, -23837.75548192924, 9753.40721051779, -17841.676514348568, -23529.74844333511, 6003.142118828549, -13107.219410803249, -20360.74046620613, -37541.78882143364, 0.134, 1.004, 0.2, 192.0, 0.0, 0.0, 0.0, 0.0, 0.0, 0.0, 0.0, 0.0, 0.0, 1.696032131469184E9, 0.0, 2023-09-29 19:02:11.469
194.0, -57071.55848402483, -27180.34710649814, -45518.746437876995, -28776.149901884786, -7726.685133777277, -11767.61231036333, -187500.02235174447, -10176.950416201404, -23851.814729191632, 9750.255614549591, -17822.588124583737, -23514.951588505697, 5999.118804826594, -13113.41084401737, -20357.298297560013, -37543.24168482324, 0.134, 1.004, 0.2, 192.0, 0.0, 0.0, 0.0, 0.0, 0.0, 0.0, 0.0, 0.0, 0.0, 1.696032131469189E9, 0.0, 2023-09-29 19:02:11.469
196.0, -57078.84515271726, -27051.06461656864, -45509.939850561605, -28730.954674596152, -7721.588936041468, -11760.37034515981, -187500.02235174447, -10174.089392911124, -23848.171394845416, 9766.684146724243, -17825.627961829658, -23502.524018588545, 6012.038113121762, -13104.336035768514, -20342.41203575278, -37516.598405432516, 0.134, 1.004, 0.2, 192.0, 0.0, 0.0, 0.0, 0.0, 0.0, 0.0, 0.0, 0.0, 0.0, 1.696032131528004E9, 0.0, 2023-09-29 19:02:11.528
198.0, -57056.56046349531, -27143.287914191238, -45515.50543493097, -28787.236367134617, -7730.574337312501, -11771.009775520537, -187500.02235174447, -10183.2536081378, -23858.944935672873, 9756.804675674997, -17780.589196752215, -23505.295634901006, 5999.923467626985, -13119.043483620106, -20357.58887023793, -37535.66444345289, 0.132, 1.0, 0.196, 192.0, 2.0, 16.0, 15.5, 32.0, 3.0, 16.0, 0.0, 0.0, 0.0, 1.696032131528016E9, 0.0, 2023-09-29 19:02:11.528
200.0, -57061.23197808647, -27097.399782824494, -45498.272239955935, -28745.393901514282, -7707.060302145518, -11752.524882855998, -187500.02235174447, -10165.551026529196, -23841.82349942011, 9770.12631537036, -17846.996229528933, -23491.21403589416, 6012.798072433242, -13112.6955881948, -20334.96890484916, -37527.10372532651, 0.132, 1.0, 0.196, 192.0, 0.0, 0.0, 0.0, 0.0, 0.0, 0.0, 0.0, 0.0, 0.0, 1.696032131528021E9, 0.0, 2023-09-29 19:02:11.528
202.0, -57060.87435017519, -27150.7086933504, -45513.493777929994, -28792.086695681417, -7722.460654075224, -11765.488894640077, -187500.02235174447, -10176.637491779029, -23847.836118678584, 9774.753126472608, -17781.796190952802, -23500.199437165196, 5998.5600112152115, -13117.568268486057, -20336.108843816382, -37529.160085816395, 0.132, 1.0, 0.196, 192.0, 0.0, 0.0, 0.0, 0.0, 0.0, 0.0, 0.0, 0.0, 0.0, 1.696032131528026E9, 0.0, 2023-09-29 19:02:11.528
204.0, -57073.92776893709, -27115.728213277845, -45513.225556996535, -28761.64361973329, -7710.435415558269, -11754.268318923512, -187500.02235174447, -10172.167142887967, -23837.017874362216, 9751.820236661462, -17849.20905223001, -23507.329643646437, 5996.190726302949, -13117.12123359695, -20338.768701406563, -37535.731498686255, 0.132, 1.0, 0.196, 192.0, 0.0, 0.0, 0.0, 0.0, 0.0, 0.0, 0.0, 0.0, 0.0, 1.696032131528031E9, 0.0, 2023-09-29 19:02:11.528
206.0, -57064.47298103249, -27156.341332953136, -45519.88637684422, -28796.46763759466, -7721.141901152361, -11761.242063193567, -187500.02235174447, -10179.073831924657, -23847.903173911953, 9766.08064962395, -17781.70678397498, -23505.005062223085, 5996.99538910334, -13108.202887559282, -20344.31193403148, -37532.04346085113, 0.132, 1.0, 0.196, 192.0, 0.0, 0.0, 0.0, 0.0, 0.0, 0.0, 0.0, 0.0, 0.0, 1.696032131528035E9, 0.0, 2023-09-29 19:02:11.528
208.0, -57084.3213301088, -27139.510469378292, -45517.405333209674, -28766.27043083554, -7717.520918550601, -11760.817380048917, -187500.02235174447, -10176.72689875685, -23849.601906490556, 9755.888254152329, -17864.274127992885, -23510.36948089236, 5992.882668123564, -13117.858841163976, -20343.820195653465, -37534.4574492523, 0.13, 0.998, 0.198, 192.0, 2.0, 8.0, 15.5, 24.0, 3.0, 24.0, 0.0, 0.0, 0.0, 1.69603213152804E9, 0.0, 2023-09-29 19:02:11.528
210.0, -57071.11144913572, -27104.664099772468, -45531.37517349424, -28796.601748061392, -7736.162273426327, -11780.039880280481, -187500.02235174447, -10192.3060646422, -23850.741845457775, 9766.08064962395, -17763.8924436441, -23518.572571107456, 5988.457022721413, -13123.871460422453, -20349.497538745112, -37536.580864975556, 0.13, 0.998, 0.198, 192.0, 0.0, 0.0, 0.0, 0.0, 0.0, 0.0, 0.0, 0.0, 0.0, 1.696032131588309E9, 0.0, 2023-09-29 19:02:11.588
212.0, -57079.06867016181, -27117.18107666744, -45522.881510601226, -28772.17129137174, -7724.047627931551, -11772.194417976669, -187500.02235174447, -10186.53931457273, -23856.62035424952, 9739.59383244441, -17852.651220876127, -23523.42289965426, 5982.08677555165, -13131.046370392605, -20350.63747771233, -37549.09784187053, 0.13, 0.998, 0.198, 192.0, 0.0, 0.0, 0.0, 0.0, 0.0, 0.0, 0.0, 0.0, 0.0, 1.696032131588323E9, 0.0, 2023-09-29 19:02:11.588
214.0, -57069.14449562365, -27065.235622553304, -45527.217749025556, -28778.340372841405, -7726.238098888171, -11765.287728939978, -187500.02235174447, -10183.2536081378, -23851.4794530248, 9766.84060893543, -17758.103341830178, -23523.84758279891, 5978.734013883354, -13115.556611485079, -20347.687047444233, -37535.731498686255, 0.13, 0.998, 0.198, 192.0, 0.0, 0.0, 0.0, 0.0, 0.0, 0.0, 0.0, 0.0, 0.0, 1.696032131588328E9, 0.0, 2023-09-29 19:02:11.588
216.0, -57070.86557994671, -27137.409405399492, -45517.271222742944, -28756.614477230847, -7710.346008580448, -11755.408257890733, -187500.02235174447, -10170.87074170956, -23844.550412243654, 9737.939803354717, -17871.046706562844, -23503.194570922205, 5987.361787243103, -13095.842372875497, -20336.555878705487, -37534.14452482993, 0.13, 0.998, 0.198, 192.0, 0.0, 0.0, 0.0, 0.0, 0.0, 0.0, 0.0, 0.0, 0.0, 1.696032131588333E9, 0.0, 2023-09-29 19:02:11.588
218.0, -57072.60901601423, -27066.084988842606, -45527.5977286813, -28772.01482916055, -7727.087465177473, -11776.016566278526, -187500.02235174447, -10185.555837816697, -23851.390046046978, 9778.642330007831, -17774.889501916114, -23511.397661137304, 5979.315159239192, -13095.372986241937, -20339.908640373786, -37527.59546370452, 0.13, 0.998, 0.196, 192.0, 2.0, 8.0, 15.5, 24.0, 3.0, 16.0, 0.0, 0.0, 0.0, 1.696032131588339E9, 0.0, 2023-09-29 19:02:11.588
220.0, -57069.27860609038, -27165.170272012983, -45509.2916499724, -28769.42202680374, -7716.559793539023, -11769.959243531137, -187500.02235174447, -10184.192381404922, -23854.362828059537, 9741.73959991212, -17869.01269781741, -23505.586207578923, 5985.551295942223, -13108.113480581462, -20342.83671889743, -37550.93068491587, 0.13, 0.998, 0.196, 192.0, 0.0, 0.0, 0.0, 0.0, 0.0, 0.0, 0.0, 0.0, 0.0, 1.696032131588344E9, 0.0, 2023-09-29 19:02:11.588
222.0, -57067.691632234055, -27057.479567227314, -45516.310097731366, -28764.6387534903, -7729.233232645182, -11772.753211588051, -187500.02235174447, -10189.556800074197, -23845.489185510778, 9787.203048134214, -17768.251033812885, -23506.03324246803, 5989.865182622098, -13104.268980535147, -20340.109806073884, -37530.81411490609, 0.13, 0.998, 0.196, 192.0, 0.0, 0.0, 0.0, 0.0, 0.0, 0.0, 0.0, 0.0, 0.0, 1.696032131588349E9, 0.0, 2023-09-29 19:02:11.588
224.0, -57069.05508864583, -27177.463731463402, -45510.47629242853, -28767.656238991767, -7726.774540755098, -11767.098220240858, -187500.02235174447, -10182.068965681668, -23850.33951405758, 9755.30710879649, -17858.663840134603, -23498.03131795303, 5989.976941344374, -13106.861782891963, -20345.898907887808, -37547.66733022539, 0.13, 0.998, 0.196, 192.0, 0.0, 0.0, 0.0, 0.0, 0.0, 0.0, 0.0, 0.0, 0.0, 1.696032131588354E9, 0.0, 2023-09-29 19:02:11.588
226.0, -57062.05899263132, -27057.39016024949, -45515.81835935335, -28758.335561553904, -7728.294459378059, -11767.589958618875, -187500.02235174447, -10183.477125582353, -23837.91194414043, 9783.090327154438, -17774.621280982647, -23503.75336453359, 5987.786470387754, -13108.962846870763, -20343.93195437574, -37529.67417593887, 0.13, 0.998, 0.196, 192.0, 0.0, 0.0, 0.0, 0.0, 0.0, 0.0, 0.0, 0.0, 0.0, 1.696032131648634E9, 0.0, 2023-09-29 19:02:11.648
228.0, -57071.37967006918, -27195.009850860817, -45517.695905887595, -28779.681477508722, -7720.2478313741485, -11767.23233070759, -187500.02235174447, -10183.991215704826, -23843.164604087426, 9748.93686162673, -17855.601651144225, -23508.804858780488, 5982.980845329863, -13102.324378767536, -20347.150605577302, -37546.72855695827, 0.138, 1.0, 0.194, 192.0, 2.0, 40.0, 15.5, 32.0, 3.0, 8.0, 0.0, 0.0, 0.0, 1.696032131648646E9, 0.0, 2023-09-29 19:02:11.648
230.0, -57076.788792227366, -27068.521328988234, -45522.657993156674, -28757.50854700906, -7717.275049361593, -11761.778505060496, -187500.02235174447, -10181.286654625734, -23842.605810476045, 9781.525705042566, -17798.42588882755, -23521.120669975364, 5989.2840372662595, -13087.527523938123, -20342.568497963966, -37532.37873701796, 0.138, 1.0, 0.194, 192.0, 0.0, 0.0, 0.0, 0.0, 0.0, 0.0, 0.0, 0.0, 0.0, 1.696032131648652E9, 0.0, 2023-09-29 19:02:11.648
232.0, -57088.50110632195, -27185.733876911865, -45528.84942637079, -28781.000230431586, -7720.784273241076, -11771.814438320927, -187500.02235174447, -10187.96982621787, -23857.134444371994, 9745.82996914744, -17853.791159843346, -23531.42482416926, 5984.970150586385, -13106.392396258403, -20346.144777076814, -37550.058966882105, 0.138, 1.0, 0.194, 192.0, 0.0, 0.0, 0.0, 0.0, 0.0, 0.0, 0.0, 0.0, 0.0, 1.696032131648657E9, 0.0, 2023-09-29 19:02:11.648
234.0, -57093.30673137984, -27027.707043612845, -45530.36934499376, -28750.06541610544, -7725.321677365503, -11764.348955672856, -187500.02235174447, -10186.427555850454, -23850.898307668962, 9759.68805070973, -17804.304397619297, -23536.94570504972, 5974.822458603676, -13093.227218774227, -20344.960134620684, -37534.52450448567, 0.138, 1.0, 0.194, 192.0, 0.0, 0.0, 0.0, 0.0, 0.0, 0.0, 0.0, 0.0, 0.0, 1.696032131648663E9, 0.0, 2023-09-29 19:02:11.648
236.0, -57070.15032412414, -27178.447208219437, -45520.37811522223, -28780.26262286456, -7720.694866263255, -11764.3266039284, -187500.02235174447, -10179.900846469503, -23860.062522895638, 9737.805692887985, -17849.1643487411, -23523.109975231884, 5975.448307448424, -13096.200000786783, -20350.369256778868, -37548.29317907014, 0.138, 1.0, 0.194, 192.0, 0.0, 0.0, 0.0, 0.0, 0.0, 0.0, 0.0, 0.0, 0.0, 1.696032131648669E9, 0.0, 2023-09-29 19:02:11.648
238.0, -57091.85386799024, -27041.36395947504, -45511.616231395754, -28743.35989276885, -7724.8299389874865, -11759.90095852625, -187500.02235174447, -10182.359538359588, -23859.168453117425, 9770.439239792733, -17829.159537453597, -23527.043882256017, 5967.669900377978, -13092.221390273739, -20346.435349754734, -37528.33307127155, 0.132, 1.008, 0.188, 192.0, 2.0, 16.0, 15.5, 64.0, 2.5, 112.0, 0.0, 0.0, 0.0, 1.696032131648674E9, 0.0, 2023-09-29 19:02:11.648
240.0, -57072.60901601423, -27160.342295210638, -45495.63473411021, -28774.540576284002, -7726.953354710741, -11758.381039903288, -187500.02235174447, -10188.34980587361, -23866.164549131936, 9750.568538971966, -17834.211031700495, -23518.416108896272, 5980.052766806218, -13092.668425162843, -20353.92318414726, -37540.26890281068, 0.132, 1.008, 0.188, 192.0, 0.0, 0.0, 0.0, 0.0, 0.0, 0.0, 0.0, 0.0, 0.0, 1.696032131708953E9, 0.0, 2023-09-29 19:02:11.708
242.0, -57064.9200159216, -27049.298828756673, -45478.692111813085, -28723.086860547886, -7715.218688871705, -11744.791179274462, -187500.02235174447, -10179.409108091488, -23839.744787185766, 9782.062146909493, -17836.088578234743, -23499.640643553812, 5990.893362867041, -13069.981404540707, -20337.807576394986, -37516.1066670545, 0.132, 1.008, 0.188, 192.0, 0.0, 0.0, 0.0, 0.0, 0.0, 0.0, 0.0, 0.0, 0.0, 1.696032131708972E9, 0.0, 2023-09-29 19:02:11.708
244.0, -57050.570195981294, -27160.409350444002, -45482.58131534831, -28765.46576803515, -7723.377075597892, -11764.639528350775, -187500.02235174447, -10190.517925085775, -23840.415339519423, 9777.50239104061, -17815.457918102493, -23493.762134762066, 5993.32970301267, -13086.097012292983, -20340.847413640906, -37528.15425731591, 0.132, 1.008, 0.188, 192.0, 0.0, 0.0, 0.0, 0.0, 0.0, 0.0, 0.0, 0.0, 0.0, 1.696032131708989E9, 0.0, 2023-09-29 19:02:11.708
246.0, -57064.38357405467, -27059.088892828095, -45481.419024636634, -28723.131564036797, -7718.347933095448, -11764.304252183945, -187500.02235174447, -10193.356596631598, -23835.140327827972, 9780.341062586434, -17841.698866093026, -23493.538617317514, 5988.904057610519, -13081.626663401923, -20337.606410694887, -37528.400126504916, 0.132, 1.008, 0.188, 192.0, 0.0, 0.0, 0.0, 0.0, 0.0, 0.0, 0.0, 0.0, 0.0, 1.696032131708994E9, 0.0, 2023-09-29 19:02:11.708
248.0, -57057.633347229166, -27117.02461445625, -45497.86990855574, -28766.717465724643, -7734.329430380993, -11785.516057672032, -187500.02235174447, -10201.336169402144, -23844.95274364385, 9770.752164215108, -17788.613473011672, -23502.27814939954, 5979.941008083941, -13092.847239118486, -20351.240974812627, -37541.610007478004, 0.13, 1.006, 0.19, 192.0, 2.0, 8.0, 15.5, 56.0, 2.5, 120.0, 0.0, 0.0, 0.0, 1.696032131709E9, 0.0, 2023-09-29 19:02:11.709
250.0, -57059.309728063316, -27056.49609047128, -45495.94765853258, -28730.373529240314, -7720.29253486306, -11772.127362743302, -187500.02235174447, -10188.77448901826, -23832.927505126896, 9769.16519035878, -17846.973877784476, -23501.786411021523, 5987.071214565184, -13088.533352438611, -20346.234184054636, -37538.30194929861, 0.13, 1.006, 0.19, 192.0, 0.0, 0.0, 0.0, 0.0, 0.0, 0.0, 0.0, 0.0, 0.0, 1.696032131709006E9, 0.0, 2023-09-29 19:02:11.709
252.0, -57058.97445189649, -27114.454163843893, -45510.90097557318, -28771.992477416097, -7735.1564449258385, -11782.252702981557, -187500.02235174447, -10196.172916432968, -23846.450310522356, 9767.332347313446, -17798.18001963854, -23507.50845760208, 5980.589208673145, -13095.618855430945, -20356.560689992988, -37543.353443545515, 0.13, 1.006, 0.19, 192.0, 0.0, 0.0, 0.0, 0.0, 0.0, 0.0, 0.0, 0.0, 0.0, 1.696032131709011E9, 0.0, 2023-09-29 19:02:11.709
254.0, -57068.78686771237, -27082.155893105974, -45508.50933891646, -28737.324921765918, -7724.025276187096, -11768.081696996893, -187500.02235174447, -10188.215695406878, -23842.2258308203, 9770.305129326001, -17874.10889555322, -23508.000195980097, 5987.451194220924, -13082.900712835875, -20355.13017834785, -37544.15810634591, 0.13, 1.006, 0.19, 192.0, 0.0, 0.0, 0.0, 0.0, 0.0, 0.0, 0.0, 0.0, 0.0, 1.696032131709017E9, 0.0, 2023-09-29 19:02:11.709
0.0, -57061.18727459756, -27099.813771225665, -45511.99621105149, -28771.768959971545, -7735.268203648116, -11768.640490608275, -187500.02235174447, -10192.842506509127, -23851.77002570272, 9765.767725201575, -17790.401612568094, -23519.421937396757, 5976.94587432693, -13086.476991948724, -20364.137931363337, -37540.492420255236, 0.13, 1.006, 0.19, 192.0, 0.0, 0.0, 0.0, 0.0, 0.0, 0.0, 0.0, 0.0, 0.0, 1.696032131769082E9, 0.0, 2023-09-29 19:02:11.769
2.0, -57061.70136472004, -27115.41528885547, -45494.3383329318, -28737.54843921047, -7716.649200516845, -11753.217786934112, -187500.02235174447, -10181.733689514838, -23841.845851164562, 9754.278928551546, -17882.289634023862, -23509.564818091967, 5989.485202966357, -13077.82686684452, -20347.955268377696, -37535.2621120527, 0.128, 1.004, 0.19, 192.0, 2.0, 0.0, 15.5, 48.0, 2.5, 120.0, 0.0, 0.0, 0.0, 1.696032131769117E9, 0.0, 2023-09-29 19:02:11.769
4.0, -57059.19796934104, -27076.947936647888, -45502.56377489135, -28762.716503467145, -7729.121473922905, -11764.214845206125, -187500.02235174447, -10188.618026807073, -23844.885688410486, 9781.4586498092, -17787.51823753336, -23511.777640793043, 5989.932237855463, -13066.986270783696, -20344.200175309204, -37520.93464385685, 0.128, 1.004, 0.19, 192.0, 0.0, 0.0, 0.0, 0.0, 0.0, 0.0, 0.0, 0.0, 0.0, 1.696032131769124E9, 0.0, 2023-09-29 19:02:11.769
6.0, -57073.078402647785, -27102.004242182287, -45501.37913243522, -28747.472613748625, -7723.153558153339, -11755.341202657368, -187500.02235174447, -10179.274997624756, -23853.71462747033, 9758.950443142707, -17873.63950891966, -23513.632835582834, 5983.85256336362, -13079.078564534017, -20347.284716044036, -37532.40108876242, 0.128, 1.004, 0.19, 192.0, 0.0, 0.0, 0.0, 0.0, 0.0, 0.0, 0.0, 0.0, 0.0, 1.696032131769129E9, 0.0, 2023-09-29 19:02:11.769
8.0, -57066.05995488882, -27045.946067088375, -45511.5938796513, -28761.73302671111, -7736.944584482263, -11761.71144982713, -187500.02235174447, -10183.432422093443, -23854.407531548444, 9786.420737078279, -17786.80298171079, -23519.041957741018, 5975.425955703969, -13073.960015053752, -20351.88917540183, -37524.08623982504, 0.128, 1.004, 0.19, 192.0, 0.0, 0.0, 0.0, 0.0, 0.0, 0.0, 0.0, 0.0, 0.0, 1.696032131769134E9, 0.0, 2023-09-29 19:02:11.769
10.0, -57068.876274690185, -27125.18300118244, -45494.60655386526, -28740.610628200848, -7719.24200287366, -11751.273185166501, -187500.02235174447, -10171.58599753213, -23851.188880346883, 9757.966966386672, -17892.414974262116, -23508.313120402472, 5989.820479133186, -13092.44490771829, -20347.910564888785, -37537.31847254258, 0.128, 1.004, 0.19, 192.0, 0.0, 0.0, 0.0, 0.0, 0.0, 0.0, 0.0, 0.0, 0.0, 1.69603213176914E9, 0.0, 2023-09-29 19:02:11.769
12.0, -57066.32817582228, -27031.26097098124, -45504.75424584797, -28749.81954691643, -7732.228366402193, -11767.18762721868, -187500.02235174447, -10181.800744748205, -23847.81376693413, 9789.572333046477, -17784.99249040991, -23502.054631954987, 5985.797165131231, -13063.34293643748, -20341.629724696842, -37517.604233933, 0.128, 1.0, 0.188, 192.0, 2.0, 0.0, 15.5, 32.0, 2.5, 112.0, 0.0, 0.0, 0.0, 1.696032131769146E9, 0.0, 2023-09-29 19:02:11.769
14.0, -57059.95792865252, -27138.41523389998, -45494.67360909863, -28753.887564407298, -7722.639468030867, -11767.075868496404, -187500.02235174447, -10179.006776691293, -23853.91579317043, 9743.617146446366, -17885.240064291964, -23504.17804767824, 5985.081909308661, -13082.20780875776, -20346.994143366115, -37540.02303362168, 0.128, 1.0, 0.188, 192.0, 0.0, 0.0, 0.0, 0.0, 0.0, 0.0, 0.0, 0.0, 0.0, 1.696032131828468E9, 0.0, 2023-09-29 19:02:11.828
16.0, -57058.41565828511, -27021.180334231896, -45502.36260919125, -28743.91868638023, -7733.547119325057, -11768.551083630453, -187500.02235174447, -10186.762832017283, -23837.509612740232, 9784.431431821757, -17790.111039890176, -23510.816515781466, 5979.672787150477, -13070.383735940903, -20340.288620029525, -37519.57118744507, 0.128, 1.0, 0.188, 192.0, 0.0, 0.0, 0.0, 0.0, 0.0, 0.0, 0.0, 0.0, 0.0, 1.696032131828486E9, 0.0, 2023-09-29 19:02:11.828
18.0, -57056.96279489551, -27170.065304048694, -45497.53463238891, -28757.30738130896, -7728.070941933506, -11764.170141717213, -187500.02235174447, -10181.420765092465, -23842.739920942775, 9762.347908299913, -17882.11082006822, -23501.115858687863, 5984.5901709306445, -13077.424535444325, -20349.83281491194, -37541.92293190038, 0.128, 1.0, 0.188, 192.0, 0.0, 0.0, 0.0, 0.0, 0.0, 0.0, 0.0, 0.0, 0.0, 1.696032131828496E9, 0.0, 2023-09-29 19:02:11.828
20.0, -57068.40688805663, -27053.74682590328, -45497.53463238891, -28736.430851987705, -7728.585032055978, -11765.913577784728, -187500.02235174447, -10183.499477326808, -23843.43282502089, 9775.758954973096, -17808.61828429917, -23505.78737327902, 5980.6562639065105, -13075.211712743248, -20341.428558996744, -37519.19120778933, 0.128, 1.0, 0.188, 192.0, 0.0, 0.0, 0.0, 0.0, 0.0, 0.0, 0.0, 0.0, 0.0, 1.696032131828503E9, 0.0, 2023-09-29 19:02:11.828
22.0, -57069.14449562365, -27194.361650271614, -45494.427739909625, -28760.838956932897, -7727.467444833213, -11764.684231839685, -187500.02235174447, -10183.454773837897, -23842.829327920597, 9742.946594112705, -17882.714317168513, -23502.635777310825, 5988.367615743592, -13096.714090909254, -20344.200175309204, -37536.82673416457, 0.132, 0.998, 0.182, 192.0, 2.0, 16.0, 15.5, 24.0, 2.5, 88.0, 0.0, 0.0, 0.0, 1.696032131828509E9, 0.0, 2023-09-29 19:02:11.828
24.0, -57069.41271655711, -27049.991732834787, -45494.561850376354, -28733.525125208515, -7733.122436180406, -11771.345051687367, -187500.02235174447, -10183.901808727003, -23830.781737659185, 9757.4528762642, -17809.49000233293, -23511.50941985958, 5980.209229017405, -13093.204867029772, -20341.473262485655, -37518.8559316225, 0.132, 0.998, 0.182, 192.0, 0.0, 0.0, 0.0, 0.0, 0.0, 0.0, 0.0, 0.0, 0.0, 1.696032131828514E9, 0.0, 2023-09-29 19:02:11.828
26.0, -57064.94236766605, -27178.871891364088, -45495.65708585466, -28767.522128525037, -7738.084523449484, -11778.050575023959, -187500.02235174447, -10188.148640173513, -23837.28609529568, 9721.019532802049, -17850.34899119723, -23506.726146546145, 5977.549371427223, -13102.771413656643, -20347.150605577302, -37537.05025160912, 0.132, 0.998, 0.182, 192.0, 0.0, 0.0, 0.0, 0.0, 0.0, 0.0, 0.0, 0.0, 0.0, 1.69603213182852E9, 0.0, 2023-09-29 19:02:11.828
28.0, -57070.217379357506, -27023.840191822077, -45502.7872923359, -28737.92841886621, -7742.1972444292605, -11783.99613904907, -187500.02235174447, -10193.535410587241, -23830.625275447997, 9755.17299832976, -17814.340330879728, -23510.995329737107, 5971.626159146566, -13085.694680892788, -20345.384817765334, -37522.454562479805, 0.132, 0.998, 0.182, 192.0, 0.0, 0.0, 0.0, 0.0, 0.0, 0.0, 0.0, 0.0, 0.0, 1.696032131828526E9, 0.0, 2023-09-29 19:02:11.828
30.0, -57069.85975144622, -27156.162518997495, -45500.26154521246, -28779.16738738625, -7735.402314114847, -11782.431516937198, -187500.02235174447, -10191.34493963062, -23845.19861283286, 9716.482128677622, -17845.25279346142, -23518.192591451716, 5962.797220086721, -13102.123213067438, -20354.54903299201, -37546.46033602481, 0.132, 0.998, 0.182, 192.0, 0.0, 0.0, 0.0, 0.0, 0.0, 0.0, 0.0, 0.0, 0.0, 1.696032131888348E9, 0.0, 2023-09-29 19:02:11.888
32.0, -57072.49725729195, -27033.96553206033, -45499.456882412065, -28742.041139845987, -7735.29055539257, -11782.945607059672, -187500.02235174447, -10194.45183210991, -23831.295827781658, 9741.672544678753, -17844.04579926083, -23523.84758279891, 5969.882723079053, -13094.613026930456, -20344.02136135356, -37527.12607707096, 0.132, 1.0, 0.182, 192.0, 2.0, 16.0, 15.5, 32.0, 2.5, 88.0, 0.0, 0.0, 0.0, 1.69603213188836E9, 0.0, 2023-09-29 19:02:11.888
34.0, -57066.19406535555, -27158.978838798863, -45501.46853941304, -28785.448227578192, -7744.745343297165, -11792.869781597827, -187500.02235174447, -10201.336169402144, -23842.6281622205, 9716.772701355541, -17843.263488204895, -23526.909771789287, 5970.061537034695, -13106.146527069393, -20354.660791714286, -37547.95790290331, 0.132, 1.0, 0.182, 192.0, 0.0, 0.0, 0.0, 0.0, 0.0, 0.0, 0.0, 0.0, 0.0, 1.696032131888374E9, 0.0, 2023-09-29 19:02:11.888
36.0, -57076.43116431608, -27052.27161076923, -45497.55698413336, -28741.102366578863, -7730.887261734875, -11780.576322147408, -187500.02235174447, -10194.87651525456, -23839.34245578557, 9729.759064884074, -17861.34604946924, -23528.340283434427, 5981.907961596008, -13101.363253755959, -20347.17295732176, -37533.496324240725, 0.132, 1.0, 0.182, 192.0, 0.0, 0.0, 0.0, 0.0, 0.0, 0.0, 0.0, 0.0, 0.0, 1.696032131888379E9, 0.0, 2023-09-29 19:02:11.888
38.0, -57075.49239104896, -27135.28598967624, -45507.145882504694, -28785.917614211754, -7744.164197941327, -11798.748290389573, -187500.02235174447, -10206.946457260425, -23843.745749443264, 9724.439349703713, -17833.920459022578, -23532.631818369846, 5973.414298702991, -13109.49928873769, -20357.052428371004, -37547.48851626975, 0.132, 1.0, 0.182, 192.0, 0.0, 0.0, 0.0, 0.0, 0.0, 0.0, 0.0, 0.0, 0.0, 1.696032131888384E9, 0.0, 2023-09-29 19:02:11.888
40.0, -57082.019100429905, -27039.888744340988, -45500.797987079386, -28749.126642838317, -7737.0339914600845, -11793.987368820593, -187500.02235174447, -10198.609256578597, -23848.39491228997, 9728.663829405765, -17866.308136738317, -23537.683312616744, 5967.982824800351, -13100.983274100217, -20354.236108569636, -37545.54391450214, 0.132, 1.0, 0.182, 192.0, 0.0, 0.0, 0.0, 0.0, 0.0, 0.0, 0.0, 0.0, 0.0, 1.696032131888389E9, 0.0, 2023-09-29 19:02:11.888
42.0, -57068.67510899009, -27120.958521480385, -45505.80477783737, -28792.019640448052, -7742.063133962529, -11794.613217665341, -187500.02235174447, -10192.239009408833, -23851.166528602425, 9724.796977614997, -17829.561868853794, -23538.84560332842, 5961.590225886134, -13107.487631736713, -20357.298297560013, -37548.69551047034, 0.13, 1.004, 0.186, 192.0, 2.0, 8.0, 15.5, 48.0, 2.5, 104.0, 0.0, 0.0, 0.0, 1.696032131888394E9, 0.0, 2023-09-29 19:02:11.888
44.0, -57083.24844637495, -27063.715703930346, -45501.87087081324, -28742.7340439241, -7727.534500066579, -11778.85523782435, -187500.02235174447, -10178.716204013373, -23847.21026983384, 9719.723131623643, -17894.381927774182, -23530.061367757484, 5966.105278266105, -13099.373948499437, -20342.59084970842, -37531.127039328465, 0.13, 1.004, 0.186, 192.0, 0.0, 0.0, 0.0, 0.0, 0.0, 0.0, 0.0, 0.0, 0.0, 1.696032131948609E9, 0.0, 2023-09-29 19:02:11.948
46.0, -57073.704251492534, -27099.679660758935, -45510.990382551005, -28786.945794456697, -7745.706468308744, -11791.61808390833, -187500.02235174447, -10198.273980411766, -23863.795264219676, 9727.233317760625, -17821.716406549982, -23543.76298710859, 5950.347298425115, -13098.92691361033, -20350.481015501144, -37533.496324240725, 0.13, 1.004, 0.186, 192.0, 0.0, 0.0, 0.0, 0.0, 0.0, 0.0, 0.0, 0.0, 0.0, 1.696032131948624E9, 0.0, 2023-09-29 19:02:11.948
48.0, -57085.48362082048, -27092.460047299868, -45502.22849872452, -28754.7369306966, -7734.061209447528, -11781.783316347995, -187500.02235174447, -10196.39643387752, -23851.92648791391, 9720.550146168489, -17904.328454056795, -23542.51128941909, 5961.3443566971255, -13097.764622898654, -20348.55876547799, -37538.324301043074, 0.13, 1.004, 0.186, 192.0, 0.0, 0.0, 0.0, 0.0, 0.0, 0.0, 0.0, 0.0, 0.0, 1.69603213194863E9, 0.0, 2023-09-29 19:02:11.948
50.0, -57083.76253649742, -27101.378393337538, -45514.58901340831, -28787.862215979367, -7749.662727077333, -11795.373176976822, -187500.02235174447, -10210.321570673177, -23861.24716535177, 9724.305239236981, -17829.114833964686, -23536.744539349624, 5959.042127018229, -13104.693663679798, -20350.59277422342, -37531.886998639944, 0.13, 1.004, 0.186, 192.0, 0.0, 0.0, 0.0, 0.0, 0.0, 0.0, 0.0, 0.0, 0.0, 1.696032131948636E9, 0.0, 2023-09-29 19:02:11.948
52.0, -57082.28732136337, -27124.691262804423, -45510.18571975061, -28763.141186611796, -7744.655936319344, -11793.495630442576, -187500.02235174447, -10213.316704430188, -23856.419188549422, 9704.501593649578, -17922.947457188067, -23539.672617873268, 5963.356013698103, -13101.430308989324, -20361.41101853979, -37546.16976334689, 0.13, 1.0, 0.19, 192.0, 2.0, 8.0, 15.5, 32.0, 2.5, 120.0, 0.0, 0.0, 0.0, 1.696032131948641E9, 0.0, 2023-09-29 19:02:11.948
54.0, -57075.11241139322, -27089.576672265135, -45518.38880996571, -28784.531806055526, -7756.837637047486, -11799.999988079071, -187500.02235174447, -10220.044579511235, -23858.877880439508, 9723.142948525305, -17822.25284841691, -23547.831004599455, 5951.062554247685, -13096.758794398165, -20371.134027377848, -37543.30874005661, 0.13, 1.0, 0.19, 192.0, 0.0, 0.0, 0.0, 0.0, 0.0, 0.0, 0.0, 0.0, 0.0, 1.696032131948647E9, 0.0, 2023-09-29 19:02:11.948
56.0, -57071.98316716948, -27156.18487074195, -45504.30721095887, -28758.380265042815, -7741.638450817878, -11787.013624550536, -187500.02235174447, -10208.376968905564, -23851.948839658362, 9706.78147158402, -17925.07087291132, -23532.98944628113, 5960.472638663368, -13093.11546005195, -20361.947460406718, -37545.56626624659, 0.13, 1.0, 0.19, 192.0, 0.0, 0.0, 0.0, 0.0, 0.0, 0.0, 0.0, 0.0, 0.0, 1.696032131948652E9, 0.0, 2023-09-29 19:02:11.948
58.0, -57087.428222588096, -27076.83617792561, -45512.71146687406, -28767.589183758402, -7752.233177689694, -11798.748290389573, -187500.02235174447, -10211.886192785048, -23846.15973784444, 9741.02434408955, -17821.068205960775, -23539.449100428716, 5952.2471967038155, -13089.025090816629, -20354.861957414385, -37525.69556542583, 0.13, 1.0, 0.19, 192.0, 0.0, 0.0, 0.0, 0.0, 0.0, 0.0, 0.0, 0.0, 0.0, 1.696032131948657E9, 0.0, 2023-09-29 19:02:11.948
60.0, -57090.31159762283, -27154.352027696616, -45509.4928156725, -28764.482291279113, -7746.242910175671, -11790.09816528537, -187500.02235174447, -10203.97367524787, -23860.978944418308, 9691.179953954215, -17909.759927959436, -23543.584173152947, 5951.956624025896, -13103.486669479213, -20357.253594071102, -37540.58182723306, 0.13, 1.0, 0.19, 192.0, 0.0, 0.0, 0.0, 0.0, 0.0, 0.0, 0.0, 0.0, 0.0, 1.69603213200889E9, 0.0, 2023-09-29 19:02:12.008
62.0, -57093.59730405776, -27065.056808597663, -45516.55596692037, -28765.6892854797, -7749.752134055154, -11789.919351329727, -187500.02235174447, -10206.991160749336, -23860.934240929397, 9739.996163844606, -17822.990455983934, -23543.51711791958, 5952.873045548564, -13099.955093855275, -20350.726884690153, -37522.54396945763, 0.136, 0.998, 0.188, 192.0, 2.0, 32.0, 15.5, 24.0, 2.5, 112.0, 0.0, 0.0, 0.0, 1.696032132008901E9, 0.0, 2023-09-29 19:02:12.008
64.0, -57090.31159762283, -27168.031295303263, -45509.4928156725, -28770.494910537593, -7745.482950864191, -11791.416918208233, -187500.02235174447, -10207.617009594085, -23868.176206132914, 9690.375291153823, -17915.012587906433, -23545.931106320753, 5952.738935081832, -13102.950227612286, -20354.97371613666, -37539.75481268821, 0.136, 0.998, 0.188, 192.0, 0.0, 0.0, 0.0, 0.0, 0.0, 0.0, 0.0, 0.0, 0.0, 1.696032132008906E9, 0.0, 2023-09-29 19:02:12.008
66.0, -57072.76547822541, -27045.58843917709, -45508.0399522829, -28754.938096396698, -7752.993137001174, -11793.272112998024, -187500.02235174447, -10212.981428263358, -23857.44736879437, 9726.40630321578, -17827.080825219255, -23548.412149955293, 5950.771981569766, -13093.003701329673, -20356.068951614972, -37526.366117759484, 0.136, 0.998, 0.188, 192.0, 0.0, 0.0, 0.0, 0.0, 0.0, 0.0, 0.0, 0.0, 0.0, 1.696032132008911E9, 0.0, 2023-09-29 19:02:12.008
68.0, -57070.68676599107, -27180.34710649814, -45503.45784466957, -28764.281125579015, -7748.6568985768445, -11792.847429853373, -187500.02235174447, -10213.383759663553, -23853.982848403793, 9693.951570266672, -17915.280808839896, -23529.32376019046, 5955.443496160924, -13101.653826433878, -20354.437274269734, -37540.067737110585, 0.136, 0.998, 0.188, 192.0, 0.0, 0.0, 0.0, 0.0, 0.0, 0.0, 0.0, 0.0, 0.0, 1.696032132008916E9, 0.0, 2023-09-29 19:02:12.008
70.0, -57079.69451900656, -27039.48641294079, -45506.56473714885, -28740.342407267384, -7756.457657391747, -11791.483973441598, -187500.02235174447, -10223.30793420171, -23850.00423789075, 9739.25855627758, -17836.647371846124, -23528.18382122324, 5954.839999060631, -13087.6392826604, -20354.571384736468, -37525.29323402563, 0.136, 0.998, 0.188, 192.0, 0.0, 0.0, 0.0, 0.0, 0.0, 0.0, 0.0, 0.0, 0.0, 1.696032132008921E9, 0.0, 2023-09-29 19:02:12.008
72.0, -57069.233902601474, -27195.412182261014, -45499.00984752296, -28764.21407034565, -7751.495570122668, -11786.90186582826, -187500.02235174447, -10214.702512586417, -23853.804034448152, 9711.095358263894, -17896.035956863878, -23519.913675774776, 5955.6446618610225, -13096.691739164798, -20361.679239473255, -37542.101745856016, 0.14, 0.998, 0.186, 192.0, 2.0, 48.0, 15.5, 24.0, 2.5, 104.0, 0.0, 0.0, 0.0, 1.696032132008926E9, 0.0, 2023-09-29 19:02:12.008
74.0, -57075.38063232668, -27049.87997411251, -45500.68622835711, -28734.01686358653, -7759.318680682026, -11793.71914788713, -187500.02235174447, -10220.469262655886, -23842.158775586937, 9732.888309107819, -17846.213918472997, -23521.075966486453, 5961.8137433306865, -13083.437154702802, -20352.13504459084, -37516.97838508825, 0.14, 0.998, 0.186, 192.0, 0.0, 0.0, 0.0, 0.0, 0.0, 0.0, 0.0, 0.0, 0.0, 1.696032132069057E9, 0.0, 2023-09-29 19:02:12.069
76.0, -57066.75285896693, -27193.28876653776, -45494.986533521005, -28774.160596628262, -7754.53540736859, -11802.056348568958, -187500.02235174447, -10219.821062066683, -23861.53773802969, 9687.91659926374, -17870.48791295146, -23530.24018171313, 5960.6067491301, -13125.614896489966, -20358.818216182975, -37543.17462958987, 0.14, 0.998, 0.186, 192.0, 0.0, 0.0, 0.0, 0.0, 0.0, 0.0, 0.0, 0.0, 0.0, 1.696032132069073E9, 0.0, 2023-09-29 19:02:12.069
78.0, -57069.81504795731, -27062.709875429857, -45493.57837362032, -28735.089747320384, -7749.461561377235, -11803.106880558358, -187500.02235174447, -10217.317666687688, -23838.738958685277, 9725.802806115486, -17849.63373537466, -23529.502574146103, 5962.730164853355, -13096.222352531238, -20345.004838109595, -37526.09789682602, 0.14, 0.998, 0.186, 192.0, 0.0, 0.0, 0.0, 0.0, 0.0, 0.0, 0.0, 0.0, 0.0, 1.696032132069078E9, 0.0, 2023-09-29 19:02:12.069
80.0, -57056.98514663996, -27193.71344968241, -45497.02054226644, -28782.251928121084, -7749.662727077333, -11809.43242423921, -187500.02235174447, -10219.418730666486, -23854.541642015178, 9708.077872762427, -17862.754209369923, -23533.727053848157, 5958.081002006651, -13120.094015609506, -20350.65982945679, -37545.20863833531, 0.14, 0.998, 0.186, 192.0, 0.0, 0.0, 0.0, 0.0, 0.0, 0.0, 0.0, 0.0, 0.0, 1.696032132069084E9, 0.0, 2023-09-29 19:02:12.069
82.0, -57079.359242839724, -27062.218137051837, -45497.13230098871, -28730.373529240314, -7748.589843343479, -11804.515040459042, -187500.02235174447, -10216.088320742647, -23845.511537255235, 9726.45100670469, -17867.53748268336, -23530.933085791243, 5963.244254975826, -13097.07171882054, -20341.629724696842, -37525.71791717028, 0.136, 0.994, 0.192, 192.0, 2.0, 32.0, 15.5, 8.0, 3.0, 0.0, 0.0, 0.0, 0.0, 1.696032132069089E9, 0.0, 2023-09-29 19:02:12.069
84.0, -57076.654681760636, -27167.673667391977, -45500.373303934735, -28774.9429076842, -7758.134038225894, -11810.639418439796, -187500.02235174447, -10222.257402212312, -23864.801092720165, 9700.411224414256, -17849.231403974463, -23532.877687558856, 5952.694231592922, -13106.571210214044, -20352.291506802023, -37541.118269099985, 0.136, 0.994, 0.192, 192.0, 0.0, 0.0, 0.0, 0.0, 0.0, 0.0, 0.0, 0.0, 0.0, 1.696032132069094E9, 0.0, 2023-09-29 19:02:12.069
86.0, -57077.16877188311, -27061.771102162733, -45494.94183003209, -28736.274389776518, -7749.081581721495, -11802.90571485826, -187500.02235174447, -10221.162166734, -23853.312296070137, 9727.25566950508, -17880.367384000707, -23532.69887360321, 5958.081002006651, -13100.938570611308, -20345.049541598506, -37528.467181738284, 0.136, 0.994, 0.192, 192.0, 0.0, 0.0, 0.0, 0.0, 0.0, 0.0, 0.0, 0.0, 0.0, 1.6960321320691E9, 0.0, 2023-09-29 19:02:12.069
88.0, -57068.40688805663, -27155.156690497006, -45495.679437599116, -28778.22861411913, -7758.893997537375, -11807.778395149517, -187500.02235174447, -10224.872556313581, -23855.078083882105, 9716.035093788516, -17848.136168496152, -23533.056501514497, 5956.181103727949, -13112.717939939253, -20350.190442823226, -37538.54781848763, 0.136, 0.994, 0.192, 192.0, 0.0, 0.0, 0.0, 0.0, 0.0, 0.0, 0.0, 0.0, 0.0, 1.696032132069105E9, 0.0, 2023-09-29 19:02:12.069
90.0, -57078.28635910587, -27071.15883483396, -45493.4889666425, -28734.843878131378, -7756.658823091844, -11803.643322425285, -187500.02235174447, -10216.870631798582, -23851.032418135695, 9721.265401991059, -17892.839657406766, -23531.000141024608, 5959.779734585254, -13098.368119998948, -20345.69774218771, -37528.04249859363, 0.136, 0.994, 0.192, 192.0, 0.0, 0.0, 0.0, 0.0, 0.0, 0.0, 0.0, 0.0, 0.0, 1.696032132128485E9, 0.0, 2023-09-29 19:02:12.128
92.0, -57061.679012975575, -27128.17813493945, -45505.603612137274, -28780.597899031392, -7765.174837729316, -11813.679255685718, -187500.02235174447, -10222.369160934588, -23862.81178746364, 9723.96996307015, -17836.848537546222, -23538.264457972582, 5952.805990315198, -13110.259248049171, -20355.331344047947, -37533.652786451916, 0.134, 0.998, 0.196, 192.0, 2.0, 24.0, 15.5, 24.0, 3.0, 16.0, 0.0, 0.0, 0.0, 1.696032132128519E9, 0.0, 2023-09-29 19:02:12.128
94.0, -57080.409774829124, -27109.827352741642, -45491.87964104171, -28740.051834589463, -7751.6520323338555, -11803.442156725188, -187500.02235174447, -10214.121367230578, -23854.541642015178, 9717.130329266827, -17920.712282742534, -23537.884478316842, 5955.398792672014, -13102.547896212089, -20349.966925378674, -37533.27280679617, 0.134, 0.998, 0.196, 192.0, 0.0, 0.0, 0.0, 0.0, 0.0, 0.0, 0.0, 0.0, 0.0, 1.696032132128523E9, 0.0, 2023-09-29 19:02:12.128
96.0, -57063.713021721014, -27143.08674849114, -45486.82814679482, -28773.579451272424, -7756.77058181412, -11812.025226596026, -187500.02235174447, -10217.183556220956, -23852.86526118103, 9721.533622924522, -17839.128415480664, -23534.71053060419, 5963.735993353844, -13104.961884613263, -20350.03398061204, -37535.21740856378, 0.134, 0.998, 0.196, 192.0, 0.0, 0.0, 0.0, 0.0, 0.0, 0.0, 0.0, 0.0, 0.0, 1.696032132128527E9, 0.0, 2023-09-29 19:02:12.128
98.0, -57060.96375715301, -27140.248076945318, -45476.032254222904, -28735.514430465035, -7747.8969392653635, -11800.827002623917, -187500.02235174447, -10210.455681139909, -23835.6767696949, 9714.58223039892, -17914.699663484058, -23524.182858965738, 5968.631025389555, -13099.865686877452, -20335.773567649554, -37531.66348119539, 0.134, 0.998, 0.196, 192.0, 0.0, 0.0, 0.0, 0.0, 0.0, 0.0, 0.0, 0.0, 0.0, 1.696032132128531E9, 0.0, 2023-09-29 19:02:12.128
100.0, -57064.80825719932, -27107.636881785023, -45490.67264684113, -28766.136320368805, -7765.197189473772, -11821.390607522799, -187500.02235174447, -10228.44883542643, -23845.846813422064, 9737.805692887985, -17815.770842524867, -23527.692082845224, 5950.213187958382, -13107.577038714533, -20343.26140204208, -37526.790800904135, 0.134, 0.998, 0.196, 192.0, 0.0, 0.0, 0.0, 0.0, 0.0, 0.0, 0.0, 0.0, 0.0, 1.696032132128542E9, 0.0, 2023-09-29 19:02:12.128
102.0, -57062.77424845389, -27146.32775143716, -45483.453033382066, -28736.028520587508, -7751.853198033953, -11806.14671780428, -187500.02235174447, -10212.981428263358, -23851.85943268054, 9722.20417525818, -17914.140869872674, -23521.36653916437, 5957.969243284374, -13111.332131783025, -20342.434387497233, -37538.36900453198, 0.14, 1.0, 0.194, 192.0, 2.0, 48.0, 15.5, 32.0, 3.0, 8.0, 0.0, 0.0, 0.0, 1.696032132128546E9, 0.0, 2023-09-29 19:02:12.128
104.0, -57055.57698673928, -27083.83227394012, -45498.09342600029, -28756.323904552926, -7768.751116842165, -11815.66856094224, -187500.02235174447, -10225.699570858427, -23847.277325067203, 9742.83483539043, -17813.848592501712, -23523.959341521186, 5951.643699603522, -13097.429346731824, -20346.59181196592, -37521.98517584624, 0.14, 1.0, 0.194, 192.0, 0.0, 0.0, 0.0, 0.0, 0.0, 0.0, 0.0, 0.0, 0.0, 1.696032132188464E9, 0.0, 2023-09-29 19:02:12.188
106.0, -57060.919053664096, -27162.488062678345, -45487.006960750456, -28742.68934043519, -7752.791971301076, -11800.156450290258, -187500.02235174447, -10210.276867184266, -23845.15390934395, 9709.307218707469, -17921.78516647639, -23522.70764383169, 5962.998385786818, -13105.274809035636, -20343.775492164554, -37532.84812365152, 0.14, 1.0, 0.194, 192.0, 0.0, 0.0, 0.0, 0.0, 0.0, 0.0, 0.0, 0.0, 0.0, 1.696032132188482E9, 0.0, 2023-09-29 19:02:12.188
108.0, -57074.03952765936, -27057.904250371965, -45498.65221961167, -28747.003227115063, -7767.275901708115, -11805.47616547062, -187500.02235174447, -10219.329323688666, -23849.66896172392, 9743.505387724088, -17823.459842617493, -23536.386911438338, 5957.499856650813, -13101.11738456695, -20344.557803220487, -37513.089181553034, 0.14, 1.0, 0.194, 192.0, 0.0, 0.0, 0.0, 0.0, 0.0, 0.0, 0.0, 0.0, 0.0, 1.696032132188498E9, 0.0, 2023-09-29 19:02:12.188
110.0, -57075.20181837104, -27148.741739838333, -45489.57741136282, -28747.20439281516, -7755.027145746607, -11797.407185722255, -187500.02235174447, -10210.366274162088, -23866.700990998866, 9699.49480289159, -17915.884305940188, -23533.905867803798, 5952.515417637279, -13112.494422494701, -20348.4023032668, -37528.62364394947, 0.14, 1.0, 0.194, 192.0, 0.0, 0.0, 0.0, 0.0, 0.0, 0.0, 0.0, 0.0, 0.0, 1.696032132188504E9, 0.0, 2023-09-29 19:02:12.188
112.0, -57068.13866712316, -27040.96162807484, -45484.68237932711, -28736.87788687681, -7759.497494637668, -11797.697758400174, -187500.02235174447, -10207.840527038637, -23852.619391992022, 9749.540358727021, -17835.686246834546, -23528.697911345713, 5957.075173506162, -13101.96675085625, -20334.477166471144, -37506.718934383265, 0.136, 0.992, 0.19, 192.0, 2.0, 32.0, 15.5, 0.0, 2.5, 120.0, 0.0, 0.0, 0.0, 1.696032132188509E9, 0.0, 2023-09-29 19:02:12.188
114.0, -57058.30389956283, -27167.42779820297, -45475.965198989536, -28745.282142792006, -7756.591767858478, -11793.517982187032, -187500.02235174447, -10207.30408517171, -23853.558165259143, 9721.131291524327, -17916.286637340385, -23526.03805375553, 5961.031432274751, -13093.562494941056, -20334.812442637976, -37519.884111867446, 0.136, 0.992, 0.19, 192.0, 0.0, 0.0, 0.0, 0.0, 0.0, 0.0, 0.0, 0.0, 0.0, 1.696032132188513E9, 0.0, 2023-09-29 19:02:12.188
116.0, -57065.72467872199, -27046.750729888765, -45489.040969495894, -28737.034349087997, -7769.801648831564, -11805.207944537156, -187500.02235174447, -10222.458567912408, -23847.702008211854, 9744.3994575023, -17842.39177017114, -23533.74940559261, 5961.903150308508, -13090.92498909533, -20337.427596739246, -37507.18832101683, 0.136, 0.992, 0.19, 192.0, 0.0, 0.0, 0.0, 0.0, 0.0, 0.0, 0.0, 0.0, 0.0, 1.696032132188517E9, 0.0, 2023-09-29 19:02:12.188
118.0, -57064.24946358794, -27162.28689697825, -45497.713446344555, -28759.989590643596, -7778.20590474676, -11820.451834255677, -187500.02235174447, -10237.188367508455, -23860.621316507022, 9700.254762203069, -17911.190439604576, -23538.376216694858, 5952.023679259262, -13109.432233504323, -20352.827948668953, -37533.496324240725, 0.136, 0.992, 0.19, 192.0, 0.0, 0.0, 0.0, 0.0, 0.0, 0.0, 0.0, 0.0, 0.0, 1.696032132188522E9, 0.0, 2023-09-29 19:02:12.188
120.0, -57065.83643744427, -27018.25225570825, -45484.92824851612, -28724.74088963758, -7770.5839598875, -11805.990255593093, -187500.02235174447, -10229.968754049392, -23851.881784424997, 9744.779437158042, -17843.755226582914, -23536.342207949427, 5943.597071599612, -13099.351596754981, -20352.179748079747, -37522.81219039109, 0.136, 0.992, 0.19, 192.0, 0.0, 0.0, 0.0, 0.0, 0.0, 0.0, 0.0, 0.0, 0.0, 1.696032132248583E9, 0.0, 2023-09-29 19:02:12.248
122.0, -57064.87531243269, -27159.023542287774, -45470.69018729808, -28743.181078813206, -7761.665613849833, -11805.118537559336, -187500.02235174447, -10219.798710322228, -23869.606717778053, 9723.657038647776, -17895.611273719227, -23518.88549552983, 5954.951757782907, -13102.30202702308, -20341.83089039694, -37524.28740552514, 0.134, 0.998, 0.196, 192.0, 2.0, 24.0, 15.5, 24.0, 3.0, 16.0, 0.0, 0.0, 0.0, 1.696032132248596E9, 0.0, 2023-09-29 19:02:12.248
124.0, -57064.0706496323, -27030.098680269562, -45466.041024451384, -28706.703031862144, -7757.664651592333, -11792.467450197631, -187500.02235174447, -10216.1106724871, -23855.525118771213, 9748.579233715443, -17855.065209277298, -23512.38113789334, 5968.161638755994, -13096.423518231335, -20327.41401522327, -37496.861815078475, 0.134, 0.998, 0.196, 192.0, 0.0, 0.0, 0.0, 0.0, 0.0, 0.0, 0.0, 0.0, 0.0, 1.696032132248601E9, 0.0, 2023-09-29 19:02:12.248
126.0, -57054.03471637186, -27164.23149874586, -45473.52885884391, -28744.36572126934, -7758.312852181537, -11799.24002876759, -187500.02235174447, -10216.937687031948, -23860.621316507022, 9739.16914929976, -17879.33920375576, -23509.6989285587, 5962.2831299642485, -13102.413785745357, -20335.50534671609, -37513.37975423095, 0.134, 0.998, 0.196, 192.0, 0.0, 0.0, 0.0, 0.0, 0.0, 0.0, 0.0, 0.0, 0.0, 1.696032132248606E9, 0.0, 2023-09-29 19:02:12.248
128.0, -57053.654736716126, -27040.49224144128, -45471.830126265304, -28706.278348717493, -7755.652994591355, -11791.416918208233, -187500.02235174447, -10210.299218928722, -23851.457101280346, 9749.11567558237, -17870.15263678463, -23513.56578034947, 5957.052821761707, -13088.153372782872, -20329.06804431296, -37497.73353311224, 0.134, 0.998, 0.196, 192.0, 0.0, 0.0, 0.0, 0.0, 0.0, 0.0, 0.0, 0.0, 0.0, 1.696032132248611E9, 0.0, 2023-09-29 19:02:12.248
130.0, -57053.63238497167, -27160.23053648836, -45474.646446066676, -28751.294762050482, -7762.604387116956, -11798.390662478289, -187500.02235174447, -10213.428463152464, -23868.95851718885, 9720.594849657398, -17874.466523464504, -23518.907847274288, 5954.214150215883, -13102.547896212089, -20339.12632931785, -37512.50803619719, 0.134, 0.998, 0.196, 192.0, 0.0, 0.0, 0.0, 0.0, 0.0, 0.0, 0.0, 0.0, 0.0, 1.696032132248617E9, 0.0, 2023-09-29 19:02:12.248
132.0, -57067.53517002287, -27038.72645362931, -45475.16053618915, -28719.64469190177, -7757.061154492039, -11798.413014222744, -187500.02235174447, -10215.328361431166, -23850.09364486857, 9741.426675489745, -17883.004889846434, -23530.262533457582, 5960.874970063564, -13091.416727473346, -20332.152585047792, -37503.723800626256, 0.134, 1.0, 0.194, 192.0, 2.0, 24.0, 15.5, 32.0, 3.0, 8.0, 0.0, 0.0, 0.0, 1.696032132248622E9, 0.0, 2023-09-29 19:02:12.248
134.0, -57062.90835892062, -27157.391864942536, -45473.797079777374, -28764.8399191904, -7762.649090605866, -11805.364406748344, -187500.02235174447, -10216.40124516502, -23870.545491045177, 9723.25470724758, -17870.174988529085, -23535.76106259359, 5963.333661953648, -13102.25732353417, -20342.79201540852, -37522.946300857824, 0.134, 1.0, 0.194, 192.0, 0.0, 0.0, 0.0, 0.0, 0.0, 0.0, 0.0, 0.0, 0.0, 1.696032132308876E9, 0.0, 2023-09-29 19:02:12.308
136.0, -57078.6216352727, -27068.990715621796, -45473.37239663272, -28716.40368895575, -7756.904692280852, -11799.821174123428, -187500.02235174447, -10216.378893420566, -23855.838043193584, 9737.82804463244, -17914.8784774397, -23529.547277635014, 5968.966301556386, -13096.200000786783, -20329.760948391075, -37506.51776868317, 0.134, 1.0, 0.194, 192.0, 0.0, 0.0, 0.0, 0.0, 0.0, 0.0, 0.0, 0.0, 0.0, 1.696032132308889E9, 0.0, 2023-09-29 19:02:12.308
138.0, -57058.885044918665, -27146.931248537454, -45479.80969903585, -28755.11691035234, -7772.640320377389, -11808.851278883372, -187500.02235174447, -10224.917259802492, -23864.756389231254, 9714.559878654467, -17863.871796592688, -23534.844641070922, 5956.784600828243, -13112.047387605595, -20343.730788675643, -37517.8053996331, 0.134, 1.0, 0.194, 192.0, 0.0, 0.0, 0.0, 0.0, 0.0, 0.0, 0.0, 0.0, 0.0, 1.696032132308894E9, 0.0, 2023-09-29 19:02:12.308
140.0, -57070.91028343562, -27077.55143374818, -45475.67462631162, -28717.297758733963, -7770.829829076509, -11805.744386404085, -187500.02235174447, -10230.616954638595, -23862.20829036335, 9709.173108240737, -17918.231239107998, -23534.866992815376, 5952.0683827481735, -13091.729651895721, -20343.976657864652, -37513.87149260897, 0.134, 1.0, 0.194, 192.0, 0.0, 0.0, 0.0, 0.0, 0.0, 0.0, 0.0, 0.0, 0.0, 1.696032132308902E9, 0.0, 2023-09-29 19:02:12.308
142.0, -57057.990975140456, -27125.540629093724, -45474.95937048905, -28756.301552808472, -7776.238951234693, -11819.691874944196, -187500.02235174447, -10234.416751195999, -23859.81665370663, 9725.02049505955, -17856.20514824452, -23536.386911438338, 5959.265644462782, -13097.630512431922, -20349.58694572293, -37526.030841592656, 0.132, 0.998, 0.184, 192.0, 2.0, 16.0, 15.5, 24.0, 2.5, 96.0, 0.0, 0.0, 0.0, 1.696032132308907E9, 0.0, 2023-09-29 19:02:12.308
144.0, -57065.21058859952, -27090.582500765624, -45463.69409128357, -28716.560151166937, -7761.531503383101, -11809.700645172674, -187500.02235174447, -10224.02319002428, -23855.56982226012, 9735.347000997901, -17924.847355466765, -23528.049710756506, 5970.597978901623, -13100.558590955567, -20339.79688165151, -37525.06971658108, 0.132, 0.998, 0.184, 192.0, 0.0, 0.0, 0.0, 0.0, 0.0, 0.0, 0.0, 0.0, 0.0, 1.696032132308913E9, 0.0, 2023-09-29 19:02:12.308
146.0, -57054.30293730533, -27109.98381495283, -45470.734890787, -28750.244230061082, -7774.428459933813, -11820.787110422507, -187500.02235174447, -10221.631553367562, -23865.806921220654, 9750.389725016323, -17841.430645159562, -23527.535620634037, 5973.526057425268, -13099.284541521614, -20340.55684096299, -37518.02891707765, 0.132, 0.998, 0.184, 192.0, 0.0, 0.0, 0.0, 0.0, 0.0, 0.0, 0.0, 0.0, 0.0, 1.696032132308918E9, 0.0, 2023-09-29 19:02:12.308
148.0, -57060.62848098618, -27113.94007372142, -45469.61730356423, -28718.616511656823, -7762.604387116956, -11807.66663642724, -187500.02235174447, -10208.064044483192, -23855.972153660317, 9722.450044447189, -17940.314762629838, -23531.581286380446, 5992.480336723368, -13099.239838032705, -20337.382893250335, -37522.387507246436, 0.132, 0.998, 0.184, 192.0, 0.0, 0.0, 0.0, 0.0, 0.0, 0.0, 0.0, 0.0, 0.0, 1.696032132308923E9, 0.0, 2023-09-29 19:02:12.308
150.0, -57071.64789100265, -27062.73222717431, -45497.73579808901, -28750.601857972368, -7780.441079192291, -11820.451834255677, -187500.02235174447, -10217.384721921055, -23873.04888642417, 9721.131291524327, -17831.48411887695, -23545.528774920556, 5988.300560510226, -13086.186419270805, -20348.64817245581, -37519.727649656255, 0.132, 0.998, 0.184, 192.0, 0.0, 0.0, 0.0, 0.0, 0.0, 0.0, 0.0, 0.0, 0.0, 1.696032132369155E9, 0.0, 2023-09-29 19:02:12.369
152.0, -57074.79948697084, -27113.023652198754, -45498.51810914494, -28730.619398429324, -7765.174837729316, -11800.245857268079, -187500.02235174447, -10196.530544344252, -23875.90990971445, 9701.797032570486, -17938.191346906584, -23541.304295218506, 5991.13923205605, -13085.135887281405, -20349.497538745112, -37532.64695795142, 0.134, 1.006, 0.188, 192.0, 2.0, 24.0, 15.5, 56.0, 2.5, 112.0, 0.0, 0.0, 0.0, 1.696032132369167E9, 0.0, 2023-09-29 19:02:12.369
154.0, -57059.376783296684, -27055.11028231505, -45514.566661663855, -28748.478442249114, -7773.400279688869, -11808.918334116737, -187500.02235174447, -10201.135003702046, -23865.941031687384, 9750.590890716421, -17839.776616069867, -23539.65026612881, 6006.651342708033, -13079.860875589953, -20349.22931781165, -37521.1581613014, 0.134, 1.006, 0.188, 192.0, 0.0, 0.0, 0.0, 0.0, 0.0, 0.0, 0.0, 0.0, 0.0, 1.696032132369173E9, 0.0, 2023-09-29 19:02:12.369
156.0, -57069.926806679585, -27131.642655330023, -45512.331487218325, -28740.923552623222, -7755.831808546997, -11791.483973441598, -187500.02235174447, -10188.953302973903, -23869.53966254469, 9723.388817714313, -17933.20690789305, -23529.41316716828, 6017.268421324304, -13099.619817688445, -20351.665657957277, -37532.870475395976, 0.134, 1.006, 0.188, 192.0, 0.0, 0.0, 0.0, 0.0, 0.0, 0.0, 0.0, 0.0, 0.0, 1.696032132369178E9, 0.0, 2023-09-29 19:02:12.369
158.0, -57060.695536219544, -27042.436843208892, -45521.562757678366, -28753.79815742948, -7759.832770804498, -11795.507287443554, -187500.02235174447, -10189.266227396278, -23859.324915328612, 9746.433466247734, -17839.597802114225, -23533.056501514497, 6021.202328348438, -13099.798631644087, -20346.614163710376, -37514.18441703134, 0.134, 1.006, 0.188, 192.0, 0.0, 0.0, 0.0, 0.0, 0.0, 0.0, 0.0, 0.0, 0.0, 1.696032132369183E9, 0.0, 2023-09-29 19:02:12.369
160.0, -57064.96471941051, -27136.291818176727, -45512.107969773766, -28764.281125579015, -7753.618985845922, -11790.276979241013, -187500.02235174447, -10182.158372659489, -23875.038191680695, 9713.911678065262, -17918.566515274826, -23538.64443762832, 6022.163453360016, -13122.128024354939, -20352.179748079747, -37535.75385043071, 0.134, 1.006, 0.188, 192.0, 0.0, 0.0, 0.0, 0.0, 0.0, 0.0, 0.0, 0.0, 0.0, 1.696032132369188E9, 0.0, 2023-09-29 19:02:12.369
162.0, -57078.24165561696, -27029.897514569464, -45512.08561802931, -28760.458977277158, -7755.362421913436, -11788.265322240035, -187500.02235174447, -10184.885285483037, -23867.885633454996, 9745.226472047147, -17835.95446776801, -23541.259591729595, 6027.058485395728, -13106.861782891963, -20343.663733442278, -37515.257300765195, 0.128, 1.006, 0.19, 192.0, 2.0, 0.0, 15.5, 56.0, 2.5, 120.0, 0.0, 0.0, 0.0, 1.696032132369193E9, 0.0, 2023-09-29 19:02:12.369
164.0, -57073.90541719263, -27166.243155746837, -45501.17796673512, -28771.813663460456, -7750.042706733073, -11775.94951104516, -187500.02235174447, -10177.688023768429, -23871.707781756853, 9722.941782825206, -17925.741425244978, -23539.985542295643, 6025.449159794946, -13120.116367353961, -20345.340114276423, -37533.1610480739, 0.128, 1.006, 0.19, 192.0, 0.0, 0.0, 0.0, 0.0, 0.0, 0.0, 0.0, 0.0, 0.0, 1.696032132428384E9, 0.0, 2023-09-29 19:02:12.428
166.0, -57060.74023970846, -27025.87420056751, -45507.414103438154, -28752.859384162355, -7759.832770804498, -11782.878551826305, -187500.02235174447, -10188.260398895789, -23860.442502551377, 9759.039850120527, -17846.169214984086, -23536.543373649525, 6022.8563574381305, -13107.398224758892, -20337.94168686172, -37508.21650126178, 0.128, 1.006, 0.19, 192.0, 0.0, 0.0, 0.0, 0.0, 0.0, 0.0, 0.0, 0.0, 0.0, 1.696032132428396E9, 0.0, 2023-09-29 19:02:12.428
168.0, -57049.162036080605, -27172.881623850066, -45493.73483583151, -28769.086750636907, -7748.8357125324865, -11777.67059536822, -187500.02235174447, -10184.907637227492, -23864.778740975707, 9718.806710100975, -17908.17295410311, -23522.931161276243, 6018.721284713899, -13119.669332464855, -20346.435349754734, -37530.16591431689, 0.128, 1.006, 0.19, 192.0, 0.0, 0.0, 0.0, 0.0, 0.0, 0.0, 0.0, 0.0, 0.0, 1.696032132428401E9, 0.0, 2023-09-29 19:02:12.428
170.0, -57050.14551283664, -27038.92761932941, -45502.00498127997, -28746.131509081308, -7759.944529526774, -11785.292540227478, -187500.02235174447, -10195.725881543862, -23841.085891853083, 9753.36250702888, -17842.548232382327, -23519.93602751923, 6020.799996948243, -13113.16497482836, -20341.16033806328, -37509.155274528894, 0.128, 1.006, 0.19, 192.0, 0.0, 0.0, 0.0, 0.0, 0.0, 0.0, 0.0, 0.0, 0.0, 1.696032132428406E9, 0.0, 2023-09-29 19:02:12.428
172.0, -57052.09011460425, -27163.583298156656, -45507.771731349436, -28782.766018243554, -7765.174837729316, -11801.229334024112, -187500.02235174447, -10210.142756717534, -23860.82248220712, 9728.283849750025, -17880.881474123176, -23516.404451895294, 6019.123616114094, -13118.887021408918, -20355.823082425963, -37539.374833032474, 0.13, 1.008, 0.198, 192.0, 2.0, 8.0, 15.5, 64.0, 3.0, 24.0, 0.0, 0.0, 0.0, 1.696032132428412E9, 0.0, 2023-09-29 19:02:12.428
174.0, -57074.64302475966, -27001.175522944395, -45521.92038558965, -28762.805910444968, -7773.892018066886, -11802.86101136935, -187500.02235174447, -10216.602410865118, -23852.060598380638, 9752.93782388423, -17838.033180002356, -23537.079815516452, 6005.980790374374, -13123.782053444631, -20363.467379029677, -37535.12800158597, 0.13, 1.008, 0.198, 192.0, 0.0, 0.0, 0.0, 0.0, 0.0, 0.0, 0.0, 0.0, 0.0, 1.696032132428417E9, 0.0, 2023-09-29 19:02:12.428
176.0, -57066.03760314437, -27130.882696018543, -45527.10599030328, -28801.362669630373, -7774.383756444902, -11806.571400948931, -187500.02235174447, -10216.982390520858, -23861.604793263054, 9708.390797184802, -17869.86206410671, -23533.5035364036, 5999.208211804415, -13125.592544745512, -20369.32353607697, -37551.131850615966, 0.13, 1.008, 0.198, 192.0, 0.0, 0.0, 0.0, 0.0, 0.0, 0.0, 0.0, 0.0, 0.0, 1.696032132428422E9, 0.0, 2023-09-29 19:02:12.428
178.0, -57053.230053571475, -27026.745918601267, -45518.23234775452, -28759.02846563202, -7762.984366772696, -11793.786203120495, -187500.02235174447, -10203.459585125398, -23849.356037301546, 9731.860128862874, -17874.10889555322, -23529.971960779665, 6000.504612982823, -13107.822907903543, -20360.606355739397, -37537.3631760315, 0.13, 1.008, 0.198, 192.0, 0.0, 0.0, 0.0, 0.0, 0.0, 0.0, 0.0, 0.0, 0.0, 1.696032132428427E9, 0.0, 2023-09-29 19:02:12.428
180.0, -57058.16978909609, -27145.79130957023, -45530.16817929366, -28801.005041719087, -7770.561608143045, -11808.3371887609, -187500.02235174447, -10213.339056174644, -23857.49207228328, 9720.840718846408, -17874.24300601995, -23527.89324854532, 6003.835022906665, -13120.339884798514, -20359.89109991683, -37543.57696099007, 0.13, 1.008, 0.198, 192.0, 0.0, 0.0, 0.0, 0.0, 0.0, 0.0, 0.0, 0.0, 0.0, 1.696032132488337E9, 0.0, 2023-09-29 19:02:12.488
182.0, -57054.280585560875, -27065.772064420235, -45519.70756288857, -28755.139262096796, -7755.496532380168, -11792.690967642186, -187500.02235174447, -10203.392529892031, -23851.05476988015, 9741.001992345095, -17897.578227231294, -23529.99431252412, 5999.923467626985, -13115.109576595973, -20354.906660903296, -37538.99485337673, 0.126, 1.0, 0.202, 192.0, 1.5, 120.0, 15.5, 32.0, 3.0, 40.0, 0.0, 0.0, 0.0, 1.69603213248835E9, 0.0, 2023-09-29 19:02:12.488
184.0, -57078.308710850324, -27132.00028324131, -45531.03989732741, -28798.12166668435, -7775.411936689847, -11813.76866266354, -187500.02235174447, -10217.943515532437, -23857.84970019456, 9747.349887770402, -17857.702715123025, -23532.60946662539, 5998.112976326105, -13123.893812166907, -20361.589832495432, -37544.02399587918, 0.126, 1.0, 0.202, 192.0, 0.0, 0.0, 0.0, 0.0, 0.0, 0.0, 0.0, 0.0, 0.0, 1.696032132488356E9, 0.0, 2023-09-29 19:02:12.488
186.0, -57071.334966580274, -27072.7905121792, -45516.73478087602, -28757.46384352015, -7754.960090513241, -11791.640435652786, -187500.02235174447, -10200.486803112843, -23859.2802118397, 9727.725056138643, -17904.104936612242, -23538.309161461493, 6002.069235094695, -13119.043483620106, -20358.84056792743, -37543.53225750116, 0.126, 1.0, 0.202, 192.0, 0.0, 0.0, 0.0, 0.0, 0.0, 0.0, 0.0, 0.0, 0.0, 1.696032132488368E9, 0.0, 2023-09-29 19:02:12.488
188.0, -57060.87435017519, -27141.70094033491, -45520.10989428877, -28793.628966048836, -7764.593692373478, -11801.251685768568, -187500.02235174447, -10206.566477604685, -23856.62035424952, 9717.957343811673, -17865.034087304364, -23538.08564401694, 6006.874860152586, -13106.034768347117, -20357.611221982388, -37542.25820806721, 0.126, 1.0, 0.202, 192.0, 0.0, 0.0, 0.0, 0.0, 0.0, 0.0, 0.0, 0.0, 0.0, 1.696032132488373E9, 0.0, 2023-09-29 19:02:12.488
190.0, -57085.327158609296, -27066.241451053793, -45505.64831562618, -28750.557154483457, -7745.125322952906, -11785.04667103847, -187500.02235174447, -10187.478087839852, -23875.708744014355, 9716.124500766338, -17910.139907615176, -23543.695931875223, 5998.42590074848, -13102.21262004526, -20342.21087005268, -37528.44482999382, 0.126, 1.0, 0.202, 192.0, 0.0, 0.0, 0.0, 0.0, 0.0, 0.0, 0.0, 0.0, 0.0, 1.696032132488379E9, 0.0, 2023-09-29 19:02:12.488
192.0, -57079.158077139626, -27097.668003757957, -45516.15363552018, -28795.03712594952, -7758.983404515196, -11800.156450290258, -187500.02235174447, -10198.385739134043, -23878.81563649364, 9725.35577122638, -17845.43160741706, -23549.306219733506, 6002.896249639542, -13108.225239303738, -20347.50823348859, -37530.68000443936, 0.13, 1.002, 0.198, 192.0, 2.0, 8.0, 15.5, 40.0, 3.0, 24.0, 0.0, 0.0, 0.0, 1.696032132488384E9, 0.0, 2023-09-29 19:02:12.488
194.0, -57080.47683006249, -27084.50282627378, -45514.700772130585, -28760.97306739963, -7749.48391312169, -11790.165220518735, -187500.02235174447, -10188.930951229448, -23865.985735176295, 9718.382026956324, -17933.45277708206, -23550.066179044985, 6000.571668216189, -13110.415710260357, -20349.385780022836, -37539.84421966603, 0.13, 1.002, 0.198, 192.0, 0.0, 0.0, 0.0, 0.0, 0.0, 0.0, 0.0, 0.0, 0.0, 1.696032132548489E9, 0.0, 2023-09-29 19:02:12.548
196.0, -57058.77328619639, -27106.832218984633, -45517.80766460987, -28787.146960156795, -7759.0504597485615, -11801.117575301836, -187500.02235174447, -10192.328416386654, -23861.694200240876, 9738.83387313293, -17850.907784808613, -23544.321780719973, 6002.404511261525, -13116.048349863095, -20352.44796901321, -37538.48076325426, 0.13, 1.002, 0.198, 192.0, 0.0, 0.0, 0.0, 0.0, 0.0, 0.0, 0.0, 0.0, 0.0, 1.696032132548505E9, 0.0, 2023-09-29 19:02:12.548
198.0, -57081.23678937397, -27109.536780063725, -45513.091446529805, -28747.74083468209, -7758.066982992528, -11800.37996773481, -187500.02235174447, -10190.16029717449, -23861.3812758185, 9733.357695741379, -17935.50913757195, -23537.638609127833, 6003.47739499538, -13112.986160872719, -20348.871689900363, -37539.08426035455, 0.13, 1.002, 0.198, 192.0, 0.0, 0.0, 0.0, 0.0, 0.0, 0.0, 0.0, 0.0, 0.0, 1.69603213254851E9, 0.0, 2023-09-29 19:02:12.548
200.0, -57070.75382122443, -27078.199634337383, -45517.02535355394, -28771.612497760358, -7767.342956941481, -11800.514078201542, -187500.02235174447, -10196.664654810984, -23858.699066483863, 9746.992259859117, -17834.81452880079, -23541.28194347405, 5995.922505369485, -13111.935628883319, -20353.69966670271, -37534.61391146349, 0.13, 1.002, 0.198, 192.0, 0.0, 0.0, 0.0, 0.0, 0.0, 0.0, 0.0, 0.0, 0.0, 1.696032132548515E9, 0.0, 2023-09-29 19:02:12.548
202.0, -57074.35245208174, -27144.629018858555, -45511.10214127328, -28758.35791329836, -7758.357555670447, -11794.456755454154, -187500.02235174447, -10191.2555326528, -23857.87205193902, 9713.486994920611, -17940.113596929743, -23535.00110328211, 5998.09062458165, -13103.933704368319, -20355.577213236957, -37544.71689995729, 0.132, 1.004, 0.202, 192.0, 2.0, 16.0, 15.5, 48.0, 3.0, 40.0, 0.0, 0.0, 0.0, 1.696032132548521E9, 0.0, 2023-09-29 19:02:12.548
204.0, -57071.08909739126, -27063.35807601906, -45513.89610933019, -28775.635811762313, -7767.454715663757, -11808.538354460998, -187500.02235174447, -10196.910523999992, -23860.77777871821, 9733.625916674842, -17837.697903835524, -23546.355789465404, 5989.194630288438, -13101.87734387843, -20356.31482080398, -37533.18339981835, 0.132, 1.004, 0.202, 192.0, 0.0, 0.0, 0.0, 0.0, 0.0, 0.0, 0.0, 0.0, 0.0, 1.696032132548527E9, 0.0, 2023-09-29 19:02:12.548
206.0, -57072.47490554749, -27157.168347497984, -45499.21101322306, -28772.774788472034, -7756.234139947193, -11801.184630535201, -187500.02235174447, -10189.668558796473, -23858.67671473941, 9708.167279740248, -17941.25353589696, -23542.444234185725, 5988.233505276859, -13118.507041753179, -20355.621916725864, -37549.14254535944, 0.132, 1.004, 0.202, 192.0, 0.0, 0.0, 0.0, 0.0, 0.0, 0.0, 0.0, 0.0, 0.0, 1.696032132548532E9, 0.0, 2023-09-29 19:02:12.548
208.0, -57069.07744039028, -27063.425131252425, -45502.85434756927, -28773.98178267262, -7763.789029573087, -11809.074796327925, -187500.02235174447, -10199.838602523638, -23847.836118678584, 9749.562710471477, -17850.10312200822, -23544.43353944225, 5990.334569255659, -13103.21844854575, -20350.771588179065, -37529.56241721659, 0.132, 1.004, 0.202, 192.0, 0.0, 0.0, 0.0, 0.0, 0.0, 0.0, 0.0, 0.0, 0.0, 1.696032132548537E9, 0.0, 2023-09-29 19:02:12.548
210.0, -57070.3738415687, -27178.581318686167, -45495.14299573219, -28778.20626237467, -7753.909558523841, -11806.10201431537, -187500.02235174447, -10199.793899034727, -23864.845796209076, 9712.034131531016, -17941.45470159706, -23541.818385340976, 5991.6309704340665, -13107.532335225624, -20361.902756917807, -37552.00356864972, 0.132, 1.004, 0.202, 192.0, 0.0, 0.0, 0.0, 0.0, 0.0, 0.0, 0.0, 0.0, 0.0, 1.696032132609003E9, 0.0, 2023-09-29 19:02:12.609
212.0, -57082.10850740773, -27051.26578226874, -45507.81643483835, -28774.36176232836, -7767.9688057862295, -11814.975656864126, -187500.02235174447, -10212.087358485147, -23860.598964762565, 9743.68420167973, -17852.405351687117, -23552.301353490515, 5987.361787243103, -13098.703396165776, -20359.68993421673, -37535.530332986156, 0.13, 1.014, 0.198, 192.0, 2.0, 8.0, 15.5, 88.0, 3.0, 24.0, 0.0, 0.0, 0.0, 1.696032132609035E9, 0.0, 2023-09-29 19:02:12.609
214.0, -57067.57987351178, -27204.554045743233, -45498.3392951893, -28784.688268266713, -7755.29536668007, -11807.465470727144, -187500.02235174447, -10195.34590188812, -23864.957554931352, 9702.758157582064, -17931.329361358807, -23552.681333146254, 5994.916676868997, -13114.483727751223, -20367.870672687375, -37560.45252805383, 0.13, 1.014, 0.198, 192.0, 0.0, 0.0, 0.0, 0.0, 0.0, 0.0, 0.0, 0.0, 0.0, 1.696032132609041E9, 0.0, 2023-09-29 19:02:12.609
216.0, -57068.80921945682, -27074.980983135818, -45508.755208105475, -28749.59602947188, -7762.53733188359, -11803.464508469642, -187500.02235174447, -10189.981483218848, -23843.6786942099, 9748.243957548613, -17871.270224007396, -23543.070083030474, 6002.3151042837035, -13083.548913425078, -20350.481015501144, -37528.22131254927, 0.13, 1.014, 0.198, 192.0, 0.0, 0.0, 0.0, 0.0, 0.0, 0.0, 0.0, 0.0, 0.0, 1.696032132609046E9, 0.0, 2023-09-29 19:02:12.609
218.0, -57063.04246938735, -27208.06326962272, -45509.045780783395, -28779.368553086348, -7760.704488838254, -11800.111746801347, -187500.02235174447, -10182.985387204337, -23854.67575248191, 9714.761044354564, -17921.44989030956, -23544.27707723106, 5994.089662324151, -13099.463355477257, -20355.465454514677, -37544.7616034462, 0.13, 1.014, 0.198, 192.0, 0.0, 0.0, 0.0, 0.0, 0.0, 0.0, 0.0, 0.0, 0.0, 1.696032132609052E9, 0.0, 2023-09-29 19:02:12.609
220.0, -57078.465173061515, -27035.753671616756, -45514.38784770821, -28753.440529518193, -7768.885227308897, -11801.00581657956, -187500.02235174447, -10191.210829163889, -23851.814729191632, 9744.868844135863, -17860.116703524196, -23554.692990147232, 5990.491031466846, -13091.059099562062, -20349.184614322738, -37518.78887638913, 0.13, 1.014, 0.198, 192.0, 0.0, 0.0, 0.0, 0.0, 0.0, 0.0, 0.0, 0.0, 0.0, 1.696032132609058E9, 0.0, 2023-09-29 19:02:12.609
222.0, -57062.55073100934, -27177.463731463402, -45509.179891250125, -28786.02937293403, -7764.057250506551, -11799.284732256501, -187500.02235174447, -10188.483916340341, -23867.796226477174, 9701.886439548307, -17906.608331991236, -23547.56278366599, 5992.815612890197, -13092.869590862942, -20355.823082425963, -37539.97833013276, 0.126, 1.006, 0.2, 192.0, 1.5, 120.0, 15.5, 56.0, 3.0, 32.0, 0.0, 0.0, 0.0, 1.696032132609064E9, 0.0, 2023-09-29 19:02:12.609
224.0, -57080.29801610685, -27046.05782581065, -45508.62109763874, -28751.94296263969, -7765.10778249595, -11794.702624643163, -187500.02235174447, -10187.746308773316, -23855.838043193584, 9737.73863765462, -17890.045689349852, -23544.522946420067, 5987.85352562112, -13081.984291313207, -20351.26332655708, -37524.22035029178, 0.126, 1.006, 0.2, 192.0, 0.0, 0.0, 0.0, 0.0, 0.0, 0.0, 0.0, 0.0, 0.0, 1.696032132669155E9, 0.0, 2023-09-29 19:02:12.669
226.0, -57073.95012068154, -27165.32673422417, -45509.515167416954, -28798.233425406626, -7766.761811585643, -11803.397453236277, -187500.02235174447, -10193.334244887143, -23865.762217731743, 9713.665808876254, -17901.936817400077, -23545.260553987093, 5989.261685521804, -13102.190268300805, -20357.343001048925, -37540.201847577315, 0.126, 1.006, 0.2, 192.0, 0.0, 0.0, 0.0, 0.0, 0.0, 0.0, 0.0, 0.0, 0.0, 1.696032132669171E9, 0.0, 2023-09-29 19:02:12.669
228.0, -57078.465173061515, -27043.35326473156, -45503.90487955867, -28754.424006274225, -7759.877474293408, -11791.506325186054, -187500.02235174447, -10180.68315752544, -23851.702970469352, 9742.365448756867, -17906.183648846585, -23546.84752784342, 5997.4424239924465, -13089.941512339296, -20350.749236434607, -37527.17078055987, 0.126, 1.006, 0.2, 192.0, 0.0, 0.0, 0.0, 0.0, 0.0, 0.0, 0.0, 0.0, 0.0, 1.696032132669176E9, 0.0, 2023-09-29 19:02:12.669
230.0, -57061.70136472004, -27169.595917415136, -45499.63569636771, -28796.422934105747, -7761.48679989419, -11795.686101399197, -187500.02235174447, -10177.240988879323, -23866.54452878768, 9730.45196896219, -17890.73859342797, -23546.825176098966, 5996.704816425421, -13096.11059380896, -20353.342038791423, -37536.60321672001, 0.126, 1.006, 0.2, 192.0, 0.0, 0.0, 0.0, 0.0, 0.0, 0.0, 0.0, 0.0, 0.0, 1.696032132669182E9, 0.0, 2023-09-29 19:02:12.669
232.0, -57064.67414673259, -27085.419247796446, -45496.77467307743, -28749.350160282873, -7758.111686481439, -11788.153563517757, -187500.02235174447, -10174.692890011418, -23847.09851111156, 9733.06712306346, -17928.02130317942, -23536.23044922715, 6006.785453174764, -13083.146582024883, -20335.527698460544, -37518.36419324448, 0.128, 1.002, 0.2, 192.0, 2.0, 0.0, 15.5, 40.0, 3.0, 32.0, 0.0, 0.0, 0.0, 1.696032132669187E9, 0.0, 2023-09-29 19:02:12.669
234.0, -57068.451591545534, -27151.222783472873, -45507.88349007172, -28790.92440496974, -7773.042651777584, -11798.502421200565, -187500.02235174447, -10188.282750640245, -23862.096531641073, 9723.187652014214, -17871.873721107688, -23551.675504645766, 5988.166450043494, -13102.838468890008, -20350.01162886758, -37529.98710036124, 0.128, 1.002, 0.2, 192.0, 0.0, 0.0, 0.0, 0.0, 0.0, 0.0, 0.0, 0.0, 0.0, 1.696032132669193E9, 0.0, 2023-09-29 19:02:12.669
236.0, -57088.85873423323, -27057.8371951386, -45511.03508603991, -28746.042102103485, -7777.177724501816, -11798.591828178387, -187500.02235174447, -10190.182648918944, -23848.86429892353, 9724.841681103908, -17912.330378571794, -23548.23333599965, 5987.071214565184, -13090.54500943959, -20352.51502424658, -37525.606158448005, 0.128, 1.002, 0.2, 192.0, 0.0, 0.0, 0.0, 0.0, 0.0, 0.0, 0.0, 0.0, 0.0, 1.696032132669199E9, 0.0, 2023-09-29 19:02:12.669
238.0, -57066.4175828001, -27130.592123340622, -45513.091446529805, -28782.229576376627, -7781.826887348519, -11803.598618936376, -187500.02235174447, -10194.295369898722, -23859.77195021772, 9735.123483553349, -17861.77073261389, -23546.579306909956, 5986.847697120631, -13085.426459959324, -20359.93580340574, -37536.98319637575, 0.128, 1.002, 0.2, 192.0, 0.0, 0.0, 0.0, 0.0, 0.0, 0.0, 0.0, 0.0, 0.0, 1.696032132669205E9, 0.0, 2023-09-29 19:02:12.669
240.0, -57065.970547911, -27107.7486405073, -45502.40731268017, -28739.291875277984, -7765.465410407235, -11792.24393275308, -187500.02235174447, -10183.477125582353, -23842.114072098026, 9745.561748213977, -17938.146643417676, -23536.453966671703, 5997.71064492591, -13081.82782910202, -20349.07285560046, -37526.41082124839, 0.128, 1.002, 0.2, 192.0, 0.0, 0.0, 0.0, 0.0, 0.0, 0.0, 0.0, 0.0, 0.0, 1.696032132729035E9, 0.0, 2023-09-29 19:02:12.729
242.0, -57049.43025701407, -27137.11883272157, -45506.07299877083, -28771.545442526993, -7771.790954088087, -11801.676368913219, -187500.02235174447, -10189.73561402984, -23846.00327563325, 9761.476190266156, -17857.56860465629, -23533.74940559261, 5992.681502423466, -13075.30111972107, -20348.089378844426, -37522.70043166881, 0.13, 0.994, 0.196, 192.0, 2.0, 8.0, 15.5, 8.0, 3.0, 16.0, 0.0, 0.0, 0.0, 1.696032132729049E9, 0.0, 2023-09-29 19:02:12.729
244.0, -57064.67414673259, -27111.83900974262, -45506.69884761558, -28749.417215516238, -7770.472201165224, -11804.135060803303, -187500.02235174447, -10192.976616975859, -23848.886650667984, 9725.333419481924, -17927.59662003477, -23541.5054609186, 5987.495897709835, -13087.102840793472, -20351.352733534903, -37528.869513138474, 0.13, 0.994, 0.196, 192.0, 0.0, 0.0, 0.0, 0.0, 0.0, 0.0, 0.0, 0.0, 0.0, 1.696032132729054E9, 0.0, 2023-09-29 19:02:12.729
246.0, -57067.982204911976, -27077.10439885907, -45517.11476053176, -28785.314117111462, -7784.710262383254, -11824.855127913372, -187500.02235174447, -10210.343922417633, -23857.20149960536, 9730.563727684466, -17843.48700564945, -23552.636629657347, 5979.203400516916, -13103.263152034659, -20363.310916818493, -37537.11730684248, 0.13, 0.994, 0.196, 192.0, 0.0, 0.0, 0.0, 0.0, 0.0, 0.0, 0.0, 0.0, 0.0, 1.696032132729059E9, 0.0, 2023-09-29 19:02:12.729
248.0, -57076.90055094964, -27115.147067922007, -45499.456882412065, -28760.34721855488, -7765.018375518129, -11812.807537651961, -187500.02235174447, -10199.771547290273, -23856.06156063814, 9712.592925142399, -17946.37208537723, -23547.04869354352, 5988.680540165966, -13104.134870068416, -20356.448931270712, -37551.24360933824, 0.13, 0.994, 0.196, 192.0, 0.0, 0.0, 0.0, 0.0, 0.0, 0.0, 0.0, 0.0, 0.0, 1.696032132729064E9, 0.0, 2023-09-29 19:02:12.729
