%OpenBCI Raw EXG Data
%Number of channels = 16
%Sample Rate = 125 Hz
%Board = OpenBCI_GUI$BoardCytonSerialDaisy
Sample Index, EXG Channel 0, EXG Channel 1, EXG Channel 2, EXG Channel 3, EXG Channel 4, EXG Channel 5, EXG Channel 6, EXG Channel 7, EXG Channel 8, EXG Channel 9, EXG Channel 10, EXG Channel 11, EXG Channel 12, EXG Channel 13, EXG Channel 14, EXG Channel 15, Accel Channel 0, Accel Channel 1, Accel Channel 2, Other, Other, Other, Other, Other, Other, Other, Analog Channel 0, Analog Channel 1, Analog Channel 2, Timestamp, Other, Timestamp (Formatted)
0.0, 2137.0502873719083, 20935.739092318905, 29617.313100971354, -11042.789941166633, 28985.719857897744, 27992.765962215184, -187500.02235174447, 45324.040391926814, 0.0, 0.0, 0.0, 0.0, 0.0, 0.0, 0.0, 0.0, 0.0, 0.0, 0.0, 192.0, 0.0, 0.0, 0.0, 0.0, 0.0, 0.0, 0.0, 0.0, 0.0, 1.6959351922257628E9, 0.0, 2023-09-28 16:06:32.225
224.0, 2173.2377616450503, 20972.06067705878, 29211.11484898506, -11013.08447278553, 29028.054061896095, 27864.690466486274, -187500.02235174447, 44985.36675994, 12502.202391886996, -24721.632864669904, -11718.192603372647, 5588.897238838344, 10459.297652160842, -187500.02235174447, 13331.452111178889, -30679.669163187646, 0.074, 0.497, 0.076, 192.0, 2.0, 80.0, 15.5, 8.0, 2.0, 96.0, 0.0, 0.0, 0.0, 1.695935192225782E9, 0.0, 2023-09-28 16:06:32.225
226.0, 2154.2387788580395, 20918.57295257723, 29615.122630014735, -11026.473167714259, 29000.047326093594, 28012.54725605813, -187500.02235174447, 45320.35235409169, 12469.166513582053, -24710.90402733136, -11717.23147836107, 5623.16246308833, 10452.837998013258, -187500.02235174447, 13305.859363777563, -30740.041224961427, 0.074, 0.497, 0.076, 192.0, 0.0, 0.0, 0.0, 0.0, 0.0, 0.0, 0.0, 0.0, 0.0, 1.6959351922257943E9, 0.0, 2023-09-28 16:06:32.225
228.0, 2209.179366729184, 20988.779781911348, 29210.891331540508, -11009.575248906047, 29032.12207938696, 27858.253164083144, -187500.02235174447, 44978.705940092324, 12500.749528497403, -24726.907876361358, -11719.399597573232, 5587.1985062597405, 10435.470692571485, -187500.02235174447, 13354.16148354548, -30654.814023353345, 0.074, 0.497, 0.076, 192.0, 0.0, 0.0, 0.0, 0.0, 0.0, 0.0, 0.0, 0.0, 0.0, 1.6959351922258065E9, 0.0, 2023-09-28 16:06:32.225
230.0, 2156.3621945812934, 20932.609848095162, 29631.640569167208, -11022.226336267751, 28994.660555679868, 28025.243046908745, -187500.02235174447, 45325.78382799433, 12482.286987577318, -24707.283044729596, -11699.327731052368, 5633.757189960145, 10475.100335490744, -187500.02235174447, 13256.23849108678, -30800.502693713035, 0.074, 0.497, 0.076, 192.0, 0.0, 0.0, 0.0, 0.0, 0.0, 0.0, 0.0, 0.0, 0.0, 1.695935192225818E9, 0.0, 2023-09-28 16:06:32.225
232.0, 2199.411654402215, 20977.849778872704, 29237.042872553215, -11023.500385701704, 29026.020053150663, 27837.89072488436, -187500.02235174447, 44994.10629202203, 12483.248112588897, -24740.341274778995, -11726.105120909826, 5582.437584690761, 10437.661163528104, -187500.02235174447, 13396.272170099279, -30610.803438520845, 0.074, 0.497, 0.076, 192.0, 0.0, 0.0, 0.0, 0.0, 0.0, 0.0, 0.0, 0.0, 0.0, 1.6959351922258327E9, 0.0, 2023-09-28 16:06:32.225
234.0, 2126.8802436447436, 20929.05592072677, 29606.159580488158, -11029.490653215726, 28998.84033189301, 28013.77660200317, -187500.02235174447, 45296.77126369134, 12479.940054409512, -24711.999262809666, -11707.352007311823, 5622.44720726576, 10467.92542552059, -187500.02235174447, 13219.581630180077, -30831.973949906107, 0.10800000000000001, 0.7475, 0.11299999999999999, 192.0, 2.0, 56.0, 15.5, 24.0, 2.0, 88.0, 0.0, 0.0, 0.0, 1.695935192225844E9, 0.0, 2023-09-28 16:06:32.225
236.0, 2174.66827329019, 20991.618453457173, 29270.36932353608, -11051.618880226479, 29012.273730310648, 27824.390271233355, -187500.02235174447, 45020.14607431246, 12463.13154257912, -24762.0448186451, -11746.17698743069, 5563.10332573692, 10426.462939555997, -187500.02235174447, 13426.916411747505, -30579.041609649852, 0.10800000000000001, 0.7475, 0.11299999999999999, 192.0, 0.0, 0.0, 0.0, 0.0, 0.0, 0.0, 0.0, 0.0, 0.0, 1.695935192225855E9, 0.0, 2023-09-28 16:06:32.225
238.0, 2136.4691420160702, 20899.015176178837, 29583.13728369919, -11032.7540079062, 28986.345706742493, 28007.45105832232, -187500.02235174447, 45274.73244365841, 12479.716536964957, -24721.454050714263, -11718.572583028386, 5607.739759414168, 10463.097448718245, -187500.02235174447, 13197.833382825063, -30843.7309674896, 0.10800000000000001, 0.7475, 0.11299999999999999, 192.0, 0.0, 0.0, 0.0, 0.0, 0.0, 0.0, 0.0, 0.0, 0.0, 1.6959351922258663E9, 0.0, 2023-09-28 16:06:32.225
240.0, 2143.6887554751343, 20936.968438263946, 29305.88624547556, -11050.702458703812, 29007.78102967513, 27832.615713192907, -187500.02235174447, 45049.516266526734, 12458.951766365977, -24759.98845815521, -11766.13709522928, 5569.875904306878, 10434.509567559906, -187500.02235174447, 13456.532473150788, -30539.411966730593, 0.10800000000000001, 0.7475, 0.11299999999999999, 192.0, 0.0, 0.0, 0.0, 0.0, 0.0, 0.0, 0.0, 0.0, 0.0, 1.6959351922258775E9, 0.0, 2023-09-28 16:06:32.225
242.0, 2112.351609748794, 20906.927693716014, 29540.288989578366, -11016.951324576297, 29003.824770906544, 28008.45688682281, -187500.02235174447, 45232.19707395996, 12481.214103843464, -24713.250960499165, -11717.32088533889, 5605.191660546263, 10456.280166659375, -187500.02235174447, 13179.683766327355, -30846.837859968888, 0.10800000000000001, 0.7475, 0.11299999999999999, 192.0, 0.0, 0.0, 0.0, 0.0, 0.0, 0.0, 0.0, 0.0, 0.0, 1.6959351922258885E9, 0.0, 2023-09-28 16:06:32.225
244.0, 2143.956976408598, 20929.681769571518, 29347.214620973424, -11048.511987747192, 29007.088125597016, 27850.65357096834, -187500.02235174447, 45077.54535407369, 12442.41147546905, -24753.37234179644, -11760.906787026739, 5575.217971231696, 10432.855538470214, -187500.02235174447, 13463.640327887575, -30534.00284457241, 0.126, 0.87275, 0.1315, 192.0, 2.0, 64.0, 15.5, 24.0, 2.0, 88.0, 0.0, 0.0, 0.0, 1.6959351922258992E9, 0.0, 2023-09-28 16:06:32.225
246.0, 2119.5041679744922, 20910.079289684214, 29492.635070399654, -11015.207888508785, 29003.4447912508, 27998.10802914, -187500.02235174447, 45186.24188735985, 12484.991548656411, -24717.02840531211, -11731.313077367911, 5602.710616911723, 10469.177123210087, -187500.02235174447, 13153.956908459295, -30872.005924225563, 0.126, 0.87275, 0.1315, 192.0, 0.0, 0.0, 0.0, 0.0, 0.0, 0.0, 0.0, 0.0, 0.0, 1.6959351922259123E9, 0.0, 2023-09-28 16:06:32.225
248.0, 2172.254284889017, 20938.264839442356, 29390.2864325388, -11048.020249369174, 29010.105611098483, 27866.478606042696, -187500.02235174447, 45113.88929055802, 12431.190899752486, -24758.692056976804, -11781.559798903441, 5561.806924558512, 10424.518337788384, -187500.02235174447, 13470.725830879908, -30528.37020496967, 0.126, 0.87275, 0.1315, 192.0, 0.0, 0.0, 0.0, 0.0, 0.0, 0.0, 0.0, 0.0, 0.0, 1.6959351922259245E9, 0.0, 2023-09-28 16:06:32.225
250.0, 2118.185415051629, 20908.492315827887, 29453.810090280786, -11005.931914559831, 29018.778087947143, 27990.866063936483, -187500.02235174447, 45148.713308419385, 12492.23351385993, -24710.054661042057, -11725.903955209727, 5596.63094241988, 10467.366631909208, -187500.02235174447, 13150.514739813178, -30873.10115970387, 0.126, 0.87275, 0.1315, 192.0, 0.0, 0.0, 0.0, 0.0, 0.0, 0.0, 0.0, 0.0, 0.0, 1.6959351922259357E9, 0.0, 2023-09-28 16:06:32.225
252.0, 2130.5012262465034, 20937.348417919686, 29448.155098933592, -11030.80940613859, 29025.573018261555, 27898.53100759161, -187500.02235174447, 45154.81533465569, 12440.265708001341, -24752.94765865179, -11758.671612581207, 5578.637788133358, 10431.693247758538, -187500.02235174447, 13472.3798599696, -30541.021292331374, 0.126, 0.87275, 0.1315, 192.0, 0.0, 0.0, 0.0, 0.0, 0.0, 0.0, 0.0, 0.0, 0.0, 1.695935192225947E9, 0.0, 2023-09-28 16:06:32.225
254.0, 2109.4682347140592, 20926.57487709223, 29386.464284236943, -10988.832830051522, 29028.97048341876, 27971.531804982642, -187500.02235174447, 45090.0399792242, 12499.94486569701, -24708.445335441273, -11712.783481214463, 5609.997285604154, 10474.049803501344, -187500.02235174447, 13165.959795231796, -30864.04870319947, 0.132, 0.9373750000000001, 0.13974999999999999, 192.0, 2.0, 40.0, 15.5, 40.0, 2.0, 80.0, 0.0, 0.0, 0.0, 1.6959351922259636E9, 0.0, 2023-09-28 16:06:32.225
0.0, 2115.3020400168944, 20912.62738855212, 29518.339576523256, -11036.576156208057, 29002.64012845041, 27916.300644433577, -187500.02235174447, 45208.5712800707, 12423.725417104413, -24759.094388376998, -11756.749362558052, 5587.4890789376595, 10415.465881283984, -187500.02235174447, 13456.778342339796, -30574.10187412523, 0.132, 0.9373750000000001, 0.13974999999999999, 192.0, 0.0, 0.0, 0.0, 0.0, 0.0, 0.0, 0.0, 0.0, 0.0, 1.6959351922259748E9, 0.0, 2023-09-28 16:06:32.225
2.0, 2120.9123278751767, 20912.47092634093, 29349.203926229948, -10986.12826897243, 29035.98893117773, 27937.57950515503, -187500.02235174447, 45047.95164441486, 12500.749528497403, -24710.45699244225, -11710.861231191306, 5604.990494846165, 10471.054669744333, -187500.02235174447, 13188.5127053872, -30837.450127297656, 0.132, 0.9373750000000001, 0.13974999999999999, 192.0, 0.0, 0.0, 0.0, 0.0, 0.0, 0.0, 0.0, 0.0, 0.0, 1.695935192225989E9, 0.0, 2023-09-28 16:06:32.225
4.0, 2130.2106535685843, 20914.0355484528, 29578.354010385756, -11049.09313310303, 28995.822846391544, 27928.348234694986, -187500.02235174447, 45249.944359057474, 12426.832309583702, -24749.907821405868, -11756.727010813596, 5594.686340652268, 10442.690306030549, -187500.02235174447, 13438.047580486249, -30598.174702903594, 0.132, 0.9373750000000001, 0.13974999999999999, 192.0, 0.0, 0.0, 0.0, 0.0, 0.0, 0.0, 0.0, 0.0, 0.0, 1.695935192226E9, 0.0, 2023-09-28 16:06:32.226
6.0, 2174.0424244454416, 20934.2415254404, 29306.243873386848, -11001.640379624412, 29035.6536550109, 27907.47170537373, -187500.02235174447, 45004.16457702692, 12502.269447120363, -24725.65617867186, -11720.919516196194, 5584.0916137804525, 10465.198512697043, -187500.02235174447, 13219.13459529097, -30794.691240154654, 0.132, 0.9373750000000001, 0.13974999999999999, 192.0, 0.0, 0.0, 0.0, 0.0, 0.0, 0.0, 0.0, 0.0, 0.0, 1.6959351922260122E9, 0.0, 2023-09-28 16:06:32.226
8.0, 2149.4555055446035, 20933.57097310674, 29605.77960083242, -11044.019287111674, 28998.92973887083, 27949.71650239426, -187500.02235174447, 45262.84131560819, 12449.65344067257, -24738.910763133856, -11749.865025265817, 5596.429776719782, 10453.240329413455, -187500.02235174447, 13402.709472502409, -30635.30095044386, 0.139, 0.9706875, 0.14387499999999998, 192.0, 2.0, 72.0, 15.5, 48.0, 2.0, 80.0, 0.0, 0.0, 0.0, 1.6959351922260249E9, 0.0, 2023-09-28 16:06:32.226
10.0, 2164.922912707676, 20962.650592643095, 29278.773579451274, -11006.580115149036, 29032.32324508706, 27884.404705095854, -187500.02235174447, 44969.00528299872, 12519.413235117583, -24711.529876176104, -11699.50654500801, 5597.077977308986, 10485.650358873649, -187500.02235174447, 13242.179243824392, -30781.771931859486, 0.139, 0.9706875, 0.14387499999999998, 192.0, 0.0, 0.0, 0.0, 0.0, 0.0, 0.0, 0.0, 0.0, 0.0, 1.695935192226036E9, 0.0, 2023-09-28 16:06:32.226
12.0, 2130.3671157797717, 20931.246391683388, 29655.82515666785, -11044.153397578406, 28988.73734339921, 27972.73879918323, -187500.02235174447, 45291.63036246662, 12457.096571576187, -24722.281065259107, -11719.667818506698, 5615.786387418078, 10462.717469062503, -187500.02235174447, 13360.867006882074, -30700.188064597616, 0.139, 0.9706875, 0.14387499999999998, 192.0, 0.0, 0.0, 0.0, 0.0, 0.0, 0.0, 0.0, 0.0, 0.0, 1.6959351922260468E9, 0.0, 2023-09-28 16:06:32.226
14.0, 2189.5321833529692, 20952.637011127117, 29276.918384661483, -11017.376007720948, 29030.4009950639, 27856.688541971274, -187500.02235174447, 44965.987797497255, 12507.499755322904, -24729.388919995898, -11716.560926027409, 5588.092576037953, 10444.321983375787, -187500.02235174447, 13304.898238765983, -30723.255064875495, 0.139, 0.9706875, 0.14387499999999998, 192.0, 0.0, 0.0, 0.0, 0.0, 0.0, 0.0, 0.0, 0.0, 0.0, 1.69593519222606E9, 0.0, 2023-09-28 16:06:32.226
16.0, 2167.023976686475, 20926.418414881042, 29674.935898177137, -11042.924051633365, 28996.292233025102, 27985.702810967305, -187500.02235174447, 45309.42235105304, 12453.967327352444, -24711.574579665015, -11729.301420366934, 5616.814567663022, 10449.127608433677, -187500.02235174447, 13353.26741376727, -30707.385326312226, 0.139, 0.9706875, 0.14387499999999998, 192.0, 0.0, 0.0, 0.0, 0.0, 0.0, 0.0, 0.0, 0.0, 0.0, 1.695935192226072E9, 0.0, 2023-09-28 16:06:32.226
18.0, 2191.566192098402, 20998.949825638512, 29244.64246566802, -11009.7987663506, 29042.403881836402, 27845.4232627658, -187500.02235174447, 44936.1035151605, 12510.71840652447, -24708.04300404108, -11709.475423035077, 5595.848631363944, 10446.624213054683, -187500.02235174447, 13344.997268318804, -30668.001552581973, 0.14350000000000002, 0.9863437500000001, 0.1459375, 192.0, 2.0, 80.0, 15.5, 40.0, 2.0, 80.0, 0.0, 0.0, 0.0, 1.6959351922260838E9, 0.0, 2023-09-28 16:06:32.226
20.0, 2146.1027438763076, 20936.09672023019, 29664.810557938883, -11034.56449920708, 28996.471046980747, 28003.763020487193, -187500.02235174447, 45283.494327484885, 12481.907007921578, -24706.053698784555, -11705.228591588568, 5627.20812883474, 10460.370535894697, -187500.02235174447, 13271.750601738764, -30787.60573716232, 0.14350000000000002, 0.9863437500000001, 0.1459375, 192.0, 0.0, 0.0, 0.0, 0.0, 0.0, 0.0, 0.0, 0.0, 0.0, 1.6959351922260945E9, 0.0, 2023-09-28 16:06:32.226
22.0, 2214.029695275986, 20975.569900938262, 29261.89801238752, -11020.572307178058, 29032.65852125389, 27840.75174817464, -187500.02235174447, 44947.63701529944, 12496.770917984357, -24733.23342004221, -11716.046835904937, 5586.371491714895, 10457.621271326694, -187500.02235174447, 13365.78439066224, -30651.55066866287, 0.14350000000000002, 0.9863437500000001, 0.1459375, 192.0, 0.0, 0.0, 0.0, 0.0, 0.0, 0.0, 0.0, 0.0, 0.0, 1.695935192226105E9, 0.0, 2023-09-28 16:06:32.226
24.0, 2133.89869140371, 20907.531190816306, 29660.317857303366, -11037.023191097163, 28979.81899736154, 28017.419936349386, -187500.02235174447, 45283.091996084695, 12478.263673575364, -24709.875847086412, -11711.285914335956, 5619.96616363122, 10471.322890677797, -187500.02235174447, 13237.686543188876, -30826.72128995911, 0.14350000000000002, 0.9863437500000001, 0.1459375, 192.0, 0.0, 0.0, 0.0, 0.0, 0.0, 0.0, 0.0, 0.0, 0.0, 1.6959351922261157E9, 0.0, 2023-09-28 16:06:32.226
26.0, 2168.6109505428017, 20965.198691511, 29271.866890414585, -11040.71122893229, 29020.78974494812, 27838.136594073367, -187500.02235174447, 44971.508678377715, 12465.724344935936, -24761.03899014461, -11765.555949873442, 5551.256901175607, 10424.428930810564, -187500.02235174447, 13413.03597844076, -30596.587729047267, 0.14350000000000002, 0.9863437500000001, 0.1459375, 192.0, 0.0, 0.0, 0.0, 0.0, 0.0, 0.0, 0.0, 0.0, 0.0, 1.6959351922261264E9, 0.0, 2023-09-28 16:06:32.226
28.0, 2101.2651444989615, 20890.163885374535, 29624.130383030224, -11039.705400431802, 28987.418590476347, 28020.884456739957, -187500.02235174447, 45267.82575462172, 12472.385164783618, -24725.119736804932, -11733.74941751354, 5595.401596474838, 10450.82634101228, -187500.02235174447, 13201.208496237816, -30847.26254311354, 0.14475, 0.995171875, 0.14496875, 192.0, 2.0, 72.0, 15.5, 48.0, 2.0, 64.0, 0.0, 0.0, 0.0, 1.6959351922261393E9, 0.0, 2023-09-28 16:06:32.226
30.0, 2169.057985431908, 20939.985923765413, 29300.767695995295, -11049.875444158966, 29019.716861214267, 27837.935428373272, -187500.02235174447, 45000.297725236145, 12445.965402837444, -24771.454903060785, -11775.323662200411, 5539.4775318476595, 10423.91484068809, -187500.02235174447, 13434.404246140033, -30566.52463275488, 0.14475, 0.995171875, 0.14496875, 192.0, 0.0, 0.0, 0.0, 0.0, 0.0, 0.0, 0.0, 0.0, 0.0, 1.695935192226152E9, 0.0, 2023-09-28 16:06:32.226
32.0, 2101.376903221238, 20877.02105963481, 29603.209150220056, -11037.045542841619, 29002.93070112833, 28022.516134085196, -187500.02235174447, 45245.36225144414, 12475.983795640923, -24727.354911250462, -11739.002077460538, 5585.164497514307, 10450.714582290004, -187500.02235174447, 13168.574949333066, -30874.19639518218, 0.14475, 0.995171875, 0.14496875, 192.0, 0.0, 0.0, 0.0, 0.0, 0.0, 0.0, 0.0, 0.0, 0.0, 1.695935192226163E9, 0.0, 2023-09-28 16:06:32.226
34.0, 2145.320432820372, 20924.004426479867, 29358.815176345728, -11059.933729163853, 29028.32228282956, 27842.696349942253, -187500.02235174447, 45047.32579557011, 12435.996524810378, -24779.300365364597, -11782.56562740393, 5544.372563883372, 10418.840994696737, -187500.02235174447, 13468.133028523092, -30536.84151611823, 0.14475, 0.995171875, 0.14496875, 192.0, 0.0, 0.0, 0.0, 0.0, 0.0, 0.0, 0.0, 0.0, 0.0, 1.6959351922261739E9, 0.0, 2023-09-28 16:06:32.226
36.0, 2094.60432465128, 20886.766420217326, 29569.70388528155, -11027.009609581186, 29018.152239102394, 28013.128401413967, -187500.02235174447, 45201.306963122726, 12483.47163003345, -24724.09155655999, -11720.517184796, 5595.312189497017, 10479.704794848538, -187500.02235174447, 13159.097809684017, -30877.705619061664, 0.14475, 0.995171875, 0.14496875, 192.0, 0.0, 0.0, 0.0, 0.0, 0.0, 0.0, 0.0, 0.0, 0.0, 1.6959351922261844E9, 0.0, 2023-09-28 16:06:32.226
38.0, 2149.7237264780674, 20925.14436544709, 29406.469095524444, -11070.617863013491, 29017.436983279826, 27857.873184427404, -187500.02235174447, 45079.91463898595, 12422.943106048479, -24779.613289786972, -11781.448040181165, 5546.585386584447, 10417.924573174068, -187500.02235174447, 13467.976566311905, -30540.261333019895, 0.14537499999999998, 0.9955859375, 0.146484375, 192.0, 2.0, 72.0, 15.5, 16.0, 2.0, 80.0, 0.0, 0.0, 0.0, 1.6959351922261949E9, 0.0, 2023-09-28 16:06:32.226
40.0, 2104.908478845177, 20879.256234080345, 29515.612663699707, -11030.652943927402, 29017.235817579727, 27989.30144182461, -187500.02235174447, 45154.81533465569, 12477.168438097053, -24738.687245689303, -11735.336391369867, 5572.312244452506, 10462.35984115122, -187500.02235174447, 13154.448646837312, -30872.54236609249, 0.14537499999999998, 0.9955859375, 0.146484375, 192.0, 0.0, 0.0, 0.0, 0.0, 0.0, 0.0, 0.0, 0.0, 0.0, 1.6959351922262073E9, 0.0, 2023-09-28 16:06:32.226
42.0, 2137.7878949389333, 20905.586589048697, 29457.319314160268, -11064.404078054915, 29016.677023968343, 27875.28519335809, -187500.02235174447, 45116.23622372583, 12429.715684618437, -24774.76296124017, -11769.71337434213, 5547.702973807213, 10429.167500635089, -187500.02235174447, 13465.853150588651, -30542.6082661877, 0.14537499999999998, 0.9955859375, 0.146484375, 192.0, 0.0, 0.0, 0.0, 0.0, 0.0, 0.0, 0.0, 0.0, 0.0, 1.6959351922262187E9, 0.0, 2023-09-28 16:06:32.226
44.0, 2118.7665604074673, 20916.874219998626, 29466.036494497836, -11016.32547573155, 29021.661462981876, 27988.29561332412, -187500.02235174447, 45112.05644751268, 12501.733005253436, -24729.008940340154, -11718.75139698403, 5575.910875309811, 10479.481277403984, -187500.02235174447, 13148.883062467941, -30875.291630660493, 0.14537499999999998, 0.9955859375, 0.146484375, 192.0, 0.0, 0.0, 0.0, 0.0, 0.0, 0.0, 0.0, 0.0, 0.0, 1.6959351922262294E9, 0.0, 2023-09-28 16:06:32.226
46.0, 2145.2086740980953, 20924.71968230244, 29521.84880040274, -11049.89779590342, 29010.46323900977, 27910.220969941733, -187500.02235174447, 45170.28274181876, 12438.79049286729, -24762.111873878464, -11757.218749191612, 5561.382241413861, 10435.336582104754, -187500.02235174447, 13465.361412210634, -30548.57618195727, 0.14537499999999998, 0.9955859375, 0.146484375, 192.0, 0.0, 0.0, 0.0, 0.0, 0.0, 0.0, 0.0, 0.0, 0.0, 1.69593519222624E9, 0.0, 2023-09-28 16:06:32.226
48.0, 2161.5254475504694, 20942.690484844505, 29412.705232227476, -10999.114632500963, 29023.159029860384, 27963.61928744546, -187500.02235174447, 45057.24997010827, 12515.032293204344, -24701.203370237756, -11702.166402598192, 5595.423948219293, 10486.276207718398, -187500.02235174447, 13164.08224869755, -30854.705674017154, 0.14668749999999997, 0.99579296875, 0.1482421875, 192.0, 2.0, 80.0, 15.5, 16.0, 2.0, 88.0, 0.0, 0.0, 0.0, 1.6959351922262504E9, 0.0, 2023-09-28 16:06:32.226
50.0, 2161.0337091724527, 20935.67203708554, 29574.978896973003, -11048.735505191744, 28991.665421922855, 27929.2423044732, -187500.02235174447, 45205.79966375824, 12444.333725492208, -24739.916591634345, -11747.719257798108, 5588.159631271319, 10441.326849618776, -187500.02235174447, 13430.22446992689, -30586.99883067594, 0.14668749999999997, 0.99579296875, 0.1482421875, 192.0, 0.0, 0.0, 0.0, 0.0, 0.0, 0.0, 0.0, 0.0, 0.0, 1.6959351922262611E9, 0.0, 2023-09-28 16:06:32.226
52.0, 2180.9714652265866, 20958.180243752035, 29355.37300769961, -10993.213771964762, 29026.422384550857, 27939.300589478087, -187500.02235174447, 45010.154844540935, 12510.874868735656, -24713.98856806619, -11718.192603372647, 5592.182945273274, 10465.109105719222, -187500.02235174447, 13188.065670498094, -30820.127525344793, 0.14668749999999997, 0.99579296875, 0.1482421875, 192.0, 0.0, 0.0, 0.0, 0.0, 0.0, 0.0, 0.0, 0.0, 0.0, 1.6959351922262716E9, 0.0, 2023-09-28 16:06:32.226
54.0, 2156.4963050480255, 20913.85673449716, 29611.747516601983, -11046.679144701857, 28989.7431718997, 27953.225726273744, -187500.02235174447, 45242.36711768712, 12435.683600388003, -24740.989475368202, -11753.128379956292, 5594.909858096821, 10425.479462799962, -187500.02235174447, 13408.386815594056, -30610.043479209362, 0.14668749999999997, 0.99579296875, 0.1482421875, 192.0, 0.0, 0.0, 0.0, 0.0, 0.0, 0.0, 0.0, 0.0, 0.0, 1.695935192226284E9, 0.0, 2023-09-28 16:06:32.226
56.0, 2168.85681973181, 20966.85272060069, 29325.37696664059, -11011.810423351577, 29023.874285682952, 27916.479458389218, -187500.02235174447, 44991.781710598676, 12508.103252423198, -24716.536666934095, -11715.55509752692, 5583.130488768875, 10455.274338158886, -187500.02235174447, 13219.872202857996, -30776.34045795685, 0.14668749999999997, 0.99579296875, 0.1482421875, 192.0, 0.0, 0.0, 0.0, 0.0, 0.0, 0.0, 0.0, 0.0, 0.0, 1.6959351922262945E9, 0.0, 2023-09-28 16:06:32.226
58.0, 2146.549778765414, 20930.821708538737, 29646.43742399662, -11056.290394817639, 28993.78883764611, 27970.72714218225, -187500.02235174447, 45274.01718783584, 12433.64959164257, -24735.155670065364, -11753.307193911935, 5582.348177712939, 10434.286050115354, -187500.02235174447, 13393.098222386627, -30622.940435760076, 0.14534375, 0.995896484375, 0.15012109375, 192.0, 2.0, 64.0, 15.5, 16.0, 2.0, 96.0, 0.0, 0.0, 0.0, 1.6959351922263055E9, 0.0, 2023-09-28 16:06:32.226
60.0, 2161.7489649950226, 20954.805130339282, 29288.40718131151, -11012.592734407513, 29038.291160856625, 27896.295833146076, -187500.02235174447, 44956.823582270576, 12497.150897640098, -24716.804887867558, -11722.998228430537, 5575.597950887436, 10448.032372955367, -187500.02235174447, 13254.71857246382, -30725.579646298844, 0.14534375, 0.995896484375, 0.15012109375, 192.0, 0.0, 0.0, 0.0, 0.0, 0.0, 0.0, 0.0, 0.0, 0.0, 1.695935192226316E9, 0.0, 2023-09-28 16:06:32.226
62.0, 2137.9890606390313, 20912.269760640833, 29665.72697946155, -11054.770476194677, 28989.11732305495, 27999.136209384946, -187500.02235174447, 45285.953019374974, 12441.919737091033, -24725.678530416317, -11747.763961287017, 5590.1936400167515, 10449.082904944768, -187500.02235174447, 13335.16250075847, -30680.36206726576, 0.14534375, 0.995896484375, 0.15012109375, 192.0, 0.0, 0.0, 0.0, 0.0, 0.0, 0.0, 0.0, 0.0, 0.0, 1.695935192226329E9, 0.0, 2023-09-28 16:06:32.226
64.0, 2187.319360651894, 20960.415418197565, 29271.37515203657, -11021.309914745083, 29041.97919869175, 27875.128731146902, -187500.02235174447, 44940.64091928493, 12492.300569093297, -24734.619228198437, -11730.866042478805, 5564.600892615425, 10452.793294524348, -187500.02235174447, 13280.5348373097, -30704.479599533035, 0.14534375, 0.995896484375, 0.15012109375, 192.0, 0.0, 0.0, 0.0, 0.0, 0.0, 0.0, 0.0, 0.0, 0.0, 1.6959351922263396E9, 0.0, 2023-09-28 16:06:32.226
66.0, 2116.576089450847, 20899.506914556852, 29684.770665737473, -11060.984261153253, 28995.621680691445, 28003.517151298187, -187500.02235174447, 45289.68576069901, 12438.186995766997, -24733.70280667577, -11756.928176513693, 5580.180058500774, 10448.21118691101, -187500.02235174447, 13294.571732827633, -30735.257951647993, 0.14534375, 0.995896484375, 0.15012109375, 192.0, 0.0, 0.0, 0.0, 0.0, 0.0, 0.0, 0.0, 0.0, 0.0, 1.6959351922263522E9, 0.0, 2023-09-28 16:06:32.226
68.0, 2177.261075647006, 20952.704066360482, 29270.346971791623, -11036.576156208057, 29039.721672501764, 27852.821690180506, -187500.02235174447, 44937.13169540545, 12463.422115257039, -24756.032199386624, -11763.164313216725, 5537.510578335593, 10423.668971499083, -187500.02235174447, 13333.039085035216, -30646.901505816164, 0.145671875, 0.9929482421875, 0.147060546875, 192.0, 2.0, 72.0, 15.0, 120.0, 2.0, 64.0, 0.0, 0.0, 0.0, 1.6959351922263627E9, 0.0, 2023-09-28 16:06:32.226
70.0, 2125.6285459552464, 20893.494295298373, 29672.141930120222, -11039.817159154078, 29011.6478814659, 28022.58318931856, -187500.02235174447, 45271.04440582328, 12459.13058032162, -24723.89039085989, -11730.530766311977, 5587.91376208231, 10456.056649214823, -187500.02235174447, 13245.66611595942, -30786.778722617477, 0.145671875, 0.9929482421875, 0.147060546875, 192.0, 0.0, 0.0, 0.0, 0.0, 0.0, 0.0, 0.0, 0.0, 0.0, 1.6959351922263732E9, 0.0, 2023-09-28 16:06:32.226
72.0, 2162.66538651769, 20960.974211808945, 29271.844538670128, -11032.32932476155, 29041.576867291555, 27853.13461460288, -187500.02235174447, 44941.53498906315, 12474.66504271806, -24748.1420335939, -11753.32954565639, 5545.333688894951, 10429.614535524195, -187500.02235174447, 13347.053628808693, -30652.131814018707, 0.145671875, 0.9929482421875, 0.147060546875, 192.0, 0.0, 0.0, 0.0, 0.0, 0.0, 0.0, 0.0, 0.0, 0.0, 1.6959351922263837E9, 0.0, 2023-09-28 16:06:32.226
74.0, 2113.804473138389, 20886.833475450694, 29664.564688749873, -11047.796731924622, 28996.649860936388, 28025.533619586662, -187500.02235174447, 45277.079376826216, 12442.456178957962, -24730.193582796288, -11744.187682174168, 5583.644578891347, 10460.951681250535, -187500.02235174447, 13216.295923745147, -30839.953522676653, 0.145671875, 0.9929482421875, 0.147060546875, 192.0, 0.0, 0.0, 0.0, 0.0, 0.0, 0.0, 0.0, 0.0, 0.0, 1.6959351922263942E9, 0.0, 2023-09-28 16:06:32.226
76.0, 2187.252305418528, 20936.387292908108, 29295.872663959584, -11036.66556318588, 29046.293085371624, 27848.641913967364, -187500.02235174447, 44978.39301566995, 12441.495053946383, -24760.524900022137, -11765.33243242889, 5540.483360348148, 10421.836128453748, -187500.02235174447, 13397.613274766598, -30609.7752582759, 0.145671875, 0.9929482421875, 0.147060546875, 192.0, 0.0, 0.0, 0.0, 0.0, 0.0, 0.0, 0.0, 0.0, 0.0, 1.695935192226405E9, 0.0, 2023-09-28 16:06:32.226
78.0, 2110.898746359199, 20896.824705222214, 29640.894191371703, -11026.51787120317, 29009.12213434245, 28032.417956878897, -187500.02235174447, 45268.22808602191, 12465.143199580098, -24725.142088549386, -11734.285859380469, 5591.758262128623, 10456.950718993035, -187500.02235174447, 13196.402871179924, -30864.11575843284, 0.14783593750000001, 0.99247412109375, 0.14353027343750002, 192.0, 2.0, 88.0, 15.5, 0.0, 2.0, 48.0, 0.0, 0.0, 0.0, 1.695935192226417E9, 0.0, 2023-09-28 16:06:32.226
80.0, 2154.2611306024946, 20939.069502242746, 29338.229219702393, -11041.09120858803, 29025.528314772644, 27851.011198879623, -187500.02235174447, 45020.10137082355, 12446.054809815265, -24758.110911620966, -11767.053516751948, 5560.376412913372, 10418.01398015189, -187500.02235174447, 13439.142815964558, -30583.6684207521, 0.14783593750000001, 0.99247412109375, 0.14353027343750002, 192.0, 0.0, 0.0, 0.0, 0.0, 0.0, 0.0, 0.0, 0.0, 0.0, 1.6959351922264273E9, 0.0, 2023-09-28 16:06:32.226
82.0, 2132.4234762696597, 20882.206664348443, 29625.225618508535, -11031.412903238881, 29001.813113905566, 28021.21973290679, -187500.02235174447, 45249.78789684628, 12457.878882632123, -24730.819431641037, -11733.548251813443, 5589.903067338832, 10447.339468877253, -187500.02235174447, 13204.76242360621, -30852.001112938062, 0.14783593750000001, 0.99247412109375, 0.14353027343750002, 192.0, 0.0, 0.0, 0.0, 0.0, 0.0, 0.0, 0.0, 0.0, 0.0, 1.695935192226438E9, 0.0, 2023-09-28 16:06:32.226
84.0, 2174.0424244454416, 20941.483490643917, 29378.86469112214, -11049.249595314217, 29027.919951429365, 27856.487376271176, -187500.02235174447, 45046.31996706963, 12440.086894045699, -24765.643449502404, -11761.152656215747, 5565.1820379712635, 10420.1597476196, -187500.02235174447, 13477.81133387224, -30530.583027670746, 0.14783593750000001, 0.99247412109375, 0.14353027343750002, 192.0, 0.0, 0.0, 0.0, 0.0, 0.0, 0.0, 0.0, 0.0, 0.0, 1.6959351922264483E9, 0.0, 2023-09-28 16:06:32.226
86.0, 2130.8141506688776, 20908.71583327244, 29563.959486956537, -11023.053350812597, 29018.75573620269, 28005.64056702144, -187500.02235174447, 45176.89885817753, 12491.60766501518, -24716.08963204499, -11717.3655888278, 5597.8826401093775, 10459.252948671932, -187500.02235174447, 13161.400039362912, -30876.96801149464, 0.14783593750000001, 0.99247412109375, 0.14353027343750002, 192.0, 0.0, 0.0, 0.0, 0.0, 0.0, 0.0, 0.0, 0.0, 0.0, 1.6959351922264588E9, 0.0, 2023-09-28 16:06:32.226
88.0, 2161.2348748725503, 20945.28328720132, 29442.030720952836, -11056.580967495558, 29013.056041366584, 27862.030608896093, -187500.02235174447, 45086.62016232254, 12436.018876554834, -24763.788254712614, -11769.445153408666, 5566.545494383036, 10418.751587718914, -187500.02235174447, 13468.311842478734, -30540.66366442009, 0.14591796875000002, 0.994237060546875, 0.14276513671875002, 192.0, 2.0, 64.0, 15.5, 16.0, 2.0, 56.0, 0.0, 0.0, 0.0, 1.695935192226472E9, 0.0, 2023-09-28 16:06:32.226
0.0, 1115.8884901867498, 10507.93504809559, 14788.003538608973, -5511.470796045161, 14530.377332017104, 13962.643022852306, -93750.01117587223, 22352.593821596365, 6259.717793431019, -12360.268814595798, -5855.553550190157, 2792.2693243347794, 5235.516158999939, -93750.01117587223, 6578.923055997259, -15423.351874751077, 0.14400000000000002, 0.994, 0.14, 192.0, 2.0, 64.0, 15.5, 8.0, 2.0, 48.0, 0.0, 0.0, 0.0, 1.695935192793718E9, 0.0, 2023-09-28 16:06:32.793
2.0, 2208.53116613998, 20961.35419146469, 30007.61926264993, -11060.984261153253, 29014.21833207826, 28046.231334952277, -187500.02235174447, 45077.9923889628, 12392.969416733911, -24659.53971857306, -11737.973897215594, 5636.439399294782, 10442.533843819361, -187500.02235174447, 13322.4443581634, -30469.36159960766, 0.14400000000000002, 0.994, 0.14, 192.0, 0.0, 0.0, 0.0, 0.0, 0.0, 0.0, 0.0, 0.0, 0.0, 1.695935192793815E9, 0.0, 2023-09-28 16:06:32.793
4.0, 2259.0908120978847, 21015.512468279896, 29603.566778131342, -11045.561557479092, 29055.70316978731, 27881.342516105477, -187500.02235174447, 44733.28378597305, 12413.622428610615, -24669.1733204333, -11752.346068900355, 5615.4287595067935, 10435.895375716136, -187500.02235174447, 13427.296391403246, -30320.543685024226, 0.14400000000000002, 0.994, 0.14, 192.0, 0.0, 0.0, 0.0, 0.0, 0.0, 0.0, 0.0, 0.0, 0.0, 1.69593519279384E9, 0.0, 2023-09-28 16:06:32.793
6.0, 2195.701264822634, 20970.563110180272, 29996.957480544745, -11048.735505191744, 29017.235817579727, 28056.11080600152, -187500.02235174447, 45060.088641654096, 12394.712852801425, -24655.40464584883, -11724.831071475874, 5654.633719281402, 10441.438608341052, -187500.02235174447, 13284.066412933638, -30506.018460514362, 0.14400000000000002, 0.994, 0.14, 192.0, 0.0, 0.0, 0.0, 0.0, 0.0, 0.0, 0.0, 0.0, 0.0, 1.6959351927938604E9, 0.0, 2023-09-28 16:06:32.793
8.0, 2262.7341464440997, 21019.558134026305, 29634.121612801748, -11048.310822047093, 29053.132719174948, 27882.214234139235, -187500.02235174447, 44754.69675716123, 12408.347416919163, -24666.468759354208, -11741.505472839532, 5632.460788781737, 10429.502776801917, -187500.02235174447, 13454.18553998298, -30290.882920132033, 0.14400000000000002, 0.998, 0.14200000000000002, 192.0, 2.0, 64.0, 15.5, 24.0, 2.0, 56.0, 0.0, 0.0, 0.0, 1.6959351927938795E9, 0.0, 2023-09-28 16:06:32.793
10.0, 2195.7459683115444, 20975.793418382815, 29976.863262279425, -11051.507121504203, 29016.587616990524, 28057.586021135572, -187500.02235174447, 45034.49589425277, 12413.30950418824, -24645.54752654404, -11721.254792363025, 5665.0943356864855, 10458.492989360451, -187500.02235174447, 13245.487302003778, -30545.156365055605, 0.14400000000000002, 0.998, 0.14200000000000002, 192.0, 0.0, 0.0, 0.0, 0.0, 0.0, 0.0, 0.0, 0.0, 0.0, 1.6959351927938972E9, 0.0, 2023-09-28 16:06:32.793
12.0, 2258.1296870863066, 21034.645561533638, 29678.802749967905, -11066.102810633518, 29041.643922524923, 27877.47566431471, -187500.02235174447, 44794.706379736235, 12385.481582341383, -24686.250053197153, -11756.011754991026, 5618.535651986081, 10423.53486103235, -187500.02235174447, 13497.257351548356, -30248.347550433584, 0.14400000000000002, 0.998, 0.14200000000000002, 192.0, 0.0, 0.0, 0.0, 0.0, 0.0, 0.0, 0.0, 0.0, 0.0, 1.6959351927939153E9, 0.0, 2023-09-28 16:06:32.793
14.0, 2192.7061310656227, 20957.733208862926, 29957.126671925387, -11050.56834823708, 29019.962730403273, 28049.517041387207, -187500.02235174447, 45012.76999864221, 12415.678789100504, -24638.283209596066, -11709.631885246265, 5664.580245564013, 10462.516303362407, -187500.02235174447, 13238.71472343382, -30540.931885353555, 0.14400000000000002, 0.998, 0.14200000000000002, 192.0, 0.0, 0.0, 0.0, 0.0, 0.0, 0.0, 0.0, 0.0, 0.0, 1.6959351927939348E9, 0.0, 2023-09-28 16:06:32.793
16.0, 2244.4504194796586, 21022.95559918351, 29723.148610967233, -11067.354508323015, 29047.388320849936, 27884.181187651302, -187500.02235174447, 44818.600394558955, 12383.916960229511, -24684.618375851915, -11751.787275288973, 5620.256736309139, 10410.324980059264, -187500.02235174447, 13529.667381008552, -30198.279642853697, 0.14400000000000002, 0.998, 0.14200000000000002, 192.0, 0.0, 0.0, 0.0, 0.0, 0.0, 0.0, 0.0, 0.0, 0.0, 1.695935192793952E9, 0.0, 2023-09-28 16:06:32.793
18.0, 2225.384381459282, 21016.115965380188, 29898.654508430307, -11029.222432282262, 29045.17549814886, 28047.32657043059, -187500.02235174447, 44943.2113698973, 12440.444521956984, -24626.369729801387, -11705.094481121836, 5675.26437941365, 10467.344280164752, -187500.02235174447, 13212.026740554184, -30544.575219699767, 0.14200000000000002, 0.996, 0.146, 192.0, 2.0, 56.0, 15.5, 16.0, 2.0, 72.0, 0.0, 0.0, 0.0, 1.6959351927939699E9, 0.0, 2023-09-28 16:06:32.793
20.0, 2270.4902017700915, 21013.456107790007, 29774.22234704761, -11076.51872354969, 29039.252285868202, 27897.368716879933, -187500.02235174447, 44859.68290086781, 12397.909152258535, -24666.960497732223, -11755.497664868553, 5637.802855706555, 10441.751532763426, -187500.02235174447, 13515.071691879237, -30214.685823283893, 0.14200000000000002, 0.996, 0.146, 192.0, 0.0, 0.0, 0.0, 0.0, 0.0, 0.0, 0.0, 0.0, 0.0, 1.6959351927939873E9, 0.0, 2023-09-28 16:06:32.793
22.0, 2204.1278724822846, 20992.132543579646, 29853.05694974148, -11031.7034759168, 29043.588524292532, 28028.707567299316, -187500.02235174447, 44909.1026078585, 12453.408533741062, -24620.26770356509, -11709.765995712996, 5668.938835732799, 10485.449193173552, -187500.02235174447, 13196.492278157744, -30554.789966915843, 0.14200000000000002, 0.996, 0.146, 192.0, 0.0, 0.0, 0.0, 0.0, 0.0, 0.0, 0.0, 0.0, 0.0, 1.695935192794004E9, 0.0, 2023-09-28 16:06:32.794
24.0, 2235.800294375455, 21019.468727048486, 29827.643016295795, -11073.747107237234, 29033.954922432295, 27923.252036959177, -187500.02235174447, 44901.97240137725, 12378.060803182221, -24671.564957090017, -11751.429647377689, 5636.372344061416, 10418.148090618623, -187500.02235174447, 13514.62465699013, -30219.290282641687, 0.14200000000000002, 0.996, 0.146, 192.0, 0.0, 0.0, 0.0, 0.0, 0.0, 0.0, 0.0, 0.0, 0.0, 1.6959351927940214E9, 0.0, 2023-09-28 16:06:32.794
26.0, 2255.469829496125, 21039.138262169155, 29797.289347325488, -11020.70641764479, 29054.205602908805, 28020.12449742848, -187500.02235174447, 44852.55269438657, 12453.922623863535, -24617.227866319165, -11693.203353071613, 5668.581207821514, 10482.588169883273, -187500.02235174447, 13196.76049909121, -30554.56644947129, 0.14200000000000002, 0.996, 0.146, 192.0, 0.0, 0.0, 0.0, 0.0, 0.0, 0.0, 0.0, 0.0, 0.0, 1.695935192794038E9, 0.0, 2023-09-28 16:06:32.794
28.0, 2233.855692607843, 21006.817639686782, 29887.992726325123, -11073.85886595951, 29021.057965881584, 27954.946810596804, -187500.02235174447, 44952.554399079614, 12381.704137528437, -24660.9702302182, -11739.85144374984, 5655.572492548525, 10442.01975369689, -187500.02235174447, 13485.14270605358, -30268.017085554253, 0.146, 0.992, 0.15, 192.0, 2.0, 72.0, 15.5, 0.0, 2.0, 88.0, 0.0, 0.0, 0.0, 1.695935192794057E9, 0.0, 2023-09-28 16:06:32.794
30.0, 2222.4563029356364, 20993.58540696924, 29761.37009398581, -11033.782188151145, 29051.277524385157, 27994.82232270507, -187500.02235174447, 44836.05710697855, 12452.13448430711, -24640.943067186246, -11708.804870701417, 5661.1604286623515, 10465.44438188605, -187500.02235174447, 13234.132615820483, -30508.700669849, 0.146, 0.992, 0.15, 192.0, 0.0, 0.0, 0.0, 0.0, 0.0, 0.0, 0.0, 0.0, 0.0, 1.6959351927940736E9, 0.0, 2023-09-28 16:06:32.794
32.0, 2220.958736057131, 21014.260770590397, 29936.3171978375, -11086.018214943197, 29021.817925193063, 27973.208185816788, -187500.02235174447, 45003.784597371174, 12369.500085055839, -24668.79334077756, -11755.609423590831, 5651.750344246668, 10419.623305752672, -187500.02235174447, 13503.493488251388, -30233.84126828209, 0.146, 0.992, 0.15, 192.0, 0.0, 0.0, 0.0, 0.0, 0.0, 0.0, 0.0, 0.0, 0.0, 1.6959351927940905E9, 0.0, 2023-09-28 16:06:32.794
34.0, 2253.9275591287087, 21049.755340785425, 29693.376087352764, -11024.148586290907, 29070.723542061278, 27974.079903850547, -187500.02235174447, 44775.550934738036, 12451.910966862557, -24628.49314552464, -11707.597876500831, 5655.997175693175, 10469.69121333256, -187500.02235174447, 13258.987755654784, -30455.861145956656, 0.146, 0.992, 0.15, 192.0, 0.0, 0.0, 0.0, 0.0, 0.0, 0.0, 0.0, 0.0, 0.0, 1.6959351927941089E9, 0.0, 2023-09-28 16:06:32.794
36.0, 2228.1783495161953, 20984.041212086824, 29969.151910442342, -11078.306863106116, 29021.437945537324, 27999.560892529596, -187500.02235174447, 45019.22965278979, 12399.607884837138, -24644.318180599, -11717.387940572256, 5665.317853131039, 10433.63784952615, -187500.02235174447, 13442.987316010871, -30297.029649857242, 0.146, 0.992, 0.15, 192.0, 0.0, 0.0, 0.0, 0.0, 0.0, 0.0, 0.0, 0.0, 0.0, 1.6959351927941256E9, 0.0, 2023-09-28 16:06:32.794
38.0, 2249.3007480264605, 21012.763203711893, 29670.73377021954, -11039.906566131898, 29046.918934216374, 27943.30155173559, -187500.02235174447, 44752.61804492689, 12446.79241738229, -24651.716608013703, -11709.900106179728, 5639.836864451989, 10453.709716047015, -187500.02235174447, 13291.353081626068, -30427.183857820495, 0.154, 0.99, 0.14400000000000002, 192.0, 2.0, 104.0, 15.0, 120.0, 2.0, 64.0, 0.0, 0.0, 0.0, 1.6959351927941425E9, 0.0, 2023-09-28 16:06:32.794
40.0, 2223.0150965470193, 21003.73309895195, 30006.456971938253, -11077.166924138895, 29006.7975529191, 28011.29555836863, -187500.02235174447, 45037.62513847651, 12390.018986465811, -24659.092683683957, -11724.361684842312, 5667.21775140974, 10452.033335212867, -187500.02235174447, 13434.918336262506, -30309.680737218947, 0.154, 0.99, 0.14400000000000002, 192.0, 0.0, 0.0, 0.0, 0.0, 0.0, 0.0, 0.0, 0.0, 0.0, 1.695935192794161E9, 0.0, 2023-09-28 16:06:32.794
42.0, 2262.7788499330104, 21036.232535389965, 29639.731900660026, -11042.409961510893, 29050.115233673485, 27913.551379865574, -187500.02235174447, 44716.89995728731, 12441.025667312822, -24642.127709642376, -11704.64744623273, 5646.520036044126, 10462.315137662308, -187500.02235174447, 13330.11100651157, -30379.105255497132, 0.154, 0.99, 0.14400000000000002, 192.0, 0.0, 0.0, 0.0, 0.0, 0.0, 0.0, 0.0, 0.0, 0.0, 1.695935192794178E9, 0.0, 2023-09-28 16:06:32.794
44.0, 2208.464110906614, 20987.461028988484, 30024.114850057944, -11071.891912447443, 29011.089087854518, 28030.02632022218, -187500.02235174447, 45044.10714436855, 12391.583608577683, -24657.952744716735, -11732.765940757507, 5667.642434554391, 10454.626137569683, -187500.02235174447, 13397.590923022142, -30343.901257980022, 0.154, 0.99, 0.14400000000000002, 192.0, 0.0, 0.0, 0.0, 0.0, 0.0, 0.0, 0.0, 0.0, 0.0, 1.6959351927941945E9, 0.0, 2023-09-28 16:06:32.794
46.0, 2263.203533077661, 21048.861271007216, 29617.760135860462, -11030.340019505027, 29066.141434447938, 27912.27733043162, -187500.02235174447, 44686.07690168344, 12461.432810000517, -24635.48924153915, -11702.83695493185, 5659.953434461765, 10477.156695980633, -187500.02235174447, 13346.338372986123, -30363.01199948931, 0.154, 0.99, 0.14400000000000002, 192.0, 0.0, 0.0, 0.0, 0.0, 0.0, 0.0, 0.0, 0.0, 0.0, 1.695935192794212E9, 0.0, 2023-09-28 16:06:32.794
48.0, 2210.2522504630388, 20974.809941626783, 30044.924324145835, -11074.372956081981, 29008.07160235305, 28048.287695442166, -187500.02235174447, 45067.46471732434, 12400.345492404163, -24637.12091888439, -11714.4151585597, 5675.890228258399, 10462.985689995969, -187500.02235174447, 13340.906899083484, -30424.322834530216, 0.154, 0.994, 0.138, 192.0, 2.0, 104.0, 15.5, 8.0, 2.0, 40.0, 0.0, 0.0, 0.0, 1.6959351927942302E9, 0.0, 2023-09-28 16:06:32.794
50.0, 2264.6787482117115, 21045.55321282783, 29614.72029861454, -11054.815179683588, 29049.60114355101, 27888.89740573137, -187500.02235174447, 44713.77071306357, 12429.22394624042, -24665.664096553817, -11731.93892621266, 5622.514262499126, 10443.1149891752, -187500.02235174447, 13408.185649893958, -30307.75848719579, 0.154, 0.994, 0.138, 192.0, 0.0, 0.0, 0.0, 0.0, 0.0, 0.0, 0.0, 0.0, 0.0, 1.6959351927942476E9, 0.0, 2023-09-28 16:06:32.794
52.0, 2208.955849284631, 20998.458087260497, 30021.94673084578, -11067.175694367374, 29005.12117208495, 28064.895041572458, -187500.02235174447, 45059.865124209544, 12420.238544969387, -24633.96932291619, -11717.74556848354, 5664.289672886094, 10458.045954471345, -187500.02235174447, 13308.116889967549, -30457.626933768624, 0.154, 0.994, 0.138, 192.0, 0.0, 0.0, 0.0, 0.0, 0.0, 0.0, 0.0, 0.0, 0.0, 1.6959351927942665E9, 0.0, 2023-09-28 16:06:32.794
54.0, 2257.0344516079967, 21032.566849299295, 29632.735804645516, -11057.318575062583, 29040.660445768888, 27890.41732435433, -187500.02235174447, 44728.366402192885, 12417.802204823758, -24670.380314633887, -11734.956411714127, 5623.408332277338, 10446.043067698845, -187500.02235174447, 13445.04367650076, -30273.627373412535, 0.154, 0.994, 0.138, 192.0, 0.0, 0.0, 0.0, 0.0, 0.0, 0.0, 0.0, 0.0, 0.0, 1.695935192794284E9, 0.0, 2023-09-28 16:06:32.794
56.0, 2217.1589394997286, 20976.665136416574, 30012.916626085836, -11058.033830885153, 29005.41174476287, 28071.622916653505, -187500.02235174447, 45032.99832737426, 12415.74584433387, -24639.937238685758, -11718.013789417004, 5664.714356030746, 10478.162524481122, -187500.02235174447, 13278.210255886348, -30484.739599792912, 0.154, 0.994, 0.138, 192.0, 0.0, 0.0, 0.0, 0.0, 0.0, 0.0, 0.0, 0.0, 0.0, 1.6959351927943017E9, 0.0, 2023-09-28 16:06:32.794
58.0, 2253.63698645079, 21030.689302765048, 29652.4500432551, -11070.304938591116, 29035.40778582189, 27876.64864976986, -187500.02235174447, 44732.8591028284, 12406.626332596104, -24670.939108245268, -11752.837807278373, 5616.993381618665, 10436.811797238803, -187500.02235174447, 13485.410926987044, -30230.756727547257, 0.164, 0.994, 0.14400000000000002, 192.0, 2.5, 16.0, 15.5, 8.0, 2.0, 64.0, 0.0, 0.0, 0.0, 1.695935192794319E9, 0.0, 2023-09-28 16:06:32.794
60.0, 2191.320322909394, 20978.900310862104, 29977.287945424076, -11061.297185575628, 29017.973425146753, 28066.638477639972, -187500.02235174447, 45002.28703049267, 12440.533928934805, -24630.705968225717, -11716.180946371669, 5671.039899711597, 10473.446306401052, -187500.02235174447, 13245.375543281501, -30515.674414119057, 0.164, 0.994, 0.14400000000000002, 192.0, 0.0, 0.0, 0.0, 0.0, 0.0, 0.0, 0.0, 0.0, 0.0, 1.6959351927943354E9, 0.0, 2023-09-28 16:06:32.794
62.0, 2243.44459097917, 21032.58920104375, 29696.97471821007, -11088.722776022289, 29033.418480565368, 27879.889652715883, -187500.02235174447, 44782.85995517492, 12390.622483566105, -24681.533835117083, -11763.633699850287, 5615.808739162533, 10433.168462892589, -187500.02235174447, 13519.139709370103, -30195.06099165213, 0.164, 0.994, 0.14400000000000002, 192.0, 0.0, 0.0, 0.0, 0.0, 0.0, 0.0, 0.0, 0.0, 0.0, 1.6959351927943528E9, 0.0, 2023-09-28 16:06:32.794
64.0, 2208.86644230681, 20976.508674205386, 29941.189878128753, -11067.533322278658, 29018.06283212457, 28045.2702099407, -187500.02235174447, 44969.89935277693, 12425.446501427472, -24639.82547996348, -11722.193565630147, 5654.991347192687, 10467.545445864851, -187500.02235174447, 13247.677772960398, -30494.820236542255, 0.164, 0.994, 0.14400000000000002, 192.0, 0.0, 0.0, 0.0, 0.0, 0.0, 0.0, 0.0, 0.0, 0.0, 1.6959351927943707E9, 0.0, 2023-09-28 16:06:32.794
66.0, 2256.9450446301753, 21025.950732940524, 29746.88616357877, -11080.273816618183, 29039.185230634837, 27894.61945231193, -187500.02235174447, 44818.64509804787, 12403.184163949987, -24671.65436406784, -11747.182815931179, 5630.583242247491, 10430.083922157755, -187500.02235174447, 13532.10372115418, -30165.422578504396, 0.164, 0.994, 0.14400000000000002, 192.0, 0.0, 0.0, 0.0, 0.0, 0.0, 0.0, 0.0, 0.0, 0.0, 1.6959351927943888E9, 0.0, 2023-09-28 16:06:32.794
68.0, 2217.8741953222984, 20998.815715171782, 29898.29688051902, -11052.535301749147, 29024.544838016613, 28033.0661574681, -187500.02235174447, 44928.503922045704, 12433.537832920294, -24636.517421784094, -11704.580390999365, 5659.662861783846, 10481.448230916052, -187500.02235174447, 13233.663229186921, -30490.506349862382, 0.158, 0.994, 0.146, 192.0, 2.0, 120.0, 15.5, 8.0, 2.0, 72.0, 0.0, 0.0, 0.0, 1.6959351927944055E9, 0.0, 2023-09-28 16:06:32.794
70.0, 2244.696288668667, 21048.950677985034, 29799.099838626367, -11076.7645927387, 29035.385434077434, 27913.61843509894, -187500.02235174447, 44848.75289782917, 12377.412602593018, -24660.992581962655, -11747.048705464447, 5633.846596937967, 10437.549404805828, -187500.02235174447, 13538.138692157114, -30155.677217921882, 0.158, 0.994, 0.146, 192.0, 0.0, 0.0, 0.0, 0.0, 0.0, 0.0, 0.0, 0.0, 0.0, 1.6959351927944224E9, 0.0, 2023-09-28 16:06:32.794
72.0, 2246.7750009030106, 20998.59219772723, 29841.009359480067, -11027.99308633722, 29047.88005922795, 28032.417956878897, -187500.02235174447, 44858.56531364505, 12468.317147292752, -24609.695328437727, -11681.73690816604, 5667.038937454097, 10482.476411160995, -187500.02235174447, 13210.082138786573, -30507.828951815245, 0.158, 0.994, 0.146, 192.0, 0.0, 0.0, 0.0, 0.0, 0.0, 0.0, 0.0, 0.0, 0.0, 1.6959351927944388E9, 0.0, 2023-09-28 16:06:32.794
74.0, 2260.253102809561, 21016.63005550266, 29860.67889460074, -11065.566368766591, 29036.41361432238, 27949.113005293966, -187500.02235174447, 44891.668247183356, 12397.059785969233, -24652.67773302528, -11734.039990191459, 5658.008832694153, 10448.390000866651, -187500.02235174447, 13513.775290700829, -30198.34669808706, 0.158, 0.994, 0.146, 192.0, 0.0, 0.0, 0.0, 0.0, 0.0, 0.0, 0.0, 0.0, 0.0, 1.6959351927944548E9, 0.0, 2023-09-28 16:06:32.794
76.0, 2246.283262524994, 21017.88175319216, 29801.1338473718, -11025.869670613965, 29049.288219128637, 28027.366462632, -187500.02235174447, 44830.849150520466, 12456.157798309065, -24612.69046219474, -11693.538629238443, 5673.185667179307, 10481.984672782979, -187500.02235174447, 13213.792528366153, -30510.444105916515, 0.158, 0.994, 0.146, 192.0, 0.0, 0.0, 0.0, 0.0, 0.0, 0.0, 0.0, 0.0, 0.0, 1.6959351927944708E9, 0.0, 2023-09-28 16:06:32.794
78.0, 2232.8498641073543, 21002.72727045146, 29924.49312502064, -11087.828706244078, 29016.542913501613, 27968.469615992264, -187500.02235174447, 44960.93630325035, 12374.708041513926, -24663.339515130465, -11756.90582476924, 5645.1342278878965, 10424.674799999571, -187500.02235174447, 13514.021159889837, -30205.722773757312, 0.16, 1.0, 0.15, 192.0, 2.5, 0.0, 15.5, 32.0, 2.0, 88.0, 0.0, 0.0, 0.0, 1.6959351927944899E9, 0.0, 2023-09-28 16:06:32.794
80.0, 2229.4300472056925, 21030.711654509505, 29736.783175084973, -11027.076664814553, 29050.94224821833, 27999.225616362768, -187500.02235174447, 44793.18646111327, 12442.769103380335, -24642.954724187224, -11718.46082430611, 5646.475332555215, 10462.046916728845, -187500.02235174447, 13266.788514469687, -30439.812593437746, 0.16, 1.0, 0.15, 192.0, 0.0, 0.0, 0.0, 0.0, 0.0, 0.0, 0.0, 0.0, 0.0, 1.6959351927945068E9, 0.0, 2023-09-28 16:06:32.794
82.0, 2225.674954137201, 21029.415253331095, 29956.254953891632, -11065.678127488867, 29027.875247940454, 28007.093430411034, -187500.02235174447, 44992.58637339907, 12395.293998157264, -24647.201555633732, -11738.577394315887, 5661.652167040368, 10447.138303177155, -187500.02235174447, 13486.729679909908, -30230.108526958054, 0.16, 1.0, 0.15, 192.0, 0.0, 0.0, 0.0, 0.0, 0.0, 0.0, 0.0, 0.0, 0.0, 1.6959351927945228E9, 0.0, 2023-09-28 16:06:32.794
84.0, 2253.368765517326, 21038.512413324406, 29690.716229762584, -11027.367237492472, 29055.36789362048, 27984.87579642246, -187500.02235174447, 44759.14475430784, 12442.858510358157, -24617.96547388619, -11712.22468760308, 5646.989422677687, 10472.373422667197, -187500.02235174447, 13272.644671516977, -30426.982692120397, 0.16, 1.0, 0.15, 192.0, 0.0, 0.0, 0.0, 0.0, 0.0, 0.0, 0.0, 0.0, 0.0, 1.6959351927945385E9, 0.0, 2023-09-28 16:06:32.794
86.0, 2247.311442769938, 21006.705880964506, 29993.112980498434, -11067.578025767569, 29019.336881558524, 28023.767831774694, -187500.02235174447, 45025.01875460372, 12384.185181162977, -24650.956648702224, -11749.641507821263, 5646.631794766402, 10444.433742098063, -187500.02235174447, 13455.61605162812, -30259.478719172326, 0.16, 1.0, 0.15, 192.0, 0.0, 0.0, 0.0, 0.0, 0.0, 0.0, 0.0, 0.0, 0.0, 1.6959351927945547E9, 0.0, 2023-09-28 16:06:32.794
88.0, 2287.0751961559295, 21013.321997323277, 29659.759063691985, -11031.859938127987, 29063.727446046767, 27948.956543082782, -187500.02235174447, 44738.37998370886, 12448.64761217208, -24628.940180413745, -11724.182870886669, 5640.350954574461, 10464.840884785759, -187500.02235174447, 13312.96721851435, -30381.519243898303, 0.158, 1.002, 0.146, 192.0, 2.0, 120.0, 15.5, 40.0, 2.0, 72.0, 0.0, 0.0, 0.0, 1.6959351927945707E9, 0.0, 2023-09-28 16:06:32.794
90.0, 2216.8683668218096, 21000.357985539198, 30015.285910998096, -11071.869560702988, 29029.059890396584, 28029.176953932878, -187500.02235174447, 45043.34718505707, 12382.844076495658, -24644.87697421038, -11747.920423498204, 5660.892207728888, 10439.985744951457, -187500.02235174447, 13427.475205358889, -30300.22594931435, 0.158, 1.002, 0.146, 192.0, 0.0, 0.0, 0.0, 0.0, 0.0, 0.0, 0.0, 0.0, 0.0, 1.6959351927945864E9, 0.0, 2023-09-28 16:06:32.794
92.0, 2259.046108608974, 21034.757320255914, 29643.934028617627, -11042.119388832974, 29065.113254202995, 27925.42015617134, -187500.02235174447, 44723.42666666826, 12453.877920374623, -24635.31042758351, -11728.3179436109, 5645.1342278878965, 10455.16257943661, -187500.02235174447, 13348.30532649819, -30353.19958367343, 0.158, 1.002, 0.146, 192.0, 0.0, 0.0, 0.0, 0.0, 0.0, 0.0, 0.0, 0.0, 0.0, 1.6959351927946043E9, 0.0, 2023-09-28 16:06:32.794
94.0, 2197.95879101262, 20987.63984294413, 30052.166289349356, -11078.664491017402, 29012.966634388762, 28050.075834998588, -187500.02235174447, 45080.272266897235, 12379.580721805183, -24645.100491654932, -11741.483121095076, 5656.779486749111, 10444.88077698717, -187500.02235174447, 13410.018492939293, -30328.143278139032, 0.158, 1.002, 0.146, 192.0, 0.0, 0.0, 0.0, 0.0, 0.0, 0.0, 0.0, 0.0, 0.0, 1.6959351927946212E9, 0.0, 2023-09-28 16:06:32.794
96.0, 2250.6195009493235, 21052.79517803135, 29629.315987743856, -11046.746199935222, 29068.533071104655, 27915.76420256665, -187500.02235174447, 44713.30132643, 12430.676809630015, -24650.151985901834, -11730.061379678415, 5634.494797527171, 10456.21311142601, -187500.02235174447, 13424.033036712772, -30266.22894599783, 0.158, 1.002, 0.146, 192.0, 0.0, 0.0, 0.0, 0.0, 0.0, 0.0, 0.0, 0.0, 0.0, 1.6959351927946396E9, 0.0, 2023-09-28 16:06:32.794
98.0, 2218.7235616116004, 21000.78266868385, 30039.22462930973, -11067.958005423308, 29021.728518215245, 28073.858091099035, -187500.02235174447, 45048.77865895971, 12409.17443146401, -24620.044186120533, -11718.438472561655, 5674.638530568902, 10464.662070830116, -187500.02235174447, 13353.312117256179, -30383.35208694364, 0.154, 1.0, 0.14200000000000002, 192.0, 2.0, 104.0, 15.5, 32.0, 2.0, 56.0, 0.0, 0.0, 0.0, 1.6959351927946565E9, 0.0, 2023-09-28 16:06:32.794
100.0, 2265.5951697343794, 21051.096445452746, 29631.126479044735, -11061.811275698099, 29061.872251256973, 27900.632071570406, -187500.02235174447, 44698.07978845594, 12432.733170119904, -24647.648590522836, -11726.954487199127, 5633.064285882031, 10460.169370194599, -187500.02235174447, 13431.56557459421, -30265.446634941894, 0.154, 1.0, 0.14200000000000002, 192.0, 0.0, 0.0, 0.0, 0.0, 0.0, 0.0, 0.0, 0.0, 0.0, 1.695935192794675E9, 0.0, 2023-09-28 16:06:32.794
102.0, 2215.795483087955, 20962.985868809923, 30044.410234023362, -11078.508028806214, 29018.912198413873, 28069.52185267471, -187500.02235174447, 45041.9837286453, 12404.637027339582, -24638.663189251805, -11726.932135454672, 5661.898036229377, 10475.525018635395, -187500.02235174447, 13305.389977144001, -30438.806764937257, 0.154, 1.0, 0.14200000000000002, 192.0, 0.0, 0.0, 0.0, 0.0, 0.0, 0.0, 0.0, 0.0, 0.0, 1.6959351927946925E9, 0.0, 2023-09-28 16:06:32.794
104.0, 2253.860503895343, 21030.845764976235, 29660.049636369902, -11074.887046204454, 29050.78578600714, 27892.741905777682, -187500.02235174447, 44725.505378902606, 12401.50778311584, -24666.044076209557, -11752.770752045006, 5623.609497977436, 10446.40069561013, -187500.02235174447, 13484.025118830816, -30213.83645699459, 0.154, 1.0, 0.14200000000000002, 192.0, 0.0, 0.0, 0.0, 0.0, 0.0, 0.0, 0.0, 0.0, 0.0, 1.6959351927947104E9, 0.0, 2023-09-28 16:06:32.794
106.0, 2209.157014984729, 20984.130619064646, 30015.17415227582, -11064.404078054915, 29022.108497870984, 28078.574309179105, -187500.02235174447, 45017.19564404436, 12420.372655436118, -24621.58645648795, -11715.286876593456, 5668.827077010522, 10470.965262766513, -187500.02235174447, 13279.797229742675, -30461.136157648107, 0.154, 1.0, 0.14200000000000002, 192.0, 0.0, 0.0, 0.0, 0.0, 0.0, 0.0, 0.0, 0.0, 0.0, 1.6959351927947268E9, 0.0, 2023-09-28 16:06:32.794
108.0, 2254.2628352955385, 21043.98859071596, 29688.83868322834, -11074.037679915153, 29051.32222787407, 27896.3852401239, -187500.02235174447, 44747.94653033573, 12398.959684247933, -24664.345343630954, -11750.490874110565, 5621.173157831808, 10426.887622700648, -187500.02235174447, 13518.111529125159, -30179.928860655888, 0.15, 1.0, 0.14200000000000002, 192.0, 2.0, 88.0, 15.5, 32.0, 2.0, 56.0, 0.0, 0.0, 0.0, 1.695935192794748E9, 0.0, 2023-09-28 16:06:32.794
110.0, 2211.5486516414467, 20989.450334245008, 29983.009992004634, -11063.9123396769, 29017.369928046457, 28072.98637306528, -187500.02235174447, 44986.752568096235, 12431.615582897137, -24626.660302479304, -11717.946734183639, 5660.892207728888, 10461.756344050926, -187500.02235174447, 13258.987755654784, -30483.152625936586, 0.15, 1.0, 0.14200000000000002, 192.0, 0.0, 0.0, 0.0, 0.0, 0.0, 0.0, 0.0, 0.0, 0.0, 1.6959351927947655E9, 0.0, 2023-09-28 16:06:32.794
112.0, 2262.7564981885553, 21028.476480063975, 29718.387689398252, -11088.029871944174, 29036.726538744755, 27893.971251722727, -187500.02235174447, 44776.28854230506, 12389.661358554526, -24674.783608291582, -11766.673537096207, 5609.617305948414, 10430.01686692439, -187500.02235174447, 13540.552680558287, -30158.806462145625, 0.15, 1.0, 0.14200000000000002, 192.0, 0.0, 0.0, 0.0, 0.0, 0.0, 0.0, 0.0, 0.0, 0.0, 1.6959351927947812E9, 0.0, 2023-09-28 16:06:32.794
114.0, 2225.8984715817537, 21010.773898455373, 29929.67872973427, -11034.51979571817, 29041.80038473611, 28074.752160877248, -187500.02235174447, 44934.36007909299, 12438.924603334022, -24623.128726855368, -11710.861231191306, 5666.1448676758855, 10489.673672875604, -187500.02235174447, 13225.661304671921, -30510.84643731671, 0.15, 1.0, 0.14200000000000002, 192.0, 0.0, 0.0, 0.0, 0.0, 0.0, 0.0, 0.0, 0.0, 0.0, 1.6959351927947972E9, 0.0, 2023-09-28 16:06:32.794
116.0, 2284.8176699659434, 21040.479366836473, 29785.04059136398, -11073.456534559315, 29046.31543711608, 27932.840935330503, -187500.02235174447, 44829.306880153046, 12390.533076588283, -24667.228718665687, -11751.362592144322, 5639.121608629419, 10448.010021210912, -187500.02235174447, 13534.294192110801, -30180.040619378167, 0.15, 1.0, 0.14200000000000002, 192.0, 0.0, 0.0, 0.0, 0.0, 0.0, 0.0, 0.0, 0.0, 0.0, 1.6959351927948153E9, 0.0, 2023-09-28 16:06:32.794
118.0, 2262.801201677466, 20992.87015114667, 29902.476656732164, -11039.124255075963, 29034.13373638794, 28072.025248053702, -187500.02235174447, 44918.75856146319, 12447.775894138324, -24610.63410170485, -11712.247039347534, 5675.510248602659, 10483.54929489485, -187500.02235174447, 13230.71279891882, -30512.500466406404, 0.138, 0.996, 0.14200000000000002, 192.0, 2.0, 40.0, 15.5, 16.0, 2.0, 56.0, 0.0, 0.0, 0.0, 1.6959351927948313E9, 0.0, 2023-09-28 16:06:32.794
120.0, 2240.2035880331505, 21024.274352106375, 29849.458318884175, -11084.744165509244, 29033.574942776555, 27943.927400580338, -187500.02235174447, 44880.6935406558, 12395.852791768646, -24655.65051503784, -11748.859196765328, 5642.541425531081, 10431.156805891611, -187500.02235174447, 13559.283442411834, -30158.851165634536, 0.138, 0.996, 0.14200000000000002, 192.0, 0.0, 0.0, 0.0, 0.0, 0.0, 0.0, 0.0, 0.0, 0.0, 1.695935193274104E9, 0.0, 2023-09-28 16:06:33.274
122.0, 2240.337698499882, 21011.01976764438, 29834.884981499315, -11044.46632200078, 29048.997646450716, 28037.491802870252, -187500.02235174447, 44850.31751994104, 12463.958557123966, -24622.50287801062, -11697.338425795846, 5666.390736864893, 10483.370480939207, -187500.02235174447, 13227.203575039337, -30503.89504479111, 0.138, 0.996, 0.14200000000000002, 192.0, 0.0, 0.0, 0.0, 0.0, 0.0, 0.0, 0.0, 0.0, 0.0, 1.6959351932742248E9, 0.0, 2023-09-28 16:06:33.274
124.0, 2235.8449978643653, 21009.544552510328, 29896.978127596158, -11096.165906925906, 29025.595370006013, 27956.399673986398, -187500.02235174447, 44916.14340736192, 12381.21239915042, -24665.68644829827, -11755.22944393509, 5639.389829562882, 10439.918689718092, -187500.02235174447, 13520.05613089277, -30202.101791155554, 0.138, 0.996, 0.14200000000000002, 192.0, 0.0, 0.0, 0.0, 0.0, 0.0, 0.0, 0.0, 0.0, 0.0, 1.695935193274264E9, 0.0, 2023-09-28 16:06:33.274
126.0, 2218.410637189226, 21008.38226179865, 29800.642108993783, -11053.250557571717, 29045.130794659948, 28011.11674441299, -187500.02235174447, 44826.82583651851, 12435.951821321467, -24645.815747477503, -11722.193565630147, 5640.68623074129, 10452.905053246624, -187500.02235174447, 13251.768142195719, -30471.93205022002, 0.138, 0.996, 0.14200000000000002, 192.0, 0.0, 0.0, 0.0, 0.0, 0.0, 0.0, 0.0, 0.0, 0.0, 1.6959351932742846E9, 0.0, 2023-09-28 16:06:33.274
128.0, 2230.413523961726, 21007.689357720537, 29947.60482878743, -11094.266008647206, 29033.351425332003, 27982.39475278792, -187500.02235174447, 44971.79925105563, 12365.007384420322, -24669.955631489236, -11763.030202749993, 5636.461751039237, 10424.943020933035, -187500.02235174447, 13532.148424643092, -30184.55567175814, 0.14400000000000002, 0.998, 0.146, 192.0, 2.0, 64.0, 15.5, 24.0, 2.0, 72.0, 0.0, 0.0, 0.0, 1.6959351932743E9, 0.0, 2023-09-28 16:06:33.274
130.0, 2243.310480512438, 21018.172325870077, 29750.328332224886, -11040.599470210012, 29061.067588456583, 27992.49774128172, -187500.02235174447, 44775.32741729348, 12440.13159753461, -24635.913924683802, -11719.690170251151, 5649.314004101039, 10466.763134808914, -187500.02235174447, 13279.618415787032, -30423.20524730745, 0.14400000000000002, 0.998, 0.146, 192.0, 0.0, 0.0, 0.0, 0.0, 0.0, 0.0, 0.0, 0.0, 0.0, 1.6959351932743175E9, 0.0, 2023-09-28 16:06:33.274
132.0, 2258.219094064128, 21008.315206565287, 29996.55514914455, -11086.465249832303, 29026.89177118442, 28006.936968199847, -187500.02235174447, 44986.17142274039, 12391.225980666397, -24658.2209656502, -11734.643487291753, 5656.555969304558, 10427.02173316738, -187500.02235174447, 13500.3865957721, -30217.21157040734, 0.14400000000000002, 0.998, 0.146, 192.0, 0.0, 0.0, 0.0, 0.0, 0.0, 0.0, 0.0, 0.0, 0.0, 1.695935193274336E9, 0.0, 2023-09-28 16:06:33.274
134.0, 2292.2831526140158, 21032.365683599197, 29701.825046756872, -11035.033885840641, 29061.156995434405, 27968.82724390355, -187500.02235174447, 44723.65018411281, 12455.867225631146, -24635.2657240946, -11704.490984021544, 5652.8232279805225, 10455.229634669977, -187500.02235174447, 13300.450241619379, -30392.11397077012, 0.14400000000000002, 0.998, 0.146, 192.0, 0.0, 0.0, 0.0, 0.0, 0.0, 0.0, 0.0, 0.0, 0.0, 1.6959351932743516E9, 0.0, 2023-09-28 16:06:33.274
136.0, 2250.6865561826894, 21008.717537965484, 30026.350024503474, -11080.586741040557, 29019.51569551417, 28027.657035309916, -187500.02235174447, 45009.99838232975, 12386.666224797515, -24653.3706371034, -11742.243080406557, 5663.440306596793, 10445.68543978756, -187500.02235174447, 13458.007688284837, -30260.61865813955, 0.14400000000000002, 0.998, 0.146, 192.0, 0.0, 0.0, 0.0, 0.0, 0.0, 0.0, 0.0, 0.0, 0.0, 1.695935193274368E9, 0.0, 2023-09-28 16:06:33.274
138.0, 2266.6233499793234, 21058.427817634085, 29684.68125875965, -11036.509100974692, 29055.569059320576, 27953.650409418395, -187500.02235174447, 44711.96022176269, 12459.264690788352, -24625.92269491228, -11709.095443379336, 5654.790181492589, 10465.64554758615, -187500.02235174447, 13337.084750781627, -30353.981894729364, 0.14400000000000002, 0.994, 0.152, 192.0, 2.0, 64.0, 15.5, 8.0, 2.0, 96.0, 0.0, 0.0, 0.0, 1.6959351932743852E9, 0.0, 2023-09-28 16:06:33.274
140.0, 2233.5874716743797, 21005.700052464017, 30058.067149885555, -11067.309804834105, 29014.151276844896, 28049.427634409385, -187500.02235174447, 45033.087734352084, 12392.03064346679, -24636.428014806275, -11726.060417420915, 5674.437364868804, 10428.228727367965, -187500.02235174447, 13433.912507762017, -30282.9480508504, 0.14400000000000002, 0.994, 0.152, 192.0, 0.0, 0.0, 0.0, 0.0, 0.0, 0.0, 0.0, 0.0, 0.0, 1.6959351932744012E9, 0.0, 2023-09-28 16:06:33.274
142.0, 2270.40079479227, 21055.1197594547, 29646.169203063157, -11035.190348051829, 29062.162823934894, 27930.069319018046, -187500.02235174447, 44680.243096380604, 12452.335650007208, -24626.570895501485, -11713.208164359114, 5651.906806457854, 10447.652393299628, -187500.02235174447, 13365.963204617883, -30313.23466458734, 0.14400000000000002, 0.994, 0.152, 192.0, 0.0, 0.0, 0.0, 0.0, 0.0, 0.0, 0.0, 0.0, 0.0, 1.6959351932744205E9, 0.0, 2023-09-28 16:06:33.274
144.0, 2226.1666925152176, 20979.727325406948, 30063.76684472166, -11081.212589885306, 29011.13379134343, 28065.40913169493, -187500.02235174447, 45035.121743097516, 12396.053957468745, -24629.655436236317, -11724.160519142213, 5675.800821280578, 10457.844788771246, -187500.02235174447, 13360.755248159796, -30367.035313491266, 0.14400000000000002, 0.994, 0.152, 192.0, 0.0, 0.0, 0.0, 0.0, 0.0, 0.0, 0.0, 0.0, 0.0, 1.695935193274438E9, 0.0, 2023-09-28 16:06:33.274
146.0, 2286.8069752224656, 21055.298573410342, 29643.084662328325, -11053.764647694188, 29066.208489681303, 27920.10044099098, -187500.02235174447, 44672.59879977689, 12437.583498666705, -24641.926543942278, -11726.708618010118, 5637.4452277952705, 10447.1159514327, -187500.02235174447, 13401.03309166826, -30289.56416720917, 0.14400000000000002, 0.994, 0.152, 192.0, 0.0, 0.0, 0.0, 0.0, 0.0, 0.0, 0.0, 0.0, 0.0, 1.6959351932744527E9, 0.0, 2023-09-28 16:06:33.274
148.0, 2242.2599485230385, 21000.58150298375, 30058.313019074565, -11078.865656717498, 29033.619646265466, 28079.446027212864, -187500.02235174447, 45023.18591155838, 12414.292980944274, -24630.884782181358, -11718.572583028386, 5675.97963523622, 10472.775754067392, -187500.02235174447, 13319.44922440639, -30427.027395609308, 0.14400000000000002, 0.992, 0.146, 192.0, 2.0, 64.0, 15.5, 0.0, 2.0, 72.0, 0.0, 0.0, 0.0, 1.695935193274475E9, 0.0, 2023-09-28 16:06:33.274
150.0, 2286.896382200287, 21049.330657640774, 29661.05546487039, -11069.52262753518, 29065.247364669725, 27900.94499599278, -187500.02235174447, 44691.32956163044, 12440.533928934805, -24656.25401213813, -11730.664876778708, 5633.153692859852, 10440.231614140464, -187500.02235174447, 13439.969830509404, -30264.28434423022, 0.14400000000000002, 0.992, 0.146, 192.0, 0.0, 0.0, 0.0, 0.0, 0.0, 0.0, 0.0, 0.0, 0.0, 1.695935193274503E9, 0.0, 2023-09-28 16:06:33.274
152.0, 2253.0111376060413, 21001.58733148424, 30048.545306747594, -11073.545941537135, 29030.356291574994, 28080.16128303543, -187500.02235174447, 45013.82053063161, 12425.357094449651, -24621.564104743495, -11711.911763180706, 5679.712376560256, 10464.527960363384, -187500.02235174447, 13296.493982850789, -30458.40924482456, 0.14400000000000002, 0.992, 0.146, 192.0, 0.0, 0.0, 0.0, 0.0, 0.0, 0.0, 0.0, 0.0, 0.0, 1.6959351932745247E9, 0.0, 2023-09-28 16:06:33.274
154.0, 2294.6300857818233, 21059.768922301402, 29686.581157038352, -11085.682938776366, 29058.027751210662, 27892.13840867739, -187500.02235174447, 44709.32271591696, 12415.477623400406, -24655.941087715757, -11739.359705371822, 5636.707620228246, 10440.276317629376, -187500.02235174447, 13484.516857208831, -30233.93067525991, 0.14400000000000002, 0.992, 0.146, 192.0, 0.0, 0.0, 0.0, 0.0, 0.0, 0.0, 0.0, 0.0, 0.0, 1.6959351932745428E9, 0.0, 2023-09-28 16:06:33.274
156.0, 2214.8567098208323, 20993.093668591224, 30013.073088297024, -11074.19414212634, 29031.69739624231, 28065.342076461566, -187500.02235174447, 44975.2637714462, 12421.333780447696, -24630.080119380968, -11720.494833051544, 5662.92621647432, 10460.079963216778, -187500.02235174447, 13277.740869252786, -30485.65602131558, 0.14400000000000002, 0.992, 0.146, 192.0, 0.0, 0.0, 0.0, 0.0, 0.0, 0.0, 0.0, 0.0, 0.0, 1.6959351932745583E9, 0.0, 2023-09-28 16:06:33.274
158.0, 2268.791469191488, 21031.963352199004, 29719.013538243, -11086.778174254678, 29043.253248125704, 27888.56212956454, -187500.02235174447, 44735.04957378502, 12408.45917564144, -24659.78558776207, -11742.399542617744, 5628.236309079684, 10430.665067513593, -187500.02235174447, 13513.350607556178, -30210.662509281938, 0.14200000000000002, 0.994, 0.154, 192.0, 2.0, 56.0, 15.5, 8.0, 2.0, 104.0, 0.0, 0.0, 0.0, 1.6959351932745736E9, 0.0, 2023-09-28 16:06:33.274
160.0, 2243.44459097917, 20993.38424126914, 29978.763160558126, -11059.956080908309, 29032.524410787155, 28064.55976540563, -187500.02235174447, 44944.9101024759, 12450.79337963979, -24618.457212264206, -11704.98272239956, 5673.2527224126725, 10464.55031210784, -187500.02235174447, 13245.464950259322, -30513.774515840356, 0.14200000000000002, 0.994, 0.154, 192.0, 0.0, 0.0, 0.0, 0.0, 0.0, 0.0, 0.0, 0.0, 0.0, 1.6959351932745888E9, 0.0, 2023-09-28 16:06:33.274
162.0, 2269.2161523361387, 21057.243175177955, 29761.280687007988, -11081.301996863127, 29045.935457460342, 27902.643728571384, -187500.02235174447, 44769.49361199065, 12410.761405320336, -24654.868203981903, -11741.259603650524, 5643.144922631374, 10443.1149891752, -187500.02235174447, 13525.644067006597, -30201.140666143976, 0.14200000000000002, 0.994, 0.154, 192.0, 0.0, 0.0, 0.0, 0.0, 0.0, 0.0, 0.0, 0.0, 0.0, 1.6959351932746108E9, 0.0, 2023-09-28 16:06:33.274
164.0, 2236.0461635644633, 21019.044043903836, 29943.02272117409, -11054.010516883198, 29029.104593885495, 28059.932954303382, -187500.02235174447, 44912.09774161551, 12451.285118017808, -24618.34545354193, -11698.210143829601, 5670.794030522589, 10479.727146592993, -187500.02235174447, 13234.311429776124, -30525.062146790286, 0.14200000000000002, 0.994, 0.154, 192.0, 0.0, 0.0, 0.0, 0.0, 0.0, 0.0, 0.0, 0.0, 0.0, 1.6959351932746377E9, 0.0, 2023-09-28 16:06:33.274
166.0, 2269.998463392075, 21038.847689491235, 29820.37869934782, -11085.48177307627, 29033.17261137636, 27914.04311824359, -187500.02235174447, 44818.82391200351, 12388.45436435394, -24658.39977960584, -11754.447132879155, 5639.188663862785, 10428.116968645689, -187500.02235174447, 13562.502093613399, -30163.813252903612, 0.14200000000000002, 0.994, 0.154, 192.0, 0.0, 0.0, 0.0, 0.0, 0.0, 0.0, 0.0, 0.0, 0.0, 1.6959351932746663E9, 0.0, 2023-09-28 16:06:33.274
168.0, 2257.9061696417534, 21037.819509246292, 29898.49804621912, -11029.89298461592, 29049.399977850913, 28052.355712933033, -187500.02235174447, 44865.11437477045, 12469.166513582053, -24606.0072906026, -11689.537666980943, 5681.679330072324, 10488.019643785912, -187500.02235174447, 13237.775950166697, -30509.527684393848, 0.15, 0.998, 0.156, 192.0, 2.0, 88.0, 15.5, 24.0, 2.0, 112.0, 0.0, 0.0, 0.0, 1.695935193274683E9, 0.0, 2023-09-28 16:06:33.274
170.0, 2280.6155420083455, 21035.249058633934, 29876.43687444173, -11071.62369151398, 29038.559381790088, 27949.582391927528, -187500.02235174447, 44861.962778802255, 12410.783757064792, -24639.333741585466, -11735.42579834769, 5664.580245564013, 10433.503739059417, -187500.02235174447, 13551.482683596932, -30178.498349010748, 0.15, 0.998, 0.156, 192.0, 0.0, 0.0, 0.0, 0.0, 0.0, 0.0, 0.0, 0.0, 0.0, 1.6959351932747004E9, 0.0, 2023-09-28 16:06:33.274
172.0, 2269.1938005916836, 21024.430814317562, 29848.2960281725, -11040.241842298728, 29040.28046611315, 28031.03214872267, -187500.02235174447, 44830.87150226492, 12460.47168498894, -24611.57287497197, -11699.148917096725, 5679.26534167115, 10487.371443196707, -187500.02235174447, 13247.923642149406, -30495.60254759819, 0.15, 0.998, 0.156, 192.0, 0.0, 0.0, 0.0, 0.0, 0.0, 0.0, 0.0, 0.0, 0.0, 1.6959351932747357E9, 0.0, 2023-09-28 16:06:33.274
174.0, 2257.9061696417534, 21040.769939514394, 29931.31040707951, -11093.99778771374, 29016.609968734978, 27956.354970497487, -187500.02235174447, 44912.20950033778, 12400.390195893073, -24650.174337646287, -11741.125493183792, 5661.808629251555, 10455.229634669977, -187500.02235174447, 13543.994849204404, -30189.517759027218, 0.15, 0.998, 0.156, 192.0, 0.0, 0.0, 0.0, 0.0, 0.0, 0.0, 0.0, 0.0, 0.0, 1.6959351932747903E9, 0.0, 2023-09-28 16:06:33.274
176.0, 2262.600035977368, 21039.16061391361, 29785.487626253085, -11040.219490554273, 29045.622533037968, 28007.45105832232, -187500.02235174447, 44770.030053857576, 12479.269502075853, -24608.086002836946, -11690.297626292424, 5677.723071303734, 10485.426841429096, -187500.02235174447, 13257.467837031823, -30474.480149087925, 0.15, 0.998, 0.156, 192.0, 0.0, 0.0, 0.0, 0.0, 0.0, 0.0, 0.0, 0.0, 0.0, 1.695935193274814E9, 0.0, 2023-09-28 16:06:33.274
178.0, 2251.088887582885, 21019.759299726404, 29990.631936863894, -11101.753843039733, 29003.243625550705, 27986.26160457869, -187500.02235174447, 44965.16078295241, 12396.83626852468, -24641.434805564262, -11742.377190873289, 5665.183742664307, 10439.471654828985, -187500.02235174447, 13523.140671627603, -30219.111468686042, 0.15, 0.996, 0.152, 192.0, 2.0, 88.0, 15.5, 16.0, 2.0, 96.0, 0.0, 0.0, 0.0, 1.69593519327483E9, 0.0, 2023-09-28 16:06:33.274
180.0, 2269.372614547326, 21060.64064033516, 29739.867715819804, -11048.355525536004, 29052.328056374557, 27981.657145220895, -187500.02235174447, 44744.4596582007, 12470.641728716104, -24605.850828391413, -11709.74364396854, 5669.944664233287, 10491.819440343314, -187500.02235174447, 13297.879791007017, -30428.279093298806, 0.15, 0.996, 0.152, 192.0, 0.0, 0.0, 0.0, 0.0, 0.0, 0.0, 0.0, 0.0, 0.0, 1.6959351932748475E9, 0.0, 2023-09-28 16:06:33.274
182.0, 2255.2239603071166, 21020.832183460258, 30016.448201709773, -11101.642084317456, 29011.781991932632, 28005.193532132333, -187500.02235174447, 44985.076187262086, 12387.806163764735, -24642.530041042573, -11740.454940850132, 5670.637568311402, 10460.750515550437, -187500.02235174447, 13497.972607370926, -30248.056977755667, 0.15, 0.996, 0.152, 192.0, 0.0, 0.0, 0.0, 0.0, 0.0, 0.0, 0.0, 0.0, 0.0, 1.6959351932748623E9, 0.0, 2023-09-28 16:06:33.274
184.0, 2277.4192425512365, 21061.44530313555, 29702.942633979637, -11050.434237770349, 29048.37179760597, 27953.605705929484, -187500.02235174447, 44706.30523041549, 12474.12860085113, -24619.977130887168, -11704.245114832534, 5669.542332833092, 10481.627044871693, -187500.02235174447, 13326.870003565551, -30396.003174305344, 0.15, 0.996, 0.152, 192.0, 0.0, 0.0, 0.0, 0.0, 0.0, 0.0, 0.0, 0.0, 0.0, 1.6959351932748785E9, 0.0, 2023-09-28 16:06:33.274
186.0, 2287.008140922563, 21015.40070955762, 30058.357722563473, -11088.47690683328, 29007.60221571949, 28021.84558175154, -187500.02235174447, 45020.39194350147, 12396.83626852468, -24642.284171853564, -11734.017638447003, 5672.783335779111, 10456.771905037393, -187500.02235174447, 13471.552845424754, -30273.38150422353, 0.15, 0.996, 0.152, 192.0, 0.0, 0.0, 0.0, 0.0, 0.0, 0.0, 0.0, 0.0, 0.0, 1.6959351932748945E9, 0.0, 2023-09-28 16:06:33.274
188.0, 2297.468757327647, 21068.955489272535, 29687.452875072107, -11046.097999346019, 29046.963637705285, 27933.80206034208, -187500.02235174447, 44693.16240467577, 12477.74958345289, -24615.886761651847, -11695.170306583681, 5667.93300723231, 10473.111030234222, -187500.02235174447, 13371.26056805379, -30340.883772478555, 0.146, 0.992, 0.15, 192.0, 2.0, 72.0, 15.5, 0.0, 2.0, 88.0, 0.0, 0.0, 0.0, 1.6959351932749104E9, 0.0, 2023-09-28 16:06:33.274
190.0, 2236.6720124092117, 21018.35113982572, 30072.10404540349, -11076.451668316326, 29010.195018076305, 28048.332398931077, -187500.02235174447, 45023.498835980754, 12405.59815235116, -24628.962532158203, -11723.266449364, 5679.60061783798, 10462.538655106862, -187500.02235174447, 13438.315801419712, -30309.27840581875, 0.146, 0.992, 0.15, 192.0, 0.0, 0.0, 0.0, 0.0, 0.0, 0.0, 0.0, 0.0, 0.0, 1.6959351932749276E9, 0.0, 2023-09-28 16:06:33.274
192.0, 2290.182088635217, 21075.83982656477, 29660.67548521465, -11038.051371342108, 29064.57681233607, 27926.00130152718, -187500.02235174447, 44669.98364567562, 12461.812789656256, -24634.170488616288, -11706.949675911626, 5650.252777368161, 10482.565818138817, -187500.02235174447, 13406.08458591516, -30305.366850539074, 0.146, 0.992, 0.15, 192.0, 0.0, 0.0, 0.0, 0.0, 0.0, 0.0, 0.0, 0.0, 0.0, 1.6959351932749448E9, 0.0, 2023-09-28 16:06:33.274
194.0, 2223.730352369589, 21010.237456588442, 30081.514129819174, -11062.370069309482, 29019.381585047435, 28077.70259114535, -187500.02235174447, 45030.94196688438, 12421.445539169972, -24613.29395929503, -11704.69214972164, 5687.177859208329, 10480.688271604571, -187500.02235174447, 13376.535579745243, -30384.670839866503, 0.146, 0.992, 0.15, 192.0, 0.0, 0.0, 0.0, 0.0, 0.0, 0.0, 0.0, 0.0, 0.0, 1.69593519327496E9, 0.0, 2023-09-28 16:06:33.274
196.0, 2298.8322137394207, 21046.335523883765, 29661.614258481775, -11042.879348144454, 29071.28233567266, 27918.960502023758, -187500.02235174447, 44677.27031436805, 12447.08299006021, -24636.69623573974, -11716.5162225385, 5648.777562234111, 10468.238349942965, -187500.02235174447, 13439.254574686835, -30275.7954926247, 0.146, 0.992, 0.15, 192.0, 0.0, 0.0, 0.0, 0.0, 0.0, 0.0, 0.0, 0.0, 0.0, 1.6959351932749755E9, 0.0, 2023-09-28 16:06:33.274
198.0, 2237.923710098709, 21000.894427406125, 30070.181795380333, -11071.444877558337, 29023.874285682952, 28093.79584715317, -187500.02235174447, 45027.25392904925, 12421.154966492053, -24618.948950642225, -11710.011864902004, 5691.827022055033, 10473.98274826798, -187500.02235174447, 13326.40061693199, -30439.611427737647, 0.152, 0.992, 0.154, 192.0, 2.0, 96.0, 15.5, 0.0, 2.0, 104.0, 0.0, 0.0, 0.0, 1.6959351932749903E9, 0.0, 2023-09-28 16:06:33.274
200.0, 2272.2336378376053, 21053.421026876098, 29686.69291576063, -11084.118316664495, 29045.153146404406, 27905.19182743929, -187500.02235174447, 44717.168178220774, 12412.035454754288, -24658.802111006036, -11755.721182313107, 5629.309192813539, 10427.312305845298, -187500.02235174447, 13496.273874792323, -30218.038584952188, 0.152, 0.992, 0.154, 192.0, 0.0, 0.0, 0.0, 0.0, 0.0, 0.0, 0.0, 0.0, 0.0, 1.6959351932750132E9, 0.0, 2023-09-28 16:06:33.275
202.0, 2226.6807826376894, 21004.984796641445, 30046.064263113054, -11072.607168270013, 29021.92968391534, 28083.983431337292, -187500.02235174447, 45011.71946665281, 12427.391103195085, -24620.088889609444, -11711.643542247242, 5672.939797990299, 10466.673727831094, -187500.02235174447, 13323.629000619532, -30420.29952052826, 0.152, 0.992, 0.154, 192.0, 0.0, 0.0, 0.0, 0.0, 0.0, 0.0, 0.0, 0.0, 0.0, 1.6959351932750707E9, 0.0, 2023-09-28 16:06:33.275
204.0, 2282.5601437759574, 21043.206279660022, 29702.294433390434, -11076.384613082959, 29049.779957506653, 27905.2365309282, -187500.02235174447, 44720.90091954481, 12410.068501242222, -24648.743826001148, -11730.597821545342, 5637.869910939921, 10451.385134623664, -187500.02235174447, 13509.684921465509, -30191.440009050373, 0.152, 0.992, 0.154, 192.0, 0.0, 0.0, 0.0, 0.0, 0.0, 0.0, 0.0, 0.0, 0.0, 1.6959351932751071E9, 0.0, 2023-09-28 16:06:33.275
206.0, 2245.1656753022285, 21005.409479786096, 30014.905931342357, -11055.195159339328, 29035.22897186625, 28097.573291966117, -187500.02235174447, 44977.722463336286, 12441.249184757375, -24623.799279189025, -11692.309283293402, 5684.965036507254, 10478.74366983696, -187500.02235174447, 13271.996470927772, -30474.61425955466, 0.152, 0.992, 0.154, 192.0, 0.0, 0.0, 0.0, 0.0, 0.0, 0.0, 0.0, 0.0, 0.0, 1.695935193275142E9, 0.0, 2023-09-28 16:06:33.275
208.0, 2274.4241087942255, 21065.513320626418, 29751.110643280823, -11078.083345661564, 29047.70124527231, 27924.459031159764, -187500.02235174447, 44769.94064687975, 12419.210364724442, -24639.870183452393, -11732.788292501962, 5653.829056481011, 10442.310326374809, -187500.02235174447, 13526.739302484906, -30190.32242182761, 0.152, 0.986, 0.152, 192.0, 2.0, 96.0, 15.0, 104.0, 2.0, 96.0, 0.0, 0.0, 0.0, 1.695935193275175E9, 0.0, 2023-09-28 16:06:33.275
210.0, 2250.954777116153, 21018.30643633681, 29987.145064728866, -11052.892929660431, 29035.027806166152, 28088.096152317066, -187500.02235174447, 44957.941169493344, 12435.907117832556, -24618.83719191995, -11703.55221075442, 5678.058347470564, 10476.441440158063, -187500.02235174447, 13267.883749947996, -30484.8960620041, 0.152, 0.986, 0.152, 192.0, 0.0, 0.0, 0.0, 0.0, 0.0, 0.0, 0.0, 0.0, 0.0, 1.6959351932752087E9, 0.0, 2023-09-28 16:06:33.275
212.0, 2278.3803675628146, 21032.432738832562, 29796.41762929173, -11083.559523053113, 29046.94128596083, 27925.777784082627, -187500.02235174447, 44810.82198748851, 12393.863486512124, -24666.44640760975, -11742.220728662101, 5648.218768622729, 10436.632983283162, -187500.02235174447, 13565.966614003972, -30152.43621497586, 0.152, 0.986, 0.152, 192.0, 0.0, 0.0, 0.0, 0.0, 0.0, 0.0, 0.0, 0.0, 0.0, 1.6959351932752473E9, 0.0, 2023-09-28 16:06:33.275
214.0, 2256.7438789300777, 21014.707805479506, 29935.132555381366, -11040.644173698924, 29059.346504133526, 28070.684143386385, -187500.02235174447, 44903.15704383338, 12456.582481453715, -24617.76430818609, -11695.84085891734, 5686.775527808133, 10481.537637893873, -187500.02235174447, 13245.040267114671, -30502.57629186825, 0.152, 0.986, 0.152, 192.0, 0.0, 0.0, 0.0, 0.0, 0.0, 0.0, 0.0, 0.0, 0.0, 1.6959351932752893E9, 0.0, 2023-09-28 16:06:33.275
216.0, 2258.0626318529407, 21039.45118659153, 29853.01224625257, -11084.073613175586, 29049.444681339824, 27939.591162156008, -187500.02235174447, 44852.8879705534, 12375.177428147486, -24659.807939506525, -11740.65610655023, 5649.805742479056, 10444.724314775982, -187500.02235174447, 13559.238738922924, -30177.0231338767, 0.152, 0.986, 0.152, 192.0, 0.0, 0.0, 0.0, 0.0, 0.0, 0.0, 0.0, 0.0, 0.0, 1.6959351932753277E9, 0.0, 2023-09-28 16:06:33.275
218.0, 2238.1919310321728, 21020.988645671445, 29883.522377434063, -11036.017362596675, 29065.18030943636, 28048.064177997614, -187500.02235174447, 44866.03079629312, 12457.476551231928, -24626.280322823564, -11681.133411065748, 5671.397527622882, 10477.201399469543, -187500.02235174447, 13256.462008531335, -30495.289623175817, 0.146, 0.99, 0.154, 192.0, 2.0, 72.0, 15.0, 120.0, 2.0, 104.0, 0.0, 0.0, 0.0, 1.695935193275385E9, 0.0, 2023-09-28 16:06:33.275
220.0, 2241.924672356209, 21019.401671815118, 29900.889682875837, -11073.814162470599, 29059.99470472273, 27960.601801943994, -187500.02235174447, 44906.08512235703, 12379.670128783004, -24667.251070410144, -11739.449112349643, 5651.012736679642, 10418.975105163468, -187500.02235174447, 13573.856779796693, -30164.39439825945, 0.146, 0.99, 0.154, 192.0, 0.0, 0.0, 0.0, 0.0, 0.0, 0.0, 0.0, 0.0, 0.0, 1.6959351932754211E9, 0.0, 2023-09-28 16:06:33.275
222.0, 2262.443573766181, 21006.884694920147, 29832.91802798725, -11022.338094990027, 29073.025771740173, 28048.31004718662, -187500.02235174447, 44839.25340643566, 12458.840007643701, -24617.741956441638, -11692.17517282667, 5676.873705014433, 10472.284015689376, -187500.02235174447, 13270.029517415705, -30475.485977588414, 0.146, 0.99, 0.154, 192.0, 0.0, 0.0, 0.0, 0.0, 0.0, 0.0, 0.0, 0.0, 0.0, 1.695935193275448E9, 0.0, 2023-09-28 16:06:33.275
224.0, 2266.5786464904127, 21017.322959580775, 29948.767119499105, -11070.215531613296, 29046.382492349447, 27993.995308160225, -187500.02235174447, 44951.21329441229, 12380.340681116662, -24664.07712269749, -11748.322754898401, 5655.773658248622, 10422.30551508731, -187500.02235174447, 13565.653689581597, -30173.670372208402, 0.146, 0.99, 0.154, 192.0, 0.0, 0.0, 0.0, 0.0, 0.0, 0.0, 0.0, 0.0, 0.0, 1.6959351932754772E9, 0.0, 2023-09-28 16:06:33.275
226.0, 2276.659283239756, 21037.439529590552, 29776.055190092946, -11012.615086151969, 29077.250251442227, 28032.395605134443, -187500.02235174447, 44792.85118494644, 12458.32591752123, -24623.39694778883, -11706.07795787787, 5669.162353177351, 10475.279149446387, -187500.02235174447, 13293.744718282785, -30442.94183766149, 0.146, 0.99, 0.154, 192.0, 0.0, 0.0, 0.0, 0.0, 0.0, 0.0, 0.0, 0.0, 0.0, 1.6959351932755032E9, 0.0, 2023-09-28 16:06:33.275
228.0, 2252.6535096947564, 21035.383169100664, 30013.095440041478, -11067.868598445488, 29030.199829363806, 28031.389776633954, -187500.02235174447, 44998.420178701905, 12392.522381844805, -24632.672921737783, -11717.678513250174, 5684.138021962407, 10455.989593981456, -187500.02235174447, 13532.3942938321, -30221.614864065035, 0.148, 0.99, 0.15, 192.0, 2.0, 80.0, 15.0, 120.0, 2.0, 88.0, 0.0, 0.0, 0.0, 1.6959351932755208E9, 0.0, 2023-09-28 16:06:33.275
230.0, 2266.243370323583, 21027.87298296368, 29755.13395728278, -11033.201042795306, 29059.83824251154, 27993.704735482304, -187500.02235174447, 44758.697719418735, 12463.064487345755, -24632.58351475996, -11692.957483882605, 5665.0943356864855, 10463.812704540815, -187500.02235174447, 13340.996306061304, -30394.34914521565, 0.148, 0.99, 0.15, 192.0, 0.0, 0.0, 0.0, 0.0, 0.0, 0.0, 0.0, 0.0, 0.0, 1.6959351932755375E9, 0.0, 2023-09-28 16:06:33.275
232.0, 2228.670087894212, 21003.889561163138, 30044.209068323264, -11075.736412493756, 29026.355329317492, 28037.4694511258, -187500.02235174447, 45005.125702038495, 12409.777928564303, -24641.926543942278, -11710.03421664646, 5687.289617930605, 10465.399678397142, -187500.02235174447, 13504.253447562867, -30248.168736477943, 0.148, 0.99, 0.15, 192.0, 0.0, 0.0, 0.0, 0.0, 0.0, 0.0, 0.0, 0.0, 0.0, 1.6959351932755525E9, 0.0, 2023-09-28 16:06:33.275
234.0, 2265.6175214788345, 21059.768922301402, 29710.96691023909, -11043.505196989203, 29066.141434447938, 27960.043008332614, -187500.02235174447, 44713.256622941095, 12460.047001844288, -24638.93141018527, -11692.443393760133, 5658.12059141643, 10475.994405268957, -187500.02235174447, 13356.933099857939, -30366.565926857704, 0.148, 0.99, 0.15, 192.0, 0.0, 0.0, 0.0, 0.0, 0.0, 0.0, 0.0, 0.0, 0.0, 1.6959351932755673E9, 0.0, 2023-09-28 16:06:33.275
236.0, 2242.706983412145, 20992.043136601824, 30073.020466926155, -11086.62171204349, 29022.22025659326, 28043.772643062195, -187500.02235174447, 45020.995440601764, 12406.089890729178, -24647.089796911456, -11719.109024895315, 5673.45388811277, 10461.577530095283, -187500.02235174447, 13469.496484934865, -30283.193920039408, 0.148, 0.99, 0.15, 192.0, 0.0, 0.0, 0.0, 0.0, 0.0, 0.0, 0.0, 0.0, 0.0, 1.695935193275584E9, 0.0, 2023-09-28 16:06:33.275
238.0, 2288.9750944346306, 21045.64261980565, 29688.659869272695, -11048.400229024915, 29060.687608800843, 27947.61543841546, -187500.02235174447, 44689.54142207401, 12473.41334502856, -24645.189898632754, -11699.55124849692, 5651.280957613106, 10475.010928512924, -187500.02235174447, 13394.036995653749, -30324.544647281728, 0.14400000000000002, 0.998, 0.156, 192.0, 2.0, 64.0, 15.5, 24.0, 2.0, 112.0, 0.0, 0.0, 0.0, 1.6959351932756119E9, 0.0, 2023-09-28 16:06:33.275
240.0, 2237.9013583542537, 20997.63107271565, 30092.019449713167, -11078.396270083937, 29024.723651972254, 28077.210852767334, -187500.02235174447, 45037.692193709874, 12421.736111847891, -24637.92558168478, -11710.4141963022, 5677.857181770466, 10476.240274457965, -187500.02235174447, 13419.450929099434, -30336.771051498778, 0.14400000000000002, 0.998, 0.156, 192.0, 0.0, 0.0, 0.0, 0.0, 0.0, 0.0, 0.0, 0.0, 0.0, 1.6959351937534332E9, 0.0, 2023-09-28 16:06:33.753
242.0, 2281.822536208932, 21051.722294297495, 29686.245880871524, -11050.903624403909, 29071.103521717017, 27934.517316164653, -187500.02235174447, 44698.012733222575, 12447.284155760308, -24645.480471310675, -11705.273295077479, 5645.827131966011, 10457.800085282337, -187500.02235174447, 13440.528624120787, -30277.13659729202, 0.14400000000000002, 0.998, 0.156, 192.0, 0.0, 0.0, 0.0, 0.0, 0.0, 0.0, 0.0, 0.0, 0.0, 1.6959351937535737E9, 0.0, 2023-09-28 16:06:33.753
244.0, 2229.5865094168794, 21006.325901308766, 30100.826037028557, -11063.688822232345, 29035.54189628862, 28096.880387888003, -187500.02235174447, 45044.75534495775, 12422.98780953739, -24624.447479778228, -11696.958446140105, 5684.070966729041, 10476.575550624795, -187500.02235174447, 13394.931065431962, -30369.449301892437, 0.14400000000000002, 0.998, 0.156, 192.0, 0.0, 0.0, 0.0, 0.0, 0.0, 0.0, 0.0, 0.0, 0.0, 1.695935193753596E9, 0.0, 2023-09-28 16:06:33.753
246.0, 2280.9061146862646, 21059.36659090121, 29691.83381698535, -11045.159226078895, 29075.21624269679, 27930.58340914052, -187500.02235174447, 44695.53168958804, 12440.22100451243, -24650.956648702224, -11714.951600426628, 5643.59195752048, 10462.270434173399, -187500.02235174447, 13489.85892413365, -30228.678015312915, 0.14400000000000002, 0.998, 0.156, 192.0, 0.0, 0.0, 0.0, 0.0, 0.0, 0.0, 0.0, 0.0, 0.0, 1.6959351937536163E9, 0.0, 2023-09-28 16:06:33.753
248.0, 2265.6175214788345, 21023.02265441688, 30085.939775221323, -11050.456589514803, 29034.156088132393, 28106.84926591507, -187500.02235174447, 45024.10233308105, 12424.395969438074, -24615.30561629601, -11701.07116711988, 5678.952417248776, 10472.93221627858, -187500.02235174447, 13358.810646392185, -30401.747572630356, 0.152, 1.0, 0.14200000000000002, 192.0, 2.0, 96.0, 15.5, 32.0, 2.0, 56.0, 0.0, 0.0, 0.0, 1.695935193753636E9, 0.0, 2023-09-28 16:06:33.753
250.0, 2277.0616146399516, 21056.1702914441, 29716.465439375097, -11053.47407501627, 29051.344579618526, 27930.181077740323, -187500.02235174447, 44720.319774188974, 12424.865356071634, -24643.31235209851, -11729.077902922381, 5641.222672608218, 10445.707791532015, -187500.02235174447, 13513.48471802291, -30202.45941906684, 0.152, 1.0, 0.14200000000000002, 192.0, 0.0, 0.0, 0.0, 0.0, 0.0, 0.0, 0.0, 0.0, 0.0, 1.695935193753656E9, 0.0, 2023-09-28 16:06:33.753
252.0, 2216.577794143891, 20990.031479600846, 30067.05255115659, -11044.935708634343, 29029.5516287746, 28117.488696275796, -187500.02235174447, 45016.301574266145, 12442.143254535587, -24611.796392416527, -11695.304417050413, 5685.702644074278, 10476.396736669152, -187500.02235174447, 13327.629962877032, -30425.954511875454, 0.152, 1.0, 0.14200000000000002, 192.0, 0.0, 0.0, 0.0, 0.0, 0.0, 0.0, 0.0, 0.0, 0.0, 1.6959351937536752E9, 0.0, 2023-09-28 16:06:33.753
254.0, 2275.631102994812, 21057.667858322606, 29735.330311695376, -11065.029926899664, 29055.859631998497, 27938.272409233145, -187500.02235174447, 44746.71718439069, 12435.884766088102, -24643.044131165047, -11710.101271879825, 5651.951509946765, 10446.870082243691, -187500.02235174447, 13530.673209509041, -30177.82779667709, 0.152, 1.0, 0.14200000000000002, 192.0, 0.0, 0.0, 0.0, 0.0, 0.0, 0.0, 0.0, 0.0, 0.0, 1.6959351937536972E9, 0.0, 2023-09-28 16:06:33.753
0.0, 2240.1365327997846, 20986.164627810078, 30024.740698902693, -11057.09505761803, 29039.162878890384, 28110.04556537218, -187500.02235174447, 44979.84587905954, 12441.584460924205, -24617.227866319165, -11695.12560309477, 5679.377100393427, 10464.438553385562, -187500.02235174447, 13278.813752986642, -30469.339247863205, 0.152, 1.0, 0.14200000000000002, 192.0, 0.0, 0.0, 0.0, 0.0, 0.0, 0.0, 0.0, 0.0, 0.0, 1.6959351937537172E9, 0.0, 2023-09-28 16:06:33.753
2.0, 2267.6515302242674, 21033.796195244337, 29773.618849947317, -11091.449688845836, 29050.98695170724, 27926.783612583116, -187500.02235174447, 44778.970751639696, 12399.11614645912, -24674.157759446833, -11745.484083352576, 5628.504530013148, 10445.551329320828, -187500.02235174447, 13553.15906443108, -30159.834642390568, 0.15, 0.998, 0.14, 192.0, 2.0, 88.0, 15.5, 24.0, 2.0, 48.0, 0.0, 0.0, 0.0, 1.6959351937537367E9, 0.0, 2023-09-28 16:06:33.753
4.0, 2240.1588845442398, 21003.86720941868, 29985.31222168353, -11060.939557664342, 29038.715844001275, 28088.118504061524, -187500.02235174447, 44940.99854719622, 12451.553338951271, -24631.130651370368, -11692.108117593303, 5678.997120737687, 10487.773774596903, -187500.02235174447, 13259.166569610426, -30488.65115507259, 0.15, 0.998, 0.14, 192.0, 0.0, 0.0, 0.0, 0.0, 0.0, 0.0, 0.0, 0.0, 0.0, 1.6959351937537584E9, 0.0, 2023-09-28 16:06:33.753
6.0, 2292.730187503122, 21063.3228496698, 29827.28538838451, -11086.71111902131, 29051.679855785354, 27942.899220335392, -187500.02235174447, 44830.7820952871, 12404.45821338394, -24665.619393064906, -11732.408312846223, 5645.3130418435385, 10449.976974722978, -187500.02235174447, 13569.274672183356, -30152.54797369814, 0.15, 0.998, 0.14, 192.0, 0.0, 0.0, 0.0, 0.0, 0.0, 0.0, 0.0, 0.0, 0.0, 1.6959351937537785E9, 0.0, 2023-09-28 16:06:33.753
8.0, 2251.5806259609017, 21021.54743928283, 29940.1169943949, -11050.344830792526, 29044.482594070745, 28073.344000976565, -187500.02235174447, 44912.142445104415, 12464.338536779707, -24610.276473793565, -11684.799097156418, 5679.198286437784, 10486.946760052057, -187500.02235174447, 13266.989680169783, -30476.82708225573, 0.15, 0.998, 0.14, 192.0, 0.0, 0.0, 0.0, 0.0, 0.0, 0.0, 0.0, 0.0, 0.0, 1.6959351937537978E9, 0.0, 2023-09-28 16:06:33.753
10.0, 2282.8507164538764, 21030.041102175845, 29865.439816169717, -11093.126069679985, 29050.78578600714, 27947.213107015268, -187500.02235174447, 44863.415642191845, 12397.59622783616, -24665.418227364808, -11735.582260558875, 5645.335393587994, 10430.128625646666, -187500.02235174447, 13584.49621015742, -30128.095165264032, 0.15, 0.998, 0.14, 192.0, 0.0, 0.0, 0.0, 0.0, 0.0, 0.0, 0.0, 0.0, 0.0, 1.6959351937538176E9, 0.0, 2023-09-28 16:06:33.753
12.0, 2249.0772305819073, 21007.39878504262, 29872.793540095514, -11055.485732017247, 29059.815890767088, 28057.586021135572, -187500.02235174447, 44851.99390077518, 12465.210254813464, -24627.532020513063, -11688.017748357983, 5670.5481613335805, 10477.31315819182, -187500.02235174447, 13253.176302096404, -30476.000067710887, 0.152, 1.004, 0.148, 192.0, 2.0, 96.0, 15.5, 48.0, 2.0, 80.0, 0.0, 0.0, 0.0, 1.6959351937538402E9, 0.0, 2023-09-28 16:06:33.753
14.0, 2257.794410919477, 21012.897314178626, 29920.760383696605, -11106.648875075445, 29041.286294613637, 27972.358819527486, -187500.02235174447, 44920.054962641596, 12376.697346770448, -24675.87884376989, -11752.055496222436, 5637.087599883986, 10412.738968460437, -187500.02235174447, 13572.180398962546, -30145.0154358167, 0.152, 1.004, 0.148, 192.0, 0.0, 0.0, 0.0, 0.0, 0.0, 0.0, 0.0, 0.0, 0.0, 1.6959351937538607E9, 0.0, 2023-09-28 16:06:33.753
16.0, 2253.145248072773, 21033.2150498885, 29812.9355684442, -11047.99789762472, 29070.70119031682, 28023.54431433014, -187500.02235174447, 44808.29624036506, 12456.604833198171, -24632.762328715602, -11695.818507172884, 5650.766867490634, 10454.78259978087, -187500.02235174447, 13287.307415879657, -30425.954511875454, 0.152, 1.004, 0.148, 192.0, 0.0, 0.0, 0.0, 0.0, 0.0, 0.0, 0.0, 0.0, 0.0, 1.6959351937538817E9, 0.0, 2023-09-28 16:06:33.753
18.0, 2269.5737802474237, 21009.119869365677, 29960.904116738337, -11092.254351646228, 29043.968503948272, 27990.82136044757, -187500.02235174447, 44944.016032697684, 12391.471849855407, -24660.36673311791, -11738.80091176044, 5647.25764361115, 10441.192739152044, -187500.02235174447, 13548.35343937319, -30176.30787805413, 0.152, 1.004, 0.148, 192.0, 0.0, 0.0, 0.0, 0.0, 0.0, 0.0, 0.0, 0.0, 0.0, 1.695935193753901E9, 0.0, 2023-09-28 16:06:33.753
20.0, 2253.860503895343, 21030.286971364854, 29770.958992357137, -11047.707324946801, 29059.570021578078, 28002.176046630866, -187500.02235174447, 44762.65397818732, 12446.07716155972, -24647.201555633732, -11721.83593771886, 5643.122570886919, 10462.538655106862, -187500.02235174447, 13296.292817150692, -30422.44528799597, 0.152, 1.004, 0.148, 192.0, 0.0, 0.0, 0.0, 0.0, 0.0, 0.0, 0.0, 0.0, 0.0, 1.6959351937539208E9, 0.0, 2023-09-28 16:06:33.753
22.0, 2258.4649632531364, 20993.898331391614, 30019.55509418906, -11092.120241179497, 29035.36308233298, 28015.87766598197, -187500.02235174447, 44983.06453026111, 12380.9218264725, -24663.83125350848, -11747.808664775928, 5645.447152310271, 10430.195680880033, -187500.02235174447, 13527.365151329655, -30204.404020834452, 0.146, 0.998, 0.15, 192.0, 2.0, 72.0, 15.5, 24.0, 2.0, 88.0, 0.0, 0.0, 0.0, 1.695935193753942E9, 0.0, 2023-09-28 16:06:33.753
24.0, 2267.852695924365, 21031.02457893188, 29742.907553065725, -11046.679144701857, 29074.903318274417, 27978.527900997153, -187500.02235174447, 44725.55008239151, 12458.638841943604, -24640.58543927496, -11704.98272239956, 5653.583187292003, 10455.699021303537, -187500.02235174447, 13335.07309378065, -30376.691267095957, 0.146, 0.998, 0.15, 192.0, 0.0, 0.0, 0.0, 0.0, 0.0, 0.0, 0.0, 0.0, 0.0, 1.695935193753964E9, 0.0, 2023-09-28 16:06:33.753
26.0, 2243.8245706349103, 21021.390977071642, 30063.52097553265, -11092.611979557512, 29030.55745727509, 28034.653131324427, -187500.02235174447, 44995.78267285618, 12399.429070881495, -24657.729227272182, -11724.965181942605, 5671.419879367338, 10454.335564891764, -187500.02235174447, 13492.76465091284, -30249.08515800061, 0.146, 0.998, 0.15, 192.0, 0.0, 0.0, 0.0, 0.0, 0.0, 0.0, 0.0, 0.0, 0.0, 1.6959351937539873E9, 0.0, 2023-09-28 16:06:33.753
28.0, 2279.274437341027, 21050.045913463346, 29714.74435505204, -11061.744220464734, 29061.02288496767, 27948.308342493576, -187500.02235174447, 44688.915573229264, 12449.027591827822, -24641.34539858644, -11698.612475229798, 5649.895149456876, 10455.408448625618, -187500.02235174447, 13374.4568675109, -30341.129641667565, 0.146, 0.998, 0.15, 192.0, 0.0, 0.0, 0.0, 0.0, 0.0, 0.0, 0.0, 0.0, 0.0, 1.6959351937540066E9, 0.0, 2023-09-28 16:06:33.754
30.0, 2271.384271548304, 21015.512468279896, 30078.787216995624, -11093.930732480376, 29023.114326371473, 28050.20994546532, -187500.02235174447, 45006.4221032169, 12401.306617415741, -24646.55335504453, -11725.680437765175, 5669.050594455075, 10454.179102680577, -187500.02235174447, 13456.197196983958, -30292.872225388557, 0.146, 0.998, 0.15, 192.0, 0.0, 0.0, 0.0, 0.0, 0.0, 0.0, 0.0, 0.0, 0.0, 1.6959351937540264E9, 0.0, 2023-09-28 16:06:33.754
32.0, 2300.441539340203, 21069.089599739265, 29684.21187212609, -11057.072705873574, 29071.70701881731, 27936.461917932265, -187500.02235174447, 44665.446241551195, 12472.943958395, -24640.384273574862, -11705.854440433317, 5656.131286159907, 10470.808800555325, -187500.02235174447, 13392.137097375047, -30323.002376914308, 0.148, 1.002, 0.15, 192.0, 2.0, 80.0, 15.5, 40.0, 2.0, 88.0, 0.0, 0.0, 0.0, 1.695935193754046E9, 0.0, 2023-09-28 16:06:33.754
34.0, 2232.581643173891, 20995.999395370414, 30095.595728826014, -11090.734433023266, 29021.16972460386, 28070.393570708464, -187500.02235174447, 45016.301574266145, 12410.180259964498, -24636.718587484193, -11712.828184703372, 5678.684196315312, 10453.039163713356, -187500.02235174447, 13406.285751615258, -30354.317170896196, 0.148, 1.002, 0.15, 192.0, 0.0, 0.0, 0.0, 0.0, 0.0, 0.0, 0.0, 0.0, 0.0, 1.6959351937540653E9, 0.0, 2023-09-28 16:06:33.754
36.0, 2281.5766670199237, 21054.560965843317, 29684.368334337276, -11070.57315952458, 29062.207527423805, 27924.77195558214, -187500.02235174447, 44665.37918631783, 12453.587347696704, -24631.82355544848, -11712.403501558721, 5646.698849999768, 10448.345297377742, -187500.02235174447, 13435.477129873889, -30283.886824117522, 0.148, 1.002, 0.15, 192.0, 0.0, 0.0, 0.0, 0.0, 0.0, 0.0, 0.0, 0.0, 0.0, 1.6959351937540848E9, 0.0, 2023-09-28 16:06:33.754
38.0, 2261.3930417767815, 21006.34825305322, 30098.076772460554, -11083.693633519844, 29023.628416493946, 28087.336193005587, -187500.02235174447, 45021.82245514661, 12415.656437356049, -24624.268665822587, -11726.17217614319, 5670.0787747000195, 10457.241291670955, -187500.02235174447, 13385.632739738554, -30374.165519972506, 0.148, 1.002, 0.15, 192.0, 0.0, 0.0, 0.0, 0.0, 0.0, 0.0, 0.0, 0.0, 0.0, 1.6959351937541065E9, 0.0, 2023-09-28 16:06:33.754
40.0, 2339.110057247884, 21094.056498295846, 29686.759970993993, -11050.501293003714, 29078.121969475982, 27930.315188207056, -187500.02235174447, 44672.33057884343, 12444.445484214484, -24625.20743908971, -11718.684341750662, 5657.986480949698, 10442.913823475103, -187500.02235174447, 13483.175752541514, -30227.448669367874, 0.148, 1.002, 0.15, 192.0, 0.0, 0.0, 0.0, 0.0, 0.0, 0.0, 0.0, 0.0, 0.0, 1.695935193754126E9, 0.0, 2023-09-28 16:06:33.754
42.0, 2285.8011467219767, 21051.252907663933, 30077.04378092811, -11047.081476102052, 29046.248381882717, 28119.99209165479, -187500.02235174447, 44996.00619030073, 12442.79145512479, -24587.38828747133, -11681.289873276935, 5710.446025186304, 10468.55127436534, -187500.02235174447, 13329.283991966724, -30436.21396258044, 0.15, 0.998, 0.15, 192.0, 2.0, 88.0, 15.5, 24.0, 2.0, 88.0, 0.0, 0.0, 0.0, 1.695935193754146E9, 0.0, 2023-09-28 16:06:33.754
44.0, 2305.269516142549, 21056.393808888653, 29725.60730285732, -11057.13976110694, 29071.79642579513, 27934.562019653564, -187500.02235174447, 44712.139035718326, 12438.857548100657, -24627.464965279694, -11712.671722492185, 5661.875684484921, 10444.836073498258, -187500.02235174447, 13507.96383714245, -30222.97832047681, 0.15, 0.998, 0.15, 192.0, 0.0, 0.0, 0.0, 0.0, 0.0, 0.0, 0.0, 0.0, 0.0, 1.6959351937541654E9, 0.0, 2023-09-28 16:06:33.754
46.0, 2231.7546286290444, 21014.95367466851, 30067.9466209348, -11052.08826686004, 29038.89465795692, 28110.067917116634, -187500.02235174447, 45002.37643747049, 12435.79535911028, -24617.384328530352, -11701.249981075523, 5683.22160043974, 10459.677631816583, -187500.02235174447, 13328.076997766138, -30445.534640018304, 0.15, 0.998, 0.15, 192.0, 0.0, 0.0, 0.0, 0.0, 0.0, 0.0, 0.0, 0.0, 0.0, 1.6959351937541847E9, 0.0, 2023-09-28 16:06:33.754
48.0, 2288.9080392012643, 21070.765980573415, 29755.625695660794, -11049.026077869663, 29079.351315421023, 27936.23840048771, -187500.02235174447, 44746.89599834633, 12410.470832642417, -24645.92750619978, -11719.399597573232, 5652.152675646863, 10433.548442548328, -187500.02235174447, 13568.87234078316, -30158.15826155642, 0.15, 0.998, 0.15, 192.0, 0.0, 0.0, 0.0, 0.0, 0.0, 0.0, 0.0, 0.0, 0.0, 1.6959351937542048E9, 0.0, 2023-09-28 16:06:33.754
50.0, 2252.094716083374, 20997.25109305991, 30036.251847297175, -11043.66165920039, 29048.438852839336, 28110.269082816732, -187500.02235174447, 44966.94892250883, 12449.720495905936, -24605.24733129112, -11680.082879076348, 5687.356673163971, 10465.757306308426, -187500.02235174447, 13301.76899454224, -30469.31689611875, 0.15, 0.998, 0.15, 192.0, 0.0, 0.0, 0.0, 0.0, 0.0, 0.0, 0.0, 0.0, 0.0, 1.6959351937542267E9, 0.0, 2023-09-28 16:06:33.754
52.0, 2297.8934404722977, 21049.64358206315, 29797.065829880936, -11074.395307826437, 29065.00149548072, 27937.91478132186, -187500.02235174447, 44773.13694633686, 12419.70210310246, -24662.64661105235, -11738.666801293708, 5633.958355660243, 10415.354122561708, -187500.02235174447, 13597.236704496945, -30132.09612752153, 0.148, 1.004, 0.152, 192.0, 2.0, 80.0, 15.5, 48.0, 2.0, 96.0, 0.0, 0.0, 0.0, 1.695935193754246E9, 0.0, 2023-09-28 16:06:33.754
54.0, 2265.3940040342814, 21014.238418845944, 29975.969192501212, -11043.684010944846, 29062.542803590633, 28097.126257077012, -187500.02235174447, 44900.8995176434, 12455.46489423095, -24609.53886622654, -11675.903102863205, 5690.530620876625, 10481.582341382784, -187500.02235174447, 13274.097534906572, -30489.008782983874, 0.148, 1.004, 0.152, 192.0, 0.0, 0.0, 0.0, 0.0, 0.0, 0.0, 0.0, 0.0, 0.0, 1.6959351937542653E9, 0.0, 2023-09-28 16:06:33.754
56.0, 2284.2365246101053, 21043.183927915565, 29846.306722915975, -11094.221305158295, 29054.362065119993, 27946.20727851478, -187500.02235174447, 44811.51489156662, 12399.11614645912, -24670.335611144976, -11733.168272157702, 5646.318870344027, 10432.609669281206, -187500.02235174447, 13589.391242193133, -30145.171898027886, 0.148, 1.004, 0.152, 192.0, 0.0, 0.0, 0.0, 0.0, 0.0, 0.0, 0.0, 0.0, 0.0, 1.6959351937542849E9, 0.0, 2023-09-28 16:06:33.754
58.0, 2249.568968959924, 21023.64850326163, 29922.63793023085, -11060.358412308504, 29047.008341194196, 28073.679277143394, -187500.02235174447, 44858.90058981188, 12461.522216978337, -24624.291017567044, -11688.576541969365, 5671.419879367338, 10476.150867480144, -187500.02235174447, 13270.051869160161, -30483.867881759154, 0.148, 1.004, 0.152, 192.0, 0.0, 0.0, 0.0, 0.0, 0.0, 0.0, 0.0, 0.0, 0.0, 1.6959351937543201E9, 0.0, 2023-09-28 16:06:33.754
60.0, 2298.273420128038, 21057.958431000523, 29902.275491032065, -11091.025005701185, 29049.869364484475, 27970.905956137893, -187500.02235174447, 44858.85588632296, 12394.444631867962, -24664.21123316422, -11732.855347735329, 5651.683289013301, 10437.214128639, -187500.02235174447, 13590.866457327184, -30148.524659696184, 0.148, 1.004, 0.152, 192.0, 0.0, 0.0, 0.0, 0.0, 0.0, 0.0, 0.0, 0.0, 0.0, 1.6959351937543397E9, 0.0, 2023-09-28 16:06:33.754
62.0, 2266.9809778906083, 21021.010997415902, 29880.549595421508, -11051.395362781926, 29049.824660995564, 28050.522869887696, -187500.02235174447, 44822.9813364722, 12461.253996044874, -24624.849811178425, -11687.950693124616, 5678.751251548678, 10469.35593716573, -187500.02235174447, 13289.095555436083, -30462.07493091523, 0.148, 1.0, 0.156, 192.0, 2.0, 80.0, 15.5, 32.0, 2.0, 112.0, 0.0, 0.0, 0.0, 1.6959351937543616E9, 0.0, 2023-09-28 16:06:33.754
64.0, 2276.7039867286667, 21064.529843870383, 29957.59605855895, -11086.040566687652, 29035.6536550109, 27989.457904035797, -187500.02235174447, 44902.97822987774, 12403.0277017388, -24653.884727225868, -11729.815510489407, 5660.378117606416, 10426.77586397837, -187500.02235174447, 13591.3581957052, -30146.177726528374, 0.148, 1.0, 0.156, 192.0, 0.0, 0.0, 0.0, 0.0, 0.0, 0.0, 0.0, 0.0, 0.0, 1.6959351937543807E9, 0.0, 2023-09-28 16:06:33.754
66.0, 2290.204440379672, 21037.79715750184, 29819.551684802973, -11039.057199842597, 29055.36789362048, 28031.21096267831, -187500.02235174447, 44774.18747832626, 12472.295757805796, -24603.548598712518, -11684.150896567215, 5677.0078154811645, 10471.434649400075, -187500.02235174447, 13310.329712668625, -30425.038090352788, 0.148, 1.0, 0.156, 192.0, 0.0, 0.0, 0.0, 0.0, 0.0, 0.0, 0.0, 0.0, 0.0, 1.6959351937544E9, 0.0, 2023-09-28 16:06:33.754
68.0, 2269.4620215251475, 21024.45316606202, 30004.31120447054, -11081.927845707876, 29026.6011985065, 28023.968997474793, -187500.02235174447, 44943.948977464315, 12406.335759918185, -24629.811898447504, -11731.156615156724, 5684.562705107058, 10440.633945540661, -187500.02235174447, 13559.171683689558, -30185.15916885843, 0.148, 1.0, 0.156, 192.0, 0.0, 0.0, 0.0, 0.0, 0.0, 0.0, 0.0, 0.0, 0.0, 1.6959351937544193E9, 0.0, 2023-09-28 16:06:33.754
70.0, 2295.12182415984, 21065.17804445959, 29779.452655250152, -11037.693743430824, 29054.94321047583, 28016.324700871075, -187500.02235174447, 44741.19630351023, 12468.764182181858, -24616.445555263228, -11698.724233952074, 5668.938835732799, 10457.665974815605, -187500.02235174447, 13348.014753820271, -30381.452188664938, 0.148, 1.0, 0.156, 192.0, 0.0, 0.0, 0.0, 0.0, 0.0, 0.0, 0.0, 0.0, 0.0, 1.6959351937544389E9, 0.0, 2023-09-28 16:06:33.754
72.0, 2246.864407880832, 21033.349160355232, 30059.76588246416, -11075.535246793657, 29019.6498059809, 28046.164279718912, -187500.02235174447, 44982.52808839418, 12408.123899474609, -24622.10054661042, -11708.335484067857, 5691.424690654837, 10448.702925289026, -187500.02235174447, 13538.541023557309, -30209.299052870163, 0.152, 0.994, 0.154, 192.0, 2.0, 96.0, 15.5, 8.0, 2.0, 104.0, 0.0, 0.0, 0.0, 1.6959351937544577E9, 0.0, 2023-09-28 16:06:33.754
74.0, 2278.3133123294488, 21064.239271192466, 29744.293361221953, -11038.431350997847, 29056.485480843246, 27984.78638944464, -187500.02235174447, 44709.14390196132, 12459.108228577164, -24623.508706511107, -11701.518202008987, 5663.485010085704, 10459.632928327672, -187500.02235174447, 13397.4121090665, -30321.884789691543, 0.152, 0.994, 0.154, 192.0, 0.0, 0.0, 0.0, 0.0, 0.0, 0.0, 0.0, 0.0, 0.0, 1.6959351937544768E9, 0.0, 2023-09-28 16:06:33.754
76.0, 2257.9061696417534, 21043.943887227048, 30076.395580338907, -11073.52358979268, 29026.6011985065, 28063.79980609415, -187500.02235174447, 44992.3181524656, 12407.878030285601, -24625.363901300898, -11719.198431873136, 5682.729862061723, 10452.614480568705, -187500.02235174447, 13515.854002935172, -30226.17461993392, 0.152, 0.994, 0.154, 192.0, 0.0, 0.0, 0.0, 0.0, 0.0, 0.0, 0.0, 0.0, 0.0, 1.6959351937544982E9, 0.0, 2023-09-28 16:06:33.754
78.0, 2297.1558329052727, 21076.622137620707, 29702.763820023993, -11032.597545695013, 29072.93636476235, 27978.840825419527, -187500.02235174447, 44662.428756049725, 12471.37933628313, -24614.769174429082, -11694.477402505565, 5666.100164186974, 10461.242253928454, -187500.02235174447, 13405.570495792688, -30309.367812796572, 0.152, 0.994, 0.154, 192.0, 0.0, 0.0, 0.0, 0.0, 0.0, 0.0, 0.0, 0.0, 0.0, 1.6959351937545173E9, 0.0, 2023-09-28 16:06:33.754
80.0, 2287.7904519784993, 21034.891430722648, 30093.89699624741, -11072.964796181297, 29023.494306027213, 28091.761838407736, -187500.02235174447, 44995.62621064499, 12425.670018872026, -24622.413471032796, -11709.877754435272, 5685.590885352002, 10473.64747210115, -187500.02235174447, 13447.70353409094, -30312.541760509226, 0.152, 0.994, 0.154, 192.0, 0.0, 0.0, 0.0, 0.0, 0.0, 0.0, 0.0, 0.0, 0.0, 1.6959351937545388E9, 0.0, 2023-09-28 16:06:33.754
82.0, 2310.6562865562782, 21073.53759688587, 29704.77547702497, -11060.313708819594, 29051.36693136298, 27953.940982096316, -187500.02235174447, 44675.03513992252, 12459.734077421914, -24622.234657077155, -11716.27035334949, 5648.531693045104, 10460.079963216778, -187500.02235174447, 13444.462531144922, -30283.86447237307, 0.156, 0.99, 0.158, 192.0, 2.0, 112.0, 15.0, 120.0, 2.0, 120.0, 0.0, 0.0, 0.0, 1.695935193754558E9, 0.0, 2023-09-28 16:06:33.754
84.0, 2263.0247191220187, 21025.369587584686, 30108.71620282128, -11076.965758438797, 29023.69547172731, 28100.92605363441, -187500.02235174447, 45016.39098124397, 12423.658361871048, -24617.58549423045, -11703.082824120858, 5690.552972621081, 10463.276262673888, -187500.02235174447, 13436.125330463092, -30329.842010717635, 0.156, 0.99, 0.158, 192.0, 0.0, 0.0, 0.0, 0.0, 0.0, 0.0, 0.0, 0.0, 0.0, 1.695935193754578E9, 0.0, 2023-09-28 16:06:33.754
86.0, 2281.4872600421027, 21075.571605631307, 29695.2089303981, -11060.269005330683, 29074.255117685214, 27939.926438322836, -187500.02235174447, 44662.40640430527, 12455.867225631146, -24637.63500900686, -11701.138222353247, 5658.388812349894, 10449.865216000702, -187500.02235174447, 13495.446860247477, -30233.08130897061, 0.156, 0.99, 0.158, 192.0, 0.0, 0.0, 0.0, 0.0, 0.0, 0.0, 0.0, 0.0, 0.0, 1.6959351937545977E9, 0.0, 2023-09-28 16:06:33.754
88.0, 2243.601053190357, 21027.560058541305, 30095.685135803837, -11073.456534559315, 29038.760547490187, 28111.341966550586, -187500.02235174447, 45000.25302174724, 12426.631143883604, -24612.042261605533, -11697.517239751487, 5692.832850555522, 10469.512399376918, -187500.02235174447, 13379.5083617578, -30400.317060985217, 0.156, 0.99, 0.158, 192.0, 0.0, 0.0, 0.0, 0.0, 0.0, 0.0, 0.0, 0.0, 0.0, 1.69593519375462E9, 0.0, 2023-09-28 16:06:33.754
90.0, 2309.449292355692, 21086.389849947675, 29708.374107882275, -11060.134894863952, 29078.50194913172, 27942.787461613116, -187500.02235174447, 44675.81745097846, 12450.74867615088, -24634.103433382923, -11702.79225144294, 5657.964129205243, 10462.918634762602, -187500.02235174447, 13512.590648244697, -30230.39909963597, 0.156, 0.99, 0.158, 192.0, 0.0, 0.0, 0.0, 0.0, 0.0, 0.0, 0.0, 0.0, 0.0, 1.6959351937546396E9, 0.0, 2023-09-28 16:06:33.754
92.0, 2257.1685620747285, 21009.276331576864, 30082.162330408377, -11068.270929845683, 29044.326131859558, 28119.500353276773, -187500.02235174447, 44995.268582733705, 12438.745789378381, -24617.272569808076, -11702.434623531655, 5686.641417341401, 10464.796181296848, -187500.02235174447, 13339.275221738246, -30455.235297111907, 0.154, 0.996, 0.156, 192.0, 2.0, 104.0, 15.5, 16.0, 2.0, 112.0, 0.0, 0.0, 0.0, 1.6959351937546592E9, 0.0, 2023-09-28 16:06:33.754
94.0, 2294.115995659351, 21057.60080308924, 29742.996960043547, -11076.51872354969, 29065.962620492297, 27936.819545843548, -187500.02235174447, 44719.09042824393, 12431.861452086147, -24647.559183545018, -11718.706693495118, 5640.060381896542, 10440.87981472967, -187500.02235174447, 13553.87432025365, -30200.537169043684, 0.154, 0.996, 0.156, 192.0, 0.0, 0.0, 0.0, 0.0, 0.0, 0.0, 0.0, 0.0, 0.0, 1.6959351937546809E9, 0.0, 2023-09-28 16:06:33.754
96.0, 2246.238559036083, 21013.63492174565, 30060.727007475736, -11065.968700166786, 29037.262980611682, 28110.090268861088, -187500.02235174447, 44979.62236161499, 12434.923641076522, -24620.87120066538, -11705.988550900049, 5674.929103246821, 10467.1207627202, -187500.02235174447, 13337.621192648554, -30453.134233133107, 0.154, 0.996, 0.156, 192.0, 0.0, 0.0, 0.0, 0.0, 0.0, 0.0, 0.0, 0.0, 0.0, 1.695935193754702E9, 0.0, 2023-09-28 16:06:33.754
98.0, 2313.383199379826, 21059.232480434475, 29790.047382121968, -11083.939502708854, 29050.629323795954, 27929.778746340126, -187500.02235174447, 44760.84348688644, 12405.575800606704, -24659.763236017614, -11730.329600611878, 5641.803817964055, 10440.701000774026, -187500.02235174447, 13598.35429171971, -30145.998912572733, 0.154, 0.996, 0.156, 192.0, 0.0, 0.0, 0.0, 0.0, 0.0, 0.0, 0.0, 0.0, 0.0, 1.6959351937547233E9, 0.0, 2023-09-28 16:06:33.754
100.0, 2264.20936157815, 21015.288950835344, 30005.920530071326, -11053.51877850518, 29042.828564981053, 28097.46153324384, -187500.02235174447, 44929.330936590544, 12442.098551046676, -24627.308503068507, -11693.583332727354, 5674.705585802268, 10458.73885854946, -187500.02235174447, 13331.452111178889, -30435.811631180244, 0.154, 0.996, 0.156, 192.0, 0.0, 0.0, 0.0, 0.0, 0.0, 0.0, 0.0, 0.0, 0.0, 1.6959351937547433E9, 0.0, 2023-09-28 16:06:33.754
102.0, 2274.4017570497704, 21065.870948537704, 29816.24362662359, -11069.388517068448, 29066.879042014963, 27948.777729127138, -187500.02235174447, 44764.978559610674, 12429.067484029232, -24650.88959346886, -11708.357835812312, 5661.205132151263, 10445.953660721025, -187500.02235174447, 13596.186172507547, -30139.58396191406, 0.154, 0.996, 0.15, 192.0, 2.0, 104.0, 15.5, 16.0, 2.0, 88.0, 0.0, 0.0, 0.0, 1.6959351937547784E9, 0.0, 2023-09-28 16:06:33.754
104.0, 2258.956701631153, 21020.72042473798, 29971.78941628807, -11050.501293003714, 29053.289181386135, 28082.150588291956, -187500.02235174447, 44873.339816730004, 12463.80209491278, -24615.43972676274, -11677.490076719532, 5682.50634461717, 10490.79126009837, -187500.02235174447, 13282.4347355884, -30490.327535906737, 0.154, 0.996, 0.15, 192.0, 0.0, 0.0, 0.0, 0.0, 0.0, 0.0, 0.0, 0.0, 0.0, 1.6959351942343855E9, 0.0, 2023-09-28 16:06:34.234
106.0, 2293.825422981432, 21039.65235229163, 29885.981069324145, -11093.707215035822, 29054.138547675437, 27943.748586624693, -187500.02235174447, 44810.66552527732, 12412.236620454387, -24663.65243955284, -11724.3169813534, 5645.089524398986, 10445.39486710964, -187500.02235174447, 13603.852820855716, -30142.981427071267, 0.154, 0.996, 0.15, 192.0, 0.0, 0.0, 0.0, 0.0, 0.0, 0.0, 0.0, 0.0, 0.0, 1.695935194234491E9, 0.0, 2023-09-28 16:06:34.234
108.0, 2270.087870369896, 21020.094575893232, 29923.68846222025, -11056.312746562095, 29054.004437208707, 28043.12444247299, -187500.02235174447, 44815.35939161294, 12464.584405968715, -24625.654473978815, -11678.808829642396, 5672.358652634461, 10482.0740797608, -187500.02235174447, 13293.409442115957, -30466.433521084015, 0.154, 0.996, 0.15, 192.0, 0.0, 0.0, 0.0, 0.0, 0.0, 0.0, 0.0, 0.0, 0.0, 1.6959351942345152E9, 0.0, 2023-09-28 16:06:34.234
110.0, 2291.4114345802586, 21047.967201229003, 29933.076194891477, -11099.33985463856, 29040.52633530216, 27949.023598316147, -187500.02235174447, 44843.76845881563, 12401.641893582571, -24662.959535474725, -11730.4190075897, 5648.956376189754, 10443.137340919655, -187500.02235174447, 13594.3086259733, -30144.769566627692, 0.154, 0.996, 0.15, 192.0, 0.0, 0.0, 0.0, 0.0, 0.0, 0.0, 0.0, 0.0, 0.0, 1.695935194234534E9, 0.0, 2023-09-28 16:06:34.234
112.0, 2275.2287715946163, 21065.848596793247, 29856.633228854327, -11052.267080815684, 29053.26682964168, 28028.148773687935, -187500.02235174447, 44767.079623589474, 12488.85840044718, -24597.737145154137, -11675.187847040635, 5681.925199261332, 10482.78933558337, -187500.02235174447, 13284.28993037819, -30463.773663493834, 0.15, 1.002, 0.156, 192.0, 2.0, 88.0, 15.5, 40.0, 2.0, 112.0, 0.0, 0.0, 0.0, 1.6959351942345529E9, 0.0, 2023-09-28 16:06:34.234
114.0, 2284.5718007769347, 21058.718390312006, 29982.764122815624, -11103.787851785166, 29031.07154739756, 27978.48319750824, -187500.02235174447, 44886.43793898082, 12393.282341156286, -24645.92750619978, -11732.207147146124, 5656.868893726933, 10428.25107911242, -187500.02235174447, 13580.204675222001, -30167.568345972104, 0.15, 1.002, 0.156, 192.0, 0.0, 0.0, 0.0, 0.0, 0.0, 0.0, 0.0, 0.0, 0.0, 1.695935194234574E9, 0.0, 2023-09-28 16:06:34.234
116.0, 2290.562068290957, 21063.903995025637, 29801.960861916647, -11050.814217426088, 29058.36302737749, 28005.72997399926, -187500.02235174447, 44720.878567800355, 12478.218970086453, -24607.86248539239, -11678.36179475329, 5675.063213713553, 10471.814629055814, -187500.02235174447, 13311.693169080398, -30431.676558456013, 0.15, 1.002, 0.156, 192.0, 0.0, 0.0, 0.0, 0.0, 0.0, 0.0, 0.0, 0.0, 0.0, 1.6959351942345915E9, 0.0, 2023-09-28 16:06:34.234
118.0, 2279.050919896474, 21031.695131265536, 30024.60658843596, -11097.775232526688, 29024.298968827603, 28008.546293800628, -187500.02235174447, 44925.50878828869, 12406.156945962543, -24632.78468046006, -11726.015713932004, 5674.4820683577145, 10447.317117132798, -187500.02235174447, 13548.06286669527, -30206.326270857608, 0.15, 1.002, 0.156, 192.0, 0.0, 0.0, 0.0, 0.0, 0.0, 0.0, 0.0, 0.0, 0.0, 1.6959351942346094E9, 0.0, 2023-09-28 16:06:34.234
120.0, 2292.2831526140158, 21060.528881612885, 29757.03385556148, -11048.08730460254, 29060.151166933916, 27991.178988358857, -187500.02235174447, 44692.26833489756, 12467.311318792263, -24605.00146210211, -11691.348158281822, 5669.4305741108155, 10465.399678397142, -187500.02235174447, 13341.599803161598, -30392.046915536754, 0.15, 1.002, 0.156, 192.0, 0.0, 0.0, 0.0, 0.0, 0.0, 0.0, 0.0, 0.0, 0.0, 1.6959351942346268E9, 0.0, 2023-09-28 16:06:34.234
122.0, 2254.2851870399936, 21033.326808610775, 30068.013676168168, -11099.652779060934, 29015.246512323203, 28035.994235991748, -187500.02235174447, 44980.024693015184, 12391.874181255602, -24630.236581592155, -11735.470501836598, 5670.950492733776, 10424.92066918858, -187500.02235174447, 13525.800529217784, -30224.431183866407, 0.152, 1.004, 0.152, 192.0, 2.0, 96.0, 15.5, 48.0, 2.0, 96.0, 0.0, 0.0, 0.0, 1.695935194234645E9, 0.0, 2023-09-28 16:06:34.234
124.0, 2281.6884257422003, 21052.41519837561, 29714.051450973926, -11052.580005238058, 29058.541841333135, 27962.993438600715, -187500.02235174447, 44680.77953824753, 12457.387144254106, -24595.658432919794, -11723.132338897269, 5654.477257070214, 10452.681535802072, -187500.02235174447, 13387.018547894782, -30327.67389150547, 0.152, 1.004, 0.152, 192.0, 0.0, 0.0, 0.0, 0.0, 0.0, 0.0, 0.0, 0.0, 0.0, 1.6959351942346628E9, 0.0, 2023-09-28 16:06:34.234
126.0, 2264.410527278248, 21044.882660494168, 30080.016562940666, -11084.833572487065, 29021.102669370495, 28052.132195488477, -187500.02235174447, 44986.730216351774, 12400.412547637528, -24616.691424452238, -11718.12554813928, 5673.342129390494, 10441.706829274515, -187500.02235174447, 13486.461458976444, -30253.46609991385, 0.152, 1.004, 0.152, 192.0, 0.0, 0.0, 0.0, 0.0, 0.0, 0.0, 0.0, 0.0, 0.0, 1.695935194234682E9, 0.0, 2023-09-28 16:06:34.234
128.0, 2324.670830329756, 21082.008908034433, 29697.488808332542, -11044.555728978603, 29067.102559459516, 27951.549345439595, -187500.02235174447, 44654.963273401656, 12464.025612357333, -24611.81874416098, -11708.98368465706, 5669.6093880664575, 10454.112047447212, -187500.02235174447, 13408.409167338512, -30298.169588824465, 0.152, 1.004, 0.152, 192.0, 0.0, 0.0, 0.0, 0.0, 0.0, 0.0, 0.0, 0.0, 0.0, 1.6959351942346995E9, 0.0, 2023-09-28 16:06:34.234
130.0, 2247.266739281027, 21029.057625419813, 30098.09912420501, -11072.182485125362, 29034.156088132393, 28084.07283831511, -187500.02235174447, 44998.30841997963, 12406.581629107193, -24612.533999983552, -11712.135280625258, 5691.491745888204, 10453.0168119689, -187500.02235174447, 13434.04661822875, -30314.48636227684, 0.152, 1.004, 0.152, 192.0, 0.0, 0.0, 0.0, 0.0, 0.0, 0.0, 0.0, 0.0, 0.0, 1.695935194234717E9, 0.0, 2023-09-28 16:06:34.234
132.0, 2283.700082743178, 21085.07109702481, 29692.50436931901, -11046.455627257303, 29078.457245642814, 27945.78259537013, -187500.02235174447, 44659.768898459544, 12444.84781561468, -24628.49314552464, -11703.753376454519, 5650.856274468455, 10454.40262012513, -187500.02235174447, 13439.589850853665, -30269.08996928811, 0.154, 0.996, 0.15, 192.0, 2.0, 104.0, 15.5, 16.0, 2.0, 88.0, 0.0, 0.0, 0.0, 1.6959351942347367E9, 0.0, 2023-09-28 16:06:34.234
134.0, 2249.4572102376474, 21019.82635495977, 30104.42466788586, -11070.28258684666, 29032.949093931806, 28100.65783270095, -187500.02235174447, 45012.90410910894, 12417.086949001188, -24608.644796448327, -11703.283989820957, 5689.3906819094045, 10456.056649214823, -187500.02235174447, 13388.538466517743, -30368.421121647494, 0.154, 0.996, 0.15, 192.0, 0.0, 0.0, 0.0, 0.0, 0.0, 0.0, 0.0, 0.0, 0.0, 1.6959351942347543E9, 0.0, 2023-09-28 16:06:34.234
136.0, 2306.185937665217, 21077.538559143373, 29706.094229947834, -11066.102810633518, 29060.59820182302, 27929.622284128942, -187500.02235174447, 44677.2926661125, 12439.550452178772, -24633.20936360471, -11714.102234137325, 5650.923329701821, 10439.918689718092, -187500.02235174447, 13492.608188701653, -30222.307768143153, 0.154, 0.996, 0.15, 192.0, 0.0, 0.0, 0.0, 0.0, 0.0, 0.0, 0.0, 0.0, 0.0, 1.6959351942347724E9, 0.0, 2023-09-28 16:06:34.234
