%OpenBCI Raw EXG Data
%Number of channels = 16
%Sample Rate = 125 Hz
%Board = OpenBCI_GUI$BoardCytonSerialDaisy
Sample Index, EXG Channel 0, EXG Channel 1, EXG Channel 2, EXG Channel 3, EXG Channel 4, EXG Channel 5, EXG Channel 6, EXG Channel 7, EXG Channel 8, EXG Channel 9, EXG Channel 10, EXG Channel 11, EXG Channel 12, EXG Channel 13, EXG Channel 14, EXG Channel 15, Accel Channel 0, Accel Channel 1, Accel Channel 2, Other, Other, Other, Other, Other, Other, Other, Analog Channel 0, Analog Channel 1, Analog Channel 2, Timestamp, Other, Timestamp (Formatted)
208.0, 14124.067321308534, 33396.2331290523, -21995.502352178377, -19938.51601344538, -12199.760937662237, 16917.230715421523, -187500.02235174447, 15493.715166296384, 9090.074490317642, -30361.849708777634, -2829.216757919402, -12253.159255165965, 519.7451138192552, 1304.9842482786476, -24064.782150361796, -30906.561721153466, 0.0, 0.0, 0.0, 192.0, 0.0, 0.0, 0.0, 0.0, 0.0, 0.0, 0.0, 0.0, 0.0, 1.695684470904104E9, 0.0, 2023-09-25 18:27:50.904
210.0, 14128.001228332667, 33406.93961464639, -22000.442087703002, -19938.158385534094, -12203.024292352711, 16915.889610754206, -187500.02235174447, 15480.505285323297, 9097.159993309975, -30353.065473206698, -2819.2031764034245, -12240.32935384862, 534.3855064374812, 1319.9599170637032, -24060.110635770638, -30902.627814129333, 0.0, 0.0, 0.0, 192.0, 0.0, 0.0, 0.0, 0.0, 0.0, 0.0, 0.0, 0.0, 0.0, 1.695684470904111E9, 0.0, 2023-09-25 18:27:50.904
212.0, 14133.343295257486, 33400.122332587525, -21991.74725910989, -19941.086464057742, -12195.31294051563, 16918.527116599933, -187500.02235174447, 15491.479991850852, 9097.964656110365, -30351.634961561558, -2819.381990359067, -12241.84927247158, 531.7703523362103, 1326.5536816780188, -24062.166996260527, -30901.577282139933, 0.0, 0.0, 0.0, 192.0, 0.0, 0.0, 0.0, 0.0, 0.0, 0.0, 0.0, 0.0, 0.0, 1.695684470904115E9, 0.0, 2023-09-25 18:27:50.904
214.0, 14124.827280620013, 33397.0824953416, -21999.570369669244, -19950.51890021788, -12194.50827771524, 16920.44936662309, -187500.02235174447, 15492.955206984903, 9094.477783975337, -30349.66800804949, -2818.2420513918464, -12237.42362706943, 537.2018262388499, 1312.9414693047368, -24057.026095035806, -30895.7434768371, 0.052000000000000005, 0.908, 0.444, 192.0, 0.5, 80.0, 14.0, 48.0, 6.5, 112.0, 0.0, 0.0, 0.0, 1.695684470904125E9, 0.0, 2023-09-25 18:27:50.904
216.0, 14116.26656249363, 33396.72486743032, -21996.39642195659, -19959.72781893347, -12190.239094524277, 16918.25889566647, -187500.02235174447, 15496.419727375476, 9084.285388503718, -30358.988685487355, -2823.1147316831034, -12243.771522494737, 524.1484074769506, 1304.4701581561756, -24060.870595082117, -30894.87175880334, 0.052000000000000005, 0.908, 0.444, 192.0, 0.0, 0.0, 0.0, 0.0, 0.0, 0.0, 0.0, 0.0, 0.0, 1.695684470904128E9, 0.0, 2023-09-25 18:27:50.904
218.0, 14115.573658415517, 33394.444989495874, -22007.5946459287, -19973.67530747358, -12203.739548175281, 16912.514497341454, -187500.02235174447, 15452.520901265252, 9084.575961181637, -30360.374493643583, -2815.7833595017623, -12244.75499925077, 530.7198203468109, 1313.7014286162173, -24065.251536995358, -30891.63075585732, 0.052000000000000005, 0.908, 0.444, 192.0, 0.0, 0.0, 0.0, 0.0, 0.0, 0.0, 0.0, 0.0, 0.0, 1.695684470904131E9, 0.0, 2023-09-25 18:27:50.904
220.0, 14121.116891040432, 33397.44012325288, -21997.536360923812, -19970.36724929419, -12186.908684600436, 16928.630105093733, -187500.02235174447, 15496.240913419833, 9086.252342015785, -30362.117929711098, -2812.899984467028, -12243.27978411672, 528.3728871790037, 1313.9472978052256, -24059.775359603806, -30879.046723728985, 0.052000000000000005, 0.908, 0.444, 192.0, 0.0, 0.0, 0.0, 0.0, 0.0, 0.0, 0.0, 0.0, 0.0, 1.695684470904135E9, 0.0, 2023-09-25 18:27:50.904
222.0, 14115.12662352641, 33390.533434216195, -22009.36043374067, -19978.503284275925, -12208.008731366246, 16916.001369476482, -187500.02235174447, 15468.547102039707, 9089.918028106455, -30358.67576106498, -2809.4578158209106, -12241.513996304751, 537.6488611279561, 1312.1368065043457, -24056.176728746505, -30877.05741847246, 0.052000000000000005, 0.908, 0.444, 192.0, 0.0, 0.0, 0.0, 0.0, 0.0, 0.0, 0.0, 0.0, 0.0, 1.695684470904138E9, 0.0, 2023-09-25 18:27:50.904
224.0, 14110.723329868715, 33389.95228886036, -22004.912436594062, -19979.643223243147, -12210.199202322865, 16915.73314854302, -187500.02235174447, 15461.841578703115, 9087.168763538451, -30365.381284401574, -2813.0117431893045, -12250.052362686678, 522.9190615319087, 1307.1076640019016, -24061.317629971225, -30880.7901597965, 0.054, 0.896, 0.444, 192.0, 0.5, 88.0, 14.0, 0.0, 6.5, 112.0, 0.0, 0.0, 0.0, 1.695684470904143E9, 0.0, 2023-09-25 18:27:50.904
0.0, 6003.298581039737, 16785.757754535407, -10153.458732778876, -9434.447817140559, -5728.595641684013, 8584.03099584949, -93750.01117587223, 11175.7381171868, 4545.450752431244, -15182.556531734053, -1403.8460140044706, -6123.081579575727, 267.63978810784675, 647.7312025703434, -12029.798272824082, -15441.233270315322, 0.068, 0.903, 0.439, 192.0, 1.0, 72.0, 14.0, 56.0, 6.5, 72.0, 0.0, 0.0, 0.0, 1.695684471074506E9, 0.0, 2023-09-25 18:27:51.074
2.0, 12006.060720212547, 33573.16953816051, -20261.744590013575, -18860.893709766115, -11463.047440415316, 17167.123218431858, -187500.02235174447, 22360.03695249998, 10029.428902796377, -28215.121116056576, -684.7680431327872, -7632.047847753507, 748.0681834302168, 2593.875240549474, -23414.324034967904, -29743.30988446592, 0.068, 0.903, 0.439, 192.0, 0.0, 0.0, 0.0, 0.0, 0.0, 0.0, 0.0, 0.0, 0.0, 1.695684471074515E9, 0.0, 2023-09-25 18:27:51.074
4.0, 11999.511659087142, 33566.97810494639, -20310.873724326342, -18873.678907594553, -11475.050327187817, 17152.326363602446, -187500.02235174447, 22366.80953106994, 10028.087798129058, -28217.53510445775, -684.0080838213067, -7629.276231441049, 751.1750759095045, 2592.9141155378957, -23420.224895504107, -29745.589762400363, 0.068, 0.903, 0.439, 192.0, 0.0, 0.0, 0.0, 0.0, 0.0, 0.0, 0.0, 0.0, 0.0, 1.695684471074519E9, 0.0, 2023-09-25 18:27:51.074
6.0, 11997.455298597253, 33564.5194130563, -20305.30813995697, -18880.049154764314, -11472.815152742285, 17146.716075744163, -187500.02235174447, 22360.506339133542, 10018.454196268822, -28230.49911624183, -708.0809125996724, -7645.771818849065, 732.4219623115018, 2577.8937432639295, -23445.37060801633, -29760.74424514106, 0.068, 0.903, 0.439, 192.0, 0.0, 0.0, 0.0, 0.0, 0.0, 0.0, 0.0, 0.0, 0.0, 1.695684471074522E9, 0.0, 2023-09-25 18:27:51.074
8.0, 11994.124888673412, 33562.507756055325, -20321.4460994537, -18881.569073387276, -11450.709277475988, 17141.91045068627, -187500.02235174447, 22374.4314759292, 10022.566917248598, -28231.124965086576, -703.319991030692, -7646.08474327144, 750.5715788092111, 2577.3125979080914, -23448.477500495614, -29762.331218997388, 0.098, 0.922, 0.42, 192.0, 1.5, 8.0, 14.0, 104.0, 6.5, 16.0, 0.0, 0.0, 0.0, 1.695684471074525E9, 0.0, 2023-09-25 18:27:51.074
10.0, 11995.577752063007, 33565.48053806788, -20289.527808371524, -18870.437904648534, -11491.74708029593, 17152.192253135712, -187500.02235174447, 22370.296403204968, 10011.323989787577, -28227.906313885014, -710.3384387896584, -7645.838874082431, 727.482226786879, 2584.979246256262, -23439.44739573567, -29758.03968406197, 0.098, 0.922, 0.42, 192.0, 0.0, 0.0, 0.0, 0.0, 0.0, 0.0, 0.0, 0.0, 0.0, 1.695684471074529E9, 0.0, 2023-09-25 18:27:51.074
12.0, 11998.863458497937, 33568.11804391361, -20319.03211105253, -18870.951994771003, -11476.860818488696, 17148.504215300585, -187500.02235174447, 22388.088391791392, 10010.69814094283, -28224.844124894636, -704.2811160422702, -7642.79903683651, 725.224700596893, 2583.8169555445857, -23422.97416007211, -29752.31763748141, 0.098, 0.922, 0.42, 192.0, 0.0, 0.0, 0.0, 0.0, 0.0, 0.0, 0.0, 0.0, 0.0, 1.695684471074532E9, 0.0, 2023-09-25 18:27:51.074
14.0, 11993.633150295396, 33563.625343278094, -20293.595825862387, -18878.752753585908, -11477.039632444339, 17143.743293731608, -187500.02235174447, 22366.273089203012, 10006.943047874338, -28229.9626743749, -723.3248023181918, -7654.332536975448, 719.5920609941555, 2576.753804296709, -23443.470709737627, -29769.79670164546, 0.098, 0.922, 0.42, 192.0, 0.0, 0.0, 0.0, 0.0, 0.0, 0.0, 0.0, 0.0, 0.0, 1.695684471074535E9, 0.0, 2023-09-25 18:27:51.074
16.0, 12001.411557365842, 33572.81191024923, -20307.05157602448, -18873.96948027247, -11464.388545082635, 17143.519776287052, -187500.02235174447, 22403.935778610205, 9994.359015746, -28229.15801157451, -712.3053923017254, -7649.415153195281, 740.580349037689, 2575.882086262952, -23438.285105023995, -29761.057169563435, 0.098, 0.922, 0.42, 192.0, 0.0, 0.0, 0.0, 0.0, 0.0, 0.0, 0.0, 0.0, 0.0, 1.695684471134769E9, 0.0, 2023-09-25 18:27:51.134
18.0, 12014.733197061205, 33579.8750614971, -20330.67736991374, -18878.082201252248, -11478.112516178193, 17156.416732837766, -187500.02235174447, 22400.985348342103, 9999.835193137551, -28220.083203325656, -705.577517220678, -7645.838874082431, 743.6872415169765, 2581.291208421136, -23431.53487819849, -29751.89295433676, 0.108, 0.922, 0.41600000000000004, 192.0, 1.5, 48.0, 14.0, 104.0, 6.5, 0.0, 0.0, 0.0, 0.0, 1.69568447113478E9, 0.0, 2023-09-25 18:27:51.134
20.0, 12008.586467335996, 33580.344448130665, -20291.561817116955, -18884.02776527736, -11470.89290271913, 17143.25155535359, -187500.02235174447, 22397.029089573516, 9991.766213389184, -28221.82663939317, -704.5046334868233, -7646.554129905001, 743.6648897725213, 2580.0842142205497, -23439.11211956884, -29753.859907848826, 0.108, 0.922, 0.41600000000000004, 192.0, 0.0, 0.0, 0.0, 0.0, 0.0, 0.0, 0.0, 0.0, 0.0, 1.695684471134783E9, 0.0, 2023-09-25 18:27:51.134
22.0, 12019.002380252168, 33588.25696566784, -20301.06130851046, -18887.849913579215, -11474.670347532076, 17154.62859328134, -187500.02235174447, 22403.108764065357, 9995.16367854639, -28214.115287556087, -687.1373280450497, -7635.467664655169, 730.7455814773538, 2590.455423647812, -23420.940151326675, -29741.812317587417, 0.108, 0.922, 0.41600000000000004, 192.0, 0.0, 0.0, 0.0, 0.0, 0.0, 0.0, 0.0, 0.0, 0.0, 1.695684471134787E9, 0.0, 2023-09-25 18:27:51.134
24.0, 12018.510641874152, 33587.89933775656, -20282.464657123644, -18893.281387481857, -11484.03572845885, 17148.750084489595, -187500.02235174447, 22402.460563476154, 9982.222018506769, -28213.53414220025, -681.6387989090442, -7633.9030425432975, 742.7484682498537, 2590.097795736527, -23426.416328718227, -29739.152459997233, 0.108, 0.922, 0.41600000000000004, 192.0, 0.0, 0.0, 0.0, 0.0, 0.0, 0.0, 0.0, 0.0, 0.0, 1.69568447113479E9, 0.0, 2023-09-25 18:27:51.134
26.0, 12018.66710408534, 33586.31236390023, -20334.678332171243, -18901.618588163685, -11467.763658495387, 17149.375933334344, -187500.02235174447, 22405.254531533068, 9966.888721810428, -28209.68964215394, -690.2218687798821, -7631.064370997474, 731.2820233442811, 2591.818880059586, -23434.01592183303, -29735.732643095573, 0.108, 0.922, 0.41600000000000004, 192.0, 0.0, 0.0, 0.0, 0.0, 0.0, 0.0, 0.0, 0.0, 0.0, 1.695684471134795E9, 0.0, 2023-09-25 18:27:51.134
28.0, 12024.635019854906, 33588.79340753477, -20282.554064101467, -18894.3095677268, -11475.787934754842, 17150.828796723938, -187500.02235174447, 22416.117479338347, 9970.353242201, -28214.96465384539, -693.5522787037229, -7638.865129812376, 750.3704131091134, 2585.873316034474, -23462.58145124691, -29741.141765253757, 0.10200000000000001, 0.916, 0.426, 192.0, 1.5, 24.0, 14.0, 80.0, 6.5, 40.0, 0.0, 0.0, 0.0, 1.695684471134798E9, 0.0, 2023-09-25 18:27:51.134
30.0, 12039.051895028579, 33603.433800153, -20291.49476188359, -18895.963596816495, -11469.238873629436, 17142.62570650884, -187500.02235174447, 22406.461525733655, 9970.509704412187, -28210.315490998688, -691.9876565918513, -7636.562900133479, 734.5677297792113, 2584.934542767351, -23420.11313678183, -29742.952256554636, 0.10200000000000001, 0.916, 0.426, 192.0, 0.0, 0.0, 0.0, 0.0, 0.0, 0.0, 0.0, 0.0, 0.0, 1.695684471194274E9, 0.0, 2023-09-25 18:27:51.194
32.0, 12010.821641781527, 33577.483424840386, -20291.20418920567, -18886.3076432118, -11477.509019077901, 17146.38079957733, -187500.02235174447, 22423.024168375036, 9955.444628649311, -28206.87332235257, -691.1382903025496, -7632.360772175882, 753.0079189548396, 2586.8344410460522, -23420.403709459748, -29744.427471688687, 0.10200000000000001, 0.916, 0.426, 192.0, 0.0, 0.0, 0.0, 0.0, 0.0, 0.0, 0.0, 0.0, 0.0, 1.695684471194322E9, 0.0, 2023-09-25 18:27:51.194
34.0, 12009.502888858664, 33575.11413992812, -20346.41299801028, -18899.182248018056, -11465.304966605303, 17134.69083722721, -187500.02235174447, 22422.53242999702, 9935.640983061909, -28221.87134288208, -713.4006277800355, -7641.569690891468, 749.9233782200073, 2572.328158894558, -23440.140299813786, -29755.379826471788, 0.10200000000000001, 0.916, 0.426, 192.0, 0.0, 0.0, 0.0, 0.0, 0.0, 0.0, 0.0, 0.0, 0.0, 1.695684471194326E9, 0.0, 2023-09-25 18:27:51.194
36.0, 12027.920726289836, 33595.677744827, -20256.134302155293, -18871.644898849117, -11462.98038518195, 17157.48961657162, -187500.02235174447, 22447.67814250924, 9941.675954064842, -28208.214427019888, -699.5872497066557, -7633.813635565476, 740.5356455487783, 2590.6118858589994, -23434.64177067778, -29747.78023335698, 0.10200000000000001, 0.916, 0.426, 192.0, 0.0, 0.0, 0.0, 0.0, 0.0, 0.0, 0.0, 0.0, 0.0, 1.695684471194329E9, 0.0, 2023-09-25 18:27:51.194
38.0, 12023.964467521248, 33593.822550037214, -20304.25760796757, -18879.289195452835, -11481.353519124214, 17154.38272409233, -187500.02235174447, 22450.405055332787, 9936.892680751405, -28204.504037440307, -704.7057991869211, -7632.0254960090515, 747.5987967966553, 2588.6449323469324, -23421.700110638158, -29750.998884558547, 0.112, 0.918, 0.422, 192.0, 1.5, 64.0, 14.0, 88.0, 6.5, 24.0, 0.0, 0.0, 0.0, 1.695684471194332E9, 0.0, 2023-09-25 18:27:51.194
40.0, 12025.909069288859, 33594.31428841523, -20286.264453681048, -18873.857721550194, -11461.907501448095, 17154.58388979243, -187500.02235174447, 22474.36612538888, 9939.753704041685, -28201.06186879419, -704.6834474424658, -7630.192652963717, 733.0701629007058, 2600.4019499304236, -23428.87502060831, -29744.02514028849, 0.112, 0.918, 0.422, 192.0, 0.0, 0.0, 0.0, 0.0, 0.0, 0.0, 0.0, 0.0, 0.0, 1.695684471194335E9, 0.0, 2023-09-25 18:27:51.194
42.0, 12030.66999085784, 33599.008154750845, -20274.59684307538, -18871.957823271492, -11468.07658291776, 17161.088247428925, -187500.02235174447, 22496.941387288738, 9937.473826107243, -28200.30190948271, -695.2957147712368, -7622.168376704261, 724.0400581407616, 2596.915077795396, -23408.423174431704, -29735.777346584484, 0.112, 0.918, 0.422, 192.0, 0.0, 0.0, 0.0, 0.0, 0.0, 0.0, 0.0, 0.0, 0.0, 1.695684471194338E9, 0.0, 2023-09-25 18:27:51.194
44.0, 12029.060665257057, 33594.381343648594, -20284.364555402346, -18878.238663463435, -11457.817132212775, 17155.88029097084, -187500.02235174447, 22494.862675054395, 9930.567137070553, -28205.19694151842, -701.1295200740719, -7629.835025052432, 743.5978345391553, 2589.9860370142505, -23425.45520370665, -29742.348759454344, 0.112, 0.918, 0.422, 192.0, 0.0, 0.0, 0.0, 0.0, 0.0, 0.0, 0.0, 0.0, 0.0, 1.695684471194342E9, 0.0, 2023-09-25 18:27:51.194
46.0, 12040.325944462533, 33603.16557921953, -20297.59678811989, -18875.042364006327, -11474.066850431784, 17150.985258935125, -187500.02235174447, 22521.55065793403, 9934.433988861321, -28199.653708893504, -696.0109705938066, -7621.967211004164, 737.741677491865, 2594.9257725388734, -23431.06549156493, -29743.533401910474, 0.112, 0.918, 0.422, 192.0, 0.0, 0.0, 0.0, 0.0, 0.0, 0.0, 0.0, 0.0, 0.0, 1.695684471253919E9, 0.0, 2023-09-25 18:27:51.253
48.0, 12031.854633313971, 33595.07424772671, -20281.324718156426, -18870.907291282092, -11471.518751563877, 17152.59458453591, -187500.02235174447, 22485.743163316627, 9925.560346312564, -28196.97149955887, -694.8039763932201, -7621.028437737041, 755.2654451448257, 2596.8480225620297, -23419.084956536884, -29740.627675131283, 0.112, 0.926, 0.422, 192.0, 1.5, 64.0, 14.0, 120.0, 6.5, 24.0, 0.0, 0.0, 0.0, 1.695684471253929E9, 0.0, 2023-09-25 18:27:51.253
50.0, 12034.00040078168, 33599.58930010668, -20264.046819692474, -18865.34170691272, -11464.455600316001, 17156.64025028232, -187500.02235174447, 22512.654663640817, 9924.643924789898, -28198.96080481539, -689.6183716795888, -7621.900155770798, 739.6862792594766, 2591.2377347037477, -23407.998491287053, -29743.064015276912, 0.112, 0.926, 0.422, 192.0, 0.0, 0.0, 0.0, 0.0, 0.0, 0.0, 0.0, 0.0, 0.0, 1.695684471253932E9, 0.0, 2023-09-25 18:27:51.253
52.0, 12032.882813558916, 33594.33664015969, -20272.16050292975, -18865.87814877965, -11463.27095785987, 17152.39341883581, -187500.02235174447, 22505.770326348582, 9925.314477123557, -28201.553607172205, -700.5036712293233, -7628.5609756184795, 743.0390409277727, 2595.775138828175, -23420.001378059555, -29751.2224020031, 0.112, 0.926, 0.422, 192.0, 0.0, 0.0, 0.0, 0.0, 0.0, 0.0, 0.0, 0.0, 0.0, 1.695684471253936E9, 0.0, 2023-09-25 18:27:51.253
54.0, 12029.060665257057, 33593.10729421464, -20281.14590420078, -18864.02295398986, -11467.093106161727, 17155.142683403814, -187500.02235174447, 22518.846096854937, 9920.799424743584, -28206.806267119202, -704.3481712756361, -7635.378257677348, 756.2042184119485, 2587.683807335354, -23416.73802336908, -29758.486718951073, 0.112, 0.926, 0.422, 192.0, 0.0, 0.0, 0.0, 0.0, 0.0, 0.0, 0.0, 0.0, 0.0, 1.695684471253939E9, 0.0, 2023-09-25 18:27:51.253
56.0, 12029.127720490424, 33591.16269244703, -20284.141037957794, -18861.653669077597, -11465.863760216685, 17151.566404290963, -187500.02235174447, 22491.912244786294, 9918.474843320233, -28203.16293277299, -711.0760463566836, -7640.049772268507, 736.8252559691973, 2596.5350981396555, -23418.146183269764, -29757.100910794845, 0.112, 0.926, 0.422, 192.0, 0.0, 0.0, 0.0, 0.0, 0.0, 0.0, 0.0, 0.0, 0.0, 1.695684471253942E9, 0.0, 2023-09-25 18:27:51.253
58.0, 12042.494063674696, 33598.851692539654, -20274.708601797654, -18857.652706820096, -11472.613987042188, 17157.06493342697, -187500.02235174447, 22505.904436815315, 9933.159939427369, -28201.978290316856, -703.387046264058, -7638.753371090099, 755.7571835228424, 2589.136670724949, -23421.230724004596, -29761.146576541258, 0.114, 0.93, 0.424, 192.0, 1.5, 72.0, 14.5, 8.0, 6.5, 32.0, 0.0, 0.0, 0.0, 1.695684471253946E9, 0.0, 2023-09-25 18:27:51.253
60.0, 12031.608764124961, 33593.26375642583, -20306.850410324387, -18871.331974426743, -11486.740289537942, 17142.4468925532, -187500.02235174447, 22488.626538351364, 9932.087055693515, -28202.425325205964, -704.3705230200915, -7643.067257769973, 743.6201862836107, 2591.8859352929517, -23430.819622375922, -29765.683980665683, 0.114, 0.93, 0.424, 192.0, 0.0, 0.0, 0.0, 0.0, 0.0, 0.0, 0.0, 0.0, 0.0, 1.695684471314205E9, 0.0, 2023-09-25 18:27:51.314
62.0, 12040.840034585004, 33605.445457153975, -20265.499683082067, -18855.73045679694, -11467.026050928362, 17163.234014896636, -187500.02235174447, 22530.02196908259, 9935.104541194982, -28196.97149955887, -697.7991101502312, -7636.048810011007, 763.9826254823954, 2594.4787376497675, -23419.599046659358, -29753.055245048436, 0.114, 0.93, 0.424, 192.0, 0.0, 0.0, 0.0, 0.0, 0.0, 0.0, 0.0, 0.0, 0.0, 1.695684471314225E9, 0.0, 2023-09-25 18:27:51.314
64.0, 12030.558232135563, 33596.81768379422, -20287.87377928183, -18872.717782582975, -11470.959957952495, 17160.97648870665, -187500.02235174447, 22516.07448054248, 9935.082189450526, -28204.995775818323, -700.4589677404127, -7638.932185045742, 748.6046252971441, 2597.1609469844043, -23411.172438999707, -29745.679169378185, 0.114, 0.93, 0.424, 192.0, 0.0, 0.0, 0.0, 0.0, 0.0, 0.0, 0.0, 0.0, 0.0, 1.695684471314229E9, 0.0, 2023-09-25 18:27:51.314
66.0, 12041.912918318858, 33608.95468103346, -20272.048744207474, -18870.840236048727, -11475.296196376825, 17149.957078690182, -187500.02235174447, 22511.335910717957, 9938.546709841099, -28194.646918135517, -697.3297235166698, -7634.864167554876, 750.2810061312922, 2603.0618075206053, -23412.044157033462, -29741.342930953855, 0.114, 0.93, 0.424, 192.0, 0.0, 0.0, 0.0, 0.0, 0.0, 0.0, 0.0, 0.0, 0.0, 1.695684471314232E9, 0.0, 2023-09-25 18:27:51.314
68.0, 12036.302630460577, 33601.93623327449, -20287.940834515197, -18884.273634466368, -11485.354481381713, 17139.697627985195, -187500.02235174447, 22496.270834955078, 9937.674991807342, -28198.424362948463, -697.352075261125, -7636.294679200016, 746.3694508516135, 2591.4389004038458, -23420.73898562658, -29751.781195614483, 0.108, 0.92, 0.41600000000000004, 192.0, 1.5, 48.0, 14.0, 96.0, 6.5, 0.0, 0.0, 0.0, 0.0, 1.695684471314235E9, 0.0, 2023-09-25 18:27:51.314
70.0, 12036.548499649585, 33602.04799199677, -20293.30525318447, -18885.413573433587, -11493.043481474338, 17134.892002927303, -187500.02235174447, 22506.84321008244, 9942.592375587508, -28197.373830959063, -704.5940404646445, -7638.172225734262, 747.1517619075491, 2594.0540545051163, -23430.461994464637, -29755.960971827626, 0.108, 0.92, 0.41600000000000004, 192.0, 0.0, 0.0, 0.0, 0.0, 0.0, 0.0, 0.0, 0.0, 0.0, 1.695684471314239E9, 0.0, 2023-09-25 18:27:51.314
72.0, 12037.844900827993, 33602.45032339696, -20297.865009053352, -18887.78285834585, -11487.857876760707, 17145.464378054665, -187500.02235174447, 22513.571085163487, 9946.526282611643, -28201.73242112785, -705.1975375649379, -7639.51333040158, 735.5065030463342, 2589.6954643363315, -23424.15880252824, -29747.400253701242, 0.108, 0.92, 0.41600000000000004, 192.0, 0.0, 0.0, 0.0, 0.0, 0.0, 0.0, 0.0, 0.0, 0.0, 1.695684471314242E9, 0.0, 2023-09-25 18:27:51.314
74.0, 12035.676781615828, 33604.104352486655, -20288.991366504593, -18890.800343847317, -11498.564362354799, 17133.573250004443, -187500.02235174447, 22520.477774200175, 9954.639965848919, -28203.72172638437, -706.225717809882, -7646.062391526984, 738.7922094812643, 2593.3387986825464, -23424.248209506062, -29751.356512469833, 0.108, 0.92, 0.41600000000000004, 192.0, 0.0, 0.0, 0.0, 0.0, 0.0, 0.0, 0.0, 0.0, 0.0, 1.695684471314245E9, 0.0, 2023-09-25 18:27:51.314
76.0, 12033.95569729277, 33602.60678560815, -20300.211942221158, -18896.321224727777, -11499.950170511029, 17133.841470937907, -187500.02235174447, 22521.684768400763, 9965.122933998458, -28199.497246682316, -704.7057991869211, -7644.520121159569, 740.1333141485827, 2594.4787376497675, -23420.180192015196, -29752.31763748141, 0.108, 0.92, 0.41600000000000004, 192.0, 0.0, 0.0, 0.0, 0.0, 0.0, 0.0, 0.0, 0.0, 0.0, 1.695684471374592E9, 0.0, 2023-09-25 18:27:51.374
78.0, 12033.978049037225, 33596.86238728314, -20283.939872257695, -18898.377585217666, -11511.796595072341, 17123.269095810545, -187500.02235174447, 22517.32617823198, 9960.071439751559, -28210.58371193215, -715.769912692298, -7659.3169759889815, 730.3879535660689, 2579.324254909069, -23427.668026407722, -29766.84627137736, 0.10200000000000001, 0.914, 0.41200000000000003, 192.0, 1.5, 24.0, 14.0, 72.0, 6.0, 112.0, 0.0, 0.0, 0.0, 1.695684471374603E9, 0.0, 2023-09-25 18:27:51.374
80.0, 12033.173386236833, 33600.66218384054, -20290.913616527752, -18895.53891367184, -11509.404958415624, 17138.37887506233, -187500.02235174447, 22548.819786169504, 9969.235654978234, -28205.91219734099, -709.9808108783735, -7652.834970096943, 753.3208433772139, 2581.648836332421, -23416.805078602443, -29756.18448927218, 0.10200000000000001, 0.914, 0.41200000000000003, 192.0, 0.0, 0.0, 0.0, 0.0, 0.0, 0.0, 0.0, 0.0, 0.0, 1.695684471374606E9, 0.0, 2023-09-25 18:27:51.374
82.0, 12035.855595571471, 33602.02564025231, -20288.678442082222, -18896.298872983323, -11507.66152234811, 17125.3925115338, -187500.02235174447, 22545.154100078835, 9972.096678268514, -28209.175552031465, -717.5133487598121, -7660.568673678479, 749.1410671640715, 2578.8325165310525, -23422.9294565832, -29763.493509709064, 0.10200000000000001, 0.914, 0.41200000000000003, 192.0, 0.0, 0.0, 0.0, 0.0, 0.0, 0.0, 0.0, 0.0, 0.0, 1.69568447137461E9, 0.0, 2023-09-25 18:27:51.374
84.0, 12036.95083104978, 33605.19958796496, -20275.803837275966, -18893.92958807106, -11530.437949948067, 17122.173860332234, -187500.02235174447, 22559.816844441517, 9979.048070794115, -28201.53125542775, -708.3938370220467, -7652.834970096943, 763.9155702490294, 2595.0822347500607, -23413.854648334345, -29762.688846908673, 0.10200000000000001, 0.914, 0.41200000000000003, 192.0, 0.0, 0.0, 0.0, 0.0, 0.0, 0.0, 0.0, 0.0, 0.0, 1.695684471374613E9, 0.0, 2023-09-25 18:27:51.374
86.0, 12024.031522754613, 33589.218090679424, -20302.692985855698, -18911.58746619075, -11540.496234952956, 17108.785165403508, -187500.02235174447, 22550.518518748107, 9970.286186967634, -28210.91898809898, -723.9282994184852, -7666.402478981314, 723.3695058071024, 2581.8947055214294, -23429.389110730783, -29773.395332502765, 0.10200000000000001, 0.914, 0.41200000000000003, 192.0, 0.0, 0.0, 0.0, 0.0, 0.0, 0.0, 0.0, 0.0, 0.0, 1.695684471374616E9, 0.0, 2023-09-25 18:27:51.374
88.0, 12036.23557522721, 33605.60191936516, -20275.803837275966, -18898.556399173307, -11531.108502281726, 17121.190383576202, -187500.02235174447, 22552.485472260174, 9972.409602690888, -28211.790706132735, -724.867072685608, -7667.810638881999, 718.5638807492114, 2563.2757023901586, -23423.60000891686, -29779.497358739063, 0.1, 0.92, 0.41200000000000003, 192.0, 1.5, 16.0, 14.0, 96.0, 6.0, 112.0, 0.0, 0.0, 0.0, 1.69568447137462E9, 0.0, 2023-09-25 18:27:51.374
90.0, 12038.649563628383, 33603.52320713082, -20257.408351589245, -18892.387317703644, -11524.939420812061, 17121.793880676494, -187500.02235174447, 22550.898498403847, 9981.640873150931, -28199.072563537666, -708.7514649333317, -7653.237301497138, 748.7610875083313, 2591.5059556372116, -23399.10249699384, -29754.463404949118, 0.1, 0.92, 0.41200000000000003, 192.0, 0.0, 0.0, 0.0, 0.0, 0.0, 0.0, 0.0, 0.0, 0.0, 1.695684471434811E9, 0.0, 2023-09-25 18:27:51.434
92.0, 12033.218089725744, 33602.718544330426, -20283.179912946216, -18901.618588163685, -11526.526394668388, 17116.496517240586, -187500.02235174447, 22561.71674272022, 9981.484410939744, -28201.82182810567, -711.2101568234154, -7656.232435254149, 752.2032561544486, 2582.945237510829, -23411.61947388881, -29770.46725397912, 0.1, 0.92, 0.41200000000000003, 192.0, 0.0, 0.0, 0.0, 0.0, 0.0, 0.0, 0.0, 0.0, 0.0, 1.695684471434823E9, 0.0, 2023-09-25 18:27:51.434
94.0, 12034.335676948509, 33602.785599563795, -20261.789293502487, -18896.07535553877, -11522.681894622076, 17117.56940097444, -187500.02235174447, 22549.89266990336, 9981.551466173109, -28205.241645007332, -721.3802005505802, -7664.346118491426, 732.0866861446722, 2570.7858885271417, -23416.648616391256, -29773.26122203603, 0.1, 0.92, 0.41200000000000003, 192.0, 0.0, 0.0, 0.0, 0.0, 0.0, 0.0, 0.0, 0.0, 0.0, 1.695684471434826E9, 0.0, 2023-09-25 18:27:51.434
96.0, 12038.00136303918, 33609.334660689194, -20272.451075607667, -18888.319300212777, -11503.772318812886, 17115.468336995644, -187500.02235174447, 22560.75561770864, 9989.732204643751, -28206.493342696827, -714.2946975582478, -7656.455952698702, 745.1177531621163, 2586.879144534963, -23420.180192015196, -29772.948297613657, 0.1, 0.92, 0.41200000000000003, 192.0, 0.0, 0.0, 0.0, 0.0, 0.0, 0.0, 0.0, 0.0, 0.0, 1.695684471434829E9, 0.0, 2023-09-25 18:27:51.434
98.0, 12046.00328755418, 33618.6329863826, -20243.974953171608, -18871.577843615752, -11502.162993212103, 17132.18744184821, -187500.02235174447, 22583.3308796085, 9989.128707543457, -28194.378697202053, -712.0818748571724, -7650.152760762306, 759.221703913415, 2595.5739731280773, -23413.318206467415, -29763.247640520054, 0.096, 0.924, 0.41200000000000003, 192.0, 1.5, 0.0, 14.0, 112.0, 6.0, 112.0, 0.0, 0.0, 0.0, 1.695684471434833E9, 0.0, 2023-09-25 18:27:51.434
100.0, 12053.66993590235, 33624.0868120297, -20260.15761615725, -18873.433038405543, -11508.220315959492, 17134.400264549287, -187500.02235174447, 22620.792403315594, 9998.225867536768, -28189.90834831099, -707.8350434106641, -7645.771818849065, 747.6882037744765, 2597.742092340242, -23394.76625856951, -29756.385654972277, 0.096, 0.924, 0.41200000000000003, 192.0, 0.0, 0.0, 0.0, 0.0, 0.0, 0.0, 0.0, 0.0, 0.0, 1.695684471434836E9, 0.0, 2023-09-25 18:27:51.434
102.0, 12045.690363131805, 33617.15777124855, -20255.575508543912, -18875.39999191761, -11507.080376992271, 17133.774415704538, -187500.02235174447, 22609.99651074368, 9993.844925623527, -28191.651784378504, -714.6523254695327, -7651.873845085364, 769.2799889183032, 2597.630333617966, -23403.505790651536, -29758.486718951073, 0.096, 0.924, 0.41200000000000003, 192.0, 0.0, 0.0, 0.0, 0.0, 0.0, 0.0, 0.0, 0.0, 0.0, 1.695684471434839E9, 0.0, 2023-09-25 18:27:51.434
104.0, 12040.705924118272, 33612.910939802045, -20265.58909005989, -18883.73719259944, -11507.393301414646, 17118.083491096913, -187500.02235174447, 22604.22976067421, 9987.139402286935, -28201.48655193884, -720.9778691503847, -7656.455952698702, 761.7921545257753, 2591.9306387818624, -23409.004319787542, -29768.56735570042, 0.096, 0.924, 0.41200000000000003, 192.0, 0.0, 0.0, 0.0, 0.0, 0.0, 0.0, 0.0, 0.0, 0.0, 1.695684471434842E9, 0.0, 2023-09-25 18:27:51.434
106.0, 12039.72244736224, 33613.045050268775, -20273.613366319343, -18888.386355446142, -11518.904449809128, 17123.96199988866, -187500.02235174447, 22594.596158813973, 9981.909094084394, -28203.386450217542, -720.4861307723679, -7660.926301589764, 726.8116744532198, 2592.9588190268064, -23418.079128036396, -29773.41768424722, 0.096, 0.924, 0.41200000000000003, 192.0, 0.0, 0.0, 0.0, 0.0, 0.0, 0.0, 0.0, 0.0, 0.0, 1.695684471494081E9, 0.0, 2023-09-25 18:27:51.494
108.0, 12036.772017094137, 33612.620367124124, -20277.48021811011, -18895.337747971746, -11519.932630054072, 17116.38475851831, -187500.02235174447, 22598.686528049297, 9990.64862616642, -28203.654671151005, -722.028401139784, -7659.004051566608, 754.1031544331497, 2571.657606560899, -23422.10244203835, -29771.36132375733, 0.096, 0.926, 0.406, 192.0, 1.5, 0.0, 14.0, 120.0, 6.0, 88.0, 0.0, 0.0, 0.0, 1.695684471494092E9, 0.0, 2023-09-25 18:27:51.494
110.0, 12045.109217775967, 33620.80110559477, -20284.54336935799, -18887.425230434565, -11514.99289452945, 17121.235087065113, -187500.02235174447, 22582.90619646385, 9982.624349906964, -28202.402973461507, -724.8000174522422, -7662.647385912823, 733.5171977898119, 2586.1415369679376, -23417.38622395828, -29770.60136444585, 0.096, 0.926, 0.406, 192.0, 0.0, 0.0, 0.0, 0.0, 0.0, 0.0, 0.0, 0.0, 0.0, 1.695684471494096E9, 0.0, 2023-09-25 18:27:51.494
112.0, 12046.696191632294, 33623.10333527366, -20255.419046332725, -18886.888788567638, -11509.337903182257, 17116.63062770732, -187500.02235174447, 22585.119019164922, 9993.062614567592, -28197.127961770057, -715.6805057144768, -7656.478304443158, 766.4636691169345, 2587.326179424069, -23424.069395550418, -29773.194166802667, 0.096, 0.926, 0.406, 192.0, 0.0, 0.0, 0.0, 0.0, 0.0, 0.0, 0.0, 0.0, 0.0, 1.695684471494099E9, 0.0, 2023-09-25 18:27:51.494
114.0, 12051.032430056624, 33628.288939987295, -20250.16638638573, -18877.63516636314, -11505.247533946937, 17134.53437501602, -187500.02235174447, 22556.50878626213, 9998.874068125971, -28197.262072236786, -720.061447627717, -7660.412211467292, 767.7153668064317, 2587.7955660576304, -23407.90908430923, -29768.656762678238, 0.096, 0.926, 0.406, 192.0, 0.0, 0.0, 0.0, 0.0, 0.0, 0.0, 0.0, 0.0, 0.0, 1.695684471494103E9, 0.0, 2023-09-25 18:27:51.494
116.0, 12056.933290592826, 33630.41235571055, -20267.846616249873, -18875.69056459553, -11499.436080388556, 17133.86382268236, -187500.02235174447, 22540.840213398962, 9996.616541935986, -28191.316508211676, -713.6688487134992, -7654.064316041985, 741.7426397493649, 2597.1385952399487, -23406.076241263898, -29759.60430617384, 0.096, 0.926, 0.406, 192.0, 0.0, 0.0, 0.0, 0.0, 0.0, 0.0, 0.0, 0.0, 0.0, 1.695684471494106E9, 0.0, 2023-09-25 18:27:51.494
118.0, 12051.792389368104, 33625.56202716375, -20236.598877501354, -18875.847026806718, -11492.015301229394, 17136.68014248373, -187500.02235174447, 22539.566163965006, 9999.142289059435, -28193.506979168294, -717.3568865486249, -7658.042926555029, 745.967119451418, 2593.517612638189, -23413.564075656424, -29767.13684405528, 0.098, 0.922, 0.41000000000000003, 192.0, 1.5, 8.0, 14.0, 104.0, 6.0, 104.0, 0.0, 0.0, 0.0, 1.695684471494109E9, 0.0, 2023-09-25 18:27:51.494
120.0, 12046.964412565758, 33615.97312879242, -20254.6814387657, -18881.770239087375, -11505.403996158124, 17127.784148190516, -187500.02235174447, 22541.75663492163, 9995.655416924408, -28199.854874593602, -715.9710783923958, -7661.261577756593, 761.836858014686, 2587.326179424069, -23403.34932844035, -29765.169890543213, 0.098, 0.922, 0.41000000000000003, 192.0, 0.0, 0.0, 0.0, 0.0, 0.0, 0.0, 0.0, 0.0, 0.0, 1.695684471553972E9, 0.0, 2023-09-25 18:27:51.553
122.0, 12043.902223575382, 33617.7836200933, -20266.751380771566, -18878.283366952346, -11503.168821712592, 17128.76762494655, -187500.02235174447, 22534.93935286276, 9994.627236679464, -28205.845142107624, -722.8107121957198, -7666.290720259038, 760.8086777697418, 2583.347568911024, -23416.849782091354, -29768.545003955962, 0.098, 0.922, 0.41000000000000003, 192.0, 0.0, 0.0, 0.0, 0.0, 0.0, 0.0, 0.0, 0.0, 0.0, 1.695684471553985E9, 0.0, 2023-09-25 18:27:51.553
124.0, 12042.918746819347, 33615.59314913668, -20266.550215071467, -18877.63516636314, -11498.296141421335, 17133.841470937907, -187500.02235174447, 22540.88491688787, 9997.443556480832, -28204.54874092922, -721.4696075284014, -7666.13425804785, 764.4967156048675, 2583.660493333399, -23419.934322826186, -29767.31565801092, 0.098, 0.922, 0.41000000000000003, 192.0, 0.0, 0.0, 0.0, 0.0, 0.0, 0.0, 0.0, 0.0, 0.0, 1.695684471553989E9, 0.0, 2023-09-25 18:27:51.553
126.0, 12043.678706130828, 33617.7836200933, -20259.352953356858, -18877.97044252997, -11493.08818496325, 17129.01349413556, -187500.02235174447, 22531.139556305356, 9995.901286113416, -28203.58761591764, -724.1071133741276, -7665.642519669834, 772.833916286697, 2586.0521299901166, -23415.15104951275, -29767.449768477654, 0.098, 0.922, 0.41000000000000003, 192.0, 0.0, 0.0, 0.0, 0.0, 0.0, 0.0, 0.0, 0.0, 0.0, 1.695684471553993E9, 0.0, 2023-09-25 18:27:51.553
128.0, 12062.744744151205, 33629.71945163244, -20248.802929973954, -18864.760561556883, -11477.061984188795, 17140.25642159658, -187500.02235174447, 22539.052073842537, 9997.64472218093, -28197.507941425796, -726.2305290973818, -7668.928226104764, 751.1750759095045, 2596.6021533730213, -23413.005282045044, -29766.488643466073, 0.1, 0.922, 0.41400000000000003, 192.0, 1.5, 16.0, 14.0, 104.0, 6.0, 120.0, 0.0, 0.0, 0.0, 1.695684471553998E9, 0.0, 2023-09-25 18:27:51.553
130.0, 12042.0917322745, 33619.638814883096, -20257.229537633604, -18871.890768038127, -11501.961827512006, 17138.177709362237, -187500.02235174447, 22532.771233650594, 9996.21421053579, -28196.792685603225, -725.0905901301611, -7665.37429873637, 763.7144045489317, 2595.5963248725325, -23415.48632567958, -29758.777291628994, 0.1, 0.922, 0.41400000000000003, 192.0, 0.0, 0.0, 0.0, 0.0, 0.0, 0.0, 0.0, 0.0, 0.0, 1.695684471554002E9, 0.0, 2023-09-25 18:27:51.554
132.0, 12035.229746726722, 33609.781695578306, -20273.456904108156, -18882.150218743114, -11501.872420534184, 17120.85510740937, -187500.02235174447, 22508.11725951639, 9985.59713191952, -28207.230950263853, -730.4997122883454, -7677.511295975602, 730.834988455175, 2590.2989614366247, -23413.765241356523, -29774.021181347514, 0.1, 0.922, 0.41400000000000003, 192.0, 0.0, 0.0, 0.0, 0.0, 0.0, 0.0, 0.0, 0.0, 0.0, 1.695684471554005E9, 0.0, 2023-09-25 18:27:51.554
134.0, 12044.90805207587, 33617.3365852042, -20260.291726623982, -18876.428172162556, -11491.881190762662, 17140.3458285744, -187500.02235174447, 22535.65460868533, 9980.299768483612, -28211.991871832834, -740.7144595044208, -7680.953464621719, 748.1799421524933, 2575.9938449852284, -23419.330825725894, -29769.260259778534, 0.1, 0.922, 0.41400000000000003, 192.0, 0.0, 0.0, 0.0, 0.0, 0.0, 0.0, 0.0, 0.0, 0.0, 1.695684471554009E9, 0.0, 2023-09-25 18:27:51.554
136.0, 12047.545557921596, 33620.532884661305, -20261.72223826912, -18874.103590739203, -11490.428327373067, 17138.356523317878, -187500.02235174447, 22520.902457344826, 9986.714719142285, -28202.24651125032, -732.868997200608, -7672.482153473157, 760.5404568362782, 2587.75086256872, -23414.90518032374, -29757.860870106328, 0.1, 0.922, 0.41400000000000003, 192.0, 0.0, 0.0, 0.0, 0.0, 0.0, 0.0, 0.0, 0.0, 0.0, 1.695684471614255E9, 0.0, 2023-09-25 18:27:51.614
138.0, 12058.028526071135, 33632.491067944895, -20239.303438580446, -18864.91702376807, -11482.582865069255, 17149.152415889792, -187500.02235174447, 22529.46317547121, 10000.081062326559, -28194.512807668783, -718.385066793569, -7661.0157085675855, 758.0370614572837, 2595.7974905726305, -23405.62920637479, -29747.93669556817, 0.092, 0.92, 0.418, 192.0, 1.0, 112.0, 14.0, 96.0, 6.5, 8.0, 0.0, 0.0, 0.0, 1.695684471614265E9, 0.0, 2023-09-25 18:27:51.614
140.0, 12052.999383568691, 33625.025585296826, -20257.58716554489, -18874.03653550584, -11479.520676078877, 17140.792863463506, -187500.02235174447, 22523.808184124016, 9996.303617513611, -28196.211540247386, -727.9739651648957, -7665.620167925378, 756.3159771342251, 2585.2474671897253, -23402.924645295698, -29745.3215414669, 0.092, 0.92, 0.418, 192.0, 0.0, 0.0, 0.0, 0.0, 0.0, 0.0, 0.0, 0.0, 0.0, 1.695684471614268E9, 0.0, 2023-09-25 18:27:51.614
142.0, 12059.101409804989, 33632.02168131134, -20241.516261281522, -18871.756657571397, -11475.452658588012, 17141.48576754162, -187500.02235174447, 22525.12693704688, 9994.828402379562, -28193.775200101758, -715.7475609478428, -7658.735830633143, 765.77076503882, 2594.814013816597, -23403.39403192926, -29749.769538613506, 0.092, 0.92, 0.418, 192.0, 0.0, 0.0, 0.0, 0.0, 0.0, 0.0, 0.0, 0.0, 0.0, 1.695684471614272E9, 0.0, 2023-09-25 18:27:51.614
144.0, 12054.988688825213, 33630.14413477709, -20245.025485161004, -18869.275613936858, -11467.763658495387, 17144.413846065265, -187500.02235174447, 22540.616695954406, 9993.3084837566, -28190.71301111138, -718.2286045823819, -7657.819409110476, 741.0720874157057, 2597.8985545514292, -23392.844008546355, -29740.091233264357, 0.092, 0.92, 0.418, 192.0, 0.0, 0.0, 0.0, 0.0, 0.0, 0.0, 0.0, 0.0, 0.0, 1.695684471614275E9, 0.0, 2023-09-25 18:27:51.614
146.0, 12057.156808037378, 33640.15771629306, -20247.126549139804, -18857.630355075642, -11472.949263209017, 17162.58581430743, -187500.02235174447, 22545.981114623683, 9994.917809357383, -28185.527406397752, -715.1217121030942, -7650.331574717949, 765.3013784052586, 2599.641990618943, -23402.455258662136, -29736.134974495766, 0.092, 0.92, 0.418, 192.0, 0.0, 0.0, 0.0, 0.0, 0.0, 0.0, 0.0, 0.0, 0.0, 1.695684471614278E9, 0.0, 2023-09-25 18:27:51.614
148.0, 12059.794313883105, 33638.12370754763, -20261.521072569023, -18860.156102199093, -11467.383678839646, 17157.891947971817, -187500.02235174447, 22529.239658026658, 10000.997483849225, -28178.62071736106, -711.2325085678707, -7647.291737472026, 765.7484132943647, 2608.2250604897813, -23392.084049234876, -29727.59660811384, 0.092, 0.92, 0.41600000000000004, 192.0, 1.0, 112.0, 14.0, 96.0, 6.5, 0.0, 0.0, 0.0, 0.0, 1.695684471614282E9, 0.0, 2023-09-25 18:27:51.614
150.0, 12058.319098749054, 33632.87104760064, -20246.567755528424, -18873.813018061282, -11503.571153112789, 17129.43817728021, -187500.02235174447, 22512.811125852004, 9991.989730833737, -28188.120208754568, -718.8544534271305, -7656.902987587809, 765.1449161940714, 2591.975342270773, -23412.6253023893, -29750.618904902807, 0.092, 0.92, 0.41600000000000004, 192.0, 0.0, 0.0, 0.0, 0.0, 0.0, 0.0, 0.0, 0.0, 0.0, 1.69568447167456E9, 0.0, 2023-09-25 18:27:51.674
152.0, 12059.503741205186, 33631.10525978867, -20247.81945321792, -18871.041401748826, -11482.649920302621, 17141.23989835261, -187500.02235174447, 22500.092983256935, 9996.907114613905, -28191.852950078603, -721.0002208948399, -7664.23435976915, 753.9019887330519, 2599.641990618943, -23403.528142395993, -29749.70248338014, 0.092, 0.92, 0.41600000000000004, 192.0, 0.0, 0.0, 0.0, 0.0, 0.0, 0.0, 0.0, 0.0, 0.0, 1.695684471674572E9, 0.0, 2023-09-25 18:27:51.674
154.0, 12056.083924303524, 33626.50080043087, -20242.54444152647, -18872.33780292723, -11475.787934754842, 17138.40122680679, -187500.02235174447, 22527.071538814493, 10006.02662635167, -28193.68579312394, -720.2626133278147, -7663.474400457669, 751.8232764987083, 2588.0190835021835, -23399.594235371856, -29747.93669556817, 0.092, 0.92, 0.41600000000000004, 192.0, 0.0, 0.0, 0.0, 0.0, 0.0, 0.0, 0.0, 0.0, 0.0, 1.695684471674576E9, 0.0, 2023-09-25 18:27:51.674
156.0, 12056.95564233728, 33627.68544288701, -20257.810682989442, -18870.236738948435, -11463.427420071057, 17142.938630931214, -187500.02235174447, 22515.22511425318, 9990.000425577215, -28199.273729237764, -731.2596715998259, -7672.549208706523, 757.3441573791692, 2591.6624178483985, -23402.455258662136, -29750.484794436074, 0.092, 0.92, 0.41600000000000004, 192.0, 0.0, 0.0, 0.0, 0.0, 0.0, 0.0, 0.0, 0.0, 0.0, 1.695684471674579E9, 0.0, 2023-09-25 18:27:51.674
158.0, 12060.464866216764, 33632.33460573371, -20244.086711893884, -18864.000602245404, -11471.36228935269, 17141.53047103053, -187500.02235174447, 22524.389329479854, 9991.766213389184, -28195.09395302462, -720.3296685611807, -7661.641557412334, 763.0662039597278, 2587.5049933797113, -23404.06458426292, -29749.434262446674, 0.094, 0.924, 0.41200000000000003, 192.0, 1.0, 120.0, 14.0, 112.0, 6.0, 112.0, 0.0, 0.0, 0.0, 1.695684471674583E9, 0.0, 2023-09-25 18:27:51.674
160.0, 12053.267604502154, 33627.104297531165, -20260.984630702096, -18871.801361060305, -11477.397260355623, 17137.708322728675, -187500.02235174447, 22512.3640909629, 9988.368748231978, -28197.82086584817, -727.4375232979684, -7666.111906303395, 747.5540933077447, 2582.609961343999, -23408.601988387345, -29752.89878283725, 0.094, 0.924, 0.41200000000000003, 192.0, 0.0, 0.0, 0.0, 0.0, 0.0, 0.0, 0.0, 0.0, 0.0, 1.695684471674586E9, 0.0, 2023-09-25 18:27:51.674
162.0, 12059.101409804989, 33633.474544700926, -20252.669781764722, -18871.019050004372, -11473.351594609214, 17138.043598895503, -187500.02235174447, 22509.525419417074, 9990.805088377607, -28188.813112832682, -728.3315930761806, -7666.0672028144845, 757.7017852904542, 2579.167792697882, -23405.62920637479, -29752.0717682924, 0.094, 0.924, 0.41200000000000003, 192.0, 0.0, 0.0, 0.0, 0.0, 0.0, 0.0, 0.0, 0.0, 0.0, 1.695684471674589E9, 0.0, 2023-09-25 18:27:51.674
164.0, 12065.203436041289, 33635.016815068346, -20242.52208978201, -18866.101666224204, -11475.787934754842, 17138.37887506233, -187500.02235174447, 22505.50210541512, 9990.134536043946, -28197.39618270352, -735.3723925796023, -7671.141048805839, 761.3898231255798, 2578.161964197393, -23419.040253047973, -29756.922096839204, 0.094, 0.924, 0.41200000000000003, 192.0, 0.0, 0.0, 0.0, 0.0, 0.0, 0.0, 0.0, 0.0, 0.0, 1.695684471674592E9, 0.0, 2023-09-25 18:27:51.674
166.0, 12064.510531963175, 33637.36374823615, -20239.549307769455, -18863.06182897828, -11466.824885228263, 17134.757892460573, -187500.02235174447, 22495.35441343241, 10000.706911171308, -28197.19501700342, -727.482226786879, -7666.961272592697, 736.512331546823, 2585.2474671897253, -23402.187037728672, -29754.84338460486, 0.094, 0.924, 0.41200000000000003, 192.0, 0.0, 0.0, 0.0, 0.0, 0.0, 0.0, 0.0, 0.0, 0.0, 1.695684471734014E9, 0.0, 2023-09-25 18:27:51.734
168.0, 12060.174293538845, 33630.34530047719, -20245.070188649916, -18865.02878249035, -11475.631472543655, 17141.66458149726, -187500.02235174447, 22503.69161411424, 9995.610713435497, -28192.657612878993, -730.0526773992393, -7666.111906303395, 766.642483072577, 2582.721720066276, -23404.64572961876, -29750.350683969344, 0.10200000000000001, 0.92, 0.41600000000000004, 192.0, 1.5, 24.0, 14.0, 96.0, 6.5, 0.0, 0.0, 0.0, 0.0, 1.695684471734024E9, 0.0, 2023-09-25 18:27:51.734
170.0, 12062.588281940018, 33631.64170165559, -20248.33354334039, -18862.100703966702, -11472.41282134209, 17141.999857664094, -187500.02235174447, 22508.988977550147, 9995.834230880051, -28191.852950078603, -724.1294651185829, -7662.535627190546, 756.5618463232335, 2591.2824381926584, -23381.37756364078, -29735.285608206465, 0.10200000000000001, 0.92, 0.41600000000000004, 192.0, 0.0, 0.0, 0.0, 0.0, 0.0, 0.0, 0.0, 0.0, 0.0, 1.695684471734027E9, 0.0, 2023-09-25 18:27:51.734
172.0, 12050.183063767323, 33616.755439848355, -20278.2848809105, -18885.190055989035, -11490.22716167297, 17133.506194771075, -187500.02235174447, 22501.88112281336, 9984.300730741112, -28207.320357241675, -742.4131920830241, -7679.522952976579, 762.9320934929959, 2573.0657664615833, -23414.033462289986, -29756.095082294356, 0.10200000000000001, 0.92, 0.41600000000000004, 192.0, 0.0, 0.0, 0.0, 0.0, 0.0, 0.0, 0.0, 0.0, 0.0, 1.69568447173403E9, 0.0, 2023-09-25 18:27:51.734
174.0, 12050.138360278412, 33620.0858497722, -20243.170290371214, -18885.100649011212, -11486.583827326755, 17124.856069666872, -187500.02235174447, 22497.477829155665, 9977.438745193333, -28210.851932865615, -738.9263199479961, -7682.428679755769, 726.8787296865856, 2577.357301397002, -23410.16661049922, -29753.189355515166, 0.10200000000000001, 0.92, 0.41600000000000004, 192.0, 0.0, 0.0, 0.0, 0.0, 0.0, 0.0, 0.0, 0.0, 0.0, 1.695684471734034E9, 0.0, 2023-09-25 18:27:51.734
176.0, 12060.330755750032, 33628.17718126502, -20244.3772845718, -18885.435925178044, -11480.347690623725, 17133.416787793256, -187500.02235174447, 22478.188273690736, 9986.267684253178, -28205.711031640894, -728.28688958727, -7675.745508163633, 746.0565264292392, 2566.2484844027144, -23404.06458426292, -29748.69665487965, 0.10200000000000001, 0.92, 0.41600000000000004, 192.0, 0.0, 0.0, 0.0, 0.0, 0.0, 0.0, 0.0, 0.0, 0.0, 1.695684471734037E9, 0.0, 2023-09-25 18:27:51.734
178.0, 12059.48138946073, 33626.14317251959, -20255.553156799455, -18886.441753678533, -11491.881190762662, 17125.548973744986, -187500.02235174447, 22470.052238709002, 9992.235600022746, -28203.29704323972, -719.5697092497003, -7671.498676717124, 754.3043201332474, 2580.12891770946, -23400.845933061355, -29746.483832178576, 0.10400000000000001, 0.916, 0.41600000000000004, 192.0, 1.5, 32.0, 14.0, 80.0, 6.5, 0.0, 0.0, 0.0, 0.0, 1.69568447173404E9, 0.0, 2023-09-25 18:27:51.734
180.0, 12063.05766857358, 33629.40652721006, -20252.558023042446, -18881.2561489649, -11483.566341825288, 17135.026113394037, -187500.02235174447, 22473.561462588485, 9984.2560272522, -28205.15223802951, -723.0565813847281, -7670.738717405644, 743.2178548834152, 2577.111432207994, -23406.567979641914, -29748.294323479455, 0.10400000000000001, 0.916, 0.41600000000000004, 192.0, 0.0, 0.0, 0.0, 0.0, 0.0, 0.0, 0.0, 0.0, 0.0, 1.69568447179434E9, 0.0, 2023-09-25 18:27:51.794
182.0, 12070.813723899571, 33636.02264356883, -20240.66689499222, -18864.626451090153, -11472.591635297733, 17148.48186355613, -187500.02235174447, 22482.658622581795, 9995.49895471322, -28192.21057798989, -720.2626133278147, -7666.603644681412, 756.4947910898676, 2590.477775392267, -23403.505790651536, -29738.1689832412, 0.10400000000000001, 0.916, 0.41600000000000004, 192.0, 0.0, 0.0, 0.0, 0.0, 0.0, 0.0, 0.0, 0.0, 0.0, 1.695684471794352E9, 0.0, 2023-09-25 18:27:51.794
184.0, 12078.05568910309, 33644.82923088422, -20238.6775897357, -18859.172625443058, -11463.136847393138, 17153.667468269763, -187500.02235174447, 22492.180465719757, 10000.416338493389, -28188.254319221298, -720.3743720500913, -7660.412211467292, 769.3693958961244, 2596.8703743064852, -23388.99950850004, -29735.553829139928, 0.10400000000000001, 0.916, 0.41600000000000004, 192.0, 0.0, 0.0, 0.0, 0.0, 0.0, 0.0, 0.0, 0.0, 0.0, 1.695684471794355E9, 0.0, 2023-09-25 18:27:51.794
186.0, 12068.355032009487, 33632.51341968935, -20245.226650861103, -18868.64976509211, -11481.08529819075, 17136.367218061354, -187500.02235174447, 22468.77818927505, 9999.902248370916, -28191.025935533755, -735.0147646683174, -7664.457877213702, 763.736756293387, 2591.483603892756, -23398.767220827012, -29746.953218812137, 0.10400000000000001, 0.916, 0.41600000000000004, 192.0, 0.0, 0.0, 0.0, 0.0, 0.0, 0.0, 0.0, 0.0, 0.0, 1.695684471794359E9, 0.0, 2023-09-25 18:27:51.794
188.0, 12074.568816968062, 33635.352091235174, -20240.44337754767, -18862.525387111353, -11473.03867018684, 17143.519776287052, -187500.02235174447, 22470.4545701092, 10003.098547828025, -28194.602214646606, -735.0818199016834, -7661.865074856887, 756.8747707456077, 2581.1123944654937, -23397.62728185979, -29758.442015462166, 0.1, 0.924, 0.41600000000000004, 192.0, 1.5, 16.0, 14.0, 112.0, 6.5, 0.0, 0.0, 0.0, 0.0, 1.695684471794362E9, 0.0, 2023-09-25 18:27:51.794
190.0, 12061.940081350815, 33624.64560564108, -20254.167348643226, -18860.290212665823, -11476.346728366225, 17130.287543569513, -187500.02235174447, 22465.69364854022, 10002.204478049813, -28200.123095527066, -748.2022938969486, -7665.396650480825, 764.7202330494206, 2586.253295690214, -23409.38429944328, -29766.22042253261, 0.1, 0.924, 0.41600000000000004, 192.0, 0.0, 0.0, 0.0, 0.0, 0.0, 0.0, 0.0, 0.0, 0.0, 1.695684471794365E9, 0.0, 2023-09-25 18:27:51.794
192.0, 12064.823456385548, 33633.5863034232, -20242.29857233746, -18847.68382879303, -11485.667405804088, 17146.269040855055, -187500.02235174447, 22496.002614021614, 9994.44842272382, -28207.05213630821, -748.8951979750632, -7666.871865614876, 770.5987418411663, 2567.9025134924073, -23400.085973749876, -29766.46629172162, 0.1, 0.924, 0.41600000000000004, 192.0, 0.0, 0.0, 0.0, 0.0, 0.0, 0.0, 0.0, 0.0, 0.0, 1.695684471794368E9, 0.0, 2023-09-25 18:27:51.794
194.0, 12074.546465223608, 33636.55908543576, -20243.90789793824, -18841.49239557891, -11475.251492887914, 17156.796712493506, -187500.02235174447, 22486.4584191392, 10006.116033329492, -28196.34565071412, -744.804828739742, -7656.768877121077, 752.963215465929, 2590.790699814642, -23391.48055213458, -29745.70152112264, 0.1, 0.924, 0.41600000000000004, 192.0, 0.0, 0.0, 0.0, 0.0, 0.0, 0.0, 0.0, 0.0, 0.0, 1.695684471794372E9, 0.0, 2023-09-25 18:27:51.794
196.0, 12077.34043328052, 33643.33166400572, -20248.28883985148, -18839.234869388925, -11471.854027730707, 17156.975526449147, -187500.02235174447, 22491.44285815273, 10017.023684623682, -28190.265976222276, -734.5006745458454, -7643.827217081454, 773.5268203648116, 2590.0307405031613, -23382.87513051929, -29740.515916409007, 0.1, 0.924, 0.41600000000000004, 192.0, 0.0, 0.0, 0.0, 0.0, 0.0, 0.0, 0.0, 0.0, 0.0, 1.695684471854664E9, 0.0, 2023-09-25 18:27:51.854
198.0, 12063.392944740408, 33630.56881792174, -20261.655183035753, -18856.803340530794, -11490.94241749554, 17143.184500120224, -187500.02235174447, 22475.036677722535, 10004.484355984254, -28194.848083835615, -739.1945408814598, -7647.001164794107, 760.2945876472697, 2590.9695137702843, -23390.161799211717, -29739.890067564258, 0.098, 0.92, 0.42, 192.0, 1.5, 8.0, 14.0, 96.0, 6.5, 16.0, 0.0, 0.0, 0.0, 1.695684471854674E9, 0.0, 2023-09-25 18:27:51.854
200.0, 12074.188837312322, 33641.47646921593, -20249.317020096427, -18852.712971295474, -11480.504152834912, 17153.488654314122, -187500.02235174447, 22480.803427792005, 10004.417300750889, -28198.267900737275, -744.4248490840017, -7648.744600861622, 769.1458784515713, 2588.6672840913875, -23403.170514484707, -29748.271971735, 0.098, 0.92, 0.42, 192.0, 0.0, 0.0, 0.0, 0.0, 0.0, 0.0, 0.0, 0.0, 0.0, 1.695684471854678E9, 0.0, 2023-09-25 18:27:51.854
202.0, 12076.468715246763, 33639.487163959406, -20244.15376712725, -18855.3504771412, -11490.540086095345, 17132.925049415237, -187500.02235174447, 22476.288375412034, 10012.50863224371, -28184.56628138617, -734.3665640791136, -7638.999240279108, 764.0049772268507, 2598.613810373999, -23381.37756364078, -29732.73750933856, 0.098, 0.92, 0.42, 192.0, 0.0, 0.0, 0.0, 0.0, 0.0, 0.0, 0.0, 0.0, 0.0, 1.695684471854682E9, 0.0, 2023-09-25 18:27:51.854
204.0, 12079.754421681693, 33642.57170469424, -20240.555136269944, -18843.951087468995, -11477.397260355623, 17161.87055848486, -187500.02235174447, 22497.299015200024, 10013.223888066279, -28193.976365801856, -738.7475059923537, -7645.660060126789, 763.6697010600211, 2580.754766554209, -23388.99950850004, -29737.811355329915, 0.098, 0.92, 0.42, 192.0, 0.0, 0.0, 0.0, 0.0, 0.0, 0.0, 0.0, 0.0, 0.0, 1.695684471854685E9, 0.0, 2023-09-25 18:27:51.854
206.0, 12078.256854803189, 33640.403585482076, -20245.494871794566, -18850.187224172023, -11483.342824380736, 17151.76756999106, -187500.02235174447, 22473.181482932745, 10012.396873521433, -28190.467141922374, -738.3451745921582, -7643.134313003339, 765.3907853830798, 2597.652685362421, -23381.109342707317, -29730.07765174838, 0.098, 0.92, 0.42, 192.0, 0.0, 0.0, 0.0, 0.0, 0.0, 0.0, 0.0, 0.0, 0.0, 1.695684471854689E9, 0.0, 2023-09-25 18:27:51.854
208.0, 12075.90992163538, 33638.28016975882, -20258.995325445572, -18852.78002652884, -11498.51965886589, 17146.470206555154, -187500.02235174447, 22494.192122720735, 10008.530021730665, -28186.42147617596, -743.0837444166833, -7643.156664747795, 767.4024423840574, 2598.4126446739015, -23390.094743978352, -29736.291436706953, 0.092, 0.918, 0.41000000000000003, 192.0, 1.0, 112.0, 14.0, 88.0, 6.0, 104.0, 0.0, 0.0, 0.0, 1.695684471854692E9, 0.0, 2023-09-25 18:27:51.854
210.0, 12079.441497259319, 33642.01291108286, -20235.90597342324, -18847.214442159468, -11501.42538564508, 17158.271927627557, -187500.02235174447, 22486.860750539396, 10015.369655533988, -28193.01524079028, -746.9282444629961, -7646.665888627278, 770.9787214969065, 2594.9257725388734, -23395.950901025644, -29738.683073363674, 0.092, 0.918, 0.41000000000000003, 192.0, 0.0, 0.0, 0.0, 0.0, 0.0, 0.0, 0.0, 0.0, 0.0, 1.695684471914987E9, 0.0, 2023-09-25 18:27:51.914
212.0, 12089.991520642225, 33652.495879232396, -20230.452147776145, -18846.87916599264, -11497.782051298864, 17146.559613532976, -187500.02235174447, 22482.34569815942, 10015.548469489631, -28190.310679711187, -737.8310844696862, -7637.7028391007, 771.4034046415574, 2591.193031214837, -23376.66134556071, -29734.65975936172, 0.092, 0.918, 0.41000000000000003, 192.0, 0.0, 0.0, 0.0, 0.0, 0.0, 0.0, 0.0, 0.0, 0.0, 1.695684471914998E9, 0.0, 2023-09-25 18:27:51.914
214.0, 12081.296692049109, 33642.61640818315, -20242.76795897102, -18852.422398617557, -11505.247533946937, 17146.760779233075, -187500.02235174447, 22470.20870092019, 10011.368693276489, -28186.10855175359, -741.0497356712503, -7636.741714089122, 770.9340180079959, 2591.0812724925604, -23379.902348506734, -29739.823012330893, 0.092, 0.918, 0.41000000000000003, 192.0, 0.0, 0.0, 0.0, 0.0, 0.0, 0.0, 0.0, 0.0, 0.0, 1.695684471915002E9, 0.0, 2023-09-25 18:27:51.915
216.0, 12086.504648507196, 33648.89724837509, -20221.399691271745, -18842.699389779496, -11502.677083334576, 17159.188349150223, -187500.02235174447, 22492.493390142132, 10014.095606100036, -28194.848083835615, -743.1060961611386, -7645.838874082431, 782.9369047804958, 2585.6945020788316, -23381.19874968514, -29742.50522166553, 0.092, 0.918, 0.41000000000000003, 192.0, 0.0, 0.0, 0.0, 0.0, 0.0, 0.0, 0.0, 0.0, 0.0, 1.695684471915005E9, 0.0, 2023-09-25 18:27:51.915
218.0, 12095.668863733872, 33659.55903048027, -20247.43947356218, -18857.272727164356, -11514.5682113848, 17144.52560478754, -187500.02235174447, 22483.463285382186, 10019.549431747131, -28173.703333580892, -728.0410203982616, -7630.974964019652, 751.8009247542531, 2596.3115806951023, -23370.11228443531, -29732.871619805293, 0.1, 0.916, 0.41400000000000003, 192.0, 1.5, 16.0, 14.0, 80.0, 6.0, 120.0, 0.0, 0.0, 0.0, 1.695684471915008E9, 0.0, 2023-09-25 18:27:51.915
220.0, 12084.515343250674, 33645.65624542907, -20244.91372643873, -18856.423360875055, -11524.693551623053, 17140.614049507865, -187500.02235174447, 22492.381631419856, 10012.240411310246, -28184.074543008155, -743.5978345391553, -7641.569690891468, 762.9097417485407, 2593.3164469380913, -23392.240511446063, -29750.305980480432, 0.1, 0.916, 0.41400000000000003, 192.0, 0.0, 0.0, 0.0, 0.0, 0.0, 0.0, 0.0, 0.0, 0.0, 1.695684471915012E9, 0.0, 2023-09-25 18:27:51.915
222.0, 12084.96237813978, 33641.69998666048, -20233.4249297887, -18854.2999451518, -11510.902525294128, 17145.844357710404, -187500.02235174447, 22492.314576186487, 10006.607771707508, -28200.972461816367, -740.1780176374933, -7640.9438420467195, 764.2284946714037, 2587.482641635256, -23377.376601383283, -29740.69473036465, 0.1, 0.916, 0.41400000000000003, 192.0, 0.0, 0.0, 0.0, 0.0, 0.0, 0.0, 0.0, 0.0, 0.0, 1.695684471915015E9, 0.0, 2023-09-25 18:27:51.915
224.0, 12079.933235637336, 33635.86618135765, -20246.85832820634, -18855.43988411902, -11519.038560275862, 17143.63153500933, -187500.02235174447, 22491.621672108373, 10006.674826940874, -28203.90054034001, -742.1673228940157, -7644.967156048675, 758.640558557577, 2586.9238480238737, -23377.91304325021, -29740.426509431185, 0.1, 0.916, 0.41400000000000003, 192.0, 0.0, 0.0, 0.0, 0.0, 0.0, 0.0, 0.0, 0.0, 0.0, 1.695684471915018E9, 0.0, 2023-09-25 18:27:51.915
226.0, 12083.353052538998, 33638.168411036546, -20231.05564487644, -18855.149311441102, -11509.047330504338, 17157.31080261598, -187500.02235174447, 22511.93940781825, 10009.3123327866, -28204.079354295656, -746.6153200406218, -7647.247033983116, 763.2897214042808, 2583.5710863555773, -23376.013144971508, -29740.940599553658, 0.1, 0.916, 0.41400000000000003, 192.0, 0.0, 0.0, 0.0, 0.0, 0.0, 0.0, 0.0, 0.0, 0.0, 1.695684471974281E9, 0.0, 2023-09-25 18:27:51.974
228.0, 12087.82340143006, 33639.57657093723, -20232.352046054846, -18850.92483173905, -11502.85589729022, 17150.58292753493, -187500.02235174447, 22521.573009678486, 10014.3638270335, -28205.755735129802, -742.48024731639, -7648.856359583898, 767.4918493618786, 2589.829574803063, -23363.13854016525, -29732.491640149554, 0.096, 0.922, 0.41600000000000004, 192.0, 1.5, 0.0, 14.0, 104.0, 6.5, 0.0, 0.0, 0.0, 0.0, 1.69568447197429E9, 0.0, 2023-09-25 18:27:51.974
230.0, 12093.657206732894, 33647.82436464124, -20241.426854303703, -18855.037552718826, -11501.045405989338, 17141.798691963995, -187500.02235174447, 22488.268910440078, 10023.2151178378, -28200.234854249342, -745.0059944398397, -7647.492903172124, 776.6784163330099, 2581.6041328435103, -23378.38242988377, -29743.913381566214, 0.096, 0.922, 0.41600000000000004, 192.0, 0.0, 0.0, 0.0, 0.0, 0.0, 0.0, 0.0, 0.0, 0.0, 1.695684471974294E9, 0.0, 2023-09-25 18:27:51.974
232.0, 12101.815593459081, 33653.90403913308, -20232.083825121383, -18844.040494446814, -11497.245609431937, 17146.738427488617, -187500.02235174447, 22499.78005883456, 10021.65049572593, -28194.378697202053, -744.2236833839039, -7645.1683217487725, 784.2556577033589, 2590.522478881178, -23378.09185720585, -29743.421643188198, 0.096, 0.922, 0.41600000000000004, 192.0, 0.0, 0.0, 0.0, 0.0, 0.0, 0.0, 0.0, 0.0, 0.0, 1.695684471974297E9, 0.0, 2023-09-25 18:27:51.974
234.0, 12099.334549824544, 33660.117824091656, -20222.941961639164, -18838.899593222093, -11488.886057005651, 17147.073703655446, -187500.02235174447, 22513.995768308137, 10024.13153936047, -28185.99679303131, -739.4851135593789, -7633.143083231817, 768.028291228806, 2601.0725022640827, -23379.745886295546, -29741.812317587417, 0.096, 0.922, 0.41600000000000004, 192.0, 0.0, 0.0, 0.0, 0.0, 0.0, 0.0, 0.0, 0.0, 0.0, 1.695684471974301E9, 0.0, 2023-09-25 18:27:51.974
236.0, 12093.67955847735, 33652.78645191032, -20233.380226299792, -18846.87916599264, -11504.644036846643, 17139.228241351633, -187500.02235174447, 22497.299015200024, 10024.64562948294, -28190.601252389104, -741.3403083491694, -7636.026458266552, 776.4101953995462, 2589.2484294472256, -23375.85668276032, -29743.779271099484, 0.096, 0.922, 0.41600000000000004, 192.0, 0.0, 0.0, 0.0, 0.0, 0.0, 0.0, 0.0, 0.0, 0.0, 1.695684471974304E9, 0.0, 2023-09-25 18:27:51.974
238.0, 12091.042052631623, 33650.41716699805, -20239.81752870292, -18847.840291004217, -11503.74996706843, 17148.794787978506, -187500.02235174447, 22521.729471889674, 10017.64953346843, -28193.81990359067, -747.3305758631916, -7639.781551335043, 776.4325471440014, 2591.5283073816668, -23375.47670310458, -29743.60045714384, 0.10200000000000001, 0.928, 0.41400000000000003, 192.0, 1.5, 24.0, 14.5, 0.0, 6.0, 120.0, 0.0, 0.0, 0.0, 1.695684471974307E9, 0.0, 2023-09-25 18:27:51.974
240.0, 12101.72618648126, 33660.49780374739, -20228.485194264078, -18841.49239557891, -11492.596446585232, 17149.44298856771, -187500.02235174447, 22499.087154756446, 10021.203460836823, -28188.813112832682, -744.2683868728145, -7638.440446667725, 755.8242387562083, 2590.5001271367228, -23377.980098483575, -29740.292398964455, 0.10200000000000001, 0.928, 0.41400000000000003, 192.0, 0.0, 0.0, 0.0, 0.0, 0.0, 0.0, 0.0, 0.0, 0.0, 1.695684472034146E9, 0.0, 2023-09-25 18:27:52.034
242.0, 12092.517267765674, 33652.2947135323, -20236.129490867796, -18853.11530269567, -11499.480783877467, 17135.517851772052, -187500.02235174447, 22505.256236226112, 10026.143196361447, -28184.700391852904, -737.9204914475074, -7630.371466919359, 777.706596577954, 2589.8966300364295, -23373.353287381327, -29738.75012859704, 0.10200000000000001, 0.928, 0.41400000000000003, 192.0, 0.0, 0.0, 0.0, 0.0, 0.0, 0.0, 0.0, 0.0, 0.0, 1.695684472034159E9, 0.0, 2023-09-25 18:27:52.034
244.0, 12088.136325852434, 33647.39968149659, -20241.806833959443, -18860.223157432458, -11497.871458276684, 17136.00959015007, -187500.02235174447, 22484.82674179396, 10016.956629390315, -28197.664403636983, -752.0244421988061, -7641.457932169192, 750.3480613646581, 2580.8218217875747, -23385.91496776521, -29749.45661419113, 0.10200000000000001, 0.928, 0.41400000000000003, 192.0, 0.0, 0.0, 0.0, 0.0, 0.0, 0.0, 0.0, 0.0, 0.0, 1.695684472034163E9, 0.0, 2023-09-25 18:27:52.034
246.0, 12096.987616656736, 33653.30054203278, -20239.392845558268, -18858.144445198115, -11506.365121169702, 17139.608221007376, -187500.02235174447, 22491.509913386097, 10013.201536321823, -28201.263034494288, -750.8621514871302, -7641.301469958004, 767.7153668064317, 2574.0939467065273, -23394.475685891593, -29750.88712583627, 0.10200000000000001, 0.928, 0.41400000000000003, 192.0, 0.0, 0.0, 0.0, 0.0, 0.0, 0.0, 0.0, 0.0, 0.0, 1.695684472034166E9, 0.0, 2023-09-25 18:27:52.034
248.0, 12091.958474154291, 33648.31610301925, -20240.890412436773, -18861.273689421858, -11494.183420441559, 17134.53437501602, -187500.02235174447, 22476.310727156488, 10016.55429799012, -28195.183360002444, -741.8543984716414, -7636.048810011007, 771.1575354525489, 2592.735301582253, -23379.81294152891, -29740.895896064747, 0.098, 0.92, 0.41400000000000003, 192.0, 1.5, 8.0, 14.0, 96.0, 6.0, 120.0, 0.0, 0.0, 0.0, 1.695684472034169E9, 0.0, 2023-09-25 18:27:52.034
250.0, 12086.750517696204, 33645.008044839866, -20263.95741271465, -18869.365020914676, -11515.730502096476, 17129.10290111338, -187500.02235174447, 22475.617823078373, 10007.79241416364, -28203.16293277299, -751.4880003318788, -7644.073086270462, 761.6803958034988, 2572.9987112282174, -23388.261900933016, -29752.339989225864, 0.098, 0.92, 0.41400000000000003, 192.0, 0.0, 0.0, 0.0, 0.0, 0.0, 0.0, 0.0, 0.0, 0.0, 1.695684472034172E9, 0.0, 2023-09-25 18:27:52.034
252.0, 12096.205305600799, 33654.373425766644, -20221.19852557165, -18858.479721364944, -11493.043481474338, 17140.234069852122, -187500.02235174447, 22480.53520685854, 10012.84390841054, -28204.280519995755, -752.8067532547419, -7646.487074671635, 755.9136457340295, 2574.9209612513737, -23393.313395179917, -29752.295285736953, 0.098, 0.92, 0.41400000000000003, 192.0, 0.0, 0.0, 0.0, 0.0, 0.0, 0.0, 0.0, 0.0, 0.0, 1.695684472034176E9, 0.0, 2023-09-25 18:27:52.034
254.0, 12099.893343435926, 33655.26749554485, -20245.45016830566, -18860.69254406602, -11499.346673410735, 17135.026113394037, -187500.02235174447, 22499.422430923278, 10020.957591647815, -28197.798514103713, -743.4860758168788, -7638.507501901091, 783.7192158364315, 2575.9267897518625, -23385.8702642763, -29742.192297243157, 0.098, 0.92, 0.41400000000000003, 192.0, 0.0, 0.0, 0.0, 0.0, 0.0, 0.0, 0.0, 0.0, 0.0, 1.695684472034179E9, 0.0, 2023-09-25 18:27:52.034
0.0, 12103.089642893034, 33667.2480305729, -20217.801060414444, -18853.67409630705, -11494.250475674926, 17139.228241351633, -187500.02235174447, 22476.757762045596, 10013.156832832914, -28193.842255335127, -750.2810061312922, -7641.5920426359235, 759.0652417022278, 2587.549696868622, -23392.464028890616, -29746.50618392303, 0.098, 0.92, 0.41400000000000003, 192.0, 0.0, 0.0, 0.0, 0.0, 0.0, 0.0, 0.0, 0.0, 0.0, 1.695684472094411E9, 0.0, 2023-09-25 18:27:52.094
2.0, 12105.68244524985, 33674.780568454335, -20225.579467484888, -18846.96857297046, -11497.692644321043, 17142.759816975573, -187500.02235174447, 22515.001596808626, 10027.529004517675, -28181.839368562625, -733.9418809344627, -7625.498786628103, 772.0739569752166, 2586.7450340682312, -23365.23960414405, -29732.80456457193, 0.096, 0.916, 0.41200000000000003, 192.0, 1.5, 0.0, 14.0, 80.0, 6.0, 112.0, 0.0, 0.0, 0.0, 1.695684472094422E9, 0.0, 2023-09-25 18:27:52.094
4.0, 12098.082852135045, 33666.6445334726, -20228.664008219723, -18854.165834685067, -11486.673234304577, 17135.2943343275, -187500.02235174447, 22489.028869751557, 10022.566917248598, -28187.91904305447, -743.9778141948956, -7632.159606475784, 765.8601720166412, 2584.84513578953, -23383.85860727532, -29741.521744909496, 0.096, 0.916, 0.41200000000000003, 192.0, 0.0, 0.0, 0.0, 0.0, 0.0, 0.0, 0.0, 0.0, 0.0, 1.695684472094425E9, 0.0, 2023-09-25 18:27:52.094
6.0, 12098.194610857321, 33666.28690556132, -20235.593049000865, -18853.763503284874, -11486.717937793486, 17133.126215115335, -187500.02235174447, 22492.605148864408, 10019.08004511357, -28192.14352275652, -746.8388374851748, -7636.965231533674, 778.9582942674512, 2580.5759525985663, -23384.797380542444, -29746.774404856493, 0.096, 0.916, 0.41200000000000003, 192.0, 0.0, 0.0, 0.0, 0.0, 0.0, 0.0, 0.0, 0.0, 0.0, 1.695684472094428E9, 0.0, 2023-09-25 18:27:52.094
8.0, 12099.82628820256, 33666.77864393934, -20234.274296078005, -18852.355343384188, -11499.32432166628, 17148.05718041148, -187500.02235174447, 22484.290299927034, 10020.823481181083, -28192.61290939008, -750.0351369422838, -7641.346173446915, 766.5977795836664, 2586.1862404568483, -23385.78085729848, -29747.064977534414, 0.096, 0.916, 0.41200000000000003, 192.0, 0.0, 0.0, 0.0, 0.0, 0.0, 0.0, 0.0, 0.0, 0.0, 1.695684472094432E9, 0.0, 2023-09-25 18:27:52.094
10.0, 12110.912753452392, 33677.596888255706, -20224.86421166232, -18840.978305456436, -11482.314644135791, 17149.375933334344, -187500.02235174447, 22490.39232616333, 10022.946896904337, -28187.740229098825, -746.9058927185408, -7638.351039689904, 767.4918493618786, 2589.9636852697954, -23383.90331076423, -29743.153422254734, 0.096, 0.916, 0.41200000000000003, 192.0, 0.0, 0.0, 0.0, 0.0, 0.0, 0.0, 0.0, 0.0, 0.0, 1.695684472094435E9, 0.0, 2023-09-25 18:27:52.094
12.0, 12097.68052073485, 33664.81169042727, -20234.09548212236, -18851.57303232825, -11492.104708207216, 17135.070816882948, -187500.02235174447, 22483.239767937634, 10030.054751641126, -28183.068714507666, -738.8592647146303, -7631.757275075588, 782.9145530360405, 2587.9967317577284, -23377.935394994664, -29740.962951298116, 0.1, 0.92, 0.41000000000000003, 192.0, 1.5, 16.0, 14.0, 96.0, 6.0, 104.0, 0.0, 0.0, 0.0, 1.695684472094438E9, 0.0, 2023-09-25 18:27:52.094
14.0, 12097.904038179404, 33659.46962350245, -20242.96912467112, -18858.658535320585, -11482.649920302621, 17121.30214229848, -187500.02235174447, 22462.340886871923, 10014.252068311223, -28201.575958916663, -758.640558557577, -7651.717382874177, 759.4005178690575, 2567.7907547701307, -23400.8235813169, -29762.666495164216, 0.1, 0.92, 0.41000000000000003, 192.0, 0.0, 0.0, 0.0, 0.0, 0.0, 0.0, 0.0, 0.0, 0.0, 1.695684472154678E9, 0.0, 2023-09-25 18:27:52.154
16.0, 12092.316102065577, 33657.05563510128, -20256.11195041084, -18856.579823086242, -11510.857821805219, 17134.69083722721, -187500.02235174447, 22469.49344509762, 10011.323989787577, -28205.979252574358, -769.5258581073116, -7658.065278299485, 770.1964104409708, 2560.7723070111642, -23416.11217452433, -29767.94150685567, 0.1, 0.92, 0.41000000000000003, 192.0, 0.0, 0.0, 0.0, 0.0, 0.0, 0.0, 0.0, 0.0, 0.0, 1.69568447215469E9, 0.0, 2023-09-25 18:27:52.154
18.0, 12101.34620682552, 33667.918582906554, -20223.63486571728, -18843.30288687979, -11473.396298098123, 17138.15535761778, -187500.02235174447, 22472.466227110177, 10020.756425947719, -28196.457409436396, -760.5851603251888, -7655.986566065141, 761.8592097591412, 2572.1493449389154, -23394.118057980308, -29752.049416547947, 0.1, 0.92, 0.41000000000000003, 192.0, 0.0, 0.0, 0.0, 0.0, 0.0, 0.0, 0.0, 0.0, 0.0, 1.695684472154694E9, 0.0, 2023-09-25 18:27:52.154
20.0, 12101.212096358788, 33668.27621081784, -20242.432682804192, -18845.69452353651, -11464.969690438473, 17145.48672979912, -187500.02235174447, 22475.304898656, 10019.102396858025, -28195.161008257986, -762.6191690706216, -7654.824275353465, 759.9146079915295, 2576.1503071964157, -23402.522313895504, -29759.045512562458, 0.1, 0.92, 0.41000000000000003, 192.0, 0.0, 0.0, 0.0, 0.0, 0.0, 0.0, 0.0, 0.0, 0.0, 1.695684472154697E9, 0.0, 2023-09-25 18:27:52.154
22.0, 12099.245142846721, 33666.532774750325, -20243.170290371214, -18844.62163980265, -11460.70050724751, 17143.810348964973, -187500.02235174447, 22482.59156734843, 10016.956629390315, -28191.562377400685, -758.931131235496, -7649.884539828842, 768.8776575181076, 2578.5866473420438, -23402.25409296204, -29748.02610254599, 0.098, 0.926, 0.41600000000000004, 192.0, 1.5, 8.0, 14.0, 120.0, 6.5, 0.0, 0.0, 0.0, 0.0, 1.695684472154701E9, 0.0, 2023-09-25 18:27:52.154
24.0, 12098.284017835143, 33667.739768950916, -20236.129490867796, -18849.673134049553, -11456.878358945653, 17146.514910044065, -187500.02235174447, 22501.299977457522, 10021.739902703752, -28188.09785701011, -753.4773055884011, -7642.597871136412, 758.3276341352027, 2585.9850747567507, -23401.96352028412, -29744.829803088884, 0.098, 0.926, 0.41600000000000004, 192.0, 0.0, 0.0, 0.0, 0.0, 0.0, 0.0, 0.0, 0.0, 0.0, 1.695684472154704E9, 0.0, 2023-09-25 18:27:52.154
26.0, 12104.006064415702, 33673.23829808692, -20227.926400652697, -18843.124072924147, -11447.043591385316, 17156.170863648756, -187500.02235174447, 22474.58964283343, 10019.236507324757, -28193.216406490377, -754.9078172335408, -7647.112923516384, 762.0380237147837, 2578.810164786597, -23396.19677021465, -29740.515916409007, 0.098, 0.926, 0.41600000000000004, 192.0, 0.0, 0.0, 0.0, 0.0, 0.0, 0.0, 0.0, 0.0, 0.0, 1.695684472154707E9, 0.0, 2023-09-25 18:27:52.154
28.0, 12100.58624751404, 33670.53373700783, -20245.696037494665, -18853.718799795963, -11458.21946361297, 17143.855052453884, -187500.02235174447, 22467.571195074463, 10022.946896904337, -28194.468104179872, -753.76787826632, -7646.1070950158955, 777.1030994776606, 2583.2134584442924, -23409.429002932193, -29741.633503631772, 0.098, 0.926, 0.41600000000000004, 192.0, 0.0, 0.0, 0.0, 0.0, 0.0, 0.0, 0.0, 0.0, 0.0, 1.69568447215471E9, 0.0, 2023-09-25 18:27:52.154
30.0, 12101.659131247894, 33672.56774575326, -20232.5755634994, -18846.96857297046, -11438.371114536658, 17157.15434040479, -187500.02235174447, 22472.645041065818, 10020.599963736531, -28187.024973276257, -751.4880003318788, -7642.173187991762, 776.8125267997417, 2597.5632783845995, -23393.29104343546, -29730.770555826493, 0.098, 0.926, 0.41600000000000004, 192.0, 0.0, 0.0, 0.0, 0.0, 0.0, 0.0, 0.0, 0.0, 0.0, 1.695684472214809E9, 0.0, 2023-09-25 18:27:52.214
32.0, 12096.406471300897, 33673.05948413128, -20241.67272349271, -18846.521538081353, -11438.661687214577, 17158.026058438547, -187500.02235174447, 22479.797599291516, 10019.616486980496, -28183.068714507666, -749.1634189085269, -7637.456969911692, 771.4928116193786, 2595.4622144058008, -23395.749735325546, -29725.98728251306, 0.094, 0.92, 0.41400000000000003, 192.0, 1.0, 120.0, 14.0, 96.0, 6.0, 120.0, 0.0, 0.0, 0.0, 1.695684472214819E9, 0.0, 2023-09-25 18:27:52.214
34.0, 12084.716508950773, 33658.75436767988, -20256.91661321123, -18863.285346422836, -11446.708315218488, 17142.022209408547, -187500.02235174447, 22454.49542456811, 10007.12186182998, -28198.983156559847, -772.4539366309568, -7657.439429454736, 737.1158286471164, 2578.8995717644184, -23413.139392511774, -29744.159250755223, 0.094, 0.92, 0.41400000000000003, 192.0, 0.0, 0.0, 0.0, 0.0, 0.0, 0.0, 0.0, 0.0, 0.0, 1.695684472214823E9, 0.0, 2023-09-25 18:27:52.214
36.0, 12095.735918967239, 33670.51138526337, -20246.076017150404, -18853.16000618458, -11436.605326724688, 17149.755912990084, -187500.02235174447, 22447.20875587568, 10013.402702021922, -28195.652746636006, -771.0457767302725, -7651.359754962892, 764.7872882827864, 2578.296074664125, -23416.983892558088, -29747.4226054457, 0.094, 0.92, 0.41400000000000003, 192.0, 0.0, 0.0, 0.0, 0.0, 0.0, 0.0, 0.0, 0.0, 0.0, 1.695684472214826E9, 0.0, 2023-09-25 18:27:52.214
38.0, 12106.643570261427, 33685.419998815065, -20244.19847061616, -18851.59538407271, -11444.540196006323, 17146.492558299607, -187500.02235174447, 22443.811290718473, 10011.480451998765, -28189.461313421885, -774.5773523542109, -7654.220778253171, 752.2703113878144, 2579.2571996757033, -23421.4765931936, -29748.60724790183, 0.094, 0.92, 0.41400000000000003, 192.0, 0.0, 0.0, 0.0, 0.0, 0.0, 0.0, 0.0, 0.0, 0.0, 1.695684472214829E9, 0.0, 2023-09-25 18:27:52.214
40.0, 12108.565820284584, 33682.60367901369, -20237.917630424217, -18844.711046780474, -11439.332239548236, 17149.264174612068, -187500.02235174447, 22463.905508983793, 10021.471681770288, -28174.887976037026, -764.3402533936803, -7643.626051381356, 764.3626051381357, 2594.4787376497675, -23416.58156115789, -29749.680131635683, 0.094, 0.92, 0.41400000000000003, 192.0, 0.0, 0.0, 0.0, 0.0, 0.0, 0.0, 0.0, 0.0, 0.0, 1.695684472214832E9, 0.0, 2023-09-25 18:27:52.214
42.0, 12101.077985892056, 33675.45112078799, -20232.709673966132, -18845.292192136312, -11425.250640541391, 17150.806444979484, -187500.02235174447, 22455.344790857413, 10022.589268993053, -28195.652746636006, -764.5190673493228, -7649.772781106566, 768.5200296068227, 2584.7780805561642, -23406.746793597555, -29744.382768199775, 0.1, 0.922, 0.41400000000000003, 192.0, 1.5, 16.0, 14.0, 104.0, 6.0, 120.0, 0.0, 0.0, 0.0, 1.695684472214835E9, 0.0, 2023-09-25 18:27:52.214
44.0, 12108.454061562308, 33680.592022012715, -20232.553211754945, -18832.551697796785, -11412.040759568306, 17163.166959663267, -187500.02235174447, 22475.371953889367, 10024.958553905315, -28184.096894752613, -756.3383288786804, -7640.60856587989, 783.830974558708, 2589.069615491583, -23405.42804067469, -29737.02904427398, 0.1, 0.922, 0.41400000000000003, 192.0, 0.0, 0.0, 0.0, 0.0, 0.0, 0.0, 0.0, 0.0, 0.0, 1.695684472274121E9, 0.0, 2023-09-25 18:27:52.274
46.0, 12098.909866679891, 33667.695065462, -20233.603743744345, -18838.407854844078, -11429.497471987901, 17158.070761927458, -187500.02235174447, 22469.001706719602, 10029.540661518653, -28197.418534447974, -753.7455265218648, -7646.889406071831, 777.8183553002305, 2584.8898392784404, -23398.63311036028, -29734.324483194887, 0.1, 0.922, 0.41400000000000003, 192.0, 0.0, 0.0, 0.0, 0.0, 0.0, 0.0, 0.0, 0.0, 0.0, 1.695684472274135E9, 0.0, 2023-09-25 18:27:52.274
48.0, 12097.077023634556, 33665.25872531637, -20233.96137165563, -18842.744093268408, -11435.487739501923, 17153.175729891747, -187500.02235174447, 22479.395267891323, 10021.315219559101, -28210.315490998688, -759.3781661246021, -7651.605624151901, 760.2945876472697, 2574.4739263622673, -23398.00726151553, -29733.184544227668, 0.1, 0.922, 0.41400000000000003, 192.0, 0.0, 0.0, 0.0, 0.0, 0.0, 0.0, 0.0, 0.0, 0.0, 1.695684472274139E9, 0.0, 2023-09-25 18:27:52.274
50.0, 12109.39283482943, 33677.932164422535, -20238.588182757878, -18845.4486543475, -11412.912477602064, 17154.226261881144, -187500.02235174447, 22449.980372188136, 10021.35992304801, -28199.027860048755, -750.3927648535687, -7647.403496194303, 758.5064480908452, 2589.0472637471275, -23400.77887782799, -29731.284645948966, 0.1, 0.922, 0.41400000000000003, 192.0, 0.0, 0.0, 0.0, 0.0, 0.0, 0.0, 0.0, 0.0, 0.0, 1.695684472274142E9, 0.0, 2023-09-25 18:27:52.274
52.0, 12106.39770107242, 33677.03809464432, -20247.90886019574, -18852.44475036201, -11427.619925453655, 17147.721904244652, -187500.02235174447, 22456.68589552473, 10027.260783584212, -28200.838351349637, -750.996261953862, -7649.817484595476, 781.0146547573394, 2571.814068772086, -23414.30168322345, -29744.583933899874, 0.106, 0.916, 0.41600000000000004, 192.0, 1.5, 40.0, 14.0, 80.0, 6.5, 0.0, 0.0, 0.0, 0.0, 1.695684472274146E9, 0.0, 2023-09-25 18:27:52.274
54.0, 12104.050767904613, 33674.087664376224, -20247.81945321792, -18857.384485886632, -11437.812320925275, 17141.932802430725, -187500.02235174447, 22446.672314008752, 10024.913850416404, -28200.30190948271, -758.2829306462921, -7652.231472996649, 769.5705615962222, 2582.587609599544, -23406.143296497263, -29740.627675131283, 0.106, 0.916, 0.41600000000000004, 192.0, 0.0, 0.0, 0.0, 0.0, 0.0, 0.0, 0.0, 0.0, 0.0, 1.695684472274149E9, 0.0, 2023-09-25 18:27:52.274
56.0, 12115.204288387811, 33688.348077338705, -20237.269429835014, -18844.3981223581, -11421.54025096181, 17152.326363602446, -187500.02235174447, 22455.59066004642, 10025.517347516698, -28204.615796162583, -756.5394945787782, -7652.432638696747, 769.1905819404819, 2569.1765629263596, -23410.81481108842, -29744.785099599972, 0.106, 0.916, 0.41600000000000004, 192.0, 0.0, 0.0, 0.0, 0.0, 0.0, 0.0, 0.0, 0.0, 0.0, 1.695684472274152E9, 0.0, 2023-09-25 18:27:52.274
58.0, 12111.315084852587, 33682.76014122488, -20251.75336024205, -18853.964668984972, -11429.028085354339, 17154.82975898144, -187500.02235174447, 22453.176671645248, 10028.579536507075, -28198.938453070936, -754.5948928111665, -7647.403496194303, 775.6278843436104, 2579.100737464516, -23399.54953188295, -29736.045567517947, 0.106, 0.916, 0.41600000000000004, 192.0, 0.0, 0.0, 0.0, 0.0, 0.0, 0.0, 0.0, 0.0, 0.0, 1.695684472274155E9, 0.0, 2023-09-25 18:27:52.274
60.0, 12107.939971439835, 33680.793187712814, -20252.066284664426, -18856.088084708226, -11429.45276849899, 17144.59266002091, -187500.02235174447, 22448.996895432105, 10025.807920194617, -28202.894711839523, -758.6629103020323, -7655.673641642767, 770.7105005634428, 2574.071594962072, -23412.40178494475, -29743.153422254734, 0.106, 0.916, 0.41600000000000004, 192.0, 0.0, 0.0, 0.0, 0.0, 0.0, 0.0, 0.0, 0.0, 0.0, 1.695684472334845E9, 0.0, 2023-09-25 18:27:52.334
62.0, 12104.698968493816, 33676.90398417759, -20239.839880447376, -18856.244546919414, -11422.523727717844, 17139.42940705173, -187500.02235174447, 22427.270999821547, 10018.78947243565, -28208.504999697805, -767.5589045952445, -7660.971005078674, 748.0011281968508, 2567.1872576698374, -23419.129660025796, -29756.27389625, 0.10400000000000001, 0.92, 0.41400000000000003, 192.0, 1.5, 32.0, 14.0, 96.0, 6.0, 120.0, 0.0, 0.0, 0.0, 1.695684472334855E9, 0.0, 2023-09-25 18:27:52.334
64.0, 12098.194610857321, 33671.83013818623, -20257.184834144693, -18858.3009074093, -11428.11166383167, 17135.830776194427, -187500.02235174447, 22455.702418768695, 10019.12474860248, -28211.947168343922, -770.0175964853283, -7664.524932447069, 770.799907541264, 2559.811181999586, -23417.25211349155, -29753.435224704175, 0.10400000000000001, 0.92, 0.41400000000000003, 192.0, 0.0, 0.0, 0.0, 0.0, 0.0, 0.0, 0.0, 0.0, 0.0, 1.695684472334858E9, 0.0, 2023-09-25 18:27:52.334
66.0, 12110.085738907545, 33683.29658309181, -20248.557060784944, -18849.606078816185, -11425.205937052482, 17151.275831613046, -187500.02235174447, 22446.96288668667, 10017.224850323779, -28207.2085985194, -770.218762185426, -7662.915606846286, 764.6978813049652, 2564.84032450203, -23422.236552505085, -29750.954181069636, 0.10400000000000001, 0.92, 0.41400000000000003, 192.0, 0.0, 0.0, 0.0, 0.0, 0.0, 0.0, 0.0, 0.0, 0.0, 1.695684472334861E9, 0.0, 2023-09-25 18:27:52.334
68.0, 12108.387006328941, 33679.98852491242, -20250.76988348602, -18854.590517829718, -11419.148614305093, 17139.58586926292, -187500.02235174447, 22432.881287679826, 10019.392969535944, -28208.281482253253, -768.609436584644, -7666.201313281216, 761.479230103401, 2555.720812764265, -23415.35221521285, -29751.401215958744, 0.10400000000000001, 0.92, 0.41400000000000003, 192.0, 0.0, 0.0, 0.0, 0.0, 0.0, 0.0, 0.0, 0.0, 0.0, 1.695684472334865E9, 0.0, 2023-09-25 18:27:52.334
70.0, 12111.851526719514, 33685.50940579288, -20248.15472938475, -18852.087122450725, -11440.606288982188, 17149.77826473454, -187500.02235174447, 22447.856956464882, 10027.663114984407, -28195.608043147095, -758.1488201795603, -7654.220778253171, 780.5676198682332, 2567.880161747952, -23403.461087162625, -29739.085404763868, 0.10400000000000001, 0.92, 0.41400000000000003, 192.0, 0.0, 0.0, 0.0, 0.0, 0.0, 0.0, 0.0, 0.0, 0.0, 1.695684472334868E9, 0.0, 2023-09-25 18:27:52.334
72.0, 12112.812651731092, 33687.81163547178, -20246.63481076179, -18852.534157339833, -11431.889108644618, 17142.73746523112, -187500.02235174447, 22438.58098251593, 10022.03047538167, -28200.413668204987, -760.4063463695463, -7656.210083509694, 763.5579423377445, 2572.261103661192, -23411.418308188717, -29741.36528269831, 0.10200000000000001, 0.916, 0.41600000000000004, 192.0, 1.5, 24.0, 14.0, 80.0, 6.5, 0.0, 0.0, 0.0, 0.0, 1.695684472334871E9, 0.0, 2023-09-25 18:27:52.334
74.0, 12113.214983131289, 33690.4044378286, -20245.226650861103, -18851.81890151726, -11435.152463335093, 17146.425503066243, -187500.02235174447, 22451.5002908111, 10010.608733965008, -28202.447676950418, -762.2838929037921, -7654.690164886733, 756.450087600957, 2562.113411678483, -23418.324997225405, -29748.629599646283, 0.10200000000000001, 0.916, 0.41600000000000004, 192.0, 0.0, 0.0, 0.0, 0.0, 0.0, 0.0, 0.0, 0.0, 0.0, 1.695684472394405E9, 0.0, 2023-09-25 18:27:52.394
76.0, 12125.262573392698, 33702.8543594902, -20251.3286770974, -18853.4505788625, -11427.888146387118, 17140.703456485684, -187500.02235174447, 22432.143680112804, 10023.706856215818, -28196.9044443255, -758.1264684351049, -7652.030307296552, 759.4005178690575, 2574.518629851178, -23414.838125090377, -29737.587837885363, 0.10200000000000001, 0.916, 0.41600000000000004, 192.0, 0.0, 0.0, 0.0, 0.0, 0.0, 0.0, 0.0, 0.0, 0.0, 1.695684472394416E9, 0.0, 2023-09-25 18:27:52.394
78.0, 12129.151776927922, 33701.11092342269, -20260.492892324077, -18854.031724218337, -11429.855099899185, 17140.39053206331, -187500.02235174447, 22441.24084010611, 10031.239394097256, -28180.0512290062, -755.3772038671021, -7645.190673493228, 771.7833842972975, 2584.286342178147, -23419.86726759282, -29746.193259500655, 0.10200000000000001, 0.916, 0.41600000000000004, 192.0, 0.0, 0.0, 0.0, 0.0, 0.0, 0.0, 0.0, 0.0, 0.0, 1.69568447239442E9, 0.0, 2023-09-25 18:27:52.394
80.0, 12107.850564462015, 33677.03809464432, -20245.96425842813, -18847.25914564838, -11410.319675245248, 17150.58292753493, -187500.02235174447, 22439.02801740504, 10025.718513216796, -28207.230950263853, -763.4014801265574, -7658.892292844331, 772.7668610533311, 2568.8636385039854, -23415.240456490574, -29736.22438147359, 0.10200000000000001, 0.916, 0.41600000000000004, 192.0, 0.0, 0.0, 0.0, 0.0, 0.0, 0.0, 0.0, 0.0, 0.0, 1.695684472394423E9, 0.0, 2023-09-25 18:27:52.394
82.0, 12120.769872757182, 33687.40930407158, -20235.81656644542, -18843.660514791074, -11414.5441549473, 17145.218508865655, -187500.02235174447, 22431.920162668248, 10030.121806874491, -28209.82375262067, -759.0205382133172, -7656.545359676524, 757.0088812123396, 2571.2776269051587, -23395.883845792276, -29733.095137249846, 0.096, 0.916, 0.41200000000000003, 192.0, 1.5, 0.0, 14.0, 80.0, 6.0, 112.0, 0.0, 0.0, 0.0, 1.695684472394426E9, 0.0, 2023-09-25 18:27:52.394
84.0, 12117.484166322252, 33681.016705157366, -20220.595028471354, -18838.698427521995, -11421.964934106461, 17149.331229845433, -187500.02235174447, 22416.944493883195, 10034.614507510008, -28205.9569008299, -753.544360821767, -7655.964214320686, 781.5958001131773, 2571.903475749907, -23402.20938947313, -29737.297265207442, 0.096, 0.916, 0.41200000000000003, 192.0, 0.0, 0.0, 0.0, 0.0, 0.0, 0.0, 0.0, 0.0, 0.0, 1.69568447239443E9, 0.0, 2023-09-25 18:27:52.394
86.0, 12115.49486106573, 33677.41807430006, -20235.235421089583, -18837.714950765963, -11410.431433967524, 17156.886119471328, -187500.02235174447, 22460.373933359853, 10035.933260432872, -28212.59536893313, -750.124543920105, -7654.041964297529, 787.4519571604678, 2568.908341992896, -23388.418363144203, -29721.3157679219, 0.096, 0.916, 0.41200000000000003, 192.0, 0.0, 0.0, 0.0, 0.0, 0.0, 0.0, 0.0, 0.0, 0.0, 1.695684472394433E9, 0.0, 2023-09-25 18:27:52.394
88.0, 12120.456948334808, 33680.39085631262, -20234.85544143384, -18840.01718044486, -11415.728797403432, 17154.82975898144, -187500.02235174447, 22428.72386321114, 10031.261745841712, -28213.511790455796, -760.607512069644, -7660.7251358896665, 774.9796837544064, 2564.1921239128264, -23404.355156940837, -29732.69280584965, 0.096, 0.916, 0.41200000000000003, 192.0, 0.0, 0.0, 0.0, 0.0, 0.0, 0.0, 0.0, 0.0, 0.0, 1.695684472394436E9, 0.0, 2023-09-25 18:27:52.394
90.0, 12125.68725653735, 33688.03515291633, -20239.750473469554, -18838.25139263289, -11403.904724586573, 17156.43908458222, -187500.02235174447, 22449.73450299913, 10039.84481571255, -28201.575958916663, -745.8106572402307, -7647.0458682830185, 779.5841431121997, 2576.12795545196, -23387.770162555, -29720.153477210224, 0.096, 0.916, 0.41200000000000003, 192.0, 0.0, 0.0, 0.0, 0.0, 0.0, 0.0, 0.0, 0.0, 0.0, 1.695684472454706E9, 0.0, 2023-09-25 18:27:52.454
92.0, 12114.77960524316, 33678.73682722292, -20235.77186295651, -18851.483625350433, -11423.350742262692, 17140.748159974595, -187500.02235174447, 22420.274903807032, 10029.719475474296, -28213.467086966884, -757.5229713348117, -7659.853417855909, 765.3460818941692, 2567.36607162548, -23406.67973836419, -29731.75403258253, 0.096, 0.91, 0.41400000000000003, 192.0, 1.5, 0.0, 14.0, 56.0, 6.0, 120.0, 0.0, 0.0, 0.0, 1.695684472454718E9, 0.0, 2023-09-25 18:27:52.454
94.0, 12127.676561793873, 33691.499673306906, -20239.43754904718, -18845.67217179205, -11424.870660885652, 17145.35261933239, -187500.02235174447, 22433.954171413683, 10026.880803928472, -28213.1094590556, -754.6842997889877, -7657.819409110476, 764.2955499047697, 2565.779097769153, -23403.86341856282, -29736.604361129328, 0.096, 0.91, 0.41400000000000003, 192.0, 0.0, 0.0, 0.0, 0.0, 0.0, 0.0, 0.0, 0.0, 0.0, 1.695684472454722E9, 0.0, 2023-09-25 18:27:52.454
96.0, 12116.187765143844, 33679.31797257876, -20255.508453310544, -18855.462235863477, -11432.246736555904, 17141.776340219538, -187500.02235174447, 22418.263246806055, 10026.903155672928, -28212.34949974412, -756.7630120233313, -7657.260615499094, 776.5890093551886, 2566.449650102812, -23406.85855231983, -29730.904666293227, 0.096, 0.91, 0.41400000000000003, 192.0, 0.0, 0.0, 0.0, 0.0, 0.0, 0.0, 0.0, 0.0, 0.0, 1.695684472454725E9, 0.0, 2023-09-25 18:27:52.454
98.0, 12124.904945481414, 33691.16439714008, -20246.344238083868, -18845.2474886474, -11418.031027082328, 17153.488654314122, -187500.02235174447, 22425.43815677621, 10031.574670264086, -28208.214427019888, -752.739698021376, -7654.332536975448, 772.8115645422417, 2565.980263469251, -23402.187037728672, -29729.02711975898, 0.096, 0.91, 0.41400000000000003, 192.0, 0.0, 0.0, 0.0, 0.0, 0.0, 0.0, 0.0, 0.0, 0.0, 1.695684472454728E9, 0.0, 2023-09-25 18:27:52.454
100.0, 12130.850509506525, 33694.94184195302, -20243.662028749233, -18845.69452353651, -11421.182623050527, 17146.425503066243, -187500.02235174447, 22420.11844159585, 10032.491091786755, -28204.325223484662, -754.4831340888899, -7651.94090031873, 770.285817418792, 2577.066728719083, -23403.751659840545, -29726.3672621688, 0.096, 0.91, 0.41400000000000003, 192.0, 0.0, 0.0, 0.0, 0.0, 0.0, 0.0, 0.0, 0.0, 0.0, 1.695684472454731E9, 0.0, 2023-09-25 18:27:52.454
102.0, 12138.181881687866, 33701.64736528962, -20227.85934541933, -18837.893764721604, -11420.892050372608, 17148.39245657831, -187500.02235174447, 22424.499383509086, 10037.631993011475, -28204.72755488486, -748.0234799413062, -7649.661022384289, 765.7037098054541, 2561.264045389181, -23404.64572961876, -29735.240904717557, 0.094, 0.922, 0.41000000000000003, 192.0, 1.0, 120.0, 14.0, 104.0, 6.0, 104.0, 0.0, 0.0, 0.0, 1.695684472454734E9, 0.0, 2023-09-25 18:27:52.454
104.0, 12134.40443687492, 33698.629879788146, -20237.604706001843, -18839.324276366744, -11425.094178330206, 17150.2476513681, -187500.02235174447, 22409.21079030166, 10044.717496003806, -28206.426287463462, -747.8446659856637, -7650.756257862599, 784.4121199145461, 2572.3952141279237, -23403.550494140447, -29732.15636398272, 0.094, 0.922, 0.41000000000000003, 192.0, 0.0, 0.0, 0.0, 0.0, 0.0, 0.0, 0.0, 0.0, 0.0, 1.695684472514972E9, 0.0, 2023-09-25 18:27:52.514
106.0, 12130.202308917322, 33692.9525366965, -20243.125586882306, -18842.252354890392, -11418.634524182622, 17143.072741397948, -187500.02235174447, 22403.82401988793, 10035.88855694396, -28211.29896775472, -757.2771021458033, -7656.411249209792, 765.6590063165435, 2567.03079545865, -23413.8770000788, -29739.107756508325, 0.094, 0.922, 0.41000000000000003, 192.0, 0.0, 0.0, 0.0, 0.0, 0.0, 0.0, 0.0, 0.0, 0.0, 1.695684472514986E9, 0.0, 2023-09-25 18:27:52.514
108.0, 12130.202308917322, 33695.00889718639, -20239.23638334708, -18842.76644501286, -11430.480948743934, 17150.29235485701, -187500.02235174447, 22407.15442981177, 10034.681562743373, -28213.712956155894, -761.3451196366692, -7661.1945225232275, 775.2479046878701, 2556.011385442184, -23411.731232611088, -29742.237000732068, 0.094, 0.922, 0.41000000000000003, 192.0, 0.0, 0.0, 0.0, 0.0, 0.0, 0.0, 0.0, 0.0, 0.0, 1.695684472514989E9, 0.0, 2023-09-25 18:27:52.514
110.0, 12121.64159079094, 33684.52592903685, -20261.275203380013, -18849.024933460347, -11430.056265599284, 17142.089264641912, -187500.02235174447, 22423.82883117543, 10036.067370899604, -28214.53997070074, -763.1332591930937, -7662.9603103351965, 776.2090296994484, 2556.1454959089156, -23398.186075471174, -29733.273951205487, 0.094, 0.922, 0.41000000000000003, 192.0, 0.0, 0.0, 0.0, 0.0, 0.0, 0.0, 0.0, 0.0, 0.0, 1.695684472514993E9, 0.0, 2023-09-25 18:27:52.514
112.0, 12124.323800125576, 33688.45983606098, -20235.86126993433, -18848.55554682679, -11415.080596814227, 17152.616936280363, -187500.02235174447, 22421.504249752077, 10021.292867814645, -28220.57494170367, -768.9894162403842, -7667.922397604275, 770.9116662635406, 2560.258216888692, -23406.09859300835, -29735.59853262884, 0.1, 0.92, 0.41400000000000003, 192.0, 1.5, 16.0, 14.0, 96.0, 6.0, 120.0, 0.0, 0.0, 0.0, 1.695684472514996E9, 0.0, 2023-09-25 18:27:52.514
114.0, 12122.82623324707, 33684.19065287002, -20252.44626432017, -18856.758637041883, -11434.951297634996, 17137.32834307293, -187500.02235174447, 22400.806534386462, 10026.433769039366, -28222.67600568247, -767.4024423840574, -7671.632787183856, 759.9593114804401, 2553.5526935521, -23409.004319787542, -29735.64323611775, 0.1, 0.92, 0.41400000000000003, 192.0, 0.0, 0.0, 0.0, 0.0, 0.0, 0.0, 0.0, 0.0, 0.0, 1.695684472514999E9, 0.0, 2023-09-25 18:27:52.514
116.0, 12118.06531167809, 33679.966173167966, -20259.86704347933, -18861.29604116631, -11435.73360869093, 17137.797729706494, -187500.02235174447, 22397.81140062945, 10024.802091694128, -28224.531200472262, -763.2003144264596, -7669.978758094163, 758.349985879658, 2554.200894141304, -23405.6739098637, -29733.78804132796, 0.1, 0.92, 0.41400000000000003, 192.0, 0.0, 0.0, 0.0, 0.0, 0.0, 0.0, 0.0, 0.0, 0.0, 1.695684472515003E9, 0.0, 2023-09-25 18:27:52.515
118.0, 12108.521116795673, 33666.823347428246, -20267.5336918275, -18865.565224357277, -11429.989210365917, 17133.26032558207, -187500.02235174447, 22393.206941271656, 10023.617449237998, -28230.230895308367, -770.3528726521579, -7678.494772731635, 760.0710702027167, 2544.7237544922536, -23416.805078602443, -29736.783175084973, 0.1, 0.92, 0.41400000000000003, 192.0, 0.0, 0.0, 0.0, 0.0, 0.0, 0.0, 0.0, 0.0, 0.0, 1.695684472515006E9, 0.0, 2023-09-25 18:27:52.515
120.0, 12096.808802701093, 33658.217925812954, -20253.943831198674, -18865.699334824007, -11425.518861474857, 17144.97263967665, -187500.02235174447, 22406.975615856125, 10013.156832832914, -28235.39414827754, -774.6891110764875, -7679.522952976579, 759.4675731024233, 2549.775248739153, -23406.903255808742, -29734.1680209837, 0.1, 0.92, 0.41400000000000003, 192.0, 0.0, 0.0, 0.0, 0.0, 0.0, 0.0, 0.0, 0.0, 0.0, 1.695684472574344E9, 0.0, 2023-09-25 18:27:52.574
122.0, 12070.880779132936, 33626.56785566424, -20281.324718156426, -18880.049154764314, -11437.365286036169, 17127.04654062349, -187500.02235174447, 22385.026202801015, 10009.35703627551, -28249.20752635092, -787.5860676271997, -7693.626903727878, 763.0885557041831, 2543.293242847114, -23418.034424547484, -29743.46634667711, 0.098, 0.92, 0.418, 192.0, 1.5, 8.0, 14.0, 96.0, 6.5, 8.0, 0.0, 0.0, 0.0, 1.695684472574355E9, 0.0, 2023-09-25 18:27:52.574
124.0, 12049.467807944753, 33604.77490482031, -20259.799988245963, -18876.361116929187, -11436.381809280136, 17131.293372070002, -187500.02235174447, 22392.15640928226, 9997.22003903628, -28261.277468356788, -800.5500794112778, -7701.472366031691, 760.9651399809289, 2533.88315843143, -23422.750642627558, -29748.339026968366, 0.098, 0.92, 0.418, 192.0, 0.0, 0.0, 0.0, 0.0, 0.0, 0.0, 0.0, 0.0, 0.0, 1.695684472574359E9, 0.0, 2023-09-25 18:27:52.574
126.0, 12015.403749394865, 33565.659352023526, -20275.267395409035, -18881.79259083183, -11435.353629035191, 17124.945476644694, -187500.02235174447, 22379.885301576294, 9981.327948728556, -28276.655468542038, -812.5976696726883, -7717.386808083869, 740.8709217156079, 2537.392382310913, -23415.195753001663, -29744.829803088884, 0.098, 0.92, 0.418, 192.0, 0.0, 0.0, 0.0, 0.0, 0.0, 0.0, 0.0, 0.0, 0.0, 1.695684472574362E9, 0.0, 2023-09-25 18:27:52.574
128.0, 11986.860571725438, 33533.45048826343, -20298.557913131466, -18903.58554167575, -11451.849216443208, 17103.688967667695, -187500.02235174447, 22361.400408911755, 9963.11127699748, -28302.337622921186, -835.0164693613613, -7740.453808361746, 734.9253576904962, 2519.2874693021145, -23434.39590148877, -29764.745207398562, 0.098, 0.92, 0.418, 192.0, 0.0, 0.0, 0.0, 0.0, 0.0, 0.0, 0.0, 0.0, 0.0, 1.695684472574368E9, 0.0, 2023-09-25 18:27:52.574
130.0, 11973.203655863244, 33515.949072354924, -20278.35193614387, -18889.39218394663, -11427.105835331182, 17127.448872023688, -187500.02235174447, 22368.128283992803, 9956.606919360986, -28314.631082371605, -844.895940410607, -7754.423648646313, 738.1663606365157, 2515.532376233623, -23434.664122422233, -29762.085349808378, 0.098, 0.92, 0.418, 192.0, 0.0, 0.0, 0.0, 0.0, 0.0, 0.0, 0.0, 0.0, 0.0, 1.695684472574372E9, 0.0, 2023-09-25 18:27:52.574
132.0, 11963.79357144756, 33503.096819293125, -20288.052593237473, -18893.080221781758, -11444.36138205068, 17130.935744158716, -187500.02235174447, 22385.875569090316, 9953.321212926056, -28320.196666740976, -842.3031380537914, -7754.624814346411, 748.1799421524933, 2515.822948911542, -23423.30943623894, -29749.814242102417, 0.096, 0.918, 0.41400000000000003, 192.0, 1.5, 0.0, 14.0, 88.0, 6.0, 120.0, 0.0, 0.0, 0.0, 1.695684472574376E9, 0.0, 2023-09-25 18:27:52.574
134.0, 11963.70416446974, 33500.19109251393, -20282.62111933483, -18895.315396227288, -11444.160216350581, 17123.023226621535, -187500.02235174447, 22377.359554452843, 9950.191968702313, -28322.07421327522, -851.0650218802717, -7762.514980139134, 735.0147646683174, 2522.0590856145723, -23424.069395550418, -29750.01540780251, 0.096, 0.918, 0.41400000000000003, 192.0, 0.0, 0.0, 0.0, 0.0, 0.0, 0.0, 0.0, 0.0, 0.0, 1.695684472634087E9, 0.0, 2023-09-25 18:27:52.634
136.0, 11966.788705204572, 33504.68379314945, -20285.01275599155, -18895.1589340161, -11446.59655649621, 17122.442081265697, -187500.02235174447, 22382.67926963321, 9947.06272447857, -28322.096565019678, -838.2351205629254, -7756.077677736006, 752.3597183656358, 2514.817120411053, -23417.25211349155, -29751.423567703197, 0.096, 0.918, 0.41400000000000003, 192.0, 0.0, 0.0, 0.0, 0.0, 0.0, 0.0, 0.0, 0.0, 0.0, 1.695684472634098E9, 0.0, 2023-09-25 18:27:52.634
138.0, 11979.328033843998, 33516.440810732944, -20285.884474025308, -18896.567093916787, -11455.179626367048, 17126.375988289834, -187500.02235174447, 22368.508263648542, 9947.68857332332, -28317.60386438416, -839.2856525523249, -7753.015488745629, 739.865093215119, 2527.2223385837483, -23421.8789245938, -29747.042625789956, 0.096, 0.918, 0.41400000000000003, 192.0, 0.0, 0.0, 0.0, 0.0, 0.0, 0.0, 0.0, 0.0, 0.0, 1.695684472634102E9, 0.0, 2023-09-25 18:27:52.634
140.0, 11991.04034793858, 33533.04815686323, -20291.137133972305, -18899.159896273602, -11467.78601023984, 17120.09514809789, -187500.02235174447, 22373.582109639898, 9954.125875726448, -28306.27152994532, -832.8483501491964, -7745.214729930727, 727.8398546981639, 2518.7063239462764, -23421.007206560043, -29745.388596700264, 0.096, 0.918, 0.41400000000000003, 192.0, 0.0, 0.0, 0.0, 0.0, 0.0, 0.0, 0.0, 0.0, 0.0, 1.695684472634105E9, 0.0, 2023-09-25 18:27:52.634
142.0, 12011.022807481624, 33551.801270461234, -20290.667747338743, -18895.3600997162, -11471.406992841601, 17120.698645198187, -187500.02235174447, 22357.98059201009, 9957.724506583752, -28296.16854145152, -830.5684722147552, -7739.447979861257, 730.2091396104264, 2525.4341990273238, -23420.67193039321, -29742.862849576813, 0.096, 0.918, 0.41600000000000004, 192.0, 1.5, 0.0, 14.0, 88.0, 6.5, 0.0, 0.0, 0.0, 0.0, 1.695684472634108E9, 0.0, 2023-09-25 18:27:52.634
144.0, 12017.28129592911, 33557.83624146417, -20273.702773297166, -18895.471858438475, -11472.32341436427, 17114.70837768416, -187500.02235174447, 22351.632696584787, 9968.319233455568, -28290.804122782247, -819.4820069649228, -7730.887261734875, 748.448163085957, 2526.4176757833575, -23423.242381005573, -29747.154384512232, 0.096, 0.918, 0.41600000000000004, 192.0, 0.0, 0.0, 0.0, 0.0, 0.0, 0.0, 0.0, 0.0, 0.0, 1.695684472634111E9, 0.0, 2023-09-25 18:27:52.634
146.0, 12022.533955876108, 33563.08890141117, -20273.14397968578, -18901.193905019034, -11475.184437654549, 17109.500421226076, -187500.02235174447, 22341.32854239089, 9966.30757645459, -28295.296823417764, -823.795893644797, -7736.072866448506, 734.0312879122839, 2516.4711495007455, -23418.63792164778, -29750.775367113994, 0.096, 0.918, 0.41600000000000004, 192.0, 0.0, 0.0, 0.0, 0.0, 0.0, 0.0, 0.0, 0.0, 0.0, 1.695684472634115E9, 0.0, 2023-09-25 18:27:52.634
148.0, 12033.66512461485, 33577.34931437365, -20265.030296448505, -18893.393146204133, -11463.382716582146, 17121.033921365015, -187500.02235174447, 22341.306190646435, 9968.386288688933, -28288.703058803447, -817.3585912416687, -7734.463540847724, 739.8874449595744, 2509.050370341584, -23409.853686076844, -29748.83076534638, 0.096, 0.918, 0.41600000000000004, 192.0, 0.0, 0.0, 0.0, 0.0, 0.0, 0.0, 0.0, 0.0, 0.0, 1.695684472634118E9, 0.0, 2023-09-25 18:27:52.634
150.0, 12037.889604316904, 33584.54657608826, -20274.86506400884, -18893.37079445968, -11479.140696423137, 17111.91440962725, -187500.02235174447, 22328.342178862356, 9972.767230602174, -28279.628250554593, -815.0116580738614, -7728.786197756076, 755.8242387562083, 2523.35548679298, -23406.47857266409, -29746.036797289467, 0.096, 0.918, 0.41600000000000004, 192.0, 0.0, 0.0, 0.0, 0.0, 0.0, 0.0, 0.0, 0.0, 0.0, 1.695684472694296E9, 0.0, 2023-09-25 18:27:52.694
152.0, 12056.598014425996, 33602.427971652505, -20261.72223826912, -18877.858683807695, -11461.12519039216, 17122.53148824352, -187500.02235174447, 22337.21582141111, 9971.046146279115, -28277.59424180916, -817.4927017084005, -7731.893090235364, 742.5920060386666, 2524.629536226933, -23412.044157033462, -29751.960009570124, 0.096, 0.924, 0.41600000000000004, 192.0, 1.5, 0.0, 14.0, 112.0, 6.5, 0.0, 0.0, 0.0, 0.0, 1.695684472694305E9, 0.0, 2023-09-25 18:27:52.694
154.0, 12064.152904051889, 33612.910939802045, -20257.453055078156, -18869.0520964923, -11471.943434708528, 17130.91339241426, -187500.02235174447, 22350.023370984003, 9994.560181446097, -28259.534032289273, -803.3887509571017, -7712.0894446479615, 751.2421311428703, 2533.8608066869747, -23395.81679055891, -29733.519820394496, 0.096, 0.924, 0.41600000000000004, 192.0, 0.0, 0.0, 0.0, 0.0, 0.0, 0.0, 0.0, 0.0, 0.0, 1.695684472694309E9, 0.0, 2023-09-25 18:27:52.694
156.0, 12072.91478787837, 33624.444439940984, -20265.34322087088, -18860.849006277207, -11463.583882282244, 17135.204927349678, -187500.02235174447, 22363.345010679368, 9980.143306272425, -28262.328000346184, -808.864928348652, -7712.692941748255, 758.5287998353004, 2531.8938531749077, -23401.851761561844, -29735.799698328938, 0.096, 0.924, 0.41600000000000004, 192.0, 0.0, 0.0, 0.0, 0.0, 0.0, 0.0, 0.0, 0.0, 0.0, 1.695684472694312E9, 0.0, 2023-09-25 18:27:52.694
158.0, 12088.695119463817, 33641.47646921593, -20234.54251701147, -18852.26593640637, -11463.427420071057, 17151.34288684641, -187500.02235174447, 22367.18951072568, 9987.809954620596, -28246.279447827274, -803.0087713013615, -7703.506374777124, 744.1119246616274, 2538.129989877938, -23400.39889817225, -29731.26229420451, 0.096, 0.924, 0.41600000000000004, 192.0, 0.0, 0.0, 0.0, 0.0, 0.0, 0.0, 0.0, 0.0, 0.0, 1.695684472694315E9, 0.0, 2023-09-25 18:27:52.694
160.0, 12101.256799847699, 33652.965265865954, -20227.56877274141, -18841.91707872356, -11447.669440230065, 17146.090226899414, -187500.02235174447, 22363.14384497927, 10005.825460651573, -28236.668197711493, -783.8756780476186, -7690.587066481957, 756.7183085344207, 2543.7402777362204, -23378.941223495152, -29719.438221387652, 0.096, 0.924, 0.41600000000000004, 192.0, 0.0, 0.0, 0.0, 0.0, 0.0, 0.0, 0.0, 0.0, 0.0, 1.695684472694318E9, 0.0, 2023-09-25 18:27:52.694
162.0, 12101.39091031443, 33655.982751367424, -20238.00703740204, -18852.176529428547, -11459.471161302466, 17142.87157569785, -187500.02235174447, 22373.85033057336, 10002.718568172284, -28237.40580527852, -783.1380704805936, -7684.954426879219, 765.6813580609987, 2544.7684579811644, -23379.410610128714, -29721.360471410808, 0.098, 0.918, 0.41400000000000003, 192.0, 1.5, 8.0, 14.0, 88.0, 6.0, 120.0, 0.0, 0.0, 0.0, 1.695684472694322E9, 0.0, 2023-09-25 18:27:52.694
164.0, 12104.050767904613, 33659.87195490264, -20235.48129027859, -18851.997715472906, -11461.728687492454, 17138.423578551243, -187500.02235174447, 22361.936850778682, 10001.332760016056, -28235.2153343219, -785.5967623706773, -7688.173078080783, 759.4675731024233, 2529.3681060514577, -23384.05977297542, -29726.45666914662, 0.098, 0.918, 0.41400000000000003, 192.0, 0.0, 0.0, 0.0, 0.0, 0.0, 0.0, 0.0, 0.0, 0.0, 1.695684472754602E9, 0.0, 2023-09-25 18:27:52.754
166.0, 12101.413262058886, 33659.268457802355, -20241.628020003798, -18856.892747508617, -11471.876379475163, 17137.14952911729, -187500.02235174447, 22361.243946700568, 9998.02470183667, -28237.182287833966, -786.8261083157192, -7687.860153658409, 758.1264684351049, 2542.332117835536, -23392.70989807962, -29729.988244770557, 0.098, 0.918, 0.41400000000000003, 192.0, 0.0, 0.0, 0.0, 0.0, 0.0, 0.0, 0.0, 0.0, 0.0, 1.69568447275462E9, 0.0, 2023-09-25 18:27:52.754
168.0, 12118.422939589374, 33670.3996265411, -20226.42883377419, -18844.733398524928, -11455.738419978432, 17151.320535101957, -187500.02235174447, 22350.023370984003, 9994.359015746, -28230.767337175294, -788.0778060052164, -7687.994264125141, 763.5579423377445, 2554.0891354190276, -23379.678831062178, -29722.343948166843, 0.098, 0.918, 0.41400000000000003, 192.0, 0.0, 0.0, 0.0, 0.0, 0.0, 0.0, 0.0, 0.0, 0.0, 1.695684472754624E9, 0.0, 2023-09-25 18:27:52.754
170.0, 12115.807785488103, 33676.47930103294, -20221.690263949666, -18849.471968349455, -11462.98038518195, 17139.295296585, -187500.02235174447, 22361.199243211657, 10010.608733965008, -28224.710014427903, -779.0477012452724, -7680.081746587962, 802.7181986234425, 2555.7878679976307, -23376.10255194933, -29720.60051209933, 0.098, 0.918, 0.41400000000000003, 192.0, 0.0, 0.0, 0.0, 0.0, 0.0, 0.0, 0.0, 0.0, 0.0, 1.695684472754628E9, 0.0, 2023-09-25 18:27:52.754
172.0, 12118.624105289473, 33674.06531263176, -20209.463859732612, -18846.096854936703, -11462.64510901512, 17138.088302384414, -187500.02235174447, 22357.1759292097, 10017.26955381269, -28220.641996937036, -774.86792503213, -7678.47242098718, 753.3431951216693, 2549.9317109503404, -23367.541833822947, -29718.79002079845, 0.10400000000000001, 0.918, 0.41200000000000003, 192.0, 1.5, 32.0, 14.0, 88.0, 6.0, 112.0, 0.0, 0.0, 0.0, 1.695684472754631E9, 0.0, 2023-09-25 18:27:52.754
174.0, 12119.1605471564, 33674.512347520875, -20220.259752304526, -18846.409779359077, -11475.475010332468, 17133.707360471173, -187500.02235174447, 22358.56173736593, 10007.300675785622, -28228.0627760962, -782.0204832578282, -7688.597761225434, 772.9456750089736, 2560.9511209668067, -23372.414514114203, -29729.965893026103, 0.10400000000000001, 0.918, 0.41200000000000003, 192.0, 0.0, 0.0, 0.0, 0.0, 0.0, 0.0, 0.0, 0.0, 0.0, 1.695684472754634E9, 0.0, 2023-09-25 18:27:52.754
176.0, 12122.982695458257, 33680.56967026826, -20217.71165343662, -18839.592497300207, -11462.98038518195, 17138.647095995795, -187500.02235174447, 22346.04476047096, 10008.395911263933, -28224.10651732761, -783.9203815365292, -7686.9660838801965, 771.6269220861104, 2543.8073329695862, -23369.441732101648, -29727.2166284581, 0.10400000000000001, 0.918, 0.41200000000000003, 192.0, 0.0, 0.0, 0.0, 0.0, 0.0, 0.0, 0.0, 0.0, 0.0, 1.695684472754637E9, 0.0, 2023-09-25 18:27:52.754
178.0, 12128.190651916344, 33686.202309871, -20236.75533971254, -18839.30192462229, -11478.447792345023, 17141.575174519443, -187500.02235174447, 22357.71237107663, 10021.315219559101, -28224.911180128, -778.1312797226047, -7678.025386098074, 805.9815533139174, 2556.3466616090136, -23359.361095352306, -29724.579122612373, 0.10400000000000001, 0.918, 0.41200000000000003, 192.0, 0.0, 0.0, 0.0, 0.0, 0.0, 0.0, 0.0, 0.0, 0.0, 1.695684472754641E9, 0.0, 2023-09-25 18:27:52.754
180.0, 12125.575497815073, 33682.894251691614, -20218.784537170475, -18835.323314109246, -11473.351594609214, 17142.379837319833, -187500.02235174447, 22341.55205983544, 10017.448367768333, -28222.228970793363, -800.6841898780096, -7691.905819404819, 755.9583492229401, 2545.3496033370025, -23370.514615835502, -29734.88327680627, 0.10400000000000001, 0.918, 0.41200000000000003, 192.0, 0.0, 0.0, 0.0, 0.0, 0.0, 0.0, 0.0, 0.0, 0.0, 1.695684472814873E9, 0.0, 2023-09-25 18:27:52.814
182.0, 12134.06916070809, 33688.12455989415, -20214.068319090406, -18833.892802464106, -11472.636338786644, 17152.125197902347, -187500.02235174447, 22352.48206287409, 10003.322065272578, -28226.028767350766, -777.4160239000349, -7675.097307574429, 769.3917476405798, 2559.654719788399, -23349.10164464732, -29728.758898825516, 0.096, 0.928, 0.41400000000000003, 192.0, 1.5, 0.0, 14.5, 0.0, 6.0, 120.0, 0.0, 0.0, 0.0, 1.695684472814885E9, 0.0, 2023-09-25 18:27:52.814
184.0, 12132.102207196023, 33689.51036805038, -20220.013883115516, -18833.758691997373, -11480.235931901447, 17141.66458149726, -187500.02235174447, 22344.65895231473, 10016.777815434672, -28221.424307992973, -783.1827739695042, -7676.237246541649, 779.8747157901187, 2553.709155763287, -23350.442749314636, -29727.373090669287, 0.096, 0.928, 0.41400000000000003, 192.0, 0.0, 0.0, 0.0, 0.0, 0.0, 0.0, 0.0, 0.0, 0.0, 1.695684472814889E9, 0.0, 2023-09-25 18:27:52.814
186.0, 12124.435558847852, 33681.44138830202, -20232.463804777122, -18841.15711941208, -11496.709167565008, 17131.00279939208, -187500.02235174447, 22341.730873791086, 10010.988713620749, -28231.0132063643, -791.7434920958867, -7683.0321768560625, 785.4626519039455, 2549.194103383315, -23360.523386063982, -29740.78413734247, 0.096, 0.928, 0.41400000000000003, 192.0, 0.0, 0.0, 0.0, 0.0, 0.0, 0.0, 0.0, 0.0, 0.0, 1.695684472814892E9, 0.0, 2023-09-25 18:27:52.814
188.0, 12129.129425183466, 33685.01766741487, -20223.947790139653, -18833.825747230738, -11487.03086221586, 17138.691799484706, -187500.02235174447, 22332.834879497874, 10008.351207775022, -28232.01903486479, -800.1924514999929, -7686.004958868619, 755.4219073560128, 2543.6732225028545, -23358.779949996468, -29739.93477105317, 0.096, 0.928, 0.41400000000000003, 192.0, 0.0, 0.0, 0.0, 0.0, 0.0, 0.0, 0.0, 0.0, 0.0, 1.695684472814895E9, 0.0, 2023-09-25 18:27:52.814
190.0, 12133.890346752447, 33690.62795527315, -20237.045912390462, -18829.690674506506, -11484.683929048053, 17145.553785032487, -187500.02235174447, 22327.023425939493, 10018.007161379715, -28220.887866126046, -791.1846984845041, -7676.125487819373, 783.3392361806913, 2557.911283720885, -23346.86647020179, -29725.048509245935, 0.096, 0.928, 0.41400000000000003, 192.0, 0.0, 0.0, 0.0, 0.0, 0.0, 0.0, 0.0, 0.0, 0.0, 1.695684472814899E9, 0.0, 2023-09-25 18:27:52.814
192.0, 12138.584213088061, 33693.48897856343, -20230.899182665253, -18832.52934605233, -11485.220370914982, 17141.843395452906, -187500.02235174447, 22301.207161093615, 10017.738940446252, -28219.814982392192, -791.2964572067806, -7677.108964575406, 767.2012766839596, 2554.625577285955, -23350.82272897038, -29722.790983055947, 0.094, 0.922, 0.422, 192.0, 1.0, 120.0, 14.0, 104.0, 6.5, 24.0, 0.0, 0.0, 0.0, 1.695684472814902E9, 0.0, 2023-09-25 18:27:52.814
194.0, 12160.712440098816, 33711.75035378341, -20235.14601411176, -18842.989962457414, -11503.414690901602, 17131.896869170294, -187500.02235174447, 22284.912739385694, 10031.261745841712, -28216.797496890726, -787.6978263494761, -7674.426755240769, 785.7755763263198, 2548.1212196494603, -23363.38440935426, -29732.961026783112, 0.094, 0.922, 0.422, 192.0, 0.0, 0.0, 0.0, 0.0, 0.0, 0.0, 0.0, 0.0, 0.0, 1.695684472875416E9, 0.0, 2023-09-25 18:27:52.875
196.0, 12144.283907924166, 33701.31208912279, -20221.936133138675, -18821.129956380126, -11474.22331264297, 17155.790883993017, -187500.02235174447, 22298.144972103237, 10029.808882452116, -28204.01229906229, -780.768785568331, -7663.630862668856, 775.1808494545043, 2555.4972953197116, -23341.859679443798, -29713.22443642908, 0.094, 0.922, 0.422, 192.0, 0.0, 0.0, 0.0, 0.0, 0.0, 0.0, 0.0, 0.0, 0.0, 1.69568447287543E9, 0.0, 2023-09-25 18:27:52.875
198.0, 12146.809655047615, 33698.540472810324, -20228.14991809725, -18826.67318900504, -11478.961882467494, 17148.370104833855, -187500.02235174447, 22277.156684059704, 10019.683542213863, -28210.807229376704, -779.4723843899231, -7662.110944045895, 775.3596634101467, 2558.4700773322675, -23340.96560966559, -29704.417849113688, 0.094, 0.922, 0.422, 192.0, 0.0, 0.0, 0.0, 0.0, 0.0, 0.0, 0.0, 0.0, 0.0, 1.695684472875434E9, 0.0, 2023-09-25 18:27:52.875
200.0, 12159.997184276246, 33715.84072301874, -20197.371565982292, -18812.256313831367, -11473.88803647614, 17170.855959755892, -187500.02235174447, 22269.870015367273, 10027.998391151237, -28193.81990359067, -771.0457767302725, -7654.176074764261, 790.3353321952025, 2572.0152344721837, -23335.064749129386, -29696.125351920768, 0.094, 0.922, 0.422, 192.0, 0.0, 0.0, 0.0, 0.0, 0.0, 0.0, 0.0, 0.0, 0.0, 1.695684472875437E9, 0.0, 2023-09-25 18:27:52.875
202.0, 12155.12450398499, 33715.84072301874, -20216.303493535936, -18810.512877763853, -11475.050327187817, 17176.712116803184, -187500.02235174447, 22290.388916777243, 10034.100417387535, -28176.363191171076, -762.6638725595323, -7638.574557134457, 794.0457217747834, 2591.7965283151307, -23306.342757504317, -29673.17011036517, 0.1, 0.912, 0.422, 192.0, 1.5, 16.0, 14.0, 64.0, 6.5, 24.0, 0.0, 0.0, 0.0, 1.69568447287544E9, 0.0, 2023-09-25 18:27:52.875
204.0, 12154.655117351427, 33716.06424046329, -20220.684435449177, -18820.81703195775, -11476.905521977607, 17171.72767778965, -187500.02235174447, 22261.912794341184, 10014.833213667062, -28178.799531316705, -772.900971520063, -7640.876786813354, 781.3722826686243, 2582.2523334327143, -23319.08325184384, -29680.59088952433, 0.1, 0.912, 0.422, 192.0, 0.0, 0.0, 0.0, 0.0, 0.0, 0.0, 0.0, 0.0, 0.0, 1.695684472875443E9, 0.0, 2023-09-25 18:27:52.875
206.0, 12160.824198821092, 33721.830990532755, -20226.786461685475, -18815.58672375521, -11471.78697249734, 17174.476942357654, -187500.02235174447, 22259.655268151197, 10021.069350370091, -28172.33987716912, -768.8553057736524, -7635.713533844178, 816.4421697190011, 2588.6672840913875, -23317.831554154345, -29675.427636555152, 0.1, 0.912, 0.422, 192.0, 0.0, 0.0, 0.0, 0.0, 0.0, 0.0, 0.0, 0.0, 0.0, 1.695684472875447E9, 0.0, 2023-09-25 18:27:52.875
208.0, 12164.60164363404, 33723.10503996671, -20220.393862771256, -18821.085252891215, -11474.737402765442, 17173.672279557264, -187500.02235174447, 22249.284058723933, 10022.276344570679, -28171.87049053556, -769.1235267071161, -7635.355905932893, 775.2479046878701, 2583.7051968223095, -23322.41366176768, -29677.886328445238, 0.1, 0.912, 0.422, 192.0, 0.0, 0.0, 0.0, 0.0, 0.0, 0.0, 0.0, 0.0, 0.0, 1.69568447287545E9, 0.0, 2023-09-25 18:27:52.875
210.0, 12168.848475080547, 33726.167228957085, -20211.5202202225, -18815.944351666494, -11465.729649749954, 17172.241767912124, -187500.02235174447, 22246.57949764484, 10020.734074203263, -28177.167853971467, -772.5433436087781, -7641.569690891468, 775.9855122548953, 2573.4457461173233, -23321.899571645212, -29680.099151146314, 0.1, 0.912, 0.422, 192.0, 0.0, 0.0, 0.0, 0.0, 0.0, 0.0, 0.0, 0.0, 0.0, 1.695684472934331E9, 0.0, 2023-09-25 18:27:52.934
212.0, 12168.714364613816, 33727.68714758005, -20213.6212842013, -18815.00557839937, -11470.311757363292, 17176.175674936258, -187500.02235174447, 22246.4006836892, 10024.802091694128, -28170.685848079425, -769.6376168295881, -7635.914699544275, 799.1642712550487, 2578.6313508309545, -23316.021062853466, -29677.126369133755, 0.1, 0.91, 0.418, 192.0, 1.5, 16.0, 14.0, 56.0, 6.5, 8.0, 0.0, 0.0, 0.0, 1.695684472934342E9, 0.0, 2023-09-25 18:27:52.934
214.0, 12161.248881965743, 33721.3616038992, -20219.879772648786, -18816.503145277875, -11478.336033622747, 17167.436142854232, -187500.02235174447, 22239.35988418578, 10019.325914302579, -28174.753865570292, -781.4840413909009, -7644.98950779313, 787.3849019271019, 2570.4953158492226, -23327.5545629924, -29686.603508782806, 0.1, 0.91, 0.418, 192.0, 0.0, 0.0, 0.0, 0.0, 0.0, 0.0, 0.0, 0.0, 0.0, 1.695684472934346E9, 0.0, 2023-09-25 18:27:52.934
216.0, 12157.136160985967, 33717.24888291942, -20221.176173827193, -18824.192145370504, -11484.013376714394, 17164.150436419302, -187500.02235174447, 22236.07417775085, 10008.30650428611, -28186.91321455398, -797.1079107651605, -7655.830103853954, 771.4928116193786, 2557.8665802319742, -23333.924810162167, -29699.92514847817, 0.1, 0.91, 0.418, 192.0, 0.0, 0.0, 0.0, 0.0, 0.0, 0.0, 0.0, 0.0, 0.0, 1.695684472934349E9, 0.0, 2023-09-25 18:27:52.934
218.0, 12154.543358629151, 33712.15268518361, -20229.28985706447, -18825.35443608218, -11472.144600408627, 17157.400209593798, -187500.02235174447, 22212.82836351733, 10014.609696222507, -28185.43799941993, -794.15748049706, -7658.311147488493, 784.702692592465, 2567.656644303399, -23330.303827560405, -29700.595700811828, 0.1, 0.91, 0.418, 192.0, 0.0, 0.0, 0.0, 0.0, 0.0, 0.0, 0.0, 0.0, 0.0, 1.695684472934352E9, 0.0, 2023-09-25 18:27:52.934
220.0, 12156.778533074681, 33713.91847299558, -20229.267505320015, -18830.42828207353, -11480.973539468472, 17152.97456419165, -187500.02235174447, 22205.92167448064, 10002.427995494365, -28195.49628442482, -807.7473411258866, -7668.816467382488, 776.2090296994484, 2555.8549232309965, -23347.24644985753, -29717.895951020237, 0.1, 0.91, 0.418, 192.0, 0.0, 0.0, 0.0, 0.0, 0.0, 0.0, 0.0, 0.0, 0.0, 1.695684472934356E9, 0.0, 2023-09-25 18:27:52.934
222.0, 12169.921358814403, 33726.61426384619, -20217.331673780882, -18815.3408545662, -11470.758792252398, 17166.072686442458, -187500.02235174447, 22225.43474739012, 10011.033417109658, -28184.096894752613, -800.6171346446437, -7662.267406257082, 782.9592565249511, 2574.898609506918, -23332.695464217122, -29701.601529312316, 0.098, 0.922, 0.41600000000000004, 192.0, 1.5, 8.0, 14.0, 104.0, 6.5, 0.0, 0.0, 0.0, 0.0, 1.695684472934359E9, 0.0, 2023-09-25 18:27:52.934
224.0, 12185.724042144304, 33741.18760123105, -20205.731118408577, -18809.574104496733, -11462.488646803933, 17171.25829115609, -187500.02235174447, 22228.854564291785, 10032.155815619924, -28167.62365908905, -787.4296054160125, -7643.804865336999, 798.6278293881213, 2577.9607984972954, -23326.973417636564, -29692.86199723029, 0.098, 0.922, 0.41600000000000004, 192.0, 0.0, 0.0, 0.0, 0.0, 0.0, 0.0, 0.0, 0.0, 0.0, 1.695684472994457E9, 0.0, 2023-09-25 18:27:52.994
226.0, 12179.21968450781, 33737.32074944028, -20209.888542877263, -18811.742223708898, -11472.904559720107, 17174.521645846566, -187500.02235174447, 22223.15486945568, 10025.450292283333, -28165.634353832527, -779.9864745123953, -7641.36852519137, 787.4743089049231, 2583.1911066998373, -23323.66535945718, -29686.31293610489, 0.098, 0.922, 0.41600000000000004, 192.0, 0.0, 0.0, 0.0, 0.0, 0.0, 0.0, 0.0, 0.0, 0.0, 1.695684472994469E9, 0.0, 2023-09-25 18:27:52.994
228.0, 12174.101135027544, 33730.10113598122, -20215.409423757723, -18821.800508713783, -11480.571208068277, 17166.16209342028, -187500.02235174447, 22246.803015089397, 10022.991600393249, -28174.083313236635, -784.2780094478143, -7648.521083417068, 792.414044429546, 2571.4340891163456, -23328.247467070516, -29688.905738461704, 0.098, 0.922, 0.41600000000000004, 192.0, 0.0, 0.0, 0.0, 0.0, 0.0, 0.0, 0.0, 0.0, 0.0, 1.695684472994473E9, 0.0, 2023-09-25 18:27:52.994
230.0, 12173.36352746052, 33730.03408074786, -20215.454127246634, -18832.05995941877, -11485.756812781909, 17154.427427581242, -187500.02235174447, 22210.63789256071, 10013.067425855092, -28184.879205808546, -798.8289950882191, -7662.334461490448, 762.2168376704261, 2565.622635557966, -23342.887859688744, -29700.171017667177, 0.098, 0.922, 0.41600000000000004, 192.0, 0.0, 0.0, 0.0, 0.0, 0.0, 0.0, 0.0, 0.0, 0.0, 1.695684472994476E9, 0.0, 2023-09-25 18:27:52.994
232.0, 12182.55009443165, 33743.579237887774, -20212.34723476735, -18828.036645416814, -11470.110591663193, 17161.15530266229, -187500.02235174447, 22232.050863748893, 10023.304524815623, -28173.72568532535, -787.2284397159148, -7651.739734618633, 777.1030994776606, 2560.6381965444325, -23339.84802244282, -29698.82991299986, 0.094, 0.918, 0.41400000000000003, 192.0, 1.0, 120.0, 14.0, 88.0, 6.0, 120.0, 0.0, 0.0, 0.0, 1.695684472994479E9, 0.0, 2023-09-25 18:27:52.994
234.0, 12174.682280383382, 33733.364490671695, -20222.80785117243, -18837.513785065865, -11475.69852777702, 17159.009535194582, -187500.02235174447, 22204.133534924214, 10025.159719605414, -28169.657667834483, -786.2449629598813, -7650.577443906956, 790.3800356841131, 2581.425318887868, -23331.175545594164, -29688.30224136141, 0.094, 0.918, 0.41400000000000003, 192.0, 0.0, 0.0, 0.0, 0.0, 0.0, 0.0, 0.0, 0.0, 0.0, 1.695684472994482E9, 0.0, 2023-09-25 18:27:52.994
236.0, 12171.93301581538, 33732.20219996002, -20229.401615786748, -18841.626506045643, -11486.852048260218, 17147.319572844455, -187500.02235174447, 22206.569875069843, 10008.015931608192, -28187.360249443085, -802.7852538568085, -7664.144952791328, 770.9116662635406, 2554.8490947305077, -23349.638086514246, -29711.39159338374, 0.094, 0.918, 0.41400000000000003, 192.0, 0.0, 0.0, 0.0, 0.0, 0.0, 0.0, 0.0, 0.0, 0.0, 1.695684472994485E9, 0.0, 2023-09-25 18:27:52.994
238.0, 12178.258559496231, 33736.24786570643, -20206.736946909066, -18835.233907131424, -11473.955091709506, 17158.629555538842, -187500.02235174447, 22213.11893619525, 10022.008123637215, -28175.916156281968, -789.8882973060963, -7654.198426508717, 777.9748175114177, 2569.1095076929937, -23331.019083382977, -29691.185616396146, 0.094, 0.918, 0.41400000000000003, 192.0, 0.0, 0.0, 0.0, 0.0, 0.0, 0.0, 0.0, 0.0, 0.0, 1.695684472994489E9, 0.0, 2023-09-25 18:27:52.994
240.0, 12177.588007162572, 33734.906761039114, -20221.466746505113, -18839.212517644468, -11472.50222831991, 17156.081456670934, -187500.02235174447, 22225.21122994557, 10015.995504378738, -28185.303888953196, -788.4801374054119, -7658.869941099876, 779.897067534574, 2557.4195453428683, -23332.784871194945, -29698.69580253313, 0.094, 0.918, 0.41400000000000003, 192.0, 0.0, 0.0, 0.0, 0.0, 0.0, 0.0, 0.0, 0.0, 0.0, 1.695684473055639E9, 0.0, 2023-09-25 18:27:53.055
