%OpenBCI Raw EXG Data
%Number of channels = 16
%Sample Rate = 125 Hz
%Board = OpenBCI_GUI$BoardCytonSerialDaisy
Sample Index, EXG Channel 0, EXG Channel 1, EXG Channel 2, EXG Channel 3, EXG Channel 4, EXG Channel 5, EXG Channel 6, EXG Channel 7, EXG Channel 8, EXG Channel 9, EXG Channel 10, EXG Channel 11, EXG Channel 12, EXG Channel 13, EXG Channel 14, EXG Channel 15, Accel Channel 0, Accel Channel 1, Accel Channel 2, Other, Other, Other, Other, Other, Other, Other, Analog Channel 0, Analog Channel 1, Analog Channel 2, Timestamp, Other, Timestamp (Formatted)
0.0, 34323.49524778071, 27428.60793216323, -25348.82281408582, -33269.49873799071, -8672.074517258945, -3969.3345390957047, -187500.02235174447, -9386.90565668412, 0.0, 0.0, 0.0, 0.0, 0.0, 0.0, 0.0, 0.0, 0.0, 0.0, 0.0, 192.0, 0.0, 0.0, 0.0, 0.0, 0.0, 0.0, 0.0, 0.0, 0.0, 1.695683517974701E9, 0.0, 2023-09-25 18:11:57.974
218.0, 34317.192055844316, 27421.030690792883, -25347.034674529397, -33269.76695892417, -8666.777153823037, -3961.1761523695177, -187500.02235174447, -9389.945493930041, 165.98405432511024, -48478.20681073747, -15956.284517798964, -28212.10363055511, 6366.290910993924, -11957.959766144726, -37660.18601181341, -44489.4486057101, 0.0, 0.0, 0.0, 192.0, 0.0, 0.0, 0.0, 0.0, 0.0, 0.0, 0.0, 0.0, 0.0, 1.695683517974712E9, 0.0, 2023-09-25 18:11:57.974
220.0, 34343.43300383485, 27439.694397413066, -25343.16782273863, -33260.87096463096, -8654.863674028358, -3942.177169582507, -187500.02235174447, -9381.831810692765, 176.2658567745515, -48462.22531345193, -15953.49054974205, -28205.375755474062, 6373.599931430809, -11948.639088706863, -37639.756517381255, -44471.05312002339, 0.0, 0.0, 0.0, 192.0, 0.0, 0.0, 0.0, 0.0, 0.0, 0.0, 0.0, 0.0, 0.0, 1.695683517974715E9, 0.0, 2023-09-25 18:11:57.974
222.0, 34333.061794407586, 27430.70899614203, -25336.909334291144, -33258.97106635226, -8652.270871671542, -3933.974079367409, -187500.02235174447, -9393.789993976354, 182.5690487109481, -48456.68208082701, -15951.054209596421, -28203.408801961996, 6367.520256938966, -11942.492358981654, -37635.420278956924, -44461.3971664187, 0.0, 0.0, 0.0, 192.0, 0.0, 0.0, 0.0, 0.0, 0.0, 0.0, 0.0, 0.0, 0.0, 1.695683517974719E9, 0.0, 2023-09-25 18:11:57.974
224.0, 34348.015111448185, 27437.369815989714, -25327.789822553375, -33250.27623775914, -8647.062915213457, -3939.8525881591545, -187500.02235174447, -9385.832772950265, 187.24056330210726, -48453.128153458616, -15944.39338974874, -28191.71883961187, 6381.221876290068, -11929.774216386584, -37627.75363060876, -44447.382622645215, -0.002, 0.926, 0.388, 192.0, 127.5, 120.0, 14.0, 120.0, 6.0, 16.0, 0.0, 0.0, 0.0, 1.695683517974722E9, 0.0, 2023-09-25 18:11:57.974
226.0, 34343.23183813475, 27438.129775301193, -25316.949226492554, -33243.41425221136, -8642.860787255859, -3936.656288702046, -187500.02235174447, -9401.255476624427, 189.40868251427204, -48446.266167910835, -15945.175700804675, -28192.67996462345, 6380.59602744532, -11929.304829753022, -37629.22884574281, -44444.61100633276, -0.002, 0.926, 0.388, 192.0, 0.0, 0.0, 0.0, 0.0, 0.0, 0.0, 0.0, 0.0, 0.0, 1.695683517974725E9, 0.0, 2023-09-25 18:11:57.974
228.0, 34347.16574515888, 27437.034539822882, -25321.82190678381, -33244.53183943413, -8650.058048970468, -3945.708745206445, -187500.02235174447, -9399.333226601271, 192.89555464929995, -48436.58786256169, -15931.00469482001, -28184.096894752613, 6390.654312450209, -11923.962762828203, -37621.56219739463, -44433.45748584956, -0.002, 0.926, 0.388, 192.0, 0.0, 0.0, 0.0, 0.0, 0.0, 0.0, 0.0, 0.0, 0.0, 1.695683517974728E9, 0.0, 2023-09-25 18:11:57.974
230.0, 34341.17547764486, 27431.46895545351, -25322.44775562856, -33242.81075511107, -8650.885063515314, -3933.2588235448393, -187500.02235174447, -9387.978540417975, 181.42910974372742, -48447.607272578156, -15940.750055402525, -28195.071601280168, 6384.328768769356, -11929.46129196421, -37627.88774107549, -44440.475933608526, -0.002, 0.926, 0.388, 192.0, 0.0, 0.0, 0.0, 0.0, 0.0, 0.0, 0.0, 0.0, 0.0, 1.695683517974731E9, 0.0, 2023-09-25 18:11:57.974
232.0, 34355.30178014062, 27442.063682325326, -25309.751964777945, -33233.35596720647, -8636.825816252926, -3927.6708874310125, -187500.02235174447, -9402.976560947485, 189.2298685586296, -48435.49262708338, -15929.171851774676, -28192.657612878993, 6371.923550596661, -11917.391349958343, -37620.39990668296, -44429.1883026586, -0.002, 0.926, 0.388, 192.0, 0.0, 0.0, 0.0, 0.0, 0.0, 0.0, 0.0, 0.0, 0.0, 1.695683517974735E9, 0.0, 2023-09-25 18:11:57.974
0.0, 16944.41043667918, 13737.33743874281, -12182.46068745383, -16618.052615887238, -4321.061589844417, -1898.1771943780416, -93750.01117587223, -3871.299787914728, 99.59937329284827, -24223.88186739467, -7967.011090160739, -14098.07224250701, 3197.9534861986026, -5956.114048494584, -18808.61297948515, -22216.739918797008, 0.028, 0.934, 0.378, 192.0, 0.0, 112.0, 14.5, 24.0, 5.5, 104.0, 0.0, 0.0, 0.0, 1.695683518111606E9, 0.0, 2023-09-25 18:11:58.111
2.0, 33899.30384150789, 27483.280299100912, -24360.2498603165, -33230.53964740511, -8643.978374478624, -3786.921952595944, -187500.02235174447, -7758.402259159358, -137.10560048885353, -48044.38180260442, -16310.671426137857, -28058.74831184725, 6087.519954147334, -11545.883005366684, -37385.52777594659, -44339.89308355965, 0.028, 0.934, 0.378, 192.0, 0.0, 0.0, 0.0, 0.0, 0.0, 0.0, 0.0, 0.0, 0.0, 1.695683518111618E9, 0.0, 2023-09-25 18:11:58.111
4.0, 33900.577890941844, 27493.427991083623, -24365.793092941418, -33236.44050794131, -8657.836456040914, -3804.758644671279, -187500.02235174447, -7739.760904283632, -126.64498408376981, -48036.402229833875, -16305.552876657592, -28053.383893177976, 6094.784271095308, -11542.083208809283, -37386.15362479134, -44337.94848179203, 0.028, 0.934, 0.378, 192.0, 0.0, 0.0, 0.0, 0.0, 0.0, 0.0, 0.0, 0.0, 0.0, 1.695683518111621E9, 0.0, 2023-09-25 18:11:58.111
6.0, 33924.918940653675, 27520.67476757464, -24347.710531677072, -33217.62033910994, -8638.144569175789, -3786.65373166248, -187500.02235174447, -7746.064096220029, -123.13576020428661, -48021.62772674891, -16300.076699266041, -28046.723073330293, 6092.839669327697, -11541.747932642453, -37384.946630590755, -44336.27210095789, 0.028, 0.934, 0.378, 192.0, 0.0, 0.0, 0.0, 0.0, 0.0, 0.0, 0.0, 0.0, 0.0, 1.695683518111625E9, 0.0, 2023-09-25 18:11:58.111
8.0, 33929.545751755926, 27526.463869388568, -24375.49375003502, -33234.47355442924, -8661.09981073139, -3808.8490139066, -187500.02235174447, -7740.185587428283, -110.08234144238729, -48020.91247092634, -16294.153486985386, -28037.849430781538, 6110.5422509363, -11540.272717508402, -37385.237203268676, -44343.17878999458, 0.038, 0.9400000000000001, 0.36, 192.0, 0.5, 24.0, 14.5, 48.0, 5.5, 32.0, 0.0, 0.0, 0.0, 1.695683518111628E9, 0.0, 2023-09-25 18:11:58.111
10.0, 33946.2648566085, 27544.92641030865, -24362.68620046213, -33231.18784799431, -8655.444819384196, -3796.5332027117256, -187500.02235174447, -7720.516052307613, -117.77134153501291, -48021.091284881986, -16306.446946435804, -28042.07391048359, 6084.211895967948, -11539.088075052272, -37399.05058134205, -44352.20889475452, 0.038, 0.9400000000000001, 0.36, 192.0, 0.0, 0.0, 0.0, 0.0, 0.0, 0.0, 0.0, 0.0, 0.0, 1.695683518111631E9, 0.0, 2023-09-25 18:11:58.111
12.0, 33951.986903189056, 27555.722302880564, -24358.1487963377, -33225.37639443593, -8646.347659390887, -3807.5079092392816, -187500.02235174447, -7734.172968169805, -103.68974252816946, -48001.82408116151, -16292.253588706684, -28030.562762089106, 6093.018483283339, -11543.357258243235, -37386.198328280254, -44346.82212434079, 0.038, 0.9400000000000001, 0.36, 192.0, 0.0, 0.0, 0.0, 0.0, 0.0, 0.0, 0.0, 0.0, 0.0, 1.695683518111634E9, 0.0, 2023-09-25 18:11:58.111
14.0, 33951.830440977865, 27558.538622681932, -24360.540432994418, -33233.512429417664, -8646.168845435244, -3797.8966591234994, -187500.02235174447, -7704.378092810881, -112.026943209999, -48020.77836045961, -16307.698644125301, -28043.1691459619, 6087.072919258228, -11550.800389146852, -37401.82219765451, -44365.44112747206, 0.038, 0.9400000000000001, 0.36, 192.0, 0.0, 0.0, 0.0, 0.0, 0.0, 0.0, 0.0, 0.0, 0.0, 1.695683518111637E9, 0.0, 2023-09-25 18:11:58.111
16.0, 33962.5145748275, 27574.095436822827, -24341.72026416305, -33212.88176928541, -8637.921051731235, -3783.1668595274523, -187500.02235174447, -7729.702619278743, -93.87732671228966, -47997.06315959253, -16286.330376426027, -28024.170163174887, 6105.11077703366, -11531.510833681921, -37380.02924681059, -44341.83768532726, 0.038, 0.9400000000000001, 0.36, 192.0, 0.0, 0.0, 0.0, 0.0, 0.0, 0.0, 0.0, 0.0, 0.0, 1.695683518171344E9, 0.0, 2023-09-25 18:11:58.171
18.0, 33974.58451683337, 27584.734867183553, -24337.920467605647, -33209.685469828306, -8632.914260973246, -3787.6819119074244, -187500.02235174447, -7702.3440840654475, -92.04448366695448, -47990.58115370049, -16286.93387352632, -28014.335395614555, 6108.687056146509, -11525.788787101363, -37387.606488180936, -44348.185580752564, 0.036000000000000004, 0.9400000000000001, 0.362, 192.0, 0.5, 16.0, 14.5, 48.0, 5.5, 40.0, 0.0, 0.0, 0.0, 1.695683518171355E9, 0.0, 2023-09-25 18:11:58.171
20.0, 33980.217156436105, 27595.262538822, -24338.121633305745, -33203.62814708092, -8637.22814765312, -3782.920990338444, -187500.02235174447, -7726.238098888171, -85.94245743065565, -47977.72890063869, -16282.865856035454, -28013.195456647332, 6099.5228409198335, -11520.446720176546, -37376.96705782021, -44340.78715333786, 0.036000000000000004, 0.9400000000000001, 0.362, 192.0, 0.0, 0.0, 0.0, 0.0, 0.0, 0.0, 0.0, 0.0, 0.0, 1.695683518171359E9, 0.0, 2023-09-25 18:11:58.171
22.0, 33984.77691230499, 27608.561826772908, -24341.25087752949, -33203.583443592004, -8637.786941264503, -3783.5021356942816, -187500.02235174447, -7707.708502734721, -83.17084111819759, -47974.532601181585, -16278.283748422116, -28001.170218130377, 6106.0942537896935, -11511.416615416601, -37381.81738636701, -44342.08355451626, 0.036000000000000004, 0.9400000000000001, 0.362, 192.0, 0.0, 0.0, 0.0, 0.0, 0.0, 0.0, 0.0, 0.0, 0.0, 1.695683518171363E9, 0.0, 2023-09-25 18:11:58.171
24.0, 33997.11507524432, 27615.155591387225, -24322.095432531292, -33187.26667013963, -8620.531394545007, -3772.907408822466, -187500.02235174447, -7754.20013120176, -66.02705312097706, -47964.2731504766, -16265.096219193485, -27991.916595925883, 6136.246757059903, -11504.487574635456, -37367.37815944888, -44329.85715029921, 0.036000000000000004, 0.9400000000000001, 0.362, 192.0, 0.0, 0.0, 0.0, 0.0, 0.0, 0.0, 0.0, 0.0, 0.0, 1.695683518171366E9, 0.0, 2023-09-25 18:11:58.171
26.0, 33989.090798984864, 27608.070088394892, -24350.750368922996, -33216.81567630955, -8653.634328083317, -3799.170708557452, -187500.02235174447, -7707.0379504010625, -79.54985851643784, -47990.044711833565, -16281.904731023877, -28004.031241420656, 6096.706521118465, -11531.577888915288, -37385.9748108357, -44355.69576688955, 0.036000000000000004, 0.9400000000000001, 0.362, 192.0, 0.0, 0.0, 0.0, 0.0, 0.0, 0.0, 0.0, 0.0, 0.0, 1.695683518171369E9, 0.0, 2023-09-25 18:11:58.171
28.0, 33982.25116518154, 27612.540437285956, -24343.3966449972, -33207.159722704855, -8647.979336736124, -3790.431176475427, -187500.02235174447, -7735.268203648116, -73.49253576904962, -47974.75611862614, -16274.394544886894, -28008.389831589444, 6099.96987580894, -11531.555537170832, -37388.522909703606, -44346.46449642951, 0.048, 0.9460000000000001, 0.354, 192.0, 0.5, 64.0, 14.5, 72.0, 5.5, 8.0, 0.0, 0.0, 0.0, 1.695683518171372E9, 0.0, 2023-09-25 18:11:58.171
30.0, 33977.89257501275, 27612.674547752686, -24359.936935894126, -33218.17913272132, -8661.18921770921, -3803.7081126818794, -187500.02235174447, -7684.216819312194, -94.92785870168909, -47983.65211291935, -16283.22348394674, -28007.540465300142, 6092.839669327697, -11530.683819137075, -37394.6249359399, -44356.656891901126, 0.048, 0.9460000000000001, 0.354, 192.0, 0.0, 0.0, 0.0, 0.0, 0.0, 0.0, 0.0, 0.0, 0.0, 1.695683518231566E9, 0.0, 2023-09-25 18:11:58.231
32.0, 33982.63114483728, 27614.976777431584, -24336.95934259407, -33205.684507570804, -8642.793732022492, -3789.693568908402, -187500.02235174447, -7716.38097958338, -87.90941094272267, -47978.04182506107, -16280.943606012299, -28014.491857825742, 6090.403329182069, -11527.219298746502, -37395.25078478465, -44353.68410988857, 0.048, 0.9460000000000001, 0.354, 192.0, 0.0, 0.0, 0.0, 0.0, 0.0, 0.0, 0.0, 0.0, 0.0, 1.695683518231578E9, 0.0, 2023-09-25 18:11:58.231
34.0, 33990.431903652185, 27623.805716491428, -24347.62112469925, -33210.53483611761, -8651.08622921541, -3798.7013219238906, -187500.02235174447, -7682.115755333395, -77.98523640456634, -47969.704624379236, -16272.919329752844, -27999.739706485238, 6115.929021350029, -11516.892792808152, -37379.09047354347, -44346.442144685054, 0.048, 0.9460000000000001, 0.354, 192.0, 0.0, 0.0, 0.0, 0.0, 0.0, 0.0, 0.0, 0.0, 0.0, 1.695683518231581E9, 0.0, 2023-09-25 18:11:58.231
36.0, 33996.645688610755, 27626.13029791478, -24332.779566380927, -33203.29287091409, -8643.844264011892, -3788.173650285441, -187500.02235174447, -7715.57631678299, -75.0124543920105, -47971.246894746655, -16272.069963463542, -28001.43843906384, 6098.181736252515, -11527.532223168877, -37388.03117132559, -44348.52085691939, 0.048, 0.9460000000000001, 0.354, 192.0, 0.0, 0.0, 0.0, 0.0, 0.0, 0.0, 0.0, 0.0, 0.0, 1.695683518231585E9, 0.0, 2023-09-25 18:11:58.231
38.0, 34000.04315376796, 27635.786251519472, -24337.160508294168, -33203.315222658544, -8647.845226269392, -3789.4476997193933, -187500.02235174447, -7694.453918272725, -69.08924211135412, -47968.162354011816, -16262.235195903206, -27990.933119169847, 6115.25846901637, -11514.94819104054, -37377.3693892204, -44338.03788876985, 0.05, 0.9480000000000001, 0.354, 192.0, 0.5, 72.0, 14.5, 80.0, 5.5, 8.0, 0.0, 0.0, 0.0, 1.695683518231588E9, 0.0, 2023-09-25 18:11:58.231
40.0, 33991.50478738604, 27625.99618744805, -24339.395682739698, -33207.47264712723, -8649.812179781458, -3796.108519567075, -187500.02235174447, -7726.685133777277, -64.95416938712232, -47968.162354011816, -16268.963070984253, -27999.337375085044, 6112.442149215001, -11525.5205661679, -37387.338267247476, -44343.33525220576, 0.05, 0.9480000000000001, 0.354, 192.0, 0.0, 0.0, 0.0, 0.0, 0.0, 0.0, 0.0, 0.0, 0.0, 1.695683518231591E9, 0.0, 2023-09-25 18:11:58.231
42.0, 33994.745790332054, 27640.837745766374, -24337.83106062783, -33198.978984234214, -8647.129970446822, -3789.17947878593, -187500.02235174447, -7706.456805045224, -67.36815778829549, -47966.01658654411, -16269.968899484742, -27995.939909927838, 6106.630695656621, -11518.971505042495, -37386.35479049144, -44345.12339176219, 0.05, 0.9480000000000001, 0.354, 192.0, 0.0, 0.0, 0.0, 0.0, 0.0, 0.0, 0.0, 0.0, 0.0, 1.695683518231594E9, 0.0, 2023-09-25 18:11:58.231
44.0, 33996.19865372165, 27641.79887077795, -24338.121633305745, -33205.32687965952, -8658.551711863483, -3794.4544904773825, -187500.02235174447, -7716.179813883283, -70.05036712293233, -47959.8698568189, -16270.371230884939, -27995.716392483282, 6096.751224607376, -11507.549763625833, -37384.63370616838, -44340.496580659936, 0.05, 0.9480000000000001, 0.354, 192.0, 0.0, 0.0, 0.0, 0.0, 0.0, 0.0, 0.0, 0.0, 0.0, 1.695683518231597E9, 0.0, 2023-09-25 18:11:58.231
46.0, 33982.11705471481, 27632.411138106723, -24335.81940362685, -33200.34244064599, -8647.353487891376, -3791.8616881205667, -187500.02235174447, -7692.196392082738, -75.23597183656358, -47961.21096148622, -16269.253643662172, -27989.97199415827, 6101.646256643088, -11522.27956322188, -37387.13710154738, -44345.97275805149, 0.05, 0.9480000000000001, 0.354, 192.0, 0.0, 0.0, 0.0, 0.0, 0.0, 0.0, 0.0, 0.0, 0.0, 1.695683518292045E9, 0.0, 2023-09-25 18:11:58.292
48.0, 33992.6223746088, 27635.920361986206, -24316.753365606473, -33190.105341685456, -8627.683952770705, -3774.0026443007764, -187500.02235174447, -7720.784273241076, -73.06785262439878, -47961.18860974177, -16263.308079637061, -27985.613403989486, 6119.952335351984, -11504.42051940209, -37364.69595011425, -44324.38097290766, 0.052000000000000005, 0.9460000000000001, 0.356, 192.0, 0.5, 80.0, 14.5, 72.0, 5.5, 16.0, 0.0, 0.0, 0.0, 1.69568351829206E9, 0.0, 2023-09-25 18:11:58.292
50.0, 33977.95963024612, 27633.171097418202, -24336.311142004866, -33201.705897057764, -8652.606147838373, -3785.8714206065442, -187500.02235174447, -7706.881488189875, -67.77048918849101, -47954.48308640517, -16267.197283172285, -27987.625060990464, 6110.050512558283, -11510.299028193836, -37375.49184268616, -44333.32167068979, 0.052000000000000005, 0.9460000000000001, 0.356, 192.0, 0.0, 0.0, 0.0, 0.0, 0.0, 0.0, 0.0, 0.0, 0.0, 1.695683518292068E9, 0.0, 2023-09-25 18:11:58.292
52.0, 33966.649647551734, 27629.46070783862, -24338.09928156129, -33204.32105115903, -8648.247557669587, -3780.328187981628, -187500.02235174447, -7700.533592764568, -91.01630342201035, -47961.657996375325, -16284.765754314156, -27999.516189040685, 6096.147727507082, -11511.640132861154, -37383.73963639017, -44337.50144690293, 0.052000000000000005, 0.9460000000000001, 0.356, 192.0, 0.0, 0.0, 0.0, 0.0, 0.0, 0.0, 0.0, 0.0, 0.0, 1.695683518292071E9, 0.0, 2023-09-25 18:11:58.292
54.0, 33982.56408960391, 27648.77261504801, -24320.463755186054, -33187.19961490627, -8629.270926627032, -3775.0531762901755, -187500.02235174447, -7729.43439834528, -75.07950962537642, -47937.9651472527, -16270.147713440385, -27987.06626737908, 6110.050512558283, -11485.98033022646, -37369.45687168323, -44325.744429319435, 0.052000000000000005, 0.9460000000000001, 0.356, 192.0, 0.0, 0.0, 0.0, 0.0, 0.0, 0.0, 0.0, 0.0, 0.0, 1.695683518292079E9, 0.0, 2023-09-25 18:11:58.292
56.0, 33975.92562150069, 27643.274085912002, -24330.097357046292, -33194.06160045405, -8646.23590066861, -3766.4477546748826, -187500.02235174447, -7728.495625078157, -71.54793400143791, -47935.640565829344, -16266.347916882984, -27979.421970775365, 6116.443111472501, -11501.045405989338, -37362.72899660218, -44320.3129554168, 0.052000000000000005, 0.9460000000000001, 0.356, 192.0, 0.0, 0.0, 0.0, 0.0, 0.0, 0.0, 0.0, 0.0, 0.0, 1.695683518292083E9, 0.0, 2023-09-25 18:11:58.292
58.0, 33964.79445276195, 27632.165268917714, -24345.274191531444, -33203.96342324775, -8658.976395008134, -3788.3524642410835, -187500.02235174447, -7726.14869191035, -82.54499227344898, -47947.44228690175, -16283.402297902383, -27993.615328504486, 6097.108852518661, -11498.787879799353, -37375.849470597444, -44324.3139176743, 0.046, 0.9520000000000001, 0.358, 192.0, 0.5, 56.0, 14.5, 96.0, 5.5, 24.0, 0.0, 0.0, 0.0, 1.695683518292086E9, 0.0, 2023-09-25 18:11:58.292
60.0, 33964.63799055076, 27638.066129453913, -24339.462737973063, -33206.75739130466, -8656.04831648449, -3779.9258565814325, -187500.02235174447, -7710.301305091537, -95.12902440178686, -47962.59676964245, -16301.462507422271, -28001.86312220849, 6092.079710016216, -11511.170746227592, -37391.83096788299, -44342.4188306831, 0.046, 0.9520000000000001, 0.358, 192.0, 0.0, 0.0, 0.0, 0.0, 0.0, 0.0, 0.0, 0.0, 0.0, 1.695683518352254E9, 0.0, 2023-09-25 18:11:58.352
62.0, 33971.99171447656, 27645.553963846443, -24326.632836655717, -33195.08978069899, -8644.894796001292, -3775.231990245818, -187500.02235174447, -7747.092276464972, -81.9861986620663, -47942.8154757995, -16284.005795002675, -27989.435552291343, 6094.49369841739, -11496.75387105392, -37374.6201246524, -44327.15258922012, 0.046, 0.9520000000000001, 0.358, 192.0, 0.0, 0.0, 0.0, 0.0, 0.0, 0.0, 0.0, 0.0, 0.0, 1.695683518352266E9, 0.0, 2023-09-25 18:11:58.352
64.0, 33972.43874936566, 27647.967952247614, -24332.91367684766, -33194.88861499889, -8644.04542971199, -3765.8442575745894, -187500.02235174447, -7733.1000844359505, -74.72188171409151, -47928.89033900385, -16277.166161199351, -27972.91761313887, 6119.25943127387, -11482.091126691239, -37366.30527571503, -44316.647269326124, 0.046, 0.9520000000000001, 0.358, 192.0, 0.0, 0.0, 0.0, 0.0, 0.0, 0.0, 0.0, 0.0, 0.0, 1.69568351835227E9, 0.0, 2023-09-25 18:11:58.352
66.0, 33951.71868225559, 27633.14874567375, -24354.505461991484, -33215.51927513114, -8674.62261612685, -3800.5118132247703, -187500.02235174447, -7727.176872155294, -96.67129476920304, -47960.36159519692, -16300.411975432871, -28000.83494196355, 6071.6949190729765, -11516.80338583033, -37385.46072071323, -44340.27306321538, 0.046, 0.9520000000000001, 0.358, 192.0, 0.0, 0.0, 0.0, 0.0, 0.0, 0.0, 0.0, 0.0, 0.0, 1.695683518352273E9, 0.0, 2023-09-25 18:11:58.352
68.0, 33967.02962720748, 27649.219649937113, -24340.66973217365, -33205.058658726055, -8649.208682681166, -3785.17851652843, -187500.02235174447, -7703.90870617732, -108.98710596407724, -47966.977711555686, -16307.162202258374, -28009.01568043419, 6081.641445355588, -11521.22903123248, -37395.80957839603, -44351.82891509878, 0.046, 0.9520000000000001, 0.36, 192.0, 0.5, 56.0, 14.5, 96.0, 5.5, 32.0, 0.0, 0.0, 0.0, 1.695683518352277E9, 0.0, 2023-09-25 18:11:58.352
70.0, 33984.21811869361, 27660.551984375954, -24317.4909731735, -33182.43869333729, -8637.42931335322, -3768.8170395871452, -187500.02235174447, -7745.348840397459, -72.08437586836527, -47933.51715010609, -16277.724954810734, -27981.992421387724, 6101.892125832096, -11488.707243050008, -37362.1702029908, -44319.28477517185, 0.046, 0.9520000000000001, 0.36, 192.0, 0.0, 0.0, 0.0, 0.0, 0.0, 0.0, 0.0, 0.0, 0.0, 1.69568351835228E9, 0.0, 2023-09-25 18:11:58.352
72.0, 33993.00235426454, 27679.550967162966, -24311.43365042611, -33180.71760901423, -8637.94340347569, -3769.018205287243, -187500.02235174447, -7735.8046455150425, -63.121326341787146, -47927.97391748118, -16272.516998352648, -27967.709656680785, 6114.833785871719, -11487.813173271797, -37361.1196710014, -44321.87757752867, 0.046, 0.9520000000000001, 0.36, 192.0, 0.0, 0.0, 0.0, 0.0, 0.0, 0.0, 0.0, 0.0, 0.0, 1.695683518352283E9, 0.0, 2023-09-25 18:11:58.352
74.0, 33971.52232784299, 27660.41787390922, -24331.10318554678, -33195.71562954374, -8657.18825545171, -3783.725653138835, -187500.02235174447, -7740.3196978950145, -79.01341664951046, -47943.35191766643, -16286.79976305959, -27979.399619030908, 6091.319750704736, -11496.440946631545, -37376.67648514229, -44337.412039925104, 0.046, 0.9520000000000001, 0.36, 192.0, 0.0, 0.0, 0.0, 0.0, 0.0, 0.0, 0.0, 0.0, 0.0, 1.695683518352286E9, 0.0, 2023-09-25 18:11:58.352
76.0, 33987.32501117289, 27670.990249036582, -24327.035168055914, -33191.37939111941, -8657.300014173987, -3780.037615303709, -187500.02235174447, -7712.871755703897, -84.86957369680091, -47945.20711245622, -16290.733670083722, -27974.795159673115, 6081.484983144401, -11503.347635668235, -37387.36061899193, -44347.35856620772, 0.046, 0.9520000000000001, 0.36, 192.0, 0.0, 0.0, 0.0, 0.0, 0.0, 0.0, 0.0, 0.0, 0.0, 1.69568351841124E9, 0.0, 2023-09-25 18:11:58.411
78.0, 33991.08010424139, 27674.52182466052, -24318.988540052003, -33182.908079970846, -8650.1921594372, -3765.1290017520196, -187500.02235174447, -7742.554872340545, -69.58098048937089, -47933.1148187059, -16286.531542126126, -27970.168348570867, 6094.203125739471, -11491.948245996029, -37375.290676986064, -44325.49856013043, 0.05, 0.9480000000000001, 0.362, 192.0, 0.5, 72.0, 14.5, 80.0, 5.5, 40.0, 0.0, 0.0, 0.0, 1.69568351841125E9, 0.0, 2023-09-25 18:11:58.411
80.0, 33989.47077864061, 27684.982441065604, -24312.394775437686, -33178.348324101964, -8645.788865779503, -3768.638225631503, -187500.02235174447, -7709.407235313325, -74.90069566973396, -47934.85825477341, -16293.7958590741, -27971.420046260366, 6085.754166335365, -11494.295179163835, -37373.94957231874, -44328.62780435417, 0.05, 0.9480000000000001, 0.362, 192.0, 0.0, 0.0, 0.0, 0.0, 0.0, 0.0, 0.0, 0.0, 0.0, 1.695683518411253E9, 0.0, 2023-09-25 18:11:58.411
82.0, 33995.461046154625, 27686.39060096629, -24298.983728764502, -33169.92171644232, -8642.860787255859, -3760.6139493720475, -187500.02235174447, -7749.707430566244, -56.10287858282073, -47916.373362108876, -16273.187550686307, -27956.265563519668, 6109.335256735713, -11471.78697249734, -37357.49868839964, -44310.791112278835, 0.05, 0.9480000000000001, 0.362, 192.0, 0.0, 0.0, 0.0, 0.0, 0.0, 0.0, 0.0, 0.0, 0.0, 1.695683518411257E9, 0.0, 2023-09-25 18:11:58.411
84.0, 33978.63018257978, 27683.90955733175, -24312.081851015315, -33188.09368468448, -8651.130932704322, -3783.3903769720055, -187500.02235174447, -7732.138959424372, -72.66552122420326, -47930.477312860174, -16281.502399623681, -27961.473519977753, 6103.769672366342, -11496.217429186992, -37363.265438469105, -44324.91741477459, 0.05, 0.9480000000000001, 0.362, 192.0, 0.0, 0.0, 0.0, 0.0, 0.0, 0.0, 0.0, 0.0, 0.0, 1.69568351841126E9, 0.0, 2023-09-25 18:11:58.411
86.0, 33968.72835978608, 27673.918327560226, -24316.10516501727, -33193.70397254276, -8649.767476292549, -3783.4574322053713, -187500.02235174447, -7760.860951049442, -76.39826254823954, -47937.92044376379, -16286.956225270776, -27973.766979428172, 6095.25365772887, -11494.004606485916, -37373.279019985086, -44334.34985093473, 0.05, 0.9480000000000001, 0.362, 192.0, 0.0, 0.0, 0.0, 0.0, 0.0, 0.0, 0.0, 0.0, 0.0, 1.695683518411263E9, 0.0, 2023-09-25 18:11:58.411
88.0, 33969.37656037528, 27675.773522350017, -24331.43846171361, -33203.96342324775, -8657.456476385174, -3798.880135879533, -187500.02235174447, -7717.140938894861, -90.63632376627014, -47952.20320847073, -16308.27978948114, -27989.34614531352, 6090.15745999306, -11518.524470153388, -37380.23041251068, -44346.73271736297, 0.05, 0.9460000000000001, 0.36, 192.0, 0.5, 72.0, 14.5, 72.0, 5.5, 32.0, 0.0, 0.0, 0.0, 1.695683518411266E9, 0.0, 2023-09-25 18:11:58.411
90.0, 33961.08406318237, 27668.46450191313, -24330.343226235298, -33210.06544948405, -8666.397174167298, -3796.622609689547, -187500.02235174447, -7731.8707384909085, -78.67814048268086, -47948.55987412451, -16305.910504568876, -27988.07209587957, 6084.882448301608, -11516.378702685679, -37378.1740520208, -44343.42465918358, 0.05, 0.9460000000000001, 0.36, 192.0, 0.0, 0.0, 0.0, 0.0, 0.0, 0.0, 0.0, 0.0, 0.0, 1.695683518471399E9, 0.0, 2023-09-25 18:11:58.471
92.0, 33948.94706594313, 27659.926135531205, -24324.62117965474, -33197.63787956689, -8665.503104389085, -3791.794632887201, -187500.02235174447, -7704.646313744344, -99.7111320151248, -47964.00492954313, -16317.823984363555, -27995.425819805365, 6070.7561458058535, -11517.697455608542, -37386.690066658266, -44353.371185466196, 0.05, 0.9460000000000001, 0.36, 192.0, 0.0, 0.0, 0.0, 0.0, 0.0, 0.0, 0.0, 0.0, 0.0, 1.695683518471412E9, 0.0, 2023-09-25 18:11:58.471
94.0, 33950.7128537551, 27667.23515596809, -24319.56968540784, -33196.22971966621, -8659.177560708233, -3788.5983334300918, -187500.02235174447, -7726.595726799456, -97.20773663613042, -47951.331490436976, -16312.839545350022, -27984.317002811076, 6082.960198278452, -11504.688740335554, -37377.27998224259, -44344.47519117298, 0.05, 0.9460000000000001, 0.36, 192.0, 0.0, 0.0, 0.0, 0.0, 0.0, 0.0, 0.0, 0.0, 0.0, 1.695683518471416E9, 0.0, 2023-09-25 18:11:58.471
96.0, 33944.94610368563, 27668.688019357687, -24317.0886417733, -33189.85947249645, -8649.678069314727, -3777.8918478359997, -187500.02235174447, -7714.749302238143, -95.75487324653545, -47950.39271716985, -16313.84537385051, -27980.31604055358, 6085.351834935169, -11502.5653246123, -37373.413130451816, -44340.563635893304, 0.05, 0.9460000000000001, 0.36, 192.0, 0.0, 0.0, 0.0, 0.0, 0.0, 0.0, 0.0, 0.0, 0.0, 1.695683518471419E9, 0.0, 2023-09-25 18:11:58.471
98.0, 33953.48447006756, 27673.00190603756, -24310.137249247702, -33184.04801893807, -8642.525511089028, -3763.8996558069775, -187500.02235174447, -7723.645296531356, -94.59258253485949, -47949.20807471372, -16321.176746031852, -27984.048781877613, 6081.037948255294, -11485.376833126169, -37370.48505192817, -44334.841589312746, 0.05, 0.9500000000000001, 0.358, 192.0, 0.5, 72.0, 14.5, 88.0, 5.5, 24.0, 0.0, 0.0, 0.0, 1.695683518471422E9, 0.0, 2023-09-25 18:11:58.471
100.0, 33946.868353708785, 27671.75020834806, -24321.469583686543, -33187.19961490627, -8663.692613088204, -3783.636246161014, -187500.02235174447, -7724.919345965308, -90.45750981062768, -47944.760077567116, -16310.112632526474, -27978.68436320834, 6091.431509427012, -11499.592542599743, -37369.1215955164, -44329.85715029921, 0.05, 0.9500000000000001, 0.358, 192.0, 0.0, 0.0, 0.0, 0.0, 0.0, 0.0, 0.0, 0.0, 0.0, 1.695683518471426E9, 0.0, 2023-09-25 18:11:58.471
102.0, 33945.63900776375, 27675.572356649922, -24318.85442958527, -33189.92652772982, -8650.61684258185, -3771.879228577522, -187500.02235174447, -7716.112758649917, -103.26505938351863, -47955.46656316121, -16322.942533843821, -27984.764037700184, 6067.7610120488425, -11498.564362354799, -37377.50349968714, -44339.33428994826, 0.05, 0.9500000000000001, 0.358, 192.0, 0.0, 0.0, 0.0, 0.0, 0.0, 0.0, 0.0, 0.0, 0.0, 1.695683518471429E9, 0.0, 2023-09-25 18:11:58.471
104.0, 33949.885839210256, 27678.031048540004, -24316.395737695188, -33188.94305097378, -8645.319479145943, -3769.8452198320892, -187500.02235174447, -7722.90768896433, -99.12998665928683, -47950.77269682559, -16316.237010507228, -27982.55121499911, 6083.407233167557, -11504.241705446448, -37375.13421477487, -44336.227397468974, 0.05, 0.9500000000000001, 0.358, 192.0, 0.0, 0.0, 0.0, 0.0, 0.0, 0.0, 0.0, 0.0, 0.0, 1.695683518471432E9, 0.0, 2023-09-25 18:11:58.471
106.0, 33950.84696422183, 27685.988269566093, -24311.008967281457, -33189.546548074075, -8647.152322191278, -3770.0910890210976, -187500.02235174447, -7719.487872062668, -83.72963472958025, -47939.149789708834, -16303.541219656614, -27969.475444492753, 6102.652085143577, -11487.120269193681, -37360.04678726754, -44323.799827551826, 0.05, 0.9500000000000001, 0.358, 192.0, 0.0, 0.0, 0.0, 0.0, 0.0, 0.0, 0.0, 0.0, 0.0, 1.695683518531746E9, 0.0, 2023-09-25 18:11:58.531
108.0, 33944.14144088524, 27668.71037110214, -24326.655188400175, -33205.12571395942, -8674.66731961576, -3789.9617898418655, -187500.02235174447, -7716.828014472487, -95.06196916842094, -47947.82226655749, -16312.772490116657, -27983.646450477416, 6078.691015087487, -11493.535219852356, -37373.36842696291, -44336.60737712472, 0.048, 0.9440000000000001, 0.36, 192.0, 0.5, 64.0, 14.5, 64.0, 5.5, 32.0, 0.0, 0.0, 0.0, 1.695683518531756E9, 0.0, 2023-09-25 18:11:58.531
110.0, 33943.3591298293, 27676.064095027938, -24311.500705659477, -33197.727286544716, -8655.37776415083, -3778.5176966807485, -187500.02235174447, -7703.260505588116, -98.52648955899353, -47964.0719847765, -16318.13690878593, -27988.25090983521, 6068.833895782697, -11502.587676356754, -37380.02924681059, -44341.278891715876, 0.048, 0.9440000000000001, 0.36, 192.0, 0.0, 0.0, 0.0, 0.0, 0.0, 0.0, 0.0, 0.0, 0.0, 1.69568351853176E9, 0.0, 2023-09-25 18:11:58.531
112.0, 33932.38442330175, 27674.767693849528, -24318.38504295171, -33202.91289125835, -8668.788810824015, -3792.174612542941, -187500.02235174447, -7722.818281986509, -93.27382961199638, -47957.09824050644, -16309.41972844836, -27982.05947662109, 6081.06029999975, -11495.23395243096, -37372.34024671796, -44336.517970146895, 0.048, 0.9440000000000001, 0.36, 192.0, 0.0, 0.0, 0.0, 0.0, 0.0, 0.0, 0.0, 0.0, 0.0, 1.695683518531763E9, 0.0, 2023-09-25 18:11:58.531
114.0, 33938.44174604914, 27691.397391724277, -24301.06244099885, -33182.03636193709, -8655.109543217366, -3770.64988263248, -187500.02235174447, -7709.206069613228, -102.61685879431472, -47956.18181898377, -16321.176746031852, -27988.34031681303, 6073.170134207026, -11508.533240381867, -37387.89706085886, -44350.48781043146, 0.048, 0.9440000000000001, 0.36, 192.0, 0.0, 0.0, 0.0, 0.0, 0.0, 0.0, 0.0, 0.0, 0.0, 1.695683518531766E9, 0.0, 2023-09-25 18:11:58.531
116.0, 33928.070536621875, 27687.552891677966, -24309.690214358594, -33185.94791721677, -8666.978319523134, -3782.0939757935976, -187500.02235174447, -7731.110779179428, -93.38558833427291, -47948.82809505798, -16320.260324509183, -27980.405447531397, 6090.626846626622, -11483.879266247663, -37372.83198509598, -44333.992223023444, 0.048, 0.9440000000000001, 0.36, 192.0, 0.0, 0.0, 0.0, 0.0, 0.0, 0.0, 0.0, 0.0, 0.0, 1.695683518531769E9, 0.0, 2023-09-25 18:11:58.531
118.0, 33943.582647273855, 27692.91731034724, -24307.455039913064, -33177.588364790485, -8666.173656722744, -3777.735385624813, -187500.02235174447, -7709.407235313325, -97.63241978078125, -47955.935949794766, -16334.073702582564, -27987.356840056997, 6071.851381284164, -11491.344748895735, -37388.45585447024, -44352.521819176894, 0.05, 0.9540000000000001, 0.356, 192.0, 0.5, 72.0, 14.5, 104.0, 5.5, 16.0, 0.0, 0.0, 0.0, 1.695683518531772E9, 0.0, 2023-09-25 18:11:58.531
120.0, 33953.21624913409, 27709.681118688717, -24278.487179098986, -33151.302713311044, -8634.635345296305, -3752.679080090413, -187500.02235174447, -7762.850256305964, -81.42740505068363, -47937.272243174586, -16315.9017343404, -27968.58137471454, 6081.686148844498, -11475.095030676726, -37369.32276121649, -44331.04179275534, 0.05, 0.9540000000000001, 0.356, 192.0, 0.0, 0.0, 0.0, 0.0, 0.0, 0.0, 0.0, 0.0, 0.0, 1.695683518592012E9, 0.0, 2023-09-25 18:11:58.592
122.0, 33948.56708628739, 27706.90950237626, -24304.459906156055, -33171.776911232104, -8664.787848566515, -3770.98515879931, -187500.02235174447, -7727.735665766677, -78.43227129367249, -47939.23919668665, -16319.835641364532, -27962.68051417834, 6102.048588043283, -11474.804457998807, -37362.59488613545, -44332.740525333946, 0.05, 0.9540000000000001, 0.356, 192.0, 0.0, 0.0, 0.0, 0.0, 0.0, 0.0, 0.0, 0.0, 0.0, 1.695683518592027E9, 0.0, 2023-09-25 18:11:58.592
124.0, 33929.63515873375, 27692.447923713677, -24305.398679423175, -33179.10828341344, -8658.842284541402, -3770.292254721195, -187500.02235174447, -7747.785180543087, -90.8598412108232, -47949.05161250253, -16333.09022582653, -27979.06434286408, 6081.283817444303, -11486.784993026853, -37378.95636307673, -44347.850304585736, 0.05, 0.9540000000000001, 0.356, 192.0, 0.0, 0.0, 0.0, 0.0, 0.0, 0.0, 0.0, 0.0, 0.0, 1.695683518592031E9, 0.0, 2023-09-25 18:11:58.592
126.0, 33930.9092081677, 27697.544121449486, -24314.451135927575, -33185.05384743856, -8664.85490379988, -3769.2193709873404, -187500.02235174447, -7713.0282179150845, -93.3632365898176, -47948.2693014466, -16334.18546130484, -27977.43266551884, 6084.793041323786, -11480.638263301644, -37369.211002494216, -44343.849342328234, 0.05, 0.9540000000000001, 0.356, 192.0, 0.0, 0.0, 0.0, 0.0, 0.0, 0.0, 0.0, 0.0, 0.0, 1.695683518592034E9, 0.0, 2023-09-25 18:11:58.592
128.0, 33921.700289452114, 27688.558720178455, -24313.735880105007, -33182.841024737485, -8660.585720608917, -3770.694586121391, -187500.02235174447, -7741.347878139959, -88.37879757628413, -47957.90290330684, -16336.308877028094, -27985.21107258929, 6073.080727229206, -11481.018242957383, -37367.333455959975, -44337.45674341402, 0.054, 0.9560000000000001, 0.36, 192.0, 0.5, 88.0, 14.5, 112.0, 5.5, 32.0, 0.0, 0.0, 0.0, 1.695683518592037E9, 0.0, 2023-09-25 18:11:58.592
130.0, 33922.549655741415, 27680.534443918998, -24337.20521178308, -33204.25399592567, -8678.802392339992, -3786.6760834069355, -187500.02235174447, -7683.94859837873, -103.19800415015271, -47971.29159823556, -16354.257327825706, -27990.329622069556, 6065.101154458661, -11498.452603632522, -37377.14587177585, -44352.7676883659, 0.054, 0.9560000000000001, 0.36, 192.0, 0.0, 0.0, 0.0, 0.0, 0.0, 0.0, 0.0, 0.0, 0.0, 1.69568351859204E9, 0.0, 2023-09-25 18:11:58.592
132.0, 33925.81301043189, 27689.76571437904, -24305.935121290106, -33181.32110611452, -8646.705287302171, -3750.5109608782486, -187500.02235174447, -7732.898918735853, -94.34671334585111, -47949.74451658065, -16347.082417855552, -27986.596880745517, 6077.327558675714, -11483.141658680637, -37365.05357802553, -44331.66764160009, 0.054, 0.9560000000000001, 0.36, 192.0, 0.0, 0.0, 0.0, 0.0, 0.0, 0.0, 0.0, 0.0, 0.0, 1.695683518592044E9, 0.0, 2023-09-25 18:11:58.592
134.0, 33935.80424020341, 27687.95522307816, -24314.942874305594, -33179.28709736909, -8643.061952955955, -3752.5226178792263, -187500.02235174447, -7717.945601695252, -83.68493124066964, -47938.233368186164, -16334.341923516027, -27968.469615992264, 6097.9358670635065, -11468.009527684395, -37344.02058649309, -44309.807635522804, 0.054, 0.9560000000000001, 0.36, 192.0, 0.0, 0.0, 0.0, 0.0, 0.0, 0.0, 0.0, 0.0, 0.0, 1.695683518592047E9, 0.0, 2023-09-25 18:11:58.592
136.0, 33924.13662959774, 27678.366324706833, -24308.05853701336, -33188.071332940024, -8649.432200125719, -3756.143600480986, -187500.02235174447, -7745.05826771954, -92.26800111150756, -47945.90001653433, -16343.886118398443, -27982.193587087822, 6077.7969453092755, -11467.98717593994, -37353.900057542334, -44315.77555129237, 0.054, 0.9560000000000001, 0.36, 192.0, 0.0, 0.0, 0.0, 0.0, 0.0, 0.0, 0.0, 0.0, 0.0, 1.695683518652291E9, 0.0, 2023-09-25 18:11:58.652
138.0, 33934.977225658564, 27691.598557424375, -24300.36953692073, -33177.387199090386, -8642.90549074477, -3743.626623586014, -187500.02235174447, -7739.738552539176, -82.81321320691266, -47942.703717077224, -16331.816176392578, -27974.258717806188, 6082.8484395561745, -11473.46335333149, -37351.41901390779, -44308.131254688655, 0.058, 0.9440000000000001, 0.36, 192.0, 0.5, 104.0, 14.5, 64.0, 5.5, 32.0, 0.0, 0.0, 0.0, 1.695683518652306E9, 0.0, 2023-09-25 18:11:58.652
140.0, 33916.69349869413, 27675.974688050115, -24317.781545851416, -33193.748676031675, -8658.171732207744, -3760.79276332769, -187500.02235174447, -7748.880416021397, -85.27190509699645, -47939.61917634239, -16336.912374128387, -27972.023543360658, 6070.800849294764, -11470.714088763487, -37359.19742097824, -44312.42278962407, 0.058, 0.9440000000000001, 0.36, 192.0, 0.0, 0.0, 0.0, 0.0, 0.0, 0.0, 0.0, 0.0, 0.0, 1.69568351865231E9, 0.0, 2023-09-25 18:11:58.652
142.0, 33924.56131274239, 27679.014525296036, -24329.493859945997, -33202.979946491716, -8672.499200403596, -3773.846182089589, -187500.02235174447, -7724.785235498576, -90.41280632171707, -47941.92140602129, -16349.250537067717, -27984.87579642246, 6074.600645852166, -11480.615911557188, -37373.122557773895, -44326.99612700893, 0.058, 0.9440000000000001, 0.36, 192.0, 0.0, 0.0, 0.0, 0.0, 0.0, 0.0, 0.0, 0.0, 0.0, 1.695683518652313E9, 0.0, 2023-09-25 18:11:58.652
144.0, 33925.72360345407, 27673.739513604585, -24317.84860108478, -33199.51542610114, -8655.266005428553, -3763.6761383624244, -187500.02235174447, -7740.185587428283, -85.47307079709421, -47943.44132464425, -16350.546938246125, -27979.891357408927, 6071.560808606245, -11483.901617992118, -37369.076892027486, -44325.185635708054, 0.058, 0.9440000000000001, 0.36, 192.0, 0.0, 0.0, 0.0, 0.0, 0.0, 0.0, 0.0, 0.0, 0.0, 1.695683518652316E9, 0.0, 2023-09-25 18:11:58.652
146.0, 33912.1560945697, 27652.99709475006, -24343.977790353038, -33222.80594382357, -8677.684805117227, -3791.2581910202734, -187500.02235174447, -7711.329485336481, -102.5274518164935, -47967.51415342261, -16358.437104038849, -27991.134284869946, 6050.371354862614, -11508.488536892955, -37382.68910440077, -44343.223493483485, 0.058, 0.9440000000000001, 0.36, 192.0, 0.0, 0.0, 0.0, 0.0, 0.0, 0.0, 0.0, 0.0, 0.0, 1.695683518652319E9, 0.0, 2023-09-25 18:11:58.652
148.0, 33911.03850734693, 27660.23905995358, -24330.566743679854, -33210.445429139785, -8664.966662522158, -3777.713033880357, -187500.02235174447, -7712.469424303702, -99.57702154839296, -47962.46265917572, -16352.245670824728, -27993.481218037752, 6055.780477020798, -11494.161068697103, -37376.87765084239, -44334.95334803502, 0.056, 0.9400000000000001, 0.352, 192.0, 0.5, 96.0, 14.5, 48.0, 5.5, 0.0, 0.0, 0.0, 0.0, 1.695683518652322E9, 0.0, 2023-09-25 18:11:58.652
150.0, 33915.218283560076, 27664.552946633452, -24330.946723335594, -33212.34532741849, -8668.073555001445, -3786.3631589845613, -187500.02235174447, -7708.446110301747, -99.88994597076726, -47964.2731504766, -16351.217490579784, -27991.06722963658, 6060.29552940077, -11494.161068697103, -37379.425749710295, -44337.702612603025, 0.056, 0.9400000000000001, 0.352, 192.0, 0.0, 0.0, 0.0, 0.0, 0.0, 0.0, 0.0, 0.0, 0.0, 1.695683518711535E9, 0.0, 2023-09-25 18:11:58.711
152.0, 33918.839266161835, 27675.326487460912, -24314.607598138762, -33205.8856732709, -8658.730525819126, -3768.593522142592, -187500.02235174447, -7713.497604548646, -84.33313182987355, -47957.031185273074, -16344.355505032005, -27988.854406935505, 6067.0010527373615, -11488.975463983472, -37373.279019985086, -44333.522836389886, 0.056, 0.9400000000000001, 0.352, 192.0, 0.0, 0.0, 0.0, 0.0, 0.0, 0.0, 0.0, 0.0, 0.0, 1.695683518711546E9, 0.0, 2023-09-25 18:11:58.711
154.0, 33915.37474577126, 27666.85517631235, -24319.10029877428, -33207.3385366605, -8661.166865964755, -3775.3213972236395, -187500.02235174447, -7726.86394773292, -84.57900101888193, -47944.178932211275, -16341.338019530538, -27977.097389352013, 6072.723099317921, -11483.968673225483, -37365.27709547008, -44325.744429319435, 0.056, 0.9400000000000001, 0.352, 192.0, 0.0, 0.0, 0.0, 0.0, 0.0, 0.0, 0.0, 0.0, 0.0, 1.69568351871155E9, 0.0, 2023-09-25 18:11:58.711
156.0, 33917.90049289471, 27667.972763535116, -24314.56289464985, -33207.9867372497, -8657.679993829726, -3769.8675715765444, -187500.02235174447, -7722.438302330769, -89.04934990994333, -47946.68232759027, -16350.278717312662, -27978.371438785965, 6069.303282416258, -11488.439022116545, -37368.42869143828, -44330.19242646604, 0.056, 0.9400000000000001, 0.352, 192.0, 0.0, 0.0, 0.0, 0.0, 0.0, 0.0, 0.0, 0.0, 0.0, 1.695683518711553E9, 0.0, 2023-09-25 18:11:58.711
158.0, 33913.63130970375, 27662.541289632478, -24319.592037152295, -33205.14806570388, -8662.351508420887, -3770.851048332578, -187500.02235174447, -7744.38771538588, -89.38462607677295, -47943.620138599894, -16352.446836524827, -27979.332563797543, 6065.458782369946, -11483.476934847467, -37370.86503158391, -44327.778438064866, 0.054, 0.9420000000000001, 0.354, 192.0, 0.5, 88.0, 14.5, 56.0, 5.5, 8.0, 0.0, 0.0, 0.0, 1.695683518711556E9, 0.0, 2023-09-25 18:11:58.711
160.0, 33925.835362176345, 27682.032010797502, -24312.99827253798, -33193.79337952058, -8652.33792690491, -3755.8977312919774, -187500.02235174447, -7734.642354803366, -81.58386726187078, -47936.46758037419, -16347.976487633765, -27971.509453238185, 6064.520009102823, -11469.797667240819, -37366.43938618176, -44318.18953969354, 0.054, 0.9420000000000001, 0.354, 192.0, 0.0, 0.0, 0.0, 0.0, 0.0, 0.0, 0.0, 0.0, 0.0, 1.69568351871156E9, 0.0, 2023-09-25 18:11:58.711
162.0, 33927.39998428822, 27679.349801462868, -24300.034260753902, -33182.75161775966, -8639.396266865286, -3737.748114794268, -187500.02235174447, -7743.694811307766, -81.71797772860262, -47929.60559482642, -16345.42838876586, -27964.178081056845, 6073.952445262962, -11461.572225281267, -37350.904923785325, -44303.504443586404, 0.054, 0.9420000000000001, 0.354, 192.0, 0.0, 0.0, 0.0, 0.0, 0.0, 0.0, 0.0, 0.0, 0.0, 1.695683518711563E9, 0.0, 2023-09-25 18:11:58.711
164.0, 33921.87910340776, 27673.694810115674, -24320.731976119518, -33207.7408680607, -8656.85297928488, -3762.7373650953014, -187500.02235174447, -7705.965066667208, -89.78695747696847, -47937.87574027488, -16346.858900411, -27965.11685432397, 6056.182808420994, -11473.619815542677, -37357.25281921063, -44306.92426048807, 0.054, 0.9420000000000001, 0.354, 192.0, 0.0, 0.0, 0.0, 0.0, 0.0, 0.0, 0.0, 0.0, 0.0, 1.695683518711566E9, 0.0, 2023-09-25 18:11:58.711
166.0, 33907.41752474517, 27664.485891400087, -24313.020624282435, -33204.87984477042, -8644.648926812282, -3758.177609226419, -187500.02235174447, -7740.677325806299, -80.17570736118644, -47934.27710941758, -16339.862804396487, -27970.145996826413, 6071.449049883968, -11474.245664387425, -37348.647397595334, -44299.21290865099, 0.054, 0.9420000000000001, 0.354, 192.0, 0.0, 0.0, 0.0, 0.0, 0.0, 0.0, 0.0, 0.0, 0.0, 1.695683518771439E9, 0.0, 2023-09-25 18:11:58.771
168.0, 33890.54195768142, 27642.13414694478, -24347.039979343415, -33233.42302243984, -8680.009386540578, -3785.580847928625, -187500.02235174447, -7703.506374777124, -107.64600129675881, -47965.18957199926, -16360.448761039826, -27987.53565401264, 6040.827159980197, -11489.5119058504, -37371.53558391757, -44320.93880426155, 0.05, 0.9420000000000001, 0.36, 192.0, 0.5, 72.0, 14.5, 56.0, 5.5, 32.0, 0.0, 0.0, 0.0, 1.695683518771453E9, 0.0, 2023-09-25 18:11:58.771
170.0, 33890.00551581449, 27637.28381839798, -24343.553107208387, -33235.121755018445, -8674.95789229368, -3792.2640195207623, -187500.02235174447, -7740.364401383925, -103.60033555034823, -47960.763926597116, -16361.923976173875, -27991.938947670336, 6045.05163968225, -11500.37485365568, -37382.979677078685, -44328.739563076444, 0.05, 0.9420000000000001, 0.36, 192.0, 0.0, 0.0, 0.0, 0.0, 0.0, 0.0, 0.0, 0.0, 0.0, 1.695683518771459E9, 0.0, 2023-09-25 18:11:58.771
172.0, 33906.76932415597, 27654.80758605094, -24333.450118714587, -33221.710708345265, -8665.48075264463, -3760.949225538877, -187500.02235174447, -7710.010732413618, -111.13287343178672, -47960.00396728563, -16366.886063442955, -27989.860235435994, 6039.687221012977, -11491.858839018207, -37376.49767118665, -44323.12927521816, 0.05, 0.9420000000000001, 0.36, 192.0, 0.0, 0.0, 0.0, 0.0, 0.0, 0.0, 0.0, 0.0, 0.0, 1.695683518771465E9, 0.0, 2023-09-25 18:11:58.771
174.0, 33903.05893457639, 27647.4762138696, -24337.58519143882, -33223.588254879505, -8661.703307831682, -3760.6363011165026, -187500.02235174447, -7747.427552631802, -88.82583246539026, -47945.60944385642, -16346.635382966446, -27974.705752695296, 6058.417982866524, -11489.869533761685, -37353.564781375506, -44299.5034813289, 0.05, 0.9420000000000001, 0.36, 192.0, 0.0, 0.0, 0.0, 0.0, 0.0, 0.0, 0.0, 0.0, 0.0, 1.695683518771471E9, 0.0, 2023-09-25 18:11:58.771
176.0, 33905.94230961112, 27653.958219761636, -24344.849508386793, -33230.71846136075, -8671.023985269545, -3773.5109059227593, -187500.02235174447, -7708.8037382130315, -104.69557102865828, -47964.00492954313, -16357.699496471823, -27983.48998826623, 6054.975814220406, -11509.047330504338, -37371.803804851035, -44322.63753684015, 0.05, 0.9420000000000001, 0.36, 192.0, 0.0, 0.0, 0.0, 0.0, 0.0, 0.0, 0.0, 0.0, 0.0, 1.695683518771477E9, 0.0, 2023-09-25 18:11:58.771
178.0, 33901.226091531054, 27645.21868767961, -24340.021531584447, -33223.40944092387, -8665.056069499979, -3768.034728531209, -187500.02235174447, -7740.878491506397, -89.11640514330927, -47952.516132893106, -16347.820025422578, -27981.008944631692, 6043.688183270477, -11497.670292576588, -37360.315008201, -44312.892176257636, 0.058, 0.9440000000000001, 0.36, 192.0, 0.5, 104.0, 14.5, 64.0, 5.5, 32.0, 0.0, 0.0, 0.0, 1.695683518771483E9, 0.0, 2023-09-25 18:11:58.771
180.0, 33912.960757370085, 27657.646257596763, -24329.091528545803, -33207.942033760795, -8655.824799039936, -3753.461391146349, -187500.02235174447, -7722.371247097403, -104.1144256728203, -47957.52292365109, -16355.151397603919, -27982.01477313218, 6050.594872307167, -11498.474955376978, -37364.450080925235, -44321.542301361835, 0.058, 0.9440000000000001, 0.36, 192.0, 0.0, 0.0, 0.0, 0.0, 0.0, 0.0, 0.0, 0.0, 0.0, 1.695683518831721E9, 0.0, 2023-09-25 18:11:58.831
182.0, 33917.8557894058, 27660.216708209125, -24317.84860108478, -33197.07908595551, -8646.504121602073, -3741.4361526293937, -187500.02235174447, -7761.307985938548, -76.66648348170322, -47927.50453084762, -16340.555708474603, -27963.26165953418, 6065.995224236873, -11466.288443361336, -37353.02833950858, -44300.174033662566, 0.058, 0.9440000000000001, 0.36, 192.0, 0.0, 0.0, 0.0, 0.0, 0.0, 0.0, 0.0, 0.0, 0.0, 1.695683518831751E9, 0.0, 2023-09-25 18:11:58.831
184.0, 33928.09288836633, 27678.031048540004, -24307.075060257324, -33190.70883878575, -8639.642136054294, -3743.492513119282, -187500.02235174447, -7743.538349096579, -72.73257645756918, -47919.212033654694, -16332.956115359799, -27952.48811870672, 6072.588988851188, -11462.958033437495, -37346.68044408327, -44300.46460634049, 0.058, 0.9440000000000001, 0.36, 192.0, 0.0, 0.0, 0.0, 0.0, 0.0, 0.0, 0.0, 0.0, 0.0, 1.695683518831755E9, 0.0, 2023-09-25 18:11:58.831
186.0, 33922.7061179526, 27674.991211294084, -24304.124629989223, -33198.978984234214, -8646.794694279992, -3744.878321275511, -187500.02235174447, -7759.229273704204, -72.12907935727588, -47921.24604240013, -16329.960981602788, -27952.979857084734, 6061.43546836799, -11472.189303897538, -37348.803859806525, -44298.47530108396, 0.058, 0.9440000000000001, 0.36, 192.0, 0.0, 0.0, 0.0, 0.0, 0.0, 0.0, 0.0, 0.0, 0.0, 1.695683518831759E9, 0.0, 2023-09-25 18:11:58.831
188.0, 33914.59243471533, 27669.313868202433, -24324.643531399197, -33221.01780426715, -8671.180447480732, -3771.1863244994074, -187500.02235174447, -7729.859081489931, -80.01924514999928, -47931.28197566056, -16334.856013638499, -27959.841842632515, 6056.853360754652, -11488.37196688318, -37354.79412732054, -44310.74640878993, 0.052000000000000005, 0.9440000000000001, 0.358, 192.0, 0.5, 80.0, 14.5, 64.0, 5.5, 24.0, 0.0, 0.0, 0.0, 1.695683518831773E9, 0.0, 2023-09-25 18:11:58.831
190.0, 33922.59435923032, 27674.141845004782, -24308.304406202365, -33203.248167425176, -8647.822874524936, -3745.213597442341, -187500.02235174447, -7750.310927666537, -79.50515502752722, -47929.67265005978, -16339.41576950738, -27965.787406657626, 6050.997203707362, -11478.090164433737, -37363.64541812485, -44311.349905890216, 0.052000000000000005, 0.9440000000000001, 0.358, 192.0, 0.0, 0.0, 0.0, 0.0, 0.0, 0.0, 0.0, 0.0, 0.0, 1.695683518831776E9, 0.0, 2023-09-25 18:11:58.831
192.0, 33918.45928650609, 27674.09714151587, -24323.10126103178, -33210.62424309543, -8660.42925839773, -3762.916179050944, -187500.02235174447, -7746.086447964483, -76.75589045952445, -47919.18968191024, -16337.672333439868, -27954.231554774233, 6062.933035246496, -11462.287481103836, -37355.643493609845, -44302.83389125275, 0.052000000000000005, 0.9440000000000001, 0.358, 192.0, 0.0, 0.0, 0.0, 0.0, 0.0, 0.0, 0.0, 0.0, 0.0, 1.695683518831779E9, 0.0, 2023-09-25 18:11:58.831
194.0, 33907.26106253399, 27661.96014427664, -24324.48706918801, -33213.37350766343, -8661.90447353178, -3760.1892662273967, -187500.02235174447, -7751.048535233562, -85.4283673081836, -47932.42191462778, -16345.875423654965, -27958.612496687474, 6047.19740714996, -11477.576074311266, -37368.11576701591, -44309.181786678055, 0.052000000000000005, 0.9440000000000001, 0.358, 192.0, 0.0, 0.0, 0.0, 0.0, 0.0, 0.0, 0.0, 0.0, 0.0, 1.695683518831783E9, 0.0, 2023-09-25 18:11:58.831
196.0, 33915.44180100463, 27674.141845004782, -24325.224676755035, -33209.86428378395, -8663.200874710188, -3764.4137459294498, -187500.02235174447, -7751.540273611578, -80.1086521278205, -47930.812589027, -16340.555708474603, -27961.71938916676, 6050.661927540533, -11480.481801090456, -37365.321798959, -44311.93105124606, 0.052000000000000005, 0.9440000000000001, 0.358, 192.0, 0.0, 0.0, 0.0, 0.0, 0.0, 0.0, 0.0, 0.0, 0.0, 1.695683518891936E9, 0.0, 2023-09-25 18:11:58.891
198.0, 33904.8023706439, 27664.82116756692, -24335.305313504377, -33225.2422839692, -8671.158095736277, -3772.0356907887094, -187500.02235174447, -7743.225424674204, -83.26024809601881, -47929.94087099325, -16351.95509814681, -27965.87681363545, 6049.343174617669, -11481.957016224505, -37375.26832524161, -44323.75512406291, 0.052000000000000005, 0.9500000000000001, 0.356, 192.0, 0.5, 80.0, 14.5, 88.0, 5.5, 16.0, 0.0, 0.0, 0.0, 1.695683518891946E9, 0.0, 2023-09-25 18:11:58.891
200.0, 33910.725582924555, 27671.504339159055, -24336.132328049225, -33220.54841763359, -8666.128953233832, -3771.0298622882206, -187500.02235174447, -7745.326488653003, -87.82000396490145, -47934.59003383995, -16363.063915141096, -27975.868043406972, 6040.223662879904, -11491.121231451181, -37376.65413339784, -44328.71721133199, 0.052000000000000005, 0.9500000000000001, 0.356, 192.0, 0.0, 0.0, 0.0, 0.0, 0.0, 0.0, 0.0, 0.0, 0.0, 1.695683518891949E9, 0.0, 2023-09-25 18:11:58.891
202.0, 33919.30865279539, 27672.733685104096, -24328.890362845705, -33216.81567630955, -8667.939444534713, -3759.474010404827, -187500.02235174447, -7728.495625078157, -93.25147786754107, -47931.99723148313, -16369.300051844128, -27975.465712006775, 6043.397610592558, -11485.019205214883, -37375.514194430616, -44328.963080521, 0.052000000000000005, 0.9500000000000001, 0.356, 192.0, 0.0, 0.0, 0.0, 0.0, 0.0, 0.0, 0.0, 0.0, 0.0, 1.695683518891952E9, 0.0, 2023-09-25 18:11:58.891
204.0, 33907.57398695636, 27665.84934781186, -24335.662941415663, -33222.269501956645, -8676.544866150007, -3765.8889610634997, -187500.02235174447, -7727.825072744498, -86.14362313075343, -47930.901996004824, -16360.113484872996, -27970.883604393435, 6039.620165779611, -11482.51580983589, -37373.65899964082, -44321.3634874062, 0.052000000000000005, 0.9500000000000001, 0.356, 192.0, 0.0, 0.0, 0.0, 0.0, 0.0, 0.0, 0.0, 0.0, 0.0, 1.695683518891956E9, 0.0, 2023-09-25 18:11:58.891
206.0, 33912.22314980306, 27675.751170605563, -24322.408356953667, -33216.48040014272, -8661.882121787325, -3758.6693476044356, -187500.02235174447, -7714.391674326858, -92.737387745069, -47939.77563855358, -16356.783074949155, -27973.230537561245, 6034.14398838806, -11485.332129637258, -37376.698836886746, -44325.453856641514, 0.052000000000000005, 0.9500000000000001, 0.356, 192.0, 0.0, 0.0, 0.0, 0.0, 0.0, 0.0, 0.0, 0.0, 0.0, 1.695683518891959E9, 0.0, 2023-09-25 18:11:58.891
208.0, 33905.830550888844, 27674.141845004782, -24321.96132206456, -33213.06058324106, -8662.686784587715, -3757.529408637215, -187500.02235174447, -7737.883357749386, -74.61012299181498, -47916.574527808974, -16332.173804303862, -27956.57848794204, 6051.712459529932, -11471.943434708528, -37359.6668076118, -44301.96217321899, 0.05, 0.9420000000000001, 0.354, 192.0, 0.5, 72.0, 14.5, 56.0, 5.5, 8.0, 0.0, 0.0, 0.0, 1.695683518891962E9, 0.0, 2023-09-25 18:11:58.891
210.0, 33913.78777191493, 27682.456693942153, -24324.263551743457, -33215.85455129797, -8666.017194511556, -3758.4234784154273, -187500.02235174447, -7700.153613108828, -89.47403305459417, -47926.1634261803, -16343.997877120719, -27959.52891821014, 6044.604604793144, -11478.045460944828, -37366.282923970575, -44309.00297272241, 0.05, 0.9420000000000001, 0.354, 192.0, 0.0, 0.0, 0.0, 0.0, 0.0, 0.0, 0.0, 0.0, 0.0, 1.695683518952189E9, 0.0, 2023-09-25 18:11:58.952
212.0, 33923.756649942, 27694.14665629228, -24311.254836470467, -33204.5892720925, -8649.387496636808, -3745.8394462870892, -187500.02235174447, -7732.116607679917, -76.37591080378424, -47915.90397547531, -16336.979429361754, -27956.600839686496, 6046.906834472041, -11471.496399819422, -37357.72220584419, -44297.69299002802, 0.05, 0.9420000000000001, 0.354, 192.0, 0.0, 0.0, 0.0, 0.0, 0.0, 0.0, 0.0, 0.0, 0.0, 1.695683518952201E9, 0.0, 2023-09-25 18:11:58.952
214.0, 33924.13662959774, 27690.883301601807, -24319.97201680804, -33216.99449026519, -8664.698441588693, -3752.1202864790307, -187500.02235174447, -7705.9874184116625, -76.19709684814178, -47908.66201027179, -16328.41871123537, -27950.364702983465, 6063.670642813521, -11470.93760620804, -37350.56964761849, -44291.635667280636, 0.05, 0.9420000000000001, 0.354, 192.0, 0.0, 0.0, 0.0, 0.0, 0.0, 0.0, 0.0, 0.0, 0.0, 1.695683518952205E9, 0.0, 2023-09-25 18:11:58.952
216.0, 33911.843170147324, 27673.404237437757, -24326.72224363354, -33220.3919554224, -8666.061898000467, -3764.883132563011, -187500.02235174447, -7723.824110486998, -82.70145448463613, -47922.29657438953, -16336.33122877255, -27956.980819342236, 6046.415096094024, -11484.885094748151, -37364.33832220296, -44303.97383021997, 0.05, 0.9420000000000001, 0.354, 192.0, 0.0, 0.0, 0.0, 0.0, 0.0, 0.0, 0.0, 0.0, 0.0, 1.695683518952208E9, 0.0, 2023-09-25 18:11:58.952
218.0, 33915.486504493536, 27686.077676543915, -24317.71449061805, -33210.71365007325, -8666.017194511556, -3750.9132922784443, -187500.02235174447, -7694.208049083716, -83.17084111819759, -47928.733876792656, -16348.535281245147, -27960.49004322172, 6043.218796636916, -11478.090164433737, -37367.84754608245, -44309.38295237815, 0.052000000000000005, 0.9480000000000001, 0.356, 192.0, 0.5, 80.0, 14.5, 80.0, 5.5, 16.0, 0.0, 0.0, 0.0, 1.695683518952211E9, 0.0, 2023-09-25 18:11:58.952
220.0, 33898.7003444076, 27679.059228784947, -24327.884534345216, -33218.9390920328, -8675.360223693875, -3760.949225538877, -187500.02235174447, -7725.679305276788, -86.45654755312772, -47916.39571385333, -16348.579984734059, -27961.853499633493, 6041.832988480686, -11477.799591755818, -37366.10411001493, -44306.90190874361, 0.052000000000000005, 0.9480000000000001, 0.356, 192.0, 0.0, 0.0, 0.0, 0.0, 0.0, 0.0, 0.0, 0.0, 0.0, 1.695683518952214E9, 0.0, 2023-09-25 18:11:58.952
222.0, 33912.73723992553, 27689.497493445575, -24322.721281376038, -33219.43083041082, -8665.056069499979, -3767.922969808933, -187500.02235174447, -7691.995226382641, -91.37393133329527, -47914.38405685235, -16357.632441238457, -27964.178081056845, 6033.764008732321, -11473.03867018684, -37366.8193658375, -44312.55690009081, 0.052000000000000005, 0.9480000000000001, 0.356, 192.0, 0.0, 0.0, 0.0, 0.0, 0.0, 0.0, 0.0, 0.0, 0.0, 1.695683518952218E9, 0.0, 2023-09-25 18:11:58.952
224.0, 33900.46613221957, 27672.80074033746, -24318.452098185076, -33222.403612423375, -8658.864636285858, -3752.8802457905113, -187500.02235174447, -7715.911592949819, -96.47012906910528, -47930.99140298265, -16363.175673863374, -27972.984668372235, 6047.733849016888, -11492.84231577424, -37369.63568563887, -44321.765818806394, 0.052000000000000005, 0.9480000000000001, 0.356, 192.0, 0.0, 0.0, 0.0, 0.0, 0.0, 0.0, 0.0, 0.0, 0.0, 1.695683518952221E9, 0.0, 2023-09-25 18:11:58.952
226.0, 33912.692536436625, 27691.57620567992, -24302.135324732702, -33206.57857734902, -8649.968641992646, -3747.3817166545055, -187500.02235174447, -7703.260505588116, -86.99298942005508, -47923.6600308013, -16351.798635935622, -27961.518223466664, 6050.594872307167, -11485.645054059632, -37353.765947075604, -44303.370333119674, 0.052000000000000005, 0.9480000000000001, 0.356, 192.0, 0.0, 0.0, 0.0, 0.0, 0.0, 0.0, 0.0, 0.0, 0.0, 1.695683519011537E9, 0.0, 2023-09-25 18:11:59.011
228.0, 33911.53024572495, 27688.3352027339, -24303.699946844572, -33213.68643208581, -8660.295147930998, -3754.243702202285, -187500.02235174447, -7733.547119325057, -67.43521302166141, -47914.45111208571, -16339.169900318373, -27950.699979150293, 6066.755183548354, -11482.493458091434, -37350.279074940576, -44300.39755110712, 0.056, 0.9460000000000001, 0.356, 192.0, 0.5, 96.0, 14.5, 72.0, 5.5, 16.0, 0.0, 0.0, 0.0, 1.695683519011551E9, 0.0, 2023-09-25 18:11:59.011
230.0, 33900.75670489749, 27684.04366779848, -24314.540542905397, -33218.58146412152, -8667.0453747565, -3768.2582459757623, -187500.02235174447, -7694.1856973392605, -82.96967541809981, -47917.15567316481, -16347.685914955846, -27960.065360077067, 6040.514235557823, -11484.728632536964, -37359.04095876705, -44310.56759483428, 0.056, 0.9460000000000001, 0.356, 192.0, 0.0, 0.0, 0.0, 0.0, 0.0, 0.0, 0.0, 0.0, 0.0, 1.695683519011557E9, 0.0, 2023-09-25 18:11:59.011
232.0, 33896.8004461289, 27679.23804274059, -24318.09447027379, -33221.73306008972, -8670.420488169251, -3767.3865279420056, -187500.02235174447, -7716.515090050112, -96.69364651365835, -47925.55992908, -16353.251499325217, -27964.62511594595, 6029.248956352349, -11483.074603447272, -37368.29458097155, -44316.60256583722, 0.056, 0.9460000000000001, 0.356, 192.0, 0.0, 0.0, 0.0, 0.0, 0.0, 0.0, 0.0, 0.0, 0.0, 1.695683519011563E9, 0.0, 2023-09-25 18:11:59.011
234.0, 33901.74018165352, 27688.782237623007, -24319.234409241013, -33220.8389903115, -8669.235845713121, -3767.8112110866564, -187500.02235174447, -7693.403386283325, -90.81513772191259, -47922.363629622894, -16351.75393244671, -27958.590144943017, 6041.073029169206, -11476.190266155038, -37366.50644141513, -44312.400437879616, 0.056, 0.9460000000000001, 0.356, 192.0, 0.0, 0.0, 0.0, 0.0, 0.0, 0.0, 0.0, 0.0, 0.0, 1.695683519011569E9, 0.0, 2023-09-25 18:11:59.011
236.0, 33898.74504789651, 27690.05628705696, -24307.030356768413, -33220.68252810032, -8662.61972935435, -3753.103763235064, -187500.02235174447, -7704.199278855238, -92.22329762259695, -47925.87285350238, -16357.990069149742, -27967.195566558312, 6034.255747110337, -11492.439984374045, -37366.66290362631, -44318.50246411592, 0.056, 0.9460000000000001, 0.356, 192.0, 0.0, 0.0, 0.0, 0.0, 0.0, 0.0, 0.0, 0.0, 0.0, 1.695683519011575E9, 0.0, 2023-09-25 18:11:59.011
238.0, 33902.45543747609, 27690.592728923886, -24314.518191160943, -33225.398746180384, -8677.349528950397, -3769.0629087761536, -187500.02235174447, -7695.817374684499, -88.55761153192658, -47922.363629622894, -16352.782112691655, -27966.659124691385, 6045.5210263158115, -11487.679062805064, -37363.24308672465, -44314.03211522486, 0.054, 0.9480000000000001, 0.354, 192.0, 0.5, 88.0, 14.5, 80.0, 5.5, 8.0, 0.0, 0.0, 0.0, 1.695683519011581E9, 0.0, 2023-09-25 18:11:59.011
240.0, 33903.03658283193, 27690.68213590171, -24300.235426454, -33212.34532741849, -8662.843246798902, -3751.4497341453716, -187500.02235174447, -7709.139014379861, -81.42740505068363, -47926.364591880396, -16349.675220212368, -27962.099368822503, 6037.832026223186, -11481.018242957383, -37365.657075125826, -44315.596737336724, 0.054, 0.9480000000000001, 0.354, 192.0, 0.0, 0.0, 0.0, 0.0, 0.0, 0.0, 0.0, 0.0, 0.0, 1.695683519071373E9, 0.0, 2023-09-25 18:11:59.071
242.0, 33907.88691137873, 27695.353650492867, -24300.213074709543, -33209.61841459494, -8661.770363065049, -3757.596463870581, -187500.02235174447, -7702.47819453218, -68.44104152215023, -47920.15080692182, -16337.649981695413, -27953.96333384077, 6049.119657173116, -11474.536237065344, -37349.697929584734, -44302.43155985255, 0.054, 0.9480000000000001, 0.354, 192.0, 0.0, 0.0, 0.0, 0.0, 0.0, 0.0, 0.0, 0.0, 0.0, 1.695683519071388E9, 0.0, 2023-09-25 18:11:59.071
244.0, 33906.59051020032, 27695.420705726232, -24290.914749016138, -33206.82444653803, -8654.014307739057, -3762.111516250553, -187500.02235174447, -7710.167194624805, -84.33313182987355, -47919.68142028826, -16339.438121251836, -27955.10327280799, 6045.319860615714, -11472.971614953472, -37359.73386284517, -44315.28381291435, 0.054, 0.9480000000000001, 0.354, 192.0, 0.0, 0.0, 0.0, 0.0, 0.0, 0.0, 0.0, 0.0, 0.0, 1.695683519071392E9, 0.0, 2023-09-25 18:11:59.071
246.0, 33897.69451590711, 27689.944528334683, -24297.50851363045, -33213.55232161908, -8658.082325229923, -3761.485667405804, -187500.02235174447, -7705.294514333548, -76.80059394843506, -47923.23534765665, -16344.131987587452, -27955.57265944155, 6052.405363608046, -11486.114440693193, -37348.937970273255, -44314.45679836951, 0.054, 0.9480000000000001, 0.354, 192.0, 0.0, 0.0, 0.0, 0.0, 0.0, 0.0, 0.0, 0.0, 0.0, 1.695683519071395E9, 0.0, 2023-09-25 18:11:59.071
248.0, 33887.32330647985, 27679.662725885242, -24300.593054365287, -33222.02363276764, -8665.771325322548, -3757.3952981704833, -187500.02235174447, -7691.861115915909, -91.19511737765282, -47934.72414430668, -16360.560519762103, -27971.598860216007, 6049.969023462418, -11486.740289537942, -37353.52007788659, -44318.05542922681, 0.058, 0.9480000000000001, 0.356, 192.0, 0.5, 104.0, 14.5, 80.0, 5.5, 16.0, 0.0, 0.0, 0.0, 1.695683519071398E9, 0.0, 2023-09-25 18:11:59.071
250.0, 33897.001611829, 27689.318679489934, -24286.04206872488, -33205.70685931526, -8647.577005335928, -3751.069754489631, -187500.02235174447, -7714.101101648939, -82.32147482889592, -47930.410257626805, -16354.257327825706, -27963.284011278633, 6042.771761747809, -11483.633397058655, -37347.14983071683, -44309.07002795578, 0.058, 0.9480000000000001, 0.356, 192.0, 0.0, 0.0, 0.0, 0.0, 0.0, 0.0, 0.0, 0.0, 0.0, 1.695683519071401E9, 0.0, 2023-09-25 18:11:59.071
252.0, 33901.80723688689, 27697.789990638496, -24278.37542037671, -33205.70685931526, -8644.581871578917, -3749.728649822313, -187500.02235174447, -7713.385845826369, -77.71701547110266, -47920.46373134419, -16346.098941099519, -27953.672761162852, 6062.553055590756, -11472.882207975652, -37339.25966492411, -44306.745446532426, 0.058, 0.9480000000000001, 0.356, 192.0, 0.0, 0.0, 0.0, 0.0, 0.0, 0.0, 0.0, 0.0, 0.0, 1.695683519071404E9, 0.0, 2023-09-25 18:11:59.071
254.0, 33891.41367571517, 27695.286595259502, -24285.729144302506, -33207.651461082874, -8659.848113041891, -3751.8073620566565, -187500.02235174447, -7730.7531512681435, -71.34676830134015, -47910.24898412812, -16337.247650295218, -27953.069264062557, 6073.304244673758, -11472.166952153082, -37337.24800792313, -44302.99035346393, 0.058, 0.9480000000000001, 0.356, 192.0, 0.0, 0.0, 0.0, 0.0, 0.0, 0.0, 0.0, 0.0, 0.0, 1.695683519071408E9, 0.0, 2023-09-25 18:11:59.071
0.0, 33899.192082785616, 27705.43428724221, -24277.928385487605, -33199.537777845595, -8657.1435519628, -3739.35744039505, -187500.02235174447, -7709.273124846593, -85.27190509699645, -47925.15759767981, -16349.51875800118, -27957.71842690926, 6038.457875067935, -11479.185399912049, -37352.9165807863, -44311.282850656855, 0.058, 0.9480000000000001, 0.356, 192.0, 0.0, 0.0, 0.0, 0.0, 0.0, 0.0, 0.0, 0.0, 0.0, 1.695683519131823E9, 0.0, 2023-09-25 18:11:59.131
2.0, 33898.499178707505, 27707.35653726537, -24281.437609367087, -33196.85556851096, -8654.438990883707, -3741.302042162662, -187500.02235174447, -7730.976668712697, -65.35650078731786, -47907.23149862665, -16336.599449706013, -27945.089691292014, 6052.29360488577, -11469.954129452006, -37338.946740501735, -44288.23820212343, 0.058, 0.9460000000000001, 0.358, 192.0, 0.5, 104.0, 14.5, 72.0, 5.5, 24.0, 0.0, 0.0, 0.0, 1.695683519131854E9, 0.0, 2023-09-25 18:11:59.131
4.0, 33893.2018152716, 27699.33226100591, -24290.065382726836, -33208.74669656118, -8670.33108119143, -3750.734478322802, -187500.02235174447, -7696.599685740434, -83.01437890701042, -47918.92146097678, -16340.645115452424, -27948.688322149315, 6044.425790837502, -11471.742269008431, -37342.59007484795, -44295.92720221606, 0.058, 0.9460000000000001, 0.358, 192.0, 0.0, 0.0, 0.0, 0.0, 0.0, 0.0, 0.0, 0.0, 0.0, 1.695683519131858E9, 0.0, 2023-09-25 18:11:59.131
6.0, 33882.67414363314, 27690.548025434975, -24294.960414762547, -33213.01587975214, -8679.204723740188, -3766.4701064193378, -187500.02235174447, -7706.613267256412, -85.80834696392381, -47922.363629622894, -16347.931784144854, -27958.47838622074, 6043.487017570379, -11480.6606150461, -37348.379176661874, -44299.01174295089, 0.058, 0.9460000000000001, 0.358, 192.0, 0.0, 0.0, 0.0, 0.0, 0.0, 0.0, 0.0, 0.0, 0.0, 1.695683519131861E9, 0.0, 2023-09-25 18:11:59.131
8.0, 33911.23967304703, 27723.136868850812, -24291.76411530544, -33207.49499887168, -8675.159057993777, -3755.69656559188, -187500.02235174447, -7678.897104131831, -92.67033251170308, -47915.14401616383, -16352.446836524827, -27953.896278607404, 6034.702781999444, -11480.213580156993, -37360.9185053013, -44309.22649016696, 0.058, 0.9460000000000001, 0.358, 192.0, 0.0, 0.0, 0.0, 0.0, 0.0, 0.0, 0.0, 0.0, 0.0, 1.695683519131864E9, 0.0, 2023-09-25 18:11:59.131
10.0, 33889.267908247464, 27697.05238307147, -24275.290879641878, -33194.86626325444, -8658.305842674476, -3744.4089346419496, -187500.02235174447, -7718.213822628716, -71.21265783460831, -47903.87873695836, -16334.99012410523, -27942.161612768366, 6048.493808328368, -11460.74521073642, -37349.83204005147, -44294.51904231537, 0.058, 0.9460000000000001, 0.358, 192.0, 0.0, 0.0, 0.0, 0.0, 0.0, 0.0, 0.0, 0.0, 0.0, 1.695683519131867E9, 0.0, 2023-09-25 18:11:59.131
12.0, 33884.88696633422, 27694.593691181388, -24287.763153047938, -33219.877865299924, -8675.807258582981, -3767.1183070085417, -187500.02235174447, -7679.7464704211325, -84.1766696186864, -47934.43357162876, -16349.09407485653, -27959.126586809947, 6047.622090294611, -11479.900655734618, -37346.568685360995, -44300.91164122959, 0.052000000000000005, 0.9500000000000001, 0.354, 192.0, 0.5, 80.0, 14.5, 88.0, 5.5, 8.0, 0.0, 0.0, 0.0, 1.695683519131871E9, 0.0, 2023-09-25 18:11:59.131
14.0, 33881.08716977682, 27683.887205587293, -24275.1791209196, -33214.31228093056, -8665.48075264463, -3761.5080191502598, -187500.02235174447, -7714.794005727054, -81.69562598414731, -47941.83199904347, -16357.09599937153, -27973.58816547253, 6049.656099040044, -11494.921028008584, -37355.799955821036, -44315.79790303682, 0.052000000000000005, 0.9500000000000001, 0.354, 192.0, 0.0, 0.0, 0.0, 0.0, 0.0, 0.0, 0.0, 0.0, 0.0, 1.695683519191993E9, 0.0, 2023-09-25 18:11:59.191
16.0, 33878.60612614228, 27679.081580529404, -24284.56685359083, -33219.453182155274, -8671.627482369839, -3760.0998592495753, -187500.02235174447, -7672.258636028605, -76.15239335923117, -47947.68815609076, -16362.974508163275, -27972.761150927683, 6044.515197815323, -11496.172725698081, -37358.303351200026, -44313.942708247036, 0.052000000000000005, 0.9500000000000001, 0.354, 192.0, 0.0, 0.0, 0.0, 0.0, 0.0, 0.0, 0.0, 0.0, 0.0, 1.695683519192007E9, 0.0, 2023-09-25 18:11:59.192
18.0, 33887.32330647985, 27688.75988587855, -24252.51445204192, -33197.28025165561, -8642.167883177744, -3743.939548008388, -187500.02235174447, -7726.19339539926, -64.32832054237373, -47941.317908920995, -16353.407961536404, -27972.24706080521, 6044.6269565376, -11485.399184870623, -37341.65130158082, -44298.408245850595, 0.052000000000000005, 0.9500000000000001, 0.354, 192.0, 0.0, 0.0, 0.0, 0.0, 0.0, 0.0, 0.0, 0.0, 0.0, 1.695683519192011E9, 0.0, 2023-09-25 18:11:59.192
20.0, 33896.44281821761, 27692.693792902686, -24254.19083287607, -33197.928452244814, -8645.252423912576, -3744.498341619771, -187500.02235174447, -7728.182700655783, -42.91534935418956, -47931.036106471554, -16332.352618259505, -27945.29085699211, 6077.841648798186, -11465.953167194506, -37319.52307457007, -44282.538507287325, 0.052000000000000005, 0.9500000000000001, 0.354, 192.0, 0.0, 0.0, 0.0, 0.0, 0.0, 0.0, 0.0, 0.0, 0.0, 1.695683519192014E9, 0.0, 2023-09-25 18:11:59.192
22.0, 33891.72660013755, 27687.32937423341, -24262.99742019146, -33207.18207444931, -8653.634328083317, -3750.466257389338, -187500.02235174447, -7754.691869579777, -54.24768379303024, -47934.14299895084, -16340.287487541138, -27956.734950153226, 6063.067145713228, -11471.764620752887, -37330.766002031094, -44294.697856271014, 0.048, 0.9480000000000001, 0.354, 192.0, 0.5, 64.0, 14.5, 80.0, 5.5, 8.0, 0.0, 0.0, 0.0, 1.695683519192017E9, 0.0, 2023-09-25 18:11:59.192
24.0, 33898.11919905176, 27693.56551093644, -24270.105274928246, -33211.45125764028, -8660.80923805347, -3756.8365045591004, -187500.02235174447, -7723.488834320168, -59.165067573197796, -47944.670670589294, -16342.23208930875, -27960.75826415518, 6068.476267871412, -11485.957978482007, -37336.420993378284, -44296.888327227636, 0.048, 0.9480000000000001, 0.354, 192.0, 0.0, 0.0, 0.0, 0.0, 0.0, 0.0, 0.0, 0.0, 0.0, 1.69568351919202E9, 0.0, 2023-09-25 18:11:59.192
26.0, 33879.209623242576, 27685.3847724658, -24270.261737139434, -33211.5406646181, -8661.122162475844, -3749.6392428444915, -187500.02235174447, -7742.063133962529, -62.16020133020894, -47940.9155775208, -16333.358446759994, -27959.595973443505, 6055.333442131691, -11480.459449346, -37332.68825205425, -44283.879611954646, 0.048, 0.9480000000000001, 0.354, 192.0, 0.0, 0.0, 0.0, 0.0, 0.0, 0.0, 0.0, 0.0, 0.0, 1.695683519192024E9, 0.0, 2023-09-25 18:11:59.192
28.0, 33879.58960289831, 27684.513054432042, -24278.66599305463, -33223.29768220159, -8673.57208413745, -3762.133867995008, -187500.02235174447, -7710.122491135895, -72.10672761282058, -47958.05936551802, -16345.361333532494, -27968.87194739246, 6049.544340317767, -11496.262132675904, -37342.72418531468, -44298.564708061785, 0.048, 0.9480000000000001, 0.354, 192.0, 0.0, 0.0, 0.0, 0.0, 0.0, 0.0, 0.0, 0.0, 0.0, 1.695683519192027E9, 0.0, 2023-09-25 18:11:59.192
30.0, 33879.835472087325, 27688.67047890073, -24266.640754537675, -33215.09459198649, -8660.518665375552, -3754.1989987133743, -187500.02235174447, -7736.274032148604, -63.054271108421226, -47948.224597957684, -16342.053275353108, -27954.499775707696, 6045.565729804723, -11499.883115277662, -37342.88064752587, -44297.67063828357, 0.048, 0.9480000000000001, 0.354, 192.0, 0.0, 0.0, 0.0, 0.0, 0.0, 0.0, 0.0, 0.0, 0.0, 1.695683519251655E9, 0.0, 2023-09-25 18:11:59.251
32.0, 33879.00845754248, 27678.746304362572, -24279.783580277395, -33225.0411182691, -8669.81699106896, -3764.8384290741005, -187500.02235174447, -7717.990305184163, -61.04261410744359, -47953.43255441577, -16346.23305156625, -27961.987610100226, 6052.29360488577, -11484.639225559144, -37344.333510915465, -44304.48792034244, 0.05, 0.9460000000000001, 0.36, 192.0, 0.5, 72.0, 14.5, 72.0, 5.5, 32.0, 0.0, 0.0, 0.0, 1.695683519251665E9, 0.0, 2023-09-25 18:11:59.251
34.0, 33860.9929515115, 27672.75603684855, -24279.47065585502, -33231.59017939451, -8676.924845805746, -3765.9336645524104, -187500.02235174447, -7715.151633638339, -72.97844564657755, -47965.45779293273, -16360.895795928933, -27972.358819527486, 6045.990412949373, -11500.598371100232, -37355.30821744302, -44314.970888491975, 0.05, 0.9460000000000001, 0.36, 192.0, 0.0, 0.0, 0.0, 0.0, 0.0, 0.0, 0.0, 0.0, 0.0, 1.695683519251669E9, 0.0, 2023-09-25 18:11:59.251
36.0, 33868.65959985967, 27675.304135716455, -24276.050838953357, -33229.109135759965, -8673.437973670718, -3771.9015803219772, -187500.02235174447, -7716.33627609447, -68.44104152215023, -47964.83194408798, -16365.254386097717, -27977.119741096467, 6048.002069950351, -11506.5662868698, -37354.950589531734, -44319.64240308314, 0.05, 0.9460000000000001, 0.36, 192.0, 0.0, 0.0, 0.0, 0.0, 0.0, 0.0, 0.0, 0.0, 0.0, 1.695683519251672E9, 0.0, 2023-09-25 18:11:59.251
38.0, 33866.78205332542, 27682.702563131163, -24261.253984123945, -33221.62130136744, -8666.553636378483, -3763.69849010688, -187500.02235174447, -7721.499529063646, -75.28067532547419, -47972.31977848051, -16371.62463326748, -27973.789331172626, 6054.48407584239, -11509.762586326908, -37359.53269714507, -44328.09136248724, 0.05, 0.9460000000000001, 0.36, 192.0, 0.0, 0.0, 0.0, 0.0, 0.0, 0.0, 0.0, 0.0, 0.0, 1.695683519251675E9, 0.0, 2023-09-25 18:11:59.251
40.0, 33851.113480462256, 27676.645240383776, -24277.928385487605, -33233.89240907341, -8681.775174352548, -3780.8869815930107, -187500.02235174447, -7710.189546369261, -64.75300368702456, -47954.28192070507, -16358.52651101667, -27943.502717435687, 6045.431619337991, -11499.726653066475, -37343.08181322597, -44312.534548346346, 0.05, 0.9460000000000001, 0.36, 192.0, 0.0, 0.0, 0.0, 0.0, 0.0, 0.0, 0.0, 0.0, 0.0, 1.695683519251678E9, 0.0, 2023-09-25 18:11:59.251
42.0, 33859.964771266554, 27680.355629963356, -24263.46680682502, -33223.70001360178, -8667.984148023623, -3757.976443526321, -187500.02235174447, -7702.500546276635, -81.51681202850486, -47975.6725401488, -16374.709174002312, -27958.411330987376, 6030.344191830658, -11506.700397336532, -37355.35292093193, -44320.648231583626, 0.054, 0.9460000000000001, 0.354, 192.0, 0.5, 88.0, 14.5, 72.0, 5.5, 8.0, 0.0, 0.0, 0.0, 1.695683519251682E9, 0.0, 2023-09-25 18:11:59.251
44.0, 33881.713018621565, 27696.895920860283, -24247.060626394825, -33205.50569361517, -8653.254348427576, -3753.0590597461537, -187500.02235174447, -7745.527654353101, -54.962939615600064, -47954.326624193985, -16348.155301589406, -27934.517316164653, 6053.187674663982, -11486.18149592656, -37333.068231709985, -44296.55305106081, 0.054, 0.9460000000000001, 0.354, 192.0, 0.0, 0.0, 0.0, 0.0, 0.0, 0.0, 0.0, 0.0, 0.0, 1.695683519311873E9, 0.0, 2023-09-25 18:11:59.311
46.0, 33862.75873932347, 27689.028106812017, -24256.60482127724, -33216.458048398265, -8660.42925839773, -3754.0648882466426, -187500.02235174447, -7734.016505958618, -52.75011691452467, -47958.57345564049, -16347.57415623357, -27925.4425079158, 6062.217779423926, -11501.067757733794, -37331.883589253855, -44292.3062196143, 0.054, 0.9460000000000001, 0.354, 192.0, 0.0, 0.0, 0.0, 0.0, 0.0, 0.0, 0.0, 0.0, 0.0, 1.695683519311885E9, 0.0, 2023-09-25 18:11:59.311
48.0, 33857.01434099845, 27679.260394485045, -24267.266603382424, -33227.164533992356, -8674.309691704475, -3773.980292556321, -187500.02235174447, -7745.751171797654, -67.77048918849101, -47956.47239166169, -16352.200967335817, -27932.662121374862, 6042.190616391971, -11492.216466929493, -37339.59494109094, -44299.458777839995, 0.054, 0.9460000000000001, 0.354, 192.0, 0.0, 0.0, 0.0, 0.0, 0.0, 0.0, 0.0, 0.0, 0.0, 1.695683519311889E9, 0.0, 2023-09-25 18:11:59.311
50.0, 33877.51089066397, 27699.444019728187, -24252.380341575186, -33215.65338559787, -8658.417601396752, -3755.36128942505, -187500.02235174447, -7726.215747143716, -72.4643555241055, -47957.7687928401, -16354.95023190382, -27925.643673615894, 6051.310128129737, -11500.643074589143, -37346.702795827725, -44307.75127503291, 0.054, 0.9460000000000001, 0.354, 192.0, 0.0, 0.0, 0.0, 0.0, 0.0, 0.0, 0.0, 0.0, 0.0, 1.695683519311892E9, 0.0, 2023-09-25 18:11:59.311
52.0, 33872.07941676133, 27705.34488026439, -24251.218050863514, -33207.56205410505, -8654.126066461333, -3756.9929667702877, -187500.02235174447, -7768.661709864344, -43.63060517675939, -47934.63473732886, -16339.527528229659, -27913.14904846538, 6057.501561343856, -11476.927873722063, -37327.03326070705, -44287.76881548987, 0.062, 0.9520000000000001, 0.36, 192.0, 0.5, 120.0, 14.5, 96.0, 5.5, 32.0, 0.0, 0.0, 0.0, 1.695683519311895E9, 0.0, 2023-09-25 18:11:59.311
54.0, 33861.97642826753, 27694.77250513703, -24272.85453949625, -33231.72428986124, -8683.451555186695, -3773.0638710336534, -187500.02235174447, -7724.137034909372, -74.72188171409151, -47951.64441485935, -16363.108618630007, -27927.05183351658, 6041.520064058312, -11494.742214052942, -37344.24410393764, -44307.460702355, 0.062, 0.9520000000000001, 0.36, 192.0, 0.0, 0.0, 0.0, 0.0, 0.0, 0.0, 0.0, 0.0, 0.0, 1.695683519311898E9, 0.0, 2023-09-25 18:11:59.311
56.0, 33861.149413722684, 27694.057249314457, -24257.18596663308, -33222.44831591229, -8668.185313723721, -3751.8073620566565, -187500.02235174447, -7756.412953902835, -69.91625665620049, -47957.053537017535, -16371.334060589561, -27939.255885989176, 6030.120674386105, -11493.311702407802, -37352.89422904184, -44308.35477213321, 0.062, 0.9520000000000001, 0.36, 192.0, 0.0, 0.0, 0.0, 0.0, 0.0, 0.0, 0.0, 0.0, 0.0, 1.695683519311902E9, 0.0, 2023-09-25 18:11:59.311
58.0, 33838.8870762452, 27681.316754974934, -24278.19660642107, -33250.27623775914, -8689.330063978441, -3793.0239788322424, -187500.02235174447, -7703.081691632473, -75.70535847012502, -47973.66088314782, -16377.95017694833, -27941.2451912457, 6030.81357846422, -11512.89183055065, -37353.74359533114, -44318.18953969354, 0.062, 0.9520000000000001, 0.36, 192.0, 0.0, 0.0, 0.0, 0.0, 0.0, 0.0, 0.0, 0.0, 0.0, 1.695683519311905E9, 0.0, 2023-09-25 18:11:59.311
60.0, 33854.75681480847, 27692.179702780213, -24259.354085845243, -33232.79717359509, -8670.666357358261, -3766.335995952606, -187500.02235174447, -7749.014526488129, -75.88417242576747, -47967.20122900024, -16383.135781661962, -27948.643618660408, 6033.33932558767, -11509.986103771462, -37353.07304299749, -44319.82121703878, 0.062, 0.9520000000000001, 0.36, 192.0, 0.0, 0.0, 0.0, 0.0, 0.0, 0.0, 0.0, 0.0, 0.0, 1.695683519372207E9, 0.0, 2023-09-25 18:11:59.372
62.0, 33853.16984095214, 27697.454714471667, -24255.97897243249, -33224.214103724255, -8667.917092790258, -3760.569245883137, -187500.02235174447, -7730.2837646345815, -75.77241370349094, -47960.763926597116, -16373.457476312815, -27937.043063288103, 6048.583215306189, -11495.36806289769, -37343.81942079299, -44310.14291168963, 0.06, 0.9480000000000001, 0.362, 192.0, 0.5, 112.0, 14.5, 80.0, 5.5, 40.0, 0.0, 0.0, 0.0, 1.695683519372216E9, 0.0, 2023-09-25 18:11:59.372
64.0, 33840.11642219024, 27686.301193988467, -24263.98089694749, -33227.27629271463, -8670.644005613805, -3754.1542952244636, -187500.02235174447, -7758.245796948171, -67.27875081047426, -47948.35870842442, -16367.489560543247, -27931.477478918732, 6032.020572664806, -11485.198019170526, -37337.22565617868, -44294.31787661528, 0.06, 0.9480000000000001, 0.362, 192.0, 0.0, 0.0, 0.0, 0.0, 0.0, 0.0, 0.0, 0.0, 0.0, 1.69568351937222E9, 0.0, 2023-09-25 18:11:59.372
66.0, 33851.69462581809, 27703.44498198569, -24257.85651896674, -33226.2928159586, -8667.693575345704, -3755.338937680595, -187500.02235174447, -7738.106875193939, -80.3768730612842, -47966.910656322325, -16378.28545311516, -27935.85842083197, 6031.8417587091635, -11499.860763533206, -37346.32281617198, -44303.83971975323, 0.06, 0.9480000000000001, 0.362, 192.0, 0.0, 0.0, 0.0, 0.0, 0.0, 0.0, 0.0, 0.0, 0.0, 1.695683519372223E9, 0.0, 2023-09-25 18:11:59.372
68.0, 33843.51388734745, 27694.4372289702, -24270.462902839532, -33234.16063000687, -8683.853886586892, -3764.9725395408323, -187500.02235174447, -7760.950358027263, -71.34676830134015, -47949.02926075808, -16369.52356928868, -27926.2918742051, 6039.553110546245, -11485.354481381713, -37346.993368505646, -44301.38102786315, 0.06, 0.9480000000000001, 0.362, 192.0, 0.0, 0.0, 0.0, 0.0, 0.0, 0.0, 0.0, 0.0, 0.0, 1.695683519372226E9, 0.0, 2023-09-25 18:11:59.372
70.0, 33841.591637324294, 27697.119438304835, -24285.37151639122, -33250.83503137052, -8708.77608165456, -3788.196002029896, -187500.02235174447, -7719.979610440685, -84.04255915195455, -47963.759060354125, -16385.90739797442, -27933.82441208654, 6025.404456306035, -11510.746063082941, -37366.88642107086, -44325.051525241324, 0.06, 0.9480000000000001, 0.362, 192.0, 0.0, 0.0, 0.0, 0.0, 0.0, 0.0, 0.0, 0.0, 0.0, 1.69568351937223E9, 0.0, 2023-09-25 18:11:59.372
72.0, 33847.045462971386, 27701.746249407086, -24254.36964683171, -33229.84674332699, -8683.429203442241, -3765.8442575745894, -187500.02235174447, -7747.427552631802, -80.3545213168289, -47956.405336428325, -16380.274758371683, -27933.66794987535, 6025.829139450686, -11510.053159004827, -37362.68429311327, -44319.97767924997, 0.06, 0.9480000000000001, 0.362, 192.0, 0.5, 112.0, 14.5, 80.0, 5.5, 40.0, 0.0, 0.0, 0.0, 1.695683519372233E9, 0.0, 2023-09-25 18:11:59.372
74.0, 33853.77333805244, 27706.127191320324, -24275.983783719992, -33246.029406312635, -8707.323218264964, -3793.2474962767956, -187500.02235174447, -7731.937793724274, -79.16987886069762, -47961.389775441865, -16377.167865892396, -27924.079051504024, 6016.709627712921, -11502.788842056852, -37362.75134834663, -44325.8114845528, 0.06, 0.9480000000000001, 0.362, 192.0, 0.0, 0.0, 0.0, 0.0, 0.0, 0.0, 0.0, 0.0, 0.0, 1.695683519431601E9, 0.0, 2023-09-25 18:11:59.431
76.0, 33839.490573345494, 27705.52369422003, -24246.725350227996, -33216.30158618708, -8672.298034703497, -3756.724745836824, -187500.02235174447, -7757.977576014707, -73.47018402459432, -47944.78242931157, -16375.513836802702, -27925.4425079158, 6037.161473889527, -11497.625589087676, -37360.762043090115, -44322.324612417775, 0.06, 0.9480000000000001, 0.362, 192.0, 0.0, 0.0, 0.0, 0.0, 0.0, 0.0, 0.0, 0.0, 0.0, 1.695683519431613E9, 0.0, 2023-09-25 18:11:59.431
78.0, 33833.902637231666, 27698.639356927797, -24266.10431267075, -33229.109135759965, -8700.952971095201, -3779.5682286701476, -187500.02235174447, -7732.407180357836, -92.31270460041817, -47954.77365908309, -16388.05316544213, -27923.632016614916, 6014.921488156497, -11497.670292576588, -37352.17897321928, -44319.173016449575, 0.06, 0.9480000000000001, 0.362, 192.0, 0.0, 0.0, 0.0, 0.0, 0.0, 0.0, 0.0, 0.0, 0.0, 1.695683519431616E9, 0.0, 2023-09-25 18:11:59.431
80.0, 33840.27288440143, 27710.597540211387, -24256.09073115477, -33221.93422578982, -8688.637159900327, -3769.1299640095194, -187500.02235174447, -7733.681229791789, -95.19607963515278, -47954.952473038735, -16398.938464991865, -27928.258827717167, 6003.678560695477, -11499.547839110834, -37373.279019985086, -44337.076763758276, 0.06, 0.9480000000000001, 0.362, 192.0, 0.0, 0.0, 0.0, 0.0, 0.0, 0.0, 0.0, 0.0, 0.0, 1.69568351943162E9, 0.0, 2023-09-25 18:11:59.431
82.0, 33835.9366459771, 27715.447868758187, -24257.364780588723, -33215.407516408864, -8693.666302402771, -3765.7995540856787, -187500.02235174447, -7722.214784886216, -80.28746608346297, -47935.171179195786, -16384.141610162453, -27914.15487696587, 6030.2547848528375, -11493.08818496325, -37345.093470226944, -44312.333382646255, 0.054, 0.9540000000000001, 0.356, 192.0, 0.5, 88.0, 14.5, 104.0, 5.5, 16.0, 0.0, 0.0, 0.0, 1.695683519431623E9, 0.0, 2023-09-25 18:11:59.431
84.0, 33849.23593392801, 27730.311778820967, -24246.904164183637, -33207.18207444931, -8682.199857497199, -3737.681059560902, -187500.02235174447, -7726.10398842144, -81.60621900632609, -47935.21588268469, -16381.347642105538, -27914.601911854974, 6026.633802251077, -11490.98712098445, -37347.82038305049, -44304.26440289788, 0.054, 0.9540000000000001, 0.356, 192.0, 0.0, 0.0, 0.0, 0.0, 0.0, 0.0, 0.0, 0.0, 0.0, 1.695683519431626E9, 0.0, 2023-09-25 18:11:59.431
86.0, 33843.11155594725, 27727.786031697517, -24250.547498529853, -33216.23453095371, -8695.432090214741, -3764.1902284848966, -187500.02235174447, -7723.466482575713, -81.13683237276464, -47929.3150221485, -16382.465229328303, -27923.363795681453, 6035.686258755477, -11493.758737296908, -37344.28880742655, -44301.202213907505, 0.054, 0.9540000000000001, 0.356, 192.0, 0.0, 0.0, 0.0, 0.0, 0.0, 0.0, 0.0, 0.0, 0.0, 1.695683519431629E9, 0.0, 2023-09-25 18:11:59.431
88.0, 33838.440041356094, 27726.62374098584, -24255.196661376558, -33223.5435513906, -8704.1045670634, -3769.040557031698, -187500.02235174447, -7723.131206408883, -84.89192544125622, -47942.25668218812, -16376.743182747745, -27926.157763738367, 6007.411302019514, -11490.338920395247, -37352.60365636393, -44306.6113360657, 0.054, 0.9540000000000001, 0.356, 192.0, 0.0, 0.0, 0.0, 0.0, 0.0, 0.0, 0.0, 0.0, 0.0, 1.695683519431632E9, 0.0, 2023-09-25 18:11:59.431
90.0, 33839.155297178666, 27728.613046242364, -24256.2248416215, -33231.45606892778, -8696.572029181962, -3783.971522327843, -187500.02235174447, -7725.500491321146, -88.42350106519474, -47941.653185087824, -16377.43608682586, -27930.561057396062, 6011.121691599094, -11492.37292914068, -37360.00208377863, -44319.21771993849, 0.054, 0.9540000000000001, 0.356, 192.0, 0.0, 0.0, 0.0, 0.0, 0.0, 0.0, 0.0, 0.0, 0.0, 1.695683519491317E9, 0.0, 2023-09-25 18:11:59.491
92.0, 33832.67329128663, 27720.67817696073, -24262.773902746907, -33242.65429289988, -8708.9548956102, -3788.620685174547, -187500.02235174447, -7712.961162681719, -87.73059698708022, -47944.603615355925, -16376.854941470021, -27933.511487664164, 6017.603697491133, -11505.13577522466, -37364.69595011425, -44324.09040022975, 0.054, 0.9420000000000001, 0.36, 192.0, 0.5, 88.0, 14.5, 56.0, 5.5, 32.0, 0.0, 0.0, 0.0, 1.69568351949133E9, 0.0, 2023-09-25 18:11:59.491
94.0, 33840.339939634796, 27725.01441538506, -24251.3745130747, -33231.366661949956, -8694.649779158804, -3782.1386792825083, -187500.02235174447, -7730.820206501509, -83.34965507384004, -47951.26443520361, -16381.77232525019, -27941.647522645897, 6005.287886296259, -11508.041502003849, -37367.06523502651, -44325.96794676399, 0.054, 0.9420000000000001, 0.36, 192.0, 0.0, 0.0, 0.0, 0.0, 0.0, 0.0, 0.0, 0.0, 0.0, 1.695683519491334E9, 0.0, 2023-09-25 18:11:59.491
96.0, 33840.1387739347, 27728.568342753453, -24242.120890870203, -33229.28794971561, -8704.05986357449, -3774.2261617453296, -187500.02235174447, -7724.785235498576, -78.58873350485963, -47945.095353733945, -16383.091078173053, -27936.05958653207, 6024.823310950197, -11498.720824565986, -37360.78439483457, -44324.559786863305, 0.054, 0.9420000000000001, 0.36, 192.0, 0.0, 0.0, 0.0, 0.0, 0.0, 0.0, 0.0, 0.0, 0.0, 1.695683519491337E9, 0.0, 2023-09-25 18:11:59.491
98.0, 33826.0348231834, 27719.06885135995, -24247.708826984028, -33228.99737703769, -8703.568125196472, -3781.5351821822146, -187500.02235174447, -7733.413008858324, -81.09212888385402, -47942.234330443665, -16387.181447408373, -27942.832165102027, 6018.542470758256, -11496.485650120456, -37360.896153556845, -44325.07387698578, 0.054, 0.9420000000000001, 0.36, 192.0, 0.0, 0.0, 0.0, 0.0, 0.0, 0.0, 0.0, 0.0, 0.0, 1.69568351949134E9, 0.0, 2023-09-25 18:11:59.491
100.0, 33828.49351507348, 27729.641226487307, -24239.41632979111, -33223.81177232406, -8694.225096014154, -3775.880190835022, -187500.02235174447, -7717.76678773961, -90.59162027735952, -47958.59580738495, -16395.406889367925, -27943.547420924595, 6009.847642165142, -11507.817984559297, -37365.567668148, -44336.1156387467, 0.054, 0.9420000000000001, 0.36, 192.0, 0.0, 0.0, 0.0, 0.0, 0.0, 0.0, 0.0, 0.0, 0.0, 1.695683519491344E9, 0.0, 2023-09-25 18:11:59.491
102.0, 33835.26609364344, 27734.648017245298, -24228.218105819, -33208.701993072274, -8679.048261529, -3766.067775019142, -187500.02235174447, -7755.787105058087, -77.33703581536244, -47947.464638646205, -16389.684842787367, -27938.473574933243, 6021.269383581804, -11503.101766479227, -37353.47537439768, -44331.19825496653, 0.054, 0.9460000000000001, 0.358, 192.0, 0.5, 88.0, 14.5, 72.0, 5.5, 24.0, 0.0, 0.0, 0.0, 1.695683519491347E9, 0.0, 2023-09-25 18:11:59.491
104.0, 33838.305930889364, 27744.840412716916, -24238.052873379336, -33203.65049882537, -8699.276590261054, -3762.4467924173828, -187500.02235174447, -7729.859081489931, -74.81128869191274, -47933.67361231728, -16386.689709030357, -27922.04504275859, 6021.805825448731, -11478.648958045122, -37349.228542951176, -44327.26434794239, 0.054, 0.9460000000000001, 0.358, 192.0, 0.0, 0.0, 0.0, 0.0, 0.0, 0.0, 0.0, 0.0, 0.0, 1.69568351955162E9, 0.0, 2023-09-25 18:11:59.551
106.0, 33854.15331770817, 27760.01724720207, -24217.109288824715, -33191.75937077515, -8673.28151145953, -3741.369097396028, -187500.02235174447, -7771.925064554819, -67.92695139967816, -47922.31892613399, -16378.6654327709, -27921.441545658297, 6026.522043528801, -11476.592597555233, -37343.707662070716, -44316.021420481375, 0.054, 0.9460000000000001, 0.358, 192.0, 0.0, 0.0, 0.0, 0.0, 0.0, 0.0, 0.0, 0.0, 0.0, 1.695683519551647E9, 0.0, 2023-09-25 18:11:59.551
108.0, 33836.24957039947, 27749.10959590788, -24231.839088420762, -33213.172341963334, -8679.607055140383, -3754.534274880204, -187500.02235174447, -7738.1515786828495, -51.386660502750935, -47927.683344803256, -16375.402078080426, -27911.24915018668, 6046.7503722608535, -11475.229141143458, -37329.5590078305, -44308.1089029442, 0.054, 0.9460000000000001, 0.358, 192.0, 0.0, 0.0, 0.0, 0.0, 0.0, 0.0, 0.0, 0.0, 0.0, 1.695683519551651E9, 0.0, 2023-09-25 18:11:59.551
110.0, 33816.289462600886, 27724.56738049595, -24246.41242580562, -33239.167420764854, -8701.400005984307, -3784.887943850511, -187500.02235174447, -7738.084523449484, -77.47114628209428, -47951.62206311489, -16392.747031777744, -27940.462880189763, 6016.217889334905, -11503.66056009061, -37351.08373774096, -44331.9135107891, 0.054, 0.9460000000000001, 0.358, 192.0, 0.0, 0.0, 0.0, 0.0, 0.0, 0.0, 0.0, 0.0, 0.0, 1.695683519551655E9, 0.0, 2023-09-25 18:11:59.551
112.0, 33821.05038416987, 27731.697586977196, -24251.195699119056, -33242.14020277741, -8711.659456689293, -3791.526411953737, -187500.02235174447, -7694.789194439554, -97.34184710286226, -47958.931083551775, -16398.692595802855, -27948.598915171497, 6018.3413050581585, -11517.004551530428, -37363.77952859158, -44343.60347313923, 0.054, 0.9400000000000001, 0.36, 192.0, 0.5, 88.0, 14.5, 48.0, 5.5, 32.0, 0.0, 0.0, 0.0, 1.695683519551658E9, 0.0, 2023-09-25 18:11:59.551
114.0, 33818.18936087959, 27735.25151434559, -24239.97512340249, -33237.33457771952, -8700.215363528176, -3784.1056327945753, -187500.02235174447, -7728.629735544889, -83.03673065146573, -47949.58805436946, -16386.197970652338, -27943.189793013313, 6007.813633419709, -11503.28058043487, -37355.57643837648, -44330.214778210495, 0.054, 0.9400000000000001, 0.36, 192.0, 0.0, 0.0, 0.0, 0.0, 0.0, 0.0, 0.0, 0.0, 0.0, 1.695683519551661E9, 0.0, 2023-09-25 18:11:59.551
116.0, 33822.90557895965, 27745.53331679503, -24241.80796644783, -33238.18394400882, -8704.037511830034, -3781.7810513712234, -187500.02235174447, -7694.722139206188, -94.99491393505501, -47957.41116492882, -16398.58083708058, -27945.067339547557, 6002.873897895086, -11499.883115277662, -37363.84658382495, -44341.39065043815, 0.054, 0.9400000000000001, 0.36, 192.0, 0.0, 0.0, 0.0, 0.0, 0.0, 0.0, 0.0, 0.0, 0.0, 1.695683519551665E9, 0.0, 2023-09-25 18:11:59.551
118.0, 33815.75302073396, 27743.566363282964, -24220.730271426473, -33230.62905438293, -8695.834421614936, -3780.328187981628, -187500.02235174447, -7718.705561006733, -80.30981782791828, -47948.76103982461, -16396.323310890595, -27941.468708690252, 6011.345209043648, -11506.029845002871, -37350.77081331859, -44328.24782469843, 0.054, 0.9400000000000001, 0.36, 192.0, 0.0, 0.0, 0.0, 0.0, 0.0, 0.0, 0.0, 0.0, 0.0, 1.695683519551668E9, 0.0, 2023-09-25 18:11:59.551
120.0, 33814.70248874456, 27752.708226765186, -24224.79828891734, -33232.70776661727, -8696.035587315035, -3783.2562665052733, -187500.02235174447, -7692.531668249568, -82.74615797354674, -47953.09727824894, -16399.85488651453, -27939.94879006729, 6007.232488063871, -11502.162993212103, -37356.78343257707, -44339.043717270346, 0.054, 0.9400000000000001, 0.36, 192.0, 0.0, 0.0, 0.0, 0.0, 0.0, 0.0, 0.0, 0.0, 0.0, 1.695683519611915E9, 0.0, 2023-09-25 18:11:59.611
122.0, 33813.78606722189, 27756.753892511595, -24208.70503290952, -33223.40944092387, -8681.886933074824, -3759.138734237997, -187500.02235174447, -7717.275049361593, -75.79476544794625, -47939.999155998135, -16390.489505587757, -27932.52801090813, 6025.493863283857, -11485.868571504185, -37344.9146562713, -44327.89019678714, 0.052000000000000005, 0.9540000000000001, 0.356, 192.0, 0.5, 80.0, 14.5, 104.0, 5.5, 16.0, 0.0, 0.0, 0.0, 1.695683519611925E9, 0.0, 2023-09-25 18:11:59.611
124.0, 33815.305985844854, 27759.570212312963, -24217.064585335804, -33229.48911541571, -8690.000616312102, -3766.5148099082485, -187500.02235174447, -7699.483060775168, -75.92887591467809, -47946.88349329037, -16395.96568297931, -27933.153859752878, 6037.608508778633, -11491.054176217816, -37336.33158640046, -44323.2633856849, 0.052000000000000005, 0.9540000000000001, 0.356, 192.0, 0.0, 0.0, 0.0, 0.0, 0.0, 0.0, 0.0, 0.0, 0.0, 1.695683519611928E9, 0.0, 2023-09-25 18:11:59.611
126.0, 33793.08835185628, 27737.82196495795, -24229.849783164238, -33247.68343540233, -8696.952008837701, -3773.533257667215, -187500.02235174447, -7694.208049083716, -83.99785566304394, -47948.00108051313, -16411.58955235357, -27949.29181924961, 6029.897156941553, -11493.46816461899, -37349.988502262655, -44338.753144592425, 0.052000000000000005, 0.9540000000000001, 0.356, 192.0, 0.0, 0.0, 0.0, 0.0, 0.0, 0.0, 0.0, 0.0, 0.0, 1.695683519611932E9, 0.0, 2023-09-25 18:11:59.611
128.0, 33799.48095077049, 27745.44390981721, -24227.480498251974, -33244.01774931166, -8700.282418761542, -3765.2854639632064, -187500.02235174447, -7661.686260901244, -96.98421919157734, -47961.166257997305, -16420.709064091334, -27956.82435713105, 6001.71160718341, -11498.542010610345, -37346.144002216344, -44336.33915619125, 0.052000000000000005, 0.9540000000000001, 0.356, 192.0, 0.0, 0.0, 0.0, 0.0, 0.0, 0.0, 0.0, 0.0, 0.0, 1.695683519611935E9, 0.0, 2023-09-25 18:11:59.611
130.0, 33803.10193337225, 27746.941476695716, -24223.278370294378, -33243.12367953345, -8697.86843036037, -3765.2631122187513, -187500.02235174447, -7682.786307667055, -79.81807944990152, -47950.325661936484, -16408.393252896458, -27948.48715644922, 6008.551240986734, -11487.097917449228, -37334.14111544384, -44322.36931590668, 0.052000000000000005, 0.9540000000000001, 0.356, 192.0, 0.0, 0.0, 0.0, 0.0, 0.0, 0.0, 0.0, 0.0, 0.0, 1.695683519611938E9, 0.0, 2023-09-25 18:11:59.611
132.0, 33801.44790428256, 27747.34380809591, -24244.668989738107, -33257.96523785177, -8715.235735802144, -3773.846182089589, -187500.02235174447, -7662.155647534806, -87.6635417537143, -47954.12545849389, -16419.63618035748, -27958.701903665296, 5998.738825170854, -11498.385548399157, -37338.47735386817, -44329.43246715456, 0.052000000000000005, 0.9500000000000001, 0.36, 192.0, 0.5, 80.0, 14.5, 88.0, 5.5, 32.0, 0.0, 0.0, 0.0, 1.695683519611941E9, 0.0, 2023-09-25 18:11:59.611
134.0, 33803.05722988334, 27738.20194461369, -24232.35317854323, -33258.81460414107, -8700.036549572535, -3766.1348302525084, -187500.02235174447, -7652.61145265239, -95.33019010188463, -47948.62692935788, -16430.11914850702, -27965.49683397971, 5982.8243831186755, -11507.348597925735, -37356.80578432152, -44344.47519117298, 0.052000000000000005, 0.9500000000000001, 0.36, 192.0, 0.0, 0.0, 0.0, 0.0, 0.0, 0.0, 0.0, 0.0, 0.0, 1.695683519672139E9, 0.0, 2023-09-25 18:11:59.672
136.0, 33802.63254673869, 27729.641226487307, -24213.4659544785, -33241.134374276924, -8687.117241277367, -3754.042536502187, -187500.02235174447, -7678.293607031537, -74.52071601399375, -47954.08075500498, -16399.34079639206, -27949.06830180506, 6020.934107414974, -11493.065833218794, -37320.975937959665, -44311.23814716794, 0.052000000000000005, 0.9500000000000001, 0.36, 192.0, 0.0, 0.0, 0.0, 0.0, 0.0, 0.0, 0.0, 0.0, 0.0, 1.695683519672151E9, 0.0, 2023-09-25 18:11:59.672
138.0, 33805.02418339541, 27731.876400932837, -24209.55439919882, -33239.77091786515, -8685.485563932129, -3744.431286386405, -187500.02235174447, -7679.433545998758, -70.5644572454044, -47950.750345081135, -16401.35245339304, -27948.10717679348, 6022.47637778239, -11482.18053366906, -37324.17223741677, -44312.86982451318, 0.052000000000000005, 0.9500000000000001, 0.36, 192.0, 0.0, 0.0, 0.0, 0.0, 0.0, 0.0, 0.0, 0.0, 0.0, 1.695683519672154E9, 0.0, 2023-09-25 18:11:59.672
140.0, 33806.767619462924, 27714.464392002155, -24209.420288732086, -33243.61541791146, -8697.935485593734, -3749.5498358666705, -187500.02235174447, -7687.9048571473195, -62.58488447485978, -47953.16433348231, -16396.457421357325, -27950.43175821683, 6029.472473796902, -11491.344748895735, -37315.54446405703, -44301.1575104186, 0.052000000000000005, 0.9500000000000001, 0.36, 192.0, 0.0, 0.0, 0.0, 0.0, 0.0, 0.0, 0.0, 0.0, 0.0, 1.695683519672157E9, 0.0, 2023-09-25 18:11:59.672
142.0, 33789.95910763253, 27703.981423852616, -24217.489268480454, -33252.64552267141, -8702.405834484796, -3760.6363011165026, -187500.02235174447, -7657.7076503882, -83.70728298512495, -47975.426670959794, -16419.792642568667, -27969.2519270482, 6003.276229295281, -11500.866592033695, -37343.05946148151, -44323.933938018556, 0.052000000000000005, 0.9460000000000001, 0.354, 192.0, 0.5, 80.0, 14.5, 72.0, 5.5, 8.0, 0.0, 0.0, 0.0, 1.695683519672161E9, 0.0, 2023-09-25 18:11:59.672
144.0, 33801.64906998266, 27712.788011168006, -24209.956730599017, -33239.457993442775, -8691.878162846348, -3752.1873417123966, -187500.02235174447, -7677.734813420155, -64.8871141537564, -47961.88151381988, -16405.24165692826, -27961.607630444483, 6002.203345561426, -11491.65767331811, -37318.27137688058, -44304.085588942246, 0.052000000000000005, 0.9460000000000001, 0.354, 192.0, 0.0, 0.0, 0.0, 0.0, 0.0, 0.0, 0.0, 0.0, 0.0, 1.695683519672164E9, 0.0, 2023-09-25 18:11:59.672
146.0, 33801.35849730474, 27706.395412253787, -24221.780803415873, -33258.63579018543, -8704.663360674782, -3774.203810000874, -187500.02235174447, -7650.532740418046, -71.27971306797423, -47961.61329288642, -16415.322293677604, -27963.127549067445, 6021.671714981999, -11498.720824565986, -37334.63285382186, -44320.7599903059, 0.052000000000000005, 0.9460000000000001, 0.354, 192.0, 0.0, 0.0, 0.0, 0.0, 0.0, 0.0, 0.0, 0.0, 0.0, 1.695683519672167E9, 0.0, 2023-09-25 18:11:59.672
148.0, 33805.247700839966, 27713.883246646317, -24203.005338073413, -33234.9429410628, -8681.261084230076, -3743.3584026525505, -187500.02235174447, -7690.363549037404, -59.00860536201065, -47954.527789894084, -16404.034662727674, -27957.405502486887, 6009.199441575938, -11487.857876760707, -37318.71841176968, -44308.80180702231, 0.052000000000000005, 0.9460000000000001, 0.354, 192.0, 0.0, 0.0, 0.0, 0.0, 0.0, 0.0, 0.0, 0.0, 0.0, 1.69568351967217E9, 0.0, 2023-09-25 18:11:59.672
150.0, 33797.29047981388, 27712.408031512266, -24217.243399291445, -33248.24222901371, -8699.365997238874, -3758.7364028378015, -187500.02235174447, -7666.447182470225, -64.52948624247149, -47955.04188001656, -16398.223209169293, -27946.274333748144, 6018.944802158452, -11483.678100547564, -37310.73883899913, -44305.87372849867, 0.052000000000000005, 0.9460000000000001, 0.354, 192.0, 0.0, 0.0, 0.0, 0.0, 0.0, 0.0, 0.0, 0.0, 0.0, 1.69568351973154E9, 0.0, 2023-09-25 18:11:59.731
152.0, 33802.49843627196, 27714.084412346416, -24205.665195663598, -33237.6922056308, -8685.083232531933, -3746.3758881540166, -187500.02235174447, -7711.485947547669, -64.99887287603293, -47951.465600903706, -16400.48073535928, -27955.036217574623, 6010.294677054248, -11490.920065751085, -37319.59012980344, -44306.96896397698, 0.052000000000000005, 0.9420000000000001, 0.362, 192.0, 0.5, 80.0, 14.5, 56.0, 5.5, 40.0, 0.0, 0.0, 0.0, 1.695683519731551E9, 0.0, 2023-09-25 18:11:59.731
154.0, 33792.26133731143, 27709.01056635506, -24220.70791968202, -33250.94679009281, -8692.883991346836, -3762.6703098619355, -187500.02235174447, -7676.840743641943, -68.97748338907759, -47953.72312709369, -16412.86360178752, -27956.936115853325, 6009.244145064848, -11495.591580342243, -37321.177103659764, -44316.22258618147, 0.052000000000000005, 0.9420000000000001, 0.362, 192.0, 0.0, 0.0, 0.0, 0.0, 0.0, 0.0, 0.0, 0.0, 0.0, 1.695683519731554E9, 0.0, 2023-09-25 18:11:59.731
156.0, 33787.09808434225, 27703.713202919153, -24213.533009711864, -33245.895295845905, -8695.521497192562, -3759.4069551714606, -187500.02235174447, -7709.697807991244, -66.54114324344913, -47956.45003991724, -16418.473889645804, -27962.21112754478, 6002.471566494891, -11489.958940739507, -37329.67076655278, -44321.65406008412, 0.052000000000000005, 0.9420000000000001, 0.362, 192.0, 0.0, 0.0, 0.0, 0.0, 0.0, 0.0, 0.0, 0.0, 0.0, 1.695683519731557E9, 0.0, 2023-09-25 18:11:59.731
158.0, 33787.723933187, 27706.73068842062, -24224.84299240625, -33256.020636084155, -8710.72068342217, -3772.885057078011, -187500.02235174447, -7671.766897650587, -69.44687002263905, -47961.166257997305, -16418.76446232372, -27951.459938461776, 6002.404511261525, -11494.406937886113, -37335.593978833436, -44328.78426656536, 0.052000000000000005, 0.9420000000000001, 0.362, 192.0, 0.0, 0.0, 0.0, 0.0, 0.0, 0.0, 0.0, 0.0, 0.0, 1.69568351973156E9, 0.0, 2023-09-25 18:11:59.731
160.0, 33794.00477337895, 27714.889075146806, -24196.16570427009, -33236.68637713032, -8691.520534935062, -3751.7403068232907, -187500.02235174447, -7712.961162681719, -70.31858805639602, -47957.9699585402, -16426.29700020516, -27964.58041245704, 5991.273342522782, -11493.80344078582, -37343.64060683735, -44337.412039925104, 0.052000000000000005, 0.9420000000000001, 0.362, 192.0, 0.0, 0.0, 0.0, 0.0, 0.0, 0.0, 0.0, 0.0, 0.0, 1.695683519731564E9, 0.0, 2023-09-25 18:11:59.731
162.0, 33786.092255841766, 27713.078583845927, -24214.851762634727, -33242.117851032956, -8707.882011876347, -3756.7918010701896, -187500.02235174447, -7679.590008209945, -56.37109951628441, -47947.82226655749, -16410.896648275455, -27944.665008147364, 6011.076988110183, -11463.31566134878, -37324.23929265014, -44313.518025102385, 0.05, 0.9520000000000001, 0.358, 192.0, 0.5, 72.0, 14.5, 96.0, 5.5, 24.0, 0.0, 0.0, 0.0, 1.695683519731567E9, 0.0, 2023-09-25 18:11:59.731
164.0, 33784.70644768554, 27705.613101197854, -24207.632149175664, -33240.75439462118, -8695.141517536822, -3758.6693476044356, -187500.02235174447, -7706.657970745322, -82.47793704008306, -47959.10989750742, -16430.700293862858, -27962.85932813398, 5999.230563548871, -11496.731519309464, -37345.786374305055, -44333.41107766761, 0.05, 0.9520000000000001, 0.358, 192.0, 0.0, 0.0, 0.0, 0.0, 0.0, 0.0, 0.0, 0.0, 0.0, 1.695683519791323E9, 0.0, 2023-09-25 18:11:59.791
166.0, 33794.63062222369, 27720.05232811598, -24208.012128831404, -33237.0440050416, -8688.860677344881, -3752.992004512788, -187500.02235174447, -7700.33242706447, -55.78995416044643, -47948.314004935506, -16415.366997166515, -27943.27919999113, 5999.699950182432, -11487.768469782886, -37328.7096415412, -44323.10692347371, 0.05, 0.9520000000000001, 0.358, 192.0, 0.0, 0.0, 0.0, 0.0, 0.0, 0.0, 0.0, 0.0, 0.0, 1.695683519791354E9, 0.0, 2023-09-25 18:11:59.791
168.0, 33805.873549684715, 27726.19905784119, -24188.901387322116, -33223.18592347931, -8673.393270181808, -3725.8346349995895, -187500.02235174447, -7737.2128054157265, -50.850218635823566, -47936.221711185186, -16409.53319186368, -27937.735967366218, 6010.495842754346, -11476.100859177215, -37318.42783909176, -44305.471397098474, 0.05, 0.9520000000000001, 0.358, 192.0, 0.0, 0.0, 0.0, 0.0, 0.0, 0.0, 0.0, 0.0, 0.0, 1.695683519791358E9, 0.0, 2023-09-25 18:11:59.791
170.0, 33793.848311167756, 27721.594598483396, -24211.297835266334, -33244.86711560096, -8683.608017397883, -3755.0707167471314, -187500.02235174447, -7706.970895167697, -58.67332919518104, -47940.11091472041, -16408.10268021854, -27935.187868498313, 6014.8767846675855, -11475.69852777702, -37312.7057925112, -44304.91260348709, 0.05, 0.9520000000000001, 0.358, 192.0, 0.0, 0.0, 0.0, 0.0, 0.0, 0.0, 0.0, 0.0, 0.0, 1.695683519791362E9, 0.0, 2023-09-25 18:11:59.791
172.0, 33770.53544170087, 27702.036822085003, -24214.89646612364, -33251.72910114874, -8693.219267513665, -3752.947301023877, -187500.02235174447, -7721.857156974931, -60.66263445170337, -47943.35191766643, -16416.126956477994, -27945.112043036468, 6002.538621728257, -11477.486667333445, -37320.283033881555, -44310.657001812106, 0.056, 0.9440000000000001, 0.36, 192.0, 0.5, 96.0, 14.5, 64.0, 5.5, 32.0, 0.0, 0.0, 0.0, 1.695683519791365E9, 0.0, 2023-09-25 18:11:59.791
174.0, 33766.06509280981, 27700.852179628873, -24222.205486560524, -33259.351046008, -8707.457328731696, -3762.3797371840164, -187500.02235174447, -7696.823203184987, -84.89192544125622, -47966.32951096648, -16428.219250228318, -27953.181022784833, 5995.162546058005, -11484.527466836867, -37328.888455496846, -44319.82121703878, 0.056, 0.9440000000000001, 0.36, 192.0, 0.0, 0.0, 0.0, 0.0, 0.0, 0.0, 0.0, 0.0, 0.0, 1.695683519791368E9, 0.0, 2023-09-25 18:11:59.791
176.0, 33766.53447944337, 27695.733630148607, -24220.238533048458, -33261.00507509769, -8699.611866427884, -3756.4788766478155, -187500.02235174447, -7699.0583776305175, -81.76268121751323, -47963.11085976492, -16431.05792177414, -27961.071188577556, 5978.644606905533, -11496.820926287286, -37335.63868232235, -44321.38583915065, 0.056, 0.9440000000000001, 0.36, 192.0, 0.0, 0.0, 0.0, 0.0, 0.0, 0.0, 0.0, 0.0, 0.0, 1.695683519791371E9, 0.0, 2023-09-25 18:11:59.791
178.0, 33772.27887776838, 27697.34295574939, -24217.891599880648, -33258.25581052969, -8702.316427506976, -3760.2786732052177, -187500.02235174447, -7697.560810752012, -74.0736811248876, -47963.35672895393, -16428.040436272673, -27960.28887752162, 5995.475470480379, -11493.646978574632, -37330.58718807545, -44321.25172868392, 0.056, 0.9440000000000001, 0.36, 192.0, 0.0, 0.0, 0.0, 0.0, 0.0, 0.0, 0.0, 0.0, 0.0, 1.695683519791375E9, 0.0, 2023-09-25 18:11:59.791
180.0, 33768.07674981079, 27698.125266805324, -24218.517448725397, -33258.00994134068, -8698.24841001611, -3750.689774833891, -187500.02235174447, -7701.740586965155, -72.08437586836527, -47961.05449927503, -16436.332933465594, -27964.66981943486, 5975.716528381888, -11492.909371007607, -37338.05267072352, -44325.85618804171, 0.056, 0.9440000000000001, 0.36, 192.0, 0.0, 0.0, 0.0, 0.0, 0.0, 0.0, 0.0, 0.0, 0.0, 1.695683519851711E9, 0.0, 2023-09-25 18:11:59.851
182.0, 33760.61126716271, 27698.348784249876, -24221.154954571124, -33256.87000237346, -8702.048206573512, -3761.9997575282764, -187500.02235174447, -7705.920363178297, -77.44879453763897, -47962.842638831455, -16440.35624746755, -27964.938040368324, 5987.205325031916, -11505.582810113765, -37337.113897456395, -44328.82897005427, 0.052000000000000005, 0.9440000000000001, 0.358, 192.0, 0.5, 80.0, 14.5, 64.0, 5.5, 24.0, 0.0, 0.0, 0.0, 1.695683519851735E9, 0.0, 2023-09-25 18:11:59.851
184.0, 33774.4246452361, 27707.66946168774, -24203.698242151528, -33243.1460312779, -8689.978264567646, -3735.2447194152737, -187500.02235174447, -7700.131261364372, -68.06106186641, -47957.455868417725, -16436.310581721136, -27960.735912410728, 5984.23254301936, -11484.147487181126, -37336.82332477848, -44329.47717064347, 0.052000000000000005, 0.9440000000000001, 0.358, 192.0, 0.0, 0.0, 0.0, 0.0, 0.0, 0.0, 0.0, 0.0, 0.0, 1.695683519851741E9, 0.0, 2023-09-25 18:11:59.851
186.0, 33773.150595802144, 27711.513961734054, -24200.725460138972, -33235.85936258547, -8686.536095921529, -3732.048419958165, -187500.02235174447, -7729.903784978841, -58.82979140636819, -47941.67553683228, -16413.288284932172, -27949.53768843862, 5995.453118735924, -11478.403088856112, -37317.15378965781, -44305.471397098474, 0.052000000000000005, 0.9440000000000001, 0.358, 192.0, 0.0, 0.0, 0.0, 0.0, 0.0, 0.0, 0.0, 0.0, 0.0, 1.695683519851745E9, 0.0, 2023-09-25 18:11:59.851
188.0, 33759.53838342886, 27694.236063270102, -24221.579637715775, -33259.12752856345, -8712.53117472305, -3750.1533329669637, -187500.02235174447, -7700.824165442487, -72.86668692430102, -47959.0204905296, -16429.4262444289, -27961.138243810925, 5988.501726210324, -11487.142620938137, -37331.57066483148, -44320.648231583626, 0.052000000000000005, 0.9440000000000001, 0.358, 192.0, 0.0, 0.0, 0.0, 0.0, 0.0, 0.0, 0.0, 0.0, 0.0, 1.695683519851749E9, 0.0, 2023-09-25 18:11:59.851
190.0, 33754.6657031376, 27692.313813246947, -24221.356120271223, -33265.16249956638, -8711.190070055733, -3752.701431834869, -187500.02235174447, -7697.963142152208, -90.68102725518075, -47970.79985985754, -16443.35138122456, -27976.91857539637, 5964.831228832153, -11506.700397336532, -37349.63087435137, -44332.53935963385, 0.052000000000000005, 0.9440000000000001, 0.358, 192.0, 0.0, 0.0, 0.0, 0.0, 0.0, 0.0, 0.0, 0.0, 0.0, 1.695683519851754E9, 0.0, 2023-09-25 18:11:59.851
192.0, 33767.18268003257, 27706.820095398438, -24202.69241365104, -33260.49098497522, -8696.43791871523, -3749.661594588947, -187500.02235174447, -7699.751281708633, -69.6256839782815, -47948.85044680243, -16424.799433326654, -27959.417159487864, 5997.084796081162, -11491.568266340288, -37332.4647346097, -44317.38487689315, 0.054, 0.9440000000000001, 0.354, 192.0, 0.5, 88.0, 14.5, 64.0, 5.5, 8.0, 0.0, 0.0, 0.0, 1.695683519851758E9, 0.0, 2023-09-25 18:11:59.851
194.0, 33762.377054974684, 27705.076659330927, -24200.79251537234, -33263.1508425654, -8691.47583144615, -3750.4439056448828, -187500.02235174447, -7717.2526976171375, -73.33607355786248, -47964.78724059907, -16427.124014750007, -27969.140168325925, 5977.32585398267, -11493.401109385624, -37338.00796723461, -44327.59962410923, 0.054, 0.9440000000000001, 0.354, 192.0, 0.0, 0.0, 0.0, 0.0, 0.0, 0.0, 0.0, 0.0, 0.0, 1.695683519911818E9, 0.0, 2023-09-25 18:11:59.911
196.0, 33757.75024387243, 27704.763734908553, -24207.94507359804, -33269.811662413085, -8700.014197828079, -3754.757792324757, -187500.02235174447, -7685.8484966574315, -75.68300672566971, -47955.48891490566, -16426.744035094267, -27961.607630444483, 5988.300560510226, -11497.849106532229, -37326.31800488449, -44317.8095600378, 0.054, 0.9440000000000001, 0.354, 192.0, 0.0, 0.0, 0.0, 0.0, 0.0, 0.0, 0.0, 0.0, 0.0, 1.695683519911831E9, 0.0, 2023-09-25 18:11:59.911
198.0, 33757.8172991058, 27701.05334532897, -24203.899407851626, -33261.87679313145, -8691.229962257143, -3756.7023940923686, -187500.02235174447, -7718.459691817724, -75.28067532547419, -47960.763926597116, -16439.05984628914, -27972.716447438772, 5986.154793042516, -11490.51773435089, -37329.89428399733, -44326.169112464086, 0.054, 0.9440000000000001, 0.354, 192.0, 0.0, 0.0, 0.0, 0.0, 0.0, 0.0, 0.0, 0.0, 0.0, 1.695683519911835E9, 0.0, 2023-09-25 18:11:59.911
200.0, 33756.27502873838, 27701.81330464045, -24211.99073934445, -33261.899144875904, -8702.249372273609, -3755.294234191684, -187500.02235174447, -7686.094365846439, -77.78407070446858, -47967.62591214489, -16437.07054103262, -27964.558060712585, 5979.51632493929, -11497.133850709659, -37327.0109089626, -44325.02917349686, 0.054, 0.9440000000000001, 0.354, 192.0, 0.0, 0.0, 0.0, 0.0, 0.0, 0.0, 0.0, 0.0, 0.0, 1.695683519911838E9, 0.0, 2023-09-25 18:11:59.911
202.0, 33757.10204328323, 27704.38375525281, -24200.211370016503, -33249.22570576974, -8694.359206480885, -3742.5090363632485, -187500.02235174447, -7723.220613386705, -68.6645589667033, -47957.65703411782, -16432.041398530175, -27960.311229266077, 5986.311255253703, -11489.55660933931, -37327.748516529624, -44321.43054263956, 0.052000000000000005, 0.9500000000000001, 0.356, 192.0, 0.5, 80.0, 14.5, 88.0, 5.5, 16.0, 0.0, 0.0, 0.0, 1.695683519911841E9, 0.0, 2023-09-25 18:11:59.911
204.0, 33765.61805792071, 27713.547970479485, -24218.74096616995, -33267.75530192319, -8717.49326199213, -3747.806399799156, -187500.02235174447, -7690.095328103939, -71.95026540163343, -47962.12738300889, -16441.33972422358, -27966.569717713563, 5978.264627249793, -11498.31849316579, -37333.78348753256, -44326.75025781993, 0.052000000000000005, 0.9500000000000001, 0.356, 192.0, 0.0, 0.0, 0.0, 0.0, 0.0, 0.0, 0.0, 0.0, 0.0, 1.695683519911844E9, 0.0, 2023-09-25 18:11:59.911
206.0, 33740.15942098611, 27692.224406269124, -24206.64867241963, -33255.260676772676, -8705.222154286164, -3741.7937805406787, -187500.02235174447, -7715.665723760811, -81.56151551741547, -47955.578321883484, -16443.373732969016, -27970.414217759877, 5978.197572016427, -11489.713071550497, -37337.136249200856, -44326.213815953, 0.052000000000000005, 0.9500000000000001, 0.356, 192.0, 0.0, 0.0, 0.0, 0.0, 0.0, 0.0, 0.0, 0.0, 0.0, 1.695683519911848E9, 0.0, 2023-09-25 18:11:59.911
208.0, 33753.12343277019, 27709.457601244165, -24199.898445594128, -33252.15378429339, -8700.237715272631, -3743.537216608193, -187500.02235174447, -7690.229438570672, -96.73835000256896, -47972.34213022496, -16450.548642939168, -27978.080866108045, 5961.724336352866, -11504.152298468625, -37338.812630035, -44333.522836389886, 0.052000000000000005, 0.9500000000000001, 0.356, 192.0, 0.0, 0.0, 0.0, 0.0, 0.0, 0.0, 0.0, 0.0, 0.0, 1.695683519911851E9, 0.0, 2023-09-25 18:11:59.911
210.0, 33747.490793167446, 27710.306967533466, -24198.780858371363, -33248.130470291435, -8695.633255914838, -3750.6003678560696, -187500.02235174447, -7717.990305184163, -69.51392525600497, -47937.71927806369, -16427.302828705648, -27954.097444307503, 5980.320987739681, -11476.257321388402, -37316.72910651316, -44310.96992623448, 0.052000000000000005, 0.9500000000000001, 0.356, 192.0, 0.0, 0.0, 0.0, 0.0, 0.0, 0.0, 0.0, 0.0, 0.0, 1.695683519972135E9, 0.0, 2023-09-25 18:11:59.972
212.0, 33745.14385999964, 27710.731650678117, -24205.978120085972, -33254.65717967239, -8704.216325785676, -3748.6110625995475, -187500.02235174447, -7665.5978161809235, -95.44194882416116, -47956.7182608507, -16444.11134053604, -27964.04397059011, 5968.966301556386, -11500.911295522606, -37328.21790316318, -44325.78913280835, 0.054, 0.9480000000000001, 0.358, 192.0, 0.5, 88.0, 14.5, 80.0, 5.5, 24.0, 0.0, 0.0, 0.0, 1.695683519972144E9, 0.0, 2023-09-25 18:11:59.972
214.0, 33735.264388950396, 27709.412897755254, -24206.73807939745, -33251.282066259635, -8708.753729910104, -3744.7665625532345, -187500.02235174447, -7685.80379316852, -93.81027147892374, -47946.03412700107, -16440.758578867742, -27963.77574965665, 5964.4512491764135, -11486.94145523804, -37328.35201362992, -44315.10499895871, 0.054, 0.9480000000000001, 0.358, 192.0, 0.0, 0.0, 0.0, 0.0, 0.0, 0.0, 0.0, 0.0, 0.0, 1.695683519972148E9, 0.0, 2023-09-25 18:11:59.972
216.0, 33747.9154763121, 27725.595560740898, -24194.77989611386, -33236.41815619685, -8699.768328639071, -3728.3603821230395, -187500.02235174447, -7654.846627097921, -96.78305349147958, -47939.8650455314, -16438.433997444394, -27954.14214779641, 5971.983787057851, -11492.171763440581, -37325.49099033964, -44311.43931286804, 0.054, 0.9480000000000001, 0.358, 192.0, 0.0, 0.0, 0.0, 0.0, 0.0, 0.0, 0.0, 0.0, 0.0, 1.695683519972151E9, 0.0, 2023-09-25 18:11:59.972
218.0, 33738.684205852056, 27716.990139125603, -24198.46793394899, -33249.248057514196, -8703.255200774098, -3740.698545062369, -187500.02235174447, -7673.532685462557, -87.12709988678694, -47926.67751630277, -16427.481642661292, -27948.24128726021, 5977.70583363841, -11473.865684731685, -37315.164484401284, -44297.983562705944, 0.054, 0.9480000000000001, 0.358, 192.0, 0.0, 0.0, 0.0, 0.0, 0.0, 0.0, 0.0, 0.0, 0.0, 1.695683519972154E9, 0.0, 2023-09-25 18:11:59.972
220.0, 33743.17690648758, 27716.654862958774, -24205.285216007855, -33257.94288610732, -8705.91505836428, -3747.113495721042, -187500.02235174447, -7652.6561561413, -96.22425988009691, -47941.22850194317, -16435.997657298765, -27960.668857177363, 5955.309385694192, -11485.84621975973, -37322.27233913807, -44307.68421979955, 0.054, 0.9480000000000001, 0.358, 192.0, 0.0, 0.0, 0.0, 0.0, 0.0, 0.0, 0.0, 0.0, 0.0, 1.695683519972157E9, 0.0, 2023-09-25 18:11:59.972
222.0, 33739.0641855078, 27714.95613038017, -24194.466971691487, -33256.60178144, -8693.442784958219, -3734.887091503989, -187500.02235174447, -7665.620167925378, -87.19415512015286, -47945.69885083423, -16437.29405847717, -27962.971086856258, 5967.111106766594, -11491.009472728905, -37322.67467053827, -44311.75223729041, 0.054, 0.9420000000000001, 0.358, 192.0, 0.5, 88.0, 14.5, 56.0, 5.5, 24.0, 0.0, 0.0, 0.0, 1.695683519972161E9, 0.0, 2023-09-25 18:11:59.972
224.0, 33744.92034255509, 27719.4935345046, -24195.092820536236, -33255.43949072832, -8693.57689542495, -3747.1581992099527, -187500.02235174447, -7656.634766654345, -93.3632365898176, -47942.30138567703, -16439.261011989238, -27965.206261301788, 5969.100412023117, -11491.814135529297, -37325.06630719499, -44316.24493792593, 0.054, 0.9420000000000001, 0.358, 192.0, 0.0, 0.0, 0.0, 0.0, 0.0, 0.0, 0.0, 0.0, 0.0, 1.695683520031445E9, 0.0, 2023-09-25 18:12:00.031
226.0, 33733.163324971596, 27717.593636225898, -24195.40574495861, -33255.595952939504, -8698.159003038289, -3746.800571298668, -187500.02235174447, -7669.598778438423, -95.46430056861647, -47940.98263275417, -16440.35624746755, -27958.52308970965, 5957.969243284374, -11482.89578949163, -37328.597882818925, -44320.715286816994, 0.054, 0.9420000000000001, 0.358, 192.0, 0.0, 0.0, 0.0, 0.0, 0.0, 0.0, 0.0, 0.0, 0.0, 1.695683520031457E9, 0.0, 2023-09-25 18:12:00.031
228.0, 33750.73179611347, 27734.69272073421, -24186.1074192652, -33237.982778308724, -8692.034625057535, -3734.373001381517, -187500.02235174447, -7679.366490765392, -79.48280328307192, -47931.70665880521, -16431.616715385524, -27952.71163615127, 5972.207304502404, -11473.195132398027, -37322.60761530491, -44316.311993159296, 0.054, 0.9420000000000001, 0.358, 192.0, 0.0, 0.0, 0.0, 0.0, 0.0, 0.0, 0.0, 0.0, 0.0, 1.69568352003146E9, 0.0, 2023-09-25 18:12:00.031
230.0, 33745.09915651073, 27727.42840378623, -24197.372698470677, -33247.95165633579, -8705.289209519531, -3736.630527571503, -187500.02235174447, -7657.931167832753, -84.75781497452438, -47932.95835649471, -16433.941296808876, -27944.240325002713, 5967.13345851105, -11471.228178885958, -37318.65135653631, -44315.08264721426, 0.054, 0.9420000000000001, 0.358, 192.0, 0.0, 0.0, 0.0, 0.0, 0.0, 0.0, 0.0, 0.0, 0.0, 1.695683520031463E9, 0.0, 2023-09-25 18:12:00.031
232.0, 33753.90574382612, 27735.72090097915, -24199.227893260468, -33246.74466213521, -8703.38931124083, -3742.956071252355, -187500.02235174447, -7649.236339239638, -90.97159993309974, -47940.93792926525, -16445.519500436723, -27959.39480774341, 5962.193722986427, -11486.248551159924, -37331.23538866465, -44327.17494096458, 0.058, 0.9440000000000001, 0.358, 192.0, 0.5, 104.0, 14.5, 64.0, 5.5, 24.0, 0.0, 0.0, 0.0, 1.695683520031467E9, 0.0, 2023-09-25 18:12:00.031
234.0, 33745.05445302182, 27736.883191690828, -24188.11907626618, -33243.48130744473, -8687.76544186657, -3737.2787281607066, -187500.02235174447, -7649.012821795085, -74.16308810270884, -47928.84563551493, -16429.180375239896, -27950.945848339303, 5962.014909030785, -11486.337958137747, -37315.90209196831, -44317.34017340424, 0.058, 0.9440000000000001, 0.358, 192.0, 0.0, 0.0, 0.0, 0.0, 0.0, 0.0, 0.0, 0.0, 0.0, 1.69568352003147E9, 0.0, 2023-09-25 18:12:00.031
