%OpenBCI Raw EXG Data
%Number of channels = 16
%Sample Rate = 125 Hz
%Board = OpenBCI_GUI$BoardCytonSerialDaisy
Sample Index, EXG Channel 0, EXG Channel 1, EXG Channel 2, EXG Channel 3, EXG Channel 4, EXG Channel 5, EXG Channel 6, EXG Channel 7, EXG Channel 8, EXG Channel 9, EXG Channel 10, EXG Channel 11, EXG Channel 12, EXG Channel 13, EXG Channel 14, EXG Channel 15, Accel Channel 0, Accel Channel 1, Accel Channel 2, Other, Other, Other, Other, Other, Other, Other, Analog Channel 0, Analog Channel 1, Analog Channel 2, Timestamp, Other, Timestamp (Formatted)
250.0, 11074.417659570892, 34201.43237131028, -19770.20737769692, -18141.614573194336, -10230.728713360872, 17417.0604249311, -187500.02235174447, 12603.701663458547, 10727.719751324625, -27969.095464837013, -3059.9091124426263, -7055.529303017772, 1686.5732296196497, 3001.101672780713, -22360.86396704483, -28628.98601639104, 0.0, 0.0, 0.0, 192.0, 0.0, 0.0, 0.0, 0.0, 0.0, 0.0, 0.0, 0.0, 0.0, 1.695684564654717E9, 0.0, 2023-09-25 18:29:24.654
252.0, 11072.964796181297, 34199.465417798216, -19781.427953413484, -18147.537785474993, -10247.671335657995, 17404.074061402567, -187500.02235174447, 12606.629741982191, 10734.26881245003, -27960.53474671063, -3060.780830476383, -7054.2552535838195, 1690.3283226881413, 3010.623515918674, -22360.08165598889, -28626.683786712147, 0.0, 0.0, 0.0, 192.0, 0.0, 0.0, 0.0, 0.0, 0.0, 0.0, 0.0, 0.0, 0.0, 1.695684564654725E9, 0.0, 2023-09-25 18:29:24.654
254.0, 11086.174677154384, 34202.52760678859, -19782.009098769322, -18148.320096530926, -10249.235957769866, 17408.097375404523, -187500.02235174447, 12593.553971475838, 10719.047274475966, -27967.933174125337, -3068.469830569009, -7068.158038635021, 1684.8968487855018, 3005.639076905141, -22378.275975975514, -28637.680844984156, 0.068, 0.904, 0.47800000000000004, 192.0, 1.0, 16.0, 14.0, 32.0, 7.0, 120.0, 0.0, 0.0, 0.0, 1.695684564654729E9, 0.0, 2023-09-25 18:29:24.654
0.0, 11063.174732109874, 34204.405153322834, -19775.840017299655, -18144.11796857333, -10231.22045173889, 17430.78439602666, -187500.02235174447, 12633.317724861829, 10728.814986802934, -27958.25486877619, -3060.311443842822, -7059.820837953191, 1674.2350666803202, 3004.432082704554, -22359.61226935533, -28618.435993008137, 0.068, 0.904, 0.47800000000000004, 192.0, 0.0, 0.0, 0.0, 0.0, 0.0, 0.0, 0.0, 0.0, 0.0, 1.695684564654732E9, 0.0, 2023-09-25 18:29:24.654
2.0, 11063.979394910264, 34199.86774919841, -19785.898302304544, -18162.513454260046, -10238.93180357597, 17415.138174907945, -187500.02235174447, 12615.413977553128, 10715.426291874206, -27969.095464837013, -3053.9859001619698, -7063.553579277227, 1674.7715085472475, 2993.993818043926, -22358.98642051058, -28623.33102504385, 0.068, 0.904, 0.47800000000000004, 192.0, 0.0, 0.0, 0.0, 0.0, 0.0, 0.0, 0.0, 0.0, 0.0, 1.695684564654736E9, 0.0, 2023-09-25 18:29:24.654
4.0, 11077.010461927708, 34207.422638824304, -19779.23748245686, -18157.327849546415, -10236.651925641529, 17420.502593577217, -187500.02235174447, 12603.321683802806, 10725.037541989988, -27959.126586809947, -3041.3348128002663, -7057.5409600187495, 1679.7559475607811, 3007.8295478617606, -22359.455807144142, -28616.24552205152, 0.068, 0.904, 0.47800000000000004, 192.0, 0.0, 0.0, 0.0, 0.0, 0.0, 0.0, 0.0, 0.0, 0.0, 1.695684564654739E9, 0.0, 2023-09-25 18:29:24.654
6.0, 11090.62267430099, 34220.90074073085, -19773.358973665116, -18152.49987274407, -10237.233070997367, 17419.630875543462, -187500.02235174447, 12607.9261431606, 10739.230899719108, -27949.358874482976, -3022.045257335336, -7042.811160422702, 1699.9395728039233, 3003.4486059485207, -22343.720179047607, -28605.76255390198, 0.068, 0.904, 0.47800000000000004, 192.0, 0.0, 0.0, 0.0, 0.0, 0.0, 0.0, 0.0, 0.0, 0.0, 1.695684564654742E9, 0.0, 2023-09-25 18:29:24.654
8.0, 11090.577970812079, 34214.44108658327, -19782.09850574714, -18158.154864091262, -10235.288469229756, 17422.44719534483, -187500.02235174447, 12598.761927933923, 10730.737236826091, -27956.332618753033, -3031.7682661733947, -7046.946233146934, 1682.751081317792, 3003.6497716486183, -22360.931022278193, -28614.99382436202, 0.074, 0.882, 0.48, 192.0, 1.0, 40.0, 13.5, 72.0, 7.5, 0.0, 0.0, 0.0, 0.0, 1.695684564654746E9, 0.0, 2023-09-25 18:29:24.654
10.0, 11087.046395188141, 34217.86090348493, -19781.204435968928, -18154.15390183376, -10235.780207607771, 17427.11870993599, -187500.02235174447, 12613.02234089641, 10740.683763108704, -27947.593086671008, -3019.2289375339674, -7032.641116695538, 1696.5421076467167, 3020.055952078814, -22346.76001629353, -28606.589568446827, 0.074, 0.882, 0.48, 192.0, 0.0, 0.0, 0.0, 0.0, 0.0, 0.0, 0.0, 0.0, 0.0, 1.695684564654749E9, 0.0, 2023-09-25 18:29:24.654
0.0, 5599.380206987883, 17127.851203423885, -9833.627621367887, -9050.35544042056, -5132.273451360876, 8806.766129346624, -93750.01117587223, 6133.631602958632, 5365.066869862899, -13978.401002693297, -1518.152835148911, -3521.2938214890746, 837.4081060180791, 1503.5794977640508, -11181.951902145374, -14311.844326477567, 0.1, 0.856, 0.496, 192.0, 1.5, 16.0, 13.0, 96.0, 7.5, 64.0, 0.0, 0.0, 0.0, 1.695684564808726E9, 0.0, 2023-09-25 18:29:24.808
2.0, 11192.591332506101, 34249.15334572236, -19673.916062583456, -18102.76724133101, -10263.585777710174, 17606.44675570092, -187500.02235174447, 12300.835526089137, 10952.667707522834, -27771.126064196356, -2652.8614941670294, -7058.3009193302305, 1795.3144663947187, 3138.5425494363967, -22246.758311600486, -28482.515034975415, 0.1, 0.856, 0.496, 192.0, 0.0, 0.0, 0.0, 0.0, 0.0, 0.0, 0.0, 0.0, 0.0, 1.695684564808759E9, 0.0, 2023-09-25 18:29:24.808
4.0, 11189.97617840483, 34250.82972655651, -19674.9442428284, -18102.096688997353, -10266.2232835559, 17605.329168478154, -187500.02235174447, 12285.904560792991, 10936.999134659665, -27786.727581826162, -2674.229761866303, -7071.06376541421, 1777.1872016414645, 3132.4181714556426, -22259.208233262092, -28498.183607838586, 0.1, 0.856, 0.496, 192.0, 0.0, 0.0, 0.0, 0.0, 0.0, 0.0, 0.0, 0.0, 0.0, 1.695684564808763E9, 0.0, 2023-09-25 18:29:24.808
6.0, 11206.985855935318, 34267.2359069867, -19656.12407399703, -18081.57778758738, -10259.160132308023, 17608.950151079913, -187500.02235174447, 12276.896807777503, 10950.052553421565, -27760.73250302464, -2665.2220088508143, -7051.953023904923, 1780.7411290098585, 3147.1479710516896, -22248.45704417909, -28484.92902337659, 0.1, 0.856, 0.496, 192.0, 0.0, 0.0, 0.0, 0.0, 0.0, 0.0, 0.0, 0.0, 0.0, 1.695684564808766E9, 0.0, 2023-09-25 18:29:24.808
8.0, 11207.16466989096, 34269.04639828759, -19644.568222113638, -18066.982098458066, -10235.713152374406, 17635.481671748363, -187500.02235174447, 12304.85884009109, 10947.906785953855, -27760.933668724738, -2674.3191688441243, -7056.1328001180655, 1784.719739522903, 3146.969157096047, -22252.078026780848, -28487.63358445568, 0.108, 0.866, 0.518, 192.0, 1.5, 48.0, 13.5, 8.0, 8.0, 24.0, 0.0, 0.0, 0.0, 1.695684564808769E9, 0.0, 2023-09-25 18:29:24.808
10.0, 11184.254131824271, 34248.661607344344, -19662.337858955605, -18091.43490689217, -10256.299109017744, 17594.19799973941, -187500.02235174447, 12282.395336913507, 10960.155541915363, -27752.261191876078, -2663.2550553387473, -7051.841265182647, 1785.4126436010176, 3146.5444739513964, -22234.151927727693, -28473.8202063823, 0.108, 0.866, 0.518, 192.0, 0.0, 0.0, 0.0, 0.0, 0.0, 0.0, 0.0, 0.0, 0.0, 1.695684564808772E9, 0.0, 2023-09-25 18:29:24.808
12.0, 11188.746832459788, 34254.83068881401, -19672.530254427227, -18104.130697742785, -10268.279644045788, 17594.354461950596, -187500.02235174447, 12258.90365349098, 10928.55017525556, -27786.4593608927, -2699.509584845255, -7091.605018568638, 1760.11046887761, 3116.682543359106, -22282.811675406894, -28518.344881337274, 0.108, 0.866, 0.518, 192.0, 0.0, 0.0, 0.0, 0.0, 0.0, 0.0, 0.0, 0.0, 0.0, 1.695684564808776E9, 0.0, 2023-09-25 18:29:24.808
14.0, 11184.365890546547, 34245.28649393159, -19648.8374053046, -18083.231816677075, -10239.043562298246, 17626.831546644156, -187500.02235174447, 12308.949209326413, 10943.21291961824, -27767.415674616776, -2674.2744653552136, -7068.247445612842, 1765.8548672026238, 3143.2811192609215, -22251.87686108075, -28480.14575006315, 0.108, 0.866, 0.518, 192.0, 0.0, 0.0, 0.0, 0.0, 0.0, 0.0, 0.0, 0.0, 0.0, 1.695684564808779E9, 0.0, 2023-09-25 18:29:24.808
16.0, 11182.376585290025, 34239.385633395395, -19659.83446357661, -18102.43196516418, -10252.566367693707, 17608.23489525734, -187500.02235174447, 12285.010491014778, 10943.414085318338, -27771.573099085464, -2665.5125815287333, -7062.257178098819, 1780.6740737764924, 3149.941939108603, -22243.07027376536, -28472.657915670625, 0.108, 0.866, 0.518, 192.0, 0.0, 0.0, 0.0, 0.0, 0.0, 0.0, 0.0, 0.0, 0.0, 1.695684564868527E9, 0.0, 2023-09-25 18:29:24.868
18.0, 11179.716727699844, 34240.86084852944, -19657.80045483118, -18099.772107574, -10243.31274548921, 17609.330130735652, -187500.02235174447, 12279.891941534514, 10943.235271362695, -27771.662506063287, -2669.960578675339, -7065.721698489392, 1774.594399284649, 3143.0576018163683, -22250.960439558083, -28482.26916578641, 0.10200000000000001, 0.866, 0.53, 192.0, 1.5, 24.0, 13.5, 8.0, 8.0, 72.0, 0.0, 0.0, 0.0, 1.695684564868537E9, 0.0, 2023-09-25 18:29:24.868
20.0, 11173.704108441367, 34239.363281650934, -19673.35726897207, -18114.278389725496, -10265.1727515665, 17593.773316594757, -187500.02235174447, 12270.079525718633, 10930.315963067527, -27779.5079683671, -2682.3657968480347, -7071.108468903121, 1767.9559311814228, 3130.7641423659497, -22260.616393162774, -28498.45182877205, 0.10200000000000001, 0.866, 0.53, 192.0, 0.0, 0.0, 0.0, 0.0, 0.0, 0.0, 0.0, 0.0, 0.0, 1.695684564868541E9, 0.0, 2023-09-25 18:29:24.868
22.0, 11180.476687011325, 34234.557656593046, -19664.863606079056, -18111.68558736868, -10262.423486998498, 17586.978386280345, -187500.02235174447, 12233.355609578564, 10939.413123060838, -27772.757741541594, -2689.473651584822, -7077.165791650509, 1759.9093031775121, 3130.495921432486, -22274.139198558238, -28513.606311512747, 0.10200000000000001, 0.866, 0.53, 192.0, 0.0, 0.0, 0.0, 0.0, 0.0, 0.0, 0.0, 0.0, 0.0, 1.695684564868544E9, 0.0, 2023-09-25 18:29:24.868
24.0, 11179.11323059955, 34239.095060717475, -19663.45544617837, -18100.375604674293, -10256.164998551012, 17605.39622371152, -187500.02235174447, 12287.268017204764, 10941.558890528548, -27772.176596185756, -2684.869192227029, -7076.763460250314, 1768.917056193001, 3136.754409879972, -22259.40939896219, -28500.798761939855, 0.10200000000000001, 0.866, 0.53, 192.0, 0.0, 0.0, 0.0, 0.0, 0.0, 0.0, 0.0, 0.0, 0.0, 1.695684564868547E9, 0.0, 2023-09-25 18:29:24.868
26.0, 11176.45337300937, 34234.04356647057, -19673.98311781682, -18112.49025016907, -10263.921053877004, 17592.946302049913, -187500.02235174447, 12259.305984891174, 10936.909727681843, -27780.78201780105, -2694.7263115318196, -7085.570047565705, 1759.1940473549423, 3127.724305120028, -22267.34426824382, -28509.78416321089, 0.10200000000000001, 0.866, 0.53, 192.0, 0.0, 0.0, 0.0, 0.0, 0.0, 0.0, 0.0, 0.0, 0.0, 1.695684564868551E9, 0.0, 2023-09-25 18:29:24.868
28.0, 11187.137506859006, 34242.9842642527, -19673.55843467217, -18108.757508845032, -10252.78988513826, 17597.90838931899, -187500.02235174447, 12261.787028525714, 10941.044800406075, -27780.06676197848, -2690.8818114855067, -7088.386367367073, 1766.078384647177, 3118.917717804637, -22276.35202125931, -28523.195209884074, 0.11, 0.868, 0.528, 192.0, 1.5, 56.0, 13.5, 16.0, 8.0, 64.0, 0.0, 0.0, 0.0, 1.695684564868554E9, 0.0, 2023-09-25 18:29:24.868
30.0, 11181.393108533992, 34235.33996764898, -19680.55453068668, -18119.19577350566, -10267.363222523121, 17591.29227296022, -187500.02235174447, 12264.75981053827, 10938.899032938365, -27776.82575903246, -2689.808927751652, -7089.325140634196, 1755.3271955641742, 3131.591156910796, -22271.591099690333, -28512.64518650117, 0.11, 0.868, 0.528, 192.0, 0.0, 0.0, 0.0, 0.0, 0.0, 0.0, 0.0, 0.0, 0.0, 1.695684564928508E9, 0.0, 2023-09-25 18:29:24.928
32.0, 11191.384338305514, 34244.86181078694, -19674.474856194836, -18115.865363581823, -10262.64700444305, 17586.71016534688, -187500.02235174447, 12225.018408896734, 10932.104102623953, -27786.057029492502, -2690.0547969406603, -7099.428129127995, 1753.91903566349, 3101.751578062961, -22289.78541967695, -28535.60042805677, 0.11, 0.868, 0.528, 192.0, 0.0, 0.0, 0.0, 0.0, 0.0, 0.0, 0.0, 0.0, 0.0, 1.695684564928522E9, 0.0, 2023-09-25 18:29:24.928
34.0, 11197.329902330626, 34254.49541264718, -19666.919966568945, -18103.7730698315, -10245.547919934741, 17617.265000017287, -187500.02235174447, 12287.29036894922, 10956.936890713798, -27758.87730823485, -2664.2385320947806, -7073.321291604197, 1776.1143179076098, 3137.201444769078, -22254.380256459746, -28489.555834478837, 0.11, 0.868, 0.528, 192.0, 0.0, 0.0, 0.0, 0.0, 0.0, 0.0, 0.0, 0.0, 0.0, 1.695684564928526E9, 0.0, 2023-09-25 18:29:24.928
36.0, 11198.35808257557, 34251.29911319007, -19682.499132454293, -18119.709863628133, -10261.104734075634, 17604.09982253311, -187500.02235174447, 12270.86183677457, 10944.084637651997, -27776.132854954347, -2672.3745670765124, -7083.960721964922, 1765.5642945247048, 3116.459025914553, -22275.904986370206, -28510.298253333363, 0.11, 0.868, 0.528, 192.0, 0.0, 0.0, 0.0, 0.0, 0.0, 0.0, 0.0, 0.0, 0.0, 1.695684564928529E9, 0.0, 2023-09-25 18:29:24.928
38.0, 11207.499946057791, 34261.178584239315, -19669.669231136948, -18111.529125157493, -10250.867635115104, 17625.87042163258, -187500.02235174447, 12290.509020150785, 10957.182759902807, -27765.225203660157, -2660.6846047263866, -7068.985053179867, 1774.750861495836, 3131.7923226108937, -22257.710666383588, -28485.197244310053, 0.116, 0.848, 0.52, 192.0, 1.5, 80.0, 13.0, 64.0, 8.0, 32.0, 0.0, 0.0, 0.0, 1.695684564928532E9, 0.0, 2023-09-25 18:29:24.928
40.0, 11214.093710672107, 34272.242697744696, -19670.69741138189, -18109.361005945328, -10255.025059583792, 17620.885982619046, -187500.02235174447, 12285.010491014778, 10956.221634891228, -27761.53716582503, -2654.9849098902837, -7058.993823408345, 1774.1473643955428, 3132.5299301779187, -22257.665962894676, -28485.68898268807, 0.116, 0.848, 0.52, 192.0, 0.0, 0.0, 0.0, 0.0, 0.0, 0.0, 0.0, 0.0, 0.0, 1.695684564928535E9, 0.0, 2023-09-25 18:29:24.928
42.0, 11222.162690420473, 34279.32820073703, -19667.769332858246, -18111.305607712937, -10261.730582920383, 17618.270828517776, -187500.02235174447, 12261.51880759225, 10973.499533355181, -27742.471127804652, -2644.546645229655, -7040.620689466083, 1776.8072219857243, 3145.7621628954607, -22256.347209971813, -28478.53642446237, 0.116, 0.848, 0.52, 192.0, 0.0, 0.0, 0.0, 0.0, 0.0, 0.0, 0.0, 0.0, 0.0, 1.695684564928539E9, 0.0, 2023-09-25 18:29:24.928
44.0, 11225.694266044411, 34280.98222982672, -19662.628431633526, -18106.768203588512, -10255.941481106458, 17613.688720904436, -187500.02235174447, 12260.848255258592, 10969.722088542234, -27747.723787751653, -2651.8780174109957, -7047.594433736138, 1777.1648498970092, 3131.814674355349, -22261.957497830095, -28492.282747302386, 0.116, 0.848, 0.52, 192.0, 0.0, 0.0, 0.0, 0.0, 0.0, 0.0, 0.0, 0.0, 0.0, 1.695684564928542E9, 0.0, 2023-09-25 18:29:24.928
46.0, 11204.571867534145, 34259.05516851606, -19671.479722437827, -18113.6748926252, -10258.802504396737, 17597.975444552358, -187500.02235174447, 12238.80943522566, 10961.876626238422, -27764.800520515506, -2675.2355903667917, -7069.879122958079, 1765.6313497580709, 3124.3938951961873, -22275.279137525456, -28509.627700999703, 0.116, 0.848, 0.52, 192.0, 0.0, 0.0, 0.0, 0.0, 0.0, 0.0, 0.0, 0.0, 0.0, 1.69568456498839E9, 0.0, 2023-09-25 18:29:24.988
48.0, 11196.50288778578, 34253.66839810233, -19670.786818359713, -18102.58842737537, -10262.579949209685, 17589.52648514825, -187500.02235174447, 12248.420685341442, 10955.707544768757, -27769.2038141732, -2689.898334729473, -7079.088041673665, 1763.172657867987, 3118.984773038003, -22278.967175360583, -28524.02222442892, 0.12, 0.858, 0.51, 192.0, 1.5, 96.0, 13.0, 104.0, 7.5, 120.0, 0.0, 0.0, 0.0, 1.6956845649884E9, 0.0, 2023-09-25 18:29:24.988
50.0, 11209.042216425207, 34264.77721509662, -19659.812111832158, -18078.9179299972, -10255.203873539433, 17605.61974115607, -187500.02235174447, 12252.75692376577, 10959.417934348337, -27761.96184896968, -2688.445471339878, -7076.294073616752, 1767.240675358853, 3117.978944537514, -22275.256785781003, -28526.860895974743, 0.12, 0.858, 0.51, 192.0, 0.0, 0.0, 0.0, 0.0, 0.0, 0.0, 0.0, 0.0, 0.0, 1.695684564988404E9, 0.0, 2023-09-25 18:29:24.988
52.0, 11195.07237614064, 34252.39434866838, -19669.490417181303, -18079.230854419573, -10263.116391076612, 17601.171744009465, -187500.02235174447, 12258.456618601873, 10955.573434302025, -27774.2553084201, -2697.4755760998223, -7092.990826724867, 1759.171695610487, 3123.790398095894, -22287.214969064593, -28542.618875815737, 0.12, 0.858, 0.51, 192.0, 0.0, 0.0, 0.0, 0.0, 0.0, 0.0, 0.0, 0.0, 0.0, 1.695684564988407E9, 0.0, 2023-09-25 18:29:24.988
54.0, 11205.264771612261, 34261.670322617334, -19656.012315274755, -18062.511749567002, -10252.40990548252, 17614.20281102691, -187500.02235174447, 12246.9901736963, 10949.717277254735, -27775.954040998706, -2706.5727360931323, -7102.378559396096, 1750.1862943394535, 3103.5173658749304, -22294.859265668307, -28551.403111386673, 0.12, 0.858, 0.51, 192.0, 0.0, 0.0, 0.0, 0.0, 0.0, 0.0, 0.0, 0.0, 0.0, 1.69568456498841E9, 0.0, 2023-09-25 18:29:24.988
56.0, 11192.211352850361, 34248.43808989979, -19660.61677463255, -18067.563243813904, -10252.164036293512, 17606.402052212008, -187500.02235174447, 12261.362345381063, 10961.340184371495, -27774.21060493119, -2696.648561554976, -7104.591382097171, 1762.9044369345233, 3107.4065694101537, -22283.348117273825, -28547.893887507187, 0.12, 0.858, 0.51, 192.0, 0.0, 0.0, 0.0, 0.0, 0.0, 0.0, 0.0, 0.0, 0.0, 1.695684564988413E9, 0.0, 2023-09-25 18:29:24.988
58.0, 11203.655446011478, 34265.71598836374, -19650.200861716374, -18048.72072323808, -10249.973565336892, 17626.943305366436, -187500.02235174447, 12285.9492642819, 10953.427666834315, -27772.3554101414, -2697.67674179992, -7107.1394809650765, 1761.2280561003754, 3114.5144241469416, -22286.74558243103, -28549.145585196686, 0.12, 0.874, 0.498, 192.0, 1.5, 96.0, 13.5, 40.0, 7.5, 72.0, 0.0, 0.0, 0.0, 1.695684564988417E9, 0.0, 2023-09-25 18:29:24.988
60.0, 11209.735120503321, 34268.4876046762, -19645.238774447298, -18043.602173757812, -10242.12810303308, 17622.696473919925, -187500.02235174447, 12267.687889061915, 10965.162332673352, -27757.67031403426, -2683.841011982085, -7098.288190160774, 1763.9996724128334, 3119.0294765269136, -22278.944823616126, -28543.155317682664, 0.12, 0.874, 0.498, 192.0, 0.0, 0.0, 0.0, 0.0, 0.0, 0.0, 0.0, 0.0, 0.0, 1.695684565048728E9, 0.0, 2023-09-25 18:29:25.048
62.0, 11201.576733777134, 34264.039607529594, -19645.015257002742, -18043.132787124254, -10240.295259987744, 17630.519584479283, -187500.02235174447, 12287.983273027334, 10967.59867281898, -27762.654753047795, -2676.420232822923, -7098.087024460677, 1773.2085911284198, 3120.527043405419, -22267.21015777709, -28531.621817543724, 0.12, 0.874, 0.498, 192.0, 0.0, 0.0, 0.0, 0.0, 0.0, 0.0, 0.0, 0.0, 0.0, 1.695684565048739E9, 0.0, 2023-09-25 18:29:25.048
64.0, 11199.945056431898, 34258.474023160226, -19648.524480882228, -18055.113322152298, -10249.682992658973, 17621.422424485972, -187500.02235174447, 12282.507095635783, 10958.188588403296, -27770.701381051706, -2679.4600700688447, -7108.525289121305, 1756.8024106982245, 3113.0615607573463, -22271.904024112704, -28532.538239066394, 0.12, 0.874, 0.498, 192.0, 0.0, 0.0, 0.0, 0.0, 0.0, 0.0, 0.0, 0.0, 0.0, 1.695684565048743E9, 0.0, 2023-09-25 18:29:25.048
66.0, 11209.422196080946, 34270.67807563282, -19639.986114500298, -18049.90536569421, -10240.69759138794, 17622.87528787557, -187500.02235174447, 12279.467258389863, 10966.615196062947, -27758.430273345744, -2665.5125815287333, -7090.554486579238, 1772.7392044948585, 3125.533834163408, -22263.052733308403, -28519.127192393207, 0.12, 0.874, 0.498, 192.0, 0.0, 0.0, 0.0, 0.0, 0.0, 0.0, 0.0, 0.0, 0.0, 1.695684565048746E9, 0.0, 2023-09-25 18:29:25.048
68.0, 11208.036387924718, 34269.9404680658, -19637.281553421206, -18049.301868593917, -10236.830739597171, 17632.28537229125, -187500.02235174447, 12278.506133378283, 10974.013623477653, -27750.785976742027, -2663.0538896386493, -7082.776079508792, 1765.944274180445, 3132.6416889001953, -22260.325820484857, -28509.11361087723, 0.11800000000000001, 0.872, 0.498, 192.0, 1.5, 88.0, 13.5, 32.0, 7.5, 72.0, 0.0, 0.0, 0.0, 1.69568456504875E9, 0.0, 2023-09-25 18:29:25.048
70.0, 11188.947998159885, 34254.36130218045, -19653.620678618037, -18068.591424058846, -10254.130989805579, 17612.57113368167, -187500.02235174447, 12279.28844443422, 10955.59578604648, -27764.26407864858, -2677.9177997014285, -7091.850887757646, 1765.4525358024284, 3126.6290696417177, -22268.663021166685, -28516.668500503125, 0.11800000000000001, 0.872, 0.498, 192.0, 0.0, 0.0, 0.0, 0.0, 0.0, 0.0, 0.0, 0.0, 0.0, 1.695684565048753E9, 0.0, 2023-09-25 18:29:25.048
72.0, 11190.579675505123, 34251.6343893569, -19654.380637929517, -18075.408706117716, -10263.719888176905, 17605.217409755875, -187500.02235174447, 12252.846330743592, 10954.679364523812, -27765.15814842679, -2683.0139974372387, -7098.489355860872, 1753.561407752205, 3119.2306422270112, -22275.97204160357, -28520.781221482903, 0.11800000000000001, 0.872, 0.498, 192.0, 0.0, 0.0, 0.0, 0.0, 0.0, 0.0, 0.0, 0.0, 0.0, 1.695684565048756E9, 0.0, 2023-09-25 18:29:25.048
74.0, 11197.620475008545, 34261.08917726149, -19643.428283146415, -18067.026801946977, -10249.258309514322, 17617.421462228474, -187500.02235174447, 12283.356461925086, 10955.685193024301, -27771.304878152, -2682.745776503775, -7099.226963427897, 1754.2990153192302, 3107.0712932433244, -22280.464742239088, -28527.799669241867, 0.11800000000000001, 0.872, 0.498, 192.0, 0.0, 0.0, 0.0, 0.0, 0.0, 0.0, 0.0, 0.0, 0.0, 1.69568456504876E9, 0.0, 2023-09-25 18:29:25.048
76.0, 11196.838163952609, 34254.29424694708, -19644.635277347003, -18065.171607157186, -10249.772399636793, 17619.991912840833, -187500.02235174447, 12279.28844443422, 10966.950472229777, -27762.945325725716, -2679.5271253022106, -7095.985960481878, 1756.0648031311994, 3117.956592793059, -22268.618317677774, -28512.913407434633, 0.11800000000000001, 0.872, 0.498, 192.0, 0.0, 0.0, 0.0, 0.0, 0.0, 0.0, 0.0, 0.0, 0.0, 1.695684565108977E9, 0.0, 2023-09-25 18:29:25.108
78.0, 11196.5922947636, 34261.58091563951, -19642.645972090482, -18059.38250534326, -10251.873463615593, 17623.8587646316, -187500.02235174447, 12290.017281772767, 10959.306175626061, -27763.191194914725, -2685.2715236272247, -7097.2823616602855, 1760.7363177223585, 3121.2199474835334, -22276.55318695941, -28518.21077087054, 0.116, 0.878, 0.49, 192.0, 1.5, 80.0, 13.5, 56.0, 7.5, 40.0, 0.0, 0.0, 0.0, 1.695684565108988E9, 0.0, 2023-09-25 18:29:25.108
80.0, 11189.417384793447, 34252.863735301944, -19642.534213368202, -18068.30085138093, -10249.101847303134, 17613.06287205969, -187500.02235174447, 12265.653880316482, 10957.31687036954, -27762.364180369877, -2687.7525672617635, -7096.969437237912, 1754.8131054417022, 3124.550357407374, -22278.363678260288, -28519.373061582217, 0.116, 0.878, 0.49, 192.0, 0.0, 0.0, 0.0, 0.0, 0.0, 0.0, 0.0, 0.0, 0.0, 1.695684565108992E9, 0.0, 2023-09-25 18:29:25.108
82.0, 11196.681701741421, 34257.132918492905, -19636.45453887636, -18061.90825246671, -10248.274832758289, 17616.192116283433, -187500.02235174447, 12274.013432742768, 10964.089448939498, -27761.805386758493, -2677.873096212518, -7091.113280190621, 1766.5030677918278, 3117.2636887149442, -22272.775742146463, -28518.613102270738, 0.116, 0.878, 0.49, 192.0, 0.0, 0.0, 0.0, 0.0, 0.0, 0.0, 0.0, 0.0, 0.0, 1.695684565108996E9, 0.0, 2023-09-25 18:29:25.108
84.0, 11200.839126210109, 34260.26216271665, -19633.74997779727, -18062.131769911262, -10248.207777524922, 17611.654712159005, -187500.02235174447, 12244.710295761859, 10961.854274493966, -27768.39915137281, -2683.3045701151577, -7094.711911047925, 1758.8364194436574, 3116.459025914553, -22282.901082384717, -28527.352634352763, 0.116, 0.878, 0.49, 192.0, 0.0, 0.0, 0.0, 0.0, 0.0, 0.0, 0.0, 0.0, 0.0, 1.695684565108999E9, 0.0, 2023-09-25 18:29:25.108
86.0, 11201.6437890105, 34260.284514461106, -19633.973495241822, -18061.10358966632, -10242.2175100109, 17612.72759589286, -187500.02235174447, 12234.674362501426, 10969.252701908672, -27764.73346528214, -2680.7564712472526, -7083.804259753735, 1769.498201548839, 3119.677677116117, -22280.487093983545, -28533.78993675589, 0.116, 0.878, 0.49, 192.0, 0.0, 0.0, 0.0, 0.0, 0.0, 0.0, 0.0, 0.0, 0.0, 1.695684565109003E9, 0.0, 2023-09-25 18:29:25.109
88.0, 11204.862440212064, 34265.58187789701, -19621.434166602394, -18041.81403420139, -10230.2146232384, 17653.63128824607, -187500.02235174447, 12305.216468002376, 10966.79401001859, -27759.72667452415, -2690.3677213630344, -7082.820782997702, 1767.888875948057, 3134.7874563679047, -22269.89236711173, -28519.708337749045, 0.11, 0.882, 0.482, 192.0, 1.5, 56.0, 13.5, 72.0, 7.5, 8.0, 0.0, 0.0, 0.0, 1.695684565109007E9, 0.0, 2023-09-25 18:29:25.109
90.0, 11196.54759127469, 34255.6353516144, -19637.393312143482, -18059.963650699097, -10242.172806521989, 17634.20762231441, -187500.02235174447, 12304.836488346637, 10968.425687363826, -27757.603258800897, -2687.81962249513, -7077.769288750803, 1774.2591231178194, 3140.5095029484637, -22259.677619895654, -28509.53829402188, 0.11, 0.882, 0.482, 192.0, 0.0, 0.0, 0.0, 0.0, 0.0, 0.0, 0.0, 0.0, 0.0, 1.695684565169288E9, 0.0, 2023-09-25 18:29:25.169
92.0, 11195.5417627742, 34256.75293883716, -19636.1863179429, -18063.785799000954, -10237.747161119838, 17633.470014747385, -187500.02235174447, 12273.05230773119, 10963.038916950098, -27769.78495952904, -2703.5552505916658, -7092.297922646752, 1768.1347451370652, 3125.2879649743995, -22274.630936936253, -28528.40316634216, 0.11, 0.882, 0.482, 192.0, 0.0, 0.0, 0.0, 0.0, 0.0, 0.0, 0.0, 0.0, 0.0, 1.695684565169301E9, 0.0, 2023-09-25 18:29:25.169
94.0, 11197.59812326409, 34253.9366190358, -19640.544908111682, -18064.836330990354, -10238.708286131417, 17625.49044197684, -187500.02235174447, 12266.726764050338, 10968.001004219175, -27761.2018896582, -2693.094634186582, -7079.602131796138, 1778.6177132866042, 3137.0896860468015, -22265.779646131952, -28524.9833494405, 0.11, 0.882, 0.482, 192.0, 0.0, 0.0, 0.0, 0.0, 0.0, 0.0, 0.0, 0.0, 0.0, 1.695684565169304E9, 0.0, 2023-09-25 18:29:25.169
96.0, 11201.040291910207, 34257.95993303775, -19641.26016393425, -18064.52340656798, -10241.50225418833, 17639.706151450417, -187500.02235174447, 12275.935682765923, 10965.318794884539, -27773.003610730604, -2696.2015266658696, -7083.35722486463, 1770.0793469046769, 3124.0586190293575, -22272.663983424187, -28529.408994842648, 0.11, 0.882, 0.482, 192.0, 0.0, 0.0, 0.0, 0.0, 0.0, 0.0, 0.0, 0.0, 0.0, 1.695684565169307E9, 0.0, 2023-09-25 18:29:25.169
98.0, 11203.02959716673, 34261.51386040614, -19643.80826280216, -18061.550624555424, -10247.2690042578, 17635.369913026087, -187500.02235174447, 12272.158237952977, 10967.308100141061, -27765.49342459362, -2686.0761864276155, -7072.2707596147975, 1771.2863411052635, 3134.630994156718, -22269.60179443381, -28520.334186593795, 0.108, 0.874, 0.484, 192.0, 1.5, 48.0, 13.5, 40.0, 7.5, 16.0, 0.0, 0.0, 0.0, 1.695684565169311E9, 0.0, 2023-09-25 18:29:25.169
100.0, 11197.195791863895, 34256.10473824796, -19645.350533169574, -18063.29406062294, -10240.608184410117, 17629.692569934436, -187500.02235174447, 12262.636394815016, 10969.722088542234, -27759.994895457614, -2683.841011982085, -7068.739183990859, 1781.1211086655985, 3135.212139512556, -22263.097436797314, -28520.40124182716, 0.108, 0.874, 0.484, 192.0, 0.0, 0.0, 0.0, 0.0, 0.0, 0.0, 0.0, 0.0, 0.0, 1.695684565169314E9, 0.0, 2023-09-25 18:29:25.169
102.0, 11196.927570930431, 34255.233020214204, -19647.40689365946, -18063.629336789767, -10245.994954823847, 17619.857802374103, -187500.02235174447, 12249.493569075295, 10962.346012871983, -27777.697477066216, -2695.061587698649, -7082.574913808694, 1772.918018450501, 3118.7389038489946, -22272.418114235177, -28534.50519257846, 0.108, 0.874, 0.484, 192.0, 0.0, 0.0, 0.0, 0.0, 0.0, 0.0, 0.0, 0.0, 0.0, 1.695684565169317E9, 0.0, 2023-09-25 18:29:25.169
104.0, 11202.157879132972, 34260.843308072486, -19636.387483642993, -18054.53217679646, -10235.288469229756, 17630.229011801366, -187500.02235174447, 12255.863816245059, 10971.93491124331, -27766.20868041619, -2683.572791048621, -7069.722660746892, 1780.8305359876797, 3131.881729588715, -22261.376352474257, -28520.468297060528, 0.108, 0.874, 0.484, 192.0, 0.0, 0.0, 0.0, 0.0, 0.0, 0.0, 0.0, 0.0, 0.0, 1.69568456516932E9, 0.0, 2023-09-25 18:29:25.169
106.0, 11199.408614564969, 34255.14361323638, -19643.048303490676, -18060.947127455132, -10246.464341457407, 17624.77518615427, -187500.02235174447, 12253.38277261052, 10971.51022809866, -27770.701381051706, -2680.4882503137887, -7068.917997946501, 1779.9364662094674, 3128.3501539647764, -22259.96819257357, -28522.8822854617, 0.108, 0.874, 0.484, 192.0, 0.0, 0.0, 0.0, 0.0, 0.0, 0.0, 0.0, 0.0, 0.0, 1.695684565228639E9, 0.0, 2023-09-25 18:29:25.228
108.0, 11198.715710486855, 34261.13388075041, -19636.1863179429, -18053.705162251612, -10233.701495373429, 17641.896622407035, -187500.02235174447, 12277.187380455422, 10973.052498466075, -27773.383590386344, -2683.1034044150597, -7069.946178191445, 1778.6624167755149, 3127.8360638423046, -22259.99054431803, -28519.84244821578, 0.114, 0.868, 0.48, 192.0, 1.5, 72.0, 13.5, 16.0, 7.5, 0.0, 0.0, 0.0, 0.0, 1.695684565228649E9, 0.0, 2023-09-25 18:29:25.228
110.0, 11202.046120410696, 34260.35156969447, -19634.867565020035, -18054.845101218834, -10231.488672672353, 17635.548726981728, -187500.02235174447, 12268.112572206566, 10974.639472322402, -27766.54395658302, -2679.2812561132023, -7060.334928075663, 1782.9539517109338, 3139.4142674701534, -22244.79135808842, -28506.654918987148, 0.114, 0.868, 0.48, 192.0, 0.0, 0.0, 0.0, 0.0, 0.0, 0.0, 0.0, 0.0, 0.0, 1.695684565228652E9, 0.0, 2023-09-25 18:29:25.228
112.0, 11188.657425481966, 34250.427395156315, -19646.26695469224, -18062.690563522647, -10249.794751381249, 17625.87042163258, -187500.02235174447, 12255.126208678033, 10970.146771686885, -27775.417599131775, -2684.3103986156466, -7068.180390379476, 1782.5069168218276, 3122.136369006201, -22263.27625075296, -28527.285579119394, 0.114, 0.868, 0.48, 192.0, 0.0, 0.0, 0.0, 0.0, 0.0, 0.0, 0.0, 0.0, 0.0, 1.695684565228655E9, 0.0, 2023-09-25 18:29:25.228
114.0, 11181.34840504508, 34238.3798048949, -19648.32331518213, -18067.272671135983, -10243.446855955943, 17615.834488372147, -187500.02235174447, 12253.159255165965, 10965.274091395628, -27779.64207883383, -2690.5912388075876, -7075.802335238735, 1775.555524296227, 3117.956592793059, -22259.051771050905, -28525.8327157298, 0.114, 0.868, 0.48, 192.0, 0.0, 0.0, 0.0, 0.0, 0.0, 0.0, 0.0, 0.0, 0.0, 1.695684565228659E9, 0.0, 2023-09-25 18:29:25.228
116.0, 11175.000509619775, 34236.859886271945, -19657.867510064545, -18070.826598504376, -10253.862768872115, 17610.58182842515, -187500.02235174447, 12249.426513841929, 10952.444190078282, -27800.429201177267, -2708.450282627378, -7095.78479478178, 1771.465155060906, 3092.3191419028217, -22275.703820670107, -28552.096015464787, 0.114, 0.868, 0.48, 192.0, 0.0, 0.0, 0.0, 0.0, 0.0, 0.0, 0.0, 0.0, 0.0, 1.695684565228662E9, 0.0, 2023-09-25 18:29:25.228
118.0, 11191.02671039423, 34252.8860870464, -19633.861736519546, -18043.468063291082, -10233.343867462143, 17642.54482299624, -187500.02235174447, 12270.973595496846, 10963.21773090574, -27775.752875298607, -2699.4872331008, -7081.993768452856, 1774.3261783511853, 3117.978944537514, -22259.610564662285, -28529.654864031658, 0.116, 0.882, 0.47800000000000004, 192.0, 1.5, 80.0, 13.5, 72.0, 7.0, 120.0, 0.0, 0.0, 0.0, 1.695684565228665E9, 0.0, 2023-09-25 18:29:25.228
120.0, 11192.7924982062, 34254.42835741382, -19637.393312143482, -18052.967554684587, -10240.675239643484, 17620.975389596868, -187500.02235174447, 12258.769543024247, 10968.7386117862, -27770.433160118242, -2687.551401561666, -7071.086117158666, 1787.6031145576376, 3121.465816672542, -22250.647515135708, -28522.234084872496, 0.116, 0.882, 0.47800000000000004, 192.0, 0.0, 0.0, 0.0, 0.0, 0.0, 0.0, 0.0, 0.0, 0.0, 1.695684565288433E9, 0.0, 2023-09-25 18:29:25.288
122.0, 11191.45139353888, 34250.270932945125, -19635.7839865427, -18056.09679890833, -10233.58973665115, 17616.169764538976, -187500.02235174447, 12234.160272378955, 10972.069021710042, -27776.691648565728, -2692.804061508663, -7076.942274205956, 1782.238695888364, 3109.887613044693, -22255.49784368251, -28532.493535577483, 0.116, 0.882, 0.47800000000000004, 192.0, 0.0, 0.0, 0.0, 0.0, 0.0, 0.0, 0.0, 0.0, 0.0, 1.695684565288447E9, 0.0, 2023-09-25 18:29:25.288
124.0, 11195.07237614064, 34256.39531092588, -19637.996809243778, -18053.816920973888, -10240.69759138794, 17619.54487795173, -187500.02235174447, 12243.413894583451, 10967.822190263532, -27777.004572988102, -2695.2404016542914, -7076.070556172199, 1784.3844633560734, 3106.534851376397, -22263.07508505286, -28542.41771011564, 0.116, 0.882, 0.47800000000000004, 192.0, 0.0, 0.0, 0.0, 0.0, 0.0, 0.0, 0.0, 0.0, 0.0, 1.69568456528845E9, 0.0, 2023-09-25 18:29:25.288
126.0, 11167.244454293783, 34226.60043556696, -19650.9384692834, -18075.162836928706, -10242.843358855649, 17609.24072375783, -187500.02235174447, 12248.465388830351, 10963.50830358366, -27785.520587625575, -2702.9741052358277, -7082.038471941766, 1772.7392044948585, 3107.563031621341, -22265.5561286874, -28531.55476231036, 0.116, 0.882, 0.47800000000000004, 192.0, 0.0, 0.0, 0.0, 0.0, 0.0, 0.0, 0.0, 0.0, 0.0, 1.695684565288453E9, 0.0, 2023-09-25 18:29:25.288
128.0, 11179.649672466478, 34240.79379329608, -19636.74511155428, -18060.72361001058, -10234.64026864055, 17627.032712344255, -187500.02235174447, 12275.600406599095, 10968.22452166373, -27788.672183593775, -2695.933305732406, -7078.953931206934, 1788.5418878247606, 3108.144176977179, -22252.770930858962, -28523.485782561995, 0.108, 0.882, 0.49, 192.0, 1.5, 48.0, 13.5, 72.0, 7.5, 40.0, 0.0, 0.0, 0.0, 1.695684565288457E9, 0.0, 2023-09-25 18:29:25.288
130.0, 11182.220123078838, 34242.76074680814, -19636.722759809825, -18064.47870307907, -10240.317611732198, 17611.073566803167, -187500.02235174447, 12229.779330465715, 10964.581187317513, -27788.381610915854, -2697.8332040111072, -7080.630312041082, 1775.980207440878, 3102.086854229791, -22266.271384509968, -28531.30889312135, 0.108, 0.882, 0.49, 192.0, 0.0, 0.0, 0.0, 0.0, 0.0, 0.0, 0.0, 0.0, 0.0, 1.69568456528846E9, 0.0, 2023-09-25 18:29:25.288
132.0, 11182.35423354557, 34246.60524685446, -19633.92879175291, -18059.494264065535, -10242.016344310803, 17614.403976727008, -187500.02235174447, 12247.034877185211, 10972.516056599148, -27773.048314219515, -2682.701073014864, -7064.5817595221715, 1790.0841581921768, 3114.5144241469416, -22253.061503536883, -28523.463430817537, 0.108, 0.882, 0.49, 192.0, 0.0, 0.0, 0.0, 0.0, 0.0, 0.0, 0.0, 0.0, 0.0, 1.695684565288463E9, 0.0, 2023-09-25 18:29:25.288
134.0, 11171.938320629397, 34235.89876126037, -19639.74024531129, -18065.909214724208, -10241.010515810314, 17615.72272964987, -187500.02235174447, 12237.535385791707, 10967.330451885517, -27782.12312246837, -2699.4648813563444, -7075.981149194378, 1778.7294720088807, 3105.037284497891, -22259.208233262092, -28530.79480299888, 0.108, 0.882, 0.49, 192.0, 0.0, 0.0, 0.0, 0.0, 0.0, 0.0, 0.0, 0.0, 0.0, 1.695684565288467E9, 0.0, 2023-09-25 18:29:25.288
136.0, 11175.291082297694, 34242.00078749666, -19642.042474990187, -18060.85772047731, -10242.195158266444, 17620.99774134132, -187500.02235174447, 12263.530464593228, 10958.523864570125, -27790.616785361384, -2710.998381495283, -7086.665283044015, 1782.2163441439086, 3100.3210664178214, -22264.595003675822, -28539.914314736645, 0.108, 0.882, 0.49, 192.0, 0.0, 0.0, 0.0, 0.0, 0.0, 0.0, 0.0, 0.0, 0.0, 1.695684565348747E9, 0.0, 2023-09-25 18:29:25.348
138.0, 11179.582617233113, 34243.096022974976, -19640.8354807896, -18062.802322244923, -10238.484768686863, 17619.254305273807, -187500.02235174447, 12238.56356603665, 10967.665728052347, -27782.950137013217, -2707.5562128491656, -7084.206591153931, 1782.3281028661852, 3111.3404764342877, -22259.83408210684, -28533.8346402448, 0.108, 0.886, 0.49, 192.0, 1.5, 48.0, 13.5, 88.0, 7.5, 40.0, 0.0, 0.0, 0.0, 1.695684565348757E9, 0.0, 2023-09-25 18:29:25.348
140.0, 11178.755602688267, 34241.5314008631, -19651.899594294977, -18063.38346760076, -10252.298146760244, 17612.325264492665, -187500.02235174447, 12246.90076671848, 10969.543274586591, -27790.281509194556, -2703.421140124934, -7086.7099865329255, 1782.752786010836, 3101.952743763059, -22266.606660676796, -28541.45658510406, 0.108, 0.886, 0.49, 192.0, 0.0, 0.0, 0.0, 0.0, 0.0, 0.0, 0.0, 0.0, 0.0, 1.695684565348761E9, 0.0, 2023-09-25 18:29:25.348
142.0, 11187.226913836826, 34252.528459135116, -19649.642068104993, -18058.86841522079, -10250.688821159461, 17616.795613383725, -187500.02235174447, 12225.331333319109, 10964.469428595237, -27778.21156718869, -2702.571773835632, -7079.311559118219, 1772.269817861297, 3109.8652613002378, -22273.714515413587, -28545.278733405918, 0.108, 0.886, 0.49, 192.0, 0.0, 0.0, 0.0, 0.0, 0.0, 0.0, 0.0, 0.0, 0.0, 1.695684565348764E9, 0.0, 2023-09-25 18:29:25.348
144.0, 11188.433908037414, 34251.746148079175, -19648.79270181569, -18059.60602278781, -10245.547919934741, 17610.894752847526, -187500.02235174447, 12237.37892358052, 10968.515094341648, -27781.11729396788, -2696.8944307439842, -7080.272684129797, 1776.6507597745372, 3105.32785717581, -22271.74756190152, -28551.626628831225, 0.108, 0.886, 0.49, 192.0, 0.0, 0.0, 0.0, 0.0, 0.0, 0.0, 0.0, 0.0, 0.0, 1.695684565348767E9, 0.0, 2023-09-25 18:29:25.348
146.0, 11191.429041794425, 34259.301037705074, -19655.90055655248, -18068.27849963647, -10260.568292208707, 17600.970578309367, -187500.02235174447, 12207.964027877335, 10971.152600187374, -27772.24365141912, -2699.4648813563444, -7081.949064963945, 1773.9909021843557, 3107.8089008103493, -22276.754352659507, -28554.55470735487, 0.108, 0.886, 0.49, 192.0, 0.0, 0.0, 0.0, 0.0, 0.0, 0.0, 0.0, 0.0, 0.0, 1.695684565348771E9, 0.0, 2023-09-25 18:29:25.348
148.0, 11182.577750990124, 34247.36520616594, -19639.919059266933, -18056.655592519714, -10251.158207793023, 17612.034691814744, -187500.02235174447, 12239.815263726148, 10968.537446086102, -27779.709134067194, -2706.8856605155065, -7088.811050511725, 1770.0793469046769, 3098.9352582615925, -22283.303413784914, -28561.304934180374, 0.096, 0.89, 0.488, 192.0, 1.5, 0.0, 13.5, 104.0, 7.5, 32.0, 0.0, 0.0, 0.0, 1.695684565348774E9, 0.0, 2023-09-25 18:29:25.348
150.0, 11190.378509805025, 34261.804433084064, -19631.738320796292, -18053.48164480706, -10232.315687217199, 17622.137680308544, -187500.02235174447, 12248.912423719457, 10969.40916411986, -27775.015267731582, -2706.5727360931323, -7082.6643207865145, 1778.7294720088807, 3110.4240549116203, -22273.31218401339, -28548.45268111857, 0.096, 0.89, 0.488, 192.0, 0.0, 0.0, 0.0, 0.0, 0.0, 0.0, 0.0, 0.0, 0.0, 1.695684565409029E9, 0.0, 2023-09-25 18:29:25.409
152.0, 11183.985910890808, 34249.46627014474, -19642.064826734644, -18063.80815074541, -10242.686896644462, 17614.02399707127, -187500.02235174447, 12263.843389015603, 10971.823152521034, -27774.009439231093, -2705.097520959082, -7083.223114397898, 1777.20955338592, 3112.0333805124023, -22270.048829322914, -28545.390492128194, 0.096, 0.89, 0.488, 192.0, 0.0, 0.0, 0.0, 0.0, 0.0, 0.0, 0.0, 0.0, 0.0, 1.69568456540904E9, 0.0, 2023-09-25 18:29:25.409
154.0, 11170.6866229399, 34237.26221767214, -19648.256259948765, -18076.705107296122, -10245.257347256822, 17610.58182842515, -187500.02235174447, 12257.674307545938, 10963.083620439009, -27790.192102216733, -2706.997419237783, -7093.057881958232, 1776.4495940744393, 3101.9080402741483, -22273.379239246755, -28544.87640200572, 0.096, 0.89, 0.488, 192.0, 0.0, 0.0, 0.0, 0.0, 0.0, 0.0, 0.0, 0.0, 0.0, 1.695684565409044E9, 0.0, 2023-09-25 18:29:25.409
156.0, 11186.332844058616, 34250.762671323144, -19648.591536115593, -18078.53795034146, -10248.923033347492, 17613.264037759785, -187500.02235174447, 12251.125246420534, 10964.782353017612, -27789.812122560994, -2700.135433690004, -7092.208515668931, 1776.337835352163, 3099.9410867620813, -22274.630936936253, -28546.59748632878, 0.096, 0.89, 0.488, 192.0, 0.0, 0.0, 0.0, 0.0, 0.0, 0.0, 0.0, 0.0, 0.0, 1.695684565409047E9, 0.0, 2023-09-25 18:29:25.409
158.0, 11188.724480715333, 34253.44488065778, -19650.98317277231, -18082.985947488065, -10249.83945487016, 17605.977369067357, -187500.02235174447, 12248.085409174611, 10975.086507211508, -27775.998744487613, -2683.975122448817, -7073.500105559839, 1783.9597802114226, 3110.468758400531, -22266.807826376895, -28538.41674785814, 0.092, 0.872, 0.48, 192.0, 1.0, 112.0, 13.5, 32.0, 7.5, 0.0, 0.0, 0.0, 0.0, 1.69568456540905E9, 0.0, 2023-09-25 18:29:25.409
160.0, 11197.776937219733, 34261.84913657298, -19640.723722067323, -18071.363040371303, -10241.211681510411, 17611.051215058713, -187500.02235174447, 12242.676287016428, 10976.986405490208, -27780.31263116749, -2687.9984364507723, -7073.433050326473, 1779.7353005093696, 3102.310371674344, -22269.84766362282, -28542.864745004747, 0.092, 0.872, 0.48, 192.0, 0.0, 0.0, 0.0, 0.0, 0.0, 0.0, 0.0, 0.0, 0.0, 1.695684565409053E9, 0.0, 2023-09-25 18:29:25.409
162.0, 11183.561227746157, 34247.476964888214, -19647.675114592927, -18078.09091545235, -10246.821969368693, 17601.998758554313, -187500.02235174447, 12230.941621177391, 10978.12634445743, -27784.537110869544, -2689.4960033292778, -7072.226056125886, 1787.4690040909059, 3099.5164036174306, -22269.333573500346, -28549.79378578589, 0.092, 0.872, 0.48, 192.0, 0.0, 0.0, 0.0, 0.0, 0.0, 0.0, 0.0, 0.0, 0.0, 1.695684565409057E9, 0.0, 2023-09-25 18:29:25.409
164.0, 11180.83431492261, 34245.62177009842, -19642.154233712463, -18067.80911300291, -10249.75004789234, 17608.033729557246, -187500.02235174447, 12226.158347863955, 10977.701661312778, -27783.77715155806, -2702.795291280185, -7079.6691870295035, 1783.199820899942, 3107.13834847669, -22275.323841014368, -28553.191250943095, 0.092, 0.872, 0.48, 192.0, 0.0, 0.0, 0.0, 0.0, 0.0, 0.0, 0.0, 0.0, 0.0, 1.69568456540906E9, 0.0, 2023-09-25 18:29:25.409
166.0, 11180.700204455878, 34247.94635152177, -19641.12605346752, -18062.08706642235, -10249.45947521442, 17609.933627835944, -187500.02235174447, 12236.730722991315, 10972.001966476675, -27787.68870683774, -2710.7301605618195, -7085.100660932143, 1785.5691058122047, 3102.399778652165, -22276.17320730367, -28563.003666758977, 0.092, 0.872, 0.48, 192.0, 0.0, 0.0, 0.0, 0.0, 0.0, 0.0, 0.0, 0.0, 0.0, 1.695684565469271E9, 0.0, 2023-09-25 18:29:25.469
168.0, 11197.151088374983, 34261.938543550794, -19624.161079425943, -18044.160967369196, -10235.154358763022, 17624.52931696526, -187500.02235174447, 12237.535385791707, 10979.154524702373, -27784.82768354746, -2710.998381495283, -7091.4709081019055, 1780.8305359876797, 3105.372560664721, -22280.822370150374, -28563.875384792733, 0.088, 0.882, 0.47400000000000003, 192.0, 1.0, 96.0, 13.5, 72.0, 7.0, 104.0, 0.0, 0.0, 0.0, 1.695684565469282E9, 0.0, 2023-09-25 18:29:25.469
170.0, 11186.064623125152, 34248.05811024405, -19641.6848470789, -18057.460255320104, -10250.800579881738, 17600.702357375903, -187500.02235174447, 12223.163214106944, 10989.726899829735, -27777.02692473256, -2695.285105143202, -7083.647797542549, 1795.426225116995, 3109.0158950109358, -22275.54735845892, -28563.450701648082, 0.088, 0.882, 0.47400000000000003, 192.0, 0.0, 0.0, 0.0, 0.0, 0.0, 0.0, 0.0, 0.0, 0.0, 1.695684565469285E9, 0.0, 2023-09-25 18:29:25.469
172.0, 11173.055907852162, 34232.12131644742, -19651.810187317158, -18065.81980774639, -10254.287452016766, 17593.23687472783, -187500.02235174447, 12184.919379343914, 10978.014585735153, -27795.1094859969, -2716.742779820297, -7110.715760077926, 1775.6449312740483, 3089.8604500127376, -22305.69986172913, -28596.75480088649, 0.088, 0.882, 0.47400000000000003, 192.0, 0.0, 0.0, 0.0, 0.0, 0.0, 0.0, 0.0, 0.0, 0.0, 1.695684565469289E9, 0.0, 2023-09-25 18:29:25.469
174.0, 11181.571922489635, 34240.36911015143, -19642.087178479098, -18052.498168051025, -10247.35841123562, 17631.43600600195, -187500.02235174447, 12289.48083990584, 10967.129286185418, -27807.84998033643, -2719.5590996216656, -7119.0306090153, 1778.7741754977912, 3089.4134151236317, -22291.819428422383, -28571.877309307733, 0.088, 0.882, 0.47400000000000003, 192.0, 0.0, 0.0, 0.0, 0.0, 0.0, 0.0, 0.0, 0.0, 0.0, 1.695684565469292E9, 0.0, 2023-09-25 18:29:25.469
176.0, 11198.469841297847, 34261.31269470605, -19626.820937016124, -18045.502072036514, -10233.79090235125, 17632.48653799135, -187500.02235174447, 12264.424534371441, 10988.609312606968, -27783.59833760242, -2693.29579988668, -7098.489355860872, 1784.8314982451795, 3107.8089008103493, -22274.92150961417, -28548.162108440654, 0.088, 0.882, 0.47400000000000003, 192.0, 0.0, 0.0, 0.0, 0.0, 0.0, 0.0, 0.0, 0.0, 0.0, 1.695684565469296E9, 0.0, 2023-09-25 18:29:25.469
178.0, 11189.26092258226, 34251.65674110135, -19635.40400688696, -18060.768313499488, -10246.93372809097, 17617.801441884214, -187500.02235174447, 12252.46635108785, 10986.843524795, -27781.720791068172, -2680.1529741469594, -7089.794527267758, 1793.6380855605705, 3107.920659532626, -22268.506558955498, -28544.764643283444, 0.09, 0.886, 0.47400000000000003, 192.0, 1.0, 104.0, 13.5, 88.0, 7.0, 104.0, 0.0, 0.0, 0.0, 1.695684565469299E9, 0.0, 2023-09-25 18:29:25.469
180.0, 11194.714748229355, 34258.809299327055, -19625.92686723791, -18060.790665243945, -10238.954155320425, 17614.471031960373, -187500.02235174447, 12233.84734795658, 10994.197248720795, -27776.691648565728, -2678.610703779543, -7086.575876066194, 1792.9675332269114, 3112.592174123785, -22268.081875810847, -28541.680102548613, 0.09, 0.886, 0.47400000000000003, 192.0, 0.0, 0.0, 0.0, 0.0, 0.0, 0.0, 0.0, 0.0, 0.0, 1.695684565529564E9, 0.0, 2023-09-25 18:29:25.529
182.0, 11182.35423354557, 34246.02410149862, -19642.914193023946, -18077.10743869632, -10253.84041712766, 17597.662520129983, -187500.02235174447, 12229.265240343242, 10983.691928826802, -27788.649831849318, -2685.0256544382164, -7093.59432382516, 1791.4029111150398, 3095.13546170419, -22276.55318695941, -28554.666466077146, 0.09, 0.886, 0.47400000000000003, 192.0, 0.0, 0.0, 0.0, 0.0, 0.0, 0.0, 0.0, 0.0, 0.0, 1.695684565529576E9, 0.0, 2023-09-25 18:29:25.529
184.0, 11181.817791678643, 34244.92886602031, -19638.82382378862, -18071.7653717715, -10250.97939383738, 17602.66931088797, -187500.02235174447, 12221.933868161901, 10979.333338658016, -27792.87431155137, -2696.603858066065, -7102.7361873073805, 1779.623541787093, 3090.7768715354055, -22281.627032950764, -28558.063931234352, 0.09, 0.886, 0.47400000000000003, 192.0, 0.0, 0.0, 0.0, 0.0, 0.0, 0.0, 0.0, 0.0, 0.0, 1.69568456552958E9, 0.0, 2023-09-25 18:29:25.529
186.0, 11198.469841297847, 34259.97159003873, -19623.490527092283, -18056.834406475355, -10239.512948931808, 17611.431194714452, -187500.02235174447, 12227.767673464738, 10988.385795162416, -27780.44674163422, -2689.540706818188, -7093.9743034809, 1788.139556424565, 3100.432825140098, -22274.11684681378, -28550.799614286378, 0.09, 0.886, 0.47400000000000003, 192.0, 0.0, 0.0, 0.0, 0.0, 0.0, 0.0, 0.0, 0.0, 0.0, 1.695684565529583E9, 0.0, 2023-09-25 18:29:25.529
188.0, 11188.746832459788, 34251.79085156809, -19631.984189985298, -18063.38346760076, -10240.384666965565, 17597.371947452062, -187500.02235174447, 12206.578219721107, 10991.135059730419, -27784.045372491524, -2696.4697475993335, -7100.098681461654, 1790.0618064477214, 3095.6495518266624, -22273.893329369228, -28562.623687103238, 0.096, 0.89, 0.47600000000000003, 192.0, 1.5, 0.0, 13.5, 104.0, 7.0, 112.0, 0.0, 0.0, 0.0, 1.695684565529587E9, 0.0, 2023-09-25 18:29:25.529
190.0, 11187.919817914943, 34253.95897078025, -19633.92879175291, -18055.113322152298, -10245.21264376791, 17608.547819679716, -187500.02235174447, 12229.555813021161, 10991.805612064078, -27783.3077649245, -2695.0168842097387, -7098.623466327605, 1790.7100070369254, 3097.7059123165504, -22270.65232642321, -28556.991047500498, 0.096, 0.89, 0.47600000000000003, 192.0, 0.0, 0.0, 0.0, 0.0, 0.0, 0.0, 0.0, 0.0, 0.0, 1.69568456552959E9, 0.0, 2023-09-25 18:29:25.529
192.0, 11184.365890546547, 34249.19804921127, -19643.584745357603, -18065.305717623916, -10258.444876485453, 17597.126078263056, -187500.02235174447, 12210.713292445338, 10982.775507304133, -27790.236805705645, -2708.3385239051013, -7110.112262977632, 1776.8295737301796, 3088.496993600964, -22284.17513181867, -28571.966716285555, 0.096, 0.89, 0.47600000000000003, 192.0, 0.0, 0.0, 0.0, 0.0, 0.0, 0.0, 0.0, 0.0, 0.0, 1.695684565529593E9, 0.0, 2023-09-25 18:29:25.529
194.0, 11186.39989929198, 34254.964799280744, -19637.393312143482, -18050.19593837213, -10249.75004789234, 17609.933627835944, -187500.02235174447, 12228.214708353844, 10989.056347496075, -27782.72661956866, -2700.20248892337, -7104.770196052814, 1783.2221726443975, 3092.1850314360895, -22279.54832071642, -28569.060989506364, 0.096, 0.89, 0.47600000000000003, 192.0, 0.0, 0.0, 0.0, 0.0, 0.0, 0.0, 0.0, 0.0, 0.0, 1.695684565529596E9, 0.0, 2023-09-25 18:29:25.529
196.0, 11199.140393631506, 34266.90063081987, -19628.810242272644, -18051.00060117252, -10235.087303529657, 17623.747005909325, -187500.02235174447, 12237.714199747348, 10991.179763219328, -27773.897680508817, -2691.6641225414423, -7096.432995370984, 1790.7100070369254, 3103.2938484303772, -22269.22181477807, -28549.860841019257, 0.096, 0.89, 0.47600000000000003, 192.0, 0.0, 0.0, 0.0, 0.0, 0.0, 0.0, 0.0, 0.0, 0.0, 1.695684565588458E9, 0.0, 2023-09-25 18:29:25.588
198.0, 11184.745870202289, 34246.80641255456, -19649.17268147143, -18081.264863165004, -10252.70047816044, 17584.85497055709, -187500.02235174447, 12204.432452253397, 10993.50434464268, -27780.983183501146, -2683.6621980264426, -7099.964570994923, 1792.3863878710733, 3089.726339546006, -22272.3063555129, -28562.064893491854, 0.088, 0.89, 0.47600000000000003, 192.0, 1.0, 96.0, 13.5, 104.0, 7.0, 112.0, 0.0, 0.0, 0.0, 1.695684565588469E9, 0.0, 2023-09-25 18:29:25.588
200.0, 11192.25605633927, 34256.216496970235, -19634.666399319936, -18065.976269957577, -10236.629573897073, 17620.930686107957, -187500.02235174447, 12255.036801700211, 10982.797859048589, -27796.897625553327, -2688.6913405288865, -7111.945106022967, 1785.5020505788389, 3080.18214466359, -22276.687297426142, -28559.874422535235, 0.088, 0.89, 0.47600000000000003, 192.0, 0.0, 0.0, 0.0, 0.0, 0.0, 0.0, 0.0, 0.0, 0.0, 1.695684565588473E9, 0.0, 2023-09-25 18:29:25.588
202.0, 11186.377547547525, 34247.58872361049, -19642.020123245733, -18078.13561894126, -10246.062010057212, 17598.109555019088, -187500.02235174447, 12237.647144513983, 10992.230295208728, -27783.97831725816, -2676.9343229453953, -7100.344550650662, 1795.2250594168972, 3091.626237824707, -22260.728151885054, -28541.65775080416, 0.088, 0.89, 0.47600000000000003, 192.0, 0.0, 0.0, 0.0, 0.0, 0.0, 0.0, 0.0, 0.0, 0.0, 1.695684565588476E9, 0.0, 2023-09-25 18:29:25.588
204.0, 11178.621492221535, 34242.62663634141, -19643.22711744632, -18076.414534618205, -10248.185425780466, 17605.507982433795, -187500.02235174447, 12234.204975867866, 10983.423707893338, -27790.59443361693, -2685.67385502742, -7101.6186000846155, 1787.111376179621, 3086.105356944246, -22270.36175374529, -28553.459471876562, 0.088, 0.89, 0.47600000000000003, 192.0, 0.0, 0.0, 0.0, 0.0, 0.0, 0.0, 0.0, 0.0, 0.0, 1.695684565588479E9, 0.0, 2023-09-25 18:29:25.588
206.0, 11170.083125839607, 34236.54696184957, -19645.59640235858, -18077.800342774433, -10251.940518848958, 17600.72470912036, -187500.02235174447, 12229.645219998984, 10980.27211192514, -27789.655660349807, -2692.804061508663, -7101.819765784713, 1782.462213332917, 3092.1850314360895, -22268.059524066393, -28542.28359964891, 0.088, 0.89, 0.47600000000000003, 192.0, 0.0, 0.0, 0.0, 0.0, 0.0, 0.0, 0.0, 0.0, 0.0, 1.695684565588482E9, 0.0, 2023-09-25 18:29:25.588
208.0, 11182.756564945767, 34246.33702592099, -19637.527422610216, -18069.753714770522, -10246.26317575731, 17599.29419747522, -187500.02235174447, 12213.730777946805, 10976.919350256843, -27795.757686586105, -2699.5989918230766, -7104.814899541724, 1781.8363644881683, 3084.0266447099025, -22275.16737880318, -28554.35354165477, 0.084, 0.896, 0.47400000000000003, 192.0, 1.0, 80.0, 14.0, 0.0, 7.0, 104.0, 0.0, 0.0, 0.0, 1.695684565588485E9, 0.0, 2023-09-25 18:29:25.588
210.0, 11187.137506859006, 34247.6334270994, -19625.50218409326, -18053.213423873596, -10230.348733705132, 17612.660540659494, -187500.02235174447, 12227.857080442558, 10996.946513288798, -27781.45257013471, -2689.138375417993, -7094.667207559015, 1791.492318092861, 3100.052845484358, -22259.096474539816, -28540.45075660357, 0.084, 0.896, 0.47400000000000003, 192.0, 0.0, 0.0, 0.0, 0.0, 0.0, 0.0, 0.0, 0.0, 0.0, 1.695684565648674E9, 0.0, 2023-09-25 18:29:25.648
212.0, 11177.25803580976, 34237.19516243877, -19640.477852878317, -18065.484531579557, -10254.55567295023, 17601.3058544762, -187500.02235174447, 12232.506243289263, 10982.261417181662, -27794.349526685422, -2703.711712802853, -7105.485451875384, 1785.1220709230986, 3090.6427610686733, -22268.59596593332, -28552.967733498543, 0.084, 0.896, 0.47400000000000003, 192.0, 0.0, 0.0, 0.0, 0.0, 0.0, 0.0, 0.0, 0.0, 0.0, 1.695684565648686E9, 0.0, 2023-09-25 18:29:25.648
214.0, 11179.672024210933, 34238.893895017376, -19637.482719121304, -18066.04332519094, -10256.343812506653, 17591.96282529388, -187500.02235174447, 12208.321655788619, 10984.02720499363, -27794.50598889661, -2711.4454163843893, -7114.426149657506, 1770.68284400497, 3083.8925342431708, -22280.062410838895, -28560.343809168793, 0.084, 0.896, 0.47400000000000003, 192.0, 0.0, 0.0, 0.0, 0.0, 0.0, 0.0, 0.0, 0.0, 0.0, 1.695684565648689E9, 0.0, 2023-09-25 18:29:25.648
216.0, 11182.130716101017, 34240.01148224014, -19628.36320738354, -18063.651688534224, -10238.976507064881, 17597.7519271078, -187500.02235174447, 12217.79879543767, 10990.710376585768, -27790.996765017127, -2700.3365993901016, -7111.431015900495, 1786.2396581458638, 3085.166583677123, -22272.775742146463, -28560.992009758, 0.084, 0.896, 0.47400000000000003, 192.0, 0.0, 0.0, 0.0, 0.0, 0.0, 0.0, 0.0, 0.0, 0.0, 1.695684565648692E9, 0.0, 2023-09-25 18:29:25.648
218.0, 11168.943186872386, 34227.80742976754, -19639.51672786674, -18072.681793294167, -10252.767533393804, 17591.29227296022, -187500.02235174447, 12219.56458324964, 10993.124364986941, -27791.063820250492, -2695.665084798942, -7109.329951921696, 1786.0831959346767, 3087.759386033939, -22262.091608296825, -28545.92693399512, 0.082, 0.89, 0.47800000000000004, 192.0, 1.0, 72.0, 13.5, 104.0, 7.0, 120.0, 0.0, 0.0, 0.0, 1.695684565648696E9, 0.0, 2023-09-25 18:29:25.648
220.0, 11187.36102430356, 34249.26510444464, -19628.899649250467, -18062.802322244923, -10239.31178323171, 17604.323339977665, -187500.02235174447, 12223.811414696147, 10987.625835850935, -27789.678012094264, -2690.8818114855067, -7104.725492563903, 1785.5020505788389, 3081.187973164079, -22270.74173340103, -28551.872498020235, 0.082, 0.89, 0.47800000000000004, 192.0, 0.0, 0.0, 0.0, 0.0, 0.0, 0.0, 0.0, 0.0, 0.0, 1.695684565648699E9, 0.0, 2023-09-25 18:29:25.648
222.0, 11182.086012612106, 34246.00174975416, -19640.8354807896, -18072.726496783078, -10256.07559157319, 17594.95795905089, -187500.02235174447, 12214.356626791552, 10991.425632408338, -27779.44091313373, -2683.639846281987, -7096.053015715243, 1786.2620098903192, 3091.4697756135197, -22264.68441065364, -28540.070776947832, 0.082, 0.89, 0.47800000000000004, 192.0, 0.0, 0.0, 0.0, 0.0, 0.0, 0.0, 0.0, 0.0, 0.0, 1.695684565648702E9, 0.0, 2023-09-25 18:29:25.648
224.0, 11175.559303231157, 34241.57610435201, -19639.40496914446, -18070.133694426262, -10238.417713453498, 17608.570171424173, -187500.02235174447, 12231.94744967788, 10982.909617770865, -27785.341773669934, -2689.183078906903, -7097.483527360383, 1780.9646464544114, 3085.144231932668, -22271.32287875687, -28547.379797384718, 0.082, 0.89, 0.47800000000000004, 192.0, 0.0, 0.0, 0.0, 0.0, 0.0, 0.0, 0.0, 0.0, 0.0, 1.695684565648705E9, 0.0, 2023-09-25 18:29:25.648
226.0, 11165.769239159732, 34231.31665364702, -19651.74313208379, -18082.7177265546, -10262.065859087214, 17581.39045016652, -187500.02235174447, 12188.272141012209, 10981.300292170083, -27785.364125414388, -2697.587334822099, -7103.004408240844, 1778.2824371197746, 3092.632066325196, -22270.294698511923, -28544.585829327803, 0.082, 0.89, 0.47800000000000004, 192.0, 0.0, 0.0, 0.0, 0.0, 0.0, 0.0, 0.0, 0.0, 0.0, 1.695684565709013E9, 0.0, 2023-09-25 18:29:25.709
228.0, 11177.392146276492, 34242.71604331923, -19638.779120299714, -18066.400953102228, -10245.033829812268, 17595.226179984355, -187500.02235174447, 12203.60543770855, 10982.50728637067, -27789.141570227337, -2699.196660422881, -7105.105472219643, 1779.5117830648164, 3080.6068278082407, -22280.375335261266, -28558.30980042336, 0.09, 0.89, 0.488, 192.0, 1.0, 104.0, 13.5, 104.0, 7.5, 32.0, 0.0, 0.0, 0.0, 1.695684565709023E9, 0.0, 2023-09-25 18:29:25.709
230.0, 11160.5836344461, 34228.16505767883, -19643.65180059097, -18071.51950258249, -10248.900681603036, 17605.038595800233, -187500.02235174447, 12215.98830413679, 10978.975710746732, -27789.946233027727, -2706.4386256264, -7111.0733879892105, 1780.0705766761992, 3083.0878714427795, -22271.591099690333, -28550.665503819648, 0.09, 0.89, 0.488, 192.0, 0.0, 0.0, 0.0, 0.0, 0.0, 0.0, 0.0, 0.0, 0.0, 1.695684565709026E9, 0.0, 2023-09-25 18:29:25.709
232.0, 11166.171570559927, 34238.737432806185, -19648.166852970942, -18071.228929904573, -10252.186388037968, 17599.741232364326, -187500.02235174447, 12234.048513656679, 10980.607388091968, -27784.69357308073, -2701.1412621904924, -7107.251239687353, 1782.0598819327215, 3092.8108802808383, -22262.2033670191, -28540.875439748223, 0.09, 0.89, 0.488, 192.0, 0.0, 0.0, 0.0, 0.0, 0.0, 0.0, 0.0, 0.0, 0.0, 1.69568456570903E9, 0.0, 2023-09-25 18:29:25.709
234.0, 11153.319317498126, 34219.33611861898, -19647.27278319273, -18079.074392208386, -10245.771437379293, 17597.304892218697, -187500.02235174447, 12212.680245957405, 10977.880475268421, -27788.292203938032, -2709.7913872946965, -7117.465986903428, 1774.527344051283, 3083.3784441206985, -22274.56388170289, -28551.604277086768, 0.09, 0.89, 0.488, 192.0, 0.0, 0.0, 0.0, 0.0, 0.0, 0.0, 0.0, 0.0, 0.0, 1.695684565709033E9, 0.0, 2023-09-25 18:29:25.709
236.0, 11134.63325913349, 34195.19623460725, -19657.30871645316, -18088.529180112982, -10263.943405621458, 17587.827752569647, -187500.02235174447, 12213.395501779974, 10968.157466430363, -27812.007404805114, -2712.6300588405206, -7124.842062573679, 1780.1823353984757, 3072.5378480598747, -22266.94193684363, -28547.84918401828, 0.09, 0.89, 0.488, 192.0, 0.0, 0.0, 0.0, 0.0, 0.0, 0.0, 0.0, 0.0, 0.0, 1.695684565709036E9, 0.0, 2023-09-25 18:29:25.709
238.0, 11141.271727236715, 34198.548996275546, -19649.865585549545, -18087.232778934573, -10255.740315406361, 17586.598406624606, -187500.02235174447, 12186.193428777866, 10961.764867516145, -27822.89270435485, -2724.096503746093, -7135.41443770104, 1762.4797537898726, 3061.920769443604, -22286.343251030834, -28563.629515603727, 0.096, 0.888, 0.482, 192.0, 1.5, 0.0, 13.5, 96.0, 7.5, 8.0, 0.0, 0.0, 0.0, 1.695684565709039E9, 0.0, 2023-09-25 18:29:25.709
240.0, 11139.796512102666, 34199.308955587025, -19645.261126191752, -18080.929586998176, -10251.538187448763, 17595.136773006532, -187500.02235174447, 12221.173908850422, 10972.136076943407, -27807.715869869695, -2709.769035550241, -7120.036437515788, 1780.2270388873862, 3079.5786475632963, -22264.997335076016, -28544.31760839434, 0.096, 0.888, 0.482, 192.0, 0.0, 0.0, 0.0, 0.0, 0.0, 0.0, 0.0, 0.0, 0.0, 1.695684565769409E9, 0.0, 2023-09-25 18:29:25.769
242.0, 11144.557433671645, 34200.024211409596, -19645.819919803136, -18086.96455800111, -10250.64411767055, 17586.307833946685, -187500.02235174447, 12186.79692587816, 10977.656957823869, -27810.73335537116, -2711.221898939836, -7120.930507294001, 1779.1988586424422, 3077.4552318400424, -22270.65232642321, -28549.27969566342, 0.096, 0.888, 0.482, 192.0, 0.0, 0.0, 0.0, 0.0, 0.0, 0.0, 0.0, 0.0, 0.0, 1.695684565769422E9, 0.0, 2023-09-25 18:29:25.769
244.0, 11141.58465165909, 34198.66075499782, -19647.541004126193, -18083.455334121627, -10252.02992582678, 17592.29810146071, -187500.02235174447, 12212.412025023941, 10978.863952024454, -27810.75570711562, -2711.6242303400318, -7124.327972451208, 1780.0929284206545, 3073.8789527271933, -22274.49682646952, -28553.437120132105, 0.096, 0.888, 0.482, 192.0, 0.0, 0.0, 0.0, 0.0, 0.0, 0.0, 0.0, 0.0, 0.0, 1.695684565769426E9, 0.0, 2023-09-25 18:29:25.769
246.0, 11139.282421980193, 34199.4207143093, -19647.384541915006, -18086.115191711808, -10249.21360602541, 17593.01335728328, -187500.02235174447, 12212.70259770186, 10973.655995566369, -27809.369898959387, -2717.6592013429645, -7122.606888128149, 1776.6731115189925, 3076.4494033395536, -22270.74173340103, -28548.005646229467, 0.096, 0.888, 0.482, 192.0, 0.0, 0.0, 0.0, 0.0, 0.0, 0.0, 0.0, 0.0, 0.0, 1.695684565769429E9, 0.0, 2023-09-25 18:29:25.769
248.0, 11133.24745097726, 34191.687010727765, -19653.128940240018, -18092.53014237048, -10261.574120709196, 17585.14554323501, -187500.02235174447, 12201.482021985295, 10972.180780432318, -27814.55550367302, -2723.5600618791655, -7130.586460898693, 1776.4272423299842, 3074.951836461048, -22277.961346860095, -28554.644114332692, 0.09, 0.884, 0.484, 192.0, 1.0, 104.0, 13.5, 80.0, 7.5, 16.0, 0.0, 0.0, 0.0, 1.695684565769432E9, 0.0, 2023-09-25 18:29:25.769
250.0, 11141.852872592553, 34200.73946723217, -19651.56431812815, -18092.641901092757, -10256.79084739576, 17592.00752878279, -187500.02235174447, 12209.528649989206, 10974.527713600126, -27807.000614047127, -2723.001268267783, -7123.83623407319, 1775.2873033627634, 3082.2832086423887, -22278.676602682663, -28554.085320721308, 0.09, 0.884, 0.484, 192.0, 0.0, 0.0, 0.0, 0.0, 0.0, 0.0, 0.0, 0.0, 0.0, 1.695684565769435E9, 0.0, 2023-09-25 18:29:25.769
252.0, 11125.469043906814, 34187.48488277017, -19662.762542100256, -18101.023805263496, -10268.36905102361, 17572.203883195387, -187500.02235174447, 12182.192466520366, 10973.83480952201, -27808.006442547616, -2727.0916375031043, -7128.843024831179, 1763.3067683347188, 3073.5213248159084, -22285.516236485986, -28561.99783825849, 0.09, 0.884, 0.484, 192.0, 0.0, 0.0, 0.0, 0.0, 0.0, 0.0, 0.0, 0.0, 0.0, 1.695684565769439E9, 0.0, 2023-09-25 18:29:25.769
254.0, 11140.53411966969, 34202.14762713285, -19646.199899458876, -18085.131714955773, -10249.973565336892, 17596.366118951573, -187500.02235174447, 12214.446033769374, 10967.330451885517, -27815.114297284403, -2732.5231114057437, -7132.531062666305, 1763.7985067127356, 3074.884781227682, -22287.349079531323, -28565.238841204507, 0.09, 0.884, 0.484, 192.0, 0.0, 0.0, 0.0, 0.0, 0.0, 0.0, 0.0, 0.0, 0.0, 1.695684565769442E9, 0.0, 2023-09-25 18:29:25.769
0.0, 11137.829558590598, 34194.39157180686, -19653.46421640685, -18092.35132841484, -10263.138742821067, 17573.790857051714, -187500.02235174447, 12207.56169647714, 10984.407184649372, -27806.17359950228, -2716.452207142378, -7121.802225327758, 1773.722681250892, 3079.3774818631987, -22267.031343821447, -28551.98425674251, 0.09, 0.884, 0.484, 192.0, 0.0, 0.0, 0.0, 0.0, 0.0, 0.0, 0.0, 0.0, 0.0, 1.69568456582965E9, 0.0, 2023-09-25 18:29:25.829
2.0, 11137.047247534663, 34191.262327583114, -19654.000658273777, -18092.507790626027, -10264.1222195771, 17578.216502453866, -187500.02235174447, 12178.683242640882, 10971.621986820935, -27824.591436933453, -2729.863253815562, -7138.566033669238, 1762.6362160010597, 3057.9421589305593, -22290.03128886596, -28577.442893677104, 0.082, 0.884, 0.482, 192.0, 1.0, 72.0, 13.5, 80.0, 7.5, 8.0, 0.0, 0.0, 0.0, 1.69568456582966E9, 0.0, 2023-09-25 18:29:25.829
4.0, 11142.255203992749, 34194.61508925141, -19648.904460537968, -18076.995679974043, -10256.209702039921, 17595.606159640094, -187500.02235174447, 12219.944562905379, 10981.41205089236, -27810.465134437698, -2722.8895095455064, -7131.033495787799, 1766.4136608140066, 3073.141345160168, -22272.75339040201, -28555.337018410806, 0.082, 0.884, 0.482, 192.0, 0.0, 0.0, 0.0, 0.0, 0.0, 0.0, 0.0, 0.0, 0.0, 1.695684565829664E9, 0.0, 2023-09-25 18:29:25.829
6.0, 11140.86939583652, 34196.53733927457, -19653.866547807043, -18077.129790440773, -10260.523588719796, 17601.417613198475, -187500.02235174447, 12223.811414696147, 10983.826039293534, -27806.17359950228, -2714.7311228193194, -7124.082103262199, 1772.1804108834758, 3079.4445370965645, -22267.567785688378, -28550.821966030835, 0.082, 0.884, 0.482, 192.0, 0.0, 0.0, 0.0, 0.0, 0.0, 0.0, 0.0, 0.0, 0.0, 1.695684565829667E9, 0.0, 2023-09-25 18:29:25.829
8.0, 11130.721703853811, 34184.2662315686, -19658.493358909294, -18088.77504930199, -10261.395306753553, 17583.96090077888, -187500.02235174447, 12196.27406552721, 10971.420821120837, -27819.718756642196, -2729.997364282294, -7138.409571458051, 1758.6352537435596, 3066.7040427570396, -22283.906910885205, -28563.070721992342, 0.082, 0.884, 0.482, 192.0, 0.0, 0.0, 0.0, 0.0, 0.0, 0.0, 0.0, 0.0, 0.0, 1.69568456582967E9, 0.0, 2023-09-25 18:29:25.829
10.0, 11141.852872592553, 34196.738504974666, -19652.65955360646, -18084.841142277855, -10257.21553054041, 17590.979348537847, -187500.02235174447, 12208.165193577433, 10974.88534151141, -27815.091945539945, -2721.190776966903, -7130.944088809978, 1769.6323120155707, 3067.620464279707, -22272.529872957453, -28556.968695756044, 0.082, 0.884, 0.482, 192.0, 0.0, 0.0, 0.0, 0.0, 0.0, 0.0, 0.0, 0.0, 0.0, 1.695684565829673E9, 0.0, 2023-09-25 18:29:25.829
12.0, 11148.357230229049, 34204.15928413383, -19642.578916857114, -18075.67692705118, -10238.238899497856, 17600.63530214254, -187500.02235174447, 12196.385824249486, 10984.541295116103, -27806.84415183594, -2716.2957449311907, -7123.970344539923, 1775.3543585961295, 3071.2637986259224, -22269.17711128916, -28549.905544508165, 0.084, 0.88, 0.488, 192.0, 1.0, 80.0, 13.5, 64.0, 7.5, 32.0, 0.0, 0.0, 0.0, 1.695684565829676E9, 0.0, 2023-09-25 18:29:25.829
14.0, 11132.174567243406, 34185.13794960236, -19657.73339959781, -18091.92664527019, -10263.541074221263, 17579.937586776923, -187500.02235174447, 12187.400422978453, 10983.84839103799, -27806.17359950228, -2712.942983262895, -7120.50582414935, 1783.1774691554867, 3074.1248219162017, -22262.918622841673, -28548.810309029857, 0.084, 0.88, 0.488, 192.0, 0.0, 0.0, 0.0, 0.0, 0.0, 0.0, 0.0, 0.0, 0.0, 1.695684565888937E9, 0.0, 2023-09-25 18:29:25.888
16.0, 11139.01420104673, 34193.028115395085, -19649.55266112717, -18085.087011466865, -10254.421562483498, 17592.991005538825, -187500.02235174447, 12185.925207844402, 10975.175914189329, -27821.50689619862, -2729.0809427596264, -7135.928527823512, 1761.1833526114647, 3059.4844292979756, -22276.620242192777, -28560.70143708008, 0.084, 0.88, 0.488, 192.0, 0.0, 0.0, 0.0, 0.0, 0.0, 0.0, 0.0, 0.0, 0.0, 1.695684565888948E9, 0.0, 2023-09-25 18:29:25.888
18.0, 11145.764427872233, 34207.02030742411, -19641.953068012368, -18069.440790348148, -10247.246652513344, 17613.085223804144, -187500.02235174447, 12237.0883509026, 10989.346920173994, -27804.228997734666, -2714.77582630823, -7119.254126459852, 1780.0482249317438, 3081.1209179307125, -22249.954611057594, -28533.275846633416, 0.084, 0.88, 0.488, 192.0, 0.0, 0.0, 0.0, 0.0, 0.0, 0.0, 0.0, 0.0, 0.0, 1.695684565888952E9, 0.0, 2023-09-25 18:29:25.888
20.0, 11124.954953784341, 34182.07576061199, -19660.996754288288, -18102.074337252896, -10261.708231175928, 17580.0493454992, -187500.02235174447, 12184.65115841045, 10979.31098691356, -27812.856771094415, -2730.6679166159533, -7132.575766155215, 1763.1279543790763, 3067.821629979805, -22267.388971732733, -28548.60914332976, 0.084, 0.88, 0.488, 192.0, 0.0, 0.0, 0.0, 0.0, 0.0, 0.0, 0.0, 0.0, 0.0, 1.695684565888955E9, 0.0, 2023-09-25 18:29:25.888
22.0, 11148.916023840431, 34207.13206614638, -19657.331068197618, -18103.996587276055, -10265.910359133526, 17573.880264029536, -187500.02235174447, 12172.2235884933, 10977.612254334957, -27822.333910743466, -2734.132437006526, -7143.46106570495, 1761.429221800473, 3054.209417606523, -22286.32089928638, -28570.715018596056, 0.09, 0.882, 0.49, 192.0, 1.0, 104.0, 13.5, 72.0, 7.5, 40.0, 0.0, 0.0, 0.0, 1.695684565888958E9, 0.0, 2023-09-25 18:29:25.888
24.0, 11138.880090579998, 34198.59369976446, -19643.964725013342, -18093.066584237407, -10242.753951877827, 17595.941435806923, -187500.02235174447, 12213.261391313243, 10992.252646953184, -27801.792657589038, -2713.9488117633837, -7123.1656817395315, 1769.498201548839, 3069.810935236327, -22267.4560269661, -28546.821003773333, 0.09, 0.882, 0.49, 192.0, 0.0, 0.0, 0.0, 0.0, 0.0, 0.0, 0.0, 0.0, 0.0, 1.695684565888962E9, 0.0, 2023-09-25 18:29:25.888
26.0, 11132.085160265584, 34191.061161883015, -19647.295134937183, -18096.01701450551, -10248.833626369671, 17592.09693576061, -187500.02235174447, 12206.555867976651, 10977.522847357137, -27814.2649309951, -2714.1499774634813, -7127.07723701921, 1774.5049923068277, 3068.849810224749, -22259.632916406743, -28537.477974591016, 0.09, 0.882, 0.49, 192.0, 0.0, 0.0, 0.0, 0.0, 0.0, 0.0, 0.0, 0.0, 0.0, 1.695684565888965E9, 0.0, 2023-09-25 18:29:25.888
28.0, 11136.287288223182, 34194.52568227359, -19649.37384717153, -18103.840125064868, -10253.92982410548, 17581.546912377707, -187500.02235174447, 12178.79500136316, 10983.55781836007, -27805.883026824362, -2717.2345181983137, -7123.679771862004, 1770.369919582596, 3075.980016705992, -22268.260689766492, -28541.478936848514, 0.09, 0.882, 0.49, 192.0, 0.0, 0.0, 0.0, 0.0, 0.0, 0.0, 0.0, 0.0, 0.0, 1.695684565888968E9, 0.0, 2023-09-25 18:29:25.888
30.0, 11136.890785323476, 34200.40419106534, -19651.877242550523, -18101.895523297255, -10259.562463708218, 17582.306871689187, -187500.02235174447, 12190.060280568634, 10987.60348410648, -27808.74405011464, -2714.5970123525876, -7124.55148989576, 1771.621617272093, 3065.944083445559, -22267.187806032634, -28549.614971830248, 0.09, 0.882, 0.49, 192.0, 0.0, 0.0, 0.0, 0.0, 0.0, 0.0, 0.0, 0.0, 0.0, 1.69568456594881E9, 0.0, 2023-09-25 18:29:25.948
32.0, 11123.166814227918, 34184.80267343553, -19653.955954784866, -18105.427098921195, -10253.907472361025, 17577.724764075847, -187500.02235174447, 12177.543303673661, 10983.55781836007, -27812.96852981669, -2726.264622958258, -7130.139426009587, 1765.0502044022328, 3065.854676467738, -22272.105189812803, -28553.16889919864, 0.088, 0.886, 0.49, 192.0, 1.0, 96.0, 13.5, 88.0, 7.5, 40.0, 0.0, 0.0, 0.0, 1.69568456594882E9, 0.0, 2023-09-25 18:29:25.948
34.0, 11140.53411966969, 34199.48776954267, -19634.68875106439, -18081.041345720452, -10241.993992566348, 17590.711127604383, -187500.02235174447, 12195.335292260086, 10988.005815506676, -27815.36016647341, -2723.4035996679786, -7131.011144043344, 1776.3601870966181, 3069.0062724359364, -22260.951669329606, -28549.972599741533, 0.088, 0.886, 0.49, 192.0, 0.0, 0.0, 0.0, 0.0, 0.0, 0.0, 0.0, 0.0, 0.0, 1.695684565948824E9, 0.0, 2023-09-25 18:29:25.948
36.0, 11134.096817266562, 34196.42558055229, -19648.256259948765, -18089.780877802477, -10267.139705078567, 17575.37783090804, -187500.02235174447, 12165.115733756511, 10993.258475453673, -27808.45347743672, -2723.738875834808, -7127.636030630592, 1768.8052974707243, 3068.469830569009, -22266.271384509968, -28553.682989321114, 0.088, 0.886, 0.49, 192.0, 0.0, 0.0, 0.0, 0.0, 0.0, 0.0, 0.0, 0.0, 0.0, 1.695684565948827E9, 0.0, 2023-09-25 18:29:25.948
38.0, 11127.793625330165, 34192.78224620608, -19641.6848470789, -18082.24833992104, -10248.900681603036, 17585.14554323501, -187500.02235174447, 12189.568542190616, 10984.02720499363, -27819.271721753088, -2736.009983540772, -7139.527158680816, 1759.171695610487, 3054.075307139791, -22273.5580532024, -28566.959925527564, 0.088, 0.886, 0.49, 192.0, 0.0, 0.0, 0.0, 0.0, 0.0, 0.0, 0.0, 0.0, 0.0, 1.69568456594883E9, 0.0, 2023-09-25 18:29:25.948
40.0, 11131.593421887568, 34198.43723755327, -19643.18241395741, -18084.751735300033, -10246.821969368693, 17592.342804949618, -187500.02235174447, 12187.51218170073, 10989.145754473897, -27807.246483236133, -2728.6562596149756, -7128.820673086724, 1767.7324137368696, 3070.101507914246, -22256.950707072105, -28544.11644269424, 0.088, 0.886, 0.49, 192.0, 0.0, 0.0, 0.0, 0.0, 0.0, 0.0, 0.0, 0.0, 0.0, 1.695684565948834E9, 0.0, 2023-09-25 18:29:25.948
42.0, 11136.175529500906, 34197.05142939704, -19639.94141101139, -18084.77408704449, -10244.430332711976, 17591.895770060513, -187500.02235174447, 12199.55977196214, 10988.497553884692, -27813.013233305603, -2730.2655852157577, -7134.185091755998, 1765.8995706915346, 3062.8371909662715, -22265.06439030938, -28556.298143422384, 0.076, 0.884, 0.49, 192.0, 1.0, 48.0, 13.5, 80.0, 7.5, 40.0, 0.0, 0.0, 0.0, 1.695684565948837E9, 0.0, 2023-09-25 18:29:25.948
44.0, 11145.742076127777, 34204.986298678676, -19632.051245218667, -18085.064659722408, -10238.864748342605, 17595.449697428907, -187500.02235174447, 12207.785213921692, 10999.449908667793, -27813.661433894806, -2712.6971140738865, -7126.607850385649, 1778.6177132866042, 3066.145249145657, -22252.055675036394, -28540.16018392565, 0.076, 0.884, 0.49, 192.0, 0.0, 0.0, 0.0, 0.0, 0.0, 0.0, 0.0, 0.0, 0.0, 1.695684566009062E9, 0.0, 2023-09-25 18:29:26.009
46.0, 11142.948108070865, 34206.237996368174, -19636.32042840963, -18084.081182966376, -10247.470169957896, 17591.76165959378, -187500.02235174447, 12199.805641151148, 11002.668559869357, -27802.597320389432, -2707.332695404613, -7118.851795059657, 1779.3106173647188, 3074.75067076095, -22255.27432623796, -28541.121308937232, 0.076, 0.884, 0.49, 192.0, 0.0, 0.0, 0.0, 0.0, 0.0, 0.0, 0.0, 0.0, 0.0, 1.695684566009074E9, 0.0, 2023-09-25 18:29:26.009
48.0, 11148.089009295585, 34211.31184235953, -19638.332085410606, -18085.735212056068, -10247.917204847003, 17592.61102588308, -187500.02235174447, 12206.377054021008, 11005.015493037165, -27802.194988989235, -2703.845823269585, -7114.493204890872, 1776.9189807080008, 3070.123859658702, -22254.6037739043, -28540.7860327704, 0.076, 0.884, 0.49, 192.0, 0.0, 0.0, 0.0, 0.0, 0.0, 0.0, 0.0, 0.0, 0.0, 1.695684566009078E9, 0.0, 2023-09-25 18:29:26.009
50.0, 11139.640049891479, 34203.220510866704, -19642.10953022355, -18087.5680551014, -10252.78988513826, 17582.061002500177, -187500.02235174447, 12179.286739741176, 11001.595676135503, -27807.425297191778, -2711.288954173202, -7122.204556727953, 1770.30286434923, 3066.279359612389, -22263.678582153152, -28547.200983429073, 0.076, 0.884, 0.49, 192.0, 0.0, 0.0, 0.0, 0.0, 0.0, 0.0, 0.0, 0.0, 0.0, 1.695684566009081E9, 0.0, 2023-09-25 18:29:26.009
52.0, 11141.741113870277, 34211.80358073754, -19633.727626052812, -18070.826598504376, -10238.060085542213, 17605.709148133894, -187500.02235174447, 12213.529612246706, 10997.035920266619, -27807.514704169596, -2715.7145995753526, -7119.365885182129, 1771.7333759943697, 3067.3969468351543, -22252.949744814607, -28539.243762402984, 0.078, 0.884, 0.492, 192.0, 1.0, 56.0, 13.5, 80.0, 7.5, 48.0, 0.0, 0.0, 0.0, 1.695684566009084E9, 0.0, 2023-09-25 18:29:26.009
54.0, 11144.736247627288, 34216.13981916187, -19628.698483550368, -18068.01027870301, -10247.31370774671, 17587.49247640282, -187500.02235174447, 12169.071992525101, 11004.970789548253, -27792.561387128997, -2710.841919284096, -7109.508765877339, 1774.5049923068277, 3080.8303452527934, -22248.412340690178, -28530.146602409674, 0.078, 0.884, 0.492, 192.0, 0.0, 0.0, 0.0, 0.0, 0.0, 0.0, 0.0, 0.0, 0.0, 1.695684566009087E9, 0.0, 2023-09-25 18:29:26.009
56.0, 11149.631279663, 34214.910473216834, -19624.07167244812, -18062.064714677897, -10241.189329765955, 17596.254360229297, -187500.02235174447, 12195.156478304443, 11003.115594758463, -27805.704212868717, -2715.446378641889, -7116.951896780956, 1775.7790417407803, 3061.8984176991485, -22261.890442596727, -28553.213602687552, 0.078, 0.884, 0.492, 192.0, 0.0, 0.0, 0.0, 0.0, 0.0, 0.0, 0.0, 0.0, 0.0, 1.695684566009091E9, 0.0, 2023-09-25 18:29:26.009
58.0, 11144.177454015906, 34211.60241503744, -19619.10958517904, -18058.220214631583, -10231.756893605816, 17610.179497024954, -187500.02235174447, 12226.694789730882, 11008.435309938826, -27791.60026211742, -2706.4386256264, -7105.753672808847, 1776.6731115189925, 3082.0373394533804, -22231.000331759493, -28517.11553539223, 0.078, 0.884, 0.492, 192.0, 0.0, 0.0, 0.0, 0.0, 0.0, 0.0, 0.0, 0.0, 0.0, 1.695684566009094E9, 0.0, 2023-09-25 18:29:26.009
60.0, 11147.373753473015, 34215.4245633393, -19618.416681100927, -18063.316412367396, -10234.12617851808, 17601.886999832037, -187500.02235174447, 12204.164231319934, 11002.13211800243, -27797.36701218689, -2706.349218648579, -7111.699236833959, 1779.109451664621, 3076.1811824060896, -22244.903116810696, -28527.754965752956, 0.078, 0.884, 0.492, 192.0, 0.0, 0.0, 0.0, 0.0, 0.0, 0.0, 0.0, 0.0, 0.0, 1.695684566069314E9, 0.0, 2023-09-25 18:29:26.069
62.0, 11144.602137160557, 34210.998917937155, -19618.193163656375, -18064.72457226808, -10235.869614585592, 17598.288368974732, -187500.02235174447, 12191.31197825813, 11007.071853527052, -27791.488503395143, -2701.9235732464285, -7108.5476408657605, 1780.9869981988668, 3075.5553335613413, -22238.21994521856, -28520.580055782804, 0.082, 0.88, 0.494, 192.0, 1.0, 72.0, 13.5, 64.0, 7.5, 56.0, 0.0, 0.0, 0.0, 1.695684566069343E9, 0.0, 2023-09-25 18:29:26.069
64.0, 11141.964631314831, 34207.33323184648, -19629.234925417295, -18064.94808971263, -10243.513911189308, 17605.82090685617, -187500.02235174447, 12209.841574411581, 11010.715187873267, -27788.962756271692, -2698.3025906446687, -7102.043283229266, 1787.4243006019951, 3082.238505153478, -22231.894401537706, -28512.376965567706, 0.082, 0.88, 0.494, 192.0, 0.0, 0.0, 0.0, 0.0, 0.0, 0.0, 0.0, 0.0, 0.0, 1.695684566069359E9, 0.0, 2023-09-25 18:29:26.069
66.0, 11144.87035809402, 34211.267138870615, -19632.140652196485, -18067.339726369348, -10239.468245442897, 17596.790802096224, -187500.02235174447, 12169.74254485876, 11002.51209765817, -27797.88110230936, -2715.3122681751574, -7115.431978157995, 1771.688672505459, 3078.8633917407265, -22247.808843589886, -28524.916294207134, 0.082, 0.88, 0.494, 192.0, 0.0, 0.0, 0.0, 0.0, 0.0, 0.0, 0.0, 0.0, 0.0, 1.695684566069374E9, 0.0, 2023-09-25 18:29:26.069
68.0, 11136.466102178825, 34201.76764747711, -19640.813129045146, -18073.173531672186, -10245.726733890384, 17598.86951433057, -187500.02235174447, 12185.03113806619, 11002.17682149134, -27794.93067204126, -2712.4065413959675, -7113.532079879294, 1776.4719458188947, 3080.293903385866, -22245.573669144353, -28533.275846633416, 0.082, 0.88, 0.494, 192.0, 0.0, 0.0, 0.0, 0.0, 0.0, 0.0, 0.0, 0.0, 0.0, 1.695684566069388E9, 0.0, 2023-09-25 18:29:26.069
70.0, 11149.407762218449, 34214.910473216834, -19622.507050336248, -18060.880072221767, -10220.916297544993, 17616.2591715168, -187500.02235174447, 12212.523783746217, 11007.071853527052, -27798.819875576482, -2717.100407731582, -7121.936335794489, 1771.6663207610038, 3080.1150894302236, -22243.07027376536, -28523.016395928433, 0.082, 0.88, 0.494, 192.0, 0.0, 0.0, 0.0, 0.0, 0.0, 0.0, 0.0, 0.0, 0.0, 1.695684566069402E9, 0.0, 2023-09-25 18:29:26.069
72.0, 11157.432038477902, 34223.44883959876, -19618.12610842301, -18052.18524362865, -10221.653905112018, 17619.54487795173, -187500.02235174447, 12225.554850763661, 11020.862879855977, -27783.799503302518, -2698.1684801779365, -7106.021893742311, 1791.8722977486013, 3092.1179762027236, -22221.076157221338, -28508.823038199313, 0.076, 0.878, 0.494, 192.0, 1.0, 48.0, 13.5, 56.0, 7.5, 56.0, 0.0, 0.0, 0.0, 1.695684566069416E9, 0.0, 2023-09-25 18:29:26.069
74.0, 11133.24745097726, 34200.00185966514, -19635.1357859535, -18069.373735114783, -10245.369105979098, 17597.215485240875, -187500.02235174447, 12185.053489810645, 11012.279809985139, -27783.77715155806, -2703.354084891568, -7106.647742587059, 1777.20955338592, 3092.296790158366, -22232.095567237804, -28514.388622568684, 0.076, 0.878, 0.494, 192.0, 0.0, 0.0, 0.0, 0.0, 0.0, 0.0, 0.0, 0.0, 0.0, 1.695684566129761E9, 0.0, 2023-09-25 18:29:26.129
76.0, 11131.794587587667, 34199.26425209812, -19637.21449818784, -18066.356249613316, -10243.893890845047, 17602.468145187875, -187500.02235174447, 12203.873658642015, 10998.757004589677, -27806.285358224555, -2721.481349644822, -7129.379466698107, 1769.654663760026, 3067.0840224127796, -22252.390951203222, -28536.69566353508, 0.076, 0.878, 0.494, 192.0, 0.0, 0.0, 0.0, 0.0, 0.0, 0.0, 0.0, 0.0, 0.0, 1.695684566129773E9, 0.0, 2023-09-25 18:29:26.129
78.0, 11143.529253426703, 34213.32349936051, -19622.574105569616, -18056.275612863974, -10225.699570858427, 17606.334996978643, -187500.02235174447, 12189.725004401804, 11007.36242620497, -27801.63619537785, -2720.117893233048, -7125.892594563079, 1777.6118847861153, 3074.7059672720397, -22241.125671997746, -28528.73844250899, 0.076, 0.878, 0.494, 192.0, 0.0, 0.0, 0.0, 0.0, 0.0, 0.0, 0.0, 0.0, 0.0, 1.695684566129776E9, 0.0, 2023-09-25 18:29:26.129
80.0, 11135.192052744873, 34204.91924344531, -19628.251448661264, -18055.627412274767, -10236.003725052326, 17609.508944691293, -187500.02235174447, 12221.777405950716, 11017.979504821242, -27781.944308512728, -2704.9410587478947, -7108.279419932297, 1791.1793936704867, 3092.5203076029193, -22221.947875255093, -28508.331299821297, 0.076, 0.878, 0.494, 192.0, 0.0, 0.0, 0.0, 0.0, 0.0, 0.0, 0.0, 0.0, 0.0, 1.69568456612978E9, 0.0, 2023-09-25 18:29:26.129
82.0, 11127.659514863433, 34192.93870841726, -19638.51089936625, -18072.882958994265, -10239.423541953987, 17595.270883473266, -187500.02235174447, 12178.973815318801, 10999.740481345712, -27809.83928559295, -2730.489102660311, -7136.822597601724, 1770.7498992383362, 3071.8002404928498, -22249.909907568683, -28538.55085832487, 0.082, 0.88, 0.496, 192.0, 1.0, 72.0, 13.5, 64.0, 7.5, 64.0, 0.0, 0.0, 0.0, 1.695684566129783E9, 0.0, 2023-09-25 18:29:26.129
84.0, 11153.6322419205, 34219.33611861898, -19613.141669409477, -18038.885955677742, -10225.990143536346, 17622.808232642205, -187500.02235174447, 12204.946542375868, 11012.70449312979, -27803.424334934276, -2718.352105421079, -7130.161777754042, 1776.5166493078054, 3070.9732259480033, -22248.233526734537, -28536.718015279534, 0.082, 0.88, 0.496, 192.0, 0.0, 0.0, 0.0, 0.0, 0.0, 0.0, 0.0, 0.0, 0.0, 1.695684566129786E9, 0.0, 2023-09-25 18:29:26.129
86.0, 11151.35236398606, 34219.20200815225, -19615.22038164382, -18035.264973075984, -10227.577117392673, 17625.24457278783, -187500.02235174447, 12214.446033769374, 11028.998914837708, -27775.954040998706, -2697.229706910814, -7101.663303573526, 1794.1745274274979, 3103.8526420417597, -22220.807936287874, -28504.710317219535, 0.082, 0.88, 0.496, 192.0, 0.0, 0.0, 0.0, 0.0, 0.0, 0.0, 0.0, 0.0, 0.0, 1.695684566129794E9, 0.0, 2023-09-25 18:29:26.129
88.0, 11168.809076405654, 34235.92111300482, -19599.238884358274, -18020.04343510192, -10220.379855678066, 17635.34756128163, -187500.02235174447, 12216.748263448271, 11027.747217148211, -27773.629459575353, -2698.7496255337746, -7103.473794874406, 1784.9432569674561, 3105.7301885760057, -22231.58147711533, -28512.44402080107, 0.082, 0.88, 0.496, 192.0, 0.0, 0.0, 0.0, 0.0, 0.0, 0.0, 0.0, 0.0, 0.0, 1.695684566129798E9, 0.0, 2023-09-25 18:29:26.129
90.0, 11141.361134214538, 34214.686955772275, -19622.77527126971, -18045.412665058695, -10242.12810303308, 17607.832563857148, -187500.02235174447, 12200.69971092936, 11030.51883346067, -27765.046389704516, -2691.6641225414423, -7093.750786036348, 1787.558411068727, 3105.529022875908, -22221.813764788363, -28509.694756233068, 0.082, 0.88, 0.496, 192.0, 0.0, 0.0, 0.0, 0.0, 0.0, 0.0, 0.0, 0.0, 0.0, 1.695684566189166E9, 0.0, 2023-09-25 18:29:26.189
92.0, 11139.036552791185, 34204.628670767386, -19623.088195692086, -18046.7090662371, -10236.003725052326, 17599.38360445304, -187500.02235174447, 12198.241019039277, 11014.716150130767, -27791.82377956197, -2710.7972157951854, -7117.9800770259, 1776.6507597745372, 3082.238505153478, -22240.522174897455, -28533.119384422233, 0.08, 0.876, 0.488, 192.0, 1.0, 64.0, 13.5, 48.0, 7.5, 32.0, 0.0, 0.0, 0.0, 1.69568456618918E9, 0.0, 2023-09-25 18:29:26.189
94.0, 11128.687695108378, 34189.38478104887, -19632.40887312995, -18059.114284409796, -10249.057143814223, 17590.889941560024, -187500.02235174447, 12179.26438799672, 11005.596638393003, -27808.87816058137, -2721.0119630112604, -7130.295888220774, 1768.9617596819116, 3070.4144323366204, -22251.608640147286, -28546.17280318413, 0.08, 0.876, 0.488, 192.0, 0.0, 0.0, 0.0, 0.0, 0.0, 0.0, 0.0, 0.0, 0.0, 1.695684566189183E9, 0.0, 2023-09-25 18:29:26.189
96.0, 11143.261032493238, 34207.31088010203, -19616.6285415445, -18041.702275479114, -10229.275849971276, 17607.139659779034, -187500.02235174447, 12198.062205083634, 11017.599525165502, -27803.536093656552, -2713.613535596554, -7129.066542275732, 1775.2202481293975, 3074.057766682836, -22242.667942365166, -28537.813250757845, 0.08, 0.876, 0.488, 192.0, 0.0, 0.0, 0.0, 0.0, 0.0, 0.0, 0.0, 0.0, 0.0, 1.695684566189187E9, 0.0, 2023-09-25 18:29:26.189
98.0, 11138.63422139099, 34203.33226958898, -19623.624637559013, -18047.71489473759, -10235.668448885495, 17593.706261361393, -187500.02235174447, 12200.073862084611, 11023.679199657345, -27791.332041183956, -2703.778768036219, -7113.353265923652, 1784.362111611618, 3084.048996454358, -22233.81665156086, -28529.610160542747, 0.08, 0.876, 0.488, 192.0, 0.0, 0.0, 0.0, 0.0, 0.0, 0.0, 0.0, 0.0, 0.0, 1.69568456618919E9, 0.0, 2023-09-25 18:29:26.189
100.0, 11136.82373009011, 34206.662679512825, -19640.679018578412, -18058.488435565047, -10255.449742728442, 17592.09693576061, -187500.02235174447, 12173.74350711626, 11008.927048316842, -27795.824741819473, -2725.1246839910373, -7129.804149842757, 1767.240675358853, 3073.118993415713, -22251.027494791448, -28550.754910797466, 0.08, 0.876, 0.488, 192.0, 0.0, 0.0, 0.0, 0.0, 0.0, 0.0, 0.0, 0.0, 0.0, 1.695684566189193E9, 0.0, 2023-09-25 18:29:26.189
102.0, 11129.559413142135, 34191.59760374994, -19626.463309104838, -18044.943278425133, -10239.378838465076, 17602.73636612134, -187500.02235174447, 12188.540361945674, 11010.603429150991, -27803.759611101104, -2721.5037013892775, -7127.993658541877, 1770.3252160936852, 3077.6787492845956, -22251.698047125108, -28545.36814038374, 0.07200000000000001, 0.872, 0.488, 192.0, 1.0, 32.0, 13.5, 32.0, 7.5, 32.0, 0.0, 0.0, 0.0, 1.695684566189196E9, 0.0, 2023-09-25 18:29:26.189
104.0, 11137.091951023574, 34206.28269985708, -19625.74805328227, -18045.90440343671, -10241.278736743778, 17598.40012769701, -187500.02235174447, 12167.105039013033, 11010.13404251743, -27799.892759310336, -2726.3987334249896, -7129.670039376026, 1762.4126985565065, 3073.0966416712577, -22252.055675036394, -28549.41380613015, 0.07200000000000001, 0.872, 0.488, 192.0, 0.0, 0.0, 0.0, 0.0, 0.0, 0.0, 0.0, 0.0, 0.0, 1.695684566248845E9, 0.0, 2023-09-25 18:29:26.248
106.0, 11138.701276624355, 34206.729734746186, -19618.908419478943, -18033.76740619748, -10234.394399451543, 17620.237782029842, -187500.02235174447, 12221.352722806065, 11030.80940613859, -27785.02884924756, -2704.0469889696824, -7110.894574033568, 1783.5127453223165, 3093.257915169944, -22226.26176193497, -28523.083451161798, 0.07200000000000001, 0.872, 0.488, 192.0, 0.0, 0.0, 0.0, 0.0, 0.0, 0.0, 0.0, 0.0, 0.0, 1.69568456624886E9, 0.0, 2023-09-25 18:29:26.248
108.0, 11131.504014909748, 34196.805560208035, -19628.385559127993, -18048.251336604517, -10242.150454777535, 17607.474935945862, -187500.02235174447, 12195.536457960185, 11019.857051355488, -27807.067669280492, -2717.0780559871264, -7124.015048028833, 1766.234846858364, 3080.94210397507, -22238.510517896477, -28527.866724475232, 0.07200000000000001, 0.872, 0.488, 192.0, 0.0, 0.0, 0.0, 0.0, 0.0, 0.0, 0.0, 0.0, 0.0, 1.695684566248864E9, 0.0, 2023-09-25 18:29:26.248
110.0, 11136.197881245362, 34200.6724119988, -19629.59255332858, -18048.877185449266, -10247.403114724531, 17604.882133589046, -187500.02235174447, 12187.489829956274, 11031.859938127987, -27795.69063135274, -2702.549422091177, -7110.872222289112, 1780.428204587484, 3085.2336389104894, -22236.208288217582, -28529.587808798293, 0.07200000000000001, 0.872, 0.488, 192.0, 0.0, 0.0, 0.0, 0.0, 0.0, 0.0, 0.0, 0.0, 0.0, 1.695684566248867E9, 0.0, 2023-09-25 18:29:26.248
112.0, 11131.258145720738, 34194.838606695965, -19632.431224874406, -18054.62158377428, -10243.625669911584, 17595.136773006532, -187500.02235174447, 12177.11862052901, 11019.767644377667, -27817.148306029834, -2722.8448060565956, -7129.535928909294, 1766.3689573250958, 3061.2502171099445, -22252.390951203222, -28552.163070698152, 0.07200000000000001, 0.864, 0.486, 192.0, 1.0, 32.0, 13.5, 0.0, 7.5, 24.0, 0.0, 0.0, 0.0, 1.69568456624887E9, 0.0, 2023-09-25 18:29:26.248
114.0, 11129.24648871976, 34197.61022300842, -19634.75580629776, -18049.659496505203, -10240.608184410117, 17605.083299289145, -187500.02235174447, 12189.836763124082, 11023.52273744616, -27807.380593702866, -2715.736951319808, -7119.298829948763, 1780.8305359876797, 3076.8293829952936, -22240.03043651944, -28541.45658510406, 0.07200000000000001, 0.864, 0.486, 192.0, 0.0, 0.0, 0.0, 0.0, 0.0, 0.0, 0.0, 0.0, 0.0, 1.695684566248874E9, 0.0, 2023-09-25 18:29:26.248
116.0, 11132.755712599244, 34200.068914898504, -19626.038625960187, -18050.911194194698, -10239.200024509433, 17585.90550254649, -187500.02235174447, 12159.192521475856, 11028.84245262652, -27800.45155292172, -2719.6932100883973, -7121.243431716375, 1780.4505563319394, 3077.1870109065785, -22244.5007854105, -28549.302047407873, 0.07200000000000001, 0.864, 0.486, 192.0, 0.0, 0.0, 0.0, 0.0, 0.0, 0.0, 0.0, 0.0, 0.0, 1.695684566248877E9, 0.0, 2023-09-25 18:29:26.248
118.0, 11124.82084331761, 34195.53151077408, -19634.55464059766, -18052.632278517758, -10256.097943317645, 17586.03961301322, -187500.02235174447, 12164.445181422852, 11019.879403099943, -27824.83730612246, -2731.2937654607017, -7139.281289491808, 1780.49525982085, 3046.69923146954, -22255.743712871517, -28571.385570929717, 0.07200000000000001, 0.864, 0.486, 192.0, 0.0, 0.0, 0.0, 0.0, 0.0, 0.0, 0.0, 0.0, 0.0, 1.695684566248881E9, 0.0, 2023-09-25 18:29:26.248
120.0, 11131.548718398657, 34207.087362657476, -19620.584800313092, -18035.82376668737, -10237.92597507548, 17612.280561003754, -187500.02235174447, 12187.713347400826, 11020.393493222415, -27801.725602355673, -2731.9196143054505, -7127.166643997031, 1772.0239486722887, 3078.4834120849864, -22253.128558770248, -28554.062968976854, 0.07200000000000001, 0.864, 0.486, 192.0, 0.0, 0.0, 0.0, 0.0, 0.0, 0.0, 0.0, 0.0, 0.0, 1.695684566309208E9, 0.0, 2023-09-25 18:29:26.309
122.0, 11139.952974313854, 34212.20591213774, -19617.544963067172, -18031.375769540762, -10237.07660878618, 17606.782031867748, -187500.02235174447, 12197.525763216707, 11035.078589329552, -27796.294128453035, -2719.4696926438446, -7118.807091570747, 1791.1346901815762, 3084.406624365643, -22240.83509931983, -28545.211678172553, 0.066, 0.878, 0.49, 192.0, 1.0, 8.0, 13.5, 56.0, 7.5, 40.0, 0.0, 0.0, 0.0, 1.695684566309221E9, 0.0, 2023-09-25 18:29:26.309
124.0, 11135.370866700516, 34205.58979577897, -19629.54784983967, -18044.742112725035, -10259.763629408317, 17590.845238071113, -187500.02235174447, 12166.233320979276, 11031.524661961159, -27808.185256503257, -2731.5843381386208, -7129.245356231375, 1782.3728063550957, 3067.0393189238694, -22255.16256751568, -28562.690742336603, 0.066, 0.878, 0.49, 192.0, 0.0, 0.0, 0.0, 0.0, 0.0, 0.0, 0.0, 0.0, 0.0, 1.695684566309228E9, 0.0, 2023-09-25 18:29:26.309
126.0, 11143.708067382344, 34215.02223193911, -19623.31171313664, -18030.86167941829, -10232.472149428386, 17611.989988325833, -187500.02235174447, 12190.261446268732, 11036.576156208057, -27807.067669280492, -2727.4269136699336, -7123.992696284377, 1788.3183703802074, 3073.722490516006, -22254.961401815584, -28571.60908837427, 0.066, 0.878, 0.49, 192.0, 0.0, 0.0, 0.0, 0.0, 0.0, 0.0, 0.0, 0.0, 0.0, 1.695684566309232E9, 0.0, 2023-09-25 18:29:26.309
128.0, 11123.792663072665, 34197.364353819416, -19643.584745357603, -18050.687676750145, -10257.573158451696, 17601.417613198475, -187500.02235174447, 12157.78436157517, 11030.787054394134, -27806.687689624752, -2733.0148497837604, -7120.1705479825205, 1784.5185738228054, 3086.2171156665227, -22248.300581967902, -28565.93174528262, 0.066, 0.878, 0.49, 192.0, 0.0, 0.0, 0.0, 0.0, 0.0, 0.0, 0.0, 0.0, 0.0, 1.695684566309235E9, 0.0, 2023-09-25 18:29:26.309
130.0, 11129.96174454233, 34203.086400399974, -19639.963762755844, -18042.864566190787, -10251.739353148861, 17609.66540690248, -187500.02235174447, 12170.144876258955, 11025.13206304694, -27822.84800086594, -2747.744649379808, -7128.753617853358, 1782.7304342663806, 3072.068461426313, -22258.716494884076, -28580.75095185649, 0.066, 0.878, 0.49, 192.0, 0.0, 0.0, 0.0, 0.0, 0.0, 0.0, 0.0, 0.0, 0.0, 1.695684566309239E9, 0.0, 2023-09-25 18:29:26.309
132.0, 11138.20953824634, 34213.94934820525, -19624.20578291485, -18036.717836465577, -10238.64123089805, 17635.459320003905, -187500.02235174447, 12198.464536483829, 11031.345848005516, -27801.591491888943, -2744.6824603894306, -7110.760463566836, 1792.5875535711712, 3092.1850314360895, -22246.087759266826, -28563.02601850343, 0.074, 0.882, 0.49, 192.0, 1.0, 40.0, 13.5, 72.0, 7.5, 40.0, 0.0, 0.0, 0.0, 1.695684566309242E9, 0.0, 2023-09-25 18:29:26.309
134.0, 11124.932602039886, 34196.15735961883, -19630.17369868442, -18055.873281463777, -10239.35648672062, 17623.456433231408, -187500.02235174447, 12199.425661495408, 11043.125217333463, -27803.156114000813, -2744.5259981782438, -7105.127823964099, 1812.234736947386, 3098.3764646502095, -22230.262724192467, -28545.301085150375, 0.074, 0.882, 0.49, 192.0, 0.0, 0.0, 0.0, 0.0, 0.0, 0.0, 0.0, 0.0, 0.0, 1.695684566369477E9, 0.0, 2023-09-25 18:29:26.369
136.0, 11119.702293837345, 34191.53054851658, -19629.8831260065, -18072.14535142724, -10244.810312367716, 17603.71984287737, -187500.02235174447, 12172.424754193396, 11035.23505154074, -27813.84024785045, -2756.484181461833, -7110.73811182238, 1804.9480682549558, 3085.010121465936, -22246.35598020029, -28559.31562892385, 0.074, 0.882, 0.49, 192.0, 0.0, 0.0, 0.0, 0.0, 0.0, 0.0, 0.0, 0.0, 0.0, 1.6956845663695E9, 0.0, 2023-09-25 18:29:26.369
138.0, 11120.775177571199, 34187.10490311443, -19624.764576526235, -18072.279461893973, -10236.987201808359, 17608.078433046154, -187500.02235174447, 12187.489829956274, 11026.741388647722, -27827.18423929027, -2768.6211787010648, -7119.2317747153975, 1808.2114229454307, 3069.5874177917744, -22252.614468647775, -28569.97741102903, 0.074, 0.882, 0.49, 192.0, 0.0, 0.0, 0.0, 0.0, 0.0, 0.0, 0.0, 0.0, 0.0, 1.695684566369504E9, 0.0, 2023-09-25 18:29:26.369
140.0, 11128.620639875013, 34190.41296129381, -19618.46138458984, -18067.831464747367, -10234.036771540257, 17615.968598838877, -187500.02235174447, 12185.388765977475, 11053.742295949734, -27805.301881468524, -2752.952605837894, -7096.254181415342, 1829.5796906447042, 3085.4795080994977, -22234.666017850162, -28552.520698609438, 0.074, 0.882, 0.49, 192.0, 0.0, 0.0, 0.0, 0.0, 0.0, 0.0, 0.0, 0.0, 0.0, 1.695684566369508E9, 0.0, 2023-09-25 18:29:26.369
142.0, 11113.220287945305, 34183.26040306812, -19632.431224874406, -18074.089953194853, -10251.448780470942, 17607.519639434773, -187500.02235174447, 12185.858152611036, 11035.793845152122, -27817.2153612632, -2772.778603169752, -7108.033550743288, 1817.3756381721066, 3076.427051595098, -22247.87589882325, -28563.808329559368, 0.08, 0.882, 0.488, 192.0, 1.0, 64.0, 13.5, 72.0, 7.5, 32.0, 0.0, 0.0, 0.0, 1.695684566369511E9, 0.0, 2023-09-25 18:29:26.369
144.0, 11123.211517716827, 34193.54220551756, -19628.854945761555, -18064.322240867885, -10246.821969368693, 17618.740215151338, -187500.02235174447, 12193.770670148215, 11022.539260690124, -27811.49331468264, -2776.2654753047796, -7103.362036152129, 1811.1395014690759, 3075.8235544948047, -22254.044980292914, -28561.863727791755, 0.08, 0.882, 0.488, 192.0, 0.0, 0.0, 0.0, 0.0, 0.0, 0.0, 0.0, 0.0, 0.0, 1.695684566369514E9, 0.0, 2023-09-25 18:29:26.369
146.0, 11142.366962715027, 34211.06597317052, -19609.855962974547, -18045.300906336415, -10225.565460391696, 17638.700322949928, -187500.02235174447, 12199.157440561943, 11046.030944112652, -27787.01815450408, -2758.3617279960786, -7082.776079508792, 1826.36103944314, 3095.783662293394, -22242.824404576353, -28548.542088096394, 0.08, 0.882, 0.488, 192.0, 0.0, 0.0, 0.0, 0.0, 0.0, 0.0, 0.0, 0.0, 0.0, 1.695684566369518E9, 0.0, 2023-09-25 18:29:26.369
148.0, 11116.640104846967, 34191.79876945004, -19630.196050428876, -18063.04819143393, -10245.436161212465, 17630.944267623934, -187500.02235174447, 12227.633562998006, 11039.571289965068, -27788.53807312704, -2757.445306473411, -7076.070556172199, 1827.8586063216458, 3102.1315577187015, -22235.962419028572, -28537.679140291115, 0.08, 0.882, 0.488, 192.0, 0.0, 0.0, 0.0, 0.0, 0.0, 0.0, 0.0, 0.0, 0.0, 1.695684566369521E9, 0.0, 2023-09-25 18:29:26.369
150.0, 11118.852927548043, 34194.704496229235, -19625.435128859895, -18063.696392023136, -10241.748123377338, 17622.182383797455, -187500.02235174447, 12202.733719674794, 11032.396379994916, -27800.295090710533, -2770.230504301847, -7088.2969603892525, 1822.8741673081122, 3086.9547232335476, -22247.562974400877, -28548.251515418473, 0.08, 0.882, 0.488, 192.0, 0.0, 0.0, 0.0, 0.0, 0.0, 0.0, 0.0, 0.0, 0.0, 1.695684566429693E9, 0.0, 2023-09-25 18:29:26.429
152.0, 11124.194994472862, 34197.67727824179, -19621.635332302492, -18056.677944264167, -10245.324402490187, 17633.224145558375, -187500.02235174447, 12212.344969790574, 11037.827853897556, -27795.534169141552, -2764.1731815544586, -7081.412623097018, 1831.3454784566736, 3092.1850314360895, -22244.411378432676, -28543.848221760778, 0.076, 0.876, 0.49, 192.0, 1.0, 48.0, 13.5, 48.0, 7.5, 40.0, 0.0, 0.0, 0.0, 1.695684566429704E9, 0.0, 2023-09-25 18:29:26.429
154.0, 11121.512785138224, 34197.74433347515, -19626.9326957384, -18066.132732168764, -10244.832664112171, 17618.829622129157, -187500.02235174447, 12190.552018946652, 11034.586850951535, -27798.149323242826, -2773.3150450366793, -7089.861582501124, 1819.655516106548, 3085.792432521872, -22250.178128502146, -28547.9385909961, 0.076, 0.876, 0.49, 192.0, 0.0, 0.0, 0.0, 0.0, 0.0, 0.0, 0.0, 0.0, 0.0, 1.695684566429708E9, 0.0, 2023-09-25 18:29:26.429
156.0, 11122.943296783364, 34196.04560089655, -19628.765538783737, -18064.545758312437, -10243.69272514495, 17619.678988418458, -187500.02235174447, 12197.816335894626, 11045.539205734636, -27797.657584864806, -2768.3976612565116, -7085.637102799071, 1832.105437768154, 3079.7798132633943, -22244.72430285505, -28548.36327414075, 0.076, 0.876, 0.49, 192.0, 0.0, 0.0, 0.0, 0.0, 0.0, 0.0, 0.0, 0.0, 0.0, 1.695684566429711E9, 0.0, 2023-09-25 18:29:26.429
158.0, 11127.7265700968, 34196.649097996844, -19624.87633524851, -18069.32903162587, -10247.045486813246, 17610.33595923614, -187500.02235174447, 12176.872751340003, 11045.114522589985, -27797.635233120352, -2777.2936555497236, -7090.956817979434, 1828.5738621442156, 3083.3784441206985, -22246.333628455835, -28550.397282886184, 0.076, 0.876, 0.49, 192.0, 0.0, 0.0, 0.0, 0.0, 0.0, 0.0, 0.0, 0.0, 0.0, 1.695684566429714E9, 0.0, 2023-09-25 18:29:26.429
160.0, 11119.00938975923, 34194.45862704022, -19630.732492295803, -18076.615700318303, -10256.433219484476, 17602.33403472114, -187500.02235174447, 12158.231396464276, 11044.354563278504, -27811.158038515812, -2783.485088763844, -7102.602076840649, 1825.4222661760173, 3058.5233042863974, -22261.242242007524, -28572.950193041586, 0.076, 0.876, 0.49, 192.0, 0.0, 0.0, 0.0, 0.0, 0.0, 0.0, 0.0, 0.0, 0.0, 1.695684566429718E9, 0.0, 2023-09-25 18:29:26.429
162.0, 11095.294188892149, 34177.650115209835, -19619.824841001613, -18063.316412367396, -10242.373972222087, 17615.767433138783, -187500.02235174447, 12190.484963713285, 11037.89490913092, -27798.953986043216, -2778.2994840502124, -7091.694425546459, 1824.4387894199838, 3079.3551301187435, -22239.270477207956, -28549.100881707775, 0.068, 0.884, 0.492, 192.0, 1.0, 16.0, 13.5, 80.0, 7.5, 48.0, 0.0, 0.0, 0.0, 1.695684566429721E9, 0.0, 2023-09-25 18:29:26.429
164.0, 11107.05120647564, 34196.76085671912, -19612.046433931166, -18052.632278517758, -10235.802559352227, 17619.2096017849, -187500.02235174447, 12200.0291585957, 11027.99308633722, -27808.341718714444, -2786.1002428651145, -7099.003445983344, 1823.365905686129, 3064.93825494507, -22239.918677797163, -28549.905544508165, 0.068, 0.884, 0.492, 192.0, 0.0, 0.0, 0.0, 0.0, 0.0, 0.0, 0.0, 0.0, 0.0, 1.695684566489065E9, 0.0, 2023-09-25 18:29:26.489
166.0, 11104.927790752386, 34202.79582772205, -19616.762652011235, -18052.520519795482, -10241.703419888428, 17613.420499970973, -187500.02235174447, 12158.723134842294, 11031.412903238881, -27789.007459760604, -2787.5307545102546, -7092.49908834685, 1820.013144017833, 3080.3833103636875, -22240.611581875277, -28555.962867255555, 0.068, 0.884, 0.492, 192.0, 0.0, 0.0, 0.0, 0.0, 0.0, 0.0, 0.0, 0.0, 0.0, 1.695684566489088E9, 0.0, 2023-09-25 18:29:26.489
168.0, 11119.456424648337, 34220.05137444155, -19602.815163471125, -18030.95108639611, -10218.301143443721, 17646.88106142057, -187500.02235174447, 12228.639391498495, 11035.749141663211, -27770.723732796163, -2774.3432252816233, -7074.595341038149, 1834.3853157025953, 3096.4765663715084, -22220.025625231938, -28524.938645951588, 0.068, 0.884, 0.492, 192.0, 0.0, 0.0, 0.0, 0.0, 0.0, 0.0, 0.0, 0.0, 0.0, 1.695684566489095E9, 0.0, 2023-09-25 18:29:26.489
170.0, 11101.351511639537, 34192.64813573934, -19625.144556181975, -18063.830502489865, -10235.55669016322, 17617.823793628668, -187500.02235174447, 12195.670568426916, 11041.650002199412, -27778.524491611064, -2773.180934569947, -7078.68571027347, 1831.2784232233078, 3089.99456047947, -22217.83515427532, -28525.765660496436, 0.068, 0.884, 0.492, 192.0, 0.0, 0.0, 0.0, 0.0, 0.0, 0.0, 0.0, 0.0, 0.0, 1.695684566489098E9, 0.0, 2023-09-25 18:29:26.489
172.0, 11098.870468004998, 34194.346868317945, -19630.240753917784, -18070.871301993287, -10241.748123377338, 17617.935552350948, -187500.02235174447, 12208.321655788619, 11024.930897346843, -27803.580797145463, -2784.9156004089837, -7098.154079694043, 1821.7565800853467, 3062.0325281658806, -22237.147061484702, -28542.775338026924, 0.068, 0.878, 0.492, 192.0, 1.0, 16.0, 13.5, 56.0, 7.5, 48.0, 0.0, 0.0, 0.0, 1.695684566489106E9, 0.0, 2023-09-25 18:29:26.489
174.0, 11123.055055505642, 34217.279758129094, -19604.91622744992, -18057.415551831193, -10218.792881821739, 17635.325209537175, -187500.02235174447, 12205.617094709527, 11048.132008091452, -27781.765494557083, -2763.9496641099054, -7077.746937006347, 1837.6486703930702, 3080.293903385866, -22221.232619432525, -28523.30696860635, 0.068, 0.878, 0.492, 192.0, 0.0, 0.0, 0.0, 0.0, 0.0, 0.0, 0.0, 0.0, 0.0, 1.69568456648911E9, 0.0, 2023-09-25 18:29:26.489
176.0, 11106.738282053266, 34205.120409145406, -19620.964779968832, -18071.7653717715, -10235.154358763022, 17613.509906948795, -187500.02235174447, 12202.465498741329, 11046.500330746214, -27783.59833760242, -2760.9545303528944, -7074.6176927826045, 1842.0743157952209, 3071.733185259484, -22218.751575797985, -28521.652939516658, 0.068, 0.878, 0.492, 192.0, 0.0, 0.0, 0.0, 0.0, 0.0, 0.0, 0.0, 0.0, 0.0, 1.695684566489113E9, 0.0, 2023-09-25 18:29:26.489
178.0, 11113.488508878769, 34214.30697611654, -19622.328236380607, -18072.34651712734, -10250.130027548079, 17611.319435992176, -187500.02235174447, 12169.161399502922, 11039.861862642987, -27791.287337695045, -2769.6270072015536, -7083.647797542549, 1829.4232284335171, 3063.1277636441905, -22234.35309342779, -28532.60529429976, 0.068, 0.878, 0.492, 192.0, 0.0, 0.0, 0.0, 0.0, 0.0, 0.0, 0.0, 0.0, 0.0, 1.695684566489117E9, 0.0, 2023-09-25 18:29:26.489
180.0, 11127.7265700968, 34226.84630475596, -19604.335082094083, -18052.766388984488, -10226.727751103372, 17636.554555482217, -187500.02235174447, 12197.70457717235, 11052.222377326772, -27767.035694961036, -2758.0711553181595, -7068.917997946501, 1835.972289558922, 3078.684577785084, -22221.5455438549, -28511.684061489592, 0.068, 0.878, 0.492, 192.0, 0.0, 0.0, 0.0, 0.0, 0.0, 0.0, 0.0, 0.0, 0.0, 1.695684566548723E9, 0.0, 2023-09-25 18:29:26.548
182.0, 11115.00842750173, 34212.63059528239, -19619.020178201223, -18069.172569414684, -10241.211681510411, 17611.63236041455, -187500.02235174447, 12177.476248440296, 11052.244729071228, -27776.40107588781, -2765.4248792439557, -7077.143439906054, 1835.5476064142713, 3071.2637986259224, -22222.640779333207, -28518.434288315093, 0.07200000000000001, 0.88, 0.488, 192.0, 1.0, 32.0, 13.5, 64.0, 7.5, 32.0, 0.0, 0.0, 0.0, 1.695684566548736E9, 0.0, 2023-09-25 18:29:26.548
184.0, 11108.459366376324, 34209.61310978093, -19620.56244856864, -18061.014182688497, -10248.610108925117, 17612.459374959395, -187500.02235174447, 12173.497637927252, 11045.047467356619, -27782.34663991292, -2783.0380538747377, -7091.560315079727, 1820.9966207738664, 3061.1831618765787, -22232.050863748893, -28534.706358278556, 0.07200000000000001, 0.88, 0.488, 192.0, 0.0, 0.0, 0.0, 0.0, 0.0, 0.0, 0.0, 0.0, 0.0, 1.695684566548741E9, 0.0, 2023-09-25 18:29:26.548
186.0, 11112.996770500753, 34215.737487761675, -19608.06782341812, -18047.983115671053, -10224.827852824672, 17624.01522684279, -187500.02235174447, 12170.614262892517, 11040.7559324212, -27776.714000310185, -2790.5705917561763, -7091.448556357451, 1813.464082892428, 3064.960606689526, -22238.97990453004, -28544.898753750178, 0.07200000000000001, 0.88, 0.488, 192.0, 0.0, 0.0, 0.0, 0.0, 0.0, 0.0, 0.0, 0.0, 0.0, 1.695684566548745E9, 0.0, 2023-09-25 18:29:26.548
188.0, 11120.998695015753, 34219.85020874145, -19605.11739315002, -18035.287324820438, -10225.297239458232, 17628.932610622956, -187500.02235174447, 12201.951408618857, 11052.46824651578, -27780.826721289963, -2780.445251517922, -7089.7051202899365, 1829.7138011114362, 3061.9654729325143, -22218.483354864522, -28528.51492506444, 0.07200000000000001, 0.88, 0.488, 192.0, 0.0, 0.0, 0.0, 0.0, 0.0, 0.0, 0.0, 0.0, 0.0, 1.695684566548749E9, 0.0, 2023-09-25 18:29:26.548
190.0, 11095.540058081158, 34196.20206310774, -19625.278666648708, -18055.33683959685, -10244.989126323359, 17613.599313926617, -187500.02235174447, 12182.952425831847, 11053.407019782904, -27776.64694507682, -2776.4666410048776, -7085.950027221445, 1821.6671731075255, 3064.2229991225004, -22225.144174712204, -28534.281675133905, 0.07200000000000001, 0.88, 0.488, 192.0, 0.0, 0.0, 0.0, 0.0, 0.0, 0.0, 0.0, 0.0, 0.0, 1.695684566548754E9, 0.0, 2023-09-25 18:29:26.548
192.0, 11096.255313903728, 34200.091266642965, -19616.181506655397, -18054.263955862996, -10235.064951785202, 17621.936514608446, -187500.02235174447, 12188.696824156861, 11032.955173606299, -27802.105582011412, -2800.874745950073, -7117.309524692241, 1805.4174548885173, 3043.011193634414, -22246.043055777915, -28548.139756696197, 0.07200000000000001, 0.884, 0.484, 192.0, 1.0, 32.0, 13.5, 80.0, 7.5, 16.0, 0.0, 0.0, 0.0, 1.695684566548759E9, 0.0, 2023-09-25 18:29:26.548
194.0, 11094.020139458196, 34201.87940619939, -19616.002692699756, -18065.551586812926, -10225.520756902786, 17616.750909894814, -187500.02235174447, 12173.162361760422, 11040.37595276546, -27787.152264970813, -2782.3675015410786, -7104.412568141529, 1815.4980916378609, 3056.7128129855173, -22234.330741683334, -28537.679140291115, 0.07200000000000001, 0.884, 0.484, 192.0, 0.0, 0.0, 0.0, 0.0, 0.0, 0.0, 0.0, 0.0, 0.0, 1.69568456660899E9, 0.0, 2023-09-25 18:29:26.608
196.0, 11112.750901311743, 34220.856037241945, -19599.484753547284, -18048.631316260256, -10215.842451553637, 17633.894697892036, -187500.02235174447, 12204.298341786665, 11057.85501692951, -27762.654753047795, -2761.133344308537, -7084.631274298582, 1829.6690976225254, 3079.2210196520114, -22214.05770946237, -28513.27103534592, 0.07200000000000001, 0.884, 0.484, 192.0, 0.0, 0.0, 0.0, 0.0, 0.0, 0.0, 0.0, 0.0, 0.0, 1.695684566609007E9, 0.0, 2023-09-25 18:29:26.609
198.0, 11088.879238233476, 34205.56744403451, -19623.758748025746, -18072.122999682786, -10246.2184722684, 17615.186287782944, -187500.02235174447, 12181.79013512017, 11040.46535974328, -27783.061895735493, -2770.3869665130337, -7095.002483725844, 1817.5097486388386, 3055.237597851467, -22234.50955563898, -28533.678178033613, 0.07200000000000001, 0.884, 0.484, 192.0, 0.0, 0.0, 0.0, 0.0, 0.0, 0.0, 0.0, 0.0, 0.0, 1.695684566609013E9, 0.0, 2023-09-25 18:29:26.609
200.0, 11100.323331394593, 34213.74818250516, -19610.414756585928, -18060.00835418801, -10219.955172533415, 17619.410767484995, -187500.02235174447, 12173.005899549235, 11043.639307455935, -27776.266965421077, -2773.6503212035086, -7088.207553411431, 1813.2405654478748, 3063.5077432999306, -22232.45319514909, -28529.31958786483, 0.07200000000000001, 0.884, 0.484, 192.0, 0.0, 0.0, 0.0, 0.0, 0.0, 0.0, 0.0, 0.0, 0.0, 1.695684566609018E9, 0.0, 2023-09-25 18:29:26.609
202.0, 11108.191145442861, 34223.15826692084, -19602.479887304293, -18045.345609825326, -10227.621820881584, 17631.190136812944, -187500.02235174447, 12194.329463759597, 11061.498351275724, -27755.189270399726, -2751.4773907038443, -7061.139590876054, 1836.6651936370367, 3087.46881335602, -22211.509610594465, -28507.012546898433, 0.074, 0.884, 0.482, 192.0, 1.0, 40.0, 13.5, 80.0, 7.5, 8.0, 0.0, 0.0, 0.0, 1.695684566609024E9, 0.0, 2023-09-25 18:29:26.609
204.0, 11093.014310957707, 34205.83566496798, -19612.40406184245, -18058.466083820593, -10240.630536154573, 17609.86657260258, -187500.02235174447, 12169.988414047768, 11048.556691236103, -27767.79565427252, -2765.983672855338, -7070.214399124909, 1817.8226730612128, 3072.18022014859, -22227.804032302385, -28522.390547083683, 0.074, 0.884, 0.482, 192.0, 0.0, 0.0, 0.0, 0.0, 0.0, 0.0, 0.0, 0.0, 0.0, 1.69568456660903E9, 0.0, 2023-09-25 18:29:26.609
206.0, 11082.374880596983, 34196.60439450794, -19616.539134566683, -18060.43303733266, -10239.669411142995, 17615.029825571757, -187500.02235174447, 12179.957292074836, 11039.034848098141, -27784.760628314096, -2779.662940461986, -7082.709024275426, 1813.039399747777, 3052.89066468366, -22236.521212639957, -28537.634436802204, 0.074, 0.884, 0.482, 192.0, 0.0, 0.0, 0.0, 0.0, 0.0, 0.0, 0.0, 0.0, 0.0, 1.695684566609035E9, 0.0, 2023-09-25 18:29:26.609
208.0, 11104.748976796744, 34217.65973778483, -19592.39925055495, -18038.66243823319, -10218.412902165997, 17636.174575826477, -187500.02235174447, 12199.31390277313, 11046.23210981275, -27778.479788122153, -2782.032225374249, -7082.351396364141, 1817.5097486388386, 3070.593246292263, -22226.150003212693, -28523.910465706645, 0.074, 0.884, 0.482, 192.0, 0.0, 0.0, 0.0, 0.0, 0.0, 0.0, 0.0, 0.0, 0.0, 1.695684566609041E9, 0.0, 2023-09-25 18:29:26.609
210.0, 11084.028909686675, 34201.566481777016, -19612.761689753734, -18057.035572175453, -10243.491559444852, 17612.928761592957, -187500.02235174447, 12181.41015546443, 11050.814217426088, -27776.915166010283, -2777.830097416651, -7079.468021329406, 1829.110304011143, 3063.1501153886456, -22226.798203801896, -28533.8346402448, 0.074, 0.884, 0.482, 192.0, 0.0, 0.0, 0.0, 0.0, 0.0, 0.0, 0.0, 0.0, 0.0, 1.695684566669374E9, 0.0, 2023-09-25 18:29:26.669
212.0, 11093.215476657806, 34206.21564462371, -19595.528494778693, -18040.070598133876, -10213.227297452368, 17636.44279675994, -187500.02235174447, 12198.039853339178, 11056.871540173477, -27766.633363560843, -2779.9088096509945, -7079.624483540593, 1826.3163359542295, 3077.65639754014, -22225.568857856855, -28523.26226511744, 0.08, 0.886, 0.484, 192.0, 1.0, 64.0, 13.5, 88.0, 7.5, 16.0, 0.0, 0.0, 0.0, 1.695684566669387E9, 0.0, 2023-09-25 18:29:26.669
214.0, 11102.24558141775, 34219.179656407796, -19593.338023822074, -18033.074502119365, -10216.960038776402, 17646.903413165022, -187500.02235174447, 12212.747301190771, 11060.201950097317, -27773.987087486636, -2773.6503212035086, -7081.680844030481, 1839.883844838601, 3072.426089337598, -22220.472660121046, -28519.663634260138, 0.08, 0.886, 0.484, 192.0, 0.0, 0.0, 0.0, 0.0, 0.0, 0.0, 0.0, 0.0, 0.0, 1.695684566669392E9, 0.0, 2023-09-25 18:29:26.669
216.0, 11073.411831070403, 34189.13891185986, -19621.054186946654, -18066.24449089104, -10243.558614678219, 17605.19505801142, -187500.02235174447, 12160.086591254067, 11050.791865681633, -27772.69068630823, -2778.344187539123, -7081.613788797115, 1829.5349871557937, 3075.3541678612432, -22227.580514857833, -28521.652939516658, 0.08, 0.886, 0.484, 192.0, 0.0, 0.0, 0.0, 0.0, 0.0, 0.0, 0.0, 0.0, 0.0, 1.695684566669398E9, 0.0, 2023-09-25 18:29:26.669
218.0, 11092.47786909078, 34206.43916206827, -19606.83847747308, -18053.05696166241, -10218.524660888275, 17627.367988511087, -187500.02235174447, 12199.470364984318, 11043.639307455935, -27777.63042183285, -2779.037091617238, -7081.636140541571, 1821.7342283408916, 3063.686557255573, -22232.095567237804, -28529.92308496512, 0.08, 0.886, 0.484, 192.0, 0.0, 0.0, 0.0, 0.0, 0.0, 0.0, 0.0, 0.0, 0.0, 1.695684566669403E9, 0.0, 2023-09-25 18:29:26.669
220.0, 11080.43027882937, 34188.04367638155, -19618.528439823203, -18071.497150838037, -10230.84047208315, 17627.16682281099, -187500.02235174447, 12203.247809797265, 11045.449798756814, -27781.340811412432, -2777.9865596278382, -7080.49620157435, 1830.6972778674697, 3063.08306015528, -22221.657302577176, -28510.700584733557, 0.08, 0.886, 0.484, 192.0, 0.0, 0.0, 0.0, 0.0, 0.0, 0.0, 0.0, 0.0, 0.0, 1.695684566669409E9, 0.0, 2023-09-25 18:29:26.669
222.0, 11106.358302397526, 34208.33906034697, -19608.939541451877, -18068.502017081024, -10223.419692923986, 17624.976351854366, -187500.02235174447, 12200.453841740351, 11050.344830792526, -27791.84613130643, -2777.405414272, -7090.509783090328, 1824.0811615086989, 3054.9246734290928, -22229.5474683699, -28519.9318551936, 0.082, 0.878, 0.488, 192.0, 1.0, 72.0, 13.5, 56.0, 7.5, 32.0, 0.0, 0.0, 0.0, 1.695684566669414E9, 0.0, 2023-09-25 18:29:26.669
224.0, 11089.616845800501, 34200.31478408752, -19586.386631296475, -18045.546775525425, -10211.59562010713, 17635.660485704004, -187500.02235174447, 12201.034987096189, 11059.464342530293, -27769.06970370647, -2758.7193559073635, -7066.615768267605, 1844.2200832629305, 3081.5456010753637, -22200.11022092226, -28488.795875167358, 0.082, 0.878, 0.488, 192.0, 0.0, 0.0, 0.0, 0.0, 0.0, 0.0, 0.0, 0.0, 0.0, 1.695684566731154E9, 0.0, 2023-09-25 18:29:26.731
226.0, 11077.882179961465, 34184.44504552425, -19609.520686807715, -18065.57393855738, -10246.397286224043, 17600.456488186897, -187500.02235174447, 12173.788210605171, 11051.976508137765, -27776.512834610086, -2767.1012600781037, -7074.550637549239, 1835.167626758531, 3070.503839314442, -22216.047014718893, -28504.710317219535, 0.082, 0.878, 0.488, 192.0, 0.0, 0.0, 0.0, 0.0, 0.0, 0.0, 0.0, 0.0, 0.0, 1.695684566731174E9, 0.0, 2023-09-25 18:29:26.731
228.0, 11087.404023099425, 34195.86678694091, -19586.297224318652, -18042.663400490692, -10209.11457647259, 17637.716846193893, -187500.02235174447, 12196.832859138593, 11053.764647694188, -27776.468131121175, -2774.9690741263717, -7077.746937006347, 1831.0325540342992, 3073.141345160168, -22221.836116532817, -28505.716145720024, 0.082, 0.878, 0.488, 192.0, 0.0, 0.0, 0.0, 0.0, 0.0, 0.0, 0.0, 0.0, 0.0, 1.69568456673118E9, 0.0, 2023-09-25 18:29:26.731
230.0, 11070.148476379929, 34189.00480139313, -19604.11156464953, -18049.458330805104, -10226.258364469812, 17628.19500305593, -187500.02235174447, 12200.811469651637, 11052.132970348952, -27767.25921240559, -2775.8184404156736, -7069.901474702535, 1839.1015337826652, 3080.4056621081427, -22206.614578558754, -28494.272052558907, 0.082, 0.878, 0.488, 192.0, 0.0, 0.0, 0.0, 0.0, 0.0, 0.0, 0.0, 0.0, 0.0, 1.695684566731185E9, 0.0, 2023-09-25 18:29:26.731
232.0, 11068.941482179342, 34185.562632747016, -19611.152364152953, -18055.359191341304, -10237.92597507548, 17618.695511662427, -187500.02235174447, 12161.852379066037, 11036.777321908155, -27777.518663110575, -2800.159490127503, -7085.391233610062, 1823.8576440641457, 3074.2142288940227, -22234.777776572442, -28521.004738927455, 0.082, 0.88, 0.492, 192.0, 1.0, 72.0, 13.5, 64.0, 7.5, 48.0, 0.0, 0.0, 0.0, 1.695684566731191E9, 0.0, 2023-09-25 18:29:26.731
234.0, 11064.672298988378, 34183.26040306812, -19611.778212997702, -18054.398066329726, -10231.22045173889, 17627.0103605998, -187500.02235174447, 12204.790080164681, 11036.129121318952, -27780.580852100953, -2805.635667519053, -7091.381501124085, 1816.4815683938943, 3068.6709962691066, -22229.77098581445, -28516.892017947677, 0.082, 0.88, 0.492, 192.0, 0.0, 0.0, 0.0, 0.0, 0.0, 0.0, 0.0, 0.0, 0.0, 1.695684566731201E9, 0.0, 2023-09-25 18:29:26.731
236.0, 11076.228150871773, 34192.35756306143, -19611.48764031978, -18063.182301900662, -10233.07564652868, 17605.887962089535, -187500.02235174447, 12145.490902124751, 11043.527548733658, -27777.853939277404, -2804.540432040743, -7094.35428313664, 1819.9907922733776, 3068.134554402179, -22233.88370679423, -28525.720957007525, 0.082, 0.88, 0.492, 192.0, 0.0, 0.0, 0.0, 0.0, 0.0, 0.0, 0.0, 0.0, 0.0, 1.695684566731207E9, 0.0, 2023-09-25 18:29:26.731
238.0, 11089.952121967332, 34199.91245268732, -19600.289416347674, -18048.608964515803, -10222.771492334783, 17632.374779269074, -187500.02235174447, 12220.79392919468, 11048.489636002736, -27774.232956675645, -2793.968056913383, -7091.40385286854, 1819.1637777285312, 3064.2006473780452, -22232.83317480483, -28521.92116045012, 0.082, 0.88, 0.492, 192.0, 0.0, 0.0, 0.0, 0.0, 0.0, 0.0, 0.0, 0.0, 0.0, 1.695684566731213E9, 0.0, 2023-09-25 18:29:26.731
240.0, 11077.05516541662, 34193.47515028419, -19607.64314027347, -18060.67890652167, -10224.805501080216, 17631.68187519096, -187500.02235174447, 12224.07963562961, 11053.563481994091, -27764.10761643739, -2776.9807311273494, -7074.5059340603275, 1826.3386876986847, 3079.2210196520114, -22213.185991428614, -28491.813360668824, 0.082, 0.88, 0.492, 192.0, 0.0, 0.0, 0.0, 0.0, 0.0, 0.0, 0.0, 0.0, 0.0, 1.695684566789423E9, 0.0, 2023-09-25 18:29:26.789
242.0, 11073.300072348127, 34187.90956591482, -19612.35935835354, -18072.748848527535, -10240.228204754378, 17619.433119229452, -187500.02235174447, 12197.168135305421, 11038.878385886954, -27780.133817211845, -2789.02832138876, -7087.916980733512, 1814.8945945375676, 3067.240484623967, -22227.155831713182, -28503.570378252316, 0.07200000000000001, 0.872, 0.496, 192.0, 1.0, 32.0, 13.5, 32.0, 7.5, 64.0, 0.0, 0.0, 0.0, 1.695684566789436E9, 0.0, 2023-09-25 18:29:26.789
244.0, 11078.19510438384, 34189.585946748964, -19611.912323464432, -18078.649709063735, -10237.903623331025, 17613.9569418379, -187500.02235174447, 12175.88927458397, 11045.270984801173, -27777.138683454836, -2785.541449253732, -7080.518553318805, 1815.8780712936011, 3065.921731701104, -22235.49303239501, -28510.477067289004, 0.07200000000000001, 0.872, 0.496, 192.0, 0.0, 0.0, 0.0, 0.0, 0.0, 0.0, 0.0, 0.0, 0.0, 1.695684566789441E9, 0.0, 2023-09-25 18:29:26.789
246.0, 11076.719889249789, 34182.83571992347, -19610.21359088583, -18079.476723608583, -10234.707323873918, 17610.023034813767, -187500.02235174447, 12161.49475115475, 11045.941537134831, -27787.621651604375, -2793.4316150464556, -7091.0238732128, 1813.397027659062, 3061.116106643213, -22238.331703940836, -28518.747212737468, 0.07200000000000001, 0.872, 0.496, 192.0, 0.0, 0.0, 0.0, 0.0, 0.0, 0.0, 0.0, 0.0, 0.0, 1.695684566789446E9, 0.0, 2023-09-25 18:29:26.789
