%OpenBCI Raw EXG Data
%Number of channels = 16
%Sample Rate = 125 Hz
%Board = OpenBCI_GUI$BoardCytonSerialDaisy
Sample Index, EXG Channel 0, EXG Channel 1, EXG Channel 2, EXG Channel 3, EXG Channel 4, EXG Channel 5, EXG Channel 6, EXG Channel 7, EXG Channel 8, EXG Channel 9, EXG Channel 10, EXG Channel 11, EXG Channel 12, EXG Channel 13, EXG Channel 14, EXG Channel 15, Accel Channel 0, Accel Channel 1, Accel Channel 2, Other, Other, Other, Other, Other, Other, Other, Analog Channel 0, Analog Channel 1, Analog Channel 2, Timestamp, Other, Timestamp (Formatted)
238.0, 7376.589760373803, 27020.845058065064, 187500.0, -44115.48156922836, 3035.344545286244, -11821.837642411905, -187500.02235174447, -21185.51983660696, -6082.937846533996, 6161.191303872026, -46151.9937100403, 187500.0, -26236.924676528535, -45382.26668623289, 11287.698005163433, -21442.76606354309, 0.0, 0.0, 0.0, 192.0, 0.0, 0.0, 0.0, 0.0, 0.0, 0.0, 0.0, 0.0, 0.0, 1.695334836389109E9, 0.0, 2023-09-21 17:20:36.389
240.0, 7375.606283617769, 27020.487430153782, 187500.0, -44114.67690642797, 3029.175463816579, -11818.596639465886, -187500.02235174447, -21179.306051648386, -6082.826087811719, 6160.900731194107, -46150.384384439516, 187500.0, -26243.22786846493, -45372.990712283936, 11262.41818218448, -21444.308333910507, 0.0, 0.0, 0.0, 192.0, 0.0, 0.0, 0.0, 0.0, 0.0, 0.0, 0.0, 0.0, 0.0, 1.695334836389142E9, 0.0, 2023-09-21 17:20:36.389
242.0, 7377.059147007364, 27004.796505546154, 187500.0, -44129.518464746296, 3024.571004458786, -11833.348790806389, -187500.02235174447, -21195.712232078582, -6091.498564660378, 6161.906559694596, -46164.24246600181, 187500.0, -26253.800243592294, -45382.780776355365, 11292.99536859934, -21450.67858108027, 0.0, 0.0, 0.0, 192.0, 0.0, 0.0, 0.0, 0.0, 0.0, 0.0, 0.0, 0.0, 0.0, 1.695334836389152E9, 0.0, 2023-09-21 17:20:36.389
244.0, 7373.616978361247, 27007.545770114157, 187500.0, -44121.91887163149, 3020.659449179107, -11818.462528999155, -187500.02235174447, -21188.067935474868, -6089.7774803373195, 6146.93089090954, -46166.47764044734, 187500.0, -26259.00820005038, -45386.692331635044, 11272.834095100654, -21456.758255572113, 0.088, 1.008, 0.106, 192.0, 1.0, 96.0, 15.5, 64.0, 1.5, 40.0, 0.0, 0.0, 0.0, 1.695334836389161E9, 0.0, 2023-09-21 17:20:36.389
246.0, 7380.814240075856, 27007.165790458417, 187500.0, -44126.52333098929, 3013.372780486677, -11814.103938830369, -187500.02235174447, -21190.012537242477, -6085.463593657446, 6157.615024759177, -46161.2473322448, 187500.0, -26265.87018559816, -45387.02760780187, 11286.37925224057, -21443.34720889893, 0.088, 1.008, 0.106, 192.0, 0.0, 0.0, 0.0, 0.0, 0.0, 0.0, 0.0, 0.0, 0.0, 1.695334836389172E9, 0.0, 2023-09-21 17:20:36.389
248.0, 7376.075670251331, 27010.876180037998, 187500.0, -44118.186130307455, 3017.9325363555595, -11801.89988635777, -187500.02235174447, -21178.590795825818, -6084.4354134125015, 6144.159274597082, -46156.642872887, 187500.0, -26259.656400639582, -45385.41828220109, 11276.6115399136, -21442.497842609628, 0.088, 1.008, 0.106, 192.0, 0.0, 0.0, 0.0, 0.0, 0.0, 0.0, 0.0, 0.0, 0.0, 1.695334836389181E9, 0.0, 2023-09-21 17:20:36.389
250.0, 7386.93861805661, 27017.11231674103, 187500.0, -44109.647763925524, 3030.181292317068, -11788.198267006668, -187500.02235174447, -21170.43240909963, -6077.841648798186, 6157.16798987007, -46150.92082630644, 187500.0, -26248.726397600938, -45373.39304368413, 11289.106165064117, -21427.47747033566, 0.088, 1.008, 0.106, 192.0, 0.0, 0.0, 0.0, 0.0, 0.0, 0.0, 0.0, 0.0, 0.0, 1.69533483638919E9, 0.0, 2023-09-21 17:20:36.389
252.0, 7383.7870220884115, 27021.672072609912, 187500.0, -44109.938336603445, 3035.053972608325, -11790.321682729922, -187500.02235174447, -21176.646194058205, -6073.639520840588, 6162.688870750531, -46140.50491339027, 187500.0, -26243.160813231567, -45363.3571104237, 11288.592074941645, -21422.62714178886, 0.088, 1.008, 0.106, 192.0, 0.0, 0.0, 0.0, 0.0, 0.0, 0.0, 0.0, 0.0, 0.0, 1.6953348363892E9, 0.0, 2023-09-21 17:20:36.389
254.0, 7400.506126940982, 27032.49031692628, 187500.0, -44106.67498191297, 3051.7954292053496, -11793.674444398219, -187500.02235174447, -21182.569406338862, -6071.985491750896, 6168.165048142082, -46140.862541301554, 187500.0, -26243.920772543046, -45363.267703445876, 11290.559028453712, -21431.970170971177, 0.084, 1.008, 0.10400000000000001, 192.0, 1.0, 80.0, 15.5, 64.0, 1.5, 32.0, 0.0, 0.0, 0.0, 1.695334836389209E9, 0.0, 2023-09-21 17:20:36.389
0.0, 3664.7473174032352, 13498.866677149139, 93749.98882412778, -22245.461910422076, 1268.908532727782, -6126.881376133129, -93750.01117587223, -10629.170910021176, -3028.8401876497496, 3090.7098163020396, -23063.781626675325, 93749.98882412778, -13111.443890505301, -22676.33648828703, 5648.822265723022, -10712.677027306203, 0.092, 1.008, 0.10200000000000001, 192.0, 1.0, 112.0, 15.5, 64.0, 1.5, 24.0, 0.0, 0.0, 0.0, 1.69533483653668E9, 0.0, 2023-09-21 17:20:36.536
2.0, 7328.8464342172665, 26995.9228629974, 187500.0, -44490.92382084415, 2528.6975537177987, -12261.407048869974, -187500.02235174447, -21266.477855024084, -6558.940596454215, 6032.7805319762865, -46197.2559925623, 187500.0, -26581.253299862543, -45376.276418718866, 10229.588774393651, -21926.56957227821, 0.092, 1.008, 0.10200000000000001, 192.0, 0.0, 0.0, 0.0, 0.0, 0.0, 0.0, 0.0, 0.0, 0.0, 1.695334836536759E9, 0.0, 2023-09-21 17:20:36.536
4.0, 7320.084550390787, 26986.825703004088, 187500.0, -44494.07541681235, 2525.523606005145, -12257.495493590295, -187500.02235174447, -21264.801474189935, -6566.495486080109, 6013.647438722544, -46205.14615835502, 187500.0, -26586.237738876076, -45381.35026471022, 10215.149547475523, -21935.48791831588, 0.092, 1.008, 0.10200000000000001, 192.0, 0.0, 0.0, 0.0, 0.0, 0.0, 0.0, 0.0, 0.0, 0.0, 1.695334836536768E9, 0.0, 2023-09-21 17:20:36.536
6.0, 7333.964983697532, 26995.29701415265, 187500.0, -44493.51662320097, 2522.3496582924913, -12256.869644745548, -187500.02235174447, -21265.427323034684, -6567.188390158223, 6021.381142304081, -46206.12963511105, 187500.0, -26586.371849342806, -45384.56891591179, 10241.390495466054, -21934.77266249331, 0.092, 1.008, 0.10200000000000001, 192.0, 0.0, 0.0, 0.0, 0.0, 0.0, 0.0, 0.0, 0.0, 0.0, 1.695334836536777E9, 0.0, 2023-09-21 17:20:36.536
8.0, 7328.086474905786, 26995.54288334166, 187500.0, -44498.88104187024, 2512.5372424766115, -12266.771467539247, -187500.02235174447, -21275.887939439766, -6558.225340631645, 6013.490976511357, -46201.703989708905, 187500.0, -26591.26688137852, -45381.59613389923, 10213.897849786026, -21934.884421215585, 0.098, 1.008, 0.098, 192.0, 1.5, 8.0, 15.5, 64.0, 1.5, 8.0, 0.0, 0.0, 0.0, 1.695334836536786E9, 0.0, 2023-09-21 17:20:36.536
10.0, 7338.7035535220575, 27004.550636357148, 187500.0, -44497.80815813639, 2532.6314607419326, -12273.074659475644, -187500.02235174447, -21281.274709853496, -6554.090267907413, 6022.386970804569, -46194.03734136073, 187500.0, -26583.063791163422, -45378.42218618658, 10222.16799523449, -21938.5277555618, 0.098, 1.008, 0.098, 192.0, 0.0, 0.0, 0.0, 0.0, 0.0, 0.0, 0.0, 0.0, 0.0, 1.695334836536795E9, 0.0, 2023-09-21 17:20:36.536
12.0, 7325.985410926987, 27004.7741538017, 187500.0, -44496.824681380356, 2541.4603998017787, -12278.707299078382, -187500.02235174447, -21280.69356449766, -6559.700555765696, 6019.548299258745, -46197.010123373286, 187500.0, -26587.847064476857, -45378.55629665331, 10210.858012540104, -21950.62004931212, 0.098, 1.008, 0.098, 192.0, 0.0, 0.0, 0.0, 0.0, 0.0, 0.0, 0.0, 0.0, 0.0, 1.695334836536804E9, 0.0, 2023-09-21 17:20:36.536
14.0, 7330.656925518147, 26997.934519998376, 187500.0, -44505.16188206219, 2552.099830162505, -12278.014395000268, -187500.02235174447, -21272.11049462682, -6562.427468589243, 6024.465683038912, -46200.47464376386, 187500.0, -26597.34655587036, -45388.39106421365, 10228.381780193065, -21946.708494032442, 0.098, 1.008, 0.098, 192.0, 0.0, 0.0, 0.0, 0.0, 0.0, 0.0, 0.0, 0.0, 0.0, 1.695334836536815E9, 0.0, 2023-09-21 17:20:36.536
16.0, 7323.63847775918, 27000.460267121827, 187500.0, -44496.04237032442, 2550.2222836282594, -12271.264168174765, -187500.02235174447, -21267.953070158135, -6556.638366775319, 6020.643534737055, -46194.88670765003, 187500.0, -26587.891767965768, -45389.84392760324, 10226.012495280802, -21941.612296296633, 0.098, 1.008, 0.098, 192.0, 0.0, 0.0, 0.0, 0.0, 0.0, 0.0, 0.0, 0.0, 0.0, 1.695334836597062E9, 0.0, 2023-09-21 17:20:36.597
18.0, 7330.92514645161, 26998.8732932655, 187500.0, -44498.970448848064, 2561.107583177994, -12272.135886208522, -187500.02235174447, -21268.44480853615, -6552.704459751184, 6019.794168447754, -46191.53394598174, 187500.0, -26590.506922067038, -45388.167546769095, 10226.325419703177, -21935.085586915684, 0.1, 1.008, 0.098, 192.0, 1.5, 16.0, 15.5, 64.0, 1.5, 8.0, 0.0, 0.0, 0.0, 1.695334836597134E9, 0.0, 2023-09-21 17:20:36.597
20.0, 7315.3459805662615, 26995.811104275122, 187500.0, -44492.354332489296, 2549.5293795501448, -12264.737458793816, -187500.02235174447, -21262.186320088666, -6560.281701121534, 6018.43071203598, -46190.28224829224, 187500.0, -26584.15902664173, -45383.13840426665, 10230.907527316514, -21930.90581070254, 0.1, 1.008, 0.098, 192.0, 0.0, 0.0, 0.0, 0.0, 0.0, 0.0, 0.0, 0.0, 0.0, 1.695334836597146E9, 0.0, 2023-09-21 17:20:36.597
22.0, 7321.7385794804795, 26999.58854908807, 187500.0, -44493.94130634562, 2558.872408732463, -12260.937662236413, -187500.02235174447, -21264.68971546766, -6572.73162278314, 6017.71545621341, -46200.89932690851, 187500.0, -26590.372811600308, -45392.92846833807, 10230.30403021622, -21935.130290404595, 0.1, 1.008, 0.098, 192.0, 0.0, 0.0, 0.0, 0.0, 0.0, 0.0, 0.0, 0.0, 0.0, 1.695334836597155E9, 0.0, 2023-09-21 17:20:36.597
24.0, 7305.488861261471, 26984.836397747567, 187500.0, -44513.23086181055, 2539.2028736117927, -12278.304967678187, -187500.02235174447, -21281.83350346488, -6564.617939545863, 6018.855395180631, -46196.69719895091, 187500.0, -26592.07154417891, -45395.02953231687, 10237.009553552813, -21936.091415416173, 0.1, 1.008, 0.098, 192.0, 0.0, 0.0, 0.0, 0.0, 0.0, 0.0, 0.0, 0.0, 0.0, 1.695334836597254E9, 0.0, 2023-09-21 17:20:36.597
26.0, 7320.598640513259, 26996.124028697497, 187500.0, -44508.02290535247, 2551.6304435289435, -12271.621796086049, -187500.02235174447, -21272.378715560284, -6562.20395114469, 6010.7640636878095, -46196.18310882844, 187500.0, -26594.284366879987, -45403.09851206523, 10220.156338233512, -21948.943668477976, 0.1, 1.008, 0.098, 192.0, 0.0, 0.0, 0.0, 0.0, 0.0, 0.0, 0.0, 0.0, 0.0, 1.695334836597263E9, 0.0, 2023-09-21 17:20:36.597
28.0, 7312.5296607648925, 26998.649775820944, 187500.0, -44495.32711450185, 2520.9191466473517, -12264.513941349262, -187500.02235174447, -21268.176587602688, -6561.8910267223155, 6025.136235372572, -46194.909059394486, 187500.0, -26594.88786398028, -45392.95082008253, 10234.50615817382, -21939.421825340014, 0.096, 1.006, 0.10200000000000001, 192.0, 1.5, 0.0, 15.5, 56.0, 1.5, 24.0, 0.0, 0.0, 0.0, 1.695334836597273E9, 0.0, 2023-09-21 17:20:36.597
30.0, 7322.006800413943, 27004.751802057246, 187500.0, -44489.04627430991, 2543.1591323803823, -12262.167008181455, -187500.02235174447, -21262.521596255494, -6561.421640088754, 6033.00404942084, -46192.15979482649, 187500.0, -26593.166779657222, -45378.82451758677, 10206.924105515971, -21928.894153701563, 0.096, 1.006, 0.10200000000000001, 192.0, 0.0, 0.0, 0.0, 0.0, 0.0, 0.0, 0.0, 0.0, 0.0, 1.695334836656526E9, 0.0, 2023-09-21 17:20:36.656
32.0, 7318.341114323272, 27004.327118912595, 187500.0, -44491.39320747772, 2530.4409897853125, -12271.107705963577, -187500.02235174447, -21272.959860916122, -6570.764669271072, 6032.869938954108, -46201.16754784198, 187500.0, -26607.89657925327, -45390.045093303335, 10248.163074036012, -21934.415034582024, 0.096, 1.006, 0.10200000000000001, 192.0, 0.0, 0.0, 0.0, 0.0, 0.0, 0.0, 0.0, 0.0, 0.0, 1.695334836656553E9, 0.0, 2023-09-21 17:20:36.656
34.0, 7331.930974952099, 27008.953930014843, 187500.0, -44486.45347195309, 2559.565312810578, -12265.0950867051, -187500.02235174447, -21259.906442154224, -6557.845360975905, 6037.116770400617, -46182.45913773288, 187500.0, -26601.727497783602, -45374.242409973434, 10208.600486350118, -21925.29552284426, 0.096, 1.006, 0.10200000000000001, 192.0, 0.0, 0.0, 0.0, 0.0, 0.0, 0.0, 0.0, 0.0, 0.0, 1.695334836656563E9, 0.0, 2023-09-21 17:20:36.656
36.0, 7333.875576719711, 27012.038470749674, 187500.0, -44485.71586438607, 2548.434144071835, -12267.553778595184, -187500.02235174447, -21263.214500333608, -6559.611148787874, 6038.368468090113, -46181.74388191031, 187500.0, -26598.17357041521, -45383.94306706704, 10239.065914042701, -21930.23525836888, 0.096, 1.006, 0.10200000000000001, 192.0, 0.0, 0.0, 0.0, 0.0, 0.0, 0.0, 0.0, 0.0, 0.0, 1.695334836656573E9, 0.0, 2023-09-21 17:20:36.656
38.0, 7326.275983604906, 27000.43791537737, 187500.0, -44502.88200412774, 2555.631405786444, -12283.155296224988, -187500.02235174447, -21273.317488827408, -6555.364317341366, 6036.401514578047, -46174.65837891798, 187500.0, -26582.862625463324, -45387.7652153689, 10214.2107742084, -21929.29648510176, 0.092, 1.006, 0.10400000000000001, 192.0, 1.0, 112.0, 15.5, 56.0, 1.5, 32.0, 0.0, 0.0, 0.0, 1.695334836656583E9, 0.0, 2023-09-21 17:20:36.656
40.0, 7315.547146266359, 26991.407810617427, 187500.0, -44513.11910308828, 2529.2786990736367, -12291.470145162362, -187500.02235174447, -21283.59929127685, -6577.224323418656, 6025.8514911951415, -46197.81478617368, 187500.0, -26607.31543389743, -45409.04407609035, 10259.942443363958, -21947.557860321744, 0.092, 1.006, 0.10400000000000001, 192.0, 0.0, 0.0, 0.0, 0.0, 0.0, 0.0, 0.0, 0.0, 0.0, 1.695334836656593E9, 0.0, 2023-09-21 17:20:36.656
42.0, 7319.97279166851, 27003.835380534576, 187500.0, -44492.73431214503, 2553.686804018832, -12280.875418290547, -187500.02235174447, -21274.256262094532, -6572.686919294229, 6017.558994002223, -46191.26572504827, 187500.0, -26603.247416406564, -45389.6651136476, 10214.836623053148, -21946.037941698785, 0.092, 1.006, 0.10400000000000001, 192.0, 0.0, 0.0, 0.0, 0.0, 0.0, 0.0, 0.0, 0.0, 0.0, 1.695334836656602E9, 0.0, 2023-09-21 17:20:36.656
44.0, 7315.9271259221, 26996.682822308878, 187500.0, -44494.76832089047, 2536.8559404439857, -12282.618854358061, -187500.02235174447, -21271.216424848608, -6574.340948383921, 6035.350982588647, -46194.79730067221, 187500.0, -26610.847009521367, -45393.621372416186, 10250.286489759266, -21939.95826720694, 0.092, 1.006, 0.10400000000000001, 192.0, 0.0, 0.0, 0.0, 0.0, 0.0, 0.0, 0.0, 0.0, 0.0, 1.695334836656612E9, 0.0, 2023-09-21 17:20:36.656
46.0, 7323.482015547993, 27007.25519743624, 187500.0, -44483.43598645163, 2552.971548196262, -12270.95124375239, -187500.02235174447, -21259.280593309475, -6564.684994779229, 6022.834005693675, -46185.65543718999, 187500.0, -26601.906311739247, -45385.03830254535, 10207.996989249825, -21933.744482248367, 0.092, 1.006, 0.10400000000000001, 192.0, 0.0, 0.0, 0.0, 0.0, 0.0, 0.0, 0.0, 0.0, 0.0, 1.695334836716186E9, 0.0, 2023-09-21 17:20:36.716
48.0, 7328.466454561527, 27009.468020137316, 187500.0, -44492.77901563395, 2545.327251592547, -12277.567360111161, -187500.02235174447, -21272.35636381583, -6561.376936599843, 6034.881595955086, -46182.257972032785, 187500.0, -26603.672099551215, -45387.251125246425, 10240.07174254319, -21928.491822301366, 0.096, 1.008, 0.1, 192.0, 1.5, 0.0, 15.5, 64.0, 1.5, 16.0, 0.0, 0.0, 0.0, 1.695334836716211E9, 0.0, 2023-09-21 17:20:36.716
50.0, 7329.561690039836, 27019.682767353388, 187500.0, -44494.723617401556, 2539.6052050119883, -12275.734517065826, -187500.02235174447, -21273.049267893944, -6552.995032429103, 6028.533700529779, -46171.17150678295, 187500.0, -26592.719744768114, -45386.26764849039, 10218.323495188177, -21936.38198809409, 0.096, 1.008, 0.1, 192.0, 0.0, 0.0, 0.0, 0.0, 0.0, 0.0, 0.0, 0.0, 0.0, 1.695334836716221E9, 0.0, 2023-09-21 17:20:36.716
52.0, 7329.025248172909, 27004.461229379325, 187500.0, -44512.73912343253, 2526.5741379945443, -12286.530409637739, -187500.02235174447, -21287.10851515633, -6556.660718519774, 6032.132331387083, -46178.45817547538, 187500.0, -26602.040422205977, -45404.171395799094, 10250.130027548079, -21946.395569610067, 0.096, 1.008, 0.1, 192.0, 0.0, 0.0, 0.0, 0.0, 0.0, 0.0, 0.0, 0.0, 0.0, 1.69533483671623E9, 0.0, 2023-09-21 17:20:36.716
54.0, 7316.731788722491, 26999.700307810344, 187500.0, -44505.072475084366, 2540.1416468789157, -12281.791839813213, -187500.02235174447, -21277.609023762827, -6553.486770807121, 6022.051694637739, -46177.80997488618, 187500.0, -26597.83829424838, -45401.04215157535, 10228.44883542643, -21946.14970042106, 0.096, 1.008, 0.1, 192.0, 0.0, 0.0, 0.0, 0.0, 0.0, 0.0, 0.0, 0.0, 0.0, 1.69533483671624E9, 0.0, 2023-09-21 17:20:36.716
56.0, 7314.429559043594, 26992.659508306922, 187500.0, -44498.29989651441, 2534.3525450649913, -12278.327319422642, -187500.02235174447, -21272.959860916122, -6581.649968820807, 6028.176072618494, -46198.57474548516, 187500.0, -26618.021919491523, -45393.30844799381, 10253.415733983009, -21947.71432253293, 0.096, 1.008, 0.1, 192.0, 0.0, 0.0, 0.0, 0.0, 0.0, 0.0, 0.0, 0.0, 0.0, 1.695334836716249E9, 0.0, 2023-09-21 17:20:36.716
58.0, 7315.480091032993, 27004.416525890414, 187500.0, -44478.160974760176, 2539.4934462897118, -12262.412877370463, -187500.02235174447, -21262.700410211135, -6577.805468774494, 6030.701819741943, -46197.61362047358, 187500.0, -26611.31639615493, -45380.72441586547, 10225.006666780313, -21938.10307241715, 0.098, 1.008, 0.10200000000000001, 192.0, 1.5, 8.0, 15.5, 64.0, 1.5, 24.0, 0.0, 0.0, 0.0, 1.695334836716258E9, 0.0, 2023-09-21 17:20:36.716
60.0, 7322.811463214334, 27004.125953212497, 187500.0, -44483.61480040727, 2557.7548215096976, -12266.771467539247, -187500.02235174447, -21271.10466612633, -6566.629596546841, 6048.851436239653, -46184.87312613406, 187500.0, -26602.73332628409, -45374.64474137363, 10220.268096955788, -21923.015644909818, 0.098, 1.008, 0.10200000000000001, 192.0, 0.0, 0.0, 0.0, 0.0, 0.0, 0.0, 0.0, 0.0, 0.0, 1.695334836776427E9, 0.0, 2023-09-21 17:20:36.776
62.0, 7309.154547352141, 26996.548711842148, 187500.0, -44494.12012030126, 2535.2466148432036, -12278.930816522934, -187500.02235174447, -21279.665384252716, -6577.87252400786, 6030.590061019667, -46194.88670765003, 187500.0, -26609.75177404306, -45389.17337526958, 10221.028056267269, -21938.997142195363, 0.098, 1.008, 0.10200000000000001, 192.0, 0.0, 0.0, 0.0, 0.0, 0.0, 0.0, 0.0, 0.0, 0.0, 1.695334836776454E9, 0.0, 2023-09-21 17:20:36.776
64.0, 7315.569498010815, 27001.95783400033, 187500.0, -44490.34267548832, 2562.6275018009546, -12269.833656529625, -187500.02235174447, -21271.48464578207, -6577.760765285584, 6032.333497087181, -46194.26085880528, 187500.0, -26604.946148985167, -45391.83323285976, 10222.078588256669, -21944.518023075823, 0.098, 1.008, 0.10200000000000001, 192.0, 0.0, 0.0, 0.0, 0.0, 0.0, 0.0, 0.0, 0.0, 0.0, 1.695334836776465E9, 0.0, 2023-09-21 17:20:36.776
66.0, 7306.762910695424, 27001.086115966573, 187500.0, -44478.026864293446, 2559.788830255131, -12262.010545970268, -187500.02235174447, -21262.365134044307, -6567.166038413768, 6037.34028784517, -46185.94600986791, 187500.0, -26593.792628501968, -45376.25406697441, 10210.902716029015, -21932.96217119243, 0.098, 1.008, 0.10200000000000001, 192.0, 0.0, 0.0, 0.0, 0.0, 0.0, 0.0, 0.0, 0.0, 0.0, 1.695334836776474E9, 0.0, 2023-09-21 17:20:36.776
68.0, 7303.387797282672, 26982.690630279856, 187500.0, -44494.008361578984, 2565.1532489244046, -12280.696604334904, -187500.02235174447, -21282.191131376163, -6571.882256493838, 6045.655136782544, -46188.11412908007, 187500.0, -26602.040422205977, -45378.019854786384, 10210.276867184266, -21931.15167989155, 0.098, 1.006, 0.1, 192.0, 1.5, 8.0, 15.5, 56.0, 1.5, 16.0, 0.0, 0.0, 0.0, 1.695334836776519E9, 0.0, 2023-09-21 17:20:36.776
70.0, 7296.212887312518, 26987.786828015665, 187500.0, -44493.09194005632, 2536.5430160216115, -12280.42838340144, -187500.02235174447, -21283.39812557675, -6588.489602624131, 6028.801921463242, -46201.79339668672, 187500.0, -26615.384413645796, -45389.195727014034, 10221.095111500636, -21949.18953766698, 0.098, 1.006, 0.1, 192.0, 0.0, 0.0, 0.0, 0.0, 0.0, 0.0, 0.0, 0.0, 0.0, 1.69533483677653E9, 0.0, 2023-09-21 17:20:36.776
72.0, 7303.410149027128, 26990.33492688357, 187500.0, -44494.500099957004, 2537.9511759222955, -12278.416726400463, -187500.02235174447, -21283.621643021303, -6596.580934116952, 6034.881595955086, -46207.649553734016, 187500.0, -26631.298855697973, -45392.704950893516, 10202.476108369365, -21947.11082543264, 0.098, 1.006, 0.1, 192.0, 0.0, 0.0, 0.0, 0.0, 0.0, 0.0, 0.0, 0.0, 0.0, 1.695334836776539E9, 0.0, 2023-09-21 17:20:36.776
74.0, 7296.011721612421, 26992.25717690673, 187500.0, -44481.33492247283, 2537.012402655173, -12268.00081348429, -187500.02235174447, -21264.197977089643, -6581.9628932431815, 6041.34125010267, -46194.43967276093, 187500.0, -26612.813963033434, -45382.98194205546, 10212.199117207423, -21933.856240970643, 0.098, 1.006, 0.1, 192.0, 0.0, 0.0, 0.0, 0.0, 0.0, 0.0, 0.0, 0.0, 0.0, 1.695334836776548E9, 0.0, 2023-09-21 17:20:36.776
76.0, 7301.465547259516, 26981.86361573501, 187500.0, -44498.56811744787, 2533.480827031234, -12279.958996767878, -187500.02235174447, -21279.777142974992, -6594.904553282804, 6032.221738364904, -46200.67580946396, 187500.0, -26620.882942781802, -45386.42411070158, 10202.45375662491, -21934.258572370836, 0.098, 1.006, 0.1, 192.0, 0.0, 0.0, 0.0, 0.0, 0.0, 0.0, 0.0, 0.0, 0.0, 1.695334836836794E9, 0.0, 2023-09-21 17:20:36.836
78.0, 7299.342131536261, 26990.893720494954, 187500.0, -44503.35139076131, 2509.8550331419747, -12286.262188704275, -187500.02235174447, -21284.471009310604, -6594.301056182511, 6027.9078516850295, -46200.56405074168, 187500.0, -26620.905294526256, -45397.89055560715, 10224.581983635662, -21945.948534720963, 0.094, 1.006, 0.098, 192.0, 1.0, 120.0, 15.5, 56.0, 1.5, 8.0, 0.0, 0.0, 0.0, 1.695334836836858E9, 0.0, 2023-09-21 17:20:36.836
80.0, 7310.272134574907, 26999.81206653262, 187500.0, -44499.9539256041, 2535.6042427544885, -12283.848200303102, -187500.02235174447, -21276.469084795604, -6578.9677594861705, 6036.490921555868, -46194.216155316375, 187500.0, -26613.350404900364, -45383.07134903328, 10185.48878258333, -21944.830947498198, 0.094, 1.006, 0.098, 192.0, 0.0, 0.0, 0.0, 0.0, 0.0, 0.0, 0.0, 0.0, 0.0, 1.695334836836873E9, 0.0, 2023-09-21 17:20:36.836
82.0, 7303.7230734495015, 26996.48165660878, 187500.0, -44503.463149483585, 2514.7947686665975, -12286.798630571204, -187500.02235174447, -21276.82671270689, -6592.311750925988, 6044.112866415127, -46198.127710596054, 187500.0, -26621.575846859916, -45396.43769221756, 10214.389588164042, -21949.658924300544, 0.094, 1.006, 0.098, 192.0, 0.0, 0.0, 0.0, 0.0, 0.0, 0.0, 0.0, 0.0, 0.0, 1.695334836836886E9, 0.0, 2023-09-21 17:20:36.836
84.0, 7304.080701360786, 26991.83249376208, 187500.0, -44510.12396933127, 2532.1844258528267, -12290.978406784345, -187500.02235174447, -21277.564320273916, -6589.629541591352, 6039.061372168228, -46190.39400701452, 187500.0, -26628.281370196506, -45394.381331727665, 10187.701605284406, -21953.190499924483, 0.094, 1.006, 0.098, 192.0, 0.0, 0.0, 0.0, 0.0, 0.0, 0.0, 0.0, 0.0, 0.0, 1.695334836836895E9, 0.0, 2023-09-21 17:20:36.836
86.0, 7301.3761402816945, 26993.978261229786, 187500.0, -44512.51560598798, 2526.1271031054384, -12289.994930028312, -187500.02235174447, -21276.290270839963, -6592.803489304005, 6035.507444799834, -46198.61944897407, 187500.0, -26631.388262675795, -45406.3171632668, 10223.173823734978, -21960.566575594734, 0.094, 1.006, 0.098, 192.0, 0.0, 0.0, 0.0, 0.0, 0.0, 0.0, 0.0, 0.0, 0.0, 1.695334836836905E9, 0.0, 2023-09-21 17:20:36.836
88.0, 7302.270210059907, 26987.89858673794, 187500.0, -44516.51656824548, 2527.4682077727566, -12293.392395185518, -187500.02235174447, -21277.541968529462, -6590.657721836295, 6023.817482449709, -46197.792434429226, 187500.0, -26628.326073685417, -45408.6193929457, 10196.083509455146, -21957.59379358218, 0.092, 1.006, 0.10400000000000001, 192.0, 1.0, 112.0, 15.5, 56.0, 1.5, 32.0, 0.0, 0.0, 0.0, 1.695334836836915E9, 0.0, 2023-09-21 17:20:36.836
90.0, 7311.4120735421275, 27005.087078224075, 187500.0, -44497.27171626946, 2533.5478822646, -12276.42742114394, -187500.02235174447, -21263.192148589154, -6580.465326364676, 6033.406380821036, -46192.249201804305, 187500.0, -26627.65552135176, -45402.40560798712, 10227.174785992478, -21950.48593884539, 0.092, 1.006, 0.10400000000000001, 192.0, 0.0, 0.0, 0.0, 0.0, 0.0, 0.0, 0.0, 0.0, 0.0, 1.695334836897005E9, 0.0, 2023-09-21 17:20:36.897
92.0, 7307.031131628887, 27005.467057879814, 187500.0, -44491.59437317782, 2553.5079900631895, -12273.655804831482, -187500.02235174447, -21255.324334540885, -6580.755899042595, 6033.227566865393, -46182.9508761109, 187500.0, -26618.11132646934, -45390.84975610373, 10194.384776876543, -21943.66865678652, 0.092, 1.006, 0.10400000000000001, 192.0, 0.0, 0.0, 0.0, 0.0, 0.0, 0.0, 0.0, 0.0, 0.0, 1.69533483689703E9, 0.0, 2023-09-21 17:20:36.897
94.0, 7306.762910695424, 27000.214397932818, 187500.0, -44499.70805641509, 2543.6955742473097, -12273.342880409107, -187500.02235174447, -21249.758750171513, -6578.699538552706, 6039.8213314797085, -46181.363902254576, 187500.0, -26618.1336782138, -45397.532927695866, 10212.243820696332, -21939.10890091764, 0.092, 1.006, 0.10400000000000001, 192.0, 0.0, 0.0, 0.0, 0.0, 0.0, 0.0, 0.0, 0.0, 0.0, 1.69533483689704E9, 0.0, 2023-09-21 17:20:36.897
96.0, 7300.370311781206, 26999.320328154605, 187500.0, -44501.54089946043, 2548.478847560745, -12283.33411018063, -187500.02235174447, -21259.370000287297, -6582.052300221003, 6026.946726673452, -46182.90617262199, 187500.0, -26624.973312017122, -45396.16947128409, 10194.563590832186, -21943.82511899771, 0.092, 1.006, 0.10400000000000001, 192.0, 0.0, 0.0, 0.0, 0.0, 0.0, 0.0, 0.0, 0.0, 0.0, 1.69533483689705E9, 0.0, 2023-09-21 17:20:36.897
98.0, 7323.526719036904, 27021.426203420902, 187500.0, -44476.73046311503, 2547.3836120824353, -12257.71901103485, -187500.02235174447, -21244.39433150224, -6570.384689615333, 6040.782456491287, -46167.68463464792, 187500.0, -26623.542800371983, -45385.284171734354, 10214.121367230578, -21936.180822393995, 0.094, 1.008, 0.10400000000000001, 192.0, 1.0, 120.0, 15.5, 64.0, 1.5, 32.0, 0.0, 0.0, 0.0, 1.695334836897059E9, 0.0, 2023-09-21 17:20:36.897
100.0, 7313.513137520927, 27004.885912523976, 187500.0, -44495.483576713035, 2531.0221351411506, -12281.747136324304, -187500.02235174447, -21264.242680578554, -6564.483829079131, 6042.078857669694, -46165.628274158036, 187500.0, -26617.865457280335, -45377.37165419718, 10197.268151911278, -21931.71047350293, 0.094, 1.008, 0.10400000000000001, 192.0, 0.0, 0.0, 0.0, 0.0, 0.0, 0.0, 0.0, 0.0, 0.0, 1.695334836897069E9, 0.0, 2023-09-21 17:20:36.897
102.0, 7321.291544591373, 27009.91505502642, 187500.0, -44489.98504757703, 2532.0950188750053, -12275.37688915454, -187500.02235174447, -21261.15813984372, -6572.239884405123, 6047.063296683228, -46173.4960882063, 187500.0, -26624.526277128018, -45382.02081704388, 10234.617916896095, -21945.92618297651, 0.094, 1.008, 0.10400000000000001, 192.0, 0.0, 0.0, 0.0, 0.0, 0.0, 0.0, 0.0, 0.0, 0.0, 1.695334836897079E9, 0.0, 2023-09-21 17:20:36.897
104.0, 7312.552012509348, 27012.239636449773, 187500.0, -44485.648809152706, 2538.845245700508, -12272.627624586537, -187500.02235174447, -21259.660572965215, -6567.344852369411, 6050.349003118158, -46165.42710845794, 187500.0, -26617.820753791424, -45372.36486343919, 10203.459585125398, -21940.91939221852, 0.094, 1.008, 0.10400000000000001, 192.0, 0.0, 0.0, 0.0, 0.0, 0.0, 0.0, 0.0, 0.0, 0.0, 1.695334836897088E9, 0.0, 2023-09-21 17:20:36.897
106.0, 7309.959210152532, 27006.271720680204, 187500.0, -44501.630306438245, 2544.3884783254243, -12286.373947426551, -187500.02235174447, -21265.941413157158, -6567.076631435947, 6059.133238689094, -46169.048091059696, 187500.0, -26618.31249216944, -45382.73607286645, 10216.892983543037, -21938.66186602853, 0.094, 1.008, 0.10400000000000001, 192.0, 0.0, 0.0, 0.0, 0.0, 0.0, 0.0, 0.0, 0.0, 0.0, 1.695334836957344E9, 0.0, 2023-09-21 17:20:36.957
108.0, 7295.363521023217, 27005.02002299071, 187500.0, -44504.40192275071, 2544.8355132145302, -12286.217485215366, -187500.02235174447, -21261.40400903273, -6570.652910548796, 6045.76689550482, -46167.23759975882, 187500.0, -26622.201695704665, -45388.25695374691, 10202.274942669266, -21944.160395164537, 0.096, 1.006, 0.11, 192.0, 1.5, 0.0, 15.5, 56.0, 1.5, 56.0, 0.0, 0.0, 0.0, 1.695334836957367E9, 0.0, 2023-09-21 17:20:36.957
110.0, 7291.9213523770995, 26998.44861012085, 187500.0, -44514.10257984431, 2539.3146323340693, -12290.374909684053, -187500.02235174447, -21263.192148589154, -6577.000805974103, 6040.000145435351, -46174.99365508481, 187500.0, -26638.56317264595, -45392.54848868233, 10206.432367137953, -21954.844529014175, 0.096, 1.006, 0.11, 192.0, 0.0, 0.0, 0.0, 0.0, 0.0, 0.0, 0.0, 0.0, 0.0, 1.695334836957377E9, 0.0, 2023-09-21 17:20:36.957
112.0, 7287.719224419502, 27004.885912523976, 187500.0, -44507.53116697445, 2542.3991730689017, -12282.417688657963, -187500.02235174447, -21255.413741518707, -6568.708308781184, 6034.903947699541, -46166.27647474724, 187500.0, -26616.524352613014, -45384.16658451159, 10191.97078847537, -21953.570479580223, 0.096, 1.006, 0.11, 192.0, 0.0, 0.0, 0.0, 0.0, 0.0, 0.0, 0.0, 0.0, 0.0, 1.695334836957438E9, 0.0, 2023-09-21 17:20:36.957
114.0, 7297.330474535284, 27000.504970610735, 187500.0, -44505.92184137367, 2551.585740040033, -12276.136848466022, -187500.02235174447, -21251.055151349923, -6573.960968728182, 6037.608508778633, -46171.10445154959, 187500.0, -26625.822678306424, -45387.40758745761, 10197.20109667791, -21949.547165578268, 0.096, 1.006, 0.11, 192.0, 0.0, 0.0, 0.0, 0.0, 0.0, 0.0, 0.0, 0.0, 0.0, 1.695334836957447E9, 0.0, 2023-09-21 17:20:36.957
116.0, 7287.5180587194045, 26992.927729240386, 187500.0, -44514.72842868906, 2532.9220334198517, -12292.252456218297, -187500.02235174447, -21261.359305543818, -6572.77632627205, 6037.34028784517, -46171.57383818315, 187500.0, -26624.32511142792, -45381.59613389923, 10198.92218100097, -21950.307124889747, 0.096, 1.006, 0.11, 192.0, 0.0, 0.0, 0.0, 0.0, 0.0, 0.0, 0.0, 0.0, 0.0, 1.695334836957459E9, 0.0, 2023-09-21 17:20:36.957
118.0, 7298.3810065246835, 26992.592453073557, 187500.0, -44520.76339969199, 2541.0804201460387, -12296.253418475799, -187500.02235174447, -21269.45063703664, -6591.037701492036, 6031.618241264611, -46188.38235001354, 187500.0, -26644.575791904426, -45399.969267841494, 10208.73459681685, -21964.276965174315, 0.1, 0.996, 0.108, 192.0, 1.5, 16.0, 15.5, 16.0, 1.5, 48.0, 0.0, 0.0, 0.0, 1.695334836957468E9, 0.0, 2023-09-21 17:20:36.957
120.0, 7312.373198553705, 27009.53507537068, 187500.0, -44499.57394594836, 2540.387516067924, -12281.590674113117, -187500.02235174447, -21257.090122352856, -6570.228227404145, 6046.10217167165, -46168.04226255921, 187500.0, -26624.816849805935, -45380.45619493201, 10206.365311904587, -21953.816348769233, 0.1, 0.996, 0.108, 192.0, 0.0, 0.0, 0.0, 0.0, 0.0, 0.0, 0.0, 0.0, 0.0, 1.695334837016828E9, 0.0, 2023-09-21 17:20:37.016
122.0, 7307.299352562351, 26994.73822054127, 187500.0, -44516.22599556756, 2545.0143271701727, -12299.29325572172, -187500.02235174447, -21269.964727159113, -6572.530457083042, 6044.269328626315, -46170.47860270484, 187500.0, -26635.299817955474, -45387.98873281345, 10190.674387296962, -21951.894098746074, 0.1, 0.996, 0.108, 192.0, 0.0, 0.0, 0.0, 0.0, 0.0, 0.0, 0.0, 0.0, 0.0, 1.695334837016861E9, 0.0, 2023-09-21 17:20:37.016
124.0, 7297.844564657756, 26993.86650250751, 187500.0, -44511.219204809575, 2523.2213763262484, -12294.95701729739, -187500.02235174447, -21266.433151535173, -6585.047433978014, 6027.5725755182, -46181.54271621021, 187500.0, -26641.37949244732, -45400.84098587525, 10209.762777061795, -21963.002915740362, 0.1, 0.996, 0.108, 192.0, 0.0, 0.0, 0.0, 0.0, 0.0, 0.0, 0.0, 0.0, 0.0, 1.695334837016871E9, 0.0, 2023-09-21 17:20:37.016
126.0, 7303.8348321717785, 26994.514703096713, 187500.0, -44511.979164121054, 2539.35933582298, -12292.00658702929, -187500.02235174447, -21264.846177678846, -6574.139782683824, 6034.993354677362, -46173.36197773957, 187500.0, -26628.482535896605, -45396.37063698419, 10187.701605284406, -21952.698761546464, 0.1, 0.996, 0.108, 192.0, 0.0, 0.0, 0.0, 0.0, 0.0, 0.0, 0.0, 0.0, 0.0, 1.695334837016881E9, 0.0, 2023-09-21 17:20:37.016
128.0, 7290.557895965326, 26991.787790273167, 187500.0, -44512.98499262155, 2514.235975055215, -12292.207752729388, -187500.02235174447, -21269.78591320347, -6589.227210191156, 6024.264517338815, -46188.87408839156, 187500.0, -26642.474727925626, -45406.27245977789, 10225.87838481407, -21960.67833431701, 0.10200000000000001, 0.998, 0.11, 192.0, 1.5, 24.0, 15.5, 24.0, 1.5, 56.0, 0.0, 0.0, 0.0, 1.695334837016901E9, 0.0, 2023-09-21 17:20:37.016
130.0, 7305.198288583552, 27003.656566578935, 187500.0, -44496.399998235705, 2549.037641172128, -12278.304967678187, -187500.02235174447, -21260.0182008765, -6575.726756540151, 6029.092494141161, -46174.367806240065, 187500.0, -26624.906256783757, -45383.29486647784, 10187.34397737312, -21950.217717911928, 0.10200000000000001, 0.998, 0.11, 192.0, 0.0, 0.0, 0.0, 0.0, 0.0, 0.0, 0.0, 0.0, 0.0, 1.695334837016911E9, 0.0, 2023-09-21 17:20:37.016
132.0, 7292.658959944125, 26996.124028697497, 187500.0, -44497.8528616253, 2532.9667369087624, -12278.752002567293, -187500.02235174447, -21263.549776500437, -6579.280683908544, 6040.424828580002, -46178.25700977528, 187500.0, -26631.70118709817, -45383.71954962249, 10211.21564045139, -21940.807633496242, 0.10200000000000001, 0.998, 0.11, 192.0, 0.0, 0.0, 0.0, 0.0, 0.0, 0.0, 0.0, 0.0, 0.0, 1.69533483701692E9, 0.0, 2023-09-21 17:20:37.016
134.0, 7299.677407703091, 27002.29311016716, 187500.0, -44490.47678595505, 2551.094001662016, -12269.654842573982, -187500.02235174447, -21256.91130839721, -6579.973587986659, 6032.333497087181, -46175.9994835853, 187500.0, -26632.684663854205, -45372.38721518365, 10180.571398803164, -21940.695874773966, 0.10200000000000001, 0.998, 0.11, 192.0, 0.0, 0.0, 0.0, 0.0, 0.0, 0.0, 0.0, 0.0, 0.0, 1.695334837016979E9, 0.0, 2023-09-21 17:20:37.016
136.0, 7305.801785683845, 27002.807200289633, 187500.0, -44490.297971999404, 2528.4293327843347, -12273.924025764945, -187500.02235174447, -21260.509939254516, -6584.488640366631, 6041.676526269499, -46183.308504022185, 187500.0, -26648.59910590638, -45379.204497242514, 10207.460547382898, -21942.975752708408, 0.10200000000000001, 0.998, 0.11, 192.0, 0.0, 0.0, 0.0, 0.0, 0.0, 0.0, 0.0, 0.0, 0.0, 1.695334837076513E9, 0.0, 2023-09-21 17:20:37.076
138.0, 7314.653076488147, 27013.916017283922, 187500.0, -44490.745006888515, 2544.3214230920585, -12277.165028710966, -187500.02235174447, -21258.855910164824, -6573.603340816897, 6042.928223958997, -46169.98686432682, 187500.0, -26628.0355010075, -45376.56699139679, 10183.611236049084, -21932.783357236785, 0.1, 1.008, 0.11, 192.0, 1.5, 16.0, 15.5, 64.0, 1.5, 56.0, 0.0, 0.0, 0.0, 1.695334837076546E9, 0.0, 2023-09-21 17:20:37.076
140.0, 7320.755102724445, 27015.614749862525, 187500.0, -44490.00739932149, 2543.516760291667, -12282.797668313702, -187500.02235174447, -21264.667363723205, -6570.384689615333, 6052.584177563689, -46167.12584103654, 187500.0, -26627.074375995922, -45374.89061056264, 10211.68502708495, -21928.33536009018, 0.1, 1.008, 0.11, 192.0, 0.0, 0.0, 0.0, 0.0, 0.0, 0.0, 0.0, 0.0, 0.0, 1.695334837076556E9, 0.0, 2023-09-21 17:20:37.076
142.0, 7314.094282876764, 27003.947139256852, 187500.0, -44498.702227914604, 2532.810274697575, -12291.112517251076, -187500.02235174447, -21270.389410303764, -6577.961930985682, 6032.065276153717, -46174.7477858958, 187500.0, -26637.69145461219, -45387.876974091174, 10192.820154764671, -21945.81442425423, 0.1, 1.008, 0.11, 192.0, 0.0, 0.0, 0.0, 0.0, 0.0, 0.0, 0.0, 0.0, 0.0, 1.695334837076565E9, 0.0, 2023-09-21 17:20:37.076
144.0, 7321.11273063573, 26998.090982209564, 187500.0, -44493.6507336677, 2509.9667918642513, -12286.061023004178, -187500.02235174447, -21269.45063703664, -6579.325387397455, 6038.837854723675, -46175.57480044065, 187500.0, -26637.423233678728, -45390.93916308155, 10221.564498134196, -21943.355732364147, 0.1, 1.008, 0.11, 192.0, 0.0, 0.0, 0.0, 0.0, 0.0, 0.0, 0.0, 0.0, 0.0, 1.695334837076574E9, 0.0, 2023-09-21 17:20:37.076
146.0, 7319.905736435144, 26998.269796165205, 187500.0, -44488.19690802061, 2514.526547733134, -12279.646072345504, -187500.02235174447, -21259.258241565018, -6580.666492064774, 6037.295584356259, -46176.871201619055, 187500.0, -26635.948018544677, -45377.72928210846, 10193.244837909322, -21938.7289212619, 0.1, 1.008, 0.11, 192.0, 0.0, 0.0, 0.0, 0.0, 0.0, 0.0, 0.0, 0.0, 0.0, 1.695334837076583E9, 0.0, 2023-09-21 17:20:37.076
148.0, 7334.903756964655, 27017.827572563598, 187500.0, -44479.23385849403, 2524.003687382184, -12267.821999528647, -187500.02235174447, -21249.758750171513, -6575.391480373321, 6055.400497365057, -46174.45721321788, 187500.0, -26636.21623947814, -45371.33668319425, 10209.919239272982, -21933.00687468134, 0.1, 1.006, 0.112, 192.0, 1.5, 16.0, 15.5, 56.0, 1.5, 64.0, 0.0, 0.0, 0.0, 1.695334837076592E9, 0.0, 2023-09-21 17:20:37.076
150.0, 7331.171015640619, 27014.83243880659, 187500.0, -44493.47191971206, 2527.69172521731, -12283.535275880728, -187500.02235174447, -21264.957936401122, -6565.221436646157, 6057.926244488507, -46167.639931159014, 187500.0, -26621.374681159818, -45359.914941777584, 10168.501456797298, -21931.66577001402, 0.1, 1.006, 0.112, 192.0, 0.0, 0.0, 0.0, 0.0, 0.0, 0.0, 0.0, 0.0, 0.0, 1.695334837136698E9, 0.0, 2023-09-21 17:20:37.136
152.0, 7334.188501142085, 27010.317386426617, 187500.0, -44503.731370417045, 2516.627611711933, -12286.150429981999, -187500.02235174447, -21267.416628291205, -6574.0950791949135, 6057.143933432571, -46181.632123188036, 187500.0, -26636.931495300712, -45380.29973272082, 10199.011587978792, -21948.76485452233, 0.1, 1.006, 0.112, 192.0, 0.0, 0.0, 0.0, 0.0, 0.0, 0.0, 0.0, 0.0, 0.0, 1.695334837136723E9, 0.0, 2023-09-21 17:20:37.136
154.0, 7336.893062221177, 27020.487430153782, 187500.0, -44481.37962596174, 2529.8374926850192, -12266.749115794793, -187500.02235174447, -21247.92590712618, -6566.651948291296, 6058.10505844415, -46171.484431205325, 187500.0, -26636.70797785616, -45361.233694700444, 10180.414936591977, -21937.767796250322, 0.1, 1.006, 0.112, 192.0, 0.0, 0.0, 0.0, 0.0, 0.0, 0.0, 0.0, 0.0, 0.0, 1.695334837136733E9, 0.0, 2023-09-21 17:20:37.136
156.0, 7332.981506941499, 27004.7741538017, 187500.0, -44494.20952727908, 2536.4983125327008, -12279.891941534514, -187500.02235174447, -21257.380695030773, -6572.195180916212, 6058.976776477907, -46177.31823650816, 187500.0, -26638.56317264595, -45363.78179356835, 10199.59273333463, -21932.068101414217, 0.1, 1.006, 0.112, 192.0, 0.0, 0.0, 0.0, 0.0, 0.0, 0.0, 0.0, 0.0, 0.0, 1.695334837136772E9, 0.0, 2023-09-21 17:20:37.136
158.0, 7312.037922386876, 26992.10071469554, 187500.0, -44506.23476579604, 2516.9628878787626, -12289.659653861483, -187500.02235174447, -21266.34374455735, -6582.074651965458, 6038.949613445951, -46191.6010012151, 187500.0, -26654.1423385313, -45373.30363670631, 10208.756948561306, -21946.68614228799, 0.10200000000000001, 1.006, 0.11, 192.0, 1.5, 24.0, 15.5, 56.0, 1.5, 56.0, 0.0, 0.0, 0.0, 1.6953348371368E9, 0.0, 2023-09-21 17:20:37.136
160.0, 7336.244861631973, 27005.86938928001, 187500.0, -44506.01124835149, 2541.7956759686085, -12283.267054947264, -187500.02235174447, -21258.565337486903, -6579.7947740310165, 6044.314032115225, -46187.28711453523, 187500.0, -26658.925611844734, -45376.45523267451, 10210.187460206445, -21949.97184872292, 0.10200000000000001, 1.006, 0.11, 192.0, 0.0, 0.0, 0.0, 0.0, 0.0, 0.0, 0.0, 0.0, 0.0, 1.695334837136809E9, 0.0, 2023-09-21 17:20:37.136
162.0, 7338.949422711065, 27008.35043291455, 187500.0, -44506.3018210294, 2540.678088745843, -12288.609121872083, -187500.02235174447, -21266.187282346164, -6563.545055812008, 6049.00789845084, -46177.228829530344, 187500.0, -26653.985876320112, -45370.28615120485, 10202.230239180355, -21944.04863644226, 0.10200000000000001, 1.006, 0.11, 192.0, 0.0, 0.0, 0.0, 0.0, 0.0, 0.0, 0.0, 0.0, 0.0, 1.695334837136818E9, 0.0, 2023-09-21 17:20:37.136
164.0, 7347.6889547930905, 27009.95975851533, 187500.0, -44505.31834427337, 2553.619748785466, -12281.9483020244, -187500.02235174447, -21255.190224074155, -6557.1301051533355, 6052.047735696761, -46176.80414638569, 187500.0, -26645.067530282442, -45367.7604040814, 10208.265210183288, -21937.29840961676, 0.10200000000000001, 1.006, 0.11, 192.0, 0.0, 0.0, 0.0, 0.0, 0.0, 0.0, 0.0, 0.0, 0.0, 1.695334837136828E9, 0.0, 2023-09-21 17:20:37.136
166.0, 7346.526664081414, 27015.145363228963, 187500.0, -44485.492346941515, 2542.1309521354383, -12262.636394815016, -187500.02235174447, -21241.756825656514, -6554.626709774341, 6053.72411653091, -46175.977131840846, 187500.0, -26648.733216373115, -45360.205514455505, 10217.988219021347, -21933.610371781633, 0.10200000000000001, 1.006, 0.11, 192.0, 0.0, 0.0, 0.0, 0.0, 0.0, 0.0, 0.0, 0.0, 0.0, 1.695334837197038E9, 0.0, 2023-09-21 17:20:37.197
168.0, 7340.446989589571, 26997.86746476501, 187500.0, -44498.0540273254, 2544.813161470075, -12277.14267696651, -187500.02235174447, -21250.451654249628, -6562.896855222804, 6055.825180509709, -46183.66613193347, 187500.0, -26658.947963589188, -45366.285188947346, 10216.580059120663, -21928.8270984682, 0.096, 1.004, 0.10400000000000001, 192.0, 1.5, 0.0, 15.5, 48.0, 1.5, 32.0, 0.0, 0.0, 0.0, 1.695334837197062E9, 0.0, 2023-09-21 17:20:37.197
170.0, 7341.050486689865, 27018.945159786366, 187500.0, -44476.261076481474, 2543.852036458497, -12261.652918058982, -187500.02235174447, -21235.855965120314, -6553.062087662469, 6058.194465421971, -46173.18316378393, 187500.0, -26648.75556811757, -45354.952854508505, 10220.469262655886, -21929.765871735322, 0.096, 1.004, 0.10400000000000001, 192.0, 0.0, 0.0, 0.0, 0.0, 0.0, 0.0, 0.0, 0.0, 0.0, 1.695334837197073E9, 0.0, 2023-09-21 17:20:37.197
172.0, 7339.195291900074, 27007.523418369703, 187500.0, -44490.18621327713, 2555.005556941695, -12267.821999528647, -187500.02235174447, -21244.662552435704, -6551.586872528419, 6062.15072419056, -46167.796393370205, 187500.0, -26651.549536174483, -45349.74489805042, 10202.274942669266, -21918.00885415183, 0.096, 1.004, 0.10400000000000001, 192.0, 0.0, 0.0, 0.0, 0.0, 0.0, 0.0, 0.0, 0.0, 0.0, 1.695334837197082E9, 0.0, 2023-09-21 17:20:37.197
174.0, 7326.454797560549, 26999.45443862134, 187500.0, -44500.870347126765, 2531.826797941542, -12279.735479323326, -187500.02235174447, -21255.190224074155, -6562.561579055975, 6051.131314174094, -46178.72639640885, 187500.0, -26673.588356207416, -45362.440688901035, 10229.45466392692, -21930.883458958087, 0.096, 1.004, 0.10400000000000001, 192.0, 0.0, 0.0, 0.0, 0.0, 0.0, 0.0, 0.0, 0.0, 0.0, 1.695334837197091E9, 0.0, 2023-09-21 17:20:37.197
176.0, 7339.619975044725, 27014.139534728474, 187500.0, -44483.257172495985, 2558.358318609991, -12259.060115702167, -187500.02235174447, -21238.135843054755, -6560.661680777273, 6045.923357716008, -46177.47469871935, 187500.0, -26663.977106091632, -45361.50191563391, 10206.007683993303, -21932.001046180852, 0.096, 1.004, 0.10400000000000001, 192.0, 0.0, 0.0, 0.0, 0.0, 0.0, 0.0, 0.0, 0.0, 0.0, 1.6953348371971E9, 0.0, 2023-09-21 17:20:37.197
178.0, 7328.8464342172665, 27004.908264268433, 187500.0, -44489.828585365845, 2539.8287224565415, -12272.71703156436, -187500.02235174447, -21248.417645504196, -6548.815256215961, 6063.268311413326, -46168.556352681684, 187500.0, -26650.878983840823, -45351.175409695556, 10225.766626091794, -21919.81934545271, 0.10200000000000001, 1.004, 0.10200000000000001, 192.0, 1.5, 24.0, 15.5, 48.0, 1.5, 24.0, 0.0, 0.0, 0.0, 1.695334837197139E9, 0.0, 2023-09-21 17:20:37.197
180.0, 7322.476187047504, 26992.61480481801, 187500.0, -44501.45149248261, 2556.1901993978263, -12279.310796178675, -187500.02235174447, -21255.88312815227, -6568.753012270095, 6042.8164652367195, -46183.53202146674, 187500.0, -26667.151053804286, -45370.84494481623, 10215.618934109085, -21933.118633403617, 0.10200000000000001, 1.004, 0.10200000000000001, 192.0, 0.0, 0.0, 0.0, 0.0, 0.0, 0.0, 0.0, 0.0, 0.0, 1.695334837197148E9, 0.0, 2023-09-21 17:20:37.197
182.0, 7317.759968967434, 26997.263967664716, 187500.0, -44504.156053561695, 2535.6712979878544, -12279.400203156496, -187500.02235174447, -21254.49731999604, -6571.323462882455, 6044.783418748787, -46184.11316682258, 187500.0, -26668.067475326956, -45362.95477902351, 10245.41380946801, -21939.19830789546, 0.10200000000000001, 1.004, 0.10200000000000001, 192.0, 0.0, 0.0, 0.0, 0.0, 0.0, 0.0, 0.0, 0.0, 0.0, 1.695334837257493E9, 0.0, 2023-09-21 17:20:37.257
184.0, 7324.532547537393, 27005.221188690804, 187500.0, -44501.89852737171, 2549.775248739153, -12278.66259558947, -187500.02235174447, -21249.378770515774, -6567.702480280695, 6041.005973935839, -46178.52523070875, 187500.0, -26666.793425893, -45361.43486040054, 10207.773471805272, -21941.254668385347, 0.10200000000000001, 1.004, 0.10200000000000001, 192.0, 0.0, 0.0, 0.0, 0.0, 0.0, 0.0, 0.0, 0.0, 0.0, 1.695334837257523E9, 0.0, 2023-09-21 17:20:37.257
186.0, 7324.040809159375, 27011.233807949284, 187500.0, -44501.56325120488, 2532.720867719754, -12284.116421236566, -187500.02235174447, -21256.77719793048, -6566.830762246938, 6054.372317120114, -46178.704044664395, 187500.0, -26679.80214116599, -45367.536886636844, 10232.78507385076, -21941.43348234099, 0.10200000000000001, 1.004, 0.10200000000000001, 192.0, 0.0, 0.0, 0.0, 0.0, 0.0, 0.0, 0.0, 0.0, 0.0, 1.695334837257533E9, 0.0, 2023-09-21 17:20:37.257
188.0, 7331.729809252001, 27022.05205226565, 187500.0, -44492.75666388949, 2546.176617881849, -12270.683022818926, -187500.02235174447, -21243.276744279476, -6548.278814349033, 6053.657061297544, -46166.56704742516, 187500.0, -26655.70696064317, -45354.25995043039, 10187.88041924005, -21935.689084015976, 0.10200000000000001, 1.008, 0.096, 192.0, 1.5, 24.0, 15.5, 64.0, 1.5, 0.0, 0.0, 0.0, 0.0, 1.695334837257542E9, 0.0, 2023-09-21 17:20:37.257
190.0, 7331.394533085172, 27019.81687782012, 187500.0, -44495.23770752403, 2529.524568262645, -12282.23887470232, -187500.02235174447, -21256.844253163847, -6554.090267907413, 6062.7765730353085, -46173.63019867304, 187500.0, -26660.71375140116, -45360.764308066886, 10229.611126138107, -21937.320761361214, 0.10200000000000001, 1.008, 0.096, 192.0, 0.0, 0.0, 0.0, 0.0, 0.0, 0.0, 0.0, 0.0, 0.0, 1.695334837257551E9, 0.0, 2023-09-21 17:20:37.257
192.0, 7327.773550483412, 27020.21920922032, 187500.0, -44490.81206212188, 2547.875350460452, -12279.355499667585, -187500.02235174447, -21254.02793336248, -6552.279776606533, 6057.210988665937, -46166.9470270809, 187500.0, -26659.104425800375, -45351.71185156248, 10189.355634374098, -21940.181784651493, 0.10200000000000001, 1.008, 0.096, 192.0, 0.0, 0.0, 0.0, 0.0, 0.0, 0.0, 0.0, 0.0, 0.0, 1.69533483725756E9, 0.0, 2023-09-21 17:20:37.257
194.0, 7315.3459805662615, 27001.577854344592, 187500.0, -44507.732332674546, 2541.5498067796, -12294.241761474821, -187500.02235174447, -21261.82869217738, -6567.3001488805, 6049.4549333399455, -46184.44844298941, 187500.0, -26675.734123675124, -45370.93435179405, 10230.639306383051, -21951.514119090334, 0.10200000000000001, 1.008, 0.096, 192.0, 0.0, 0.0, 0.0, 0.0, 0.0, 0.0, 0.0, 0.0, 0.0, 1.695334837257569E9, 0.0, 2023-09-21 17:20:37.257
196.0, 7300.571477481303, 26993.598281574046, 187500.0, -44516.09188510083, 2535.73835322122, -12297.885095821035, -187500.02235174447, -21265.852006179335, -6577.7384135411285, 6031.640593009066, -46194.12674833855, 187500.0, -26682.95373713419, -45376.94697105253, 10215.440120153442, -21956.699723803966, 0.10200000000000001, 1.008, 0.096, 192.0, 0.0, 0.0, 0.0, 0.0, 0.0, 0.0, 0.0, 0.0, 0.0, 1.695334837317107E9, 0.0, 2023-09-21 17:20:37.317
198.0, 7327.63944001668, 27013.424278905903, 187500.0, -44492.44373946712, 2543.5391120361223, -12276.159200210477, -187500.02235174447, -21246.987133859056, -6578.945407741715, 6039.3519448461475, -46200.31818155268, 187500.0, -26683.110199345378, -45381.730244365965, 10236.249594241333, -21956.34209589268, 0.10400000000000001, 1.008, 0.096, 192.0, 1.5, 32.0, 15.5, 64.0, 1.5, 0.0, 0.0, 0.0, 0.0, 1.695334837317132E9, 0.0, 2023-09-21 17:20:37.317
200.0, 7329.740503995479, 27015.30182544015, 187500.0, -44494.030713323446, 2550.423449328357, -12276.561531610672, -187500.02235174447, -21246.093064080844, -6550.938671939215, 6058.619148566622, -46171.86441086107, 187500.0, -26661.07137931244, -45355.06461323078, 10194.094204198624, -21932.15750839204, 0.10400000000000001, 1.008, 0.096, 192.0, 0.0, 0.0, 0.0, 0.0, 0.0, 0.0, 0.0, 0.0, 0.0, 1.695334837317173E9, 0.0, 2023-09-21 17:20:37.317
202.0, 7334.680239520102, 27019.21338071983, 187500.0, -44498.501062214506, 2545.0366789146283, -12285.323415437153, -187500.02235174447, -21253.938526384656, -6570.384689615333, 6051.041907196272, -46188.0023703578, 187500.0, -26681.210301066676, -45381.70789262151, 10232.986239550859, -21948.116653933128, 0.10400000000000001, 1.008, 0.096, 192.0, 0.0, 0.0, 0.0, 0.0, 0.0, 0.0, 0.0, 0.0, 0.0, 1.695334837317184E9, 0.0, 2023-09-21 17:20:37.317
204.0, 7332.981506941499, 27030.143383758474, 187500.0, -44489.4486057101, 2545.9531004372957, -12273.320528664653, -187500.02235174447, -21239.745168655536, -6553.687936507218, 6062.374241635113, -46168.75751838178, 187500.0, -26663.731236902626, -45354.9081510196, 10201.604390335608, -21939.48888057338, 0.10400000000000001, 1.008, 0.096, 192.0, 0.0, 0.0, 0.0, 0.0, 0.0, 0.0, 0.0, 0.0, 0.0, 1.695334837317197E9, 0.0, 2023-09-21 17:20:37.317
206.0, 7321.716227736024, 27002.851903778545, 187500.0, -44515.488388000536, 2533.838454942519, -12299.159145254987, -187500.02235174447, -21262.655706722227, -6580.01829147557, 6051.6230525521105, -46192.96445762688, 187500.0, -26687.938176147723, -45379.47271817597, 10233.857957584614, -21950.508290589845, 0.10400000000000001, 1.008, 0.096, 192.0, 0.0, 0.0, 0.0, 0.0, 0.0, 0.0, 0.0, 0.0, 0.0, 1.695334837317206E9, 0.0, 2023-09-21 17:20:37.317
208.0, 7326.343038838272, 27010.16092421543, 187500.0, -44503.97723960606, 2530.3962862964017, -12296.543991153716, -187500.02235174447, -21256.91130839721, -6575.190314673223, 6041.251843124848, -46183.06263483318, 187500.0, -26687.267623814063, -45376.16465999659, 10217.719998087883, -21954.39749412507, 0.10400000000000001, 1.008, 0.096, 192.0, 1.5, 32.0, 15.5, 64.0, 1.5, 0.0, 0.0, 0.0, 0.0, 1.695334837317216E9, 0.0, 2023-09-21 17:20:37.317
210.0, 7340.938727967588, 27014.96654927332, 187500.0, -44505.273640784464, 2540.9016061903963, -12303.96477031288, -187500.02235174447, -21262.812168933415, -6565.623768046352, 6048.002069950351, -46177.67586441945, 187500.0, -26683.75839993458, -45376.87991581916, 10214.657809097507, -21950.19536616747, 0.10400000000000001, 1.008, 0.096, 192.0, 0.0, 0.0, 0.0, 0.0, 0.0, 0.0, 0.0, 0.0, 0.0, 1.695334837317225E9, 0.0, 2023-09-21 17:20:37.317
212.0, 7339.575271555815, 27022.476735410302, 187500.0, -44493.27075401196, 2531.9609084082736, -12293.258284718786, -187500.02235174447, -21252.865642650802, -6566.8754657358495, 6045.073991426706, -46175.75361439629, 187500.0, -26668.603917193883, -45373.84007857324, 10211.394454407031, -21955.82800577021, 0.10400000000000001, 1.008, 0.096, 192.0, 0.0, 0.0, 0.0, 0.0, 0.0, 0.0, 0.0, 0.0, 0.0, 1.695334837377601E9, 0.0, 2023-09-21 17:20:37.377
214.0, 7349.432390860605, 27021.672072609912, 187500.0, -44496.57881219135, 2551.36222259548, -12292.00658702929, -187500.02235174447, -21255.25727930752, -6561.086363921924, 6065.257616669848, -46171.41737597196, 187500.0, -26668.000420093587, -45365.54758138032, 10203.213715936388, -21939.35477010665, 0.10400000000000001, 1.008, 0.096, 192.0, 0.0, 0.0, 0.0, 0.0, 0.0, 0.0, 0.0, 0.0, 0.0, 1.695334837377644E9, 0.0, 2023-09-21 17:20:37.377
216.0, 7343.509178579949, 27030.031625036198, 187500.0, -44490.40973072168, 2547.718888249265, -12286.709223593381, -187500.02235174447, -21251.21161356111, -6562.449820333698, 6060.966081734429, -46173.451384717395, 187500.0, -26674.437722496717, -45367.62629361467, 10212.668503840983, -21943.62395329761, 0.10400000000000001, 1.008, 0.096, 192.0, 0.0, 0.0, 0.0, 0.0, 0.0, 0.0, 0.0, 0.0, 0.0, 1.695334837377653E9, 0.0, 2023-09-21 17:20:37.377
218.0, 7338.345925610773, 27018.609883619534, 187500.0, -44508.33582977484, 2548.5906062830218, -12302.936590067935, -187500.02235174447, -21272.199901604643, -6564.595587801407, 6068.744488804876, -46175.64185567402, 187500.0, -26687.357030791885, -45363.51357263489, 10204.800689792715, -21948.094302188674, 0.10200000000000001, 1.006, 0.098, 192.0, 1.5, 24.0, 15.5, 56.0, 1.5, 8.0, 0.0, 0.0, 0.0, 1.695334837377663E9, 0.0, 2023-09-21 17:20:37.377
220.0, 7329.092303406275, 27018.989863275274, 187500.0, -44499.93157385964, 2535.783056710131, -12289.123211994554, -187500.02235174447, -21258.632392720272, -6572.418698360765, 6059.982604978395, -46186.169527312464, 187500.0, -26694.04020238402, -45368.49801164842, 10219.105806244113, -21963.7852267963, 0.10200000000000001, 1.006, 0.098, 192.0, 0.0, 0.0, 0.0, 0.0, 0.0, 0.0, 0.0, 0.0, 0.0, 1.695334837377717E9, 0.0, 2023-09-21 17:20:37.377
222.0, 7332.221547630018, 27013.714851583823, 187500.0, -44500.937402360134, 2568.662472803888, -12293.995892285811, -187500.02235174447, -21254.296154295942, -6560.371108099354, 6066.15168644806, -46177.11707080807, 187500.0, -26671.397885250793, -45357.50095337641, 10194.496535598819, -21946.462624843436, 0.10200000000000001, 1.006, 0.098, 192.0, 0.0, 0.0, 0.0, 0.0, 0.0, 0.0, 0.0, 0.0, 0.0, 1.695334837377726E9, 0.0, 2023-09-21 17:20:37.377
224.0, 7332.378009841205, 27017.805220819144, 187500.0, -44494.56715519037, 2538.331155578036, -12293.325339952153, -187500.02235174447, -21253.96087812911, -6572.8657332498715, 6057.993299721873, -46186.54950696821, 187500.0, -26682.774923178546, -45367.62629361467, 10224.492576657842, -21950.687104545486, 0.10200000000000001, 1.006, 0.098, 192.0, 0.0, 0.0, 0.0, 0.0, 0.0, 0.0, 0.0, 0.0, 0.0, 1.695334837377735E9, 0.0, 2023-09-21 17:20:37.377
226.0, 7351.868731006233, 27035.619561150022, 187500.0, -44479.9491143166, 2553.329176107547, -12276.159200210477, -187500.02235174447, -21242.941468112644, -6555.185503385724, 6070.733794061398, -46164.82361135764, 187500.0, -26676.0470480975, -45350.057822472794, 10191.836678008638, -21940.09237767367, 0.10200000000000001, 1.006, 0.098, 192.0, 0.0, 0.0, 0.0, 0.0, 0.0, 0.0, 0.0, 0.0, 0.0, 1.695334837437715E9, 0.0, 2023-09-21 17:20:37.437
228.0, 7342.413943101638, 27032.9820553043, 187500.0, -44488.19690802061, 2524.3166118045583, -12285.099897992599, -187500.02235174447, -21260.15231134323, -6560.996956944104, 6080.009768010351, -46171.75265213879, 187500.0, -26688.832245925936, -45352.292996918324, 10227.577117392673, -21936.158470649538, 0.10400000000000001, 1.008, 0.098, 192.0, 1.5, 32.0, 15.5, 64.0, 1.5, 8.0, 0.0, 0.0, 0.0, 1.695334837437743E9, 0.0, 2023-09-21 17:20:37.437
230.0, 7348.203044915563, 27031.126860514505, 187500.0, -44488.778053376445, 2545.617824270466, -12287.022148015756, -187500.02235174447, -21259.861738665313, -6555.811352230472, 6076.120564475127, -46168.89162884851, 187500.0, -26686.82058892496, -45352.44945912951, 10203.191364191935, -21934.258572370836, 0.10400000000000001, 1.008, 0.098, 192.0, 0.0, 0.0, 0.0, 0.0, 0.0, 0.0, 0.0, 0.0, 0.0, 1.695334837437754E9, 0.0, 2023-09-21 17:20:37.437
232.0, 7349.141818182686, 27034.79254660518, 187500.0, -44480.731425372534, 2537.302975333092, -12282.417688657963, -187500.02235174447, -21243.1649855572, -6561.198122644201, 6074.779459807809, -46177.4523469749, 187500.0, -26696.253025085098, -45363.53592437934, 10243.200986766933, -21934.683255515487, 0.10400000000000001, 1.008, 0.098, 192.0, 0.0, 0.0, 0.0, 0.0, 0.0, 0.0, 0.0, 0.0, 0.0, 1.695334837437763E9, 0.0, 2023-09-21 17:20:37.437
234.0, 7348.31480363784, 27019.21338071983, 187500.0, -44493.89660285671, 2545.237844614726, -12297.549819654205, -187500.02235174447, -21253.15621532872, -6551.944500439704, 6074.198314451971, -46169.00338757079, 187500.0, -26699.181103608742, -45358.84205804373, 10208.712245072395, -21930.10114790215, 0.10400000000000001, 1.008, 0.098, 192.0, 0.0, 0.0, 0.0, 0.0, 0.0, 0.0, 0.0, 0.0, 0.0, 1.695334837437772E9, 0.0, 2023-09-21 17:20:37.437
236.0, 7367.112620724753, 27036.312465228137, 187500.0, -44477.08809102632, 2532.3408880640136, -12281.501267135296, -187500.02235174447, -21237.711159910104, -6561.466343577665, 6077.461669142445, -46170.724471893845, 187500.0, -26694.62134773986, -45363.08888949024, 10238.820044853694, -21933.051578170252, 0.10400000000000001, 1.008, 0.098, 192.0, 0.0, 0.0, 0.0, 0.0, 0.0, 0.0, 0.0, 0.0, 0.0, 1.695334837437781E9, 0.0, 2023-09-21 17:20:37.437
238.0, 7360.474152621527, 27020.01804352022, 187500.0, -44495.081245312846, 2524.9201089048515, -12300.67906387795, -187500.02235174447, -21253.49149149555, -6557.420677831255, 6076.433488897502, -46164.46598344636, 187500.0, -26681.61263246687, -45362.708909834495, 10198.475146111865, -21929.81057522423, 0.098, 1.01, 0.098, 192.0, 1.5, 8.0, 15.5, 72.0, 1.5, 8.0, 0.0, 0.0, 0.0, 1.695334837437795E9, 0.0, 2023-09-21 17:20:37.437
240.0, 7359.915359010143, 27022.812011577134, 187500.0, -44497.919916858664, 2513.721884932743, -12297.661578376483, -187500.02235174447, -21250.652819949726, -6562.2486546336, 6073.550113862767, -46174.05488181769, 187500.0, -26694.28607157303, -45375.94114255204, 10229.78994009375, -21940.51706081832, 0.098, 1.01, 0.098, 192.0, 0.0, 0.0, 0.0, 0.0, 0.0, 0.0, 0.0, 0.0, 0.0, 1.695334837437809E9, 0.0, 2023-09-21 17:20:37.437
242.0, 7364.542170112392, 27026.92473255691, 187500.0, -44489.15803303219, 2535.2466148432036, -12284.496400892307, -187500.02235174447, -21244.416683246694, -6556.683070264229, 6069.236227182892, -46168.46694570386, 187500.0, -26691.29093781602, -45361.36780516718, 10197.558724589197, -21933.252743870347, 0.098, 1.01, 0.098, 192.0, 0.0, 0.0, 0.0, 0.0, 0.0, 0.0, 0.0, 0.0, 0.0, 1.695334837497941E9, 0.0, 2023-09-21 17:20:37.497
244.0, 7373.281702194417, 27036.20070650586, 187500.0, -44484.71003588558, 2531.916204919363, -12281.121287479555, -187500.02235174447, -21242.49443322354, -6553.576177784941, 6085.083614001705, -46169.56218118217, 187500.0, -26697.683536730237, -45364.36293892419, 10228.404131937521, -21926.90484844504, 0.098, 1.01, 0.098, 192.0, 0.0, 0.0, 0.0, 0.0, 0.0, 0.0, 0.0, 0.0, 0.0, 1.695334837497964E9, 0.0, 2023-09-21 17:20:37.497
246.0, 7374.756917328467, 27038.704101884858, 187500.0, -44481.11140502828, 2536.7665334661647, -12278.640243845015, -187500.02235174447, -21239.00756108851, -6544.858997447372, 6088.592837881189, -46153.379518196525, 187500.0, -26681.970260378155, -45349.74489805042, 10198.765718789784, -21920.44519429746, 0.098, 1.01, 0.098, 192.0, 0.0, 0.0, 0.0, 0.0, 0.0, 0.0, 0.0, 0.0, 0.0, 1.695334837497976E9, 0.0, 2023-09-21 17:20:37.497
248.0, 7379.5625423863585, 27037.58651466209, 187500.0, -44483.61480040727, 2526.4847310167233, -12282.28357819123, -187500.02235174447, -21241.376846000774, -6558.58296854293, 6086.648236113577, -46164.73420437983, 187500.0, -26710.133458391843, -45365.34641568022, 10231.063989527702, -21926.658979256033, 0.1, 1.008, 0.10200000000000001, 192.0, 1.5, 16.0, 15.5, 64.0, 1.5, 24.0, 0.0, 0.0, 0.0, 1.695334837497987E9, 0.0, 2023-09-21 17:20:37.497
250.0, 7371.515914382448, 27029.137555257985, 187500.0, -44496.28823951343, 2520.44976001379, -12293.325339952153, -187500.02235174447, -21251.569241472393, -6555.386669085821, 6080.277988943814, -46158.788640354716, 187500.0, -26695.828341940447, -45356.18220045355, 10206.722939815872, -21924.49086004387, 0.1, 1.008, 0.10200000000000001, 192.0, 0.0, 0.0, 0.0, 0.0, 0.0, 0.0, 0.0, 0.0, 0.0, 1.695334837497997E9, 0.0, 2023-09-21 17:20:37.497
252.0, 7374.265178950451, 27029.20461049135, 187500.0, -44504.156053561695, 2522.0590856145723, -12305.90937208049, -187500.02235174447, -21260.621697976792, -6579.504201353097, 6069.5267998608115, -46182.9508761109, 187500.0, -26717.80010674001, -45381.48437517695, 10240.898757088036, -21945.836775998687, 0.1, 1.008, 0.10200000000000001, 192.0, 0.0, 0.0, 0.0, 0.0, 0.0, 0.0, 0.0, 0.0, 0.0, 1.695334837498007E9, 0.0, 2023-09-21 17:20:37.498
254.0, 7371.426507404627, 27030.63512213649, 187500.0, -44498.32224825886, 2529.010478140173, -12299.539124910729, -187500.02235174447, -21249.31171528241, -6566.16020991328, 6075.941750519485, -46169.38336722653, 187500.0, -26706.356013578894, -45363.96060752399, 10208.220506694379, -21943.86982248662, 0.1, 1.008, 0.10200000000000001, 192.0, 0.0, 0.0, 0.0, 0.0, 0.0, 0.0, 0.0, 0.0, 0.0, 1.695334837498016E9, 0.0, 2023-09-21 17:20:37.498
0.0, 7360.474152621527, 27016.374709174004, 187500.0, -44513.92376588866, 2524.942460649307, -12313.441909961928, -187500.02235174447, -21262.63335497777, -6574.542114084019, 6069.124468460616, -46182.57089645516, 187500.0, -26706.95951067919, -45371.60490412771, 10220.35750393361, -21947.222584154915, 0.1, 1.008, 0.10200000000000001, 192.0, 0.0, 0.0, 0.0, 0.0, 0.0, 0.0, 0.0, 0.0, 0.0, 1.695334837558295E9, 0.0, 2023-09-21 17:20:37.558
2.0, 7347.018402459432, 27009.579778859592, 187500.0, -44515.01900136698, 2518.527509990634, -12315.207697773898, -187500.02235174447, -21264.10857011182, -6587.461422379187, 6050.907796729541, -46193.456196004896, 187500.0, -26715.542580550027, -45391.83323285976, 10210.902716029015, -21959.158415694048, 0.1, 1.006, 0.10400000000000001, 192.0, 1.5, 16.0, 15.5, 56.0, 1.5, 32.0, 0.0, 0.0, 0.0, 1.695334837558322E9, 0.0, 2023-09-21 17:20:37.558
4.0, 7362.016422988942, 27014.25129345075, 187500.0, -44511.17450132066, 2532.8326264420302, -12310.938514582935, -187500.02235174447, -21262.968631144602, -6589.718948569173, 6052.517122330323, -46192.94210588242, 187500.0, -26726.651397544316, -45386.759386868405, 10208.444024138931, -21957.59379358218, 0.1, 1.006, 0.10400000000000001, 192.0, 0.0, 0.0, 0.0, 0.0, 0.0, 0.0, 0.0, 0.0, 0.0, 1.695334837558332E9, 0.0, 2023-09-21 17:20:37.558
6.0, 7359.065992720842, 27022.320273199115, 187500.0, -44497.2046610361, 2531.3797630524355, -12300.030863288745, -187500.02235174447, -21251.233965305564, -6575.525590840053, 6059.915549745029, -46175.843021374116, 187500.0, -26708.926464191256, -45371.22492447197, 10208.332265416655, -21947.35669462165, 0.1, 1.006, 0.10400000000000001, 192.0, 0.0, 0.0, 0.0, 0.0, 0.0, 0.0, 0.0, 0.0, 0.0, 1.695334837558341E9, 0.0, 2023-09-21 17:20:37.558
8.0, 7375.516876639948, 27027.528229657204, 187500.0, -44497.07055056936, 2541.88508294643, -12303.67419763496, -187500.02235174447, -21253.357381028818, -6568.708308781184, 6063.558884091245, -46171.57383818315, 187500.0, -26710.04405141402, -45372.990712283936, 10200.77737579076, -21945.05446494275, 0.1, 1.006, 0.10400000000000001, 192.0, 0.0, 0.0, 0.0, 0.0, 0.0, 0.0, 0.0, 0.0, 0.0, 1.695334837558383E9, 0.0, 2023-09-21 17:20:37.558
10.0, 7374.622806861736, 27033.987883804784, 187500.0, -44483.36893121826, 2524.003687382184, -12286.306892193186, -187500.02235174447, -21239.611058188806, -6563.030965689536, 6064.341195147181, -46163.258989245776, 187500.0, -26695.694231473713, -45366.776927325365, 10206.745291560328, -21940.472357329414, 0.1, 1.006, 0.10400000000000001, 192.0, 0.0, 0.0, 0.0, 0.0, 0.0, 0.0, 0.0, 0.0, 0.0, 1.695334837558392E9, 0.0, 2023-09-21 17:20:37.558
12.0, 7377.193257474096, 27025.36011044504, 187500.0, -44491.23674526653, 2548.45649581629, -12296.834563831635, -187500.02235174447, -21252.284497294964, -6561.756916255584, 6072.5219336178225, -46158.363957210066, 187500.0, -26694.934272162234, -45361.63602610064, 10194.742404787828, -21930.65994151353, 0.098, 1.008, 0.094, 192.0, 1.5, 8.0, 15.5, 64.0, 1.0, 120.0, 0.0, 0.0, 0.0, 1.695334837558401E9, 0.0, 2023-09-21 17:20:37.558
14.0, 7384.323463955339, 27044.02381706522, 187500.0, -44470.96371304557, 2535.447780543301, -12275.175723454444, -187500.02235174447, -21233.9113633527, -6557.800657486994, 6073.997148751873, -46151.85959957357, 187500.0, -26696.61065299638, -45358.12680222116, 10206.633532838052, -21935.3761595936, 0.098, 1.008, 0.094, 192.0, 0.0, 0.0, 0.0, 0.0, 0.0, 0.0, 0.0, 0.0, 0.0, 1.695334837558411E9, 0.0, 2023-09-21 17:20:37.558
16.0, 7378.288492952406, 27027.103546512553, 187500.0, -44492.37668423375, 2535.8277601990417, -12291.894828307013, -187500.02235174447, -21246.294229780942, -6564.528532568042, 6069.415041138535, -46157.2463699873, 187500.0, -26711.22869387015, -45360.36197666669, 10192.06019545319, -21931.777528736297, 0.098, 1.008, 0.094, 192.0, 0.0, 0.0, 0.0, 0.0, 0.0, 0.0, 0.0, 0.0, 0.0, 1.695334837617321E9, 0.0, 2023-09-21 17:20:37.617
18.0, 7368.4090219031605, 27029.852811080553, 187500.0, -44486.408768464185, 2526.8200071835527, -12287.558589882683, -187500.02235174447, -21239.25343027752, -6564.573236056953, 6067.4704393709235, -46158.47571593234, 187500.0, -26710.222865369662, -45358.372671410165, 10216.580059120663, -21940.248839884858, 0.098, 1.008, 0.094, 192.0, 0.0, 0.0, 0.0, 0.0, 0.0, 0.0, 0.0, 0.0, 0.0, 1.695334837617346E9, 0.0, 2023-09-21 17:20:37.617
20.0, 7350.013536216443, 27007.188142202875, 187500.0, -44508.425236752664, 2528.138760106416, -12309.82092736017, -187500.02235174447, -21257.648915964237, -6581.515858354075, 6055.780477020798, -46176.29005626322, 187500.0, -26716.727223006157, -45378.086910019745, 10210.701550328917, -21946.261459143338, 0.098, 1.008, 0.094, 192.0, 0.0, 0.0, 0.0, 0.0, 0.0, 0.0, 0.0, 0.0, 0.0, 1.695334837617356E9, 0.0, 2023-09-21 17:20:37.617
22.0, 7347.823065259822, 27015.659453351433, 187500.0, -44503.99959135051, 2507.9551348632735, -12303.182459256943, -187500.02235174447, -21256.620735719294, -6579.1465734418125, 6050.214892651426, -46182.123861566055, 187500.0, -26715.743746250126, -45378.578648397764, 10232.382742450565, -21954.375142380613, 0.10200000000000001, 1.004, 0.094, 192.0, 1.5, 24.0, 15.5, 48.0, 1.0, 120.0, 0.0, 0.0, 0.0, 1.695334837617365E9, 0.0, 2023-09-21 17:20:37.617
24.0, 7362.977548000521, 27027.036491279185, 187500.0, -44507.59822220782, 2527.5352630061225, -12298.041558032222, -187500.02235174447, -21256.48662525256, -6579.772422286561, 6059.334404389192, -46182.03445458823, 187500.0, -26716.883685217344, -45373.28128496186, 10192.842506509127, -21958.48786336039, 0.10200000000000001, 1.004, 0.094, 192.0, 0.0, 0.0, 0.0, 0.0, 0.0, 0.0, 0.0, 0.0, 0.0, 1.695334837617375E9, 0.0, 2023-09-21 17:20:37.617
26.0, 7351.064068205842, 27009.378613159493, 187500.0, -44518.19294907963, 2513.2524982991813, -12309.48565119334, -187500.02235174447, -21264.77912244548, -6577.134916440835, 6063.760049791343, -46183.84494588911, 187500.0, -26718.940045707233, -45378.444537931035, 10213.272000941277, -21967.137988464594, 0.10200000000000001, 1.004, 0.094, 192.0, 0.0, 0.0, 0.0, 0.0, 0.0, 0.0, 0.0, 0.0, 0.0, 1.695334837617384E9, 0.0, 2023-09-21 17:20:37.617
28.0, 7349.544149582881, 27002.404868889436, 187500.0, -44517.164768834686, 2527.3788007949356, -12314.671255906971, -187500.02235174447, -21267.371924802297, -6579.25833216409, 6041.900043714052, -46182.21326854388, 187500.0, -26719.43178408525, -45386.29000023485, 10183.030090693246, -21972.413000156048, 0.10200000000000001, 1.004, 0.094, 192.0, 0.0, 0.0, 0.0, 0.0, 0.0, 0.0, 0.0, 0.0, 0.0, 1.695334837617393E9, 0.0, 2023-09-21 17:20:37.617
30.0, 7352.8522077622665, 27008.752764314744, 187500.0, -44509.52047223097, 2522.8637484149635, -12310.782052371747, -187500.02235174447, -21261.940450899656, -6579.571256586463, 6042.324726858703, -46182.9508761109, 187500.0, -26723.969188209678, -45388.34636072473, 10222.92795454597, -21969.194348954483, 0.10200000000000001, 1.004, 0.094, 192.0, 0.0, 0.0, 0.0, 0.0, 0.0, 0.0, 0.0, 0.0, 0.0, 1.695334837677495E9, 0.0, 2023-09-21 17:20:37.677
32.0, 7356.473190364027, 27008.886874781478, 187500.0, -44515.66720195618, 2535.5818910100334, -12319.58863968714, -187500.02235174447, -21264.287384067462, -6566.316672124466, 6034.613375021622, -46174.144288795505, 187500.0, -26705.059612400488, -45388.50282293592, 10191.523753586263, -21978.02328801433, 0.098, 1.008, 0.098, 192.0, 1.5, 8.0, 15.5, 64.0, 1.5, 8.0, 0.0, 0.0, 0.0, 1.695334837677525E9, 0.0, 2023-09-21 17:20:37.677
34.0, 7348.270100148929, 27006.58464510258, 187500.0, -44523.78088519345, 2535.9171671768627, -12321.957924599401, -187500.02235174447, -21267.438980035662, -6570.697614037706, 6044.246976881859, -46179.01696908676, 187500.0, -26713.776792738056, -45384.881840334165, 10222.659733612507, -21987.45572417447, 0.098, 1.008, 0.098, 192.0, 0.0, 0.0, 0.0, 0.0, 0.0, 0.0, 0.0, 0.0, 0.0, 1.695334837677535E9, 0.0, 2023-09-21 17:20:37.677
36.0, 7344.9843937139985, 27006.58464510258, 187500.0, -44519.04231536893, 2531.3350595635247, -12321.1085583101, -187500.02235174447, -21266.008468390522, -6573.022195461059, 6027.684334240477, -46177.6982161639, 187500.0, -26714.559103793992, -45389.39689271413, 10191.233180908344, -21987.902759063574, 0.098, 1.008, 0.098, 192.0, 0.0, 0.0, 0.0, 0.0, 0.0, 0.0, 0.0, 0.0, 0.0, 1.695334837677544E9, 0.0, 2023-09-21 17:20:37.677
38.0, 7357.210797931051, 27016.397060918458, 187500.0, -44508.31347803038, 2519.421579768846, -12302.333092967641, -187500.02235174447, -21253.96087812911, -6565.422602346254, 6038.502578556845, -46174.90424810699, 187500.0, -26715.699042761215, -45389.329837480764, 10213.674332341472, -21977.375087425124, 0.098, 1.008, 0.098, 192.0, 0.0, 0.0, 0.0, 0.0, 0.0, 0.0, 0.0, 0.0, 0.0, 1.695334837677553E9, 0.0, 2023-09-21 17:20:37.677
40.0, 7353.276890906917, 27009.44566839286, 187500.0, -44513.946117633124, 2511.4420069983016, -12312.301970994708, -187500.02235174447, -21263.415666033707, -6560.795791244005, 6041.073029169206, -46167.88580034802, 187500.0, -26709.909940947287, -45383.25016298892, 10194.16125943199, -21964.96986925243, 0.098, 1.008, 0.098, 192.0, 0.0, 0.0, 0.0, 0.0, 0.0, 0.0, 0.0, 0.0, 0.0, 1.695334837677562E9, 0.0, 2023-09-21 17:20:37.677
42.0, 7370.867713793245, 27025.829497078597, 187500.0, -44501.69736167161, 2507.1504720628827, -12301.081395278145, -187500.02235174447, -21255.793721174447, -6565.847285490905, 6044.336383859681, -46175.686559162925, 187500.0, -26724.729147521157, -45389.53100318086, 10222.436216167953, -21971.54128212229, 0.106, 1.01, 0.098, 192.0, 1.5, 40.0, 15.5, 72.0, 1.5, 8.0, 0.0, 0.0, 0.0, 1.695334837677572E9, 0.0, 2023-09-21 17:20:37.677
44.0, 7365.525646868426, 27017.58170337459, 187500.0, -44512.269736798975, 2510.011495353162, -12310.335017482641, -187500.02235174447, -21264.645011978748, -6552.033907417525, 6045.923357716008, -46160.42031769995, 187500.0, -26698.979937908643, -45380.255029231914, 10186.785183761738, -21966.86976753113, 0.106, 1.01, 0.098, 192.0, 0.0, 0.0, 0.0, 0.0, 0.0, 0.0, 0.0, 0.0, 0.0, 1.695334837677581E9, 0.0, 2023-09-21 17:20:37.677
46.0, 7359.6024345877695, 27003.321290412106, 187500.0, -44525.18904509414, 2509.4974052306898, -12322.114386810588, -187500.02235174447, -21277.743134229557, -6563.2991866229995, 6040.111904157628, -46170.12097479355, 187500.0, -26712.346281092916, -45396.59415442874, 10201.336169402144, -21970.624860599622, 0.106, 1.01, 0.098, 192.0, 0.0, 0.0, 0.0, 0.0, 0.0, 0.0, 0.0, 0.0, 0.0, 1.69533483773779E9, 0.0, 2023-09-21 17:20:37.737
48.0, 7343.97856521351, 26988.189159415862, 187500.0, -44531.91692017519, 2496.1534137908716, -12321.555593199206, -187500.02235174447, -21283.129904643287, -6585.8968002673155, 6015.94966840144, -46187.644742446515, 187500.0, -26730.808822013, -45406.540680711354, 10196.35173038861, -21987.366317196647, 0.106, 1.01, 0.098, 192.0, 0.0, 0.0, 0.0, 0.0, 0.0, 0.0, 0.0, 0.0, 0.0, 1.69533483773782E9, 0.0, 2023-09-21 17:20:37.737
50.0, 7359.714193310046, 26998.985051987776, 187500.0, -44519.17642583566, 2524.361315293469, -12308.122194781567, -187500.02235174447, -21274.904462683735, -6587.908457268293, 6025.203290605938, -46188.404701757994, 187500.0, -26730.518249335084, -45395.25304976142, 10203.124308958568, -21982.650099116578, 0.106, 1.01, 0.098, 192.0, 0.0, 0.0, 0.0, 0.0, 0.0, 0.0, 0.0, 0.0, 0.0, 1.695334837737832E9, 0.0, 2023-09-21 17:20:37.737
52.0, 7346.347850125772, 27000.795543288656, 187500.0, -44511.88975714323, 2514.1912715663043, -12304.68002613545, -187500.02235174447, -21264.600308489837, -6590.456556136198, 6031.998220920351, -46185.834251145636, 187500.0, -26728.439537100738, -45381.28320947686, 10182.091317426124, -21975.743410079886, 0.096, 1.012, 0.096, 192.0, 1.5, 0.0, 15.5, 80.0, 1.5, 0.0, 0.0, 0.0, 0.0, 1.695334837737871E9, 0.0, 2023-09-21 17:20:37.737
54.0, 7356.763763041946, 27007.076383480595, 187500.0, -44508.8052164084, 2534.196082853804, -12302.400148201008, -187500.02235174447, -21253.78206417347, -6583.035776977036, 6049.38787810658, -46176.02183532975, 187500.0, -26716.77192649507, -45360.85371504471, 10175.2516836228, -21962.71234306244, 0.096, 1.012, 0.096, 192.0, 0.0, 0.0, 0.0, 0.0, 0.0, 0.0, 0.0, 0.0, 0.0, 1.695334837737881E9, 0.0, 2023-09-21 17:20:37.737
56.0, 7342.413943101638, 26987.89858673794, 187500.0, -44509.56517571988, 2527.0211728836507, -12311.407901216497, -187500.02235174447, -21260.420532276694, -6584.265122922078, 6042.5258925588005, -46171.10445154959, 187500.0, -26714.313234604986, -45378.48924141994, 10180.839619736627, -21975.54224437979, 0.096, 1.012, 0.096, 192.0, 0.0, 0.0, 0.0, 0.0, 0.0, 0.0, 0.0, 0.0, 0.0, 1.695334837737902E9, 0.0, 2023-09-21 17:20:37.737
58.0, 7340.648155289669, 26987.04922044864, 187500.0, -44514.773132177965, 2524.674239715843, -12323.611953689093, -187500.02235174447, -21265.852006179335, -6588.467250879676, 6042.794113492265, -46171.976169583344, 187500.0, -26723.075118431465, -45382.17727925507, 10184.594712805118, -21977.240976958394, 0.096, 1.012, 0.096, 192.0, 0.0, 0.0, 0.0, 0.0, 0.0, 0.0, 0.0, 0.0, 0.0, 1.695334837737911E9, 0.0, 2023-09-21 17:20:37.737
60.0, 7320.173957368607, 26981.841263990555, 187500.0, -44508.224071052566, 2508.8715563859414, -12322.047331577221, -187500.02235174447, -21258.632392720272, -6593.87637303786, 6039.173130890505, -46175.93242835193, 187500.0, -26728.66305454529, -45384.0101223004, 10190.696739041417, -21977.73271533641, 0.096, 1.012, 0.096, 192.0, 0.0, 0.0, 0.0, 0.0, 0.0, 0.0, 0.0, 0.0, 0.0, 1.695334837798094E9, 0.0, 2023-09-21 17:20:37.798
62.0, 7321.403303313649, 26972.699400508332, 187500.0, -44508.31347803038, 2520.40505652488, -12321.242668776831, -187500.02235174447, -21265.15910210122, -6599.643123107329, 6034.76983723281, -46182.749710410804, 187500.0, -26735.94972323772, -45384.099529278225, 10182.985387204337, -21972.21183445595, 0.096, 1.014, 0.092, 192.0, 1.5, 0.0, 15.5, 88.0, 1.0, 112.0, 0.0, 0.0, 0.0, 1.69533483779812E9, 0.0, 2023-09-21 17:20:37.798
64.0, 7315.100111377253, 26969.43604581786, 187500.0, -44501.67500992716, 2511.1737860648377, -12317.018189074779, -187500.02235174447, -21263.30390731143, -6606.281591210555, 6023.884537683075, -46192.04803610421, 187500.0, -26726.22671439966, -45395.78949162835, 10206.007683993303, -21972.614165856143, 0.096, 1.014, 0.092, 192.0, 0.0, 0.0, 0.0, 0.0, 0.0, 0.0, 0.0, 0.0, 0.0, 1.695334837798131E9, 0.0, 2023-09-21 17:20:37.798
66.0, 7350.840550761289, 27006.316424169116, 187500.0, -44474.025902035944, 2552.5021615627006, -12289.458488161385, -187500.02235174447, -21237.666456421193, -6576.933750740737, 6048.203235650449, -46167.28230324773, 187500.0, -26712.681557259748, -45366.285188947346, 10176.816305734672, -21950.083607445195, 0.096, 1.014, 0.092, 192.0, 0.0, 0.0, 0.0, 0.0, 0.0, 0.0, 0.0, 0.0, 0.0, 1.69533483779814E9, 0.0, 2023-09-21 17:20:37.798
68.0, 7346.772533270423, 26997.19691243135, 187500.0, -44490.81206212188, 2529.211643840271, -12303.920066823968, -187500.02235174447, -21262.141616599754, -6571.167000671268, 6057.7250787884095, -46167.32700673664, 187500.0, -26711.38515608134, -45361.83719180074, 10208.265210183288, -21946.23910739888, 0.096, 1.014, 0.092, 192.0, 0.0, 0.0, 0.0, 0.0, 0.0, 0.0, 0.0, 0.0, 0.0, 1.69533483779815E9, 0.0, 2023-09-21 17:20:37.798
70.0, 7362.664623578146, 26997.19691243135, 187500.0, -44493.248402267505, 2528.362277550969, -12304.076529035156, -187500.02235174447, -21262.789817188957, -6575.749108284606, 6048.67262228401, -46167.25995150327, 187500.0, -26718.47065907367, -45369.39208142663, 10203.414881636487, -21960.588927339188, 0.096, 1.014, 0.092, 192.0, 0.0, 0.0, 0.0, 0.0, 0.0, 0.0, 0.0, 0.0, 0.0, 1.695334837798159E9, 0.0, 2023-09-21 17:20:37.798
72.0, 7357.143742697685, 26993.374764129494, 187500.0, -44504.89366112872, 2503.104806316472, -12304.523563924262, -187500.02235174447, -21263.147445100243, -6575.011500717581, 6058.395631122069, -46161.53790492271, 187500.0, -26720.10233641891, -45363.40181391261, 10216.289486442744, -21963.5840610962, 0.092, 1.01, 0.096, 192.0, 1.0, 112.0, 15.5, 72.0, 1.5, 0.0, 0.0, 0.0, 0.0, 1.695334837798168E9, 0.0, 2023-09-21 17:20:37.798
74.0, 7355.020326974432, 26985.551653570135, 187500.0, -44515.421332767175, 2525.300088560592, -12306.490517436328, -187500.02235174447, -21267.081352124376, -6575.726756540151, 6045.5210263158115, -46160.308558977675, 187500.0, -26724.19270565423, -45370.44261341603, 10177.039823179224, -21977.375087425124, 0.092, 1.01, 0.096, 192.0, 0.0, 0.0, 0.0, 0.0, 0.0, 0.0, 0.0, 0.0, 0.0, 1.695334837798207E9, 0.0, 2023-09-21 17:20:37.798
76.0, 7348.6277280602135, 26991.20664491733, 187500.0, -44516.27069905648, 2515.3759140224356, -12313.86659310658, -187500.02235174447, -21267.55073875794, -6595.329236427455, 6037.630860523089, -46174.32310275115, 187500.0, -26737.00025522712, -45390.13450028116, 10221.475091156375, -21988.282738719314, 0.092, 1.01, 0.096, 192.0, 0.0, 0.0, 0.0, 0.0, 0.0, 0.0, 0.0, 0.0, 0.0, 1.695334837858334E9, 0.0, 2023-09-21 17:20:37.858
78.0, 7348.270100148929, 26987.138627426462, 187500.0, -44513.49908274401, 2526.350620549991, -12313.1066337951, -187500.02235174447, -21264.756770701024, -6590.97064625867, 6041.810636736231, -46165.71768113586, 187500.0, -26731.971112724677, -45377.63987513064, 10193.781279776249, -21982.180712483016, 0.092, 1.01, 0.096, 192.0, 0.0, 0.0, 0.0, 0.0, 0.0, 0.0, 0.0, 0.0, 0.0, 1.695334837858357E9, 0.0, 2023-09-21 17:20:37.858
80.0, 7368.833705047811, 27008.43983989237, 187500.0, -44496.19883253561, 2526.328268805536, -12292.028938773745, -187500.02235174447, -21248.93173562667, -6584.533343855542, 6053.72411653091, -46158.363957210066, 187500.0, -26731.56878132448, -45367.5592383813, 10229.164091249, -21970.40134315507, 0.092, 1.01, 0.096, 192.0, 0.0, 0.0, 0.0, 0.0, 0.0, 0.0, 0.0, 0.0, 0.0, 1.695334837858367E9, 0.0, 2023-09-21 17:20:37.858
82.0, 7374.667510350646, 26998.895645009954, 187500.0, -44505.36304776229, 2534.754876465187, -12297.773337098759, -187500.02235174447, -21254.20674731812, -6566.786058758028, 6053.254729897348, -46145.13172449252, 187500.0, -26715.922560205767, -45364.63115985765, 10186.405204105999, -21960.611279083645, 0.092, 1.006, 0.10200000000000001, 192.0, 1.0, 112.0, 15.5, 56.0, 1.5, 24.0, 0.0, 0.0, 0.0, 1.695334837858377E9, 0.0, 2023-09-21 17:20:37.858
84.0, 7379.227266219529, 27003.09777296755, 187500.0, -44503.23963203903, 2512.581945965522, -12291.827773073646, -187500.02235174447, -21250.652819949726, -6582.834611276939, 6049.5666920622225, -46163.32604447914, 187500.0, -26740.174202939776, -45384.70302637852, 10221.318628945188, -21975.609299613156, 0.092, 1.006, 0.10200000000000001, 192.0, 0.0, 0.0, 0.0, 0.0, 0.0, 0.0, 0.0, 0.0, 0.0, 1.695334837858387E9, 0.0, 2023-09-21 17:20:37.858
86.0, 7379.070804008342, 27008.842171292566, 187500.0, -44500.28920177093, 2499.170899292338, -12300.612008644583, -187500.02235174447, -21256.48662525256, -6560.885198221827, 6055.065221198228, -46139.07440174513, 187500.0, -26725.310292876995, -45364.184124968546, 10175.765773745272, -21961.86297677314, 0.092, 1.006, 0.10200000000000001, 192.0, 0.0, 0.0, 0.0, 0.0, 0.0, 0.0, 0.0, 0.0, 0.0, 1.695334837858396E9, 0.0, 2023-09-21 17:20:37.858
88.0, 7382.468269165549, 27010.026813748696, 187500.0, -44503.440797739124, 2498.5674021920445, -12299.695587121914, -187500.02235174447, -21257.671267708694, -6574.050375706002, 6061.4801718569015, -46149.0432797722, 187500.0, -26727.947798722722, -45379.71858736499, 10206.812346793693, -21969.283755932305, 0.092, 1.006, 0.10200000000000001, 192.0, 0.0, 0.0, 0.0, 0.0, 0.0, 0.0, 0.0, 0.0, 0.0, 1.695334837858406E9, 0.0, 2023-09-21 17:20:37.858
90.0, 7376.612112118258, 27013.893665539465, 187500.0, -44505.02777159545, 2496.2204690242374, -12305.372930213563, -187500.02235174447, -21261.78398868847, -6569.356509370388, 6059.3120526447365, -46142.58362562462, 187500.0, -26721.488144575138, -45372.54367739483, 10182.314834870676, -21971.004840255362, 0.092, 1.006, 0.10200000000000001, 192.0, 0.0, 0.0, 0.0, 0.0, 0.0, 0.0, 0.0, 0.0, 0.0, 1.695334837917594E9, 0.0, 2023-09-21 17:20:37.917
92.0, 7375.673338851135, 27005.042374735163, 187500.0, -44517.20947232359, 2483.748195618176, -12315.788843129736, -187500.02235174447, -21262.43218927767, -6567.881294236337, 6066.755183548354, -46142.36010818006, 187500.0, -26731.09939469092, -45372.722491350476, 10202.766681047284, -21973.664697845543, 0.10400000000000001, 1.002, 0.108, 192.0, 1.5, 32.0, 15.5, 40.0, 1.5, 48.0, 0.0, 0.0, 0.0, 1.695334837917621E9, 0.0, 2023-09-21 17:20:37.917
94.0, 7367.514952124948, 26997.711002553824, 187500.0, -44517.32123104587, 2490.1854980213047, -12310.133851782544, -187500.02235174447, -21255.39138977425, -6577.984282730136, 6048.203235650449, -46148.73035534983, 187500.0, -26743.459909374706, -45383.58543915575, 10196.888172255538, -21985.73463985141, 0.10400000000000001, 1.002, 0.108, 192.0, 0.0, 0.0, 0.0, 0.0, 0.0, 0.0, 0.0, 0.0, 0.0, 1.695334837917632E9, 0.0, 2023-09-21 17:20:37.917
96.0, 7378.7355278415125, 26996.079325208586, 187500.0, -44512.18032982115, 2499.036788825606, -12302.131927267543, -187500.02235174447, -21249.803453660425, -6574.9220937397595, 6052.271253141314, -46148.03745127171, 187500.0, -26745.58332509796, -45383.38427345565, 10212.601448607618, -21972.658869345054, 0.10400000000000001, 1.002, 0.108, 192.0, 0.0, 0.0, 0.0, 0.0, 0.0, 0.0, 0.0, 0.0, 0.0, 1.695334837917671E9, 0.0, 2023-09-21 17:20:37.917
98.0, 7375.740394084501, 27003.231883434284, 187500.0, -44495.081245312846, 2508.4692249857458, -12285.636339859528, -187500.02235174447, -21240.572183200384, -6567.098983180402, 6052.204197907949, -46140.035526756714, 187500.0, -26722.851600986913, -45365.94991278052, 10198.519849600774, -21961.170072695026, 0.10400000000000001, 1.002, 0.108, 192.0, 0.0, 0.0, 0.0, 0.0, 0.0, 0.0, 0.0, 0.0, 0.0, 1.695334837917681E9, 0.0, 2023-09-21 17:20:37.917
100.0, 7372.968777772043, 26992.01130771772, 187500.0, -44507.799387907915, 2504.2223935392376, -12301.729595867348, -187500.02235174447, -21249.11054958231, -6575.3020733955, 6060.362584634136, -46147.25514021578, 187500.0, -26723.18687715374, -45370.42026167158, 10209.762777061795, -21958.68902906049, 0.10400000000000001, 1.002, 0.108, 192.0, 0.0, 0.0, 0.0, 0.0, 0.0, 0.0, 0.0, 0.0, 0.0, 1.69533483791769E9, 0.0, 2023-09-21 17:20:37.917
102.0, 7366.911455024655, 26995.09584845255, 187500.0, -44499.57394594836, 2497.1592422913604, -12298.265075476775, -187500.02235174447, -21242.025046589977, -6575.391480373321, 6054.081744442195, -46148.842114072104, 187500.0, -26724.505630076605, -45371.940180294536, 10197.961055989392, -21966.02040124183, 0.11, 1.006, 0.10400000000000001, 192.0, 1.5, 56.0, 15.5, 56.0, 1.5, 32.0, 0.0, 0.0, 0.0, 1.695334837917699E9, 0.0, 2023-09-21 17:20:37.917
104.0, 7373.281702194417, 26997.19691243135, 187500.0, -44503.35139076131, 2505.7646639066534, -12306.334055225141, -187500.02235174447, -21245.735436169558, -6568.216570403168, 6063.044793968773, -46147.81393382716, 187500.0, -26726.91961847778, -45375.94114255204, 10195.144736188024, -21959.44898837197, 0.11, 1.006, 0.10400000000000001, 192.0, 0.0, 0.0, 0.0, 0.0, 0.0, 0.0, 0.0, 0.0, 0.0, 1.695334837917709E9, 0.0, 2023-09-21 17:20:37.917
106.0, 7369.303091681372, 27002.270758422706, 187500.0, -44499.70805641509, 2484.8657828409414, -12308.166898270476, -187500.02235174447, -21243.58966870185, -6565.713175024173, 6061.703689301454, -46145.60111112608, 187500.0, -26731.99346446913, -45376.25406697441, 10213.026131752269, -21956.6326685706, 0.11, 1.006, 0.10400000000000001, 192.0, 0.0, 0.0, 0.0, 0.0, 0.0, 0.0, 0.0, 0.0, 0.0, 1.695334837977422E9, 0.0, 2023-09-21 17:20:37.977
108.0, 7369.8171818038445, 26996.749877542246, 187500.0, -44512.560309476896, 2499.2826580146143, -12321.53324145475, -187500.02235174447, -21255.525500240983, -6561.935730211227, 6066.710480059443, -46138.40384941147, 187500.0, -26742.409377385306, -45375.225886729466, 10206.387663649042, -21959.605450583156, 0.11, 1.006, 0.10400000000000001, 192.0, 0.0, 0.0, 0.0, 0.0, 0.0, 0.0, 0.0, 0.0, 0.0, 1.695334837977456E9, 0.0, 2023-09-21 17:20:37.977
110.0, 7364.0057282454645, 26998.00157523174, 187500.0, -44506.9053181297, 2470.8959425563744, -12317.979314086357, -187500.02235174447, -21256.151349085732, -6569.53532332603, 6055.959290976441, -46149.17739023893, 187500.0, -26757.67561884828, -45386.98290431296, 10220.178689977967, -21975.765761824343, 0.11, 1.006, 0.10400000000000001, 192.0, 0.0, 0.0, 0.0, 0.0, 0.0, 0.0, 0.0, 0.0, 0.0, 1.695334837977467E9, 0.0, 2023-09-21 17:20:37.977
112.0, 7362.664623578146, 26987.563310571113, 187500.0, -44517.45534151261, 2488.3079514870587, -12328.909317125, -187500.02235174447, -21266.63431723527, -6567.791887258517, 6055.5793113207, -46151.39021294001, 187500.0, -26735.592095326436, -45380.23267748746, 10197.558724589197, -21977.844474058686, 0.112, 1.004, 0.10200000000000001, 192.0, 1.5, 64.0, 15.5, 48.0, 1.5, 24.0, 0.0, 0.0, 0.0, 1.695334837977476E9, 0.0, 2023-09-21 17:20:37.977
114.0, 7355.959100241555, 26989.664374549913, 187500.0, -44505.16188206219, 2479.791936849587, -12304.344749968619, -187500.02235174447, -21244.751959413526, -6571.189352415723, 6050.281947884792, -46157.62634964304, 187500.0, -26736.35205463792, -45371.7613663389, 10223.21852722389, -21976.30220369127, 0.112, 1.004, 0.10200000000000001, 192.0, 0.0, 0.0, 0.0, 0.0, 0.0, 0.0, 0.0, 0.0, 0.0, 1.695334837977486E9, 0.0, 2023-09-21 17:20:37.977
116.0, 7355.534417096904, 26981.885967479466, 187500.0, -44517.67885895716, 2491.884230599908, -12315.34180824063, -187500.02235174447, -21249.66934319369, -6571.032890204536, 6051.041907196272, -46163.728375879335, 187500.0, -26734.318045892483, -45369.213267470994, 10197.804593778204, -21969.52962512131, 0.112, 1.004, 0.10200000000000001, 192.0, 0.0, 0.0, 0.0, 0.0, 0.0, 0.0, 0.0, 0.0, 0.0, 1.695334837977496E9, 0.0, 2023-09-21 17:20:37.977
118.0, 7364.497466623482, 26994.71586879681, 187500.0, -44502.94905936111, 2480.9095240723523, -12305.663502891482, -187500.02235174447, -21245.35545651382, -6578.140744941324, 6047.778552505798, -46176.53592545223, 187500.0, -26751.372426911883, -45380.187973998545, 10231.22045173889, -21982.806561327765, 0.112, 1.004, 0.10200000000000001, 192.0, 0.0, 0.0, 0.0, 0.0, 0.0, 0.0, 0.0, 0.0, 0.0, 1.695334837977568E9, 0.0, 2023-09-21 17:20:37.977
120.0, 7375.9192080401435, 26996.81693277561, 187500.0, -44510.794521664924, 2503.9318208613186, -12308.81509885968, -187500.02235174447, -21248.328238526374, -6548.457628304676, 6069.884427772096, -46152.28428271822, 187500.0, -26732.708720291703, -45355.869276031175, 10190.607332063597, -21969.619032099134, 0.112, 1.004, 0.10200000000000001, 192.0, 0.0, 0.0, 0.0, 0.0, 0.0, 0.0, 0.0, 0.0, 0.0, 1.695334838037746E9, 0.0, 2023-09-21 17:20:38.037
122.0, 7385.262237222462, 27015.30182544015, 187500.0, -44507.33000127435, 2489.2467247541817, -12305.99877905831, -187500.02235174447, -21244.14846231323, -6558.58296854293, 6072.544285362278, -46157.98397755432, 187500.0, -26740.777700040067, -45368.520363392876, 10230.192271493945, -21976.324555435724, 0.106, 1.008, 0.11, 192.0, 1.5, 40.0, 15.5, 64.0, 1.5, 56.0, 0.0, 0.0, 0.0, 1.695334838037773E9, 0.0, 2023-09-21 17:20:38.037
124.0, 7395.812260605367, 27015.48063939579, 187500.0, -44510.39219026473, 2508.201004052282, -12311.542011683228, -187500.02235174447, -21246.227174547574, -6544.434314302721, 6077.998111009373, -46139.409677911965, 187500.0, -26734.116880192385, -45356.65158708711, 10193.155430931502, -21968.97083150993, 0.106, 1.008, 0.11, 192.0, 0.0, 0.0, 0.0, 0.0, 0.0, 0.0, 0.0, 0.0, 0.0, 1.695334838037782E9, 0.0, 2023-09-21 17:20:38.037
126.0, 7409.737397401023, 27027.863505824032, 187500.0, -44500.64682968221, 2481.647131639377, -12304.188287757432, -187500.02235174447, -21241.220383789587, -6551.743334739606, 6084.793041323786, -46142.71773609135, 187500.0, -26756.826252558978, -45355.06461323078, 10227.197137736934, -21973.307069934257, 0.106, 1.008, 0.11, 192.0, 0.0, 0.0, 0.0, 0.0, 0.0, 0.0, 0.0, 0.0, 0.0, 1.695334838037791E9, 0.0, 2023-09-21 17:20:38.037
128.0, 7416.934659115632, 27036.670093139423, 187500.0, -44489.672123154654, 2502.2777917716257, -12292.364214940575, -187500.02235174447, -21226.132956282254, -6538.9357851667155, 6092.459689671957, -46124.165788193444, 187500.0, -26746.38798789835, -45332.869330986665, 10176.279863867745, -21962.220604684426, 0.106, 1.008, 0.11, 192.0, 0.0, 0.0, 0.0, 0.0, 0.0, 0.0, 0.0, 0.0, 0.0, 1.6953348380378E9, 0.0, 2023-09-21 17:20:38.037
130.0, 7417.47110098256, 27035.284284983194, 187500.0, -44489.87328885475, 2492.2195067667376, -12292.900656807502, -187500.02235174447, -21226.647046404727, -6543.562596268964, 6097.265314729848, -46134.46994238734, 187500.0, -26757.854432803924, -45341.87708400215, 10212.892021285537, -21955.090398203185, 0.106, 1.008, 0.11, 192.0, 0.0, 0.0, 0.0, 0.0, 0.0, 0.0, 0.0, 0.0, 0.0, 1.695334838037809E9, 0.0, 2023-09-21 17:20:38.037
132.0, 7426.344743531316, 27043.19680252037, 187500.0, -44483.61480040727, 2513.7442366771984, -12285.323415437153, -187500.02235174447, -21213.39246194273, -6530.375067040332, 6099.411082197557, -46122.914090503946, 187500.0, -26747.10324372092, -45327.616671039665, 10177.39745109051, -21942.43931084148, 0.1, 1.008, 0.112, 192.0, 1.5, 16.0, 15.5, 64.0, 1.5, 64.0, 0.0, 0.0, 0.0, 1.695334838037818E9, 0.0, 2023-09-21 17:20:38.037
134.0, 7416.733493415534, 27020.241560964772, 187500.0, -44512.02386760996, 2506.1893470513046, -12313.620723917571, -187500.02235174447, -21231.653837162714, -6530.442122273698, 6098.226439741426, -46126.4903696168, 187500.0, -26744.644551830836, -45343.285243902836, 10208.712245072395, -21946.172052165515, 0.1, 1.008, 0.112, 192.0, 0.0, 0.0, 0.0, 0.0, 0.0, 0.0, 0.0, 0.0, 0.0, 1.695334838037827E9, 0.0, 2023-09-21 17:20:38.037
136.0, 7400.483775196526, 27008.81981954811, 187500.0, -44520.36106829179, 2503.395378994391, -12321.801462388214, -187500.02235174447, -21239.29813376643, -6547.004764915081, 6063.625939324611, -46141.66720410195, 187500.0, -26752.042979245543, -45365.9052092916, 10201.000893235314, -21969.55197686577, 0.1, 1.008, 0.112, 192.0, 0.0, 0.0, 0.0, 0.0, 0.0, 0.0, 0.0, 0.0, 0.0, 1.695334838097977E9, 0.0, 2023-09-21 17:20:38.097
138.0, 7393.375920459738, 26999.05210722114, 187500.0, -44525.412562538695, 2486.92214333083, -12329.378703758563, -187500.02235174447, -21249.714046682602, -6562.427468589243, 6062.933035246496, -46155.45823043087, 187500.0, -26764.7164183517, -45380.43384318756, 10238.775341364782, -21971.496578633378, 0.1, 1.008, 0.112, 192.0, 0.0, 0.0, 0.0, 0.0, 0.0, 0.0, 0.0, 0.0, 0.0, 1.695334838097999E9, 0.0, 2023-09-21 17:20:38.097
140.0, 7390.738414614012, 27012.127877727497, 187500.0, -44504.89366112872, 2506.3458092624915, -12309.351540726608, -187500.02235174447, -21228.815165616892, -6552.547997539998, 6054.81935200922, -46145.0423175147, 187500.0, -26755.351037424927, -45365.39111916914, 10201.760852546795, -21969.663735588045, 0.1, 1.008, 0.112, 192.0, 0.0, 0.0, 0.0, 0.0, 0.0, 0.0, 0.0, 0.0, 0.0, 1.695334838098036E9, 0.0, 2023-09-21 17:20:38.098
142.0, 7398.740339129012, 27016.285302196182, 187500.0, -44508.17936756365, 2514.660658199866, -12310.513831438284, -187500.02235174447, -21228.658703405705, -6542.847340446394, 6075.651177841566, -46140.77313432373, 187500.0, -26756.20040371423, -45359.154982466105, 10217.943515532437, -21957.884366260096, 0.098, 1.004, 0.11, 192.0, 1.5, 8.0, 15.5, 48.0, 1.5, 56.0, 0.0, 0.0, 0.0, 1.695334838098045E9, 0.0, 2023-09-21 17:20:38.098
144.0, 7389.12908901323, 27010.71971782681, 187500.0, -44518.99761188002, 2486.2515909971703, -12325.44479673443, -187500.02235174447, -21243.902593124225, -6547.675317248741, 6067.738660304387, -46143.72356459183, 187500.0, -26763.19649972874, -45361.72543307846, 10198.609256578597, -21963.874633774118, 0.098, 1.004, 0.11, 192.0, 0.0, 0.0, 0.0, 0.0, 0.0, 0.0, 0.0, 0.0, 0.0, 1.695334838098054E9, 0.0, 2023-09-21 17:20:38.098
146.0, 7393.46532743756, 27006.96462475832, 187500.0, -44529.63704224075, 2476.39447169238, -12334.229032305364, -187500.02235174447, -21247.523575725983, -6560.795791244005, 6059.915549745029, -46155.3911751975, 187500.0, -26781.52493018209, -45388.88280259166, 10227.73357960386, -21984.30412820627, 0.098, 1.004, 0.11, 192.0, 0.0, 0.0, 0.0, 0.0, 0.0, 0.0, 0.0, 0.0, 0.0, 1.695334838098063E9, 0.0, 2023-09-21 17:20:38.098
148.0, 7385.888086067211, 27001.66726132241, 187500.0, -44517.38828627924, 2474.1145937579386, -12325.891831623536, -187500.02235174447, -21241.332142511863, -6555.274910363545, 6058.239168910882, -46149.22209372784, 187500.0, -26783.246014505152, -45376.43288093006, 10223.956134790915, -21978.470322903435, 0.098, 1.004, 0.11, 192.0, 0.0, 0.0, 0.0, 0.0, 0.0, 0.0, 0.0, 0.0, 0.0, 1.695334838098072E9, 0.0, 2023-09-21 17:20:38.098
150.0, 7392.861830337266, 26999.34267989906, 187500.0, -44514.16963507768, 2485.5363351746005, -12325.265982778787, -187500.02235174447, -21240.23690703355, -6549.061125404969, 6071.985491750896, -46143.61180586956, 187500.0, -26773.902985322835, -45366.55340988081, 10222.302105701221, -21965.036924485794, 0.098, 1.004, 0.11, 192.0, 0.0, 0.0, 0.0, 0.0, 0.0, 0.0, 0.0, 0.0, 0.0, 1.695334838158327E9, 0.0, 2023-09-21 17:20:38.158
152.0, 7383.742318599501, 27003.187179945373, 187500.0, -44512.1579780767, 2469.4654309112348, -12323.634305433548, -187500.02235174447, -21240.43807273365, -6562.852151733894, 6058.887369500086, -46153.75949785227, 187500.0, -26781.9719650712, -45374.242409973434, 10229.275849971276, -21973.150607723073, 0.098, 1.004, 0.108, 192.0, 1.5, 8.0, 15.5, 48.0, 1.5, 48.0, 0.0, 0.0, 0.0, 1.695334838158359E9, 0.0, 2023-09-21 17:20:38.158
154.0, 7398.069786795353, 27013.916017283922, 187500.0, -44510.23572805354, 2500.243783026193, -12321.645000177026, -187500.02235174447, -21238.426415732672, -6549.306994593978, 6075.91939877503, -46139.968471523345, 187500.0, -26772.651287633336, -45362.48539238994, 10222.860899312604, -21963.606412840654, 0.098, 1.004, 0.108, 192.0, 0.0, 0.0, 0.0, 0.0, 0.0, 0.0, 0.0, 0.0, 0.0, 1.695334838158369E9, 0.0, 2023-09-21 17:20:38.158
156.0, 7381.864772065255, 26997.621595576, 187500.0, -44522.95387064861, 2480.1272130164166, -12330.093959581132, -187500.02235174447, -21244.34962801333, -6557.644195275807, 6069.795020794275, -46151.077288517634, 187500.0, -26786.509369195628, -45371.42609017206, 10226.705399358916, -21973.61999435663, 0.098, 1.004, 0.108, 192.0, 0.0, 0.0, 0.0, 0.0, 0.0, 0.0, 0.0, 0.0, 0.0, 1.695334838158384E9, 0.0, 2023-09-21 17:20:38.158
158.0, 7391.699539625591, 27005.310595668627, 187500.0, -44516.605975223305, 2497.271001013637, -12321.309724010198, -187500.02235174447, -21233.285514507952, -6560.43816333272, 6064.385898636091, -46156.70992812037, 187500.0, -26779.759142370123, -45375.292941962834, 10218.032922510258, -21975.654003102067, 0.098, 1.004, 0.108, 192.0, 0.0, 0.0, 0.0, 0.0, 0.0, 0.0, 0.0, 0.0, 0.0, 1.695334838158394E9, 0.0, 2023-09-21 17:20:38.158
160.0, 7386.335120956317, 27003.254235178738, 187500.0, -44513.56613797738, 2479.5460676605785, -12319.990971087334, -187500.02235174447, -21236.660627920704, -6553.0844394069245, 6062.709517801943, -46151.83724782911, 187500.0, -26777.032229546578, -45370.59907562722, 10220.424559166975, -21967.54031986479, 0.098, 1.004, 0.108, 192.0, 0.0, 0.0, 0.0, 0.0, 0.0, 0.0, 0.0, 0.0, 0.0, 1.695334838158407E9, 0.0, 2023-09-21 17:20:38.158
162.0, 7394.918190827155, 27004.461229379325, 187500.0, -44520.89751015872, 2494.6334951679105, -12326.33886651264, -187500.02235174447, -21241.130976811764, -6547.34004108191, 6063.894160258074, -46144.170599480945, 187500.0, -26767.800959086533, -45368.8109360708, 10201.358521146598, -21963.53935760729, 0.096, 1.0, 0.106, 192.0, 1.5, 0.0, 15.5, 32.0, 1.5, 40.0, 0.0, 0.0, 0.0, 1.695334838158466E9, 0.0, 2023-09-21 17:20:38.158
164.0, 7387.340949456805, 27011.39027016047, 187500.0, -44517.58945197934, 2471.968826290229, -12326.092997323633, -187500.02235174447, -21243.34379951284, -6551.162189383768, 6064.7658782918315, -46150.9431780509, 187500.0, -26775.132331267876, -45373.84007857324, 10225.677219113973, -21972.994145511886, 0.096, 1.0, 0.106, 192.0, 0.0, 0.0, 0.0, 0.0, 0.0, 0.0, 0.0, 0.0, 0.0, 1.695334838158475E9, 0.0, 2023-09-21 17:20:38.158
166.0, 7400.774347874445, 27024.510744155737, 187500.0, -44513.05204785491, 2495.728730646221, -12322.494366466328, -187500.02235174447, -21242.06975007889, -6551.273948106044, 6067.112811459639, -46152.351337951586, 187500.0, -26785.347078483952, -45369.16856398208, 10195.837640266138, -21970.82602629972, 0.096, 1.0, 0.106, 192.0, 0.0, 0.0, 0.0, 0.0, 0.0, 0.0, 0.0, 0.0, 0.0, 1.695334838217663E9, 0.0, 2023-09-21 17:20:38.217
168.0, 7405.937600843621, 27029.785755847188, 187500.0, -44504.75955066199, 2483.9270095738184, -12312.458433205895, -187500.02235174447, -21232.2126307741, -6544.233148602623, 6077.01463425334, -46145.84698031509, 187500.0, -26779.73679062567, -45360.00434875541, 10216.691817842939, -21961.39359013958, 0.096, 1.0, 0.106, 192.0, 0.0, 0.0, 0.0, 0.0, 0.0, 0.0, 0.0, 0.0, 0.0, 1.695334838217685E9, 0.0, 2023-09-21 17:20:38.217
170.0, 7402.56248743087, 27014.608921362036, 187500.0, -44519.80227468041, 2494.946419590285, -12326.607087446106, -187500.02235174447, -21245.82484314738, -6540.031020645025, 6070.979663250407, -46144.32706169213, 187500.0, -26776.294621979552, -45367.402776170115, 10194.228314665355, -21963.896985518575, 0.096, 1.0, 0.106, 192.0, 0.0, 0.0, 0.0, 0.0, 0.0, 0.0, 0.0, 0.0, 0.0, 1.695334838217697E9, 0.0, 2023-09-21 17:20:38.217
172.0, 7396.773385616945, 27015.25712195124, 187500.0, -44517.030658367956, 2479.4119571938463, -12327.210584546398, -187500.02235174447, -21243.38850300175, -6552.883273706827, 6066.956349248451, -46158.67688163243, 187500.0, -26785.660002906323, -45370.688482605045, 10230.30403021622, -21971.742447822387, 0.092, 0.994, 0.106, 192.0, 1.0, 112.0, 15.5, 8.0, 1.5, 40.0, 0.0, 0.0, 0.0, 1.695334838217707E9, 0.0, 2023-09-21 17:20:38.217
174.0, 7396.7957373614, 27013.290168439173, 187500.0, -44514.86253915579, 2491.6383614108995, -12321.1085583101, -187500.02235174447, -21245.40016000273, -6549.999898672092, 6065.101154458661, -46151.9937100403, 187500.0, -26776.02640104609, -45360.36197666669, 10193.11072744259, -21967.719133820432, 0.092, 0.994, 0.106, 192.0, 0.0, 0.0, 0.0, 0.0, 0.0, 0.0, 0.0, 0.0, 0.0, 1.695334838217716E9, 0.0, 2023-09-21 17:20:38.217
176.0, 7391.297208225395, 26994.447647863348, 187500.0, -44526.41839103918, 2461.552913374056, -12334.161977071999, -187500.02235174447, -21259.370000287297, -6565.623768046352, 6059.6026253226555, -46167.014082314265, 187500.0, -26795.71828791121, -45377.55046815282, 10239.110617531613, -21980.750200837876, 0.092, 0.994, 0.106, 192.0, 0.0, 0.0, 0.0, 0.0, 0.0, 0.0, 0.0, 0.0, 0.0, 1.695334838217725E9, 0.0, 2023-09-21 17:20:38.217
178.0, 7395.119356527252, 26999.58854908807, 187500.0, -44519.958736891596, 2474.6063321359557, -12330.540994470239, -187500.02235174447, -21252.753883928526, -6571.2787593935445, 6048.762029261831, -46169.606884671084, 187500.0, -26804.97191011571, -45380.545601909835, 10212.35557941861, -21980.88431130461, 0.092, 0.994, 0.106, 192.0, 0.0, 0.0, 0.0, 0.0, 0.0, 0.0, 0.0, 0.0, 0.0, 1.695334838217734E9, 0.0, 2023-09-21 17:20:38.217
180.0, 7392.012464047964, 26988.569139071602, 187500.0, -44534.353260320815, 2464.145715730872, -12348.400038290029, -187500.02235174447, -21263.72859045608, -6556.526608053042, 6056.831009010197, -46165.02477705774, 187500.0, -26790.376220986396, -45381.573782154774, 10233.41092269551, -21977.755067080863, 0.092, 0.994, 0.106, 192.0, 0.0, 0.0, 0.0, 0.0, 0.0, 0.0, 0.0, 0.0, 0.0, 1.695334838277472E9, 0.0, 2023-09-21 17:20:38.277
182.0, 7399.545001929403, 27007.322252669604, 187500.0, -44523.24444332653, 2482.362387461947, -12342.856805665113, -187500.02235174447, -21259.034724120465, -6554.894930707805, 6033.160511632027, -46172.78083238374, 187500.0, -26788.901005852345, -45393.42020671609, 10200.196230434924, -21997.648119646088, 0.098, 1.002, 0.106, 192.0, 1.5, 8.0, 15.5, 40.0, 1.5, 40.0, 0.0, 0.0, 0.0, 1.695334838277495E9, 0.0, 2023-09-21 17:20:38.277
184.0, 7412.598420691303, 27021.672072609912, 187500.0, -44496.8023296359, 2489.582000921011, -12323.76841590028, -187500.02235174447, -21234.000770330524, -6551.788038228517, 6066.062279470239, -46153.20070424089, 187500.0, -26785.324726739495, -45371.33668319425, 10226.59364063664, -21974.02232575683, 0.098, 1.002, 0.106, 192.0, 0.0, 0.0, 0.0, 0.0, 0.0, 0.0, 0.0, 0.0, 0.0, 1.69533483827753E9, 0.0, 2023-09-21 17:20:38.277
186.0, 7395.253466993984, 27009.222150948306, 187500.0, -44502.03263783844, 2490.9007538438746, -12328.238764791342, -187500.02235174447, -21248.93173562667, -6552.458590562176, 6062.955386990951, -46147.61276812706, 187500.0, -26775.19938650124, -45363.31240693479, 10206.521774115774, -21959.00195348286, 0.098, 1.002, 0.106, 192.0, 0.0, 0.0, 0.0, 0.0, 0.0, 0.0, 0.0, 0.0, 0.0, 1.695334838277539E9, 0.0, 2023-09-21 17:20:38.277
188.0, 7396.393405961205, 27016.68763359638, 187500.0, -44491.639076666725, 2484.5081549296565, -12307.071662792167, -187500.02235174447, -21236.81709013189, -6573.245712905612, 6069.415041138535, -46162.342567723106, 187500.0, -26796.76881990061, -45359.914941777584, 10239.781169865271, -21966.467436130933, 0.098, 1.002, 0.106, 192.0, 0.0, 0.0, 0.0, 0.0, 0.0, 0.0, 0.0, 0.0, 0.0, 1.695334838277548E9, 0.0, 2023-09-21 17:20:38.277
190.0, 7390.291379724906, 27018.006386519242, 187500.0, -44489.09097779882, 2495.4828614572125, -12294.733499852837, -187500.02235174447, -21223.696616136625, -6569.669433792763, 6074.5112388743455, -46157.8945705765, 187500.0, -26788.073991307498, -45339.97718572345, 10206.655884582506, -21950.284773145293, 0.098, 1.002, 0.106, 192.0, 0.0, 0.0, 0.0, 0.0, 0.0, 0.0, 0.0, 0.0, 0.0, 1.695334838277556E9, 0.0, 2023-09-21 17:20:38.277
192.0, 7406.116414799263, 27019.928636542398, 187500.0, -44491.03557956643, 2486.4304049528128, -12299.516773166273, -187500.02235174447, -21231.87735460727, -6562.315709866966, 6084.480116901412, -46159.28037873273, 187500.0, -26795.561825700024, -45346.3027294043, 10225.386646436054, -21948.67544754451, 0.098, 1.006, 0.098, 192.0, 1.5, 8.0, 15.5, 56.0, 1.5, 8.0, 0.0, 0.0, 0.0, 1.695334838277565E9, 0.0, 2023-09-21 17:20:38.277
194.0, 7398.203897262085, 27020.129802242496, 187500.0, -44483.592448662814, 2480.5071926721566, -12292.207752729388, -187500.02235174447, -21223.540153925438, -6551.2962998505, 6081.77555582232, -46148.73035534983, 187500.0, -26785.25767150613, -45335.7527060214, 10202.006721735803, -21947.5802120662, 0.098, 1.006, 0.098, 192.0, 0.0, 0.0, 0.0, 0.0, 0.0, 0.0, 0.0, 0.0, 0.0, 1.695334838277574E9, 0.0, 2023-09-21 17:20:38.277
196.0, 7392.7053681260795, 27009.44566839286, 187500.0, -44503.01611459447, 2491.2807334996146, -12319.454529220406, -187500.02235174447, -21248.23883154855, -6560.974605199648, 6088.883410559108, -46156.01702404225, 187500.0, -26797.417020489815, -45347.196799182515, 10218.144681232534, -21950.530642334303, 0.098, 1.006, 0.098, 192.0, 0.0, 0.0, 0.0, 0.0, 0.0, 0.0, 0.0, 0.0, 0.0, 1.695334838338425E9, 0.0, 2023-09-21 17:20:38.338
198.0, 7383.451745921582, 27014.698328339855, 187500.0, -44496.534108702435, 2480.618951394433, -12323.477843222361, -187500.02235174447, -21248.596459459837, -6566.20491340219, 6076.545247619778, -46159.548599666196, 187500.0, -26796.657061178335, -45354.394060897124, 10223.598506879629, -21971.7871513113, 0.098, 1.006, 0.098, 192.0, 0.0, 0.0, 0.0, 0.0, 0.0, 0.0, 0.0, 0.0, 0.0, 1.69533483833846E9, 0.0, 2023-09-21 17:20:38.338
200.0, 7384.770498844445, 27013.893665539465, 187500.0, -44499.059855825886, 2495.2816957571144, -12326.718846168382, -187500.02235174447, -21240.8627558783, -6574.58681757293, 6080.881486044108, -46168.10931779258, 187500.0, -26801.373279258405, -45357.6574155876, 10225.185480735956, -21974.379953668114, 0.098, 1.006, 0.098, 192.0, 0.0, 0.0, 0.0, 0.0, 0.0, 0.0, 0.0, 0.0, 0.0, 1.69533483833847E9, 0.0, 2023-09-21 17:20:38.338
202.0, 7377.774402829934, 27018.6769388529, 187500.0, -44499.752759904004, 2483.3458642179808, -12321.086206565644, -187500.02235174447, -21236.459462220606, -6571.524628582553, 6076.075860986217, -46164.354224724084, 187500.0, -26797.931110612288, -45353.81291554128, 10221.430387667464, -21970.311936177248, 0.096, 1.006, 0.096, 192.0, 1.5, 0.0, 15.5, 56.0, 1.5, 0.0, 0.0, 0.0, 0.0, 1.695334838338479E9, 0.0, 2023-09-21 17:20:38.338
204.0, 7381.037757520409, 27012.15022947195, 187500.0, -44510.41454200918, 2509.0280185971283, -12316.72761639686, -187500.02235174447, -21240.460424478108, -6573.022195461059, 6075.829991797208, -46168.44459395941, 187500.0, -26807.07297409451, -45360.71960457797, 10215.149547475523, -21972.234186200403, 0.096, 1.006, 0.096, 192.0, 0.0, 0.0, 0.0, 0.0, 0.0, 0.0, 0.0, 0.0, 0.0, 1.69533483833849E9, 0.0, 2023-09-21 17:20:38.338
206.0, 7378.355548185772, 27018.78869757518, 187500.0, -44499.84216688182, 2490.0290358101174, -12300.276732477752, -187500.02235174447, -21229.061034805898, -6586.030910734047, 6069.035061482795, -46178.1005475641, 187500.0, -26819.679357967303, -45358.529133621356, 10227.845338326137, -21978.5373781368, 0.096, 1.006, 0.096, 192.0, 0.0, 0.0, 0.0, 0.0, 0.0, 0.0, 0.0, 0.0, 0.0, 1.695334838338524E9, 0.0, 2023-09-21 17:20:38.338
208.0, 7386.111603511764, 27013.111354483528, 187500.0, -44507.46411174108, 2499.4167684813465, -12307.943380825924, -187500.02235174447, -21236.258296520507, -6570.943483226715, 6084.636579112599, -46160.42031769995, 187500.0, -26803.474343237205, -45341.78767702433, 10202.051425224714, -21964.031095985305, 0.096, 1.006, 0.096, 192.0, 0.0, 0.0, 0.0, 0.0, 0.0, 0.0, 0.0, 0.0, 0.0, 1.695334838338533E9, 0.0, 2023-09-21 17:20:38.338
210.0, 7369.683071337113, 27002.91895901191, 187500.0, -44517.81296942389, 2467.1184977434277, -12323.433139733452, -187500.02235174447, -21250.29519203844, -6592.8258410484605, 6066.889294015085, -46181.0509778322, 187500.0, -26826.96602665973, -45355.98103475345, 10233.925012817981, -21982.67245086103, 0.096, 1.006, 0.096, 192.0, 0.0, 0.0, 0.0, 0.0, 0.0, 0.0, 0.0, 0.0, 0.0, 1.695334838398125E9, 0.0, 2023-09-21 17:20:38.398
212.0, 7398.449766451093, 27028.534058157693, 187500.0, -44492.71196040058, 2501.87546037143, -12299.986159799833, -187500.02235174447, -21219.427432945664, -6579.9065327532935, 6079.62978835461, -46168.13166953703, 187500.0, -26814.985491631687, -45345.40865962609, 10205.158317704001, -21974.894043790584, 0.096, 1.0, 0.09, 192.0, 1.5, 0.0, 15.5, 32.0, 1.0, 104.0, 0.0, 0.0, 0.0, 1.695334838398163E9, 0.0, 2023-09-21 17:20:38.398
214.0, 7385.9551413005765, 27013.692499839366, 187500.0, -44504.31251577289, 2484.239933996193, -12311.631418661049, -187500.02235174447, -21216.454650933105, -6575.704404795695, 6090.984474537907, -46160.91205607797, 187500.0, -26808.950520628754, -45342.078249702245, 10208.846355539126, -21954.39749412507, 0.096, 1.0, 0.09, 192.0, 0.0, 0.0, 0.0, 0.0, 0.0, 0.0, 0.0, 0.0, 0.0, 1.695334838398174E9, 0.0, 2023-09-21 17:20:38.398
216.0, 7391.498373925492, 27015.88297079599, 187500.0, -44505.43010299565, 2494.9017161013744, -12312.48078495035, -187500.02235174447, -21218.19808700062, -6586.634407834341, 6071.270235928326, -46171.95381783889, 187500.0, -26822.160401601843, -45355.33283416425, 10195.077680954657, -21960.432465128, 0.096, 1.0, 0.09, 192.0, 0.0, 0.0, 0.0, 0.0, 0.0, 0.0, 0.0, 0.0, 0.0, 1.695334838398184E9, 0.0, 2023-09-21 17:20:38.398
218.0, 7389.754937857979, 27008.149267214452, 187500.0, -44516.09188510083, 2482.384739206402, -12325.9588868569, -187500.02235174447, -21230.849174362324, -6582.678149065751, 6080.456802899457, -46167.59522767011, 187500.0, -26822.27216032412, -45355.17637195306, 10215.753044575817, -21961.214776183937, 0.096, 1.0, 0.09, 192.0, 0.0, 0.0, 0.0, 0.0, 0.0, 0.0, 0.0, 0.0, 0.0, 1.695334838398193E9, 0.0, 2023-09-21 17:20:38.398
220.0, 7397.622751906247, 27007.29990092515, 187500.0, -44517.790617679435, 2495.2146405237486, -12327.836433391147, -187500.02235174447, -21236.705331409616, -6576.687881551729, 6066.688128314988, -46164.55539042418, 187500.0, -26818.36060504444, -45364.07236624627, 10185.935817472437, -21972.323593178226, 0.096, 1.0, 0.09, 192.0, 0.0, 0.0, 0.0, 0.0, 0.0, 0.0, 0.0, 0.0, 0.0, 1.695334838398202E9, 0.0, 2023-09-21 17:20:38.398
222.0, 7388.436184935115, 27007.188142202875, 187500.0, -44515.51073974499, 2482.988236306696, -12330.33982877014, -187500.02235174447, -21238.694636666136, -6578.654835063796, 6069.459744627446, -46173.60784692858, 187500.0, -26815.45487826525, -45372.431918672555, 10222.972658034882, -21981.73367759391, 0.094, 1.0, 0.1, 192.0, 1.0, 120.0, 15.5, 32.0, 1.5, 16.0, 0.0, 0.0, 0.0, 1.695334838398211E9, 0.0, 2023-09-21 17:20:38.398
224.0, 7389.754937857979, 27010.16092421543, 187500.0, -44511.28626004294, 2485.715149130243, -12317.331113497152, -187500.02235174447, -21230.357435984308, -6577.939579241226, 6067.96217774894, -46167.729338136836, 187500.0, -26811.54332298557, -45359.80318305531, 10186.53931457273, -21977.59860486968, 0.094, 1.0, 0.1, 192.0, 0.0, 0.0, 0.0, 0.0, 0.0, 0.0, 0.0, 0.0, 0.0, 1.695334838398221E9, 0.0, 2023-09-21 17:20:38.398
226.0, 7404.171813031651, 27021.53796214318, 187500.0, -44495.640038924226, 2487.4809369422123, -12306.110537780589, -187500.02235174447, -21219.47213643457, -6579.191276930724, 6079.272160443325, -46168.64575965951, 187500.0, -26816.08072711, -45353.09765971871, 10212.132061974056, -21967.316802420235, 0.094, 1.0, 0.1, 192.0, 0.0, 0.0, 0.0, 0.0, 0.0, 0.0, 0.0, 0.0, 0.0, 1.695334838458443E9, 0.0, 2023-09-21 17:20:38.458
228.0, 7407.546926444403, 27024.48839241128, 187500.0, -44496.42234998016, 2502.7471784051872, -12307.71986338137, -187500.02235174447, -21226.714101638092, -6560.527570310542, 6087.519954147334, -46147.56806463815, 187500.0, -26802.44616299226, -45341.4524008575, 10166.936834685426, -21954.5316045918, 0.094, 1.0, 0.1, 192.0, 0.0, 0.0, 0.0, 0.0, 0.0, 0.0, 0.0, 0.0, 0.0, 1.695334838458502E9, 0.0, 2023-09-21 17:20:38.458
230.0, 7414.408911992182, 27029.942218058375, 187500.0, -44487.883983598236, 2497.650980669377, -12305.015302302278, -187500.02235174447, -21220.254447490508, -6561.019308688558, 6090.760957093354, -46155.681747875424, 187500.0, -26811.073936352008, -45346.906226504594, 10206.342960160133, -21961.505348861858, 0.094, 1.0, 0.1, 192.0, 0.0, 0.0, 0.0, 0.0, 0.0, 0.0, 0.0, 0.0, 0.0, 1.695334838458511E9, 0.0, 2023-09-21 17:20:38.458
232.0, 7403.456557209081, 27022.029700521198, 187500.0, -44494.857727868286, 2511.4420069983016, -12318.560459442195, -187500.02235174447, -21230.603305173317, -6558.96294819867, 6085.038910512795, -46149.91499780596, 187500.0, -26798.19933154575, -45344.49223810342, 10190.763794274782, -21955.91741274803, 0.096, 1.008, 0.092, 192.0, 1.5, 0.0, 15.5, 64.0, 1.0, 112.0, 0.0, 0.0, 0.0, 1.695334838458522E9, 0.0, 2023-09-21 17:20:38.458
234.0, 7406.406987477182, 27025.33775870058, 187500.0, -44494.76832089047, 2506.390512751402, -12312.011398316788, -187500.02235174447, -21232.30203775192, -6569.44591634821, 6089.263390214848, -46160.37561421104, 187500.0, -26818.695881211268, -45354.41641264158, 10231.689838372451, -21960.05248547226, 0.096, 1.008, 0.092, 192.0, 0.0, 0.0, 0.0, 0.0, 0.0, 0.0, 0.0, 0.0, 0.0, 1.695334838458532E9, 0.0, 2023-09-21 17:20:38.458
236.0, 7401.467251952559, 27016.195895218363, 187500.0, -44496.37764649125, 2511.4420069983016, -12309.82092736017, -187500.02235174447, -21236.191241287142, -6563.388593600821, 6086.15649773556, -46152.15017225149, 187500.0, -26803.49669498166, -45329.784790251826, 10200.039768223736, -21955.090398203185, 0.096, 1.008, 0.092, 192.0, 0.0, 0.0, 0.0, 0.0, 0.0, 0.0, 0.0, 0.0, 0.0, 1.695334838458541E9, 0.0, 2023-09-21 17:20:38.458
238.0, 7402.450728708593, 27008.35043291455, 187500.0, -44500.42331223766, 2493.2700387561367, -12308.636284904038, -187500.02235174447, -21231.8102993739, -6579.414794375276, 6076.992282508884, -46169.33866373762, 187500.0, -26821.847477179468, -45354.23759868593, 10237.344829719643, -21963.226433184915, 0.096, 1.008, 0.092, 192.0, 0.0, 0.0, 0.0, 0.0, 0.0, 0.0, 0.0, 0.0, 0.0, 1.69533483845855E9, 0.0, 2023-09-21 17:20:38.458
240.0, 7405.959952588076, 27016.285302196182, 187500.0, -44487.660466153684, 2506.5693267070446, -12294.375871941553, -187500.02235174447, -21223.137822525245, -6569.937654726226, 6079.763898821342, -46154.65356763048, 187500.0, -26812.30328229705, -45337.965528722474, 10210.433329395453, -21961.12536920612, 0.096, 1.008, 0.092, 192.0, 0.0, 0.0, 0.0, 0.0, 0.0, 0.0, 0.0, 0.0, 0.0, 1.695334838518593E9, 0.0, 2023-09-21 17:20:38.518
242.0, 7419.393351005716, 27023.840191822077, 187500.0, -44485.67116089716, 2522.103789103483, -12296.253418475799, -187500.02235174447, -21218.399252700718, -6558.135933653824, 6092.146765249582, -46148.52918964973, 187500.0, -26809.956349129243, -45337.54084557782, 10223.084416757158, -21950.262421400836, 0.096, 1.004, 0.096, 192.0, 1.5, 0.0, 15.5, 48.0, 1.5, 0.0, 0.0, 0.0, 0.0, 1.695334838518644E9, 0.0, 2023-09-21 17:20:38.518
244.0, 7410.564411945869, 27032.557372159645, 187500.0, -44477.28925672642, 2507.9327831188184, -12285.099897992599, -187500.02235174447, -21216.25348523301, -6564.461477334676, 6097.734701363409, -46141.711907590856, 187500.0, -26812.459744508236, -45329.31540361827, 10209.02516949477, -21943.333380619693, 0.096, 1.004, 0.096, 192.0, 0.0, 0.0, 0.0, 0.0, 0.0, 0.0, 0.0, 0.0, 0.0, 1.695334838518655E9, 0.0, 2023-09-21 17:20:38.518
246.0, 7418.61103994978, 27036.178354761407, 187500.0, -44484.08418704083, 2520.9862018807175, -12288.027976516245, -187500.02235174447, -21222.355511469308, -6570.831724504438, 6110.743416636398, -46142.494218646796, 187500.0, -26814.940788142776, -45328.89072047362, 10224.35846619111, -21944.540374820277, 0.096, 1.004, 0.096, 192.0, 0.0, 0.0, 0.0, 0.0, 0.0, 0.0, 0.0, 0.0, 0.0, 1.695334838518665E9, 0.0, 2023-09-21 17:20:38.518
248.0, 7394.292341982406, 27017.67111035241, 187500.0, -44491.639076666725, 2505.228222039726, -12295.940494053424, -187500.02235174447, -21234.403101730717, -6574.430355361743, 6095.052492028773, -46148.66330011646, 187500.0, -26812.59385497497, -45334.76922926536, 10229.655829627018, -21958.309049404746, 0.096, 1.004, 0.096, 192.0, 0.0, 0.0, 0.0, 0.0, 0.0, 0.0, 0.0, 0.0, 0.0, 1.695334838518675E9, 0.0, 2023-09-21 17:20:38.518
250.0, 7404.350626987294, 27021.381499931995, 187500.0, -44482.92189632916, 2521.299126303092, -12277.85793278908, -187500.02235174447, -21215.359415454797, -6574.519762339564, 6095.499526917878, -46152.46309667386, 187500.0, -26816.706575954748, -45330.07536292975, 10231.108693016613, -21961.4829971174, 0.096, 1.004, 0.096, 192.0, 0.0, 0.0, 0.0, 0.0, 0.0, 0.0, 0.0, 0.0, 0.0, 1.695334838518734E9, 0.0, 2023-09-21 17:20:38.518
252.0, 7395.27581873844, 27023.214342977328, 187500.0, -44486.98991382002, 2486.8997915863742, -12284.272883447753, -187500.02235174447, -21222.981360314057, -6573.893913494816, 6095.857154829163, -46150.116163506056, 187500.0, -26822.898009168865, -45326.38732509462, 10235.534338418764, -21956.8338342707, 0.094, 1.002, 0.094, 192.0, 1.0, 120.0, 15.5, 40.0, 1.0, 120.0, 0.0, 0.0, 0.0, 1.695334838518744E9, 0.0, 2023-09-21 17:20:38.518
254.0, 7399.410891462671, 27018.25225570825, 187500.0, -44496.31059125788, 2496.1757655353267, -12297.39335744302, -187500.02235174447, -21235.67715116467, -6579.101869952902, 6091.9455995494845, -46152.820724585144, 187500.0, -26825.379052803404, -45339.284281645334, 10234.349695962632, -21963.248784929372, 0.094, 1.002, 0.094, 192.0, 0.0, 0.0, 0.0, 0.0, 0.0, 0.0, 0.0, 0.0, 0.0, 1.695334838518753E9, 0.0, 2023-09-21 17:20:38.518
0.0, 7401.646065908202, 27040.40283446346, 187500.0, -44472.058948523874, 2489.7384631321984, -12268.984290240323, -187500.02235174447, -21203.28947344893, -6564.3497186124, 6101.020407798339, -46138.85088430058, 187500.0, -26819.58995098948, -45326.297918116805, 10240.429370454476, -21960.164244194537, 0.094, 1.002, 0.094, 192.0, 0.0, 0.0, 0.0, 0.0, 0.0, 0.0, 0.0, 0.0, 0.0, 1.695334838578127E9, 0.0, 2023-09-21 17:20:38.578
2.0, 7399.388539718216, 27021.694424354366, 187500.0, -44489.895640599214, 2505.6305534399216, -12287.446831160407, -187500.02235174447, -21223.786023114448, -6566.271968635556, 6103.702617132976, -46138.7391255783, 187500.0, -26811.610378218935, -45329.06953442926, 10223.062065012702, -21953.123444691115, 0.094, 1.002, 0.094, 192.0, 0.0, 0.0, 0.0, 0.0, 0.0, 0.0, 0.0, 0.0, 0.0, 1.695334838578151E9, 0.0, 2023-09-21 17:20:38.578
4.0, 7397.376882717238, 27026.20947673434, 187500.0, -44486.27465799745, 2490.297256743581, -12289.369081183564, -187500.02235174447, -21223.853078347813, -6571.9269599827485, 6102.205050254471, -46137.934462777914, 187500.0, -26815.45487826525, -45329.382458851636, 10242.619841411095, -21963.427598885013, 0.094, 1.002, 0.094, 192.0, 0.0, 0.0, 0.0, 0.0, 0.0, 0.0, 0.0, 0.0, 0.0, 1.695334838578161E9, 0.0, 2023-09-21 17:20:38.578
6.0, 7406.339932243816, 27033.898476826966, 187500.0, -44477.95980906008, 2516.493501245201, -12270.504208863284, -187500.02235174447, -21202.887142048734, -6573.938616983726, 6096.930038563018, -46139.87906454552, 187500.0, -26829.82704995001, -45333.58458680923, 10220.759835333805, -21963.069970973727, 0.096, 1.002, 0.1, 192.0, 1.5, 0.0, 15.5, 40.0, 1.5, 16.0, 0.0, 0.0, 0.0, 1.69533483857817E9, 0.0, 2023-09-21 17:20:38.578
8.0, 7392.75007161499, 27026.053014523153, 187500.0, -44484.642980652214, 2491.504250944168, -12278.57318861165, -187500.02235174447, -21209.883238063245, -6566.853113991394, 6106.429529956524, -46133.15118946448, 187500.0, -26813.21970381972, -45325.35914484968, 10235.154358763022, -21955.35861913665, 0.096, 1.002, 0.1, 192.0, 0.0, 0.0, 0.0, 0.0, 0.0, 0.0, 0.0, 0.0, 0.0, 1.69533483857818E9, 0.0, 2023-09-21 17:20:38.578
10.0, 7393.241809993006, 27027.885857568486, 187500.0, -44479.92676257215, 2501.7413499046984, -12270.079525718633, -187500.02235174447, -21202.90949379319, -6564.506180823587, 6097.7570531078645, -46132.30182317518, 187500.0, -26816.393651532373, -45323.772170993354, 10217.183556220956, -21951.268249901324, 0.096, 1.002, 0.1, 192.0, 0.0, 0.0, 0.0, 0.0, 0.0, 0.0, 0.0, 0.0, 0.0, 1.695334838578189E9, 0.0, 2023-09-21 17:20:38.578
12.0, 7392.772423359445, 27037.8323838511, 187500.0, -44474.76350960297, 2486.96684681974, -12264.223368671343, -187500.02235174447, -21200.607264114293, -6566.026099446547, 6103.724968877432, -46135.58752961011, 187500.0, -26816.147782343363, -45325.023868682845, 10250.621765926095, -21947.513156832836, 0.096, 1.002, 0.1, 192.0, 0.0, 0.0, 0.0, 0.0, 0.0, 0.0, 0.0, 0.0, 0.0, 1.695334838578198E9, 0.0, 2023-09-21 17:20:38.578
14.0, 7391.341911714306, 27036.603037906058, 187500.0, -44484.53122192994, 2511.665524442855, -12273.119362964555, -187500.02235174447, -21208.05039501791, -6559.3652795988655, 6108.7317596354205, -46122.10942770355, 187500.0, -26799.361622257427, -45317.31251684577, 10200.39739613502, -21944.830947498198, 0.096, 1.002, 0.1, 192.0, 0.0, 0.0, 0.0, 0.0, 0.0, 0.0, 0.0, 0.0, 0.0, 1.695334838638367E9, 0.0, 2023-09-21 17:20:38.638
