%OpenBCI Raw EXG Data
%Number of channels = 16
%Sample Rate = 125 Hz
%Board = OpenBCI_GUI$BoardCytonSerialDaisy
Sample Index, EXG Channel 0, EXG Channel 1, EXG Channel 2, EXG Channel 3, EXG Channel 4, EXG Channel 5, EXG Channel 6, EXG Channel 7, EXG Channel 8, EXG Channel 9, EXG Channel 10, EXG Channel 11, EXG Channel 12, EXG Channel 13, EXG Channel 14, EXG Channel 15, Accel Channel 0, Accel Channel 1, Accel Channel 2, Other, Other, Other, Other, Other, Other, Other, Analog Channel 0, Analog Channel 1, Analog Channel 2, Timestamp, Other, Timestamp (Formatted)
136.0, 33270.48221474674, 54553.32154671211, 34546.36449174458, 9724.64051540381, 54490.66960700388, 44448.097878467786, -82890.63964970584, 37301.52992028355, 35861.02704537237, 65938.69667514523, 60826.18216588285, 12725.831595162344, 61570.13762833329, -93213.7481229005, 64966.395791339375, 45487.923382273126, 0.0, 0.0, 0.0, 192.0, 0.0, 0.0, 0.0, 0.0, 0.0, 0.0, 0.0, 0.0, 0.0, 1.696029387179813E9, 0.0, 2023-09-29 18:16:27.179
138.0, 33264.35783676599, 54548.024183276204, 34581.18850960595, 9734.855262619885, 54491.809545971104, 44439.7383260415, -82894.6629637078, 37294.6008795024, 35862.47990876197, 65921.55288714802, 60820.84009895803, 12721.227135804551, 61563.99089860808, -93399.22289839064, 64911.49990695714, 45427.104285610236, 0.0, 0.0, 0.0, 192.0, 0.0, 0.0, 0.0, 0.0, 0.0, 0.0, 0.0, 0.0, 0.0, 1.696029387179821E9, 0.0, 2023-09-29 18:16:27.179
140.0, 33263.19554605431, 54548.448866420855, 34550.49956446881, 9748.042791848517, 54471.87178991697, 44439.067773707844, -82865.7621581271, 37289.594088744416, 35864.692731463045, 65929.80068085201, 60857.72047730929, 12717.159118313684, 61570.986994622595, -93194.01153254647, 64963.66887851583, 45498.24988821148, 0.0, 0.0, 0.0, 192.0, 0.0, 0.0, 0.0, 0.0, 0.0, 0.0, 0.0, 0.0, 0.0, 1.696029387179825E9, 0.0, 2023-09-29 18:16:27.179
142.0, 33254.38895873892, 54533.36143891352, 34558.41208200599, 9753.653079706799, 54483.002958655714, 44438.151352185174, -82890.48318749467, 37287.15774859879, 35870.90651642162, 65909.52764863106, 60838.36386661099, 12710.23007753254, 61538.666372140215, -93292.18039419418, 64912.86336336892, 45437.94488167106, 0.0, 0.0, 0.0, 192.0, 0.0, 0.0, 16.0, 56.0, 127.5, 72.0, 0.0, 0.0, 0.0, 1.696029387179829E9, 0.0, 2023-09-29 18:16:27.179
144.0, 33243.07897604453, 54522.5208428527, 34524.057450778186, 9747.17107381476, 54463.10990609049, 44441.727631298025, -82842.18106772675, 37279.26758280606, 35874.32633332328, 65914.91441904478, 60857.11698020899, 12696.953141326088, 61554.22318628111, -93158.13698269571, 64951.576584765506, 45487.61045785075, 0.0, 0.0, 0.0, 192.0, 0.0, 0.0, 0.0, 0.0, 0.0, 0.0, 0.0, 0.0, 0.0, 1.696029387179832E9, 0.0, 2023-09-29 18:16:27.179
146.0, 33241.4472986993, 54515.88237474947, 34529.53362816973, 9752.557844228488, 54479.247865587226, 44435.89382599519, -82922.75910648813, 37274.685475192724, 35876.62856300218, 65895.6025118354, 60812.949933165306, 12696.12612678124, 61522.64017136576, -93204.33803848483, 64887.18120898977, 45429.74179145596, 0.0, 0.0, 0.0, 192.0, 0.0, 0.0, 0.0, 0.0, 0.0, 0.0, 0.0, 0.0, 0.0, 1.696029387179835E9, 0.0, 2023-09-29 18:16:27.179
148.0, 33219.90021704438, 54501.957237953815, 34495.089589964104, 9739.996163844606, 54461.16530432288, 44438.50898009646, -82853.44634693222, 37279.379341528336, 35884.47402530599, 65898.61999733686, 60824.215212370786, 12687.051318532387, 61541.393284963764, -93130.62198527122, 64937.740854947675, 45479.78734729139, 0.0, 0.0, 0.0, 192.0, 0.0, 0.0, 0.0, 0.0, 0.0, 0.0, 0.0, 0.0, 0.0, 1.696029387179839E9, 0.0, 2023-09-29 18:16:27.179
150.0, 33201.370620890935, 54477.906760919905, 34505.796075558195, 9728.462663705666, 54469.54720849362, 44430.484703837006, -82958.65600808334, 37289.63879223332, 35881.09891189324, 65874.88244472533, 60775.93544434732, 12684.816144086855, 61508.335054914365, -93132.61129052774, 64873.4125344053, 45430.21117808952, 0.0, 0.0, 0.0, 192.0, 0.0, 0.0, 0.0, 0.0, 0.0, 0.0, 0.0, 0.0, 0.0, 1.696029387179842E9, 0.0, 2023-09-29 18:16:27.179
152.0, 33179.622373535916, 54457.36550776548, 34489.90398525047, 9712.168241997748, 54458.3042810326, 44430.194131159085, -82889.94674562773, 37289.81760618897, 35894.01822018841, 65867.93105219972, 60784.58556945153, 12672.388574169705, 61530.50798541403, -93137.0369359299, 64930.16361357732, 45461.57067556032, 0.002, 1.038, -0.018000000000000002, 192.0, 0.0, 8.0, 16.0, 56.0, 127.5, 56.0, 0.0, 0.0, 0.0, 1.696029387179846E9, 0.0, 2023-09-29 18:16:27.179
0.0, 17033.593897055853, 27544.099395763806, 17464.133198753978, 4157.11154426474, 27061.189956806895, 21996.597587656688, -40658.6948822373, 18348.591726850478, 17939.040713195885, 32920.02921343198, 30364.19664194544, 6330.036381487415, 30738.09662319382, -46477.904495943134, 32449.368530436583, 22728.97484647928, 0.028, 1.028, 0.012, 192.0, 0.0, 112.0, 16.0, 16.0, 0.0, 48.0, 0.0, 0.0, 0.0, 1.69602938733281E9, 0.0, 2023-09-29 18:16:27.332
2.0, 34058.49296551859, 55081.292102490916, 34923.661938150166, 8298.554515666308, 54114.89207922126, 43989.70830317835, -81088.82082567464, 36689.3603431416, 35793.70359107299, 66864.61768920632, 59709.86899255145, 12077.452192002796, 58959.923262586984, -100262.75071653732, 64695.8726281968, 44689.98845696312, 0.028, 1.028, 0.012, 192.0, 0.0, 0.0, 0.0, 0.0, 0.0, 0.0, 0.0, 0.0, 0.0, 1.69602938733282E9, 0.0, 2023-09-29 18:16:27.332
4.0, 34079.52595705104, 55087.66234966068, 34896.728086081515, 8329.511681736909, 54115.8755559773, 43993.91043113595, -81312.941767328, 36701.095008980636, 35785.008762479876, 66865.26588979553, 59658.817608215526, 12084.805915928593, 58927.80380580471, -100166.72762235733, 64681.7686774455, 44687.57446856195, 0.028, 1.028, 0.012, 192.0, 0.0, 0.0, 0.0, 0.0, 0.0, 0.0, 0.0, 0.0, 0.0, 1.696029387332824E9, 0.0, 2023-09-29 18:16:27.332
6.0, 34062.06924463144, 55063.83539007133, 34922.25377824948, 8293.570076652775, 54114.020361187504, 43983.74038740878, -81115.68762250991, 36685.94052623994, 35797.36927716366, 66869.75859043105, 59705.84567854949, 12080.134401337435, 58962.180788776976, -100322.40752248855, 64665.51895922649, 44693.385922120324, 0.028, 1.028, 0.012, 192.0, 0.0, 0.0, 0.0, 0.0, 0.0, 0.0, 0.0, 0.0, 0.0, 1.696029387332827E9, 0.0, 2023-09-29 18:16:27.332
8.0, 34067.21014585616, 55064.61770112726, 34877.639696316684, 8307.3611029817, 54099.827003458384, 43977.03486407219, -81290.1876914725, 36677.13393892455, 35780.71722754445, 66849.91024135474, 59656.649489003365, 12070.478447732741, 58942.041867022745, -100133.17765392992, 64676.56072098741, 44696.693980299715, 0.038, 1.026, 0.022, 192.0, 0.5, 24.0, 16.0, 8.0, 0.0, 88.0, 0.0, 0.0, 0.0, 1.69602938733283E9, 0.0, 2023-09-29 18:16:27.332
10.0, 34058.91764866324, 55050.44669514259, 34919.05747879237, 8283.757660836895, 54105.19142212766, 43971.64809365846, -81140.0510239662, 36668.19324114242, 35788.160358448076, 66861.9354798717, 59684.678576550315, 12072.087773333524, 58957.64338465255, -100370.53082830082, 64641.5578891704, 44667.83787820791, 0.038, 1.026, 0.022, 192.0, 0.0, 0.0, 0.0, 0.0, 0.0, 0.0, 0.0, 0.0, 0.0, 1.696029387332833E9, 0.0, 2023-09-29 18:16:27.332
12.0, 34067.29955283398, 55043.070619472346, 34859.44537633006, 8287.468050416475, 54086.617122485295, 43961.723919120304, -81270.40639762956, 36658.403177071, 35772.87176524064, 66842.60122091786, 59648.84873018846, 12055.05574405858, 58941.751294344824, -100114.93863045439, 64685.68023272518, 44694.19058492072, 0.038, 1.026, 0.022, 192.0, 0.0, 0.0, 0.0, 0.0, 0.0, 0.0, 0.0, 0.0, 0.0, 1.696029387332836E9, 0.0, 2023-09-29 18:16:27.332
14.0, 34049.73108169211, 55029.36900012124, 34903.12068499574, 8262.25528267089, 54099.40232031373, 43958.50526791874, -81130.01509070577, 36657.956142181894, 35783.69000955701, 66852.45834022264, 59669.76996299863, 12054.519302191651, 58945.886367069055, -100383.2936743848, 64632.28191522145, 44647.7883634315, 0.038, 1.026, 0.022, 192.0, 0.0, 0.0, 0.0, 0.0, 0.0, 0.0, 0.0, 0.0, 0.0, 1.696029387332839E9, 0.0, 2023-09-29 18:16:27.332
16.0, 34054.9390381502, 55029.25724139896, 34845.31907383431, 8269.54195136332, 54085.633645729264, 43950.346881192556, -81232.4754872889, 36652.703482234894, 35752.621084764134, 66842.75768312904, 59641.271488818114, 12037.017886283147, 58937.079779753665, -100073.9678828678, 64694.91150318522, 44708.89803277231, 0.038, 1.026, 0.022, 192.0, 0.0, 0.0, 0.0, 0.0, 0.0, 0.0, 0.0, 0.0, 0.0, 1.696029387392529E9, 0.0, 2023-09-29 18:16:27.392
18.0, 34054.76022419456, 55028.452578598575, 34897.33158318181, 8264.713974560973, 54108.99121868506, 43963.04267204317, -81187.88375710056, 36656.81620321467, 35775.643381553105, 66855.81110189094, 59654.2802040911, 12051.52416843464, 58934.352866930116, -100407.90294503009, 64600.989472984016, 44633.57265395793, 0.042, 1.022, 0.034, 192.0, 0.5, 40.0, 15.5, 120.0, 0.5, 8.0, 0.0, 0.0, 0.0, 1.696029387392538E9, 0.0, 2023-09-29 18:16:27.392
20.0, 34056.59306723989, 55026.060941941854, 34844.022672655905, 8262.702317559995, 54071.64145370024, 43948.29052070266, -81210.6154812116, 36641.25938907378, 35764.445157580994, 66849.03852332098, 59654.2802040911, 12040.437703184809, 58955.743486373845, -100084.29438880616, 64687.93775891516, 44712.764884563076, 0.042, 1.022, 0.034, 192.0, 0.0, 0.0, 0.0, 0.0, 0.0, 0.0, 0.0, 0.0, 0.0, 1.696029387392541E9, 0.0, 2023-09-29 18:16:27.392
22.0, 34059.94582890819, 55037.4379798696, 34905.66878386364, 8272.380622909144, 54114.51209956552, 43977.01251232773, -81209.5649492222, 36664.5052033073, 35779.331419388225, 66870.96558463163, 59650.011020900136, 12058.497912704697, 58937.6609251095, -100420.1964044805, 64603.6493305742, 44625.727191654114, 0.042, 1.022, 0.034, 192.0, 0.0, 0.0, 0.0, 0.0, 0.0, 0.0, 0.0, 0.0, 0.0, 1.696029387392545E9, 0.0, 2023-09-29 18:16:27.392
24.0, 34062.65038998728, 55040.56722409335, 34853.745681493965, 8278.281483445346, 54092.47327953259, 43966.976579067305, -81187.57083267819, 36655.18452586944, 35771.62006755115, 66873.17840733271, 59663.66793676233, 12045.802121854082, 58985.89598964405, -100087.04365337416, 64713.15052666075, 44723.65018411281, 0.042, 1.022, 0.034, 192.0, 0.0, 0.0, 0.0, 0.0, 0.0, 0.0, 0.0, 0.0, 0.0, 1.696029387392548E9, 0.0, 2023-09-29 18:16:27.392
26.0, 34067.56777376745, 55039.494340359495, 34912.06138277786, 8279.3543671792, 54109.5723640409, 43985.88615487649, -81244.34426359467, 36677.379808113554, 35785.925184002546, 66874.63127072231, 59654.74959072466, 12061.71656390626, 58953.73182937287, -100431.461683686, 64608.9019905212, 44629.77285740052, 0.042, 1.022, 0.034, 192.0, 0.0, 0.0, 0.0, 0.0, 0.0, 0.0, 0.0, 0.0, 0.0, 1.696029387392551E9, 0.0, 2023-09-29 18:16:27.392
28.0, 34065.6902272332, 55037.236814169504, 34876.455053860554, 8284.987006781937, 54089.16522135321, 43972.497459947765, -81161.17342247647, 36669.22142138737, 35787.48980611441, 66888.4893522846, 59681.07994569301, 12054.608709169474, 59006.10196663165, -100117.9337642114, 64728.528526846, 44737.84354184193, 0.052000000000000005, 1.02, 0.036000000000000004, 192.0, 0.5, 80.0, 15.5, 112.0, 0.5, 16.0, 0.0, 0.0, 0.0, 1.696029387392554E9, 0.0, 2023-09-29 18:16:27.392
30.0, 34059.34233180789, 55032.09591294479, 34907.211054231055, 8282.125983491658, 54100.02816915848, 43977.79482338367, -81255.4754323334, 36682.38659887154, 35778.66086705457, 66885.11423887184, 59647.418218543324, 12059.235520271723, 58952.301317727724, -100401.37623564915, 64630.73964485403, 44643.31801454044, 0.052000000000000005, 1.02, 0.036000000000000004, 192.0, 0.0, 0.0, 0.0, 0.0, 0.0, 0.0, 0.0, 0.0, 0.0, 1.696029387452876E9, 0.0, 2023-09-29 18:16:27.452
32.0, 34063.142128365296, 55034.733418790514, 34878.95844923955, 8284.4058614261, 54094.2167156001, 43977.861878617034, -81142.84499202312, 36676.21751740188, 35780.672524055546, 66894.68078549871, 59678.084811936, 12053.804046369081, 59003.73268171939, -100137.04450572068, 64732.7306548036, 44735.697774374225, 0.052000000000000005, 1.02, 0.036000000000000004, 192.0, 0.0, 0.0, 0.0, 0.0, 0.0, 0.0, 0.0, 0.0, 0.0, 1.696029387452948E9, 0.0, 2023-09-29 18:16:27.452
34.0, 34067.36660806735, 55037.4379798696, 34910.072077521334, 8292.474841174466, 54112.03105593098, 43991.56349796814, -81297.2955462093, 36687.50514835181, 35776.55980307577, 66901.36395709086, 59643.79723594156, 12074.39000301242, 58959.34211723115, -100395.34126464621, 64632.14780475471, 44647.65425296477, 0.052000000000000005, 1.02, 0.036000000000000004, 192.0, 0.0, 0.0, 0.0, 0.0, 0.0, 0.0, 0.0, 0.0, 0.0, 1.696029387452951E9, 0.0, 2023-09-29 18:16:27.452
36.0, 34052.927381149224, 55018.50605231596, 34871.96235322504, 8266.949149006505, 54084.69487246214, 43963.22148599881, -81115.4417533209, 36659.02902591575, 35783.22062292345, 66905.94606470419, 59687.49489635169, 12053.871101602448, 59010.77348122281, -100171.35443345958, 64733.02122748151, 44736.27891973006, 0.052000000000000005, 1.02, 0.036000000000000004, 192.0, 0.0, 0.0, 0.0, 0.0, 0.0, 0.0, 0.0, 0.0, 0.0, 1.696029387452954E9, 0.0, 2023-09-29 18:16:27.452
38.0, 34067.791291212, 55020.49535757248, 34889.888452278195, 8278.482649145442, 54098.508250535524, 43969.927009335406, -81286.2314327039, 36667.880316720046, 35773.60937280767, 66888.95873891815, 59625.55821246603, 12051.591223668007, 58954.08945728415, -100334.49981623887, 64645.156520027704, 44648.14599134278, 0.058, 1.02, 0.034, 192.0, 0.5, 104.0, 15.5, 112.0, 0.5, 8.0, 0.0, 0.0, 0.0, 1.696029387452958E9, 0.0, 2023-09-29 18:16:27.452
40.0, 34071.725198236134, 55027.111473931254, 34889.95550751156, 8282.818887569772, 54087.42178528569, 43966.08250928909, -81099.43790429091, 36658.246714859815, 35794.776474806844, 66920.07236719994, 59690.53473359761, 12062.901206362392, 59023.29045811778, -100198.42239599496, 64713.70932027213, 44715.26827994207, 0.058, 1.02, 0.034, 192.0, 0.0, 0.0, 0.0, 0.0, 0.0, 0.0, 0.0, 0.0, 0.0, 1.696029387452961E9, 0.0, 2023-09-29 18:16:27.452
42.0, 34083.03518093052, 55040.56722409335, 34896.39280991469, 8300.968504067481, 54101.19045987016, 43975.98433208279, -81326.62103493465, 36674.809357501195, 35798.12923647514, 66914.75265201958, 59638.16459633882, 12076.11108733548, 58982.47617274239, -100327.57077545772, 64625.06230176238, 44639.51821798304, 0.058, 1.02, 0.034, 192.0, 0.0, 0.0, 0.0, 0.0, 0.0, 0.0, 0.0, 0.0, 0.0, 1.696029387452964E9, 0.0, 2023-09-29 18:16:27.452
44.0, 34070.540555780004, 55030.15131117718, 34913.581301400816, 8289.680873117552, 54099.58113426938, 43965.143736021964, -81088.86552916355, 36671.74716851082, 35803.113675488676, 66935.13744296282, 59707.85733555047, 12075.217017557266, 59048.436170630004, -100262.0131089703, 64691.71520372811, 44708.160425205286, 0.058, 1.02, 0.034, 192.0, 0.0, 0.0, 0.0, 0.0, 0.0, 0.0, 0.0, 0.0, 0.0, 1.696029387452967E9, 0.0, 2023-09-29 18:16:27.452
46.0, 34092.780541513035, 55045.68577357361, 34904.95352804107, 8317.59820194223, 54105.28082910548, 43983.94155310888, -81312.47238069444, 36691.0590757202, 35795.491730629416, 66928.87895451534, 59646.63590748738, 12079.709718192784, 58995.99897813785, -100267.64574857304, 64656.08652306635, 44656.66200598026, 0.058, 1.02, 0.034, 192.0, 0.0, 0.0, 0.0, 0.0, 0.0, 0.0, 0.0, 0.0, 0.0, 1.696029387513142E9, 0.0, 2023-09-29 18:16:27.513
48.0, 34084.733913509124, 55039.89667175969, 34935.038976077914, 8312.770225139884, 54100.7210732366, 43983.56157345314, -81097.87328217903, 36689.87443326407, 35819.31869021877, 66956.81863508448, 59717.69210311081, 12089.790354942126, 59060.8413888027, -100308.28121999279, 64694.442116551654, 44695.218765165664, 0.058, 1.02, 0.036000000000000004, 192.0, 0.5, 104.0, 15.5, 112.0, 0.5, 16.0, 0.0, 0.0, 0.0, 1.696029387513152E9, 0.0, 2023-09-29 18:16:27.513
50.0, 34093.16052116877, 55047.69743057459, 34914.18479850111, 8332.216242816, 54101.19045987016, 43981.438157729885, -81310.41602020455, 36696.93758451195, 35808.65690811359, 66952.70591410469, 59663.95850944025, 12091.846715432015, 59018.39542608207, -100244.35523085062, 64679.064116366404, 44665.155668873274, 0.058, 1.02, 0.036000000000000004, 192.0, 0.0, 0.0, 0.0, 0.0, 0.0, 0.0, 0.0, 0.0, 0.0, 1.696029387513155E9, 0.0, 2023-09-29 18:16:27.513
52.0, 34081.47055881865, 55036.476854858025, 34941.6997959256, 8307.674027404073, 54096.09426213435, 43978.867707117526, -81092.39710478748, 36695.32825891117, 35824.86192284369, 66961.44544618671, 59708.05850125057, 12081.587264727028, 59055.96870851144, -100344.26752856583, 64692.85514269533, 44684.98166620513, 0.058, 1.02, 0.036000000000000004, 192.0, 0.0, 0.0, 0.0, 0.0, 0.0, 0.0, 0.0, 0.0, 0.0, 1.696029387513158E9, 0.0, 2023-09-29 18:16:27.513
54.0, 34088.77957925553, 55039.67315431513, 34910.56381589935, 8329.668143948096, 54096.965980168105, 43974.50911694874, -81296.60264213117, 36701.20676770291, 35806.28762320133, 66945.73216983463, 59660.40458207185, 12079.307386792587, 59021.12233890562, -100206.62548621005, 64691.84931419484, 44674.34223584441, 0.058, 1.02, 0.036000000000000004, 192.0, 0.0, 0.0, 0.0, 0.0, 0.0, 0.0, 0.0, 0.0, 0.0, 1.696029387513161E9, 0.0, 2023-09-29 18:16:27.513
56.0, 34086.209128643175, 55039.2931746594, 34970.22062185057, 8320.973315354982, 54109.72882625209, 43980.253515273755, -81098.81205544616, 36695.842349033635, 35819.72102161897, 66959.41143744129, 59702.55997211456, 12083.53186649464, 59050.69369681999, -100385.4394418525, 64683.400354790734, 44668.28491309701, 0.058, 1.02, 0.036000000000000004, 192.0, 0.0, 0.0, 0.0, 0.0, 0.0, 0.0, 0.0, 0.0, 0.0, 1.696029387513165E9, 0.0, 2023-09-29 18:16:27.513
58.0, 34100.89422475031, 55051.83250329882, 34933.40729873268, 8342.27452782089, 54097.323608079394, 43985.349713009564, -81280.44233088999, 36693.24954667682, 35812.21083548199, 66950.67190535927, 59667.981823442205, 12087.152849096401, 59044.949298494976, -100167.50993341327, 64711.69766327115, 44678.90199171329, 0.05, 1.022, 0.038, 192.0, 0.5, 72.0, 15.5, 120.0, 0.5, 24.0, 0.0, 0.0, 0.0, 1.696029387513168E9, 0.0, 2023-09-29 18:16:27.513
60.0, 34092.8475967464, 55044.299965417384, 34998.026191952966, 8337.960641141015, 54105.97373318359, 43999.341905038586, -81142.17443968945, 36703.48664563736, 35817.03881228433, 66969.82735035746, 59692.81461153205, 12092.360805554486, 59064.730592337924, -100443.82219836977, 64654.052514320916, 44639.40645926076, 0.05, 1.022, 0.038, 192.0, 0.0, 0.0, 0.0, 0.0, 0.0, 0.0, 0.0, 0.0, 0.0, 1.696029387573402E9, 0.0, 2023-09-29 18:16:27.573
62.0, 34083.057532674975, 55036.65566881367, 34938.615255190765, 8345.426123789088, 54089.925180664686, 43980.32057050712, -81237.39287106907, 36693.897747266026, 35815.78711459483, 66953.26470771608, 59661.07513440552, 12072.981843111736, 59058.06977249024, -100153.31657568415, 64721.55478257594, 44696.15753843279, 0.05, 1.022, 0.038, 192.0, 0.0, 0.0, 0.0, 0.0, 0.0, 0.0, 0.0, 0.0, 0.0, 1.696029387573417E9, 0.0, 2023-09-29 18:16:27.573
64.0, 34084.6445065313, 55045.23873868451, 34993.84641573983, 8351.237577347467, 54109.79588148545, 44000.124216094526, -81133.56901807417, 36707.84523580614, 35806.8017133238, 66967.36865846737, 59671.64750953287, 12083.643625216917, 59056.52750212282, -100442.74931463592, 64659.03695333445, 44636.03134584801, 0.05, 1.022, 0.038, 192.0, 0.0, 0.0, 0.0, 0.0, 0.0, 0.0, 0.0, 0.0, 0.0, 1.69602938757342E9, 0.0, 2023-09-29 18:16:27.573
66.0, 34094.859253747374, 55052.771276565945, 34944.67257793815, 8373.94694971406, 54086.66182597421, 43994.60333521406, -81220.49495226085, 36705.11832298259, 35809.260405213885, 66967.2568997451, 59668.49591356468, 12084.381232783942, 59073.98421454242, -100128.4837875943, 64728.975561735104, 44697.65510531129, 0.05, 1.022, 0.038, 192.0, 0.0, 0.0, 0.0, 0.0, 0.0, 0.0, 0.0, 0.0, 0.0, 1.696029387573424E9, 0.0, 2023-09-29 18:16:27.573
68.0, 34084.13041640883, 55044.18820669511, 35000.328421631864, 8358.36778382871, 54102.95624768213, 43996.123253837024, -81172.72927435987, 36705.632413105064, 35818.692841374024, 66975.28117600456, 59669.233521131704, 12098.216962601777, 59057.8909585346, -100471.1136783497, 64641.71435138159, 44629.90696786725, 0.054, 1.022, 0.04, 192.0, 0.5, 88.0, 15.5, 120.0, 0.5, 32.0, 0.0, 0.0, 0.0, 1.696029387573427E9, 0.0, 2023-09-29 18:16:27.573
70.0, 34086.85732923238, 55042.93650900561, 34947.46654599506, 8364.246292620455, 54090.953360909625, 43978.37596873951, -81174.04802728273, 36700.469160135886, 35793.725942817444, 66958.62912638535, 59660.02460241612, 12072.043069844613, 59075.61589188765, -100125.55570907066, 64729.556707090946, 44716.69879158721, 0.054, 1.022, 0.04, 192.0, 0.0, 0.0, 0.0, 0.0, 0.0, 0.0, 0.0, 0.0, 0.0, 1.69602938757343E9, 0.0, 2023-09-29 18:16:27.573
72.0, 34089.919518222756, 55054.47000914455, 35007.36922113529, 8365.788562987873, 54109.058273918425, 43993.46339624684, -81198.00909733881, 36717.165913244, 35815.0048035389, 66969.87205384637, 59649.787503455584, 12087.286959563133, 59055.05228698877, -100456.58504445375, 64636.75226411251, 44625.97306084312, 0.054, 1.022, 0.04, 192.0, 0.0, 0.0, 0.0, 0.0, 0.0, 0.0, 0.0, 0.0, 0.0, 1.696029387573434E9, 0.0, 2023-09-29 18:16:27.573
74.0, 34087.17025365475, 55054.35825042227, 34966.37612180426, 8370.683595023584, 54090.819250442895, 43982.645151930476, -81153.26090493929, 36706.88411079456, 35817.97758555145, 66974.99060332663, 59678.50949508065, 12083.330700794542, 59093.43023221853, -100144.0853052241, 64733.736483304085, 44713.390733407825, 0.054, 1.022, 0.04, 192.0, 0.0, 0.0, 0.0, 0.0, 0.0, 0.0, 0.0, 0.0, 0.0, 1.696029387573437E9, 0.0, 2023-09-29 18:16:27.573
76.0, 34084.42098908675, 55055.96757602305, 35003.59177632234, 8364.89449320966, 54105.72786399459, 43988.8812886335, -81222.86423717311, 36710.05805850722, 35816.5023704174, 66975.16941728228, 59648.13347436589, 12092.830192188048, 59054.091161977194, -100458.57434971028, 64633.57831639986, 44618.664040406235, 0.054, 1.022, 0.04, 192.0, 0.0, 0.0, 0.0, 0.0, 0.0, 0.0, 0.0, 0.0, 0.0, 1.696029387632734E9, 0.0, 2023-09-29 18:16:27.632
78.0, 34083.750436753086, 55059.92383479165, 34960.832889179335, 8375.46686833702, 54088.13704110826, 43982.93572460839, -81136.0500617087, 36706.03474450526, 35804.81240806728, 66979.01391732859, 59672.452172333265, 12078.010985614179, 59097.00651133138, -100166.10177351258, 64734.518794360025, 44715.29063168653, 0.052000000000000005, 1.022, 0.034, 192.0, 0.5, 80.0, 15.5, 120.0, 0.5, 8.0, 0.0, 0.0, 0.0, 1.696029387632743E9, 0.0, 2023-09-29 18:16:27.632
80.0, 34075.39088432681, 55051.47487538754, 34990.18072964915, 8375.198647403557, 54103.78326222697, 43988.07662583311, -81262.02449345881, 36709.409857918006, 35817.21762623997, 66978.96921383968, 59629.78269216808, 12089.030395630645, 59055.76754281134, -100459.69193693304, 64623.07299650586, 44618.61933691733, 0.052000000000000005, 1.022, 0.034, 192.0, 0.0, 0.0, 0.0, 0.0, 0.0, 0.0, 0.0, 0.0, 0.0, 1.696029387632746E9, 0.0, 2023-09-29 18:16:27.632
82.0, 34073.468634303645, 55046.535139862914, 34971.89700268472, 8375.422164848109, 54091.84743068784, 43980.00764608475, -81118.63805277801, 36700.536215369255, 35805.1029807452, 66986.97113835468, 59676.05080319057, 12077.653357702895, 59115.826680162754, -100217.64489622651, 64719.87840174179, 44709.72504731716, 0.052000000000000005, 1.022, 0.034, 192.0, 0.0, 0.0, 0.0, 0.0, 0.0, 0.0, 0.0, 0.0, 0.0, 1.69602938763275E9, 0.0, 2023-09-29 18:16:27.632
84.0, 34077.08961690541, 55050.49139863151, 34993.93582271765, 8395.941066258081, 54103.02330291549, 43993.59750671357, -81291.685258351, 36713.92491029798, 35801.25848069888, 66976.46581846068, 59628.530994478584, 12085.118840350968, 59064.17179872654, -100430.8581865857, 64622.89418255022, 44620.608642173844, 0.052000000000000005, 1.022, 0.034, 192.0, 0.0, 0.0, 0.0, 0.0, 0.0, 0.0, 0.0, 0.0, 0.0, 1.696029387632753E9, 0.0, 2023-09-29 18:16:27.632
86.0, 34066.40548305577, 55041.863625271755, 34988.48199707055, 8385.61456031973, 54101.436329059165, 43978.152451294955, -81109.00445091778, 36695.30590716671, 35829.667547901576, 66995.75537392561, 59684.544466083586, 12088.96334039728, 59131.56230825929, -100266.77403053928, 64707.316721357915, 44703.46655886967, 0.052000000000000005, 1.022, 0.034, 192.0, 0.0, 0.0, 0.0, 0.0, 0.0, 0.0, 0.0, 0.0, 0.0, 1.696029387632756E9, 0.0, 2023-09-29 18:16:27.632
88.0, 34069.37826506833, 55042.80239853888, 34987.610279036795, 8390.509592355442, 54102.062177903914, 43987.69664617737, -81298.70370610997, 36700.26799443579, 35808.03105926884, 66979.39389698433, 59621.490194975166, 12088.717471208272, 59072.8442755752, -100401.51034611587, 64627.29747620791, 44624.743714898075, 0.058, 1.022, 0.03, 192.0, 0.5, 104.0, 15.5, 120.0, 0.0, 120.0, 0.0, 0.0, 0.0, 1.696029387632759E9, 0.0, 2023-09-29 18:16:27.632
90.0, 34069.2441546016, 55041.75186654948, 34999.81433150939, 8388.162659187634, 54108.54418379595, 43988.90364037796, -81109.65265150699, 36707.174683472476, 35826.113620533186, 66996.64944370383, 59677.16839041333, 12087.599883985506, 59134.624497249664, -100310.04700780477, 64692.85514269533, 44688.11091042888, 0.058, 1.022, 0.03, 192.0, 0.0, 0.0, 0.0, 0.0, 0.0, 0.0, 0.0, 0.0, 0.0, 1.696029387692577E9, 0.0, 2023-09-29 18:16:27.692
92.0, 34074.85444245988, 55044.590538095305, 34994.047581439925, 8399.830269793305, 54109.39355008525, 43991.094111334576, -81336.72402342845, 36717.74705859984, 35822.671451887065, 66987.35111801043, 59627.83809040047, 12092.852543932504, 59089.65278740559, -100394.42484312355, 64639.83680484734, 44625.92835735421, 0.058, 1.022, 0.03, 192.0, 0.0, 0.0, 0.0, 0.0, 0.0, 0.0, 0.0, 0.0, 0.0, 1.696029387692593E9, 0.0, 2023-09-29 18:16:27.692
94.0, 34060.25875333056, 55035.292212401895, 35007.950366491124, 8390.934275500093, 54102.30804709293, 43987.42842524391, -81123.33191911363, 36712.38263993057, 35837.848286372224, 67024.03033066158, 59676.76605901314, 12094.148945110912, 59139.05014265182, -100374.55414230278, 64694.57622701839, 44680.533669058525, 0.058, 1.022, 0.03, 192.0, 0.0, 0.0, 0.0, 0.0, 0.0, 0.0, 0.0, 0.0, 0.0, 1.696029387692598E9, 0.0, 2023-09-29 18:16:27.692
96.0, 34058.381206796315, 55028.720799532035, 34992.79588375043, 8401.104319227257, 54103.64915176024, 43991.56349796814, -81335.6511396946, 36717.79176208875, 35803.33719293323, 66995.93418788126, 59625.468805488206, 12091.86906717647, 59098.1017468097, -100359.42201130654, 64663.50730222551, 44641.97690987312, 0.058, 1.022, 0.03, 192.0, 0.0, 0.0, 0.0, 0.0, 0.0, 0.0, 0.0, 0.0, 0.0, 1.696029387692603E9, 0.0, 2023-09-29 18:16:27.692
98.0, 34043.5843519669, 55018.93073546061, 35011.43723862615, 8382.820592262817, 54099.84935520284, 43982.645151930476, -81107.01514566125, 36698.435151390455, 35826.40419321111, 67005.34427229695, 59674.95556771226, 12089.991520642225, 59142.46995955348, -100419.1011690022, 64697.3701950753, 44683.77467200455, 0.06, 1.02, 0.038, 192.0, 0.5, 112.0, 15.5, 112.0, 0.5, 24.0, 0.0, 0.0, 0.0, 1.696029387692607E9, 0.0, 2023-09-29 18:16:27.692
100.0, 34047.205334568665, 55022.641125040194, 34971.24880209551, 8384.005234718947, 54097.457718546124, 43979.359445495546, -81316.27217725184, 36700.26799443579, 35811.428524426046, 66984.66890867578, 59619.07620657399, 12081.028471115646, 59099.755775899386, -100305.95663856943, 64675.08550585336, 44667.36849157435, 0.06, 1.02, 0.038, 192.0, 0.0, 0.0, 0.0, 0.0, 0.0, 0.0, 0.0, 0.0, 0.0, 1.696029387692623E9, 0.0, 2023-09-29 18:16:27.692
102.0, 34045.70776769015, 55030.955973977565, 35015.25938692801, 8385.860429508737, 54116.255535633034, 43990.71413167884, -81145.43779437993, 36707.50995963931, 35832.97560608097, 67011.11102236641, 59665.00904142965, 12086.437593273831, 59145.3086310993, -100467.58210272576, 64657.248813778024, 44654.29272106799, 0.06, 1.02, 0.038, 192.0, 0.0, 0.0, 0.0, 0.0, 0.0, 0.0, 0.0, 0.0, 0.0, 1.696029387692627E9, 0.0, 2023-09-29 18:16:27.692
104.0, 34040.477459487614, 55023.37873260722, 34963.15747060269, 8384.027586463402, 54098.508250535524, 43973.816212870624, -81314.4393342065, 36700.44680839143, 35816.21179773948, 66996.7612024261, 59631.190852068765, 12083.218942072266, 59115.64786620711, -100292.45618491844, 64681.74632570104, 44664.77568921753, 0.06, 1.02, 0.038, 192.0, 0.0, 0.0, 0.0, 0.0, 0.0, 0.0, 0.0, 0.0, 0.0, 1.696029387692632E9, 0.0, 2023-09-29 18:16:27.692
106.0, 34039.02459609802, 55020.808281994854, 35006.58691007935, 8373.455211336042, 54113.43921583167, 43986.623762443516, -81167.67778011296, 36707.375849172575, 35833.24382701443, 67003.19850482923, 59658.99642217117, 12085.878799662447, 59138.91603218509, -100520.48868185148, 64645.33533398335, 44640.904026139266, 0.06, 1.02, 0.038, 192.0, 0.0, 0.0, 0.0, 0.0, 0.0, 0.0, 0.0, 0.0, 0.0, 1.696029387752758E9, 0.0, 2023-09-29 18:16:27.752
108.0, 34043.18202056671, 55024.71983727453, 34955.58022923234, 8382.082984695791, 54100.47520404759, 43988.0319223442, -81309.07491553723, 36702.36905841459, 35820.12335301916, 66988.62516744438, 59624.284163032076, 12077.00515711369, 59133.104578626706, -100274.79830679874, 64685.367308302804, 44681.22657313664, 0.058, 1.02, 0.026000000000000002, 192.0, 0.5, 104.0, 15.5, 112.0, 0.0, 104.0, 0.0, 0.0, 0.0, 1.696029387752767E9, 0.0, 2023-09-29 18:16:27.752
110.0, 34027.35698549235, 55019.19895639407, 35002.25067165502, 8362.100525152746, 54110.399378585746, 43991.96582936834, -81192.64467866955, 36696.84817753413, 35830.27104500187, 67011.96038865572, 59638.52222425011, 12091.936122409836, 59136.18911936154, -100570.31072024236, 64614.489926635026, 44631.69510742368, 0.058, 1.02, 0.026000000000000002, 192.0, 0.0, 0.0, 0.0, 0.0, 0.0, 0.0, 0.0, 0.0, 0.0, 1.696029387752771E9, 0.0, 2023-09-29 18:16:27.752
112.0, 34030.88856111629, 55020.89768897268, 34937.36355750127, 8373.030528191392, 54095.647227245245, 43986.60141069906, -81291.685258351, 36698.39044790154, 35807.04758251281, 67005.9701211417, 59614.24822977165, 12077.72041293626, 59142.78288397585, -100263.2201031709, 64683.400354790734, 44693.58708782042, 0.058, 1.02, 0.026000000000000002, 192.0, 0.0, 0.0, 0.0, 0.0, 0.0, 0.0, 0.0, 0.0, 0.0, 1.696029387752774E9, 0.0, 2023-09-29 18:16:27.752
114.0, 34015.44350569767, 55011.2864388569, 34995.07576168487, 8361.027641418892, 54106.44311981716, 43977.19132628338, -81199.64077468406, 36699.37392465758, 35819.05046928531, 67024.5667725285, 59624.284163032076, 12080.715546693273, 59132.92576467106, -100580.27959826942, 64610.6007230998, 44629.39287774478, 0.058, 1.02, 0.026000000000000002, 192.0, 0.0, 0.0, 0.0, 0.0, 0.0, 0.0, 0.0, 0.0, 0.0, 1.696029387752777E9, 0.0, 2023-09-29 18:16:27.752
116.0, 34023.847761612866, 55018.90838371615, 34942.325644770346, 8371.890589224171, 54087.667654474695, 43975.26907626022, -81257.01770270082, 36688.04159021874, 35800.99025976542, 67012.92151366729, 59622.384264753375, 12068.28797677612, 59148.482578811956, -100240.37662033757, 64704.880381212286, 44696.58222157744, 0.058, 1.02, 0.026000000000000002, 192.0, 0.0, 0.0, 0.0, 0.0, 0.0, 0.0, 0.0, 0.0, 0.0, 1.696029387752781E9, 0.0, 2023-09-29 18:16:27.752
118.0, 34021.746697634066, 55013.99099993599, 34992.6617732837, 8370.3259671123, 54100.050520902936, 43984.74621590927, -81241.17031588202, 36699.82095954668, 35814.2001407385, 67022.64452250535, 59620.41731124131, 12079.553255981597, 59130.26590708088, -100586.71690067255, 64611.0030545, 44615.73596188259, 0.06, 1.02, 0.032, 192.0, 0.5, 112.0, 15.5, 112.0, 0.5, 0.0, 0.0, 0.0, 0.0, 1.696029387752784E9, 0.0, 2023-09-29 18:16:27.752
120.0, 34033.74958440657, 55021.6352965397, 34947.60065646179, 8381.591246317774, 54088.49466901954, 43971.06694830262, -81229.0780221317, 36691.662572820496, 35811.13795174813, 67016.45308929123, 59630.85557590194, 12073.160657067378, 59166.1181051872, -100246.16572215149, 64720.95128547565, 44703.31009665848, 0.06, 1.02, 0.032, 192.0, 0.0, 0.0, 0.0, 0.0, 0.0, 0.0, 0.0, 0.0, 0.0, 1.696029387812925E9, 0.0, 2023-09-29 18:16:27.812
122.0, 34031.91674136123, 55020.89768897268, 35000.97662222107, 8379.579589316796, 54115.71909376611, 43982.26517227473, -81285.1361972256, 36706.615889861096, 35825.89010308863, 67035.31796161151, 59621.64665718635, 12095.82532594506, 59142.5593665313, -100591.991912364, 64614.065243490375, 44609.16454901273, 0.06, 1.02, 0.032, 192.0, 0.0, 0.0, 0.0, 0.0, 0.0, 0.0, 0.0, 0.0, 0.0, 1.696029387812938E9, 0.0, 2023-09-29 18:16:27.812
124.0, 34020.87497960031, 55007.620752766226, 34953.59092397582, 8370.482429323487, 54090.86395393181, 43965.88134358899, -81188.19668152294, 36682.87833724956, 35813.03785002683, 67034.91563021131, 59639.885680661886, 12077.027508858146, 59187.218151953006, -100259.15208568002, 64726.36040763384, 44719.09042824393, 0.06, 1.02, 0.032, 192.0, 0.0, 0.0, 0.0, 0.0, 0.0, 0.0, 0.0, 0.0, 0.0, 1.696029387812941E9, 0.0, 2023-09-29 18:16:27.812
126.0, 34033.50371521756, 55017.522575559924, 35000.060200698405, 8387.827383020805, 54121.307029879936, 43996.90556489296, -81304.62691839063, 36715.131904498565, 35805.72882958994, 67059.88252876789, 59606.35806397892, 12088.58336074154, 59144.32515434327, -100547.53429264239, 64610.17603995515, 44615.22187176012, 0.06, 1.02, 0.032, 192.0, 0.0, 0.0, 0.0, 0.0, 0.0, 0.0, 0.0, 0.0, 0.0, 1.696029387812944E9, 0.0, 2023-09-29 18:16:27.812
128.0, 34033.86134312885, 55018.61781103824, 34972.656961996196, 8385.94983648656, 54107.71716925111, 43986.064968832135, -81195.63981242655, 36702.10083748112, 35829.42167871257, 67117.30416027358, 59656.11304713644, 12095.065366633578, 59207.33472196278, -100299.49698442186, 64706.824982979895, 44708.60746009439, 0.056, 1.024, 0.034, 192.0, 0.5, 96.0, 16.0, 0.0, 0.5, 8.0, 0.0, 0.0, 0.0, 1.696029387812948E9, 0.0, 2023-09-29 18:16:27.812
130.0, 34034.50954371805, 55020.92004071713, 34994.13698841775, 8389.973150488515, 54120.85999499083, 43988.858936889046, -81342.40136652009, 36708.02404976178, 35825.33130947725, 67096.5840931635, 59609.867287858404, 12097.881686434948, 59154.964584703994, -100550.03768802139, 64611.87477253375, 44625.74954339857, 0.056, 1.024, 0.034, 192.0, 0.0, 0.0, 0.0, 0.0, 0.0, 0.0, 0.0, 0.0, 0.0, 1.696029387812951E9, 0.0, 2023-09-29 18:16:27.812
132.0, 34023.75835463504, 55010.79470047888, 34976.32264808687, 8385.547505086364, 54104.453814560635, 43975.09026230458, -81179.03246629625, 36691.17083444248, 35822.73850712043, 67107.96113109126, 59654.682535491294, 12092.517267765674, 59210.687483631074, -100349.45313327947, 64698.17485787569, 44715.84942529791, 0.056, 1.024, 0.034, 192.0, 0.0, 0.0, 0.0, 0.0, 0.0, 0.0, 0.0, 0.0, 0.0, 1.696029387812954E9, 0.0, 2023-09-29 18:16:27.812
134.0, 34031.76027915005, 55013.11928190223, 34986.000953436014, 8388.922618499115, 54112.16516639772, 43979.87353561801, -81340.74733743041, 36694.25537517731, 35805.974698778955, 67096.60644490796, 59608.25796225762, 12095.49004977823, 59150.69540151303, -100524.02025747541, 64624.12352849526, 44631.65040393477, 0.056, 1.024, 0.034, 192.0, 0.0, 0.0, 0.0, 0.0, 0.0, 0.0, 0.0, 0.0, 0.0, 1.696029387812957E9, 0.0, 2023-09-29 18:16:27.812
136.0, 34028.519276204024, 55014.527441802915, 34973.37221781877, 8381.568894573318, 54095.356654567324, 43975.06791056012, -81142.97910248984, 36687.236927418344, 35823.163190265084, 67107.20117177977, 59659.10818089345, 12091.645549731917, 59216.90126858965, -100356.04689789379, 64713.70932027213, 44717.458750898695, 0.056, 1.024, 0.034, 192.0, 0.0, 0.0, 0.0, 0.0, 0.0, 0.0, 0.0, 0.0, 0.0, 1.696029387873266E9, 0.0, 2023-09-29 18:16:27.873
138.0, 34037.41527049724, 55021.590593050794, 34973.34986607431, 8389.816688277328, 54113.79684374295, 43986.959038610345, -81365.20014586451, 36707.57701487267, 35824.504294932405, 67106.10593630146, 59603.05000579954, 12101.837945203537, 59174.12002970219, -100493.39836757164, 64623.2518104615, 44640.6358052058, 0.056, 1.02, 0.03, 192.0, 0.5, 96.0, 15.5, 112.0, 0.0, 120.0, 0.0, 0.0, 0.0, 1.696029387873277E9, 0.0, 2023-09-29 18:16:27.873
140.0, 34021.70199414516, 55010.90645920116, 34977.97667717656, 8370.974167701503, 54101.81630871491, 43973.123308792514, -81135.73713728633, 36687.460444862896, 35824.504294932405, 67115.62777943943, 59657.543558781574, 12092.137288109934, 59221.61748666972, -100434.23329999845, 64685.54612225844, 44702.058398968984, 0.056, 1.02, 0.03, 192.0, 0.0, 0.0, 0.0, 0.0, 0.0, 0.0, 0.0, 0.0, 0.0, 1.696029387873281E9, 0.0, 2023-09-29 18:16:27.873
142.0, 34032.81081113945, 55010.0347411674, 34960.29644731241, 8379.981920716991, 54108.030093673486, 43970.195230268866, -81354.73952945943, 36691.55081409822, 35811.60733838169, 67094.21480825124, 59601.03834879856, 12090.572665998063, 59169.5155703444, -100435.68616338805, 64642.04962754842, 44657.064337380456, 0.056, 1.02, 0.03, 192.0, 0.0, 0.0, 0.0, 0.0, 0.0, 0.0, 0.0, 0.0, 0.0, 1.696029387873284E9, 0.0, 2023-09-29 18:16:27.873
144.0, 34042.82439265542, 55008.984209178, 34981.038866166935, 8366.369708343711, 54112.209869886625, 43973.45858495934, -81146.6000850916, 36686.85694776261, 35827.030042055856, 67111.090375315, 59657.4318000593, 12090.550314253607, 59219.00233256845, -100468.45382075952, 64670.01165986201, 44692.13422443083, 0.056, 1.02, 0.03, 192.0, 0.0, 0.0, 0.0, 0.0, 0.0, 0.0, 0.0, 0.0, 0.0, 1.696029387873287E9, 0.0, 2023-09-29 18:16:27.873
146.0, 34058.00122714057, 55016.203822637064, 34950.68519719663, 8382.015929462425, 54105.638457016765, 43974.50911694874, -81363.0543783968, 36692.131959454055, 35813.77545759385, 67095.086526285, 59608.14620353535, 12092.472564276763, 59185.9217507746, -100413.62499161065, 64649.33629624084, 44657.51137226956, 0.056, 1.02, 0.03, 192.0, 0.0, 0.0, 0.0, 0.0, 0.0, 0.0, 0.0, 0.0, 0.0, 1.696029387873291E9, 0.0, 2023-09-29 18:16:27.873
148.0, 34051.74273869309, 55009.1853748781, 34987.43146508115, 8366.906150210638, 54107.62776227329, 43973.03390181469, -81146.7565473028, 36686.99105822934, 35827.07474554476, 67114.59959919448, 59655.464846547235, 12094.327759066553, 59223.38327448169, -100510.56450731332, 64669.65403195072, 44680.48896556962, 0.054, 1.022, 0.03, 192.0, 0.5, 88.0, 15.5, 120.0, 0.0, 120.0, 0.0, 0.0, 0.0, 1.696029387873294E9, 0.0, 2023-09-29 18:16:27.873
150.0, 34061.666913231245, 55008.5371742889, 34944.337301771324, 8379.668996294618, 54099.37996856928, 43971.51398319173, -81327.29158726831, 36693.58482284365, 35800.2526521984, 67089.92327331583, 59604.25700000012, 12080.179104826344, 59189.162753720615, -100353.00706064785, 64685.83669493636, 44676.8456312234, 0.054, 1.022, 0.03, 192.0, 0.0, 0.0, 0.0, 0.0, 0.0, 0.0, 0.0, 0.0, 0.0, 1.69602938793258E9, 0.0, 2023-09-29 18:16:27.932
152.0, 34058.18004109622, 55003.55273527536, 34980.43536906664, 8367.621406033208, 54106.063140161416, 43984.05331183116, -81153.61853285057, 36688.019238474284, 35823.18554200954, 67111.58211369302, 59644.91482316433, 12089.790354942126, 59221.28221050289, -100541.92400478412, 64662.68028768066, 44669.067224152954, 0.054, 1.022, 0.03, 192.0, 0.0, 0.0, 0.0, 0.0, 0.0, 0.0, 0.0, 0.0, 0.0, 1.69602938793259E9, 0.0, 2023-09-29 18:16:27.932
154.0, 34076.10614014937, 55011.95699119056, 34936.60359818979, 8378.193781160568, 54092.629741743775, 43977.16897453892, -81337.75220367339, 36688.73449429685, 35814.66952737207, 67093.09722102848, 59605.66515990081, 12085.856447917993, 59202.32793120479, -100334.4327610055, 64684.09325886885, 44687.28389588403, 0.054, 1.022, 0.03, 192.0, 0.0, 0.0, 0.0, 0.0, 0.0, 0.0, 0.0, 0.0, 0.0, 1.696029387932594E9, 0.0, 2023-09-29 18:16:27.932
156.0, 34055.02844512802, 54994.92496191561, 34979.988334177535, 8354.567987271308, 54103.17976512668, 43972.83273611459, -81190.83418736866, 36683.66064830549, 35827.14180077813, 67100.49564844319, 59633.49308174766, 12089.633892730939, 59214.9790185665, -100601.91608690216, 64637.44516819062, 44641.954558128666, 0.054, 1.022, 0.03, 192.0, 0.0, 0.0, 0.0, 0.0, 0.0, 0.0, 0.0, 0.0, 0.0, 1.696029387932597E9, 0.0, 2023-09-29 18:16:27.932
158.0, 34051.094538103884, 54990.94635140257, 34919.97390031504, 8352.13164712568, 54072.155543822715, 43960.74044236427, -81284.77856931431, 36668.12618590906, 35792.22837593894, 67079.57441563302, 59596.098613273934, 12069.226750043244, 59204.406643439135, -100301.44158618947, 64698.24191310906, 44687.28389588403, 0.058, 1.022, 0.026000000000000002, 192.0, 0.5, 104.0, 15.5, 120.0, 0.0, 104.0, 0.0, 0.0, 0.0, 1.696029387932601E9, 0.0, 2023-09-29 18:16:27.932
160.0, 34040.611569954344, 54989.73935720198, 34973.23810735203, 8347.437780790066, 54103.73855873806, 43978.75594839525, -81184.39688496554, 36676.23986914633, 35800.0514864983, 67087.19636049228, 59615.92461060579, 12077.206322813789, 59209.56989640831, -100586.06870008334, 64623.6541418617, 44628.655270177755, 0.058, 1.022, 0.026000000000000002, 192.0, 0.0, 0.0, 0.0, 0.0, 0.0, 0.0, 0.0, 0.0, 0.0, 1.696029387932604E9, 0.0, 2023-09-29 18:16:27.932
162.0, 34051.72038694863, 54999.46236604004, 34926.41120271816, 8362.234635619478, 54095.24489584505, 43976.61018092754, -81272.57451684172, 36682.54306108273, 35796.31874517426, 67080.31202320004, 59609.17438378029, 12070.210226799278, 59224.92554484911, -100275.67002483249, 64694.55387527393, 44698.66093381178, 0.058, 1.022, 0.026000000000000002, 192.0, 0.0, 0.0, 0.0, 0.0, 0.0, 0.0, 0.0, 0.0, 0.0, 1.696029387932608E9, 0.0, 2023-09-29 18:16:27.932
164.0, 34040.99154961009, 54990.0299298799, 34980.83770046684, 8349.069458135302, 54113.23805013157, 43976.766643138726, -81227.64751048655, 36684.28649715024, 35807.69578310201, 67093.45484893976, 59615.56698269451, 12080.804953671093, 59215.98484706698, -100623.93255519064, 64606.95738875358, 44631.44923823467, 0.058, 1.022, 0.026000000000000002, 192.0, 0.0, 0.0, 0.0, 0.0, 0.0, 0.0, 0.0, 0.0, 0.0, 1.696029387932611E9, 0.0, 2023-09-29 18:16:27.932
166.0, 34045.238381056595, 54997.540116016884, 34931.619159176254, 8357.69723149505, 54096.80951795692, 43969.65878840194, -81252.36853985411, 36678.31858138068, 35806.600547623704, 67087.75515410367, 59614.58350593848, 12072.423049500352, 59240.70587643456, -100287.8740773051, 64707.4731835691, 44723.404314923806, 0.058, 1.022, 0.026000000000000002, 192.0, 0.0, 0.0, 0.0, 0.0, 0.0, 0.0, 0.0, 0.0, 0.0, 1.696029387992456E9, 0.0, 2023-09-29 18:16:27.992
168.0, 34041.8856193883, 54997.11543287223, 34980.904755700205, 8352.690440737062, 54113.28275362048, 43983.74038740878, -81273.80386278676, 36694.14361645503, 35799.246823697904, 67090.61617739394, 59604.011130811115, 12081.497857749207, 59213.280285987894, -100634.79550299591, 64605.526877108445, 44643.22860756262, 0.056, 1.022, 0.032, 192.0, 0.5, 96.0, 15.5, 120.0, 0.5, 0.0, 0.0, 0.0, 0.0, 1.696029387992466E9, 0.0, 2023-09-29 18:16:27.992
170.0, 34046.31126479045, 55003.060996897344, 34932.312063254365, 8358.256025106433, 54084.538410250956, 43976.766643138726, -81240.43270831498, 36678.25152614731, 35798.5986231087, 67102.77552637762, 59621.557250208534, 12081.363747282476, 59251.4347137731, -100315.65729566304, 64707.450831824644, 44735.67542262977, 0.056, 1.022, 0.032, 192.0, 0.0, 0.0, 0.0, 0.0, 0.0, 0.0, 0.0, 0.0, 0.0, 1.69602938799247E9, 0.0, 2023-09-29 18:16:27.992
172.0, 34043.15966882225, 55004.20093586457, 34967.78428170494, 8352.489275036964, 54105.70551225013, 43989.060102589145, -81324.45291572249, 36697.71989556788, 35796.47520738545, 67103.64724441139, 59593.68462487276, 12088.672767719361, 59209.90517257514, -100644.69732578962, 64603.96225499657, 44639.160590071755, 0.056, 1.022, 0.032, 192.0, 0.0, 0.0, 0.0, 0.0, 0.0, 0.0, 0.0, 0.0, 0.0, 1.696029387992474E9, 0.0, 2023-09-29 18:16:27.992
174.0, 34036.632959441304, 54999.75293871796, 34928.758135885975, 8346.722524967496, 54094.70845397812, 43976.11844254952, -81222.10427786164, 36680.21847965938, 35802.957213277485, 67108.7434421472, 59624.79825315455, 12073.183008811833, 59261.738867967, -100352.9400054145, 64713.7763755055, 44737.932948819755, 0.056, 1.022, 0.032, 192.0, 0.0, 0.0, 0.0, 0.0, 0.0, 0.0, 0.0, 0.0, 0.0, 1.696029387992477E9, 0.0, 2023-09-29 18:16:27.992
176.0, 34031.69322391668, 54998.657703239645, 34962.643380480215, 8351.706963981029, 54105.81727097241, 43986.84727988807, -81329.72792741394, 36678.855023247605, 35807.22639646845, 67109.8386776255, 59590.42127018229, 12080.022642615157, 59214.91196333313, -100622.36793307877, 64620.72606333805, 44639.74173542759, 0.056, 1.022, 0.032, 192.0, 0.0, 0.0, 0.0, 0.0, 0.0, 0.0, 0.0, 0.0, 0.0, 1.696029387992486E9, 0.0, 2023-09-29 18:16:27.992
178.0, 34028.40751748175, 54998.590648006284, 34931.77562138744, 8353.025716903892, 54088.56172425291, 43977.19132628338, -81212.67184170149, 36671.657761532995, 35806.108809245685, 67112.94557010478, 59627.86044214493, 12074.881741390436, 59264.465780790546, -100373.14598240209, 64715.631570295285, 44721.437361411736, 0.054, 1.022, 0.036000000000000004, 192.0, 0.5, 88.0, 15.5, 120.0, 0.5, 16.0, 0.0, 0.0, 0.0, 1.69602938799249E9, 0.0, 2023-09-29 18:16:27.992
180.0, 34030.30741576045, 54999.66353174014, 34956.94368564412, 8358.256025106433, 54108.54418379595, 43986.08732057659, -81377.42655008157, 36686.65578206251, 35808.634556369136, 67112.45383172677, 59590.64478762684, 12092.450212532309, 59216.58834416728, -100626.27948835844, 64617.44035690312, 44627.35886899935, 0.054, 1.022, 0.036000000000000004, 192.0, 0.0, 0.0, 0.0, 0.0, 0.0, 0.0, 0.0, 0.0, 0.0, 1.696029388052863E9, 0.0, 2023-09-29 18:16:28.052
182.0, 34013.58831090788, 54985.78309843339, 34930.12159229775, 8337.044219618347, 54084.85133467333, 43970.15052677996, -81167.11898650158, 36663.54407829572, 35807.718134846466, 67109.9951398367, 59635.258869559635, 12077.206322813789, 59267.952652925575, -100420.91166030309, 64718.31377962993, 44720.83386431144, 0.054, 1.022, 0.036000000000000004, 192.0, 0.0, 0.0, 0.0, 0.0, 0.0, 0.0, 0.0, 0.0, 0.0, 1.696029388052879E9, 0.0, 2023-09-29 18:16:28.052
184.0, 34017.85749409885, 54993.65091248166, 34938.592903446304, 8349.494141279953, 54094.37317781129, 43978.1300995505, -81352.66081722509, 36674.943467967925, 35798.82214055325, 67098.12636353092, 59573.74686881863, 12078.05568910309, 59210.419262697615, -100554.75390610145, 64638.96508681359, 44638.46768599364, 0.054, 1.022, 0.036000000000000004, 192.0, 0.0, 0.0, 0.0, 0.0, 0.0, 0.0, 0.0, 0.0, 0.0, 1.696029388052882E9, 0.0, 2023-09-29 18:16:28.052
186.0, 34010.30260447295, 54986.990092633976, 34939.08464182432, 8340.151112097636, 54100.7210732366, 43974.9785035823, -81169.82354758067, 36677.89389823603, 35807.22639646845, 67120.58986670851, 59638.119892849914, 12073.29476753411, 59270.456048304564, -100452.4052682406, 64715.788032506476, 44701.231384424136, 0.054, 1.022, 0.036000000000000004, 192.0, 0.0, 0.0, 0.0, 0.0, 0.0, 0.0, 0.0, 0.0, 0.0, 1.696029388052886E9, 0.0, 2023-09-29 18:16:28.052
188.0, 34010.079087028396, 54986.36424378923, 34926.32179574035, 8345.94021391156, 54105.54905003894, 43975.55964893814, -81375.77252099187, 36687.01340997379, 35798.53156787534, 67103.91546534485, 59579.15599097681, 12074.658223945884, 59225.99842858296, -100533.54210061337, 64656.7123719111, 44642.40159301777, 0.058, 1.022, 0.036000000000000004, 192.0, 0.5, 104.0, 15.5, 120.0, 0.5, 16.0, 0.0, 0.0, 0.0, 1.696029388052889E9, 0.0, 2023-09-29 18:16:28.052
190.0, 34001.8759968133, 54982.20681932054, 34941.20805754758, 8334.630231217174, 54090.886305676264, 43976.69958790536, -81165.01792252278, 36676.82101450217, 35807.56167263528, 67119.49463123019, 59632.21903231371, 12072.53480822263, 59274.233493117514, -100504.68599852157, 64701.5723230329, 44700.94081174622, 0.058, 1.022, 0.036000000000000004, 192.0, 0.0, 0.0, 0.0, 0.0, 0.0, 0.0, 0.0, 0.0, 0.0, 1.696029388052892E9, 0.0, 2023-09-29 18:16:28.052
192.0, 34008.469761427616, 54992.22040083652, 34922.5443509274, 8352.84690294825, 54101.05634940343, 43981.03582632969, -81401.29821315983, 36682.47600584936, 35798.151588219596, 67109.7939741366, 59579.06658399899, 12072.847732645003, 59227.18307103909, -100493.8677542052, 64657.539386455945, 44654.29272106799, 0.058, 1.022, 0.036000000000000004, 192.0, 0.0, 0.0, 0.0, 0.0, 0.0, 0.0, 0.0, 0.0, 0.0, 1.696029388052896E9, 0.0, 2023-09-29 18:16:28.052
194.0, 34001.38425843528, 54990.0299298799, 34958.10597635579, 8346.387248800665, 54104.43146281618, 43983.62862868651, -81201.78654215176, 36680.35259012611, 35822.20206525351, 67139.16416635086, 59636.77878818259, 12082.973072883258, 59279.82142923134, -100582.47006922604, 64665.11662782629, 44675.12454690034, 0.058, 1.022, 0.036000000000000004, 192.0, 0.0, 0.0, 0.0, 0.0, 0.0, 0.0, 0.0, 0.0, 0.0, 1.696029388052899E9, 0.0, 2023-09-29 18:16:28.052
196.0, 34008.98385155009, 54997.56246776134, 34929.316929497356, 8358.79246697336, 54106.4207680727, 43984.723864164815, -81417.4138209121, 36682.274840149264, 35804.61124236718, 67131.5422214916, 59594.779860351075, 12089.790354942126, 59248.90896664965, -100495.27591410589, 64658.67932542317, 44670.49773579809, 0.058, 1.022, 0.036000000000000004, 192.0, 0.0, 0.0, 0.0, 0.0, 0.0, 0.0, 0.0, 0.0, 0.0, 1.696029388113065E9, 0.0, 2023-09-29 18:16:28.113
198.0, 33986.38623790577, 54980.284569297386, 34959.4023775342, 8329.55638522582, 54093.09912837734, 43974.442061715374, -81195.34923974863, 36661.42066257246, 35819.0057657964, 67140.97465765175, 59635.59414572646, 12086.48229676274, 59289.38797585821, -100633.0073634395, 64661.47329348008, 44679.17021264675, 0.062, 1.026, 0.034, 192.0, 0.5, 120.0, 16.0, 8.0, 0.5, 8.0, 0.0, 0.0, 0.0, 1.696029388113084E9, 0.0, 2023-09-29 18:16:28.113
200.0, 33991.3706769193, 54985.13489784419, 34909.20035948758, 8341.000478386937, 54090.975712654086, 43970.30698899114, -81370.09517790022, 36663.99111318483, 35793.41301839507, 67122.22154405374, 59579.7147845882, 12076.602825713495, 59252.976984140514, -100426.0525615278, 64678.88530241076, 44685.94279121671, 0.062, 1.026, 0.034, 192.0, 0.0, 0.0, 0.0, 0.0, 0.0, 0.0, 0.0, 0.0, 0.0, 1.696029388113088E9, 0.0, 2023-09-29 18:16:28.113
202.0, 33980.73124655858, 54981.42450826461, 34957.25661006649, 8327.88000439167, 54100.00581741403, 43974.95615183785, -81211.91188239002, 36665.53338355224, 35801.16907372106, 67145.51206177617, 59629.33565727898, 12086.527000251652, 59286.549304312386, -100651.44755261512, 64643.18956651563, 44658.20427634767, 0.062, 1.026, 0.034, 192.0, 0.0, 0.0, 0.0, 0.0, 0.0, 0.0, 0.0, 0.0, 0.0, 1.696029388113092E9, 0.0, 2023-09-29 18:16:28.113
204.0, 33979.166624446705, 54976.149496573154, 34908.4404001761, 8338.787655685861, 54085.81245968491, 43962.7297476208, -81347.94459914502, 36663.968761440374, 35794.82117829576, 67125.90958188887, 59588.85664807042, 12070.970186110759, 59265.80688545787, -100398.67167457005, 64679.8687791668, 44694.168233176264, 0.062, 1.026, 0.034, 192.0, 0.0, 0.0, 0.0, 0.0, 0.0, 0.0, 0.0, 0.0, 0.0, 1.696029388113095E9, 0.0, 2023-09-29 18:16:28.113
206.0, 33970.00240922003, 54966.359432501726, 34957.65894146668, 8328.148225325134, 54104.520869793996, 43968.56355292363, -81227.64751048655, 36664.795775985214, 35810.869730814666, 67134.0456168706, 59615.03054082758, 12080.96141588228, 59281.00607168747, -100674.268683704, 64621.01663601597, 44646.9389971422, 0.062, 1.026, 0.034, 192.0, 0.0, 0.0, 0.0, 0.0, 0.0, 0.0, 0.0, 0.0, 0.0, 1.696029388113098E9, 0.0, 2023-09-29 18:16:28.113
208.0, 33976.90909825672, 54970.65096743715, 34905.15469374117, 8337.133626596169, 54088.80759344192, 43961.81332609813, -81345.44120376602, 36662.78411898424, 35790.50729161588, 67125.37314002194, 59586.64382536934, 12071.663090188873, 59273.94292043959, -100395.11774720166, 64689.055346137924, 44691.08369244143, 0.056, 1.024, 0.032, 192.0, 0.5, 96.0, 16.0, 0.0, 0.5, 0.0, 0.0, 0.0, 0.0, 1.696029388113101E9, 0.0, 2023-09-29 18:16:28.113
210.0, 33971.32116214289, 54972.01442384892, 34965.459700281586, 8328.774074169884, 54107.56070703992, 43970.93283783589, -81257.46473758994, 36673.758825511795, 35816.725887861954, 67145.55676526508, 59604.905200589325, 12088.851581675004, 59277.943882697095, -100717.83223364738, 64628.97385704206, 44629.012898089044, 0.056, 1.024, 0.032, 192.0, 0.0, 0.0, 0.0, 0.0, 0.0, 0.0, 0.0, 0.0, 0.0, 1.696029388173382E9, 0.0, 2023-09-29 18:16:28.173
212.0, 33966.87316499629, 54965.48771446797, 34921.0914875378, 8322.761454911406, 54090.70749172062, 43941.89792178845, -81176.08203602815, 36651.40708105649, 35799.447989398, 67136.92899190534, 59623.27833453159, 12084.001253128203, 59309.124566212246, -100385.86412499716, 64742.65482934175, 44705.61232633738, 0.056, 1.024, 0.032, 192.0, 0.0, 0.0, 0.0, 0.0, 0.0, 0.0, 0.0, 0.0, 0.0, 1.696029388173393E9, 0.0, 2023-09-29 18:16:28.173
214.0, 33967.364903374306, 54972.70732792703, 34951.22163906356, 8320.436873488054, 54099.983465669575, 43955.95716905084, -81045.10081352005, 36660.615999772075, 35802.621937110656, 67141.89107917441, 59610.716654147705, 12084.515343250674, 59292.78544101542, -100699.68261714967, 64685.45671528062, 44620.98862182959, 0.056, 1.024, 0.032, 192.0, 0.0, 0.0, 0.0, 0.0, 0.0, 0.0, 0.0, 0.0, 0.0, 1.696029388173397E9, 0.0, 2023-09-29 18:16:28.173
216.0, 33965.62146730679, 54972.930845371586, 34905.9370047971, 8323.186138056057, 54080.22452357108, 43953.16320099392, -80997.49159783026, 36656.9503136814, 35806.33232669024, 67155.16801538087, 59613.48827046016, 12086.48229676274, 59309.191621445614, -100366.70867999896, 64753.875405058316, 44706.70756181569, 0.056, 1.024, 0.032, 192.0, 0.0, 0.0, 0.0, 0.0, 0.0, 0.0, 0.0, 0.0, 0.0, 1.696029388173401E9, 0.0, 2023-09-29 18:16:28.173
218.0, 33964.05684519492, 54962.872560366704, 34938.07881332384, 8315.161861796601, 54094.19436385565, 43960.56162840863, -80970.89302192844, 36661.97945618385, 35799.29152718682, 67152.28464034613, 59602.200639510236, 12086.05761361809, 59290.63967354771, -100678.26964596148, 64658.098180067325, 44614.14898802626, 0.052000000000000005, 1.022, 0.042, 192.0, 0.5, 80.0, 15.5, 120.0, 0.5, 40.0, 0.0, 0.0, 0.0, 1.696029388173405E9, 0.0, 2023-09-29 18:16:28.173
220.0, 33967.90134524123, 54958.98335683148, 34902.450132662074, 8318.760492653906, 54088.67348297519, 43953.72199460531, -80905.8494455635, 36649.59658975561, 35793.63653583962, 67146.40613155438, 59607.69916864624, 12071.260758788678, 59307.06820572236, -100351.59890074718, 64726.15924193374, 44703.48891061413, 0.052000000000000005, 1.022, 0.042, 192.0, 0.0, 0.0, 0.0, 0.0, 0.0, 0.0, 0.0, 0.0, 0.0, 1.696029388173408E9, 0.0, 2023-09-29 18:16:28.173
222.0, 33965.91203998471, 54960.81619987681, 34926.18768527361, 8310.870326861183, 54095.4684132896, 43964.69670113286, -80957.39256827743, 36663.63348527354, 35804.9018150451, 67146.71905597676, 59595.070433028995, 12081.766078682671, 59293.70186253809, -100642.3056891329, 64632.237211732536, 44605.34240071087, 0.052000000000000005, 1.022, 0.042, 192.0, 0.0, 0.0, 0.0, 0.0, 0.0, 0.0, 0.0, 0.0, 0.0, 1.696029388173412E9, 0.0, 2023-09-29 18:16:28.173
224.0, 33971.119996442794, 54970.270987781405, 34891.698943579075, 8317.866422875693, 54077.89994214773, 43953.23025622729, -80911.03505027713, 36657.28558984823, 35800.386762665126, 67158.11844564897, 59613.04123557106, 12072.870084389458, 59310.89035402422, -100357.27624383882, 64693.03395665097, 44690.815471507965, 0.052000000000000005, 1.022, 0.042, 192.0, 0.0, 0.0, 0.0, 0.0, 0.0, 0.0, 0.0, 0.0, 0.0, 1.696029388173415E9, 0.0, 2023-09-29 18:16:28.173
226.0, 33970.918830742696, 54962.49258071096, 34921.47146719354, 8321.733274666462, 54089.925180664686, 43966.75306162275, -81004.48769384477, 36674.407026101, 35804.9018150451, 67161.76177999518, 59589.84012482645, 12086.750517696204, 59295.06531894986, -100603.86068866977, 64616.23336270254, 44597.38517968478, 0.052000000000000005, 1.022, 0.042, 192.0, 0.0, 0.0, 0.0, 0.0, 0.0, 0.0, 0.0, 0.0, 0.0, 1.696029388232767E9, 0.0, 2023-09-29 18:16:28.232
228.0, 33968.99658071954, 54955.60824341873, 34902.09250475079, 8318.3134577648, 54080.22452357108, 43961.656863886936, -80925.83190510653, 36662.67236026196, 35802.756047577386, 67161.98529743974, 59619.18796529627, 12076.558122224586, 59328.81645307737, -100380.1420784166, 64688.60831124882, 44691.88835524182, 0.05, 1.02, 0.038, 192.0, 0.5, 72.0, 15.5, 112.0, 0.5, 24.0, 0.0, 0.0, 0.0, 1.696029388232778E9, 0.0, 2023-09-29 18:16:28.232
230.0, 33961.24052539355, 54941.92897581208, 34911.65905137766, 8302.130794779157, 54085.723052707086, 43959.08641327458, -81043.20091524135, 36659.140784638024, 35802.823102810755, 67146.33907632102, 59577.6137206094, 12076.401660013398, 59294.95356022759, -100573.46231621056, 64608.20908644308, 44614.37250547082, 0.05, 1.02, 0.038, 192.0, 0.0, 0.0, 0.0, 0.0, 0.0, 0.0, 0.0, 0.0, 0.0, 1.696029388232782E9, 0.0, 2023-09-29 18:16:28.232
232.0, 33966.20261266263, 54950.355583471726, 34898.22565296002, 8316.324152508278, 54079.978654382074, 43955.89011381747, -80931.75511738719, 36654.87160144706, 35805.70647784549, 67156.75498923719, 59605.28518024507, 12067.885645375925, 59331.67747636765, -100409.28875318632, 64663.954337114614, 44683.88643072682, 0.05, 1.02, 0.038, 192.0, 0.0, 0.0, 0.0, 0.0, 0.0, 0.0, 0.0, 0.0, 0.0, 1.696029388232785E9, 0.0, 2023-09-29 18:16:28.232
234.0, 33969.19774641964, 54950.981432316476, 34913.2907287229, 8319.475748476476, 54094.06025338892, 43958.95230280785, -81086.38448552901, 36662.4041393285, 35800.587928365225, 67148.01545715517, 59578.82071480998, 12077.273378047155, 59308.90104876769, -100530.59167034527, 64600.87771426174, 44613.992525815076, 0.05, 1.02, 0.038, 192.0, 0.0, 0.0, 0.0, 0.0, 0.0, 0.0, 0.0, 0.0, 0.0, 1.696029388232789E9, 0.0, 2023-09-29 18:16:28.232
236.0, 33961.017007949, 54947.069877036796, 34911.77081009994, 8311.809100128306, 54083.957264895114, 43957.79001209617, -80945.61319894949, 36664.035816673735, 35808.902777302595, 67160.1524543944, 59624.41827349881, 12073.406526256387, 59347.97189807557, -100466.08453584726, 64662.47912198057, 44679.55019230249, 0.05, 1.02, 0.038, 192.0, 0.0, 0.0, 0.0, 0.0, 0.0, 0.0, 0.0, 0.0, 0.0, 1.696029388232792E9, 0.0, 2023-09-29 18:16:28.232
238.0, 33967.25314465203, 54950.288528238365, 34900.796103572386, 8318.671085676086, 54094.887267933766, 43961.165125508924, -81107.17160787244, 36664.05816841819, 35796.98929750792, 67156.84439621502, 59572.87515078487, 12075.06055534608, 59306.66587432216, -100484.32355932279, 64620.5025458935, 44645.4861337526, 0.048, 1.02, 0.034, 192.0, 0.5, 64.0, 15.5, 112.0, 0.5, 8.0, 0.0, 0.0, 0.0, 1.696029388232796E9, 0.0, 2023-09-29 18:16:28.232
240.0, 33963.00631320552, 54947.44985669254, 34906.7416675975, 8303.561306424297, 54088.42761378618, 43960.38281445298, -80956.11851884348, 36655.363339825075, 35808.52279764686, 67173.6082045565, 59614.94113384976, 12073.987671612225, 59342.24985149501, -100495.38767282816, 64650.967973586085, 44673.09053815491, 0.048, 1.02, 0.034, 192.0, 0.0, 0.0, 0.0, 0.0, 0.0, 0.0, 0.0, 0.0, 0.0, 1.696029388292636E9, 0.0, 2023-09-29 18:16:28.292
242.0, 33963.34158937235, 54935.2681559644, 34893.46473139104, 8295.939361565037, 54083.689043961655, 43935.77354380769, -81109.36207882907, 36645.997958898304, 35795.67054458506, 67154.67627700284, 59571.46699088419, 12068.1985697983, 59316.52299362695, -100438.97186982297, 64612.97000801206, 44636.47838073711, 0.048, 1.02, 0.034, 192.0, 0.0, 0.0, 0.0, 0.0, 0.0, 0.0, 0.0, 0.0, 0.0, 1.696029388292646E9, 0.0, 2023-09-29 18:16:28.292
244.0, 33961.48639458256, 54929.523757639385, 34908.90978680966, 8277.230951455946, 54084.404299784226, 43945.63066311248, -80964.14279510293, 36647.71904322136, 35805.43825691203, 67164.64515502991, 59609.06262505802, 12065.561063952573, 59352.263433010994, -100529.29526916686, 64629.89027856473, 44650.69409021069, 0.048, 1.02, 0.034, 192.0, 0.0, 0.0, 0.0, 0.0, 0.0, 0.0, 0.0, 0.0, 0.0, 1.69602938829265E9, 0.0, 2023-09-29 18:16:28.292
246.0, 33969.84594700884, 54928.24970820543, 34882.44532137457, 8291.916047563082, 54079.50926774851, 43945.13892473447, -81127.82461974915, 36650.93769442293, 35782.50536710088, 67146.67435248785, 59562.16866519078, 12056.15097953689, 59314.868964537265, -100401.17506994905, 64617.350949925305, 44643.96621512964, 0.048, 1.02, 0.034, 192.0, 0.0, 0.0, 0.0, 0.0, 0.0, 0.0, 0.0, 0.0, 0.0, 1.696029388292654E9, 0.0, 2023-09-29 18:16:28.292
248.0, 33969.018932464, 54926.372161671185, 34923.505475938975, 8287.825678327761, 54091.75802371002, 43964.04850054366, -80982.7170947453, 36658.89491544902, 35807.42756216855, 67173.67525978986, 59610.53784019207, 12070.232578543733, 59355.37032549028, -100574.95988308906, 64620.346083682314, 44646.87194190883, 0.046, 1.022, 0.034, 192.0, 0.5, 56.0, 15.5, 120.0, 0.5, 8.0, 0.0, 0.0, 0.0, 1.696029388292657E9, 0.0, 2023-09-29 18:16:28.292
250.0, 33976.14913894524, 54927.19917621603, 34892.36949591273, 8294.732367364451, 54088.76288995301, 43950.79391608166, -81120.895578968, 36650.37890081154, 35800.34205917622, 67167.3050126201, 59579.22304621018, 12066.298671519598, 59336.28193572545, -100362.66301425255, 64636.81931934587, 44675.41511957826, 0.046, 1.022, 0.034, 192.0, 0.0, 0.0, 0.0, 0.0, 0.0, 0.0, 0.0, 0.0, 0.0, 1.69602938829266E9, 0.0, 2023-09-29 18:16:28.292
252.0, 33963.229830650074, 54911.08356846376, 34926.81353411836, 8273.229989198446, 54086.52771550748, 43945.653014856936, -80994.65292628443, 36644.254522830786, 35795.93876551852, 67174.43521910135, 59620.39495949686, 12071.417220999863, 59359.57245344788, -100598.27275255595, 64620.10021449331, 44637.84183714889, 0.046, 1.022, 0.034, 192.0, 0.0, 0.0, 0.0, 0.0, 0.0, 0.0, 0.0, 0.0, 0.0, 1.696029388292663E9, 0.0, 2023-09-29 18:16:28.292
254.0, 33966.49318534055, 54914.81630978779, 34883.85348127526, 8282.327149191755, 54083.197305583635, 43932.06315422811, -81120.47089582335, 36640.56648499567, 35781.007800222374, 67155.68210550334, 59583.33576718996, 12060.107238305478, 59336.48310142555, -100319.65825792054, 64647.99519157353, 44670.00599742008, 0.046, 1.022, 0.034, 192.0, 0.0, 0.0, 0.0, 0.0, 0.0, 0.0, 0.0, 0.0, 0.0, 1.696029388292666E9, 0.0, 2023-09-29 18:16:28.292
0.0, 33964.3697696173, 54913.721074309484, 34916.77760085793, 8275.666329344074, 54084.91838990669, 43948.17876198039, -81046.374862954, 36655.363339825075, 35800.11854173167, 67171.73065802225, 59602.29004648806, 12069.427915743341, 59359.4606947256, -100627.01709592548, 64595.960330481576, 44605.029476288495, 0.046, 1.022, 0.034, 192.0, 0.0, 0.0, 0.0, 0.0, 0.0, 0.0, 0.0, 0.0, 0.0, 1.696029388352951E9, 0.0, 2023-09-29 18:16:28.352
2.0, 33954.87027822379, 54897.851335746214, 34880.34425739578, 8263.01524198237, 54062.991328596036, 43919.90380524442, -81095.21342458886, 36633.03394711423, 35786.12634970264, 67154.51981479167, 59585.45918291321, 12056.128627792434, 59347.50251144201, -100323.54746145576, 64651.01267707499, 44677.20325913469, 0.05, 1.02, 0.038, 192.0, 0.5, 72.0, 15.5, 112.0, 0.5, 24.0, 0.0, 0.0, 0.0, 1.696029388352961E9, 0.0, 2023-09-29 18:16:28.352
4.0, 33954.04326367894, 54904.087472449246, 34917.33639446931, 8267.105611217692, 54087.55589575242, 43940.37800316549, -81065.35149399657, 36651.74235722332, 35783.75706479038, 67149.40126531139, 59584.60981662391, 12057.469732459753, 59348.75420913151, -100628.2017383816, 64601.43650787312, 44604.8283105884, 0.05, 1.02, 0.038, 192.0, 0.0, 0.0, 0.0, 0.0, 0.0, 0.0, 0.0, 0.0, 0.0, 1.696029388352965E9, 0.0, 2023-09-29 18:16:28.352
6.0, 33953.46211832311, 54898.276018890865, 34877.4832341055, 8257.15908493508, 54072.11084033381, 43924.2176919243, -81109.45148580689, 36634.79973492619, 35785.61225958017, 67158.72194274925, 59587.090860258446, 12053.245252757699, 59351.637584166245, -100317.69130440848, 64663.93198537016, 44685.160480160775, 0.05, 1.02, 0.038, 192.0, 0.0, 0.0, 0.0, 0.0, 0.0, 0.0, 0.0, 0.0, 0.0, 1.696029388352968E9, 0.0, 2023-09-29 18:16:28.352
8.0, 33939.894609438736, 54887.010739685385, 34906.22757747502, 8241.95989870547, 54081.94560789414, 43924.821189024595, -81088.41849427445, 36631.22345581334, 35784.11469270166, 67149.06598914457, 59578.8654182989, 12053.37936322443, 59354.8115318789, -100637.34360186382, 64594.95450198108, 44606.7282088671, 0.05, 1.02, 0.038, 192.0, 0.0, 0.0, 0.0, 0.0, 0.0, 0.0, 0.0, 0.0, 0.0, 1.696029388352971E9, 0.0, 2023-09-29 18:16:28.352
10.0, 33948.29886535393, 54889.76000425339, 34864.496870576964, 8240.372924849144, 54069.74155542154, 43919.34501163304, -81096.08514262261, 36623.422696998445, 35773.743483274404, 67146.85316644348, 59579.29010144355, 12040.638868884906, 59362.14290406024, -100308.19181301497, 64655.08069456586, 44685.83103249443, 0.05, 1.02, 0.038, 192.0, 0.0, 0.0, 0.0, 0.0, 0.0, 0.0, 0.0, 0.0, 0.0, 1.696029388352975E9, 0.0, 2023-09-29 18:16:28.352
12.0, 33947.985940931554, 54892.41986184358, 34907.61338563125, 8245.089142929213, 54077.98934912555, 43927.481046614776, -81112.4466195639, 36636.81139192717, 35790.19436719351, 67151.79290196812, 59571.55639786201, 12053.111142290967, 59355.63854642375, -100627.24061337003, 64579.48709481801, 44593.093644749366, 0.048, 1.014, 0.044, 192.0, 0.5, 64.0, 15.5, 88.0, 0.5, 48.0, 0.0, 0.0, 0.0, 1.696029388352978E9, 0.0, 2023-09-29 18:16:28.352
14.0, 33947.62831302027, 54888.93298970855, 34877.66204806114, 8245.737343518418, 54073.764869423496, 43919.47912209977, -81059.00359857126, 36625.38965051051, 35776.29158214231, 67159.97364043875, 59593.75168010613, 12048.104351532978, 59372.827037909876, -100317.26662126383, 64665.653069693224, 44692.782425020036, 0.048, 1.014, 0.044, 192.0, 0.0, 0.0, 0.0, 0.0, 0.0, 0.0, 0.0, 0.0, 0.0, 1.696029388413073E9, 0.0, 2023-09-29 18:16:28.413
16.0, 33947.9635891871, 54901.069986947776, 34911.32377521083, 8262.501151859899, 54084.00196838403, 43938.34399442005, -81119.5991777896, 36639.31478730617, 35782.75123628989, 67168.1543789094, 59568.427153638266, 12061.381287739432, 59354.856235367806, -100597.0434066109, 64584.627996042735, 44601.14027275328, 0.048, 1.014, 0.044, 192.0, 0.0, 0.0, 0.0, 0.0, 0.0, 0.0, 0.0, 0.0, 0.0, 1.696029388413084E9, 0.0, 2023-09-29 18:16:28.413
18.0, 33952.322179355884, 54906.74733003943, 34883.24998417497, 8262.121172204157, 54076.46943050259, 43932.75605830623, -81034.05905175913, 36637.07961286064, 35787.33334390323, 67179.46436160378, 59597.52912491908, 12061.269529017154, 59383.444116526145, -100328.01781034682, 64679.421744277686, 44697.6998088002, 0.048, 1.014, 0.044, 192.0, 0.0, 0.0, 0.0, 0.0, 0.0, 0.0, 0.0, 0.0, 0.0, 1.696029388413087E9, 0.0, 2023-09-29 18:16:28.413
20.0, 33954.065615423395, 54906.188536428046, 34910.742629855, 8269.854875785693, 54104.49851804954, 43943.70841308933, -81149.79638454871, 36653.86577294657, 35802.57723362175, 67170.68012603285, 59574.082144985456, 12068.82441864305, 59370.70362218662, -100559.96186255955, 64602.5987985848, 44614.26074674854, 0.048, 1.014, 0.044, 192.0, 0.0, 0.0, 0.0, 0.0, 0.0, 0.0, 0.0, 0.0, 0.0, 1.696029388413091E9, 0.0, 2023-09-29 18:16:28.413
22.0, 33944.6108275188, 54898.94657122452, 34888.74851331097, 8259.863646014172, 54077.78818342545, 43931.83963678356, -81017.94344400686, 36636.02908087124, 35798.82214055325, 67180.38078312646, 59612.14716579285, 12059.839017372014, 59398.66565450021, -100366.88749395461, 64678.03593612146, 44705.72408505966, 0.052000000000000005, 1.018, 0.038, 192.0, 0.5, 80.0, 15.5, 104.0, 0.5, 24.0, 0.0, 0.0, 0.0, 1.696029388413094E9, 0.0, 2023-09-29 18:16:28.413
24.0, 33957.75365325852, 54912.51408010889, 34907.68044086462, 8276.381585166644, 54096.049558645434, 43944.89305554546, -81159.98878002033, 36648.56840951066, 35794.284736428825, 67175.37399236846, 59573.0092612516, 12068.53384596513, 59375.30808154441, -100526.03191447639, 64605.325711408346, 44625.07899106491, 0.052000000000000005, 1.018, 0.038, 192.0, 0.0, 0.0, 0.0, 0.0, 0.0, 0.0, 0.0, 0.0, 0.0, 1.696029388413098E9, 0.0, 2023-09-29 18:16:28.413
26.0, 33951.51751655549, 54912.53643185335, 34900.39377217219, 8270.324262419255, 54081.5656282384, 43942.18849446637, -81015.26123467222, 36642.91341816347, 35801.146721976605, 67203.9171700379, 59620.931401363785, 12075.552293724097, 59412.05434942894, -100405.31014267328, 64684.60734899132, 44701.63371582433, 0.052000000000000005, 1.018, 0.038, 192.0, 0.0, 0.0, 0.0, 0.0, 0.0, 0.0, 0.0, 0.0, 0.0, 1.696029388413101E9, 0.0, 2023-09-29 18:16:28.413
28.0, 33954.82557473488, 54912.84935627572, 34901.53371113941, 8268.625529840652, 54091.28863707646, 43937.58403510857, -81170.60585863661, 36643.18163909693, 35806.51114064588, 67183.77824828366, 59576.40672640881, 12071.461924488774, 59378.213808323606, -100484.90470467863, 64629.84557507582, 44625.32486025392, 0.052000000000000005, 1.018, 0.038, 192.0, 0.0, 0.0, 0.0, 0.0, 0.0, 0.0, 0.0, 0.0, 0.0, 1.696029388413105E9, 0.0, 2023-09-29 18:16:28.413
30.0, 33962.67103703869, 54910.569478341284, 34912.731935111515, 8266.412707139576, 54092.294465576946, 43945.78712532367, -81023.06199348712, 36652.65877874599, 35802.398419666104, 67197.6139781015, 59624.99941885465, 12071.081944833035, 59424.86189900183, -100455.959195609, 64671.442171507144, 44670.676549753734, 0.052000000000000005, 1.018, 0.038, 192.0, 0.0, 0.0, 0.0, 0.0, 0.0, 0.0, 0.0, 0.0, 0.0, 1.696029388473402E9, 0.0, 2023-09-29 18:16:28.473
32.0, 33964.59328706185, 54914.905716765614, 34910.04972577688, 8282.707128847496, 54104.47616630509, 43953.632587627486, -81204.26758578629, 36667.85796497559, 35814.289547716326, 67192.42837338787, 59581.301758444526, 12080.000290870703, 59400.990235923564, -100462.57531196777, 64631.14197625423, 44628.87878762231, 0.05, 1.02, 0.04, 192.0, 0.5, 72.0, 15.5, 112.0, 0.5, 32.0, 0.0, 0.0, 0.0, 1.696029388473411E9, 0.0, 2023-09-29 18:16:28.473
34.0, 33952.50099331153, 54900.98057996995, 34921.42676370463, 8271.911236275582, 54090.93100916517, 43948.245817213756, -81041.14455475147, 36658.15730788199, 35828.30409148981, 67203.69365259334, 59625.2229362992, 12079.709718192784, 59439.032904986496, -100526.83657727679, 64674.90669189772, 44669.93894218671, 0.05, 1.02, 0.04, 192.0, 0.0, 0.0, 0.0, 0.0, 0.0, 0.0, 0.0, 0.0, 0.0, 1.696029388473414E9, 0.0, 2023-09-29 18:16:28.473
36.0, 33955.29496136844, 54902.07581544827, 34895.834016303306, 8283.958826536993, 54090.46162253161, 43943.28372994468, -81195.88568161556, 36660.97362768336, 35808.56750113577, 67195.02117574468, 59579.06658399899, 12073.317119278565, 59403.94066619166, -100419.59290738023, 64658.32169751188, 44645.15085758577, 0.05, 1.02, 0.04, 192.0, 0.0, 0.0, 0.0, 0.0, 0.0, 0.0, 0.0, 0.0, 0.0, 1.696029388473418E9, 0.0, 2023-09-29 18:16:28.473
38.0, 33945.32608334137, 54894.856201989205, 34929.13811554171, 8275.01812875487, 54083.823154428384, 43943.52959913368, -81041.9268658074, 36658.62669451555, 35821.911492575586, 67218.0658242781, 59626.11700607742, 12076.222846057755, 59438.92114626422, -100562.487609683, 64655.21480503259, 44640.23347380561, 0.05, 1.02, 0.04, 192.0, 0.0, 0.0, 0.0, 0.0, 0.0, 0.0, 0.0, 0.0, 0.0, 1.696029388473421E9, 0.0, 2023-09-29 18:16:28.473
40.0, 33945.4601938081, 54895.86203048969, 34894.67172559163, 8279.108497990192, 54079.41986077069, 43934.70066007384, -81168.16951849098, 36657.26323810378, 35801.7502190769, 67197.4575158903, 59582.64286311184, 12063.705869162783, 59404.7229772476, -100375.78348824782, 64657.06999982238, 44648.45891576516, 0.05, 1.02, 0.04, 192.0, 0.0, 0.0, 0.0, 0.0, 0.0, 0.0, 0.0, 0.0, 0.0, 1.696029388473424E9, 0.0, 2023-09-29 18:16:28.473
42.0, 33937.212400104094, 54895.16912641157, 34934.547237699895, 8288.362120194688, 54074.99421536854, 43937.78520080867, -81025.94536852186, 36667.27681961976, 35825.398364710614, 67212.07555676407, 59611.02957857008, 12071.886607633425, 59437.133006707794, -100574.19992377757, 64649.67157240768, 44631.76216265705, 0.052000000000000005, 1.018, 0.036000000000000004, 192.0, 0.5, 80.0, 15.5, 104.0, 0.5, 16.0, 0.0, 0.0, 0.0, 1.696029388473427E9, 0.0, 2023-09-29 18:16:28.473
44.0, 33943.71675774059, 54896.62198980117, 34908.19453098709, 8300.744986622929, 54078.726956692575, 43934.20892169582, -81138.41934662097, 36667.50033706431, 35794.53060561784, 67195.04352748914, 59579.670081099284, 12064.175255796345, 59417.12819542029, -100321.96048759944, 64672.93973838565, 44665.781517718024, 0.052000000000000005, 1.018, 0.036000000000000004, 192.0, 0.0, 0.0, 0.0, 0.0, 0.0, 0.0, 0.0, 0.0, 0.0, 1.696029388532735E9, 0.0, 2023-09-29 18:16:28.532
46.0, 33935.44661229213, 54898.07485319077, 34950.77460417445, 8294.933533064548, 54079.50926774851, 43952.64911087145, -81042.46330767433, 36681.246659904325, 35818.31286171828, 67209.03571951816, 59602.80413661053, 12071.707793677782, 59432.48384386109, -100591.36606351925, 64632.930115810654, 44618.0828950504, 0.052000000000000005, 1.018, 0.036000000000000004, 192.0, 0.0, 0.0, 0.0, 0.0, 0.0, 0.0, 0.0, 0.0, 0.0, 1.696029388532746E9, 0.0, 2023-09-29 18:16:28.532
48.0, 33950.89166771074, 54907.283771906354, 34938.86112437977, 8321.487405477454, 54084.7172242066, 43946.30121544615, -81137.1005936981, 36679.614982559084, 35819.22928324095, 67207.24757996172, 59588.45431667022, 12072.266587289167, 59428.818157770416, -100309.46586244892, 64664.379020259265, 44676.28683761202, 0.052000000000000005, 1.018, 0.036000000000000004, 192.0, 0.0, 0.0, 0.0, 0.0, 0.0, 0.0, 0.0, 0.0, 0.0, 1.69602938853275E9, 0.0, 2023-09-29 18:16:28.532
50.0, 33940.25223735002, 54900.86882124768, 34978.13313938775, 8313.239611773446, 54089.18757309766, 43962.014491798225, -81065.12797655202, 36688.60038383012, 35834.629635170655, 67222.55852491362, 59611.02957857008, 12087.711642707784, 59445.313745178435, -100616.89175568722, 64623.0506447614, 44628.36469749984, 0.052000000000000005, 1.018, 0.036000000000000004, 192.0, 0.0, 0.0, 0.0, 0.0, 0.0, 0.0, 0.0, 0.0, 0.0, 1.696029388532753E9, 0.0, 2023-09-29 18:16:28.532
52.0, 33944.700234496624, 54904.7580247829, 34946.95245587259, 8325.55542296832, 54085.65599747372, 43947.01647126871, -81136.2512274088, 36682.58776457164, 35814.66952737207, 67207.02406251717, 59586.91204630281, 12069.047936087602, 59438.585870097384, -100303.45324319044, 64671.665688951696, 44692.46950059766, 0.044, 1.018, 0.032, 192.0, 0.5, 48.0, 15.5, 104.0, 0.5, 0.0, 0.0, 0.0, 0.0, 1.696029388532757E9, 0.0, 2023-09-29 18:16:28.532
54.0, 33930.97626340106, 54902.321684637274, 34987.38676159224, 8321.487405477454, 54085.11955560679, 43954.37019519451, -81088.06086636316, 36687.907479752, 35835.36724273768, 67217.77525160018, 59596.03155804057, 12082.034299616134, 59454.85794006085, -100631.06276167188, 64616.47923189154, 44611.39972345826, 0.044, 1.018, 0.032, 192.0, 0.0, 0.0, 0.0, 0.0, 0.0, 0.0, 0.0, 0.0, 0.0, 1.696029388532761E9, 0.0, 2023-09-29 18:16:28.532
56.0, 33925.835362176345, 54897.82898400176, 34954.70851119859, 8329.489329992453, 54077.65407295872, 43935.12534321849, -81072.86168013354, 36671.61305804409, 35807.49461740191, 67213.75193759822, 59587.89552305884, 12066.656299430884, 59448.55474812446, -100284.9683505259, 64683.556817001925, 44697.47629135565, 0.044, 1.018, 0.032, 192.0, 0.0, 0.0, 0.0, 0.0, 0.0, 0.0, 0.0, 0.0, 0.0, 1.696029388532764E9, 0.0, 2023-09-29 18:16:28.532
58.0, 33928.629330233256, 54904.37804512716, 34995.299279129424, 8334.205548072523, 54093.70262547763, 43954.50430566124, -81084.93162213941, 36689.1591774415, 35820.14570476362, 67212.52259165318, 59582.70991834521, 12075.127610579446, 59448.13006497981, -100584.8393541383, 64618.33442668134, 44603.554261154444, 0.044, 1.018, 0.032, 192.0, 0.0, 0.0, 0.0, 0.0, 0.0, 0.0, 0.0, 0.0, 0.0, 1.696029388532767E9, 0.0, 2023-09-29 18:16:28.532
60.0, 33924.851885420314, 54902.455795104004, 34966.66669448217, 8342.967431899004, 54080.89507590474, 43943.01550901122, -81069.71008416534, 36676.39633135752, 35825.93480657754, 67218.49050742276, 59596.29977897403, 12073.384174511932, 59459.216530229634, -100292.38912968506, 64683.10978211281, 44680.399558591795, 0.044, 1.018, 0.032, 192.0, 0.0, 0.0, 0.0, 0.0, 0.0, 0.0, 0.0, 0.0, 0.0, 1.696029388592575E9, 0.0, 2023-09-29 18:16:28.592
62.0, 33923.53313249745, 54902.43344335955, 35001.20013966562, 8349.114161624213, 54091.310988820915, 43955.51013416173, -81110.68083175193, 36690.12030245308, 35825.979510066456, 67211.42735617487, 59572.24930194012, 12077.318081536065, 59449.20294871366, -100580.57017094734, 64615.62986560224, 44589.07033074741, 0.04, 1.016, 0.036000000000000004, 192.0, 0.5, 32.0, 15.5, 96.0, 0.5, 16.0, 0.0, 0.0, 0.0, 1.696029388592593E9, 0.0, 2023-09-29 18:16:28.592
64.0, 33921.566178985384, 54905.76385328339, 34979.65305801071, 8349.494141279953, 54080.13511659326, 43950.39158468146, -81061.03760731668, 36681.5595843267, 35821.33034721975, 67220.34570221254, 59593.79638359504, 12070.500799477197, 59472.56052166945, -100315.70199915195, 64680.3158140559, 44672.12941314333, 0.04, 1.016, 0.036000000000000004, 192.0, 0.0, 0.0, 0.0, 0.0, 0.0, 0.0, 0.0, 0.0, 0.0, 1.696029388592597E9, 0.0, 2023-09-29 18:16:28.592
66.0, 33912.8042951589, 54897.13607992364, 34999.05437219791, 8344.040315632858, 54081.43151777167, 43952.582055638086, -81108.22213986184, 36681.73839828234, 35819.18457975204, 67208.70044335132, 59569.477685627666, 12071.797200655605, 59459.12712325181, -100557.12319101373, 64621.038987760425, 44595.01589477252, 0.04, 1.016, 0.036000000000000004, 192.0, 0.0, 0.0, 0.0, 0.0, 0.0, 0.0, 0.0, 0.0, 0.0, 1.6960293885926E9, 0.0, 2023-09-29 18:16:28.592
68.0, 33919.84509466232, 54908.91544925159, 34982.715247001084, 8365.162714143124, 54085.365424795804, 43954.70547136134, -81042.03862452968, 36687.70631405191, 35815.49654191692, 67223.87727783648, 59587.224970725176, 12068.220921542756, 59488.31850151045, -100325.5814702012, 64689.211808349115, 44677.91851495725, 0.04, 1.016, 0.036000000000000004, 192.0, 0.0, 0.0, 0.0, 0.0, 0.0, 0.0, 0.0, 0.0, 0.0, 1.696029388592603E9, 0.0, 2023-09-29 18:16:28.592
70.0, 33910.34560326882, 54897.04667294582, 34997.42269485268, 8358.636004762175, 54097.323608079394, 43952.24677947126, -81153.64088459504, 36693.7636367993, 35832.394460725125, 67215.27185622118, 59564.82852278096, 12081.363747282476, 59467.464323933644, -100549.54594964338, 64616.90391503619, 44599.82151983041, 0.04, 1.016, 0.036000000000000004, 192.0, 0.0, 0.0, 0.0, 0.0, 0.0, 0.0, 0.0, 0.0, 0.0, 1.696029388592607E9, 0.0, 2023-09-29 18:16:28.592
72.0, 33907.41752474517, 54899.460661346995, 34982.089398156335, 8361.98876643047, 54086.30419806292, 43952.850276571546, -81035.86954306002, 36689.695619308426, 35812.054373270796, 67211.87439106398, 59593.4164039393, 12067.371555253454, 59490.754841656075, -100388.30046514279, 64691.11170662782, 44685.18283190523, 0.044, 1.02, 0.034, 192.0, 0.5, 48.0, 15.5, 112.0, 0.5, 8.0, 0.0, 0.0, 0.0, 1.69602938859261E9, 0.0, 2023-09-29 18:16:28.592
74.0, 33904.66826017717, 54902.16522242609, 34990.91833721618, 8365.632100776686, 54094.48493653357, 43942.7696398222, -81169.55532664721, 36686.92400299597, 35821.777382108856, 67199.40211765791, 59562.72745880216, 12075.306424535087, 59468.09017277839, -100512.64321954767, 64629.26442971998, 44612.96434557013, 0.044, 1.02, 0.034, 192.0, 0.0, 0.0, 0.0, 0.0, 0.0, 0.0, 0.0, 0.0, 0.0, 1.696029388652751E9, 0.0, 2023-09-29 18:16:28.652
76.0, 33891.994821071006, 54893.00100719941, 34986.693857514125, 8349.494141279953, 54079.4645642596, 43935.25945368522, -81032.80735406964, 36676.35162786861, 35819.676318130056, 67218.93754231186, 59596.12096501839, 12069.360860509976, 59501.1931063167, -100443.21870126948, 64677.49949425453, 44670.38597707581, 0.044, 1.02, 0.034, 192.0, 0.0, 0.0, 0.0, 0.0, 0.0, 0.0, 0.0, 0.0, 0.0, 1.696029388652779E9, 0.0, 2023-09-29 18:16:28.652
78.0, 33894.431161216635, 54890.18468739804, 34980.770645233475, 8354.299766337845, 54086.43830852966, 43936.64526184145, -81159.78761432024, 36678.76561626978, 35803.76187607788, 67191.3107861651, 59540.42041783577, 12058.319098749054, 59458.07659126241, -100459.58017821076, 64640.23913624754, 44616.138293282784, 0.044, 1.02, 0.034, 192.0, 0.0, 0.0, 0.0, 0.0, 0.0, 0.0, 0.0, 0.0, 0.0, 1.696029388652783E9, 0.0, 2023-09-29 18:16:28.652
80.0, 33890.40784721468, 54893.58215255525, 34987.967906948084, 8345.157902855624, 54080.202171826626, 43934.20892169582, -81003.66067929992, 36674.183508656446, 35821.1068297752, 67214.17662074287, 59579.89359854384, 12063.549406951595, 59496.25337079208, -100461.50242823391, 64681.18753208966, 44654.06920362344, 0.044, 1.02, 0.034, 192.0, 0.0, 0.0, 0.0, 0.0, 0.0, 0.0, 0.0, 0.0, 0.0, 1.696029388652786E9, 0.0, 2023-09-29 18:16:28.652
82.0, 33894.49821645, 54896.33141712325, 34976.32264808687, 8355.596167516253, 54097.524773779485, 43931.37025015, -81179.0548180407, 36676.753959268804, 35822.894969331624, 67196.96577751229, 59535.68184801124, 12055.86040685897, 59470.21358850165, -100417.6036021237, 64641.91551708168, 44612.53966242548, 0.048, 1.018, 0.032, 192.0, 0.5, 64.0, 15.5, 104.0, 0.5, 0.0, 0.0, 0.0, 0.0, 1.69602938865279E9, 0.0, 2023-09-29 18:16:28.652
84.0, 33888.73146638054, 54896.35376886771, 34999.72492453157, 8352.757495970429, 54085.96892189609, 43933.69483157335, -81027.97937726729, 36673.200031900415, 35813.52958840485, 67216.12122251048, 59581.54762763353, 12060.800142383594, 59506.892801152804, -100519.72872253999, 64665.47425573758, 44623.492017208584, 0.048, 1.018, 0.032, 192.0, 0.0, 0.0, 0.0, 0.0, 0.0, 0.0, 0.0, 0.0, 0.0, 1.696029388652793E9, 0.0, 2023-09-29 18:16:28.652
86.0, 33901.67312642016, 54903.2604579044, 34981.70941850059, 8357.429010561587, 54089.03111088647, 43930.40912513842, -81178.8089488517, 36674.384674356545, 35819.02811754085, 67218.42345218938, 59547.43886559473, 12064.041145329613, 59476.24855950458, -100393.3966628786, 64654.56660444339, 44610.0809705354, 0.048, 1.018, 0.032, 192.0, 0.0, 0.0, 0.0, 0.0, 0.0, 0.0, 0.0, 0.0, 0.0, 1.696029388652796E9, 0.0, 2023-09-29 18:16:28.652
88.0, 33896.30870775088, 54906.792033528334, 35003.30120364442, 8356.669051250106, 54083.979616639575, 43943.775468322696, -81045.19022049788, 36681.33606688214, 35831.701556647015, 67234.80728087513, 59588.1637439923, 12071.327814022043, 59520.3485513149, -100553.97159504553, 64665.20603480411, 44611.80205485845, 0.048, 1.018, 0.032, 192.0, 0.0, 0.0, 0.0, 0.0, 0.0, 0.0, 0.0, 0.0, 0.0, 1.696029388652799E9, 0.0, 2023-09-29 18:16:28.652
90.0, 33905.51762646647, 54911.262382419394, 34978.69193299913, 8368.001385688947, 54090.2157533426, 43941.9202735329, -81209.9672806224, 36687.68396230745, 35826.96298682249, 67226.02304530419, 59552.28919414154, 12073.205360556289, 59497.70623418168, -100381.8408109952, 64667.37415401628, 44620.18395902919, 0.048, 1.018, 0.032, 192.0, 0.0, 0.0, 0.0, 0.0, 0.0, 0.0, 0.0, 0.0, 0.0, 1.696029388713309E9, 0.0, 2023-09-29 18:16:28.713
92.0, 33893.02300131595, 54904.13217593815, 34993.68995352864, 8349.337679068765, 54081.9679596386, 43931.59376759455, -81075.09685457908, 36674.094101678624, 35825.554826921805, 67230.49339419525, 59574.9091595303, 12067.796238398105, 59519.87916468134, -100614.14249111922, 64666.36832551579, 44595.39587442826, 0.05, 1.018, 0.028, 192.0, 0.5, 72.0, 15.5, 104.0, 0.0, 112.0, 0.0, 0.0, 0.0, 1.696029388713317E9, 0.0, 2023-09-29 18:16:28.713
94.0, 33904.55650145489, 54915.397455143626, 34968.00779914949, 8359.060687906825, 54088.159392852715, 43935.728840318785, -81191.8623676136, 36670.49547082132, 35825.91245483309, 67234.89668785295, 59552.66917379727, 12070.076116332546, 59505.015254618556, -100357.76798221684, 64684.78616294696, 44626.50950271005, 0.05, 1.018, 0.028, 192.0, 0.0, 0.0, 0.0, 0.0, 0.0, 0.0, 0.0, 0.0, 0.0, 1.69602938871332E9, 0.0, 2023-09-29 18:16:28.713
96.0, 33891.1007512928, 54907.48493760645, 34993.73465701755, 8341.93925165406, 54092.5179830215, 43941.65205259944, -81092.66532572095, 36671.389540599535, 35842.43039398556, 67237.57889718759, 59575.24443569713, 12069.33850876552, 59538.78874049053, -100639.93640422064, 64645.33533398335, 44576.218077685604, 0.05, 1.018, 0.028, 192.0, 0.0, 0.0, 0.0, 0.0, 0.0, 0.0, 0.0, 0.0, 0.0, 1.696029388713323E9, 0.0, 2023-09-29 18:16:28.713
98.0, 33895.70521065059, 54912.55878359781, 34957.99421763352, 8355.305594838333, 54082.146773594235, 43931.61611933901, -81174.20448949392, 36661.957104439396, 35810.936786048034, 67234.9190395974, 59555.79841802102, 12063.77292439615, 59521.95787691568, -100336.15384532856, 64684.22736933558, 44635.941938870186, 0.05, 1.018, 0.028, 192.0, 0.0, 0.0, 0.0, 0.0, 0.0, 0.0, 0.0, 0.0, 0.0, 1.696029388713326E9, 0.0, 2023-09-29 18:16:28.713
100.0, 33890.85488210379, 54915.10688246571, 34995.12046517378, 8347.147208112146, 54086.907695163216, 43949.922198047905, -81109.7420584848, 36668.103834164605, 35832.08153630275, 67247.01133334772, 59571.86932228439, 12075.775811168649, 59533.78194973254, -100655.76143929499, 64629.66676112018, 44566.226847914084, 0.05, 1.018, 0.028, 192.0, 0.0, 0.0, 0.0, 0.0, 0.0, 0.0, 0.0, 0.0, 0.0, 1.69602938871333E9, 0.0, 2023-09-29 18:16:28.713
102.0, 33881.578908154836, 54902.90282999311, 34941.20805754758, 8341.335754553766, 54067.72989842056, 43924.57531983558, -81141.88386701154, 36646.89202867651, 35811.89791105961, 67243.18918504586, 59554.367906375875, 12060.755438894683, 59526.964667673674, -100316.59606893016, 64682.707450712616, 44643.005090118066, 0.05, 1.02, 0.032, 192.0, 0.5, 72.0, 15.5, 112.0, 0.5, 0.0, 0.0, 0.0, 0.0, 1.696029388713333E9, 0.0, 2023-09-29 18:16:28.713
104.0, 33884.32817272284, 54908.60252482921, 34992.48295932805, 8346.029620889381, 54090.23810508706, 43938.79102930916, -81126.25999763727, 36665.82395623016, 35823.47611468746, 67247.54777521465, 59551.97626971916, 12068.936177365325, 59529.4010078193, -100642.17157866617, 64617.08272899184, 44550.848847728834, 0.05, 1.02, 0.032, 192.0, 0.0, 0.0, 0.0, 0.0, 0.0, 0.0, 0.0, 0.0, 0.0, 1.696029388773401E9, 0.0, 2023-09-29 18:16:28.773
106.0, 33887.32330647985, 54912.737597553445, 34956.67546471065, 8357.451362306043, 54072.021433355985, 43928.531578604176, -81133.92664598544, 36661.48771780583, 35824.86192284369, 67255.21442356282, 59562.36983089088, 12061.71656390626, 59539.481644568645, -100317.40073173055, 64696.967863675105, 44642.26748255104, 0.05, 1.02, 0.032, 192.0, 0.0, 0.0, 0.0, 0.0, 0.0, 0.0, 0.0, 0.0, 0.0, 1.696029388773411E9, 0.0, 2023-09-29 18:16:28.773
108.0, 33881.75772211048, 54908.334303895754, 34996.37216286328, 8355.439705305065, 54086.59477074084, 43938.858084542524, -81149.79638454871, 36677.98330521385, 35826.13597227764, 67253.91802238442, 59556.200749421216, 12075.038203601624, 59525.51180428408, -100641.61278505478, 64620.12256623776, 44557.4649640876, 0.05, 1.02, 0.032, 192.0, 0.0, 0.0, 0.0, 0.0, 0.0, 0.0, 0.0, 0.0, 0.0, 1.696029388773415E9, 0.0, 2023-09-29 18:16:28.773
110.0, 33875.499233662995, 54903.08164394875, 34949.925237885145, 8355.305594838333, 54068.84748564333, 43918.02625871018, -81096.643936234, 36661.532421294745, 35822.31382397578, 67253.47098749531, 59559.955842489704, 12058.587319682518, 59539.302830613, -100327.32490626871, 64704.67921551219, 44657.064337380456, 0.05, 1.02, 0.032, 192.0, 0.0, 0.0, 0.0, 0.0, 0.0, 0.0, 0.0, 0.0, 0.0, 1.696029388773418E9, 0.0, 2023-09-29 18:16:28.773
112.0, 33879.410788942674, 54905.31681839428, 34988.32553485937, 8358.70305999554, 54087.824116685886, 43944.69188984536, -81141.81681177818, 36676.21751740188, 35810.89208255912, 67251.74990317225, 59534.29603985501, 12065.672822674851, 59529.065731652474, -100604.75475844798, 64627.81156633038, 44559.14134492175, 0.048, 1.02, 0.03, 192.0, 0.5, 64.0, 15.5, 112.0, 0.0, 120.0, 0.0, 0.0, 0.0, 1.696029388773421E9, 0.0, 2023-09-29 18:16:28.773
114.0, 33875.83450982982, 54903.640437560134, 34959.4023775342, 8358.546597784352, 54073.22842755657, 43938.07577348659, -81078.31550578064, 36668.528517309256, 35825.35366122171, 67266.14442660146, 59564.225025680666, 12061.403639483886, 59559.08412445595, -100352.180046103, 64695.17972411868, 44654.963273401656, 0.048, 1.02, 0.03, 192.0, 0.0, 0.0, 0.0, 0.0, 0.0, 0.0, 0.0, 0.0, 0.0, 1.696029388773424E9, 0.0, 2023-09-29 18:16:28.773
116.0, 33865.016265513455, 54894.14094616663, 34980.52477604446, 8353.808027959827, 54086.95239865213, 43931.951395505836, -81158.20064046391, 36666.36039809709, 35819.96689080798, 67253.73920842877, 59529.51276654158, 12064.555235452084, 59532.82082472096, -100589.35440651828, 64623.67649360615, 44571.03247297197, 0.048, 1.02, 0.03, 192.0, 0.0, 0.0, 0.0, 0.0, 0.0, 0.0, 0.0, 0.0, 0.0, 1.696029388773428E9, 0.0, 2023-09-29 18:16:28.773
118.0, 33863.473995146036, 54896.71139677899, 34958.754176944996, 8357.876045450694, 54075.39654676874, 43929.090372215556, -81036.2271709713, 36663.07469166216, 35820.34687046371, 67264.91508065643, 59557.47479885517, 12055.05574405858, 59565.29790941453, -100379.38211910512, 64709.44013708117, 44650.51527625505, 0.048, 1.02, 0.03, 192.0, 0.0, 0.0, 0.0, 0.0, 0.0, 0.0, 0.0, 0.0, 0.0, 1.696029388773431E9, 0.0, 2023-09-29 18:16:28.773
120.0, 33874.53810865142, 54906.81438527279, 34988.63845928174, 8368.26960662241, 54096.518945279, 43944.4236689119, -81145.08016646864, 36675.010523201294, 35830.24869325742, 67270.81594119263, 59529.333952585934, 12071.1490000664, 59547.70708652819, -100559.64893813718, 64641.42377870367, 44572.44063287266, 0.048, 1.02, 0.03, 192.0, 0.0, 0.0, 0.0, 0.0, 0.0, 0.0, 0.0, 0.0, 0.0, 1.696029388832772E9, 0.0, 2023-09-29 18:16:28.832
122.0, 33865.910335291665, 54896.64434154562, 34970.22062185057, 8358.278376850889, 54076.558837480414, 43940.065078743115, -80988.52854830367, 36664.43814807393, 35833.78026888135, 67281.34361283107, 59566.34844140392, 12061.962433095268, 59578.10545898741, -100436.51317793288, 64709.19426789216, 44654.78445944601, 0.048, 1.022, 0.028, 192.0, 0.5, 64.0, 15.5, 120.0, 0.0, 112.0, 0.0, 0.0, 0.0, 1.696029388832781E9, 0.0, 2023-09-29 18:16:28.832
124.0, 33861.50704163397, 54892.62102754367, 34970.53354627294, 8354.120952382202, 54085.61129398481, 43936.60055835254, -81129.32218662766, 36663.70054050691, 35822.22441699796, 67266.36794404603, 59520.1473856148, 12058.654374915885, 59544.68960102673, -100520.77925452939, 64654.27603176547, 44590.54554588146, 0.048, 1.022, 0.028, 192.0, 0.0, 0.0, 0.0, 0.0, 0.0, 0.0, 0.0, 0.0, 0.0, 1.696029388832785E9, 0.0, 2023-09-29 18:16:28.832
126.0, 33852.208715940564, 54888.485954819436, 34980.01068592199, 8355.439705305065, 54078.19051482565, 43932.10785771703, -80918.58993990302, 36657.7996799707, 35833.06501305879, 67277.70027848486, 59556.58072907695, 12051.993555068202, 59594.89161907335, -100468.92320739308, 64705.52858180149, 44641.64163370629, 0.048, 1.022, 0.028, 192.0, 0.0, 0.0, 0.0, 0.0, 0.0, 0.0, 0.0, 0.0, 0.0, 1.696029388832788E9, 0.0, 2023-09-29 18:16:28.832
128.0, 33856.32143692034, 54888.91063796409, 34982.96111619009, 8355.41735356061, 54098.999988913536, 43932.443133883855, -80986.94157444735, 36661.174793383456, 35820.860960586186, 67268.20078709135, 59525.556507772984, 12055.256909758677, 59577.45725839821, -100463.02234685689, 64681.858084423315, 44589.226792958594, 0.048, 1.022, 0.028, 192.0, 0.0, 0.0, 0.0, 0.0, 0.0, 0.0, 0.0, 0.0, 0.0, 1.696029388832791E9, 0.0, 2023-09-29 18:16:28.832
130.0, 33845.21261992605, 54881.981597182945, 34989.37606684877, 8337.379495785177, 54083.51023000601, 43931.526712361185, -80670.50792819356, 36657.620866015066, 35827.52178043387, 67270.43596153689, 59567.82365653797, 12045.265679987155, 59627.324000278, -100485.6646639901, 64747.41575091073, 44627.9847178441, 0.048, 1.022, 0.028, 192.0, 0.0, 0.0, 0.0, 0.0, 0.0, 0.0, 0.0, 0.0, 0.0, 1.696029388832795E9, 0.0, 2023-09-29 18:16:28.832
132.0, 33851.33699790681, 54885.066137917776, 34960.22939207905, 8354.500932037941, 54086.99710214104, 43926.20699718082, -80783.00425803712, 36657.57616252615, 35818.29050997383, 67249.44767349336, 59514.246525078604, 12044.461017186764, 59586.50971490261, -100395.52007860185, 64723.36527387682, 44601.8778803203, 0.054, 1.026, 0.022, 192.0, 0.5, 88.0, 16.0, 8.0, 0.0, 88.0, 0.0, 0.0, 0.0, 1.696029388832798E9, 0.0, 2023-09-29 18:16:28.832
134.0, 33836.204866910564, 54876.326605835755, 34968.72305497206, 8330.718675937494, 54077.676424703175, 43928.35276464853, -80568.87454615529, 36652.65877874599, 35830.24869325742, 67280.00250816376, 59552.44565635272, 12046.696191632294, 59606.62628491239, -100521.82978651879, 64726.4274628672, 44612.852586847854, 0.054, 1.026, 0.022, 192.0, 0.0, 0.0, 0.0, 0.0, 0.0, 0.0, 0.0, 0.0, 0.0, 1.69602938889243E9, 0.0, 2023-09-29 18:16:28.892
136.0, 33836.696605288584, 54873.51028603438, 34934.63664467772, 8333.400885272133, 54066.8134768979, 43917.64627905444, -80706.42718153325, 36644.79096469772, 35807.89694880211, 67256.10849334103, 59495.56046671396, 12034.313325204055, 59563.08508671345, -100349.65429897956, 64716.123308673305, 44608.53870016798, 0.054, 1.026, 0.022, 192.0, 0.0, 0.0, 0.0, 0.0, 0.0, 0.0, 0.0, 0.0, 0.0, 1.696029388892445E9, 0.0, 2023-09-29 18:16:28.892
138.0, 33835.847238999275, 54872.549161022805, 34966.13025261524, 8328.50585323642, 54069.67450018818, 43931.951395505836, -80545.38286273276, 36647.763746710276, 35821.978547808954, 67272.46997028231, 59531.18914737573, 12043.499892175185, 59584.69922360173, -100538.12420822671, 64694.4197648072, 44587.25983944653, 0.054, 1.026, 0.022, 192.0, 0.0, 0.0, 0.0, 0.0, 0.0, 0.0, 0.0, 0.0, 0.0, 1.696029388892449E9, 0.0, 2023-09-29 18:16:28.892
140.0, 33827.9347214621, 54860.166294594565, 34923.88545559472, 8324.974277612482, 54065.025337341474, 43910.136092917455, -80669.50209969308, 36637.884275661025, 35813.3507744492, 67266.16677834593, 59500.58960921641, 12038.157825250368, 59564.292080914034, -100306.15780426953, 64712.09999467135, 44607.622278645315, 0.054, 1.026, 0.022, 192.0, 0.0, 0.0, 0.0, 0.0, 0.0, 0.0, 0.0, 0.0, 0.0, 1.696029388892457E9, 0.0, 2023-09-29 18:16:28.892
142.0, 33814.0319364109, 54848.2975182888, 34961.72695895755, 8308.523393693375, 54065.874703630776, 43919.38971512196, -80508.65894659268, 36641.68407221843, 35805.37120167866, 67262.50109225525, 59521.510842026575, 12030.04414201309, 59574.12684847437, -100527.06009472134, 64686.17197110319, 44578.475603875595, 0.046, 1.024, 0.026000000000000002, 192.0, 0.5, 56.0, 16.0, 0.0, 0.0, 104.0, 0.0, 0.0, 0.0, 1.69602938889246E9, 0.0, 2023-09-29 18:16:28.892
144.0, 33824.64901502717, 54860.590977739215, 34921.33735672681, 8337.915937652104, 54066.94758736463, 43928.866854771004, -80638.34376792239, 36651.98822641232, 35796.251689940895, 67260.1765108319, 59501.41662376126, 12032.100502502979, 59560.22406342317, -100223.63516374055, 64716.123308673305, 44621.54741544097, 0.046, 1.024, 0.026000000000000002, 192.0, 0.0, 0.0, 0.0, 0.0, 0.0, 0.0, 0.0, 0.0, 0.0, 1.696029388892463E9, 0.0, 2023-09-29 18:16:28.892
146.0, 33814.41191606664, 54855.070096858755, 34971.49467128452, 8327.388266013655, 54081.54327649395, 43938.07577348659, -80562.03491235196, 36659.76663348277, 35809.953309291996, 67273.14052261597, 59523.14251937182, 12045.91388057636, 59583.62633986788, -100556.8326183358, 64644.821243860875, 44565.48924034706, 0.046, 1.024, 0.026000000000000002, 192.0, 0.0, 0.0, 0.0, 0.0, 0.0, 0.0, 0.0, 0.0, 0.0, 1.696029388892467E9, 0.0, 2023-09-29 18:16:28.892
148.0, 33823.84435222678, 54866.06715513077, 34928.31110099686, 8337.759475440917, 54078.34697703683, 43930.78910479416, -80645.29516044797, 36658.581991026644, 35813.104905260196, 67276.69444998437, 59522.851946693896, 12042.941098563802, 59589.34838644844, -100232.01706791128, 64712.18940164917, 44648.81654367645, 0.046, 1.024, 0.026000000000000002, 192.0, 0.0, 0.0, 0.0, 0.0, 0.0, 0.0, 0.0, 0.0, 0.0, 1.69602938889247E9, 0.0, 2023-09-29 18:16:28.892
150.0, 33810.343898575775, 54854.645413714105, 34966.06319738188, 8324.79546365684, 54083.130250350274, 43931.79493329465, -80612.37104086531, 36660.28072360525, 35817.03881228433, 67280.20367386386, 59523.79071996102, 12049.825435856037, 59587.5155434031, -100569.08137429731, 64644.396560716224, 44572.954722995135, 0.046, 1.024, 0.026000000000000002, 192.0, 0.0, 0.0, 0.0, 0.0, 0.0, 0.0, 0.0, 0.0, 0.0, 1.696029388952841E9, 0.0, 2023-09-29 18:16:28.952
152.0, 33823.062041170844, 54862.37911729564, 34939.41991799115, 8333.959678883515, 54082.39264278325, 43923.03304946817, -80652.55947739596, 36657.53145903724, 35821.01742279738, 67281.96946167582, 59535.1007026554, 12048.037296299613, 59598.4678981862, -100247.57388205218, 64714.35752086133, 44652.75045070058, 0.048, 1.02, 0.03, 192.0, 0.5, 64.0, 15.5, 112.0, 0.0, 120.0, 0.0, 0.0, 0.0, 1.696029388952851E9, 0.0, 2023-09-29 18:16:28.952
154.0, 33808.64516599717, 54849.70567818948, 34964.29740956991, 8315.161861796601, 54092.04859638794, 43927.50339835923, -80669.6362101598, 36656.63738925903, 35821.3079954753, 67276.627394751, 59523.14251937182, 12044.773941609137, 59580.161819477304, -100577.15035404568, 64632.68424662164, 44567.03151071448, 0.048, 1.02, 0.03, 192.0, 0.0, 0.0, 0.0, 0.0, 0.0, 0.0, 0.0, 0.0, 0.0, 1.696029388952855E9, 0.0, 2023-09-29 18:16:28.952
156.0, 33800.79970369336, 54843.91657637556, 34923.28195849442, 8313.239611773446, 54074.6142357128, 43919.07679069958, -80634.76748880954, 36642.42167978545, 35816.77059135087, 67274.16870286092, 59523.0978158829, 12031.51935714714, 59601.217162754205, -100259.44265835795, 64712.9270092162, 44663.345177572395, 0.048, 1.02, 0.03, 192.0, 0.0, 0.0, 0.0, 0.0, 0.0, 0.0, 0.0, 0.0, 0.0, 1.696029388952858E9, 0.0, 2023-09-29 18:16:28.952
158.0, 33805.27005258442, 54845.45884674297, 34954.86497340977, 8314.603068185219, 54091.109823120816, 43931.54906410564, -80704.41552453226, 36650.51301127828, 35802.3537161772, 67271.9335284154, 59506.2446005636, 12039.118950261945, 59581.637034611354, -100557.95020555858, 64626.24694421852, 44571.09952820534, 0.048, 1.02, 0.03, 192.0, 0.0, 0.0, 0.0, 0.0, 0.0, 0.0, 0.0, 0.0, 0.0, 1.696029388952861E9, 0.0, 2023-09-29 18:16:28.952
160.0, 33797.84927342526, 54837.47927397243, 34921.24794974899, 8314.178385040568, 54069.80861065491, 43928.12924720398, -80631.37002365233, 36637.63840647202, 35811.89791105961, 67274.90631042795, 59533.31256309898, 12034.581546137519, 59610.4707849587, -100270.75264105233, 64707.29436961346, 44666.36266307386, 0.048, 1.02, 0.03, 192.0, 0.0, 0.0, 0.0, 0.0, 0.0, 0.0, 0.0, 0.0, 0.0, 1.696029388952864E9, 0.0, 2023-09-29 18:16:28.952
162.0, 33800.53148275989, 54838.99919259539, 34950.26051405198, 8311.943210595038, 54098.53060227998, 43944.602482867536, -80739.35130111591, 36657.039720659224, 35810.95913779249, 67263.55162424465, 59497.57212371494, 12044.796293353593, 59583.04519451204, -100540.60525186126, 64616.34512142481, 44559.54367632195, 0.046, 1.02, 0.034, 192.0, 0.5, 56.0, 15.5, 112.0, 0.5, 8.0, 0.0, 0.0, 0.0, 1.696029388952868E9, 0.0, 2023-09-29 18:16:28.952
164.0, 33788.662706454124, 54829.43264596852, 34924.48895269501, 8300.230896500456, 54076.625892713775, 43920.39554362244, -80621.3787938808, 36639.60535998409, 35813.84251282722, 67270.61477549253, 59535.145406144315, 12033.441607170298, 59623.233631042676, -100298.31234196572, 64705.97561669059, 44646.31314829745, 0.046, 1.02, 0.034, 192.0, 0.0, 0.0, 0.0, 0.0, 0.0, 0.0, 0.0, 0.0, 0.0, 1.696029389013193E9, 0.0, 2023-09-29 18:16:29.013
166.0, 33786.4722354975, 54827.8903756011, 34939.77754590244, 8302.443719201532, 54088.18174459717, 43922.54131109015, -80741.11708892789, 36650.37890081154, 35808.29928020231, 67256.75669393023, 59495.359301013865, 12035.632078126917, 59589.03546202606, -100483.04950988884, 64631.23138323205, 44558.80606875492, 0.046, 1.02, 0.034, 192.0, 0.0, 0.0, 0.0, 0.0, 0.0, 0.0, 0.0, 0.0, 0.0, 1.696029389013204E9, 0.0, 2023-09-29 18:16:29.013
168.0, 33780.571374961306, 54827.08571280071, 34925.472429451045, 8300.320303478278, 54080.60450322682, 43925.04470646915, -80606.00079369555, 36644.14276410851, 35805.92999529004, 67272.80524644915, 59526.74115022912, 12031.787578080604, 59624.30651477654, -100310.60580141614, 64701.77348873299, 44648.727136698624, 0.046, 1.02, 0.034, 192.0, 0.0, 0.0, 0.0, 0.0, 0.0, 0.0, 0.0, 0.0, 0.0, 1.696029389013207E9, 0.0, 2023-09-29 18:16:29.013
170.0, 33784.885261641175, 54832.830111125724, 34943.219714548555, 8309.50687044941, 54101.168108125705, 43933.11368621751, -80775.09174049995, 36657.039720659224, 35805.415905167574, 67262.14346434397, 59488.1396875548, 12035.073284515534, 59599.71959587569, -100447.1079048047, 64636.81931934587, 44579.70494982063, 0.046, 1.02, 0.034, 192.0, 0.0, 0.0, 0.0, 0.0, 0.0, 0.0, 0.0, 0.0, 0.0, 1.69602938901321E9, 0.0, 2023-09-29 18:16:29.013
172.0, 33775.89986037015, 54837.74749490589, 34942.63856919272, 8305.528259936364, 54086.14773585174, 43929.76092454921, -80608.45948558563, 36650.133031622536, 35809.37216393616, 67286.81979022262, 59536.28534511154, 12039.744799106695, 59640.69034346227, -100351.59890074718, 64707.026148679994, 44654.20331409018, 0.056, 1.02, 0.034, 192.0, 0.5, 96.0, 15.5, 112.0, 0.5, 8.0, 0.0, 0.0, 0.0, 1.696029389013213E9, 0.0, 2023-09-29 18:16:29.013
174.0, 33776.68217142608, 54837.85925362817, 34934.23431327752, 8305.774129125373, 54084.60546548432, 43924.91059600242, -80784.94885980473, 36654.98336016934, 35799.91737603157, 67271.7770662042, 59490.30780676697, 12041.331772963022, 59603.27352324409, -100398.49286061441, 64655.41597073269, 44593.80890057193, 0.056, 1.02, 0.034, 192.0, 0.0, 0.0, 0.0, 0.0, 0.0, 0.0, 0.0, 0.0, 0.0, 1.696029389013217E9, 0.0, 2023-09-29 18:16:29.013
176.0, 33771.02718007889, 54838.59686119519, 34942.50445872598, 8305.729425636462, 54088.874648675286, 43928.4198198819, -80631.63824458579, 36647.87550543255, 35803.69482084451, 67276.76150521774, 59525.422397306254, 12035.967354293747, 59636.42116027131, -100386.60173256419, 64701.90759919973, 44640.21112206115, 0.056, 1.02, 0.034, 192.0, 0.0, 0.0, 0.0, 0.0, 0.0, 0.0, 0.0, 0.0, 0.0, 1.69602938901322E9, 0.0, 2023-09-29 18:16:29.013
178.0, 33774.402293491636, 54839.066247828756, 34923.77369687244, 8307.83048961526, 54092.294465576946, 43933.82894204008, -80827.75245043664, 36654.06693864667, 35807.13698949063, 67269.40778129194, 59486.262141020554, 12044.14809276439, 59610.783709381074, -100367.35688058817, 64660.623927190776, 44606.504691422546, 0.056, 1.02, 0.034, 192.0, 0.0, 0.0, 0.0, 0.0, 0.0, 0.0, 0.0, 0.0, 0.0, 1.696029389013223E9, 0.0, 2023-09-29 18:16:29.013
180.0, 33755.35860721572, 54827.8903756011, 34933.60846443277, 8290.887867318139, 54084.60546548432, 43924.73178204677, -80653.09591926288, 36645.17094435346, 35812.814332582275, 67280.09191514157, 59530.742112486616, 12039.253060728677, 59647.1276458654, -100453.74637290793, 64685.07673562488, 44628.655270177755, 0.056, 1.02, 0.034, 192.0, 0.0, 0.0, 0.0, 0.0, 0.0, 0.0, 0.0, 0.0, 0.0, 1.696029389073477E9, 0.0, 2023-09-29 18:16:29.073
182.0, 33768.188508533065, 54858.71343120497, 34914.832999090315, 8302.957809324003, 54085.924218407185, 43924.195340179846, -80809.35696474994, 36645.863848431574, 35797.27987018584, 67259.61771722052, 59478.90841709476, 12024.702075088273, 59608.548534935544, -100310.33758048268, 64684.450886780134, 44619.69222065118, 0.054, 1.022, 0.04, 192.0, 0.5, 88.0, 15.5, 120.0, 0.5, 32.0, 0.0, 0.0, 0.0, 1.696029389073486E9, 0.0, 2023-09-29 18:16:29.073
184.0, 33751.692921125046, 54901.427614859065, 34942.169182559155, 8288.719748105974, 54085.164259095705, 43925.75996229172, -80650.27959946152, 36643.896894919504, 35817.1058675177, 67281.8353512091, 59526.338818828925, 12039.074246773034, 59645.58537549798, -100463.93876837955, 64683.556817001925, 44614.41720895973, 0.054, 1.022, 0.04, 192.0, 0.0, 0.0, 0.0, 0.0, 0.0, 0.0, 0.0, 0.0, 0.0, 1.69602938907349E9, 0.0, 2023-09-29 18:16:29.073
186.0, 33759.2701624954, 55013.36515109124, 34907.836903075804, 8298.889791833139, 54083.979616639575, 43921.62488956749, -80802.3161652465, 36644.23217108633, 35803.60541386669, 67266.25618532374, 59482.574103185434, 12032.346371691987, 59620.305552519036, -100263.35421363762, 64690.66467173871, 44620.11690379583, 0.054, 1.022, 0.04, 192.0, 0.0, 0.0, 0.0, 0.0, 0.0, 0.0, 0.0, 0.0, 0.0, 1.696029389073493E9, 0.0, 2023-09-29 18:16:29.073
188.0, 33744.65212162163, 55111.73517843905, 34941.72214767005, 8285.791669582328, 54085.633645729264, 43932.19726469484, -80663.71299787915, 36643.427508285946, 35816.83764658423, 67288.22795012331, 59527.14348162931, 12045.757418365172, 59655.19662561377, -100497.24286761796, 64665.653069693224, 44592.177223226696, 0.054, 1.022, 0.04, 192.0, 0.0, 0.0, 0.0, 0.0, 0.0, 0.0, 0.0, 0.0, 0.0, 1.696029389073496E9, 0.0, 2023-09-29 18:16:29.073
190.0, 33743.44512742104, 55165.69228955416, 34891.25190868997, 8288.786803339339, 54070.88149438876, 43912.103046429525, -80776.58930737845, 36629.837647657114, 35801.906681288085, 67274.81690345012, 59485.14455379779, 12027.71956058974, 59632.33079103599, -100213.57687873565, 64708.09903241385, 44631.69510742368, 0.054, 1.022, 0.04, 192.0, 0.0, 0.0, 0.0, 0.0, 0.0, 0.0, 0.0, 0.0, 0.0, 1.696029389073499E9, 0.0, 2023-09-29 18:16:29.073
192.0, 33741.23230471996, 55204.24904873956, 34934.43547897762, 8278.54970437881, 54085.03014862897, 43921.334316889566, -80695.85480640589, 36634.196237825905, 35820.57038790827, 67282.55060703166, 59511.027873877036, 12039.834206084515, 59647.842901687975, -100509.33516136828, 64658.05347657842, 44571.613618327814, 0.052000000000000005, 1.022, 0.04, 192.0, 0.5, 80.0, 15.5, 120.0, 0.5, 32.0, 0.0, 0.0, 0.0, 1.696029389073502E9, 0.0, 2023-09-29 18:16:29.073
194.0, 33752.72110136999, 55243.40930502526, 34894.738780825, 8296.296989476323, 54076.335320035854, 43929.850331527035, -80806.96532809321, 36641.05822337368, 35806.041754012316, 67279.9354529304, 59498.55560047098, 12034.939174048803, 59640.95856439574, -100215.83440492564, 64703.87455271179, 44635.718421425634, 0.052000000000000005, 1.022, 0.04, 192.0, 0.0, 0.0, 0.0, 0.0, 0.0, 0.0, 0.0, 0.0, 0.0, 1.696029389132642E9, 0.0, 2023-09-29 18:16:29.132
196.0, 33738.684205852056, 55252.19354059619, 34935.24014177801, 8280.293140446323, 54085.81245968491, 43929.090372215556, -80738.97132146017, 36643.02517688575, 35821.28564373084, 67294.06175542614, 59519.901516425794, 12052.48529344622, 59655.57660526951, -100548.20484497606, 64641.401426959215, 44579.168507953706, 0.052000000000000005, 1.022, 0.04, 192.0, 0.0, 0.0, 0.0, 0.0, 0.0, 0.0, 0.0, 0.0, 0.0, 1.696029389132653E9, 0.0, 2023-09-29 18:16:29.132
198.0, 33739.44416516354, 55269.80671522698, 34886.3345249098, 8287.31158820529, 54075.95534038012, 43916.52869183168, -80774.30942944401, 36637.83957217212, 35797.52573937485, 67284.15993263244, 59499.67318769374, 12032.100502502979, 59654.23550060219, -100200.56816346267, 64711.85412548234, 44658.04781413649, 0.052000000000000005, 1.022, 0.04, 192.0, 0.0, 0.0, 0.0, 0.0, 0.0, 0.0, 0.0, 0.0, 0.0, 1.696029389132656E9, 0.0, 2023-09-29 18:16:29.132
200.0, 33743.62394137668, 55292.29257014902, 34933.45200222159, 8284.539971892831, 54089.85812543132, 43936.30998567462, -80777.1704527343, 36654.44691830241, 35809.17099823606, 67294.19586589288, 59501.05899584997, 12045.66801138735, 59649.295765077564, -100541.27580419491, 64629.33148495335, 44569.870182260296, 0.052000000000000005, 1.022, 0.04, 192.0, 0.0, 0.0, 0.0, 0.0, 0.0, 0.0, 0.0, 0.0, 0.0, 1.696029389132659E9, 0.0, 2023-09-29 18:16:29.132
202.0, 33756.7667671164, 55324.52378565357, 34902.22661521752, 8298.219239499478, 54084.96309339561, 43933.001927495236, -80792.41434245282, 36656.43622355893, 35813.28371921584, 67299.60498805105, 59517.48752802462, 12046.696191632294, 59673.05566943356, -100228.39608530952, 64694.48682004057, 44664.663930495255, 0.052000000000000005, 1.024, 0.034, 192.0, 0.5, 80.0, 16.0, 0.0, 0.5, 8.0, 0.0, 0.0, 0.0, 1.696029389132663E9, 0.0, 2023-09-29 18:16:29.132
204.0, 33746.999054789434, 55343.67923065177, 34940.91748486966, 8287.982140538948, 54089.25462833102, 43931.660822827915, -80815.03430784158, 36652.81524095717, 35814.98245179444, 67303.136563675, 59510.06674886546, 12059.906072605381, 59659.89049194938, -100562.46525793854, 64612.858249289784, 44583.504746378036, 0.052000000000000005, 1.024, 0.034, 192.0, 0.0, 0.0, 0.0, 0.0, 0.0, 0.0, 0.0, 0.0, 0.0, 1.696029389132666E9, 0.0, 2023-09-29 18:16:29.132
206.0, 33744.02627277688, 55363.818152406, 34896.83984480379, 8279.108497990192, 54079.82219217088, 43916.48398834276, -80744.13457442935, 36632.519856991756, 35805.23709121193, 67292.45242982537, 59514.33593205642, 12041.555290407574, 59679.492971836684, -100226.94322191992, 64712.36821560481, 44680.28779986952, 0.052000000000000005, 1.024, 0.034, 192.0, 0.0, 0.0, 0.0, 0.0, 0.0, 0.0, 0.0, 0.0, 0.0, 1.696029389132669E9, 0.0, 2023-09-29 18:16:29.132
208.0, 33748.317807712294, 55392.33897833097, 34935.329548755835, 8280.91898929107, 54099.75994822502, 43930.3197181606, -80825.67373820231, 36645.863848431574, 35808.58985288022, 67292.54183680318, 59488.00557708807, 12053.558177180073, 59654.90605293585, -100510.98919045797, 64629.3538366978, 44572.06065321692, 0.052000000000000005, 1.024, 0.034, 192.0, 0.0, 0.0, 0.0, 0.0, 0.0, 0.0, 0.0, 0.0, 0.0, 1.696029389132672E9, 0.0, 2023-09-29 18:16:29.132
210.0, 33742.886333809656, 55401.70435925775, 34904.841769318795, 8272.671195587063, 54080.98448288256, 43912.68419178536, -80736.31146386999, 36634.48681050382, 35810.22153022546, 67301.75075551878, 59516.39229254631, 12046.852653843482, 59685.99732947318, -100249.92081521999, 64710.55772430393, 44655.92439841323, 0.052000000000000005, 1.024, 0.034, 192.0, 0.0, 0.0, 0.0, 0.0, 0.0, 0.0, 0.0, 0.0, 0.0, 1.696029389193658E9, 0.0, 2023-09-29 18:16:29.193
212.0, 33743.42277567658, 55420.435121111295, 34926.32179574035, 8275.599274110707, 54092.58503825487, 43923.211863423814, -80855.08863390549, 36639.851229173095, 35806.041754012316, 67287.78091523421, 59479.26604500604, 12051.658278901372, 59645.6300789869, -100490.62675125919, 64629.62205763126, 44559.85660074432, 0.044, 1.02, 0.04, 192.0, 0.5, 48.0, 15.5, 112.0, 0.5, 32.0, 0.0, 0.0, 0.0, 1.696029389193667E9, 0.0, 2023-09-29 18:16:29.193
214.0, 33742.39459543164, 55440.93167077681, 34901.62311811723, 8274.01230025438, 54078.54814273693, 43927.41399138141, -80743.1063941844, 36636.409060526974, 35810.35564069219, 67297.12394441653, 59510.759652943576, 12042.739932863706, 59685.77381202863, -100285.05775750373, 64704.96978819011, 44638.57944471591, 0.044, 1.02, 0.04, 192.0, 0.0, 0.0, 0.0, 0.0, 0.0, 0.0, 0.0, 0.0, 0.0, 1.69602938919367E9, 0.0, 2023-09-29 18:16:29.193
216.0, 33742.23813322045, 55461.62938614242, 34918.83396134782, 8273.252340942901, 54093.344997566346, 43927.12341870349, -80885.01761973115, 36641.70642396288, 35806.51114064588, 67295.20169439337, 59483.51287645256, 12052.395886468397, 59661.38805882789, -100464.8104864133, 64627.27512446346, 44559.00723445502, 0.044, 1.02, 0.04, 192.0, 0.0, 0.0, 0.0, 0.0, 0.0, 0.0, 0.0, 0.0, 0.0, 1.696029389193673E9, 0.0, 2023-09-29 18:16:29.193
218.0, 33748.09429026774, 55477.02973807213, 34914.87770257923, 8280.539009635331, 54088.33820680836, 43923.569491335096, -80764.67582758378, 36639.20302858389, 35814.17778899405, 67309.32799688911, 59517.599286746896, 12049.020773055647, 59697.821402290036, -100350.99540364688, 64693.123363628794, 44627.53768295499, 0.044, 1.02, 0.04, 192.0, 0.0, 0.0, 0.0, 0.0, 0.0, 0.0, 0.0, 0.0, 0.0, 1.696029389193677E9, 0.0, 2023-09-29 18:16:29.193
220.0, 33746.641426878145, 55486.66333993237, 34910.18383624361, 8277.230951455946, 54096.9212766792, 43918.22742441028, -80935.5996174335, 36634.97854888184, 35813.46253317148, 67285.92572044441, 59473.543998425484, 12054.251081258188, 59671.42399208832, -100459.80369565531, 64633.82418558886, 44572.26181891702, 0.044, 1.02, 0.04, 192.0, 0.0, 0.0, 0.0, 0.0, 0.0, 0.0, 0.0, 0.0, 0.0, 1.69602938919368E9, 0.0, 2023-09-29 18:16:29.193
222.0, 33740.74056634195, 55490.17256381185, 34909.736801354506, 8268.06673622927, 54072.06613684489, 43913.95824121931, -80735.7526702586, 36624.45087724339, 35811.8532075707, 67267.55258650215, 59513.93360065623, 12043.656354386372, 59707.45500415027, -100390.96032273296, 64700.5217910435, 44641.35106102837, 0.048, 1.018, 0.04, 192.0, 0.5, 64.0, 15.5, 104.0, 0.5, 32.0, 0.0, 0.0, 0.0, 1.696029389193683E9, 0.0, 2023-09-29 18:16:29.193
224.0, 33759.806604362326, 55502.55543024009, 34905.17704548562, 8282.528314891853, 54096.25072434553, 43925.75996229172, -80942.12632681445, 36643.31574956367, 35802.979565021946, 67256.66728695242, 59464.178617498714, 12049.311345733566, 59667.624195530916, -100396.92823850254, 64657.1594068002, 44588.15390922474, 0.048, 1.018, 0.04, 192.0, 0.0, 0.0, 0.0, 0.0, 0.0, 0.0, 0.0, 0.0, 0.0, 1.696029389252978E9, 0.0, 2023-09-29 18:16:29.252
226.0, 33750.575333902285, 55455.370897694935, 34925.13715328421, 8272.291215931322, 54085.99127364055, 43923.05540121262, -80759.06553972549, 36635.49263900431, 35820.9056640751, 67270.65947898144, 59516.72756871314, 12049.803084111581, 59716.32864669903, -100449.74541065043, 64700.05240440994, 44621.86033986334, 0.048, 1.018, 0.04, 192.0, 0.0, 0.0, 0.0, 0.0, 0.0, 0.0, 0.0, 0.0, 0.0, 1.69602938925299E9, 0.0, 2023-09-29 18:16:29.252
228.0, 33755.22449674898, 55425.28544965809, 34899.320888438335, 8280.11432649068, 54089.142869608746, 43922.13897968995, -80965.57330674808, 36640.58883674012, 35813.88721631613, 67254.07448459559, 59457.49544590658, 12043.1422642639, 59671.78161999961, -100375.64937778108, 64675.73370644257, 44591.52902263749, 0.048, 1.018, 0.04, 192.0, 0.0, 0.0, 0.0, 0.0, 0.0, 0.0, 0.0, 0.0, 0.0, 1.696029389252994E9, 0.0, 2023-09-29 18:16:29.252
230.0, 33745.814412333304, 55392.00370216414, 34922.52199918294, 8258.366079135667, 54082.83967767235, 43919.54617733314, -80767.08981598495, 36629.32355753465, 35801.638460354625, 67268.625470236, 59495.56046671396, 12038.04606652809, 59703.141117470404, -100493.0183879159, 64687.93775891516, 44604.35892395484, 0.048, 1.018, 0.04, 192.0, 0.0, 0.0, 0.0, 0.0, 0.0, 0.0, 0.0, 0.0, 0.0, 1.696029389252997E9, 0.0, 2023-09-29 18:16:29.252
232.0, 33758.71136888401, 55384.269998582604, 34888.972030755525, 8276.135715977636, 54080.202171826626, 43922.18368317887, -80941.61223669199, 36628.76476392326, 35796.676373085545, 67245.13378681347, 59452.019268515025, 12030.75939783566, 59670.26170137664, -100310.13641478258, 64701.013529421514, 44608.71751412362, 0.042, 1.018, 0.04, 192.0, 0.5, 40.0, 15.5, 104.0, 0.5, 32.0, 0.0, 0.0, 0.0, 1.696029389253E9, 0.0, 2023-09-29 18:16:29.253
234.0, 33750.284761224364, 55370.47897225368, 34919.90684508167, 8260.847122770205, 54091.19923009864, 43921.960165734316, -80779.316220202, 36629.01063311227, 35814.87069307217, 67264.2221765783, 59490.598379444884, 12036.704961860773, 59709.66782685135, -100523.9755539865, 64682.75215420153, 44579.30261842044, 0.042, 1.018, 0.04, 192.0, 0.0, 0.0, 0.0, 0.0, 0.0, 0.0, 0.0, 0.0, 0.0, 1.696029389253003E9, 0.0, 2023-09-29 18:16:29.253
236.0, 33765.08161605378, 55377.989158390665, 34881.14892019617, 8283.869419559172, 54089.05346263092, 43928.039840226156, -80954.66565545388, 36631.20110406889, 35804.298317944806, 67252.59926946156, 59457.7860185845, 12036.213223482755, 59693.418108632344, -100288.81285057221, 64708.70252951414, 44607.488168178585, 0.042, 1.018, 0.04, 192.0, 0.0, 0.0, 0.0, 0.0, 0.0, 0.0, 0.0, 0.0, 0.0, 1.696029389253006E9, 0.0, 2023-09-29 18:16:29.253
238.0, 33746.216743733494, 55360.89007388235, 34919.102182281276, 8263.797553038306, 54087.4664887746, 43934.00775599572, -80834.59208423998, 36631.13404883553, 35820.61509139718, 67265.80915043464, 59487.44678347669, 12045.131569520423, 59720.03903627861, -100572.45648771006, 64668.312927283405, 44578.050920730944, 0.042, 1.018, 0.04, 192.0, 0.0, 0.0, 0.0, 0.0, 0.0, 0.0, 0.0, 0.0, 0.0, 1.696029389253009E9, 0.0, 2023-09-29 18:16:29.253
240.0, 33743.31101695431, 55354.89980636833, 34871.649428802666, 8257.606119824186, 54069.60744495481, 43920.93198548937, -80931.28573075363, 36624.07089758765, 35792.675410828044, 67259.90828989843, 59457.49544590658, 12032.301668203077, 59698.20138194578, -100282.33084468018, 64714.71514877262, 44647.52014249803, 0.042, 1.018, 0.04, 192.0, 0.0, 0.0, 0.0, 0.0, 0.0, 0.0, 0.0, 0.0, 0.0, 1.696029389314164E9, 0.0, 2023-09-29 18:16:29.314
242.0, 33748.69778736804, 55362.05236459403, 34918.05165029188, 8262.098820459703, 54084.47135501759, 43933.58307285107, -80849.50069779166, 36634.77738318174, 35806.46643715697, 67258.12015034202, 59464.96092855465, 12030.535880391108, 59708.12555648394, -100572.05415630987, 64656.69002016664, 44591.70783659314, 0.04, 1.02, 0.044, 192.0, 0.5, 32.0, 15.5, 112.0, 0.5, 48.0, 0.0, 0.0, 0.0, 1.696029389314175E9, 0.0, 2023-09-29 18:16:29.314
244.0, 33754.59864790424, 55360.89007388235, 34876.320943393825, 8270.324262419255, 54078.48108750357, 43920.619061066995, -80930.27990225314, 36625.791981910705, 35799.80561730929, 67263.28340331119, 59468.85013208987, 12035.319153704544, 59715.72514959874, -100265.20940842741, 64709.5742475479, 44652.54928500048, 0.04, 1.02, 0.044, 192.0, 0.0, 0.0, 0.0, 0.0, 0.0, 0.0, 0.0, 0.0, 0.0, 1.696029389314179E9, 0.0, 2023-09-29 18:16:29.314
246.0, 33750.17300250209, 55360.21952154869, 34915.70471712407, 8261.54002684832, 54089.23227658657, 43933.38190715098, -80879.92142199534, 36633.95036863689, 35808.56750113577, 67252.26399329472, 59468.55955941195, 12041.398828196387, 59709.287847195614, -100591.3884152637, 64649.04572356293, 44586.61163885733, 0.04, 1.02, 0.044, 192.0, 0.0, 0.0, 0.0, 0.0, 0.0, 0.0, 0.0, 0.0, 0.0, 1.696029389314182E9, 0.0, 2023-09-29 18:16:29.314
248.0, 33763.40523521963, 55367.796762919046, 34873.0799404478, 8270.123096719159, 54070.27799728847, 43932.73370656177, -80890.58320410052, 36627.58012146713, 35800.6996870875, 67258.81305442013, 59475.86857984884, 12031.944040291792, 59721.022513034644, -100237.51559704728, 64736.57515484991, 44676.488003312115, 0.04, 1.02, 0.044, 192.0, 0.0, 0.0, 0.0, 0.0, 0.0, 0.0, 0.0, 0.0, 0.0, 1.696029389314186E9, 0.0, 2023-09-29 18:16:29.314
250.0, 33755.35860721572, 55356.50913196911, 34911.03320253291, 8256.712050045973, 54074.56953222389, 43934.58890135156, -80903.32369844004, 36628.876522645536, 35812.47905641545, 67250.74407467176, 59466.52555066652, 12040.303592718077, 59707.16443147236, -100575.47397321153, 64645.5588514279, 44577.559182352925, 0.04, 1.02, 0.044, 192.0, 0.0, 0.0, 0.0, 0.0, 0.0, 0.0, 0.0, 0.0, 0.0, 1.696029389314189E9, 0.0, 2023-09-29 18:16:29.314
252.0, 33760.81243286281, 55356.57618720248, 34868.81075725684, 8255.572111078753, 54075.17302932418, 43916.26047089821, -80884.28001216412, 36614.124371305035, 35803.27013769986, 67247.03368509217, 59473.02990830302, 12026.2890489446, 59730.03026605013, -100250.52431232028, 64725.10870994434, 44670.542439287005, 0.044, 1.02, 0.038, 192.0, 0.5, 48.0, 15.5, 112.0, 0.5, 24.0, 0.0, 0.0, 0.0, 1.696029389314193E9, 0.0, 2023-09-29 18:16:29.314
254.0, 33750.12829901317, 55353.89397786784, 34901.556062883865, 8247.771352263851, 54087.824116685886, 43919.61323256651, -80946.7084344278, 36617.18656029541, 35811.4508761705, 67243.99384784626, 59449.717038836134, 12030.111197246457, 59715.523983898645, -100566.13094402921, 64632.46072917709, 44573.53586835097, 0.044, 1.02, 0.038, 192.0, 0.0, 0.0, 0.0, 0.0, 0.0, 0.0, 0.0, 0.0, 0.0, 1.696029389314196E9, 0.0, 2023-09-29 18:16:29.314
0.0, 33757.59378166125, 55363.57228321699, 34879.3831323842, 8254.007488966881, 54075.08362234636, 43911.00781095121, -80886.78340754312, 36609.47520845833, 35798.978602764444, 67260.73530444328, 59478.99782407258, 12030.982915280214, 59745.497673213205, -100284.14133598105, 64717.799689507454, 44651.90108441128, 0.044, 1.02, 0.038, 192.0, 0.0, 0.0, 0.0, 0.0, 0.0, 0.0, 0.0, 0.0, 0.0, 1.696029389374401E9, 0.0, 2023-09-29 18:16:29.374
2.0, 33746.46261292251, 55362.70056518324, 34901.75722858396, 8240.998773693893, 54081.90090440523, 43917.51216858771, -80975.8104057086, 36619.578196952134, 35812.054373270796, 67257.11432184152, 59455.43908541669, 12036.973182794236, 59719.68140836733, -100552.36226944474, 64635.70173212311, 44565.37748162478, 0.044, 1.02, 0.038, 192.0, 0.0, 0.0, 0.0, 0.0, 0.0, 0.0, 0.0, 0.0, 0.0, 1.696029389374415E9, 0.0, 2023-09-29 18:16:29.374
4.0, 33723.68618532255, 55342.58399517346, 34863.13341416519, 8228.526500287831, 54044.752305120506, 43898.468482311786, -80828.95944463724, 36599.506330431264, 35794.508253873384, 67250.56526071612, 59479.355451983865, 12018.778862807616, 59751.5549959606, -100294.04315877476, 64721.66654129822, 44655.857343179865, 0.044, 1.02, 0.038, 192.0, 0.0, 0.0, 0.0, 0.0, 0.0, 0.0, 0.0, 0.0, 0.0, 1.696029389374422E9, 0.0, 2023-09-29 18:16:29.374
6.0, 33738.03600526285, 55358.61019594791, 34879.271373661926, 8239.992945193404, 54063.03603208495, 43910.78429350666, -80970.44598703933, 36611.62097592604, 35785.43344562453, 67235.47783320879, 59430.40513162674, 12018.108310473957, 59704.43751864881, -100476.3663382967, 64627.16336574118, 44559.320158877395, 0.038, 1.016, 0.046, 192.0, 0.5, 24.0, 15.5, 96.0, 0.5, 56.0, 0.0, 0.0, 0.0, 1.696029389374428E9, 0.0, 2023-09-29 18:16:29.374
