%OpenBCI Raw EXG Data
%Number of channels = 16
%Sample Rate = 125 Hz
%Board = OpenBCI_GUI$BoardCytonSerialDaisy
Sample Index, EXG Channel 0, EXG Channel 1, EXG Channel 2, EXG Channel 3, EXG Channel 4, EXG Channel 5, EXG Channel 6, EXG Channel 7, EXG Channel 8, EXG Channel 9, EXG Channel 10, EXG Channel 11, EXG Channel 12, EXG Channel 13, EXG Channel 14, EXG Channel 15, Accel Channel 0, Accel Channel 1, Accel Channel 2, Other, Other, Other, Other, Other, Other, Other, Analog Channel 0, Analog Channel 1, Analog Channel 2, Timestamp, Other, Timestamp (Formatted)
0.0, 23137.587086866748, 14722.937610499575, 4548.825865843995, -6843.366544647997, 7437.162987847685, -6742.2696044766435, -187500.02235174447, 37412.37222103742, 0.0, 0.0, 0.0, 0.0, 0.0, 0.0, 0.0, 0.0, 0.0, 0.0, 0.0, 192.0, 0.0, 0.0, 0.0, 0.0, 0.0, 0.0, 0.0, 0.0, 0.0, 1.696024233577865E9, 0.0, 2023-09-29 16:50:33.577
224.0, 23334.61771424028, 14962.749476760564, 4499.361455364401, -6884.002016067746, 7482.805250025422, -6755.278319749632, -187500.02235174447, 37598.6740110724, -22991.07140196221, 26248.458176667475, 8830.056647069056, 1472.9576078602802, 10130.48113947882, 1422.1073892244565, -119109.83104823007, -7849.17269339236, 0.162, 1.008, -0.062, 192.0, 2.5, 8.0, 15.5, 64.0, 127.0, 8.0, 0.0, 0.0, 0.0, 1.696024233577875E9, 0.0, 2023-09-29 16:50:33.577
226.0, 23185.30806127883, 14792.16096307766, 4562.035746817082, -6831.676582297872, 7436.715952958579, -6733.753589839172, -187500.02235174447, 37460.62963731642, -23014.160753984543, 26617.820753791424, 8957.282776508662, 1499.600887251006, 10069.3267666491, 1376.934513680281, -118787.42948620672, -7914.976229068784, 0.162, 1.008, -0.062, 192.0, 0.0, 0.0, 0.0, 0.0, 0.0, 0.0, 0.0, 0.0, 0.0, 1.696024233577881E9, 0.0, 2023-09-29 16:50:33.577
228.0, 23299.704289401092, 14913.553287214434, 4504.301190889024, -6878.481135187285, 7486.828564027377, -6753.579587171029, -187500.02235174447, 37542.459373767306, -22971.73714300837, 26247.027665022335, 8824.446359210773, 1471.571799704051, 10135.733799425818, 1428.4552846497638, -119161.128301755, -7835.828701952541, 0.162, 1.008, -0.062, 192.0, 0.0, 0.0, 0.0, 0.0, 0.0, 0.0, 0.0, 0.0, 0.0, 1.696024233577887E9, 0.0, 2023-09-29 16:50:33.577
230.0, 23229.385701344694, 14856.93631850914, 4545.786028598074, -6832.101265442523, 7434.0337436239415, -6741.9790317987245, -187500.02235174447, 37510.18345477384, -23021.380367443606, 26670.883795128324, 8972.101983082532, 1530.8709777439808, 10062.934167734882, 1375.1687258683116, -118810.58589346241, -7925.682714662876, 0.162, 1.008, -0.062, 192.0, 0.0, 0.0, 0.0, 0.0, 0.0, 0.0, 0.0, 0.0, 0.0, 1.69602423357789E9, 0.0, 2023-09-29 16:50:33.577
232.0, 23242.46147185105, 14843.905251491697, 4512.303115404024, -6866.83587632607, 7502.117157234808, -6738.581566641518, -187500.02235174447, 37480.76855907065, -22986.198721670953, 26212.829496005714, 8785.599027347449, 1441.866331322948, 10135.286764536711, 1429.9528515282693, -119216.80649719316, -7824.921050658352, 0.162, 1.008, -0.062, 192.0, 0.0, 0.0, 0.0, 0.0, 0.0, 0.0, 0.0, 0.0, 0.0, 1.696024233577894E9, 0.0, 2023-09-29 16:50:33.577
234.0, 23266.713114585058, 14914.581467459378, 4545.361345453423, -6844.126503959478, 7442.8403309393325, -6743.230729488222, -187500.02235174447, 37556.38451056296, -22986.10931469313, 26683.46782725666, 8985.11069835552, 1540.929262748869, 10064.007051468738, 1383.5729817835072, -118877.6634785728, -7923.1122640505155, 0.17, 1.012, -0.064, 192.0, 2.5, 40.0, 15.5, 80.0, 127.0, 0.0, 0.0, 0.0, 0.0, 1.696024233577897E9, 0.0, 2023-09-29 16:50:33.577
236.0, 23196.126305595197, 14778.794619893388, 4524.171891709792, -6870.702728116838, 7517.942192309165, -6729.909089792859, -187500.02235174447, 37420.55295950806, -22942.612819983104, 26187.57202477122, 8795.143222229866, 1404.7624355271382, 10132.313982524156, 1410.8197582745265, -119273.6022798541, -7826.329210559036, 0.17, 1.012, -0.064, 192.0, 0.0, 0.0, 0.0, 0.0, 0.0, 0.0, 0.0, 0.0, 0.0, 1.6960242335779E9, 0.0, 2023-09-29 16:50:33.577
238.0, 23308.823801138857, 14973.075982698916, 4501.171946665281, -6879.755184621237, 7430.27865055545, -6771.393927501908, -187500.02235174447, 37625.31729046313, -22979.73906752337, 26678.349277776397, 9000.376939818494, 1546.1595709514108, 10071.94192075037, 1389.7197115087167, -118952.89945040936, -7923.604002428532, 0.17, 1.012, -0.064, 192.0, 0.0, 0.0, 0.0, 0.0, 0.0, 0.0, 0.0, 0.0, 0.0, 1.696024233577903E9, 0.0, 2023-09-29 16:50:33.577
0.0, 11626.617506339253, 7360.496504365981, 2304.800129508988, -3298.491632758574, 3719.486739574282, -3315.300144588965, -93750.01117587223, 17826.58908684124, -11482.247588902424, 13062.158293981349, 4383.713529552642, 706.0245521097842, 5061.5525319042845, 703.3646945196026, -59682.13047768241, -3916.517366947814, 0.166, 1.012, -0.08, 192.0, 2.5, 24.0, 15.5, 80.0, 126.5, 64.0, 0.0, 0.0, 0.0, 1.696024233734814E9, 0.0, 2023-09-29 16:50:33.734
2.0, 23549.172109266772, 15095.474135336179, 4519.098045718437, -6688.111327661434, 7447.601252508313, -6687.105499160945, -187500.02235174447, 35977.1443578177, -22651.1460722859, 25982.673583349417, 8789.085899482478, 1441.28518596711, 10125.496700465286, 1518.7786839936596, -120944.84221277741, -7844.858806712486, 0.166, 1.012, -0.08, 192.0, 0.0, 0.0, 0.0, 0.0, 0.0, 0.0, 0.0, 0.0, 0.0, 1.696024233734826E9, 0.0, 2023-09-29 16:50:33.734
4.0, 23455.697113954677, 15002.736747591109, 4577.793726658074, -6634.7353619021615, 7410.564411945869, -6669.335862318977, -187500.02235174447, 35904.23296740448, -22687.981747148246, 26403.333413998298, 8944.765799613691, 1504.5629745200843, 10058.79909501065, 1476.95857011778, -120598.52428418689, -7923.604002428532, 0.166, 1.012, -0.08, 192.0, 0.0, 0.0, 0.0, 0.0, 0.0, 0.0, 0.0, 0.0, 0.0, 1.696024233734829E9, 0.0, 2023-09-29 16:50:33.734
6.0, 23511.397661137304, 15032.26340201657, 4545.9424908092615, -6671.839257697971, 7478.267845900995, -6665.826638439494, -187500.02235174447, 35908.30098489535, -22636.72919711223, 25970.022495987716, 8771.584483573972, 1428.4329329053085, 10143.020468118248, 1535.8330650130588, -121005.88482688485, -7827.446797781801, 0.166, 1.012, -0.08, 192.0, 0.0, 0.0, 0.0, 0.0, 0.0, 0.0, 0.0, 0.0, 0.0, 1.696024233734832E9, 0.0, 2023-09-29 16:50:33.734
8.0, 23502.591073821914, 15061.253614575102, 4563.555665440043, -6658.316452302511, 7400.841403107811, -6687.41842358332, -187500.02235174447, 35943.23676147899, -22655.23644152122, 26434.62585623573, 8957.036907319654, 1531.183902166355, 10081.70963307734, 1485.8769161554476, -120676.9342037361, -7925.123921051493, 0.168, 1.014, -0.08600000000000001, 192.0, 2.5, 32.0, 15.5, 88.0, 126.5, 40.0, 0.0, 0.0, 0.0, 1.696024233734836E9, 0.0, 2023-09-29 16:50:33.734
10.0, 23459.49691051208, 14971.019622209029, 4559.957034582739, -6668.352385562943, 7473.1269446762735, -6667.123039617902, -187500.02235174447, 35845.58198995376, -22664.713581170272, 25949.861222489028, 8750.283271108065, 1399.5991825579624, 10137.588994215608, 1506.0381896541346, -121058.25496414363, -7839.203815365293, 0.168, 1.014, -0.08600000000000001, 192.0, 0.0, 0.0, 0.0, 0.0, 0.0, 0.0, 0.0, 0.0, 0.0, 1.696024233734839E9, 0.0, 2023-09-29 16:50:33.734
12.0, 23542.913620819287, 15119.99399900365, 4549.161142010826, -6667.815943696016, 7387.8326878348225, -6697.119080676924, -187500.02235174447, 35997.372686549745, -22665.33943001502, 26416.252722293466, 8969.017442347698, 1542.6726988163828, 10081.195542954867, 1476.4221282508527, -120750.38203601624, -7932.857624633029, 0.168, 1.014, -0.08600000000000001, 192.0, 0.0, 0.0, 0.0, 0.0, 0.0, 0.0, 0.0, 0.0, 0.0, 1.696024233734842E9, 0.0, 2023-09-29 16:50:33.734
14.0, 23410.300720965948, 14908.14416505625, 4562.102802050448, -6655.097801100946, 7469.863589985799, -6653.644937711351, -187500.02235174447, 35802.37606792165, -22679.86806391097, 25954.644495802462, 8745.276480350076, 1386.9704469407138, 10133.878604636027, 1505.3676373204753, -121099.91861580833, -7836.588661264022, 0.168, 1.014, -0.08600000000000001, 192.0, 0.0, 0.0, 0.0, 0.0, 0.0, 0.0, 0.0, 0.0, 0.0, 1.696024233734845E9, 0.0, 2023-09-29 16:50:33.734
16.0, 23573.84843514543, 15172.677060684808, 4534.386638925867, -6680.601141524451, 7396.549868172392, -6709.546650594074, -187500.02235174447, 36039.9080562482, -22665.182967803834, 26382.18866374358, 8962.423677733383, 1537.2859284026538, 10089.823316314616, 1486.3910062779196, -120832.50234514504, -7932.56705195511, 0.168, 1.014, -0.08600000000000001, 192.0, 0.0, 0.0, 0.0, 0.0, 0.0, 0.0, 0.0, 0.0, 0.0, 1.696024233794863E9, 0.0, 2023-09-29 16:50:33.794
18.0, 23380.39408688475, 14872.381373927758, 4564.85206661845, -6641.530292216575, 7472.881075487266, -6664.932568661281, -187500.02235174447, 35769.56370706126, -22679.756305188694, 25975.677487334906, 8737.185148857254, 1376.3980718133537, 10121.696903907885, 1481.183049819833, -121123.36559574195, -7850.782018993142, 0.164, 1.012, -0.09, 192.0, 2.5, 16.0, 15.5, 80.0, 126.5, 24.0, 0.0, 0.0, 0.0, 1.696024233794874E9, 0.0, 2023-09-29 16:50:33.794
20.0, 23609.052432662542, 15221.269753130646, 4527.949336522739, -6677.60600776744, 7408.575106689347, -6707.132662192901, -187500.02235174447, 36064.96436178259, -22645.804005361082, 26376.98070728549, 8950.778418872169, 1551.9710245097906, 10099.099290263568, 1496.158718604889, -120916.54490429698, -7926.822653630096, 0.164, 1.012, -0.09, 192.0, 0.0, 0.0, 0.0, 0.0, 0.0, 0.0, 0.0, 0.0, 0.0, 1.696024233794877E9, 0.0, 2023-09-29 16:50:33.794
22.0, 23332.51665026148, 14817.55254477889, 4574.57507545651, -6631.762579889605, 7473.797497009933, -6663.926740160792, -187500.02235174447, 35718.69113668098, -22692.608558250497, 26004.19831325988, 8731.708971465703, 1367.8150019425157, 10114.209069515357, 1474.3881195054198, -121166.88444219643, -7859.678013286354, 0.164, 1.012, -0.09, 192.0, 0.0, 0.0, 0.0, 0.0, 0.0, 0.0, 0.0, 0.0, 0.0, 1.69602423379488E9, 0.0, 2023-09-29 16:50:33.794
24.0, 23643.25060167916, 15262.799294328606, 4516.013504983604, -6688.603066039452, 7409.737397401023, -6726.310458935554, -187500.02235174447, 36101.062429077916, -22653.783578131628, 26332.277218374875, 8941.234223989752, 1549.3558704085196, 10103.56963915463, 1493.3423988035202, -121022.31335905951, -7923.268726261703, 0.164, 1.012, -0.09, 192.0, 0.0, 0.0, 0.0, 0.0, 0.0, 0.0, 0.0, 0.0, 0.0, 1.696024233794884E9, 0.0, 2023-09-29 16:50:33.794
26.0, 23340.04918814292, 14822.335818092326, 4593.082319865503, -6601.945352786226, 7469.260092885505, -6655.2766150565885, -187500.02235174447, 35714.109029067644, -22711.96516894879, 26076.036819939236, 8763.604910803428, 1383.3718160834094, 10101.312112964644, 1478.9478753743024, -121164.02341890614, -7858.7168882747765, 0.164, 1.012, -0.09, 192.0, 0.0, 0.0, 0.0, 0.0, 0.0, 0.0, 0.0, 0.0, 0.0, 1.696024233794887E9, 0.0, 2023-09-29 16:50:33.794
28.0, 23672.6878491268, 15293.3094255101, 4516.505243361622, -6677.2260281117, 7402.964818831065, -6713.569964596029, -187500.02235174447, 36123.213007833125, -22651.123720541447, 26292.289947544334, 8935.780398342658, 1552.3063006766201, 10100.574505397619, 1497.186898849833, -121093.10133374947, -7914.417435457402, 0.168, 1.014, -0.092, 192.0, 2.5, 32.0, 15.5, 88.0, 126.5, 16.0, 0.0, 0.0, 0.0, 1.69602423379489E9, 0.0, 2023-09-29 16:50:33.794
30.0, 23332.404891539205, 14806.153155106684, 4612.796558475085, -6597.139727728335, 7463.806267238411, -6633.2154432792, -187500.02235174447, 35691.71258112342, -22704.857314212004, 26113.78891632425, 8792.349254172952, 1399.0180372021243, 10099.47926991931, 1476.6903491843163, -121176.22747137875, -7851.765495749176, 0.168, 1.014, -0.092, 192.0, 0.0, 0.0, 0.0, 0.0, 0.0, 0.0, 0.0, 0.0, 0.0, 1.69602423385431E9, 0.0, 2023-09-29 16:50:33.854
32.0, 23686.21065452226, 15296.148097055924, 4532.173816224792, -6673.158010620834, 7429.250470310506, -6696.113252176435, -187500.02235174447, 36106.158626813725, -22617.752566069674, 26209.029699448314, 8929.410151172895, 1534.089628945545, 10126.10019756558, 1511.894346701425, -121218.98635852175, -7892.110394491005, 0.168, 1.014, -0.092, 192.0, 0.0, 0.0, 0.0, 0.0, 0.0, 0.0, 0.0, 0.0, 0.0, 1.696024233854322E9, 0.0, 2023-09-29 16:50:33.854
34.0, 23339.177470109164, 14819.74301573551, 4630.968526717249, -6575.100907695402, 7457.413668324193, -6620.810225106505, -187500.02235174447, 35690.08090377819, -22692.58620650604, 26193.964623685435, 8824.736931888692, 1437.0160027761465, 10106.698883378373, 1504.3394570755313, -121209.86684678399, -7850.290280615125, 0.168, 1.014, -0.092, 192.0, 0.0, 0.0, 0.0, 0.0, 0.0, 0.0, 0.0, 0.0, 0.0, 1.696024233854326E9, 0.0, 2023-09-29 16:50:33.854
36.0, 23677.940509073796, 15276.83618984654, 4537.918214549806, -6671.548685020052, 7427.417627265171, -6694.168650408823, -187500.02235174447, 36081.75052186853, -22605.503810108163, 26164.594431471163, 8909.405339885396, 1546.181922695866, 10152.363497300566, 1553.8709227884917, -121360.45054917938, -7855.2523678842035, 0.168, 1.014, -0.092, 192.0, 0.0, 0.0, 0.0, 0.0, 0.0, 0.0, 0.0, 0.0, 0.0, 1.696024233854329E9, 0.0, 2023-09-29 16:50:33.854
38.0, 23347.42526381317, 14835.232774643038, 4615.076436409526, -6594.368111415877, 7432.938508145632, -6639.384524748865, -187500.02235174447, 35710.3762877436, -22702.085697899547, 26260.10343552869, 8847.647469955382, 1440.5028749111743, 10089.644502358973, 1468.5543142025847, -121226.54124814764, -7880.733356563253, 0.17200000000000001, 1.014, -0.096, 192.0, 2.5, 48.0, 15.5, 88.0, 126.5, 0.0, 0.0, 0.0, 0.0, 1.696024233854332E9, 0.0, 2023-09-29 16:50:33.854
40.0, 23646.603363347454, 15241.811006285074, 4512.07959795947, -6700.628304556407, 7420.622696950758, -6709.546650594074, -187500.02235174447, 36069.747635096035, -22645.111101282968, 26111.911369790003, 8861.840827684502, 1502.2383930967324, 10138.304250038178, 1509.9720966782686, -121439.59807629563, -7876.017138483184, 0.17200000000000001, 1.014, -0.096, 192.0, 0.0, 0.0, 0.0, 0.0, 0.0, 0.0, 0.0, 0.0, 0.0, 1.696024233854336E9, 0.0, 2023-09-29 16:50:33.854
42.0, 23356.075388917376, 14852.354210895803, 4606.560421772054, -6613.389445947343, 7419.102778327797, -6650.135713831868, -187500.02235174447, 35737.75717470136, -22701.526904288163, 26271.368714734166, 8862.444324784796, 1434.4679039082414, 10085.308263934645, 1464.1286688004338, -121247.23896351326, -7902.392196940446, 0.17200000000000001, 1.014, -0.096, 192.0, 0.0, 0.0, 0.0, 0.0, 0.0, 0.0, 0.0, 0.0, 0.0, 1.696024233854339E9, 0.0, 2023-09-29 16:50:33.854
44.0, 23607.443107061757, 15183.115325345438, 4523.27782193158, -6691.933475963292, 7440.381639049249, -6692.246400385667, -187500.02235174447, 36014.00238442449, -22665.33943001502, 26024.0913658251, 8824.714580144237, 1464.3298345005317, 10142.573433229141, 1515.2024048808105, -121545.05360663577, -7867.568179079078, 0.17200000000000001, 1.014, -0.096, 192.0, 0.0, 0.0, 0.0, 0.0, 0.0, 0.0, 0.0, 0.0, 0.0, 1.696024233854342E9, 0.0, 2023-09-29 16:50:33.854
46.0, 23378.427133372683, 14892.654406148722, 4601.598334502975, -6629.415646721798, 7419.214537050073, -6649.420458009298, -187500.02235174447, 35765.763910503854, -22726.873782500483, 26327.985683439456, 8876.481220302729, 1461.737032143716, 10085.308263934645, 1467.9061136133807, -121306.381679342, -7913.5680691681, 0.17200000000000001, 1.014, -0.096, 192.0, 0.0, 0.0, 0.0, 0.0, 0.0, 0.0, 0.0, 0.0, 0.0, 1.696024233914224E9, 0.0, 2023-09-29 16:50:33.914
48.0, 23557.218737270683, 15115.367187901402, 4520.103874218926, -6704.204583669256, 7436.157159347196, -6696.984970210192, -187500.02235174447, 35951.26103773845, -22654.63294442093, 25995.794057344683, 8774.199637675243, 1436.0772295090235, 10143.020468118248, 1501.8137099520816, -121660.25449755842, -7871.7479552922205, 0.168, 1.01, -0.092, 192.0, 2.5, 32.0, 15.5, 72.0, 126.5, 16.0, 0.0, 0.0, 0.0, 1.696024233914234E9, 0.0, 2023-09-29 16:50:33.914
50.0, 23410.948921555155, 14945.71744748562, 4584.47689825021, -6637.663440425807, 7403.948295587099, -6671.168705364312, -187500.02235174447, 35814.44600992752, -22731.25472441372, 26359.099311721246, 8877.867028458957, 1473.2034770492885, 10068.56680733762, 1441.2628342226546, -121359.28825846771, -7936.858586890529, 0.168, 1.01, -0.092, 192.0, 0.0, 0.0, 0.0, 0.0, 0.0, 0.0, 0.0, 0.0, 0.0, 1.696024233914238E9, 0.0, 2023-09-29 16:50:33.914
52.0, 23514.303387916494, 15053.609317971388, 4532.03970575806, -6678.969464179214, 7449.031764153453, -6688.871286972915, -187500.02235174447, 35905.7752377719, -22673.520168485662, 25949.74946376675, 8736.961631412702, 1420.095732223479, 10138.572470971641, 1507.8710326994697, -121725.99097800149, -7857.21932139627, 0.168, 1.01, -0.092, 192.0, 0.0, 0.0, 0.0, 0.0, 0.0, 0.0, 0.0, 0.0, 0.0, 1.696024233914241E9, 0.0, 2023-09-29 16:50:33.914
54.0, 23461.441512279693, 15013.577343651932, 4557.453639203744, -6660.685737214772, 7362.485809622504, -6699.197792911267, -187500.02235174447, 35885.591612528755, -22722.291674887143, 26390.61527140323, 8903.392720626918, 1497.7903959501264, 10058.441467099365, 1455.3891367184087, -121386.98206984784, -7952.19188358687, 0.168, 1.01, -0.092, 192.0, 0.0, 0.0, 0.0, 0.0, 0.0, 0.0, 0.0, 0.0, 0.0, 1.696024233914244E9, 0.0, 2023-09-29 16:50:33.914
56.0, 23482.809779978965, 15001.30623594597, 4560.202903771747, -6653.354365033432, 7449.724668231567, -6666.564246006518, -187500.02235174447, 35844.46440273099, -22668.75924691668, 25949.302428877643, 8733.407704044308, 1398.995685457669, 10127.933040610915, 1490.1684510908665, -121755.22705974903, -7863.36605112148, 0.168, 1.01, -0.092, 192.0, 0.0, 0.0, 0.0, 0.0, 0.0, 0.0, 0.0, 0.0, 0.0, 1.696024233914247E9, 0.0, 2023-09-29 16:50:33.914
58.0, 23512.962283249177, 15076.139876382338, 4580.6323982038975, -6634.780065391072, 7389.50906866897, -6678.947112434758, -187500.02235174447, 35913.39718263116, -22679.465732510776, 26421.885361896202, 8935.042790775633, 1541.7786290381705, 10086.962293024337, 1486.4357097668303, -121469.61646909911, -7930.354229254035, 0.17400000000000002, 1.012, -0.09, 192.0, 2.5, 56.0, 15.5, 80.0, 126.5, 24.0, 0.0, 0.0, 0.0, 1.696024233914251E9, 0.0, 2023-09-29 16:50:33.914
60.0, 23438.35216025736, 14936.977915403595, 4584.3874912723895, -6626.532271687063, 7461.951072448621, -6655.254263312133, -187500.02235174447, 35777.78914902081, -22681.365630789474, 25949.10126317755, 8732.133654610356, 1411.5573658415517, 10150.977689144336, 1520.6785822723607, -121856.50281387602, -7837.706248486787, 0.17400000000000002, 1.012, -0.09, 192.0, 0.0, 0.0, 0.0, 0.0, 0.0, 0.0, 0.0, 0.0, 0.0, 1.696024233974461E9, 0.0, 2023-09-29 16:50:33.974
62.0, 23570.361563010403, 15142.926888814794, 4564.717956151719, -6645.59830970744, 7384.390519188705, -6696.873211487915, -187500.02235174447, 35974.238631038505, -22678.348145288008, 26408.51901871193, 8947.895043837434, 1560.4870391472625, 10096.484136162298, 1482.7476719317046, -121564.23140337842, -7938.825540402597, 0.17400000000000002, 1.012, -0.09, 192.0, 0.0, 0.0, 0.0, 0.0, 0.0, 0.0, 0.0, 0.0, 0.0, 1.696024233974473E9, 0.0, 2023-09-29 16:50:33.974
64.0, 23402.656424362234, 14886.127696767771, 4571.557589955043, -6636.2552805251225, 7444.695525729124, -6667.592426251463, -187500.02235174447, 35757.113785399655, -22653.090674053514, 25974.04580998967, 8733.96649765569, 1391.5078510651413, 10125.921383609937, 1486.05573011109, -121874.85359607382, -7855.185312650838, 0.17400000000000002, 1.012, -0.09, 192.0, 0.0, 0.0, 0.0, 0.0, 0.0, 0.0, 0.0, 0.0, 0.0, 1.696024233974477E9, 0.0, 2023-09-29 16:50:33.974
66.0, 23594.38968829986, 15180.567226477531, 4550.122267022403, -6661.065716870513, 7386.066900022853, -6706.260944159144, -187500.02235174447, 36019.85854147179, -22685.4560000248, 26377.047762518858, 8946.464532192294, 1542.024498227179, 10095.679473361906, 1483.9770178767465, -121628.91735183209, -7946.827464917596, 0.17400000000000002, 1.012, -0.09, 192.0, 0.0, 0.0, 0.0, 0.0, 0.0, 0.0, 0.0, 0.0, 0.0, 1.696024233974481E9, 0.0, 2023-09-29 16:50:33.974
68.0, 23360.05399943042, 14829.287210617926, 4595.161032099847, -6614.685847125751, 7454.440886311637, -6651.901501643837, -187500.02235174447, 35701.43558996148, -22716.323759117575, 25986.942766540382, 8722.365942283386, 1382.2989323495547, 10126.256659776767, 1477.740881173716, -121917.97011112812, -7851.899606215908, 0.17400000000000002, 1.008, -0.092, 192.0, 2.5, 56.0, 15.5, 64.0, 126.5, 16.0, 0.0, 0.0, 0.0, 1.696024233974484E9, 0.0, 2023-09-29 16:50:33.974
70.0, 23633.39348237437, 15221.470918830744, 4542.790894841063, -6671.839257697971, 7379.339024941805, -6718.867328031937, -187500.02235174447, 36057.007140756505, -22648.86619435146, 26327.29277936134, 8946.442180447839, 1554.0720884885895, 10103.99432229928, 1492.9624191477799, -121738.37384442972, -7938.780836913686, 0.17400000000000002, 1.008, -0.092, 192.0, 0.0, 0.0, 0.0, 0.0, 0.0, 0.0, 0.0, 0.0, 0.0, 1.696024233974488E9, 0.0, 2023-09-29 16:50:33.974
72.0, 23342.485528288547, 14800.766384692954, 4623.637154535908, -6583.393404888321, 7464.253302127517, -6639.228062537678, -187500.02235174447, 35672.40067391404, -22715.183820150356, 26018.369319244543, 8746.68464025076, 1385.7634527401274, 10106.922400822927, 1465.8050496345818, -121932.74461421306, -7861.466152842779, 0.17400000000000002, 1.008, -0.092, 192.0, 0.0, 0.0, 0.0, 0.0, 0.0, 0.0, 0.0, 0.0, 0.0, 1.696024233974491E9, 0.0, 2023-09-29 16:50:33.974
74.0, 23658.092159997483, 15251.511663378677, 4543.5955576414535, -6667.055984384535, 7395.27581873844, -6711.021865728124, -187500.02235174447, 36073.77094909799, -22636.48332792322, 26285.651479441105, 8944.855206591512, 1568.2654462177095, 10117.293610250188, 1499.8691081844697, -121843.33763639184, -7910.930563322373, 0.17400000000000002, 1.008, -0.092, 192.0, 0.0, 0.0, 0.0, 0.0, 0.0, 0.0, 0.0, 0.0, 0.0, 1.696024233974494E9, 0.0, 2023-09-29 16:50:33.974
76.0, 23319.239714055027, 14775.754782647466, 4617.62453527743, -6597.49735563962, 7445.18726410714, -6647.788780664061, -187500.02235174447, 35651.79236552624, -22710.758174748204, 26061.798758721205, 8760.92270146879, 1392.7148452657277, 10100.127470508512, 1462.1393635439115, -121953.82230923443, -7870.853885514008, 0.17400000000000002, 1.008, -0.092, 192.0, 0.0, 0.0, 0.0, 0.0, 0.0, 0.0, 0.0, 0.0, 0.0, 1.696024234034752E9, 0.0, 2023-09-29 16:50:34.034
78.0, 23660.372037931924, 15252.852768045996, 4528.37401966739, -6684.959731693236, 7401.266086252462, -6715.291048919088, -187500.02235174447, 36077.95072531113, -22681.499741256208, 26221.09964145418, 8913.495709120716, 1547.3889168964527, 10112.264467747746, 1494.9740761487576, -121945.95449518616, -7913.94804882384, 0.17400000000000002, 1.016, -0.092, 192.0, 2.5, 56.0, 15.5, 96.0, 126.5, 16.0, 0.0, 0.0, 0.0, 1.696024234034762E9, 0.0, 2023-09-29 16:50:34.034
80.0, 23311.57306570686, 14765.920015087131, 4641.943233244805, -6581.381747887343, 7454.99967992302, -6621.369018717888, -187500.02235174447, 35643.32105437768, -22735.747425049238, 26122.573151895187, 8781.687472067772, 1402.191984914778, 10094.025444272214, 1461.1111832989675, -121970.45200710917, -7874.407812882401, 0.17400000000000002, 1.016, -0.092, 192.0, 0.0, 0.0, 0.0, 0.0, 0.0, 0.0, 0.0, 0.0, 0.0, 1.696024234034765E9, 0.0, 2023-09-29 16:50:34.034
82.0, 23654.091197739985, 15243.44268363031, 4538.4323046722775, -6686.300836360555, 7406.250525265995, -6692.46991783022, -187500.02235174447, 36061.18691696965, -22645.111101282968, 26186.297975337267, 8907.438386373327, 1551.8369140430586, 10137.544290726697, 1517.8175589820814, -122076.60044152742, -7880.420432140879, 0.17400000000000002, 1.016, -0.092, 192.0, 0.0, 0.0, 0.0, 0.0, 0.0, 0.0, 0.0, 0.0, 0.0, 1.696024234034769E9, 0.0, 2023-09-29 16:50:34.034
84.0, 23308.89085637222, 14772.983166335007, 4626.542881315098, -6597.206782961701, 7421.829691151344, -6636.009411336114, -187500.02235174447, 35653.491098104845, -22716.793145751137, 26165.689666949474, 8817.562021918538, 1420.6992293237722, 10079.385051653988, 1458.2278082642329, -122011.37805120685, -7881.068632730083, 0.17400000000000002, 1.016, -0.092, 192.0, 0.0, 0.0, 0.0, 0.0, 0.0, 0.0, 0.0, 0.0, 0.0, 1.696024234034772E9, 0.0, 2023-09-29 16:50:34.034
86.0, 23649.62084884892, 15231.506852091177, 4541.203920984736, -6679.684720001784, 7417.761673660479, -6691.285275374088, -187500.02235174447, 36040.9585882376, -22673.58722371903, 26103.01537549679, 8880.862162215968, 1535.117809190489, 10121.540441696698, 1508.9662681777797, -122184.11233235746, -7875.257179171704, 0.17400000000000002, 1.016, -0.092, 192.0, 0.0, 0.0, 0.0, 0.0, 0.0, 0.0, 0.0, 0.0, 0.0, 1.696024234034775E9, 0.0, 2023-09-29 16:50:34.034
88.0, 23329.365054293285, 14807.78483245192, 4631.080285439526, -6607.980323789159, 7402.137804286219, -6636.590556691952, -187500.02235174447, 35678.592107128155, -22720.078852186067, 26213.52240008383, 8855.716449703748, 1462.5640466885623, 10069.684394560385, 1470.3424537590092, -122022.48686820113, -7887.7741560666755, 0.17200000000000001, 1.012, -0.1, 192.0, 2.5, 48.0, 15.5, 80.0, 126.0, 112.0, 0.0, 0.0, 0.0, 1.696024234034778E9, 0.0, 2023-09-29 16:50:34.034
90.0, 23624.743357270167, 15198.493325530688, 4554.056174046537, -6682.992778181169, 7429.339877288327, -6677.382490322887, -187500.02235174447, 36001.68657322962, -22664.758284659183, 26088.665555556483, 8858.309252060562, 1530.2674806436873, 10132.470444735342, 1506.6416867544278, -122277.94495558084, -7863.902492988407, 0.17200000000000001, 1.012, -0.1, 192.0, 0.0, 0.0, 0.0, 0.0, 0.0, 0.0, 0.0, 0.0, 0.0, 1.696024234094978E9, 0.0, 2023-09-29 16:50:34.094
92.0, 23352.25324061552, 14849.85081551681, 4625.96173595926, -6629.3932949773425, 7394.627618149236, -6643.519597473097, -187500.02235174447, 35706.73295339739, -22748.35380892203, 26314.68639548855, 8883.454964572784, 1505.7923204651263, 10076.836952786083, 1451.9469680722914, -122072.75594148111, -7887.640045599944, 0.17200000000000001, 1.012, -0.1, 192.0, 0.0, 0.0, 0.0, 0.0, 0.0, 0.0, 0.0, 0.0, 0.0, 1.69602423409499E9, 0.0, 2023-09-29 16:50:34.094
94.0, 23598.14478136835, 15154.058057553537, 4567.534275953088, -6682.389281080876, 7437.542967503425, -6669.157048363334, -187500.02235174447, 35945.56134290234, -22658.76801714516, 26018.01169133326, 8830.391923235884, 1510.642649011928, 10127.15072955498, 1501.3666750629754, -122372.87281428253, -7854.000670194706, 0.17200000000000001, 1.012, -0.1, 192.0, 0.0, 0.0, 0.0, 0.0, 0.0, 0.0, 0.0, 0.0, 0.0, 1.696024234094993E9, 0.0, 2023-09-29 16:50:34.094
96.0, 23398.208427215628, 14911.385168002269, 4623.994782447193, -6629.88503335536, 7392.906533826177, -6650.001603365136, -187500.02235174447, 35737.15367760106, -22738.295523917142, 26339.541535322853, 8920.938840024333, 1534.7154777902936, 10082.223723199812, 1460.932369343325, -122096.98523247067, -7900.782871339664, 0.17200000000000001, 1.012, -0.1, 192.0, 0.0, 0.0, 0.0, 0.0, 0.0, 0.0, 0.0, 0.0, 0.0, 1.696024234094996E9, 0.0, 2023-09-29 16:50:34.094
98.0, 23558.269269260083, 15095.317673124991, 4559.398240971356, -6686.144374149368, 7431.105665100296, -6672.599217009451, -187500.02235174447, 35884.831653217276, -22663.998325347704, 25982.271251949223, 8798.048949009055, 1496.9186779163692, 10129.520014467242, 1505.0323611536458, -122462.95034443741, -7847.429257324846, 0.17, 1.01, -0.10200000000000001, 192.0, 2.5, 40.0, 15.5, 72.0, 126.0, 104.0, 0.0, 0.0, 0.0, 1.696024234095E9, 0.0, 2023-09-29 16:50:34.095
100.0, 23438.59802944637, 14973.902997243762, 4624.464169080755, -6620.184376261756, 7400.260257751973, -6643.0725625839905, -187500.02235174447, 35774.995180963895, -22721.576419064575, 26383.9768033, 8939.58019490006, 1554.0497367441342, 10074.244150429267, 1476.444479995308, -122152.95400058676, -7904.403853941424, 0.17, 1.01, -0.10200000000000001, 192.0, 0.0, 0.0, 0.0, 0.0, 0.0, 0.0, 0.0, 0.0, 0.0, 1.696024234095003E9, 0.0, 2023-09-29 16:50:34.095
102.0, 23519.109012974386, 15036.107902062882, 4573.85981963394, -6666.564246006518, 7447.355383319305, -6656.774181935094, -187500.02235174447, 35820.9056640751, -22685.43364828034, 25958.645458059964, 8778.334710399475, 1496.829270938548, 10139.265375049756, 1508.3627710774865, -122557.54292697227, -7822.708227957276, 0.17, 1.01, -0.10200000000000001, 192.0, 0.0, 0.0, 0.0, 0.0, 0.0, 0.0, 0.0, 0.0, 0.0, 1.696024234095006E9, 0.0, 2023-09-29 16:50:34.095
104.0, 23486.430762580727, 15036.130253807338, 4602.1794798588135, -6641.105609071924, 7381.50714415397, -6664.865513427915, -187500.02235174447, 35839.032928828354, -22696.49776178572, 26401.008832574946, 8964.211817289808, 1581.0506440461452, 10070.243188171768, 1459.7477268871937, -122208.52043730265, -7915.7138366358095, 0.17, 1.01, -0.10200000000000001, 192.0, 0.0, 0.0, 0.0, 0.0, 0.0, 0.0, 0.0, 0.0, 0.0, 1.696024234095009E9, 0.0, 2023-09-29 16:50:34.095
106.0, 23476.528939787026, 14975.668785055732, 4588.567267485531, -6655.36602203441, 7463.694508516134, -6644.659536440317, -187500.02235174447, 35767.663808782556, -22674.77186617516, 25938.99827468375, 8764.364870114907, 1462.9216745998472, 10130.369380756543, 1500.830233196048, -122597.82077048073, -7821.948268645796, 0.17, 1.01, -0.10200000000000001, 192.0, 0.0, 0.0, 0.0, 0.0, 0.0, 0.0, 0.0, 0.0, 0.0, 1.696024234155327E9, 0.0, 2023-09-29 16:50:34.155
108.0, 23521.143021719818, 15096.859943492407, 4573.882171378395, -6673.336824576477, 7383.4964494104925, -6684.736214248684, -187500.02235174447, 35888.40793233013, -22709.2606078697, 26391.352878970254, 8964.278872523175, 1591.8241848736031, 10066.689260803374, 1464.866276367459, -122278.59315617004, -7912.5175371787, 0.17400000000000002, 1.016, -0.10200000000000001, 192.0, 2.5, 56.0, 15.5, 96.0, 126.0, 104.0, 0.0, 0.0, 0.0, 1.696024234155347E9, 0.0, 2023-09-29 16:50:34.155
110.0, 23425.58931417338, 14923.14218558576, 4588.164936085336, -6654.471952256197, 7473.685738287657, -6641.686754427762, -187500.02235174447, 35707.80583713124, -22687.91469191488, 25948.251896888247, 8743.264823349098, 1452.3716512169424, 10117.517127694742, 1476.444479995308, -122643.32892219174, -7820.964791889763, 0.17400000000000002, 1.016, -0.10200000000000001, 192.0, 0.0, 0.0, 0.0, 0.0, 0.0, 0.0, 0.0, 0.0, 0.0, 1.69602423415535E9, 0.0, 2023-09-29 16:50:34.155
112.0, 23573.826083400978, 15157.097894799459, 4564.628549173898, -6694.70509227575, 7385.597513389292, -6679.75177523515, -187500.02235174447, 35921.3767554017, -22687.24413958122, 26397.857236606746, 8978.002843618733, 1616.5452142411727, 10076.836952786083, 1478.76906141866, -122360.31113389863, -7904.2697434746915, 0.17400000000000002, 1.016, -0.10200000000000001, 192.0, 0.0, 0.0, 0.0, 0.0, 0.0, 0.0, 0.0, 0.0, 0.0, 1.696024234155354E9, 0.0, 2023-09-29 16:50:34.155
114.0, 23387.546645110448, 14871.174379727172, 4591.048311120071, -6661.713917459717, 7464.543874805436, -6626.487568198153, -187500.02235174447, 35638.98481595336, -22656.711656655272, 25961.819405772618, 8750.77500948608, 1445.8896453249033, 10116.220726516334, 1481.2054015642884, -122680.61163194319, -7820.316591300559, 0.17400000000000002, 1.016, -0.10200000000000001, 192.0, 0.0, 0.0, 0.0, 0.0, 0.0, 0.0, 0.0, 0.0, 0.0, 1.696024234155357E9, 0.0, 2023-09-29 16:50:34.155
116.0, 23602.413964559313, 15198.560380764055, 4540.980403540183, -6713.301743662566, 7389.46436518006, -6676.667234500317, -187500.02235174447, 35938.095860254274, -22648.396807717898, 26349.666875561106, 8963.63067193397, 1617.7745601862146, 10088.325749436111, 1498.125672116956, -122469.94644045192, -7913.8362901015635, 0.17400000000000002, 1.016, -0.10200000000000001, 192.0, 0.0, 0.0, 0.0, 0.0, 0.0, 0.0, 0.0, 0.0, 0.0, 1.69602423415536E9, 0.0, 2023-09-29 16:50:34.155
118.0, 23346.084159145852, 14820.748844235999, 4594.490479766188, -6652.706164444228, 7473.57397956538, -6613.501204669619, -187500.02235174447, 35582.971344348356, -22668.2004533053, 25980.37135367052, 8745.25412860562, 1447.2307499922217, 10110.453976446865, 1475.125727072445, -122724.35399584223, -7826.418617536858, 0.176, 1.01, -0.096, 192.0, 2.5, 64.0, 15.5, 72.0, 126.5, 0.0, 0.0, 0.0, 0.0, 1.696024234155364E9, 0.0, 2023-09-29 16:50:34.155
120.0, 23634.53342134159, 15236.290125404612, 4510.3138101475015, -6724.008229256658, 7394.985246060521, -6691.464089329731, -187500.02235174447, 35958.57005817533, -22643.702941382282, 26325.45993631601, 8954.846436363034, 1628.36928705803, 10095.590066384086, 1491.286038313632, -122572.20567133494, -7905.566144653099, 0.176, 1.01, -0.096, 192.0, 0.0, 0.0, 0.0, 0.0, 0.0, 0.0, 0.0, 0.0, 0.0, 1.696024234214331E9, 0.0, 2023-09-29 16:50:34.214
122.0, 23320.245542555516, 14794.127916589729, 4604.034674648604, -6633.237795023656, 7472.970482465087, -6609.83551857895, -187500.02235174447, 35534.64687283598, -22668.692191683316, 26004.846513849083, 8748.003393173623, 1439.608805132962, 10095.85828731755, 1477.7855846626264, -122741.60954256172, -7840.12023688796, 0.176, 1.01, -0.096, 192.0, 0.0, 0.0, 0.0, 0.0, 0.0, 0.0, 0.0, 0.0, 0.0, 1.696024234214348E9, 0.0, 2023-09-29 16:50:34.214
124.0, 23649.173813959816, 15268.342526953522, 4528.821054556496, -6701.969409223725, 7422.343781273817, -6676.868400200415, -187500.02235174447, 35940.129868999706, -22625.061586506556, 26287.126694575156, 8953.617090417993, 1642.1156098980439, 10122.52391845273, 1531.1615504218996, -122707.47842877847, -7882.499144375222, 0.176, 1.01, -0.096, 192.0, 0.0, 0.0, 0.0, 0.0, 0.0, 0.0, 0.0, 0.0, 0.0, 1.696024234214351E9, 0.0, 2023-09-29 16:50:34.214
126.0, 23307.125068560254, 14775.710079158554, 4603.811157204051, -6632.0308008230695, 7456.43019156816, -6620.609059406407, -187500.02235174447, 35510.0823056796, -22672.62609870745, 26079.858968241093, 8789.73410007168, 1467.190857790811, 10095.008921028248, 1481.5183259866628, -122794.49376994299, -7853.978318450251, 0.176, 1.01, -0.096, 192.0, 0.0, 0.0, 0.0, 0.0, 0.0, 0.0, 0.0, 0.0, 0.0, 1.696024234214354E9, 0.0, 2023-09-29 16:50:34.214
128.0, 23660.662610609845, 15271.896454321917, 4505.351722878423, -6722.1977379557775, 7418.678095183146, -6695.822679498516, -187500.02235174447, 35953.29504648388, -22600.76524028364, 26212.225998905422, 8942.687087379347, 1614.242984562276, 10115.393711971488, 1517.996372937724, -122818.8348196548, -7889.919923534385, 0.17400000000000002, 1.014, -0.094, 192.0, 2.5, 56.0, 15.5, 88.0, 126.5, 8.0, 0.0, 0.0, 0.0, 1.696024234214357E9, 0.0, 2023-09-29 16:50:34.214
130.0, 23315.23875179753, 14797.12305034674, 4599.832546691006, -6617.435111693753, 7445.7684094629785, -6635.271803769088, -187500.02235174447, 35529.64008207799, -22687.69117447033, 26153.686780176973, 8815.639771895381, 1475.8409828950148, 10072.858342273039, 1471.2141717927661, -122783.25084248195, -7882.119164719483, 0.17400000000000002, 1.014, -0.094, 192.0, 0.0, 0.0, 0.0, 0.0, 0.0, 0.0, 0.0, 0.0, 0.0, 1.696024234214361E9, 0.0, 2023-09-29 16:50:34.214
132.0, 23661.936660043797, 15265.459151918789, 4515.521766605588, -6704.763377280638, 7429.608098221791, -6695.375644609409, -187500.02235174447, 35932.17264797362, -22593.81384775804, 26172.104617608147, 8912.981618998245, 1617.1934148303767, 10127.821281888639, 1537.1294661914667, -122912.53333241146, -7882.543847864134, 0.17400000000000002, 1.014, -0.094, 192.0, 0.0, 0.0, 0.0, 0.0, 0.0, 0.0, 0.0, 0.0, 0.0, 1.696024234214364E9, 0.0, 2023-09-29 16:50:34.214
134.0, 23321.117260589275, 14816.949047678596, 4595.205735588758, -6633.081332812469, 7442.6615169836905, -6643.966632362203, -187500.02235174447, 35544.369881674036, -22677.945813887814, 26198.166751643035, 8850.776714179125, 1495.510518015685, 10071.047850972158, 1464.3074827560763, -122817.3372527763, -7896.066653259594, 0.17400000000000002, 1.014, -0.094, 192.0, 0.0, 0.0, 0.0, 0.0, 0.0, 0.0, 0.0, 0.0, 0.0, 1.696024234214367E9, 0.0, 2023-09-29 16:50:34.214
136.0, 23645.195203446772, 15246.3484104095, 4516.572298594988, -6705.165708680834, 7456.564302034892, -6692.045234685569, -187500.02235174447, 35898.734438268475, -22632.05768252107, 26113.632454113063, 8881.353900593986, 1582.2129347578211, 10121.205165529867, 1513.123692646467, -123005.11425794534, -7880.308673418603, 0.17400000000000002, 1.014, -0.094, 192.0, 0.0, 0.0, 0.0, 0.0, 0.0, 0.0, 0.0, 0.0, 0.0, 1.696024234274537E9, 0.0, 2023-09-29 16:50:34.274
138.0, 23341.166775365684, 14849.448484116612, 4607.678008994819, -6628.432169965765, 7450.66344149869, -6641.373830005387, -187500.02235174447, 35557.22213473584, -22666.05468583759, 26277.135464803632, 8883.99140643971, 1529.8427974990366, 10075.764069052228, 1463.4581164667745, -122839.1972588536, -7886.678920588365, 0.17200000000000001, 1.014, -0.092, 192.0, 2.5, 48.0, 15.5, 88.0, 126.5, 16.0, 0.0, 0.0, 0.0, 1.69602423427455E9, 0.0, 2023-09-29 16:50:34.274
140.0, 23603.15157212634, 15196.459316785254, 4511.789025281551, -6715.715732063739, 7453.256243855506, -6696.157955665345, -187500.02235174447, 35850.074690589274, -22615.115060223947, 26042.330389300634, 8862.399621295885, 1551.501637876229, 10123.082712064113, 1512.8331199685479, -123100.71266898069, -7872.016176225684, 0.17200000000000001, 1.014, -0.092, 192.0, 0.0, 0.0, 0.0, 0.0, 0.0, 0.0, 0.0, 0.0, 0.0, 1.696024234274553E9, 0.0, 2023-09-29 16:50:34.274
142.0, 23368.838235001356, 14902.399766731236, 4605.5769450160205, -6622.2630884961, 7452.004546166008, -6639.004545093125, -187500.02235174447, 35588.11224557307, -22684.494875013217, 26320.74371823594, 8911.595810842015, 1536.9283004913689, 10073.573598095609, 1456.6631861523613, -122870.95908772458, -7895.843135815041, 0.17200000000000001, 1.014, -0.092, 192.0, 0.0, 0.0, 0.0, 0.0, 0.0, 0.0, 0.0, 0.0, 0.0, 1.696024234274557E9, 0.0, 2023-09-29 16:50:34.274
144.0, 23579.14579858134, 15157.23200526619, 4526.474121388688, -6700.114214433935, 7463.448639327126, -6677.181324622789, -187500.02235174447, 35801.504349887895, -22635.969237800746, 26013.273121508733, 8838.885586128901, 1545.4666668732962, 10135.443226747899, 1526.9147189753915, -123203.24012079719, -7837.259213597681, 0.17200000000000001, 1.014, -0.092, 192.0, 0.0, 0.0, 0.0, 0.0, 0.0, 0.0, 0.0, 0.0, 0.0, 1.696024234274563E9, 0.0, 2023-09-29 16:50:34.274
146.0, 23414.25697973454, 14960.268433126026, 4592.881154165406, -6640.524463716086, 7422.723760929556, -6657.176513335289, -187500.02235174447, 35637.26373163029, -22667.90988062738, 26369.559928126328, 8942.195349001331, 1572.244056730754, 10060.922510733904, 1460.9100175988697, -122899.16698922719, -7912.025798800683, 0.17200000000000001, 1.014, -0.092, 192.0, 0.0, 0.0, 0.0, 0.0, 0.0, 0.0, 0.0, 0.0, 0.0, 1.696024234274566E9, 0.0, 2023-09-29 16:50:34.274
148.0, 23541.95249580771, 15101.956141228216, 4548.311775721523, -6690.570019551518, 7471.651729542224, -6666.363080306421, -187500.02235174447, 35744.55210501577, -22610.04121423259, 25963.339324395576, 8822.881737098902, 1530.2674806436873, 10142.95341288488, 1529.1275416764668, -123275.25744143219, -7824.07168436905, 0.168, 1.012, -0.084, 192.0, 2.5, 32.0, 15.5, 80.0, 126.5, 48.0, 0.0, 0.0, 0.0, 1.696024234274569E9, 0.0, 2023-09-29 16:50:34.274
150.0, 23458.9381169007, 15024.663808901765, 4574.5303719675985, -6666.117211117413, 7396.773385616945, -6675.9966821666585, -187500.02235174447, 35689.16448225552, -22682.34910754551, 26393.141018526676, 8965.731735912768, 1586.6162284155166, 10061.57071132311, 1464.285131011621, -122943.71401592661, -7919.983019826773, 0.168, 1.012, -0.084, 192.0, 0.0, 0.0, 0.0, 0.0, 0.0, 0.0, 0.0, 0.0, 0.0, 1.696024234334621E9, 0.0, 2023-09-29 16:50:34.334
152.0, 23504.468620356158, 15045.920317878763, 4584.2757325501125, -6661.803324437538, 7492.215334441106, -6639.809207893516, -187500.02235174447, 35658.900220263036, -22605.10147870797, 25963.205213928846, 8803.636885122882, 1508.675695499861, 10144.67449720794, 1520.6338787834502, -123339.36224453, -7817.366161032458, 0.168, 1.012, -0.084, 192.0, 0.0, 0.0, 0.0, 0.0, 0.0, 0.0, 0.0, 0.0, 0.0, 1.696024234334633E9, 0.0, 2023-09-29 16:50:34.334
154.0, 23513.476373371646, 15094.736527769153, 4590.266000064135, -6658.0929348579575, 7421.248545795506, -6644.994812607148, -187500.02235174447, 35708.655203420545, -22625.888601051403, 26394.45977144954, 9008.244753866764, 1626.8493684350692, 10098.540496652186, 1516.6552682704055, -123049.21424975566, -7883.057937986606, 0.168, 1.012, -0.084, 192.0, 0.0, 0.0, 0.0, 0.0, 0.0, 0.0, 0.0, 0.0, 0.0, 1.696024234334636E9, 0.0, 2023-09-29 16:50:34.334
156.0, 23460.145111101283, 14983.894227015286, 4563.801534629051, -6683.573923537007, 7464.141543405241, -6651.834446410471, -187500.02235174447, 35602.57382423566, -22660.310287512577, 25925.095489632546, 8788.392995404363, 1491.4648522692744, 10132.24692729079, 1519.4492363273189, -123409.59142560858, -7809.677160939832, 0.168, 1.012, -0.084, 192.0, 0.0, 0.0, 0.0, 0.0, 0.0, 0.0, 0.0, 0.0, 0.0, 1.696024234334639E9, 0.0, 2023-09-29 16:50:34.334
158.0, 23548.836833099944, 15149.43124645129, 4560.225255516202, -6690.994702696169, 7391.610132647769, -6678.120097889912, -187500.02235174447, 35745.82615444972, -22648.128586784434, 26400.248873263467, 8994.632541493482, 1622.6248887330162, 10078.312167920134, 1476.3774247619422, -123100.08682013594, -7912.316371478602, 0.168, 1.008, -0.08600000000000001, 192.0, 2.5, 32.0, 15.5, 64.0, 126.5, 40.0, 0.0, 0.0, 0.0, 1.696024234334643E9, 0.0, 2023-09-29 16:50:34.334
160.0, 23408.087898264876, 14924.460938508624, 4589.52839249711, -6663.055022127035, 7481.665311058201, -6626.956954831714, -187500.02235174447, 35531.67409082343, -22654.163557787368, 25973.397609400465, 8772.009166718623, 1471.415337492864, 10135.510281981264, 1507.222832110266, -123447.12000454904, -7810.124195828938, 0.168, 1.008, -0.08600000000000001, 192.0, 0.0, 0.0, 0.0, 0.0, 0.0, 0.0, 0.0, 0.0, 0.0, 1.696024234334646E9, 0.0, 2023-09-29 16:50:34.334
162.0, 23590.67929872028, 15209.356273335967, 4550.792819356063, -6702.37174062392, 7395.611094905269, -6681.204638624745, -187500.02235174447, 35786.3498671472, -22644.52995592713, 26395.487951694486, 9013.184489391386, 1638.0252406627228, 10098.495793163276, 1503.1995181083105, -123179.9272513303, -7890.32225493458, 0.168, 1.008, -0.08600000000000001, 192.0, 0.0, 0.0, 0.0, 0.0, 0.0, 0.0, 0.0, 0.0, 0.0, 1.696024234334649E9, 0.0, 2023-09-29 16:50:34.334
164.0, 23371.788665269454, 14879.75744959801, 4596.993875145183, -6659.098763358446, 7453.323299088872, -6628.678039154773, -187500.02235174447, 35480.06391287612, -22669.318040528065, 25996.978699800817, 8787.87890528189, 1461.1111832989675, 10111.593915414085, 1484.893439399414, -123463.52618497923, -7818.707265699776, 0.168, 1.008, -0.08600000000000001, 192.0, 0.0, 0.0, 0.0, 0.0, 0.0, 0.0, 0.0, 0.0, 0.0, 1.696024234334652E9, 0.0, 2023-09-29 16:50:34.334
166.0, 23624.76570901462, 15256.54080588112, 4542.23210122968, -6706.4621098592415, 7382.602379632281, -6683.573923537007, -187500.02235174447, 35807.919300546564, -22646.362798972466, 26393.69981213806, 9014.704408014346, 1652.2185983918428, 10098.674607118917, 1520.6115270389948, -123276.21856644376, -7886.634217099455, 0.168, 1.008, -0.08600000000000001, 192.0, 0.0, 0.0, 0.0, 0.0, 0.0, 0.0, 0.0, 0.0, 0.0, 1.696024234394448E9, 0.0, 2023-09-29 16:50:34.394
168.0, 23340.630333498757, 14835.79156825442, 4592.367064042934, -6670.855780941937, 7440.381639049249, -6636.992888092147, -187500.02235174447, 35440.68013914587, -22680.96329938928, 26017.609359933063, 8794.249152451654, 1456.3949652188976, 10104.061377532647, 1471.5270962151405, -123478.21128108636, -7823.445835524301, 0.164, 1.01, -0.08, 192.0, 2.5, 16.0, 15.5, 72.0, 126.5, 64.0, 0.0, 0.0, 0.0, 1.696024234394458E9, 0.0, 2023-09-29 16:50:34.394
170.0, 23646.268087180626, 15273.908111322895, 4545.115476264415, -6722.644772844884, 7390.5372489139145, -6688.156031150345, -187500.02235174447, 35812.45670467099, -22647.033351306123, 26281.158778805588, 8990.743337958258, 1615.2711648072202, 10098.04875827417, 1511.5143670456848, -123351.1639656024, -7891.2386764572475, 0.164, 1.01, -0.08, 192.0, 0.0, 0.0, 0.0, 0.0, 0.0, 0.0, 0.0, 0.0, 0.0, 1.696024234394462E9, 0.0, 2023-09-29 16:50:34.394
172.0, 23315.395214008717, 14815.987922667018, 4603.297067081579, -6659.724612203195, 7434.212557579584, -6638.892786370849, -187500.02235174447, 35405.43143813985, -22694.150828617912, 26053.30509582819, 8818.277277741108, 1456.3055582410764, 10107.548249667674, 1468.9119421138696, -123492.76226672677, -7829.726675716242, 0.164, 1.01, -0.08, 192.0, 0.0, 0.0, 0.0, 0.0, 0.0, 0.0, 0.0, 0.0, 0.0, 1.696024234394465E9, 0.0, 2023-09-29 16:50:34.394
174.0, 23647.072749981016, 15295.566951700086, 4533.961955781217, -6722.37655191142, 7387.385652945716, -6690.1453364068675, -187500.02235174447, 35811.54028314832, -22642.272429737142, 26258.896441328103, 8968.77157315869, 1615.5170339962285, 10105.178964755412, 1505.0547128981011, -123458.20646979887, -7886.477754888268, 0.164, 1.01, -0.08, 192.0, 0.0, 0.0, 0.0, 0.0, 0.0, 0.0, 0.0, 0.0, 0.0, 1.696024234394468E9, 0.0, 2023-09-29 16:50:34.394
176.0, 23306.61097843778, 14817.709006990077, 4624.911203969861, -6633.640126423851, 7439.532272759948, -6612.741245358139, -187500.02235174447, 35392.936812989334, -22707.271302613175, 26132.139698522056, 8832.157711047854, 1468.0402240801125, 10095.634769872997, 1470.7447851592046, -123515.51634258227, -7836.2310333527375, 0.164, 1.01, -0.08, 192.0, 0.0, 0.0, 0.0, 0.0, 0.0, 0.0, 0.0, 0.0, 0.0, 1.696024234394471E9, 0.0, 2023-09-29 16:50:34.394
178.0, 23660.372037931924, 15296.192800544835, 4545.607214642431, -6718.464996631742, 7410.251487523496, -6673.783859465583, -187500.02235174447, 35801.079666743244, -22627.162650485356, 26211.533094827308, 8970.872637137489, 1616.858138663547, 10137.454883748876, 1529.1945969098326, -123587.26544228381, -7849.865597470474, 0.16, 1.012, -0.084, 192.0, 2.5, 0.0, 15.5, 80.0, 126.5, 48.0, 0.0, 0.0, 0.0, 1.696024234394474E9, 0.0, 2023-09-29 16:50:34.394
180.0, 23311.684824429136, 14821.531155291934, 4614.428235820322, -6649.621623709396, 7414.0736358253525, -6637.730495659172, -187500.02235174447, 35409.29828993062, -22703.672671755874, 26168.193062328468, 8872.949644678789, 1477.7855846626264, 10089.152763980957, 1464.57570368954, -123529.08385146665, -7850.26792887067, 0.16, 1.012, -0.084, 192.0, 0.0, 0.0, 0.0, 0.0, 0.0, 0.0, 0.0, 0.0, 0.0, 1.696024234454725E9, 0.0, 2023-09-29 16:50:34.454
182.0, 23642.82591853451, 15287.36386148499, 4529.581013867976, -6732.926575294326, 7402.696597897601, -6700.784766767593, -187500.02235174447, 35798.978602764444, -22646.094578039003, 26161.196966313957, 8927.66671510538, 1580.2236295012988, 10115.706636393863, 1500.8749366849586, -123661.78615829781, -7867.903455245907, 0.16, 1.012, -0.084, 192.0, 0.0, 0.0, 0.0, 0.0, 0.0, 0.0, 0.0, 0.0, 0.0, 1.69602423445474E9, 0.0, 2023-09-29 16:50:34.454
184.0, 23321.676054200656, 14847.79445502692, 4620.798482990084, -6649.263995798111, 7417.314638771372, -6641.574995705485, -187500.02235174447, 35421.23412146975, -22720.369424863988, 26249.62046737915, 8893.468546088761, 1500.7631779626822, 10078.960368509337, 1457.378441974931, -123518.62323506156, -7868.618711068477, 0.16, 1.012, -0.084, 192.0, 0.0, 0.0, 0.0, 0.0, 0.0, 0.0, 0.0, 0.0, 0.0, 1.696024234454744E9, 0.0, 2023-09-29 16:50:34.454
186.0, 23618.52957231159, 15243.800311541596, 4537.359420938423, -6730.490235148697, 7423.28255454094, -6686.949036949759, -187500.02235174447, 35753.604561520166, -22662.366648002466, 26069.711276258386, 8900.799918270102, 1554.2956059331425, 10123.485043464309, 1499.4220732953636, -123753.33890358674, -7853.911263216885, 0.16, 1.012, -0.084, 192.0, 0.0, 0.0, 0.0, 0.0, 0.0, 0.0, 0.0, 0.0, 0.0, 1.696024234454747E9, 0.0, 2023-09-29 16:50:34.454
188.0, 23339.49039453154, 14880.539760653945, 4627.973392960238, -6643.117266072902, 7426.61296446478, -6624.744132130639, -187500.02235174447, 35435.49453443224, -22694.48610478474, 26288.356040520197, 8931.108883751498, 1514.9565356918022, 10083.117792978024, 1467.1685060463556, -123556.33062795766, -7863.298995888114, 0.158, 1.01, -0.088, 192.0, 2.0, 120.0, 15.5, 72.0, 126.5, 32.0, 0.0, 0.0, 0.0, 1.69602423445475E9, 0.0, 2023-09-29 16:50:34.454
190.0, 23585.247824817638, 15201.935494176805, 4528.37401966739, -6727.740970580694, 7443.71204897309, -6676.041385655569, -187500.02235174447, 35709.34810749866, -22637.489156423708, 26041.01163637777, 8890.987502454222, 1537.1741696803774, 10138.840691905105, 1517.3928758374307, -123858.25799205995, -7825.949230903296, 0.158, 1.01, -0.088, 192.0, 0.0, 0.0, 0.0, 0.0, 0.0, 0.0, 0.0, 0.0, 0.0, 1.696024234454754E9, 0.0, 2023-09-29 16:50:34.454
192.0, 23363.09383667634, 14925.511470498022, 4593.797575688073, -6671.369871064409, 7398.002731561987, -6648.481684742175, -187500.02235174447, 35480.71211346533, -22724.593904566038, 26335.272352131888, 8947.559767670604, 1531.7426957777377, 10060.676641544896, 1458.4736774532412, -123574.12261654409, -7886.120126976983, 0.158, 1.01, -0.088, 192.0, 0.0, 0.0, 0.0, 0.0, 0.0, 0.0, 0.0, 0.0, 0.0, 1.696024234454757E9, 0.0, 2023-09-29 16:50:34.454
194.0, 23552.010780812598, 15142.725723114698, 4547.864740832418, -6715.42515938582, 7448.160046119696, -6660.283405814577, -187500.02235174447, 35647.23260965736, -22678.929290643846, 25989.043830519182, 8849.301499045074, 1508.474529799763, 10125.139072554002, 1500.8525849405034, -123924.08387948084, -7820.383646533925, 0.158, 1.01, -0.088, 192.0, 0.0, 0.0, 0.0, 0.0, 0.0, 0.0, 0.0, 0.0, 0.0, 1.69602423445476E9, 0.0, 2023-09-29 16:50:34.454
196.0, 23412.580598900393, 14983.067212470438, 4588.09788085197, -6681.495211302664, 7399.209725762574, -6654.918987145304, -187500.02235174447, 35524.27566340872, -22686.193607591824, 26382.054553276845, 8996.554791516637, 1562.1187164925, 10065.728135791795, 1467.8167066355595, -123609.7289454614, -7879.660472829399, 0.158, 1.01, -0.088, 192.0, 0.0, 0.0, 0.0, 0.0, 0.0, 0.0, 0.0, 0.0, 0.0, 1.696024234514984E9, 0.0, 2023-09-29 16:50:34.514
198.0, 23514.45985012768, 15078.17388512777, 4540.958051795727, -6723.874118789926, 7449.836426953844, -6668.9558826632365, -187500.02235174447, 35585.072408327156, -22681.477389511754, 25955.695027791862, 8828.17910053481, 1478.8361166520258, 10114.074959048625, 1488.5814772345398, -123979.51620572999, -7826.284507070126, 0.164, 1.01, -0.088, 192.0, 2.5, 16.0, 15.5, 72.0, 126.5, 32.0, 0.0, 0.0, 0.0, 1.696024234514993E9, 0.0, 2023-09-29 16:50:34.514
200.0, 23464.70486697017, 15042.969887610661, 4597.932648412305, -6673.895618187859, 7404.484737454026, -6643.340783517455, -187500.02235174447, 35555.03166377922, -22676.269433053665, 26411.648262935672, 9011.865736468522, 1580.1118707790222, 10068.209179426334, 1483.2394103097213, -123648.688036047, -7886.27658918817, 0.164, 1.01, -0.088, 192.0, 0.0, 0.0, 0.0, 0.0, 0.0, 0.0, 0.0, 0.0, 0.0, 1.696024234514997E9, 0.0, 2023-09-29 16:50:34.514
202.0, 23466.180082104216, 15009.330512205424, 4568.942435853772, -6704.539859836085, 7477.440831356148, -6642.31260327251, -187500.02235174447, 35510.59639580207, -22654.25296476519, 25936.025492671193, 8837.723295417225, 1481.0936428420118, 10143.378096029532, 1516.185881636844, -124061.90473579225, -7790.54406768609, 0.164, 1.01, -0.088, 192.0, 0.0, 0.0, 0.0, 0.0, 0.0, 0.0, 0.0, 0.0, 0.0, 1.696024234515E9, 0.0, 2023-09-29 16:50:34.515
204.0, 23505.206227923183, 15095.317673124991, 4578.911313880839, -6699.264848144633, 7410.743225901512, -6656.349498790443, -187500.02235174447, 35601.85856841309, -22704.030299667156, 26407.17791404461, 9035.7821030357, 1606.4198740029185, 10080.23441794329, 1487.9109249008804, -123725.77920267335, -7887.640045599944, 0.164, 1.01, -0.088, 192.0, 0.0, 0.0, 0.0, 0.0, 0.0, 0.0, 0.0, 0.0, 0.0, 1.696024234515003E9, 0.0, 2023-09-29 16:50:34.515
206.0, 23418.995549559066, 14942.476444539601, 4577.9948923581715, -6704.539859836085, 7464.655633527713, -6641.396181749843, -187500.02235174447, 35452.68302591837, -22680.315098800078, 25934.684388003876, 8816.846766095969, 1459.7253751427384, 10122.367456241544, 1481.8536021534924, -124097.4440094762, -7809.721864428743, 0.164, 1.01, -0.088, 192.0, 0.0, 0.0, 0.0, 0.0, 0.0, 0.0, 0.0, 0.0, 0.0, 1.696024234515006E9, 0.0, 2023-09-29 16:50:34.515
208.0, 23552.949554079718, 15158.148426788859, 4564.740307896174, -6712.653543073362, 7392.75007161499, -6673.739155976672, -187500.02235174447, 35657.693226062445, -22662.81368289157, 26381.98749804348, 9046.779161307712, 1623.0942753665777, 10076.456973130344, 1476.1092038284785, -123789.68284007107, -7893.093871247038, 0.162, 1.016, -0.092, 192.0, 2.5, 8.0, 15.5, 96.0, 126.5, 16.0, 0.0, 0.0, 0.0, 1.69602423451501E9, 0.0, 2023-09-29 16:50:34.515
210.0, 23386.831389287876, 14900.790441130453, 4597.552668756565, -6676.577827522497, 7470.914121975198, -6620.474948939675, -187500.02235174447, 35408.00188875221, -22721.77758476467, 25963.04875171766, 8816.355027717951, 1468.4649072247635, 10117.003037572269, 1499.958515162291, -124111.92793988323, -7791.706358397765, 0.162, 1.016, -0.092, 192.0, 0.0, 0.0, 0.0, 0.0, 0.0, 0.0, 0.0, 0.0, 0.0, 1.696024234575291E9, 0.0, 2023-09-29 16:50:34.575
212.0, 23588.019441130094, 15207.948113435283, 4554.324394980001, -6715.581621597007, 7395.387577460716, -6679.640016512873, -187500.02235174447, 35689.365647955616, -22663.551290458596, 26381.629870132194, 9061.576016137125, 1645.46837156634, 10095.433604172898, 1499.3103145730872, -123871.26670733294, -7874.050184971116, 0.162, 1.016, -0.092, 192.0, 0.0, 0.0, 0.0, 0.0, 0.0, 0.0, 0.0, 0.0, 0.0, 1.696024234575302E9, 0.0, 2023-09-29 16:50:34.575
214.0, 23352.923792949176, 14846.140425937228, 4595.317494311034, -6679.37179557941, 7464.052136427419, -6636.523501458586, -187500.02235174447, 35368.23813536622, -22698.82234320907, 25984.796999072674, 8834.728161660214, 1464.5310002006293, 10102.183830998401, 1463.771040889149, -124116.89002715232, -7809.766567917653, 0.162, 1.016, -0.092, 192.0, 0.0, 0.0, 0.0, 0.0, 0.0, 0.0, 0.0, 0.0, 0.0, 1.696024234575306E9, 0.0, 2023-09-29 16:50:34.575
216.0, 23622.217610146716, 15241.676895818342, 4549.18349375528, -6720.923688521825, 7401.780176374934, -6676.89075194487, -187500.02235174447, 35717.84177039168, -22665.875871881948, 26324.945846193536, 9049.93075727591, 1639.2992900966753, 10090.784441326196, 1499.086797128534, -123926.16259171518, -7873.312577404092, 0.162, 1.016, -0.092, 192.0, 0.0, 0.0, 0.0, 0.0, 0.0, 0.0, 0.0, 0.0, 0.0, 1.69602423457531E9, 0.0, 2023-09-29 16:50:34.575
218.0, 23325.69936820261, 14801.995730637997, 4623.279526624623, -6651.767391177105, 7463.828618982866, -6617.345704715933, -187500.02235174447, 35318.080820808515, -22725.331512133063, 26023.57727570263, 8837.164501805843, 1467.1461543019002, 10109.917534579938, 1493.2082883367884, -124122.85794292188, -7791.326378742026, 0.162, 1.014, -0.088, 192.0, 2.5, 8.0, 15.5, 88.0, 126.5, 32.0, 0.0, 0.0, 0.0, 1.696024234575313E9, 0.0, 2023-09-29 16:50:34.575
220.0, 23646.849232536464, 15266.912015308382, 4549.85404608894, -6729.126778736923, 7396.236943750017, -6690.726481762706, -187500.02235174447, 35729.5317327418, -22646.876889094936, 26279.370639249166, 9040.632431582502, 1641.9814994313122, 10104.128432766012, 1500.3384948180312, -124025.98548245258, -7868.439897112835, 0.162, 1.014, -0.088, 192.0, 0.0, 0.0, 0.0, 0.0, 0.0, 0.0, 0.0, 0.0, 0.0, 1.696024234575316E9, 0.0, 2023-09-29 16:50:34.575
222.0, 23321.117260589275, 14805.348492306292, 4635.505930841677, -6651.2309493101775, 7456.273729356973, -6621.100797784424, -187500.02235174447, 35315.2868527516, -22691.423915794363, 26100.064945228693, 8891.300426876596, 1492.3365703030313, 10101.110947264546, 1477.7185294292606, -124112.53143698353, -7813.231088308226, 0.162, 1.014, -0.088, 192.0, 0.0, 0.0, 0.0, 0.0, 0.0, 0.0, 0.0, 0.0, 0.0, 1.69602423457532E9, 0.0, 2023-09-29 16:50:34.575
224.0, 23663.791854833587, 15281.664166648885, 4547.954147810238, -6733.61947937244, 7411.302019512895, -6690.547667807063, -187500.02235174447, 35743.03218639281, -22698.487067042242, 26259.63404889513, 9044.991021751288, 1644.9989849327785, 10118.880584106515, 1519.9633264497909, -124114.0960590954, -7852.570158549566, 0.162, 1.014, -0.088, 192.0, 0.0, 0.0, 0.0, 0.0, 0.0, 0.0, 0.0, 0.0, 0.0, 1.696024234575323E9, 0.0, 2023-09-29 16:50:34.575
226.0, 23307.549751704904, 14785.20957055206, 4632.2872796401125, -6648.727553931183, 7456.43019156816, -6621.145501273335, -187500.02235174447, 35317.52202719713, -22695.648395496417, 26126.663521130507, 8910.880555019445, 1483.7535004321935, 10089.42098491442, 1454.7632878736601, -124091.81136987345, -7825.301030314092, 0.162, 1.014, -0.088, 192.0, 0.0, 0.0, 0.0, 0.0, 0.0, 0.0, 0.0, 0.0, 0.0, 1.696024234634736E9, 0.0, 2023-09-29 16:50:34.634
228.0, 23646.7821773031, 15262.933404795338, 4535.1465982373475, -6739.699153864283, 7412.08433056883, -6691.195868396267, -187500.02235174447, 35730.895189153576, -22661.76315090217, 26175.03269613179, 8999.169945617909, 1613.6841909508935, 10120.713427151852, 1510.1732623783664, -124201.69254561575, -7837.236861853226, 0.164, 1.018, -0.088, 192.0, 2.5, 16.0, 15.5, 104.0, 126.5, 32.0, 0.0, 0.0, 0.0, 1.696024234634745E9, 0.0, 2023-09-29 16:50:34.634
230.0, 23316.624559953758, 14807.337797562814, 4637.606994820475, -6644.391315506854, 7443.823807695367, -6622.576012918475, -187500.02235174447, 35319.46662896474, -22712.4122038379, 26219.087984453203, 8952.365392728496, 1516.4317508258523, 10072.724231806307, 1464.1286688004338, -124097.62282343184, -7832.744161217709, 0.164, 1.018, -0.088, 192.0, 0.0, 0.0, 0.0, 0.0, 0.0, 0.0, 0.0, 0.0, 0.0, 1.696024234634749E9, 0.0, 2023-09-29 16:50:34.634
232.0, 23633.415834118827, 15238.927631250339, 4532.4196854138, -6749.422162702342, 7433.676115712657, -6690.234743384689, -187500.02235174447, 35703.179026029, -22653.045970564603, 26116.918160547993, 9002.16507937492, 1600.0719785776114, 10119.439377717898, 1515.1129979029893, -124273.329886595, -7831.179539105838, 0.164, 1.018, -0.088, 192.0, 0.0, 0.0, 0.0, 0.0, 0.0, 0.0, 0.0, 0.0, 0.0, 1.696024234634752E9, 0.0, 2023-09-29 16:50:34.634
234.0, 23327.219286825573, 14829.711893762576, 4631.840244751006, -6649.152237075835, 7444.76258096249, -6623.2242135076785, -187500.02235174447, 35344.67939671033, -22748.443215899853, 26239.76334807436, 8956.947500341834, 1520.7903409946373, 10074.445316129366, 1456.9537588302803, -124089.50914019455, -7843.964736934274, 0.164, 1.018, -0.088, 192.0, 0.0, 0.0, 0.0, 0.0, 0.0, 0.0, 0.0, 0.0, 0.0, 1.696024234634755E9, 0.0, 2023-09-29 16:50:34.634
236.0, 23617.38963334437, 15209.289218102602, 4549.272900733102, -6720.074322232524, 7458.017165424486, -6666.497190773152, -187500.02235174447, 35654.65338881652, -22646.228688505733, 26066.090293656624, 8946.129256025464, 1582.9058388359356, 10135.15265406998, 1514.8224252250702, -124346.3977392194, -7811.577059218534, 0.164, 1.018, -0.088, 192.0, 0.0, 0.0, 0.0, 0.0, 0.0, 0.0, 0.0, 0.0, 0.0, 1.696024234634758E9, 0.0, 2023-09-29 16:50:34.634
238.0, 23360.031647685963, 14877.70108910812, 4619.2562126226685, -6652.393240021854, 7440.180473349152, -6626.755789131616, -187500.02235174447, 35383.504376829194, -22711.764003248692, 26327.471593316986, 8995.504259527237, 1558.4530304018297, 10074.42296438491, 1483.7535004321935, -124101.73554441161, -7848.613899780978, 0.16, 1.012, -0.088, 192.0, 2.5, 0.0, 15.5, 80.0, 126.5, 32.0, 0.0, 0.0, 0.0, 1.696024234634761E9, 0.0, 2023-09-29 16:50:34.634
240.0, 23574.921318879286, 15144.826787093496, 4535.191301726259, -6726.37751416892, 7450.842255454333, -6668.665309985317, -187500.02235174447, 35609.99460339482, -22668.088694583024, 25979.432580403398, 8920.894136535422, 1548.215931441299, 10129.654124933973, 1510.799111223115, -124411.88835047345, -7801.094091068994, 0.16, 1.012, -0.088, 192.0, 0.0, 0.0, 0.0, 0.0, 0.0, 0.0, 0.0, 0.0, 0.0, 1.696024234694441E9, 0.0, 2023-09-29 16:50:34.694
242.0, 23393.58161611338, 14931.613496734322, 4610.002590418171, -6646.738248674661, 7425.4059702641935, -6626.241699009144, -187500.02235174447, 35425.168028493885, -22740.664808829406, 26338.491003333453, 9008.624733522503, 1568.600722384539, 10066.197522425357, 1480.4677939972632, -124111.77147767205, -7852.056068427095, 0.16, 1.012, -0.088, 192.0, 0.0, 0.0, 0.0, 0.0, 0.0, 0.0, 0.0, 0.0, 0.0, 1.696024234694454E9, 0.0, 2023-09-29 16:50:34.694
244.0, 23538.487975417134, 15099.631559804864, 4550.010508300127, -6711.312438406043, 7453.524464788969, -6656.327147045988, -187500.02235174447, 35560.48548942632, -22669.273337039154, 25994.72117361083, 8892.61917979946, 1538.3588121365085, 10123.082712064113, 1517.638745026439, -124456.10010100606, -7795.528506699623, 0.16, 1.012, -0.088, 192.0, 0.0, 0.0, 0.0, 0.0, 0.0, 0.0, 0.0, 0.0, 0.0, 1.696024234694457E9, 0.0, 2023-09-29 16:50:34.694
246.0, 23444.11891032683, 14995.897113787785, 4616.529299799121, -6648.168760319801, 7424.7577696749895, -6629.058018810513, -187500.02235174447, 35467.56928772561, -22704.499686300718, 26401.098239552768, 9047.136789218997, 1603.245926290265, 10070.71257480533, 1501.6348959964391, -124135.7548994726, -7860.3038621311025, 0.16, 1.012, -0.088, 192.0, 0.0, 0.0, 0.0, 0.0, 0.0, 0.0, 0.0, 0.0, 0.0, 1.69602423469446E9, 0.0, 2023-09-29 16:50:34.694
248.0, 23504.446268611704, 15036.443178229712, 4551.195150756258, -6709.256077916155, 7468.567188807391, -6651.856798154927, -187500.02235174447, 35510.14936091296, -22680.06922961107, 25960.56770808312, 8880.728051749236, 1528.702858531816, 10142.10404659558, 1516.8117304815926, -124507.55381674216, -7783.503268182668, 0.162, 1.014, -0.09, 192.0, 2.5, 8.0, 15.5, 88.0, 126.5, 24.0, 0.0, 0.0, 0.0, 1.696024234694464E9, 0.0, 2023-09-29 16:50:34.694
250.0, 23484.03912592401, 15050.569480725466, 4572.205790544247, -6707.266772659633, 7402.584839175325, -6669.961711163725, -187500.02235174447, 35527.60607333256, -22703.404450822407, 26381.227538731997, 9037.793760036679, 1606.7998536586588, 10066.130467191992, 1460.6194449209506, -124149.16594614577, -7893.1162229914935, 0.162, 1.014, -0.09, 192.0, 0.0, 0.0, 0.0, 0.0, 0.0, 0.0, 0.0, 0.0, 0.0, 1.696024234694467E9, 0.0, 2023-09-29 16:50:34.694
252.0, 23451.226765063617, 14973.545369332478, 4564.2038660292465, -6697.677874288306, 7470.578845808369, -6644.190149806756, -187500.02235174447, 35440.09899379003, -22687.69117447033, 25928.76117572322, 8837.94681286178, 1488.7155877012715, 10120.266392262745, 1500.9866954072352, -124509.43136327641, -7802.97163760324, 0.162, 1.014, -0.09, 192.0, 0.0, 0.0, 0.0, 0.0, 0.0, 0.0, 0.0, 0.0, 0.0, 1.69602423469447E9, 0.0, 2023-09-29 16:50:34.694
254.0, 23529.32376019046, 15120.642199592854, 4579.425404003311, -6692.246400385667, 7404.149461287197, -6655.321318545499, -187500.02235174447, 35565.53698367321, -22702.130401388455, 26410.284806523898, 9060.547835892181, 1643.791990732192, 10072.545417850664, 1492.1130528584783, -124199.79264733705, -7881.001577496717, 0.162, 1.014, -0.09, 192.0, 0.0, 0.0, 0.0, 0.0, 0.0, 0.0, 0.0, 0.0, 0.0, 1.696024234694473E9, 0.0, 2023-09-29 16:50:34.694
0.0, 23414.860476834834, 14917.688359938666, 4591.785918687096, -6682.9257229478035, 7471.5399708199475, -6625.2805739975665, -187500.02235174447, 35386.43245535284, -22683.846674424014, 25953.303391135145, 8855.917615403845, 1500.539660518129, 10127.731874910818, 1520.5444718056287, -124534.75588974428, -7783.615026904944, 0.162, 1.014, -0.09, 192.0, 0.0, 0.0, 0.0, 0.0, 0.0, 0.0, 0.0, 0.0, 0.0, 1.696024234754698E9, 0.0, 2023-09-29 16:50:34.754
2.0, 23574.98837411265, 15169.391354249878, 4566.4837439636885, -6704.070473202524, 7394.113528026764, -6670.296987330555, -187500.02235174447, 35610.12871386155, -22699.269378098175, 26378.947660797556, 9072.282501731217, 1648.6423192789937, 10084.302435434156, 1501.6125442519838, -124242.26096180212, -7878.878161773463, 0.166, 1.014, -0.08600000000000001, 192.0, 2.5, 24.0, 15.5, 88.0, 126.5, 40.0, 0.0, 0.0, 0.0, 1.696024234754707E9, 0.0, 2023-09-29 16:50:34.754
4.0, 23373.554453081426, 14862.770123811975, 4599.720787968729, -6664.664347727818, 7472.0093574535085, -6621.346666973433, -187500.02235174447, 35332.69886168228, -22710.601712537016, 25946.731978265285, 8840.070228585033, 1478.0091021071796, 10115.90780209396, 1511.7155327457826, -124523.78118321672, -7791.460489208757, 0.166, 1.014, -0.08600000000000001, 192.0, 0.0, 0.0, 0.0, 0.0, 0.0, 0.0, 0.0, 0.0, 0.0, 1.696024234754711E9, 0.0, 2023-09-29 16:50:34.754
6.0, 23610.304130352037, 15204.81886921154, 4560.605235171943, -6708.004380226658, 7399.857926351778, -6668.262978585122, -187500.02235174447, 35640.81765899869, -22671.419104506866, 26362.83205304528, 9045.080428729108, 1652.2185983918428, 10096.61824662903, 1507.4910530437296, -124303.54944509859, -7868.596359324022, 0.166, 1.014, -0.08600000000000001, 192.0, 0.0, 0.0, 0.0, 0.0, 0.0, 0.0, 0.0, 0.0, 0.0, 1.696024234754714E9, 0.0, 2023-09-29 16:50:34.754
8.0, 23342.798452710922, 14819.541850035412, 4605.2863723381015, -6664.3737750498985, 7465.035613183452, -6622.665419896295, -187500.02235174447, 35315.555073685064, -22712.322796860077, 25999.28092947971, 8846.485179243706, 1472.7117386712716, 10100.418043186432, 1479.283151541132, -124495.86385439204, -7808.9395533728075, 0.166, 1.014, -0.08600000000000001, 192.0, 0.0, 0.0, 0.0, 0.0, 0.0, 0.0, 0.0, 0.0, 0.0, 1.696024234754717E9, 0.0, 2023-09-29 16:50:34.754
10.0, 23628.766671272122, 15234.949020737295, 4556.179589769792, -6713.681723318306, 7402.94246708661, -6668.9558826632365, -187500.02235174447, 35669.58435411267, -22685.120723857966, 26332.791308497348, 9054.26699570024, 1657.046575194189, 10101.021540286725, 1509.7709309781708, -124334.70777686928, -7856.951100462807, 0.166, 1.014, -0.08600000000000001, 192.0, 0.0, 0.0, 0.0, 0.0, 0.0, 0.0, 0.0, 0.0, 0.0, 1.69602423475472E9, 0.0, 2023-09-29 16:50:34.754
12.0, 23313.919998874666, 14780.225131538527, 4620.574965545531, -6644.83835039596, 7461.14640964823, -6607.712102855695, -187500.02235174447, 35271.25391617464, -22714.69208177234, 26029.43343274992, 8862.198455595786, 1476.0197968506573, 10097.936999551894, 1489.9225819018582, -124476.46254020484, -7798.277771267626, 0.166, 1.014, -0.092, 192.0, 2.5, 24.0, 15.5, 88.0, 126.5, 16.0, 0.0, 0.0, 0.0, 1.696024234754724E9, 0.0, 2023-09-29 16:50:34.754
14.0, 23633.68405505229, 15238.122968449947, 4535.101894748437, -6727.85272930297, 7406.5634496883695, -6684.89267645987, -187500.02235174447, 35673.58531637017, -22688.361726803985, 26256.884784327125, 9009.407044578438, 1630.693868481382, 10098.76401409674, 1516.1188264034781, -124402.74648699124, -7861.868484242975, 0.166, 1.014, -0.092, 192.0, 0.0, 0.0, 0.0, 0.0, 0.0, 0.0, 0.0, 0.0, 0.0, 1.696024234815E9, 0.0, 2023-09-29 16:50:34.815
16.0, 23288.997803806997, 14751.6819538691, 4607.119215383436, -6655.678946456784, 7451.490456043537, -6628.812149621505, -187500.02235174447, 35267.78939578407, -22761.69780036185, 26089.760791034794, 8844.27235654263, 1470.8118403925707, 10079.161534209436, 1462.832267622026, -124437.01171124123, -7827.156225103882, 0.166, 1.014, -0.092, 192.0, 0.0, 0.0, 0.0, 0.0, 0.0, 0.0, 0.0, 0.0, 0.0, 1.696024234815013E9, 0.0, 2023-09-29 16:50:34.815
18.0, 23631.471232351214, 15227.282372389123, 4528.306964434024, -6741.308479465066, 7414.27480152545, -6695.822679498516, -187500.02235174447, 35678.34623793915, -22694.44140129583, 26183.32519332471, 8969.553884214627, 1601.5248419672064, 10095.657121617453, 1500.0032186512017, -124439.11277522001, -7864.0589551995945, 0.166, 1.014, -0.092, 192.0, 0.0, 0.0, 0.0, 0.0, 0.0, 0.0, 0.0, 0.0, 0.0, 1.696024234815016E9, 0.0, 2023-09-29 16:50:34.815
20.0, 23286.449704939092, 14752.687782369589, 4636.109427941969, -6641.3067747720215, 7466.488476573048, -6610.97545754617, -187500.02235174447, 35253.327817121484, -22736.932067505368, 26152.904469121037, 8870.893284188902, 1476.0421485951124, 10074.959406251837, 1457.9819390752243, -124396.86797819949, -7834.778169963142, 0.166, 1.014, -0.092, 192.0, 0.0, 0.0, 0.0, 0.0, 0.0, 0.0, 0.0, 0.0, 0.0, 1.696024234815019E9, 0.0, 2023-09-29 16:50:34.815
22.0, 23611.980511186186, 15203.455412799767, 4525.065961488004, -6745.510607422663, 7441.029839638453, -6688.066624172524, -187500.02235174447, 35644.63980730055, -22714.714433516794, 26145.729559150885, 8953.170055528886, 1610.4878914937844, 10123.127415553025, 1517.5269863041624, -124510.4371917769, -7836.4098473083795, 0.164, 1.014, -0.094, 192.0, 2.5, 16.0, 15.5, 88.0, 126.5, 8.0, 0.0, 0.0, 0.0, 1.696024234815023E9, 0.0, 2023-09-29 16:50:34.815
24.0, 23274.670335611147, 14748.664468367633, 4613.355352086467, -6671.7722024646055, 7437.230043081051, -6637.484626470164, -187500.02235174447, 35258.17814566829, -22790.442143731376, 26183.70517298045, 8878.537580792616, 1483.1500033319, 10054.41815309741, 1416.5194531106297, -124364.43559699484, -7864.550693577611, 0.164, 1.014, -0.094, 192.0, 0.0, 0.0, 0.0, 0.0, 0.0, 0.0, 0.0, 0.0, 0.0, 1.696024234815026E9, 0.0, 2023-09-29 16:50:34.815
26.0, 23592.6686039768, 15172.185322306792, 4533.112589491915, -6753.66899414885, 7430.99390637802, -6685.7420427491725, -187500.02235174447, 35620.008184910796, -22688.853465182005, 26082.988212464836, 8906.968999739767, 1568.1313357509775, 10111.325694480622, 1494.3258755595537, -124531.22431412034, -7840.611975265977, 0.164, 1.014, -0.094, 192.0, 0.0, 0.0, 0.0, 0.0, 0.0, 0.0, 0.0, 0.0, 0.0, 1.696024234815029E9, 0.0, 2023-09-29 16:50:34.815
28.0, 23299.391364978717, 14788.40587000917, 4624.240651636202, -6669.268807085611, 7414.766539903467, -6624.3418007304435, -187500.02235174447, 35294.097399007966, -22771.778437111192, 26240.635066108116, 8903.973865982756, 1510.4861868007406, 10055.692202531363, 1446.2696249806436, -124305.2928811661, -7860.0132894531835, 0.164, 1.014, -0.094, 192.0, 0.0, 0.0, 0.0, 0.0, 0.0, 0.0, 0.0, 0.0, 0.0, 1.696024234815032E9, 0.0, 2023-09-29 16:50:34.815
30.0, 23556.347019236928, 15125.313714184012, 4536.0853715044705, -6750.807970858571, 7413.581897447336, -6674.744984477161, -187500.02235174447, 35574.991771577814, -22716.0108346952, 26012.066127308146, 8864.210112596764, 1546.2266261847767, 10106.408310700454, 1496.6504569829056, -124547.74225327281, -7829.480806527235, 0.164, 1.014, -0.094, 192.0, 0.0, 0.0, 0.0, 0.0, 0.0, 0.0, 0.0, 0.0, 0.0, 1.696024234875233E9, 0.0, 2023-09-29 16:50:34.875
32.0, 23319.50793498849, 14831.857661230286, 4620.172634145336, -6671.638091997874, 7401.6907693971125, -6627.761617632105, -187500.02235174447, 35324.853399378466, -22804.546094482674, 26289.943014376524, 8910.9029067639, 1529.8204457545812, 10045.365696593011, 1451.030546549624, -124273.57575578401, -7869.445725613324, 0.158, 1.014, -0.088, 192.0, 2.0, 120.0, 15.5, 88.0, 126.5, 32.0, 0.0, 0.0, 0.0, 1.696024234875257E9, 0.0, 2023-09-29 16:50:34.875
34.0, 23526.194515966716, 15072.720059480675, 4560.940511338772, -6724.924650779325, 7443.555586761902, -6657.020051124103, -187500.02235174447, 35523.403945374965, -22703.091526400036, 25982.651231604963, 8852.050763613077, 1538.4035156254192, 10120.556964940664, 1516.4541025703077, -124571.7480268178, -7803.329265514525, 0.158, 1.014, -0.088, 192.0, 0.0, 0.0, 0.0, 0.0, 0.0, 0.0, 0.0, 0.0, 0.0, 1.69602423487526E9, 0.0, 2023-09-29 16:50:34.875
36.0, 23362.870319231788, 14888.787554357954, 4619.636192278408, -6667.927702418292, 7385.038719777909, -6641.753809661128, -187500.02235174447, 35367.70169349929, -22768.135102764976, 26352.1702709401, 8959.897930609934, 1569.7406613517596, 10047.958498949827, 1454.316252984554, -124234.66136868733, -7874.988958238239, 0.158, 1.014, -0.088, 192.0, 0.0, 0.0, 0.0, 0.0, 0.0, 0.0, 0.0, 0.0, 0.0, 1.696024234875264E9, 0.0, 2023-09-29 16:50:34.875
38.0, 23464.570756503435, 15005.150735992282, 4573.85981963394, -6719.761397810149, 7437.56531924788, -6651.40976326582, -187500.02235174447, 35462.361331267515, -22702.108049644, 25951.671713789907, 8826.681533656303, 1521.72911426176, 10119.081749806614, 1507.0663698990786, -124573.33500067414, -7795.707320655266, 0.158, 1.014, -0.088, 192.0, 0.0, 0.0, 0.0, 0.0, 0.0, 0.0, 0.0, 0.0, 0.0, 1.696024234875267E9, 0.0, 2023-09-29 16:50:34.875
40.0, 23392.86636029081, 14943.526976529001, 4603.297067081579, -6685.384414837888, 7375.427469662127, -6650.962728376714, -187500.02235174447, 35423.066964515085, -22780.115637793024, 26359.54634661035, 8969.710346425814, 1580.8941818349579, 10040.872995957494, 1454.606825662473, -124194.58469087895, -7889.092908989538, 0.158, 1.014, -0.088, 192.0, 0.0, 0.0, 0.0, 0.0, 0.0, 0.0, 0.0, 0.0, 0.0, 1.69602423487527E9, 0.0, 2023-09-29 16:50:34.875
42.0, 23421.610703660335, 14945.650392252255, 4589.036654119093, -6698.549592322063, 7462.129886404263, -6627.560451932008, -187500.02235174447, 35403.777409050155, -22711.78635499315, 25896.060573585102, 8778.155896443832, 1485.4969364997073, 10113.67262764843, 1501.0761023850564, -124549.1951166624, -7789.292369996592, 0.156, 1.014, -0.088, 192.0, 2.0, 112.0, 15.5, 88.0, 126.5, 32.0, 0.0, 0.0, 0.0, 1.696024234875274E9, 0.0, 2023-09-29 16:50:34.875
44.0, 23432.563058443437, 15000.993311523594, 4602.447700792277, -6697.476708588209, 7402.875411853244, -6644.570129462497, -187500.02235174447, 35469.290372048665, -22728.192535423343, 26363.68141933458, 8980.282721553174, 1604.8329001465918, 10067.873903259506, 1481.607732964484, -124201.37962119337, -7864.170713921871, 0.156, 1.014, -0.088, 192.0, 0.0, 0.0, 0.0, 0.0, 0.0, 0.0, 0.0, 0.0, 0.0, 1.696024234935435E9, 0.0, 2023-09-29 16:50:34.935
46.0, 23369.8664152463, 14880.360946698303, 4591.182421586803, -6705.813909270038, 7475.451526099626, -6628.499225199131, -187500.02235174447, 35352.83778343652, -22720.30236963062, 25912.0644226151, 8766.421230604796, 1469.381328747431, 10109.559906668652, 1487.9109249008804, -124532.61012227657, -7782.340977470992, 0.156, 1.014, -0.088, 192.0, 0.0, 0.0, 0.0, 0.0, 0.0, 0.0, 0.0, 0.0, 0.0, 1.696024234935447E9, 0.0, 2023-09-29 16:50:34.935
48.0, 23470.315154828448, 15059.51017850759, 4571.401127743856, -6723.09180773399, 7388.413833190661, -6670.2746355861, -187500.02235174447, 35531.450573378876, -22744.866936787002, 26367.83884380327, 8984.931884399877, 1611.4266647609074, 10049.791341995162, 1478.6349509519282, -124170.66832431179, -7875.36893789398, 0.156, 1.014, -0.088, 192.0, 0.0, 0.0, 0.0, 0.0, 0.0, 0.0, 0.0, 0.0, 0.0, 1.696024234935451E9, 0.0, 2023-09-29 16:50:34.935
50.0, 23321.47488850056, 14821.039416913918, 4585.929761639805, -6715.849842530471, 7463.694508516134, -6641.060905583014, -187500.02235174447, 35310.257710249156, -22706.041956668134, 25897.3122712746, 8761.59325380245, 1441.5981103894844, 10087.94576978037, 1464.1063170559785, -124460.21282198583, -7790.365253730447, 0.156, 1.014, -0.088, 192.0, 0.0, 0.0, 0.0, 0.0, 0.0, 0.0, 0.0, 0.0, 0.0, 1.696024234935455E9, 0.0, 2023-09-29 16:50:34.935
52.0, 23500.802934265488, 15105.331254640969, 4526.183548710769, -6770.119878067956, 7388.391481446205, -6704.673970302817, -187500.02235174447, 35588.402818250994, -22716.614331795496, 26329.460898573507, 8976.751145929235, 1601.636600689483, 10045.74567624875, 1462.9440263443025, -124134.1008703829, -7883.102641475516, 0.16, 1.014, -0.084, 192.0, 2.5, 0.0, 15.5, 88.0, 126.5, 48.0, 0.0, 0.0, 0.0, 1.696024234935458E9, 0.0, 2023-09-29 16:50:34.935
54.0, 23258.46532088105, 14746.831625322298, 4546.680098376286, -6752.931386581825, 7449.545854275925, -6668.151219862845, -187500.02235174447, 35264.05665446004, -22797.66175719044, 25919.105222118524, 8715.682770691248, 1399.2639063911327, 10053.166455407913, 1435.384325430909, -124340.58628566102, -7829.257289082681, 0.16, 1.014, -0.084, 192.0, 0.0, 0.0, 0.0, 0.0, 0.0, 0.0, 0.0, 0.0, 0.0, 1.696024234935461E9, 0.0, 2023-09-29 16:50:34.935
56.0, 23525.88159154434, 15122.028007749082, 4529.357496423423, -6772.824439147048, 7405.155289787685, -6695.08507193149, -187500.02235174447, 35587.017010094765, -22683.95843314629, 26257.555336660786, 8937.903814065912, 1568.667777617905, 10051.043039684659, 1449.4882761822078, -124115.72773644063, -7895.4631561593005, 0.16, 1.014, -0.084, 192.0, 0.0, 0.0, 0.0, 0.0, 0.0, 0.0, 0.0, 0.0, 0.0, 1.696024234935465E9, 0.0, 2023-09-29 16:50:34.935
58.0, 23239.913372983145, 14704.09508992375, 4586.376796528912, -6715.358104152454, 7475.026842954975, -6625.526443186574, -187500.02235174447, 35205.182159564756, -22717.418994595886, 25940.18291713988, 8753.59132928745, 1417.8605577779483, 10083.609531356042, 1453.958625073269, -124291.74772402618, -7804.536259715112, 0.16, 1.014, -0.084, 192.0, 0.0, 0.0, 0.0, 0.0, 0.0, 0.0, 0.0, 0.0, 0.0, 1.696024234935468E9, 0.0, 2023-09-29 16:50:34.935
60.0, 23545.23820224264, 15145.09500802696, 4501.239001898647, -6790.9293521558475, 7398.583876917824, -6700.203621411756, -187500.02235174447, 35602.57382423566, -22723.342206876543, 26236.544696872796, 8950.532549683161, 1597.9038593654466, 10067.113943948025, 1480.6466079529057, -124119.19225683121, -7881.649778085921, 0.16, 1.014, -0.084, 192.0, 0.0, 0.0, 0.0, 0.0, 0.0, 0.0, 0.0, 0.0, 0.0, 1.696024234994475E9, 0.0, 2023-09-29 16:50:34.994
62.0, 23214.96882617102, 14673.04851687533, 4566.327281752501, -6734.424142172831, 7447.131865874751, -6643.296080028544, -187500.02235174447, 35187.99366807863, -22751.25953570122, 25983.4335426609, 8754.284233365564, 1421.0568572350571, 10053.70289727484, 1444.1685610018446, -124177.15033020382, -7837.929765931341, 0.166, 1.012, -0.078, 192.0, 2.5, 24.0, 15.5, 80.0, 126.5, 72.0, 0.0, 0.0, 0.0, 1.69602423499449E9, 0.0, 2023-09-29 16:50:34.994
64.0, 23552.61427791289, 15144.916194071317, 4487.604437780909, -6813.370503588975, 7392.4147954481605, -6706.082130203501, -187500.02235174447, 35613.19090285193, -22705.997253179223, 26172.685762963985, 8903.750348538202, 1563.728042093282, 10058.016783954714, 1461.4911629547075, -124080.74725636808, -7894.1667549808935, 0.166, 1.012, -0.078, 192.0, 0.0, 0.0, 0.0, 0.0, 0.0, 0.0, 0.0, 0.0, 0.0, 1.696024234994493E9, 0.0, 2023-09-29 16:50:34.994
66.0, 23204.21763708802, 14660.933871380554, 4585.326264539512, -6715.961601252748, 7437.252394825506, -6633.751885146128, -187500.02235174447, 35178.29301098502, -22737.937896005857, 26039.558772988174, 8775.719556298203, 1416.1618251993448, 10042.66113551392, 1427.3376974269984, -124043.01751172752, -7846.714001502276, 0.166, 1.012, -0.078, 192.0, 0.0, 0.0, 0.0, 0.0, 0.0, 0.0, 0.0, 0.0, 0.0, 1.696024234994496E9, 0.0, 2023-09-29 16:50:34.994
68.0, 23559.18569078275, 15149.677115640297, 4497.2827431300575, -6796.472584780763, 7407.926906100143, -6690.212391640233, -187500.02235174447, 35595.264803798775, -22685.366593046976, 26139.202849769932, 8895.703720534291, 1578.50254517824, 10081.441412143877, 1493.476509270252, -124059.06606424644, -7855.095905673016, 0.166, 1.012, -0.078, 192.0, 0.0, 0.0, 0.0, 0.0, 0.0, 0.0, 0.0, 0.0, 0.0, 1.6960242349945E9, 0.0, 2023-09-29 16:50:34.994
70.0, 23204.150581854654, 14668.153484839617, 4576.542028968576, -6713.011170984647, 7425.204804564096, -6631.650821167329, -187500.02235174447, 35183.9032988433, -22752.60064036854, 26118.415727426498, 8796.797251319558, 1445.9343488138138, 10031.418208052899, 1433.8644068079482, -123918.51829511145, -7853.419524838869, 0.166, 1.012, -0.078, 192.0, 0.0, 0.0, 0.0, 0.0, 0.0, 0.0, 0.0, 0.0, 0.0, 1.696024234994503E9, 0.0, 2023-09-29 16:50:34.994
72.0, 23536.43161492725, 15115.27778092358, 4484.855173212907, -6804.899192440414, 7411.65964742418, -6692.805193997049, -187500.02235174447, 35572.93541108792, -22710.53465730365, 26049.170023103958, 8841.590147207993, 1538.984660981257, 10073.908874262437, 1494.638799981928, -124019.61523528282, -7851.899606215908, 0.17, 1.01, -0.076, 192.0, 2.5, 40.0, 15.5, 72.0, 126.5, 80.0, 0.0, 0.0, 0.0, 1.696024234994506E9, 0.0, 2023-09-29 16:50:34.994
74.0, 23214.477087793006, 14689.320586838794, 4581.258247048646, -6716.542746608585, 7422.56729871837, -6627.560451932008, -187500.02235174447, 35202.522301974575, -22757.450968915342, 26150.043445830757, 8822.054722554056, 1448.1471715148894, 10021.963420148304, 1433.0597440075571, -123794.24259593996, -7861.019117953672, 0.17, 1.01, -0.076, 192.0, 0.0, 0.0, 0.0, 0.0, 0.0, 0.0, 0.0, 0.0, 0.0, 1.69602423505478E9, 0.0, 2023-09-29 16:50:35.054
76.0, 23511.665882070767, 15080.99020492914, 4473.679300985254, -6809.771872731671, 7409.692693912112, -6697.163784165834, -187500.02235174447, 35546.87327705303, -22692.541503017128, 26019.553961700676, 8825.765112133637, 1524.0089921962015, 10073.931226006893, 1478.567895718562, -123950.07895828235, -7844.009440423184, 0.17, 1.01, -0.076, 192.0, 0.0, 0.0, 0.0, 0.0, 0.0, 0.0, 0.0, 0.0, 0.0, 1.696024235054788E9, 0.0, 2023-09-29 16:50:35.054
78.0, 23237.007646203954, 14718.869593008709, 4571.557589955043, -6724.231746701211, 7398.4050629621825, -6647.341745774955, -187500.02235174447, 35236.54165703555, -22775.533530179684, 26246.424167922043, 8833.834091882001, 1469.738956658716, 10002.048015838625, 1409.322191396021, -123644.3294458782, -7881.94035076384, 0.17, 1.01, -0.076, 192.0, 0.0, 0.0, 0.0, 0.0, 0.0, 0.0, 0.0, 0.0, 0.0, 1.696024235054792E9, 0.0, 2023-09-29 16:50:35.054
80.0, 23475.187835119705, 15023.30035248999, 4494.801699495519, -6813.482262311252, 7421.092083584319, -6695.75562426515, -187500.02235174447, 35487.73056122429, -22703.78443047815, 25956.2761731477, 8787.141297714865, 1490.9060586578917, 10079.116830720524, 1472.3094072710762, -123884.5436435394, -7837.728600231243, 0.17, 1.01, -0.076, 192.0, 0.0, 0.0, 0.0, 0.0, 0.0, 0.0, 0.0, 0.0, 0.0, 1.696024235054795E9, 0.0, 2023-09-29 16:50:35.054
82.0, 23268.456550652572, 14763.64013715269, 4584.298084294568, -6736.94988929628, 7409.737397401023, -6645.59830970744, -187500.02235174447, 35263.85548875994, -22776.2264342578, 26237.550525373284, 8866.08765913101, 1476.7127009287717, 10015.92844914537, 1413.8819472649036, -123521.55131358521, -7899.799394583631, 0.164, 1.01, -0.078, 192.0, 2.5, 16.0, 15.5, 72.0, 126.5, 72.0, 0.0, 0.0, 0.0, 1.696024235054799E9, 0.0, 2023-09-29 16:50:35.054
84.0, 23432.428947976703, 14965.25287213956, 4513.174833437781, -6802.328741828053, 7442.125075116763, -6681.2269903692, -187500.02235174447, 35430.46539192979, -22690.798066949614, 25863.516433658177, 8758.598120045439, 1457.6690146528501, 10102.250886231766, 1476.0868520840231, -123823.43397419859, -7819.914259900363, 0.164, 1.01, -0.078, 192.0, 0.0, 0.0, 0.0, 0.0, 0.0, 0.0, 0.0, 0.0, 0.0, 1.696024235054803E9, 0.0, 2023-09-29 16:50:35.054
86.0, 23309.539056961425, 14834.294001375914, 4572.09403182197, -6747.47756093473, 7386.1339552562185, -6660.171647092301, -187500.02235174447, 35314.83981786249, -22743.078797230577, 26322.97889268147, 8900.799918270102, 1513.4813205577518, 10018.856527669017, 1419.3804764009092, -123400.15898944844, -7910.014141799706, 0.164, 1.01, -0.078, 192.0, 0.0, 0.0, 0.0, 0.0, 0.0, 0.0, 0.0, 0.0, 0.0, 1.696024235054806E9, 0.0, 2023-09-29 16:50:35.054
88.0, 23390.519427123003, 14907.942999356152, 4516.929926506273, -6794.192706846322, 7433.810226179389, -6680.80230722455, -187500.02235174447, 35368.32754234404, -22711.58518929305, 25861.616535379475, 8741.700201237227, 1438.9382527993027, 10092.416118671432, 1458.4066222198753, -123713.03870833383, -7820.40599827838, 0.164, 1.01, -0.078, 192.0, 0.0, 0.0, 0.0, 0.0, 0.0, 0.0, 0.0, 0.0, 0.0, 1.69602423505481E9, 0.0, 2023-09-29 16:50:35.054
90.0, 23351.515633048493, 14889.94984506963, 4542.165045996314, -6765.738936154716, 7357.769591542434, -6685.473821815708, -187500.02235174447, 35382.20797565079, -22781.389687226976, 26328.11979390619, 8895.055519945088, 1525.0818759300562, 10013.715626444297, 1408.0704937065236, -123271.61410708596, -7919.42422621539, 0.164, 1.01, -0.078, 192.0, 0.0, 0.0, 0.0, 0.0, 0.0, 0.0, 0.0, 0.0, 0.0, 1.696024235115002E9, 0.0, 2023-09-29 16:50:35.115
92.0, 23350.19688012563, 14848.12973119375, 4543.036764030071, -6774.165543814367, 7426.8141301648775, -6654.9860423786695, -187500.02235174447, 35316.85147486347, -22714.937950961346, 25853.63696260893, 8707.926715365258, 1419.6039938454621, 10086.627016857508, 1460.060651309568, -123573.34030548815, -7813.096977841495, 0.162, 1.01, -0.082, 192.0, 2.5, 8.0, 15.5, 72.0, 126.5, 56.0, 0.0, 0.0, 0.0, 1.696024235115011E9, 0.0, 2023-09-29 16:50:35.115
94.0, 23396.48734289257, 14948.734932987087, 4549.429362944289, -6764.286072765121, 7350.393515872182, -6680.355272335443, -187500.02235174447, 35419.17776097987, -22738.429634383876, 26316.988625167447, 8925.72211333777, 1546.2936814181426, 10018.767120691195, 1439.1394184994006, -123167.03029477959, -7908.449519687834, 0.162, 1.01, -0.082, 192.0, 0.0, 0.0, 0.0, 0.0, 0.0, 0.0, 0.0, 0.0, 0.0, 1.696024235115015E9, 0.0, 2023-09-29 16:50:35.115
96.0, 23308.488524972025, 14781.387422250204, 4559.241778760169, -6754.674822649339, 7434.6819442131455, -6650.292176043055, -187500.02235174447, 35257.328779378986, -22728.17018367889, 25855.73802658773, 8712.464119489685, 1415.9606594992472, 10081.039080743682, 1455.8585233519702, -123455.56896395315, -7814.549841231089, 0.162, 1.01, -0.082, 192.0, 0.0, 0.0, 0.0, 0.0, 0.0, 0.0, 0.0, 0.0, 0.0, 1.696024235115019E9, 0.0, 2023-09-29 16:50:35.115
98.0, 23443.73893067109, 15007.028282526528, 4532.017354013605, -6779.082927594534, 7365.324481168328, -6694.70509227575, -187500.02235174447, 35477.605220986035, -22738.02730298368, 26328.74564275094, 8935.19925298682, 1574.6803968763825, 10033.832196454072, 1443.7438778571939, -123063.60877318488, -7912.271667989692, 0.162, 1.01, -0.082, 192.0, 0.0, 0.0, 0.0, 0.0, 0.0, 0.0, 0.0, 0.0, 0.0, 1.696024235115023E9, 0.0, 2023-09-29 16:50:35.115
100.0, 23254.8890417682, 14711.71703478301, 4545.271938475602, -6761.5815116860285, 7425.830653408844, -6656.036574368069, -187500.02235174447, 35222.66122372881, -22753.181785724377, 25862.443549924323, 8692.459308202186, 1394.4582813332418, 10059.961385722327, 1442.3133662120542, -123279.07958973404, -7829.816082694064, 0.162, 1.01, -0.082, 192.0, 0.0, 0.0, 0.0, 0.0, 0.0, 0.0, 0.0, 0.0, 0.0, 1.696024235115033E9, 0.0, 2023-09-29 16:50:35.115
102.0, 23470.27045133954, 15036.35377125189, 4516.080560216971, -6786.816631176071, 7361.524684610926, -6688.960693950737, -187500.02235174447, 35510.0823056796, -22730.919448246892, 26277.76131364838, 8900.799918270102, 1557.2013327123325, 10033.876899942983, 1444.414430190853, -122960.67898996819, -7910.014141799706, 0.164, 1.006, -0.08600000000000001, 192.0, 2.5, 16.0, 15.5, 56.0, 126.5, 40.0, 0.0, 0.0, 0.0, 1.696024235115036E9, 0.0, 2023-09-29 16:50:35.115
104.0, 23215.34880582676, 14663.28080454836, 4546.814208843018, -6758.541674440107, 7418.7675021609675, -6647.542911475052, -187500.02235174447, 35189.46888321268, -22780.517969193217, 25898.027527097172, 8691.632293657338, 1383.0365399165798, 10049.053734428137, 1421.7944648020823, -123118.75052675612, -7833.571175762556, 0.164, 1.006, -0.08600000000000001, 192.0, 0.0, 0.0, 0.0, 0.0, 0.0, 0.0, 0.0, 0.0, 0.0, 1.696024235175222E9, 0.0, 2023-09-29 16:50:35.175
106.0, 23492.39867835029, 15068.02619314506, 4495.98634195165, -6797.143137114423, 7351.555806583859, -6699.018978955624, -187500.02235174447, 35543.72168108483, -22746.722131576793, 26241.640894608605, 8892.373310610452, 1553.0662599881007, 10030.70295223033, 1440.4358196778082, -122858.17388989615, -7909.030665043672, 0.164, 1.006, -0.08600000000000001, 192.0, 0.0, 0.0, 0.0, 0.0, 0.0, 0.0, 0.0, 0.0, 0.0, 1.696024235175231E9, 0.0, 2023-09-29 16:50:35.175
108.0, 23186.805628157334, 14623.785272095833, 4560.180552027292, -6739.721505608739, 7416.174699804152, -6643.229024795178, -187500.02235174447, 35160.43396716523, -22790.017460586725, 25949.593001555564, 8691.408776212786, 1384.2658858616217, 10039.88951920146, 1419.80515954556, -122945.68096943868, -7838.197986864804, 0.164, 1.006, -0.08600000000000001, 192.0, 0.0, 0.0, 0.0, 0.0, 0.0, 0.0, 0.0, 0.0, 0.0, 1.696024235175235E9, 0.0, 2023-09-29 16:50:35.175
110.0, 23513.40931813828, 15089.685033522253, 4506.245792656636, -6797.232544092244, 7370.040699248398, -6704.763377280638, -187500.02235174447, 35553.44468992289, -22725.800898766625, 26185.001574158858, 8873.731955734725, 1546.763068051704, 10044.98571693727, 1448.7506686151826, -122777.28292671239, -7897.586571882555, 0.164, 1.006, -0.08600000000000001, 192.0, 0.0, 0.0, 0.0, 0.0, 0.0, 0.0, 0.0, 0.0, 0.0, 1.696024235175238E9, 0.0, 2023-09-29 16:50:35.175
112.0, 23175.361534996217, 14610.284818444827, 4583.225200560713, -6729.171482225834, 7408.597458433803, -6646.358269018921, -187500.02235174447, 35140.42915587773, -22769.766780110214, 26001.67256613643, 8716.554488725005, 1394.2124121442334, 10046.148007648946, 1415.871252521426, -122776.25474646744, -7843.920033445363, 0.166, 1.008, -0.088, 192.0, 2.5, 24.0, 15.5, 64.0, 126.5, 32.0, 0.0, 0.0, 0.0, 1.696024235175241E9, 0.0, 2023-09-29 16:50:35.175
114.0, 23528.474393901157, 15094.445955091234, 4501.775443765574, -6809.704817498305, 7364.408059645661, -6721.415426899842, -187500.02235174447, 35566.0957772846, -22711.182857892854, 26138.35348348063, 8864.925368419334, 1534.5813673235616, 10056.809789754128, 1446.4260871918307, -122686.66895469058, -7890.076385745572, 0.166, 1.008, -0.088, 192.0, 0.0, 0.0, 0.0, 0.0, 0.0, 0.0, 0.0, 0.0, 0.0, 1.696024235175244E9, 0.0, 2023-09-29 16:50:35.175
116.0, 23180.122456565197, 14612.631751612635, 4587.71790119623, -6734.37943868392, 7400.975513574543, -6663.814981438516, -187500.02235174447, 35154.33194092893, -22785.74827739576, 26037.63652296502, 8743.622451260382, 1390.6808365202949, 10026.277306828179, 1383.125946894401, -122578.01712489333, -7876.1512489499155, 0.166, 1.008, -0.088, 192.0, 0.0, 0.0, 0.0, 0.0, 0.0, 0.0, 0.0, 0.0, 0.0, 1.696024235175248E9, 0.0, 2023-09-29 16:50:35.175
118.0, 23526.194515966716, 15088.969777699684, 4498.93677221975, -6812.029398921657, 7369.951292270576, -6717.079188475513, -187500.02235174447, 35557.62446613604, -22749.96313452281, 26045.593743991107, 8836.806873894559, 1509.6815240003496, 10065.616377069518, 1443.5203604126407, -122580.29700282778, -7890.836345057052, 0.166, 1.008, -0.088, 192.0, 0.0, 0.0, 0.0, 0.0, 0.0, 0.0, 0.0, 0.0, 0.0, 1.696024235175251E9, 0.0, 2023-09-29 16:50:35.175
120.0, 23192.661785204626, 14638.962106580986, 4595.608066988953, -6713.458205873752, 7397.734510628523, -6644.145446317845, -187500.02235174447, 35168.77116784706, -22778.88629184798, 26113.654805857517, 8775.473687109195, 1414.7313135542051, 10028.60188825153, 1401.6331913033953, -122396.56566340514, -7880.979225752262, 0.166, 1.008, -0.088, 192.0, 0.0, 0.0, 0.0, 0.0, 0.0, 0.0, 0.0, 0.0, 0.0, 1.696024235235482E9, 0.0, 2023-09-29 16:50:35.235
122.0, 23502.32285288845, 15056.73856219513, 4485.704539502209, -6817.930259457858, 7373.706385339068, -6718.219127442733, -187500.02235174447, 35541.97824501732, -22723.744538276736, 26016.603531432575, 8809.828318337002, 1506.8428524545257, 10067.985661981782, 1445.4202586913418, -122482.53047258026, -7877.134725705949, 0.164, 1.012, -0.088, 192.0, 2.5, 16.0, 15.5, 80.0, 126.5, 32.0, 0.0, 0.0, 0.0, 1.696024235235495E9, 0.0, 2023-09-29 16:50:35.235
124.0, 23201.334262053286, 14660.553891724812, 4582.107613337947, -6724.097636234479, 7373.147591727686, -6656.662423212818, -187500.02235174447, 35204.131627575356, -22797.237074045788, 26166.31551579422, 8788.638864593371, 1431.539825384596, 10008.798242664128, 1395.3299993669987, -122211.87319897095, -7893.160926480405, 0.164, 1.012, -0.088, 192.0, 0.0, 0.0, 0.0, 0.0, 0.0, 0.0, 0.0, 0.0, 0.0, 1.6960242352355E9, 0.0, 2023-09-29 16:50:35.235
126.0, 23479.233500866118, 15021.512212933567, 4501.104891431915, -6802.507555783696, 7382.334158698816, -6705.65744705885, -187500.02235174447, 35509.344698112574, -22732.238201169755, 25979.164359469934, 8780.279312167086, 1490.481375513241, 10064.767010780217, 1452.1928372613, -122365.18381418989, -7858.560426063589, 0.164, 1.012, -0.088, 192.0, 0.0, 0.0, 0.0, 0.0, 0.0, 0.0, 0.0, 0.0, 0.0, 1.696024235235505E9, 0.0, 2023-09-29 16:50:35.235
128.0, 23233.23020139101, 14703.066909678808, 4577.212581302236, -6734.245328217188, 7367.9396352695985, -6668.486496029675, -187500.02235174447, 35240.07323265949, -22815.81137368815, 26212.941254727994, 8809.470690425718, 1461.6029216769841, 10009.401739764422, 1399.576830813507, -122048.75016793612, -7899.106490505516, 0.164, 1.012, -0.088, 192.0, 0.0, 0.0, 0.0, 0.0, 0.0, 0.0, 0.0, 0.0, 0.0, 1.69602423523551E9, 0.0, 2023-09-29 16:50:35.235
130.0, 23446.868174894833, 14967.309232629446, 4520.4167986413, -6790.839945178026, 7402.897763597699, -6686.278484616099, -187500.02235174447, 35452.12423230699, -22722.62695105397, 25913.65139647143, 8746.081143150466, 1466.3414915015092, 10075.94288300787, 1453.0422035506015, -122269.69716187683, -7850.022059681662, 0.164, 1.012, -0.088, 192.0, 0.0, 0.0, 0.0, 0.0, 0.0, 0.0, 0.0, 0.0, 0.0, 1.696024235235515E9, 0.0, 2023-09-29 16:50:35.235
132.0, 23264.299126183883, 14750.899642813165, 4572.1834387997915, -6745.711773122761, 7367.134972469208, -6673.046251898558, -187500.02235174447, 35283.50267213615, -22798.622882202017, 26251.788586591316, 8851.559025235061, 1489.8778784129477, 10017.805995679617, 1409.903336751859, -121912.60569245883, -7903.889763818952, 0.168, 1.01, -0.09, 192.0, 2.5, 32.0, 15.5, 72.0, 126.5, 24.0, 0.0, 0.0, 0.0, 1.69602423523552E9, 0.0, 2023-09-29 16:50:35.235
134.0, 23398.096668493352, 14899.672853907688, 4507.743359535141, -6805.033302907146, 7398.136842028719, -6704.003417969158, -187500.02235174447, 35410.61704285348, -22756.489843903764, 25859.582526634043, 8728.266802819588, 1439.608805132962, 10066.756316036739, 1436.9489475427804, -122162.25232628017, -7850.782018993142, 0.168, 1.01, -0.09, 192.0, 0.0, 0.0, 0.0, 0.0, 0.0, 0.0, 0.0, 0.0, 0.0, 1.696024235294761E9, 0.0, 2023-09-29 16:50:35.294
136.0, 23300.24073126802, 14805.862582428765, 4559.889979349373, -6753.937215082314, 7366.285606179907, -6678.164801378823, -187500.02235174447, 35332.050661093075, -22783.378992483496, 26288.736020175937, 8863.427801540829, 1494.7282069597493, 10002.293885027633, 1389.2056213862445, -121754.489452182, -7923.358133239524, 0.168, 1.01, -0.09, 192.0, 0.0, 0.0, 0.0, 0.0, 0.0, 0.0, 0.0, 0.0, 0.0, 1.696024235294774E9, 0.0, 2023-09-29 16:50:35.294
138.0, 23349.74984523652, 14828.996637940007, 4542.433266929778, -6769.181104800833, 7435.888938413733, -6657.824713924493, -187500.02235174447, 35338.59972221848, -22736.909715760914, 25841.499965369698, 8695.00740707009, 1414.70896180975, 10078.468630131321, 1443.8556365794702, -122049.82305166997, -7821.009495378673, 0.168, 1.01, -0.09, 192.0, 0.0, 0.0, 0.0, 0.0, 0.0, 0.0, 0.0, 0.0, 0.0, 1.69602423529478E9, 0.0, 2023-09-29 16:50:35.294
140.0, 23332.38253979475, 14854.634088830244, 4553.564435668521, -6770.2092850457775, 7368.923112025633, -6682.70220550325, -187500.02235174447, 35373.513147057674, -22787.245844274265, 26295.01686036788, 8867.585226009516, 1519.9633264497909, 10022.052827126125, 1412.2279181752108, -121662.60143072624, -7899.3970631834345, 0.168, 1.01, -0.09, 192.0, 0.0, 0.0, 0.0, 0.0, 0.0, 0.0, 0.0, 0.0, 0.0, 1.696024235294785E9, 0.0, 2023-09-29 16:50:35.294
142.0, 23293.691670142613, 14757.627517894212, 4557.14071478137, -6761.805029130582, 7425.51772898647, -6660.573978492496, -187500.02235174447, 35282.072160491014, -22780.98735582678, 25820.310511626067, 8666.33011893393, 1390.6584847758395, 10070.042022471669, 1422.3085549245543, -121942.17705037321, -7823.982277391229, 0.162, 1.012, -0.09, 192.0, 2.5, 8.0, 15.5, 80.0, 126.5, 24.0, 0.0, 0.0, 0.0, 1.69602423529479E9, 0.0, 2023-09-29 16:50:35.294
144.0, 23388.083086977374, 14919.029464605985, 4566.841371874973, -6755.412430216365, 7361.815257288845, -6679.885885701881, -187500.02235174447, 35419.40127842442, -22783.982489583792, 26313.434697799054, 8892.909752477379, 1551.1440099649442, 10032.044056897648, 1423.09086598049, -121563.85142372268, -7898.078310260572, 0.162, 1.012, -0.09, 192.0, 0.0, 0.0, 0.0, 0.0, 0.0, 0.0, 0.0, 0.0, 0.0, 1.696024235294794E9, 0.0, 2023-09-29 16:50:35.294
146.0, 23272.122236743242, 14714.309837139826, 4592.948209398772, -6739.743857353194, 7436.783008191945, -6638.691620670751, -187500.02235174447, 35224.09173537394, -22755.104035747532, 25851.357084674488, 8691.29701749051, 1411.7138280527388, 10080.055603987646, 1453.7127558842608, -121823.13165940424, -7811.845280151997, 0.162, 1.012, -0.09, 192.0, 0.0, 0.0, 0.0, 0.0, 0.0, 0.0, 0.0, 0.0, 0.0, 1.696024235294799E9, 0.0, 2023-09-29 16:50:35.294
148.0, 23435.31232301144, 14983.111915959349, 4551.083392033982, -6769.516380967663, 7349.588853071792, -6693.922781219814, -187500.02235174447, 35454.56057245262, -22743.03409374167, 26300.895369159625, 8906.678427061848, 1571.886428819469, 10052.428847840887, 1442.738049356705, -121503.85934160464, -7894.636141614455, 0.162, 1.012, -0.09, 192.0, 0.0, 0.0, 0.0, 0.0, 0.0, 0.0, 0.0, 0.0, 0.0, 1.696024235294804E9, 0.0, 2023-09-29 16:50:35.294
150.0, 23234.50425082496, 14667.95231913952, 4575.3797382569, -6753.266662748655, 7415.37003700376, -6662.719745960206, -187500.02235174447, 35199.2589472841, -22790.151571053455, 25905.850637656527, 8675.00259578259, 1403.644848304373, 10061.57071132311, 1427.6953253382833, -121701.73933526747, -7831.581870506034, 0.162, 1.012, -0.09, 192.0, 0.0, 0.0, 0.0, 0.0, 0.0, 0.0, 0.0, 0.0, 0.0, 1.696024235354618E9, 0.0, 2023-09-29 16:50:35.354
152.0, 23469.59989900588, 15022.339227478413, 4536.778275582585, -6795.48910802473, 7343.173902413118, -6703.04229295758, -187500.02235174447, 35512.16101791394, -22754.36642818051, 26270.876976356147, 8896.530735079139, 1559.1682862243995, 10033.251051098234, 1420.3639531569427, -121389.32900301565, -7917.345513981047, 0.162, 1.008, -0.084, 192.0, 2.5, 8.0, 15.5, 64.0, 126.5, 48.0, 0.0, 0.0, 0.0, 1.69602423535463E9, 0.0, 2023-09-29 16:50:35.354
154.0, 23197.757982940435, 14621.863022072677, 4609.600259017976, -6719.984915254702, 7431.195072078118, -6618.865623338893, -187500.02235174447, 35143.98308324612, -22796.0300798452, 25870.199605250313, 8677.550694650496, 1374.7440427236609, 10062.822409012606, 1420.8556915349593, -121559.8951649541, -7827.245632081704, 0.162, 1.008, -0.084, 192.0, 0.0, 0.0, 0.0, 0.0, 0.0, 0.0, 0.0, 0.0, 0.0, 1.696024235354636E9, 0.0, 2023-09-29 16:50:35.354
156.0, 23482.519207301048, 15050.278908047547, 4521.333220163968, -6797.545468514618, 7356.02615547492, -6694.682740531295, -187500.02235174447, 35529.52832335571, -22774.348887723554, 26229.459193880462, 8878.917560448357, 1575.2391904877652, 10056.966251965316, 1460.1724100318445, -121374.75566563079, -7883.102641475516, 0.162, 1.008, -0.084, 192.0, 0.0, 0.0, 0.0, 0.0, 0.0, 0.0, 0.0, 0.0, 0.0, 1.696024235354642E9, 0.0, 2023-09-29 16:50:35.354
158.0, 23157.34602896524, 14589.452992612481, 4602.782976959107, -6727.562156625052, 7417.001714348998, -6625.191167019745, -187500.02235174447, 35120.69256552369, -22827.434280804908, 25944.429748586386, 8669.660528857772, 1380.421385815309, 10034.502748787732, 1397.2746011346105, -121430.07623315767, -7837.259213597681, 0.162, 1.008, -0.084, 192.0, 0.0, 0.0, 0.0, 0.0, 0.0, 0.0, 0.0, 0.0, 0.0, 1.696024235354648E9, 0.0, 2023-09-29 16:50:35.354
160.0, 23492.108105672374, 15052.849358659907, 4522.60726959792, -6811.805881477104, 7368.341966669795, -6692.984007952691, -187500.02235174447, 35539.09486998259, -22767.062219031122, 26151.809233642725, 8843.154769319864, 1546.2713296736872, 10057.301528132144, 1437.865369065448, -121325.91710399593, -7879.638121084943, 0.162, 1.008, -0.084, 192.0, 0.0, 0.0, 0.0, 0.0, 0.0, 0.0, 0.0, 0.0, 0.0, 1.696024235354654E9, 0.0, 2023-09-29 16:50:35.354
162.0, 23147.935944549554, 14570.945748203487, 4608.169747372835, -6731.09373224899, 7410.631467179235, -6634.981231091169, -187500.02235174447, 35117.04923117748, -22805.84249566108, 25963.339324395576, 8693.733357636138, 1373.090013633968, 10035.776798221685, 1380.6672550043172, -121306.26992061973, -7848.703306758798, 0.162, 1.008, -0.09, 192.0, 2.5, 8.0, 15.5, 64.0, 126.5, 24.0, 0.0, 0.0, 0.0, 1.69602423535466E9, 0.0, 2023-09-29 16:50:35.354
164.0, 23496.287881885517, 15056.716210450675, 4511.565507836999, -6819.383122847453, 7367.894931780688, -6715.581621597007, -187500.02235174447, 35546.00155901928, -22762.636573628974, 26090.274881157267, 8826.167443533832, 1532.5697103225841, 10061.615414812019, 1423.6049561029622, -121277.10089410555, -7886.902438032918, 0.162, 1.008, -0.09, 192.0, 0.0, 0.0, 0.0, 0.0, 0.0, 0.0, 0.0, 0.0, 0.0, 1.696024235415081E9, 0.0, 2023-09-29 16:50:35.415
166.0, 23140.224592712475, 14568.487056313403, 4604.10172988197, -6723.717656578739, 7396.192240261107, -6639.36217300441, -187500.02235174447, 35119.038536434, -22840.778272244726, 26041.123395100047, 8709.24546828812, 1393.4077493438424, 10018.521251502187, 1378.5214875366078, -121168.8960991974, -7869.915112246885, 0.162, 1.008, -0.09, 192.0, 0.0, 0.0, 0.0, 0.0, 0.0, 0.0, 0.0, 0.0, 0.0, 1.696024235415098E9, 0.0, 2023-09-29 16:50:35.415
168.0, 23484.262643368562, 15039.572422453455, 4516.505243361622, -6813.5269658001625, 7378.109678996763, -6711.133624450401, -187500.02235174447, 35517.16780867193, -22775.13119877949, 26021.342101257098, 8781.978044745689, 1510.7320559897491, 10065.929301491893, 1426.9130142823476, -121252.20105078234, -7879.526362362667, 0.162, 1.008, -0.09, 192.0, 0.0, 0.0, 0.0, 0.0, 0.0, 0.0, 0.0, 0.0, 0.0, 1.696024235415103E9, 0.0, 2023-09-29 16:50:35.415
170.0, 23148.874717816678, 14599.98066425093, 4598.62555249042, -6732.971278783236, 7385.910437811665, -6653.55553073353, -187500.02235174447, 35137.836353520914, -22833.335141341107, 26103.708279574905, 8743.73420998266, 1416.8770810219146, 10020.97994339227, 1371.3242258219989, -121053.15876640783, -7890.501068890223, 0.162, 1.008, -0.09, 192.0, 0.0, 0.0, 0.0, 0.0, 0.0, 0.0, 0.0, 0.0, 0.0, 1.696024235415108E9, 0.0, 2023-09-29 16:50:35.415
172.0, 23464.391942547794, 15009.554029649977, 4520.550909108032, -6798.260724337188, 7386.6033418897805, -6694.548630064563, -187500.02235174447, 35487.819968202115, -22776.338192980074, 25969.642516331973, 8760.743887513148, 1497.0527883831012, 10068.745621293261, 1442.156904000867, -121210.69386132884, -7871.300920403114, 0.16, 1.012, -0.084, 192.0, 2.5, 0.0, 15.5, 80.0, 126.5, 48.0, 0.0, 0.0, 0.0, 1.696024235415121E9, 0.0, 2023-09-29 16:50:35.415
174.0, 23181.754133910435, 14629.350856465204, 4622.877195224428, -6701.56707782353, 7387.676225623635, -6619.916155328293, -187500.02235174447, 35157.215315963665, -22812.995053886778, 26167.433103016985, 8779.698166811248, 1458.093697797501, 10031.75348421973, 1386.9927986851692, -120965.31641069848, -7869.624539568966, 0.16, 1.012, -0.084, 192.0, 0.0, 0.0, 0.0, 0.0, 0.0, 0.0, 0.0, 0.0, 0.0, 1.696024235415125E9, 0.0, 2023-09-29 16:50:35.415
176.0, 23443.224840548617, 14966.348107617869, 4547.082429776482, -6773.897322880903, 7416.174699804152, -6662.049193626546, -187500.02235174447, 35420.11653424699, -22728.684273801362, 25935.243181615257, 8754.373640343385, 1501.187861107333, 10095.679473361906, 1460.7535553876824, -121229.04464352663, -7822.395303534902, 0.16, 1.012, -0.084, 192.0, 0.0, 0.0, 0.0, 0.0, 0.0, 0.0, 0.0, 0.0, 0.0, 1.69602423541513E9, 0.0, 2023-09-29 16:50:35.415
178.0, 23210.63258774669, 14675.373098298682, 4613.53416604211, -6716.654505330862, 7387.519763412448, -6631.784931634061, -187500.02235174447, 35186.74197038913, -22814.649082976473, 26198.85965572115, 8809.046007281066, 1480.3113317860762, 10032.692257486851, 1399.1968511577668, -120925.46325033467, -7874.966606493785, 0.16, 1.012, -0.084, 192.0, 0.0, 0.0, 0.0, 0.0, 0.0, 0.0, 0.0, 0.0, 0.0, 1.696024235415134E9, 0.0, 2023-09-29 16:50:35.415
180.0, 23404.802191829946, 14907.5183162115, 4534.297231948046, -6791.376387044953, 7408.843327622811, -6681.56226653603, -187500.02235174447, 35388.71233328728, -22766.972812053304, 25889.779733393163, 8720.734264938148, 1469.6271979364394, 10091.65615935995, 1449.868255837948, -121205.59766359303, -7828.944364660307, 0.16, 1.012, -0.084, 192.0, 0.0, 0.0, 0.0, 0.0, 0.0, 0.0, 0.0, 0.0, 0.0, 1.696024235475205E9, 0.0, 2023-09-29 16:50:35.475
182.0, 23248.094111453785, 14732.750026315454, 4578.911313880839, -6747.164636512356, 7345.364373369739, -6672.219237353711, -187500.02235174447, 35260.681541047285, -22819.767632456736, 26264.05969429728, 8827.776769134614, 1489.2967330571096, 9999.969303604283, 1383.640037016873, -120805.2108651651, -7916.205575013826, 0.164, 1.008, -0.08, 192.0, 2.5, 16.0, 15.5, 64.0, 126.5, 64.0, 0.0, 0.0, 0.0, 1.696024235475218E9, 0.0, 2023-09-29 16:50:35.475
184.0, 23361.842138986845, 14850.521367850468, 4534.0290110145825, -6800.697064482816, 7406.3846357327275, -6685.764394493627, -187500.02235174447, 35349.954408401776, -22777.2769662472, 25848.853689295494, 8674.689671360216, 1430.5563486285625, 10069.684394560385, 1431.6515841068726, -121125.31019750956, -7838.063876398072, 0.164, 1.008, -0.08, 192.0, 0.0, 0.0, 0.0, 0.0, 0.0, 0.0, 0.0, 0.0, 0.0, 1.696024235475228E9, 0.0, 2023-09-29 16:50:35.475
186.0, 23302.073574313352, 14800.766384692954, 4580.364177270434, -6749.9586045692695, 7343.844454746778, -6674.499115288153, -187500.02235174447, 35317.81259987505, -22830.161193628453, 26289.0042411094, 8837.70094367277, 1508.1392536329333, 9997.55531520311, 1386.2998946070547, -120713.41225068716, -7929.95189785384, 0.164, 1.008, -0.08, 192.0, 0.0, 0.0, 0.0, 0.0, 0.0, 0.0, 0.0, 0.0, 0.0, 1.696024235475235E9, 0.0, 2023-09-29 16:50:35.475
188.0, 23312.668301185167, 14778.057012326362, 4557.610101414932, -6773.517343225163, 7410.854984623788, -6667.234798340178, -187500.02235174447, 35279.43465464529, -22810.268141063232, 25817.471840080245, 8659.803409552982, 1416.7653222996382, 10079.51916212072, 1428.2988224385765, -121061.98770546768, -7827.513853015167, 0.164, 1.008, -0.08, 192.0, 0.0, 0.0, 0.0, 0.0, 0.0, 0.0, 0.0, 0.0, 0.0, 1.696024235475241E9, 0.0, 2023-09-29 16:50:35.475
190.0, 23333.835403184345, 14850.789588783931, 4579.023072603116, -6752.551406926085, 7349.275928649417, -6670.587560008474, -187500.02235174447, 35347.89804791189, -22817.957141155857, 26300.87301741517, 8857.45988577126, 1538.5823295810617, 10017.470719512787, 1398.414540101831, -120685.91960500713, -7918.194880270348, 0.164, 1.008, -0.08, 192.0, 0.0, 0.0, 0.0, 0.0, 0.0, 0.0, 0.0, 0.0, 0.0, 1.696024235475246E9, 0.0, 2023-09-29 16:50:35.475
192.0, 23269.954117531077, 14719.137813942172, 4569.389470742878, -6762.453229719786, 7406.362283988272, -6652.013260366114, -187500.02235174447, 35227.9138836758, -22793.973719355312, 25818.902351725385, 8648.00168848058, 1402.862537248437, 10072.2771969172, 1421.2133194462442, -121011.24924555412, -7825.4351407808235, 0.162, 1.01, -0.082, 192.0, 2.5, 8.0, 15.5, 72.0, 126.5, 56.0, 0.0, 0.0, 0.0, 1.696024235475254E9, 0.0, 2023-09-29 16:50:35.475
194.0, 23381.48932236306, 14908.367682500802, 4556.559569425532, -6774.411413003375, 7340.782265756401, -6679.014167668124, -187500.02235174447, 35407.845426541026, -22798.399364757464, 26284.57859570725, 8863.718374218748, 1550.2275884422766, 10024.332705060568, 1420.6545258348615, -120657.15290989315, -7910.461176688812, 0.162, 1.01, -0.082, 192.0, 0.0, 0.0, 0.0, 0.0, 0.0, 0.0, 0.0, 0.0, 0.0, 1.696024235535701E9, 0.0, 2023-09-29 16:50:35.535
196.0, 23221.49553555197, 14646.382885740148, 4586.108575595448, -6746.739953367705, 7423.304906285394, -6633.841292123949, -187500.02235174447, 35168.79351959151, -22813.71030970935, 25805.24543586319, 8621.537223045496, 1373.2911793340659, 10060.274310144701, 1409.545708840574, -120938.4496138632, -7825.077512869539, 0.162, 1.01, -0.082, 192.0, 0.0, 0.0, 0.0, 0.0, 0.0, 0.0, 0.0, 0.0, 0.0, 1.69602423553573E9, 0.0, 2023-09-29 16:50:35.535
198.0, 23414.25697973454, 14951.283031854991, 4543.975537297194, -6787.978921887747, 7330.344001095772, -6691.665255029829, -187500.02235174447, 35452.370101495995, -22791.872655376515, 26268.686505399528, 8856.096429359488, 1557.6930710903491, 10032.111112131013, 1411.8926420083812, -120649.01687491142, -7909.857679588518, 0.162, 1.01, -0.082, 192.0, 0.0, 0.0, 0.0, 0.0, 0.0, 0.0, 0.0, 0.0, 0.0, 1.696024235535734E9, 0.0, 2023-09-29 16:50:35.535
200.0, 23191.20892181503, 14609.726024833444, 4594.468128021733, -6734.491197406197, 7410.363246245772, -6628.655687410318, -187500.02235174447, 35151.42621414974, -22843.929868212923, 25864.902241814405, 8634.210662151654, 1380.3319788374877, 10048.852568728038, 1412.451435619764, -120859.16797628022, -7832.900623428896, 0.162, 1.01, -0.082, 192.0, 0.0, 0.0, 0.0, 0.0, 0.0, 0.0, 0.0, 0.0, 0.0, 1.696024235535738E9, 0.0, 2023-09-29 16:50:35.535
202.0, 23462.201471591172, 15000.255703956569, 4551.619833900909, -6785.1178985974675, 7350.639385061191, -6681.115231646923, -187500.02235174447, 35494.9278229389, -22796.79003915668, 26255.38721744862, 8855.18000783682, 1573.339292209064, 10043.242280869757, 1442.6709941233391, -120620.0713658418, -7900.0452637726385, 0.164, 1.012, -0.082, 192.0, 2.5, 16.0, 15.5, 80.0, 126.5, 56.0, 0.0, 0.0, 0.0, 1.696024235535742E9, 0.0, 2023-09-29 16:50:35.535
204.0, 23168.141921537153, 14570.610472036657, 4620.6643725233525, -6722.9576972672585, 7420.198013806107, -6630.555585689019, -187500.02235174447, 35091.59059424289, -22816.683091721905, 25886.449323469322, 8647.979336736124, 1384.8470312174597, 10061.57071132311, 1419.291069423088, -120791.3080801139, -7833.526472273645, 0.164, 1.012, -0.082, 192.0, 0.0, 0.0, 0.0, 0.0, 0.0, 0.0, 0.0, 0.0, 0.0, 1.696024235535746E9, 0.0, 2023-09-29 16:50:35.535
206.0, 23484.21793987965, 15028.016570570062, 4534.3195836925015, -6799.423015048864, 7345.8114082588445, -6713.99464774068, -187500.02235174447, 35492.715000237826, -22758.45679741583, 26199.686670265994, 8850.0391066121, 1568.2877979621646, 10053.881711230482, 1427.9858980162023, -120651.2744011014, -7910.930563322373, 0.164, 1.012, -0.082, 192.0, 0.0, 0.0, 0.0, 0.0, 0.0, 0.0, 0.0, 0.0, 0.0, 1.696024235535764E9, 0.0, 2023-09-29 16:50:35.535
208.0, 23154.753226608424, 14556.528873029814, 4617.110445154959, -6718.464996631742, 7408.37394098925, -6639.205710793222, -187500.02235174447, 35084.52744299501, -22829.42358606143, 25970.04484773217, 8669.437011413218, 1401.1638046698338, 10045.566862293108, 1398.5486505685628, -120710.37241344123, -7853.8442079835195, 0.164, 1.012, -0.082, 192.0, 0.0, 0.0, 0.0, 0.0, 0.0, 0.0, 0.0, 0.0, 0.0, 1.696024235535768E9, 0.0, 2023-09-29 16:50:35.535
210.0, 23494.119762673352, 15031.101111304893, 4528.709295834219, -6810.464776809786, 7361.256463677462, -6706.417406370331, -187500.02235174447, 35500.69457300837, -22771.51021617773, 26120.91912280549, 8829.453149968762, 1550.6522715869276, 10053.524083319198, 1426.4212759043307, -120658.65047677165, -7896.17841198187, 0.164, 1.012, -0.082, 192.0, 0.0, 0.0, 0.0, 0.0, 0.0, 0.0, 0.0, 0.0, 0.0, 1.696024235594825E9, 0.0, 2023-09-29 16:50:35.594
212.0, 23138.8611363007, 14540.97205888892, 4624.263003380657, -6699.622476055918, 7411.391426490716, -6623.961821074703, -187500.02235174447, 35067.249544531056, -22835.52561229773, 25990.60845263105, 8681.305787718986, 1394.7488540111608, 10040.60477502403, 1404.2259936602109, -120648.99452316697, -7855.073553928561, 0.166, 1.014, -0.082, 192.0, 2.5, 24.0, 15.5, 88.0, 126.5, 56.0, 0.0, 0.0, 0.0, 1.696024235594839E9, 0.0, 2023-09-29 16:50:35.594
214.0, 23490.677594027235, 15019.858183843875, 4527.301135933535, -6799.467718537774, 7372.40998416066, -6698.661351044339, -187500.02235174447, 35496.626555517505, -22771.80078885565, 26057.68603774143, 8790.583466360982, 1533.597890567528, 10070.064374216125, 1427.8517875494704, -120694.8826545337, -7875.637158827443, 0.166, 1.014, -0.082, 192.0, 0.0, 0.0, 0.0, 0.0, 0.0, 0.0, 0.0, 0.0, 0.0, 1.696024235594844E9, 0.0, 2023-09-29 16:50:35.594
216.0, 23142.839746813745, 14559.21108236445, 4607.3427328279895, -6718.129720464912, 7383.339987199305, -6641.038553838558, -187500.02235174447, 35104.97928917161, -22879.8491215526, 26070.091255914125, 8705.065692074979, 1410.9538687412582, 10014.721454944785, 1377.1803828692894, -120563.4096936476, -7874.363109393491, 0.166, 1.014, -0.082, 192.0, 0.0, 0.0, 0.0, 0.0, 0.0, 0.0, 0.0, 0.0, 0.0, 1.696024235594849E9, 0.0, 2023-09-29 16:50:35.594
218.0, 23477.378306076327, 15003.943741791696, 4529.4469034012445, -6798.05955863709, 7380.054280764375, -6692.55932480804, -187500.02235174447, 35479.68393322038, -22782.26140526073, 26008.400441217476, 8757.68169852277, 1510.955573434302, 10069.416173626922, 1420.9450985127805, -120690.0323259869, -7867.434068612346, 0.166, 1.014, -0.082, 192.0, 0.0, 0.0, 0.0, 0.0, 0.0, 0.0, 0.0, 0.0, 0.0, 1.696024235594854E9, 0.0, 2023-09-29 16:50:35.594
220.0, 23157.278973731874, 14587.418983867048, 4607.968581672738, -6721.393075155387, 7374.958083028565, -6650.493341743153, -187500.02235174447, 35125.7887632595, -22848.757845015272, 26117.678119859473, 8728.512672008595, 1428.8352643055039, 10015.973152634282, 1375.839278201971, -120500.80245742828, -7884.734318820753, 0.166, 1.014, -0.082, 192.0, 0.0, 0.0, 0.0, 0.0, 0.0, 0.0, 0.0, 0.0, 0.0, 1.696024235594859E9, 0.0, 2023-09-29 16:50:35.594
222.0, 23448.678666195712, 14963.91176747224, 4521.042647486049, -6805.457986051797, 7375.002786517476, -6697.811984755038, -187500.02235174447, 35443.29529324714, -22786.105905307046, 25943.289809619167, 8725.606945229405, 1486.1674888333666, 10067.13629569248, 1425.5272061261185, -120705.83500931681, -7866.65175755641, 0.164, 1.012, -0.08, 192.0, 2.5, 16.0, 15.5, 80.0, 126.5, 64.0, 0.0, 0.0, 0.0, 1.696024235594865E9, 0.0, 2023-09-29 16:50:35.594
224.0, 23190.20309331454, 14625.998094796909, 4611.433102063311, -6728.255060703166, 7364.7656875569455, -6640.390353249354, -187500.02235174447, 35161.3503886879, -22854.748112529294, 26164.862652404627, 8748.852759462925, 1452.058726794568, 10010.139347331447, 1390.0996911644568, -120443.40317766705, -7896.89366780444, 0.164, 1.012, -0.08, 192.0, 0.0, 0.0, 0.0, 0.0, 0.0, 0.0, 0.0, 0.0, 0.0, 1.696024235654596E9, 0.0, 2023-09-29 16:50:35.654
226.0, 23416.067471035418, 14912.972141858596, 4531.838540057962, -6804.58626801804, 7378.020272018943, -6682.389281080876, -187500.02235174447, 35396.20016767981, -22775.958213324335, 25894.74182066224, 8702.830517629447, 1478.1432125739113, 10083.296606933667, 1440.1452469998894, -120721.63769264672, -7846.937518946829, 0.164, 1.012, -0.08, 192.0, 0.0, 0.0, 0.0, 0.0, 0.0, 0.0, 0.0, 0.0, 0.0, 1.696024235654611E9, 0.0, 2023-09-29 16:50:35.654
228.0, 23222.25549486345, 14675.171932598583, 4592.411767531845, -6747.410505701364, 7337.7647802549345, -6655.477780756686, -187500.02235174447, 35204.310441531, -22852.177661916932, 26236.522345128342, 8785.397861647352, 1485.4298812663415, 10009.513498486698, 1382.0083596716356, -120414.23415115288, -7906.348455709035, 0.164, 1.012, -0.08, 192.0, 0.0, 0.0, 0.0, 0.0, 0.0, 0.0, 0.0, 0.0, 0.0, 1.696024235654617E9, 0.0, 2023-09-29 16:50:35.654
230.0, 23378.315374650407, 14867.821618058875, 4550.815171100518, -6768.287035022621, 7379.964873786555, -6660.059888370024, -187500.02235174447, 35352.72602471424, -22811.51983875273, 25872.21126225129, 8668.989976524112, 1450.8517325939815, 10067.225702670301, 1429.706982339261, -120707.95842504007, -7843.607109022989, 0.164, 1.012, -0.08, 192.0, 0.0, 0.0, 0.0, 0.0, 0.0, 0.0, 0.0, 0.0, 0.0, 1.696024235654622E9, 0.0, 2023-09-29 16:50:35.654
232.0, 23266.579004118325, 14748.30684045635, 4605.375779315922, -6717.079188475513, 7352.204007173063, -6642.089085827957, -187500.02235174447, 35250.10916591992, -22844.645124035495, 26271.21225252298, 8806.833184579991, 1524.5677858075842, 10020.197632336334, 1416.6982670662721, -120387.54616827324, -7888.735281078253, 0.17200000000000001, 1.01, -0.084, 192.0, 2.5, 48.0, 15.5, 72.0, 126.5, 48.0, 0.0, 0.0, 0.0, 1.696024235654627E9, 0.0, 2023-09-29 16:50:35.654
234.0, 23342.060845143897, 14811.6963877316, 4570.5964649434645, -6753.4231249598415, 7404.171813031651, -6652.549702233041, -187500.02235174447, 35294.857358319445, -22798.064088590632, 25822.21040990477, 8658.886988030314, 1440.2570057221658, 10077.641615586474, 1454.2044942622774, -120712.13820125321, -7820.361294789469, 0.17200000000000001, 1.01, -0.084, 192.0, 0.0, 0.0, 0.0, 0.0, 0.0, 0.0, 0.0, 0.0, 0.0, 1.696024235654633E9, 0.0, 2023-09-29 16:50:35.654
236.0, 23315.015234352977, 14815.876163944742, 4609.846128206984, -6715.536918108096, 7357.926053753621, -6646.98411786367, -187500.02235174447, 35293.15862574084, -22798.622882202017, 26304.69516571703, 8842.551272219573, 1549.1547047084218, 10028.17720510688, 1415.9830112437023, -120365.57440347367, -7893.1162229914935, 0.17200000000000001, 1.01, -0.084, 192.0, 0.0, 0.0, 0.0, 0.0, 0.0, 0.0, 0.0, 0.0, 0.0, 1.696024235654638E9, 0.0, 2023-09-29 16:50:35.654
238.0, 23289.33307997383, 14747.479825911501, 4567.556627697543, -6744.214206244255, 7405.267048509962, -6651.812094666016, -187500.02235174447, 35237.055747158025, -22796.767687412226, 25852.2511544527, 8647.599357080384, 1437.7759620876268, 10082.894275533472, 1443.7885813461044, -120709.63480587422, -7813.096977841495, 0.17200000000000001, 1.01, -0.084, 192.0, 0.0, 0.0, 0.0, 0.0, 0.0, 0.0, 0.0, 0.0, 0.0, 1.696024235654644E9, 0.0, 2023-09-29 16:50:35.654
240.0, 23356.500072062026, 14873.18603672815, 4565.969653841216, -6748.393982457398, 7334.076742419808, -6676.488420544675, -187500.02235174447, 35365.06418765357, -22825.266161592743, 26308.562017507797, 8837.343315761485, 1548.4618006303074, 10010.876954898471, 1408.6292873179063, -120348.52002245428, -7918.619563414999, 0.17200000000000001, 1.01, -0.084, 192.0, 0.0, 0.0, 0.0, 0.0, 0.0, 0.0, 0.0, 0.0, 0.0, 1.696024235715864E9, 0.0, 2023-09-29 16:50:35.715
242.0, 23247.42355912013, 14691.533409539868, 4561.365194483423, -6753.601938915484, 7395.856964094278, -6657.131809846379, -187500.02235174447, 35200.912976373795, -22809.396423029473, 25835.3979391334, 8626.544013803485, 1396.5369935675853, 10055.826312998095, 1428.2094154607553, -120651.69908424605, -7834.532300774134, 0.164, 1.018, -0.08600000000000001, 192.0, 2.5, 16.0, 15.5, 104.0, 126.5, 40.0, 0.0, 0.0, 0.0, 1.696024235715892E9, 0.0, 2023-09-29 16:50:35.715
244.0, 23392.95576726863, 14925.131490842283, 4536.912386049317, -6777.607712460484, 7323.817291714823, -6706.216240670234, -187500.02235174447, 35407.77837130766, -22799.025213602214, 26281.516406716873, 8832.69415291478, 1539.699916803827, 10004.082024584059, 1408.964563484736, -120338.70760663839, -7937.864415391018, 0.164, 1.018, -0.08600000000000001, 192.0, 0.0, 0.0, 0.0, 0.0, 0.0, 0.0, 0.0, 0.0, 0.0, 1.696024235715898E9, 0.0, 2023-09-29 16:50:35.715
246.0, 23213.538314525882, 14635.497586190413, 4580.766508670629, -6738.939194552803, 7417.404045749194, -6653.019088866603, -187500.02235174447, 35141.05500472248, -22801.32744328111, 25855.514509143177, 8608.796728705971, 1376.2639613466217, 10052.540606563165, 1413.3008019090655, -120622.66416819861, -7842.958908433785, 0.164, 1.018, -0.08600000000000001, 192.0, 0.0, 0.0, 0.0, 0.0, 0.0, 0.0, 0.0, 0.0, 0.0, 1.696024235715904E9, 0.0, 2023-09-29 16:50:35.715
248.0, 23433.59123868838, 14966.39281110678, 4531.123284235392, -6793.119823112467, 7331.6627540186355, -6713.145281451379, -187500.02235174447, 35438.5120199337, -22754.567593880605, 26268.77591237735, 8839.354972762463, 1549.601739597528, 10030.546490019142, 1425.1025229814677, -120386.5626915172, -7915.825595358086, 0.164, 1.018, -0.08600000000000001, 192.0, 0.0, 0.0, 0.0, 0.0, 0.0, 0.0, 0.0, 0.0, 0.0, 1.696024235715909E9, 0.0, 2023-09-29 16:50:35.715
250.0, 23174.311003006816, 14588.31305364526, 4583.962808127739, -6736.90518580737, 7416.442920737615, -6655.053097612035, -187500.02235174447, 35118.61385328935, -22803.786135171194, 25887.186931036347, 8622.14072014579, 1362.2494175731442, 10039.420132567899, 1402.4602058482417, -120589.02479279338, -7836.029867652639, 0.164, 1.018, -0.08600000000000001, 192.0, 0.0, 0.0, 0.0, 0.0, 0.0, 0.0, 0.0, 0.0, 0.0, 1.696024235715914E9, 0.0, 2023-09-29 16:50:35.715
252.0, 23468.92934667222, 15010.179878494726, 4548.781162355085, -6767.750593155693, 7366.576178857825, -6693.2522288861555, -187500.02235174447, 35468.19513657035, -22754.992277025256, 26200.178408644013, 8827.709713901248, 1544.0138034837012, 10041.789417480162, 1438.021831276635, -120421.61022682313, -7881.22509494127, 0.162, 1.02, -0.092, 192.0, 2.5, 8.0, 15.5, 112.0, 126.5, 16.0, 0.0, 0.0, 0.0, 1.696024235715918E9, 0.0, 2023-09-29 16:50:35.715
