%OpenBCI Raw EXG Data
%Number of channels = 16
%Sample Rate = 125 Hz
%Board = OpenBCI_GUI$BoardCytonSerialDaisy
Sample Index, EXG Channel 0, EXG Channel 1, EXG Channel 2, EXG Channel 3, EXG Channel 4, EXG Channel 5, EXG Channel 6, EXG Channel 7, EXG Channel 8, EXG Channel 9, EXG Channel 10, EXG Channel 11, EXG Channel 12, EXG Channel 13, EXG Channel 14, EXG Channel 15, Accel Channel 0, Accel Channel 1, Accel Channel 2, Other, Other, Other, Other, Other, Other, Other, Analog Channel 0, Analog Channel 1, Analog Channel 2, Timestamp, Other, Timestamp (Formatted)
208.0, 10595.218610193564, 14095.658254105838, -187500.02235174447, -54118.31189612293, -1855.6418246795924, -14024.49029976014, -187500.02235174447, -25707.545960849046, -15355.290812884667, 26021.275046023733, -43427.87485454975, -187500.02235174447, -24567.919918050757, -36150.549191301965, -116572.84099731935, -2269.506725014058, 0.0, 0.0, 0.0, 192.0, 0.0, 0.0, 0.0, 0.0, 0.0, 0.0, 0.0, 0.0, 0.0, 1.695336233823519E9, 0.0, 2023-09-21 17:43:53.823
210.0, 10580.980548975534, 14088.975082513702, -187500.02235174447, -54121.441140346666, -1871.8691911541453, -14027.619543983883, -187500.02235174447, -25710.764612050607, -15345.143120901957, 26010.635615663006, -43417.63775558922, -187500.02235174447, -24553.547746365995, -36132.08665038188, -116566.44839840513, -2280.079100141418, 0.0, 0.0, 0.0, 192.0, 0.0, 0.0, 0.0, 0.0, 0.0, 0.0, 0.0, 0.0, 0.0, 1.695336233823529E9, 0.0, 2023-09-21 17:43:53.823
212.0, 10588.33427290133, 14092.417251159819, -187500.02235174447, -54118.26719263401, -1861.1180020711427, -14016.9577618787, -187500.02235174447, -25700.23694041216, -15351.245147138257, 26024.627807692028, -43420.72229632406, -187500.02235174447, -24540.71784504865, -36129.87382768081, -116557.50770062301, -2273.9994256495747, 0.07100000000000001, 0.499, 0.083, 192.0, 2.0, 56.0, 15.5, 24.0, 2.5, 24.0, 0.0, 0.0, 0.0, 1.695336233823533E9, 0.0, 2023-09-21 17:43:53.823
214.0, 10571.548112815395, 14081.621358587905, -187500.02235174447, -54125.95619272664, -1868.359967274662, -14018.477680501663, -187500.02235174447, -25705.064917214506, -15363.382144377489, 26004.95827257136, -43434.13334299724, -187500.02235174447, -24540.71784504865, -36134.612397505334, -116547.27060166247, -2281.6884257422003, 0.07100000000000001, 0.499, 0.083, 192.0, 0.0, 0.0, 0.0, 0.0, 0.0, 0.0, 0.0, 0.0, 0.0, 1.695336233823536E9, 0.0, 2023-09-21 17:43:53.823
216.0, 10576.219627406554, 14078.268596919608, -187500.02235174447, -54139.88132952229, -1847.5504931867713, -14029.228869584666, -187500.02235174447, -25718.56537086551, -15372.546359604165, 26014.90479885397, -43447.186761759134, -187500.02235174447, -24539.510850848063, -36140.982644675096, -116535.87121199028, -2283.5212687875355, 0.07100000000000001, 0.499, 0.083, 192.0, 0.0, 0.0, 0.0, 0.0, 0.0, 0.0, 0.0, 0.0, 0.0, 1.69533623382354E9, 0.0, 2023-09-21 17:43:53.823
218.0, 10575.817296006358, 14092.059623248533, -187500.02235174447, -54123.63161130329, -1853.361946745151, -14004.284322772543, -187500.02235174447, -25694.13491417586, -15363.248033910757, 26005.561769671654, -43437.79902908791, -187500.02235174447, -24538.05798745847, -36130.79024920348, -116495.74983069299, -2287.991617678597, 0.07100000000000001, 0.499, 0.083, 192.0, 0.0, 0.0, 0.0, 0.0, 0.0, 0.0, 0.0, 0.0, 0.0, 1.695336233823543E9, 0.0, 2023-09-21 17:43:53.823
220.0, 10587.082575211833, 14086.069355734511, -187500.02235174447, -54136.90854750974, -1844.264786751841, -14028.06657887299, -187500.02235174447, -25714.966740008207, -15354.866129740016, 26013.87661860903, -43429.97591852855, -187500.02235174447, -24522.65763552876, -36130.58908350338, -116513.22889485705, -2275.0276058945187, 0.07100000000000001, 0.499, 0.083, 192.0, 0.0, 0.0, 0.0, 0.0, 0.0, 0.0, 0.0, 0.0, 0.0, 1.695336233823547E9, 0.0, 2023-09-21 17:43:53.823
222.0, 10579.930016986134, 14092.461954648728, -187500.02235174447, -54139.121370210814, -1867.6000079631817, -14038.169567366787, -187500.02235174447, -25722.789850567562, -15365.840836267573, 26028.00292110478, -43433.7533633415, -187500.02235174447, -24523.261132629053, -36148.22460987861, -116458.57887966382, -2295.9264869602307, 0.1095, 0.7475, 0.1265, 192.0, 2.0, 80.0, 15.5, 16.0, 2.5, 40.0, 0.0, 0.0, 0.0, 1.69533623382355E9, 0.0, 2023-09-21 17:43:53.823
224.0, 10593.855153781791, 14098.295759951563, -187500.02235174447, -54137.35558239884, -1858.815772392246, -14044.003372669624, -187500.02235174447, -25720.93465577777, -15357.771856519206, 26023.845496636095, -43422.376325413745, -187500.02235174447, -24511.727632490118, -36144.469516810124, -116464.09976054428, -2293.2889811145046, 0.1095, 0.7475, 0.1265, 192.0, 0.0, 0.0, 0.0, 0.0, 0.0, 0.0, 0.0, 0.0, 0.0, 1.695336233823554E9, 0.0, 2023-09-21 17:43:53.823
0.0, 5155.340451638753, 7059.820837953191, -93750.01117587223, -27176.14497854054, -515.9006137729423, -6643.609004450918, -93750.01117587223, -12419.232716468898, -7683.635673956356, 13029.256526143137, -21715.68086334239, -93750.01117587223, -12261.18353142542, -18076.66040380721, -58197.84053538329, -1145.8398277568613, 0.12875, 0.87075, 0.14425, 192.0, 2.0, 80.0, 15.5, 8.0, 2.5, 8.0, 0.0, 0.0, 0.0, 1.695336233979046E9, 0.0, 2023-09-21 17:43:53.979
2.0, 10327.735284296905, 14125.78840563159, -187500.02235174447, -54349.98772740218, -1001.5369655533989, -13286.033366445705, -187500.02235174447, -24831.514040412196, -16005.9277422342, 26892.389582680415, -43290.54573661635, -187500.02235174447, -16744.138806359628, -36783.50589078735, -187500.02235174447, -1499.8467564400146, 0.12875, 0.87075, 0.14425, 192.0, 0.0, 0.0, 0.0, 0.0, 0.0, 0.0, 0.0, 0.0, 0.0, 1.695336233979058E9, 0.0, 2023-09-21 17:43:53.979
4.0, 10343.627374604628, 14146.731990186214, -187500.02235174447, -54334.743837683665, -992.1492328821699, -13270.074220904617, -187500.02235174447, -24811.37511865796, -15990.683852515682, 26921.424498727858, -43278.788719032855, -187500.02235174447, -16727.531460229333, -36769.1784225915, -187500.02235174447, -1480.5572009750845, 0.12875, 0.87075, 0.14425, 192.0, 0.0, 0.0, 0.0, 0.0, 0.0, 0.0, 0.0, 0.0, 0.0, 1.695336233979062E9, 0.0, 2023-09-21 17:43:53.979
6.0, 10350.198787474488, 14154.219824578742, -187500.02235174447, -54333.4250847608, -978.2017443420583, -13268.57665402611, -187500.02235174447, -24812.8056303031, -15977.608082009327, 26925.71603366328, -43261.80139324682, -187500.02235174447, -16712.153460044083, -36747.0725473252, -187500.02235174447, -1476.6009422064951, 0.12875, 0.87075, 0.14425, 192.0, 0.0, 0.0, 0.0, 0.0, 0.0, 0.0, 0.0, 0.0, 0.0, 1.695336233979065E9, 0.0, 2023-09-21 17:43:53.979
8.0, 10327.735284296905, 14125.184908531299, -187500.02235174447, -54368.02558517762, -1012.9363552256054, -13300.852573019574, -187500.02235174447, -24848.121386542487, -16007.26884690152, 26937.47305124677, -43295.30665818533, -187500.02235174447, -16752.073675641263, -36781.5836407642, -187500.02235174447, -1506.8428524545257, 0.136, 0.996, 0.168, 192.0, 2.0, 32.0, 15.5, 16.0, 2.5, 32.0, 0.0, 0.0, 0.0, 1.695336233979069E9, 0.0, 2023-09-21 17:43:53.979
10.0, 10312.558449811751, 14118.568792172528, -187500.02235174447, -54339.974145886204, -989.9364101810945, -13268.66606100393, -187500.02235174447, -24816.046633249123, -16014.734329549592, 26888.27686170064, -43297.027742508384, -187500.02235174447, -16753.146559375116, -36778.968486662925, -187500.02235174447, -1509.0109716666905, 0.136, 0.996, 0.168, 192.0, 0.0, 0.0, 0.0, 0.0, 0.0, 0.0, 0.0, 0.0, 0.0, 1.695336233979072E9, 0.0, 2023-09-21 17:43:53.979
12.0, 10326.863566263148, 14121.072187551521, -187500.02235174447, -54333.067456849516, -988.0141601579381, -13253.042191629673, -187500.02235174447, -24795.99711847271, -15994.9753874511, 26901.84437058501, -43281.69444581204, -187500.02235174447, -16738.41675977907, -36762.249381810354, -187500.02235174447, -1477.4726602402523, 0.136, 0.996, 0.168, 192.0, 0.0, 0.0, 0.0, 0.0, 0.0, 0.0, 0.0, 0.0, 0.0, 1.695336233979076E9, 0.0, 2023-09-21 17:43:53.979
14.0, 10319.733359781905, 14110.343350212974, -187500.02235174447, -54322.53978521106, -973.2620088174355, -13239.675848445399, -187500.02235174447, -24776.349935096496, -15980.44675355515, 26895.98821353772, -43257.688672267046, -187500.02235174447, -16718.83663163622, -36747.31841651421, -187500.02235174447, -1460.7535553876824, 0.136, 0.996, 0.168, 192.0, 0.0, 0.0, 0.0, 0.0, 0.0, 0.0, 0.0, 0.0, 0.0, 1.695336233979079E9, 0.0, 2023-09-21 17:43:53.979
16.0, 10306.501127064363, 14080.88375102088, -187500.02235174447, -54356.73795422768, -998.5418317963877, -13266.09561039157, -187500.02235174447, -24801.227426675254, -15977.25045409804, 26892.79191408061, -43263.56718105879, -187500.02235174447, -16716.98143684643, -36756.21441080742, -187500.02235174447, -1459.4571542092747, 0.136, 0.996, 0.168, 192.0, 0.0, 0.0, 0.0, 0.0, 0.0, 0.0, 0.0, 0.0, 0.0, 1.69533623403935E9, 0.0, 2023-09-21 17:43:54.039
18.0, 10263.36226026562, 14035.554413265518, -187500.02235174447, -54384.81174526355, -1019.6642303066529, -13288.067375191138, -187500.02235174447, -24821.29929319612, -15993.857800228334, 26830.139974372385, -43295.641934352156, -187500.02235174447, -16740.40606503559, -36790.636097268594, -187500.02235174447, -1495.1305383599447, 0.132, 0.986, 0.166, 192.0, 2.0, 16.0, 15.0, 104.0, 2.5, 24.0, 0.0, 0.0, 0.0, 1.695336234039362E9, 0.0, 2023-09-21 17:43:54.039
20.0, 10255.919129362002, 14020.198764824721, -187500.02235174447, -54406.15766121837, -1025.6992013095858, -13300.651407319476, -187500.02235174447, -24835.29148522514, -16028.346541922874, 26807.69882293926, -43332.56701619232, -187500.02235174447, -16765.484722314446, -36829.55048436528, -187500.02235174447, -1514.576556036062, 0.132, 0.986, 0.166, 192.0, 0.0, 0.0, 0.0, 0.0, 0.0, 0.0, 0.0, 0.0, 0.0, 1.695336234039367E9, 0.0, 2023-09-21 17:43:54.039
22.0, 10243.804483867227, 14007.34651176292, -187500.02235174447, -54395.67469306883, -1015.2832883934127, -13288.715575780341, -187500.02235174447, -24821.187534473844, -16002.530277076994, 26786.129389539885, -43316.116132273215, -187500.02235174447, -16741.143672602615, -36817.32408014823, -187500.02235174447, -1512.9448786908245, 0.132, 0.986, 0.166, 192.0, 0.0, 0.0, 0.0, 0.0, 0.0, 0.0, 0.0, 0.0, 0.0, 1.69533623403937E9, 0.0, 2023-09-21 17:43:54.039
24.0, 10257.975489851891, 14010.341645519931, -187500.02235174447, -54396.34524540249, -1017.5855180723094, -13286.793325757186, -187500.02235174447, -24821.67927285186, -16014.734329549592, 26784.900043594844, -43338.1773040506, -187500.02235174447, -16749.74909421791, -36842.87212406065, -187500.02235174447, -1510.7544077342043, 0.132, 0.986, 0.166, 192.0, 0.0, 0.0, 0.0, 0.0, 0.0, 0.0, 0.0, 0.0, 0.0, 1.695336234039374E9, 0.0, 2023-09-21 17:43:54.039
26.0, 10255.963832850914, 14007.72649141866, -187500.02235174447, -54380.22963765021, -992.2386398599912, -13261.91583417843, -187500.02235174447, -24787.011717201676, -15973.696526729647, 26783.715401138714, -43305.61081237922, -187500.02235174447, -16708.97951233143, -36811.691440545495, -187500.02235174447, -1494.4599860262856, 0.132, 0.986, 0.166, 192.0, 0.0, 0.0, 0.0, 0.0, 0.0, 0.0, 0.0, 0.0, 0.0, 1.695336234039377E9, 0.0, 2023-09-21 17:43:54.039
28.0, 10252.275795015788, 13989.398060965308, -187500.02235174447, -54396.05467272457, -988.952933425061, -13283.172343155426, -187500.02235174447, -24809.743441312727, -15985.386489079774, 26784.184787772276, -43318.88774858567, -187500.02235174447, -16713.807489133775, -36822.37557439513, -187500.02235174447, -1486.860392911481, 0.128, 0.992, 0.164, 192.0, 2.0, 0.0, 15.5, 0.0, 2.5, 16.0, 0.0, 0.0, 0.0, 1.695336234039381E9, 0.0, 2023-09-21 17:43:54.039
30.0, 10218.949344032926, 13969.214435722166, -187500.02235174447, -54433.31503073157, -1034.5057886249767, -13325.998285531794, -187500.02235174447, -24857.375008746985, -16005.50305908955, 26752.28884843455, -43342.893522130675, -187500.02235174447, -16745.099931371205, -36849.33177820823, -187500.02235174447, -1517.8399107265368, 0.128, 0.992, 0.164, 192.0, 0.0, 0.0, 0.0, 0.0, 0.0, 0.0, 0.0, 0.0, 0.0, 1.695336234098669E9, 0.0, 2023-09-21 17:43:54.098
32.0, 10248.78892288076, 13989.24159875412, -187500.02235174447, -54418.2946584576, -1020.8265210183289, -13311.357892913567, -187500.02235174447, -24843.44987195133, -16018.310608662441, 26745.82919428697, -43356.170458337125, -187500.02235174447, -16764.210672880494, -36866.52026969436, -187500.02235174447, -1536.213044668799, 0.128, 0.992, 0.164, 192.0, 0.0, 0.0, 0.0, 0.0, 0.0, 0.0, 0.0, 0.0, 0.0, 1.695336234098683E9, 0.0, 2023-09-21 17:43:54.098
34.0, 10253.348678749642, 14004.1055088169, -187500.02235174447, -54407.58817286351, -1029.9907362450047, -13297.231590417814, -187500.02235174447, -24830.508211911707, -15976.78106746448, 26760.53664213856, -43315.66909738411, -187500.02235174447, -16728.581992218733, -36834.445516401, -187500.02235174447, -1516.1188264034781, 0.128, 0.992, 0.164, 192.0, 0.0, 0.0, 0.0, 0.0, 0.0, 0.0, 0.0, 0.0, 0.0, 1.695336234098687E9, 0.0, 2023-09-21 17:43:54.098
36.0, 10264.055164343736, 14003.077328571955, -187500.02235174447, -54408.61635310845, -1021.1170936962478, -13295.44345086139, -187500.02235174447, -24836.766700359192, -15974.881169185779, 26755.552203125026, -43318.86539684122, -187500.02235174447, -16728.78315791883, -36842.91682754956, -187500.02235174447, -1512.4978438017183, 0.128, 0.992, 0.164, 192.0, 0.0, 0.0, 0.0, 0.0, 0.0, 0.0, 0.0, 0.0, 0.0, 1.695336234098691E9, 0.0, 2023-09-21 17:43:54.098
38.0, 10257.751972407339, 14002.026796582557, -187500.02235174447, -54408.05755949707, -1038.5514543713873, -13284.736965267297, -187500.02235174447, -24829.837659578046, -15970.857855183824, 26762.704761350724, -43319.80417010834, -187500.02235174447, -16730.660704453076, -36838.69234784751, -187500.02235174447, -1516.5211578036735, 0.14200000000000002, 0.998, 0.164, 192.0, 2.0, 56.0, 15.5, 24.0, 2.5, 16.0, 0.0, 0.0, 0.0, 1.695336234098695E9, 0.0, 2023-09-21 17:43:54.098
40.0, 10257.170827051501, 13993.399023222808, -187500.02235174447, -54417.355885190475, -1025.0286489759267, -13288.96144496935, -187500.02235174447, -24841.482918439262, -15975.171741863698, 26767.890366064355, -43330.510655702434, -187500.02235174447, -16735.242812066415, -36840.994577526406, -187500.02235174447, -1519.9633264497909, 0.14200000000000002, 0.998, 0.164, 192.0, 0.0, 0.0, 0.0, 0.0, 0.0, 0.0, 0.0, 0.0, 0.0, 1.695336234098698E9, 0.0, 2023-09-21 17:43:54.098
42.0, 10242.351620477632, 13990.359185976886, -187500.02235174447, -54433.06916154256, -1051.7389836000186, -13294.079994449616, -187500.02235174447, -24850.44596796584, -15986.191151880164, 26762.950630539734, -43347.095650088275, -187500.02235174447, -16743.915288915076, -36846.94014155152, -187500.02235174447, -1535.408381868408, 0.14200000000000002, 0.998, 0.164, 192.0, 0.0, 0.0, 0.0, 0.0, 0.0, 0.0, 0.0, 0.0, 0.0, 1.695336234098702E9, 0.0, 2023-09-21 17:43:54.098
44.0, 10263.40696375453, 14006.363035006885, -187500.02235174447, -54425.78249285013, -1030.817750789851, -13298.77386078523, -187500.02235174447, -24843.87455509598, -15982.413707067217, 26776.00404930163, -43339.876036629204, -187500.02235174447, -16743.06592262577, -36839.47465890344, -187500.02235174447, -1537.0624109581008, 0.14200000000000002, 0.998, 0.164, 192.0, 0.0, 0.0, 0.0, 0.0, 0.0, 0.0, 0.0, 0.0, 0.0, 1.695336234098705E9, 0.0, 2023-09-21 17:43:54.098
46.0, 10264.703364932939, 14010.565162964484, -187500.02235174447, -54432.93505107582, -1042.1500852286918, -13311.44729989139, -187500.02235174447, -24849.104863298522, -15963.68294521367, 26779.557976670025, -43320.11709453072, -187500.02235174447, -16727.151480573593, -36836.792449568806, -187500.02235174447, -1538.3588121365085, 0.14200000000000002, 0.998, 0.164, 192.0, 0.0, 0.0, 0.0, 0.0, 0.0, 0.0, 0.0, 0.0, 0.0, 1.695336234158502E9, 0.0, 2023-09-21 17:43:54.158
48.0, 10265.418620755509, 14003.658473927793, -187500.02235174447, -54449.72121116176, -1041.881864295228, -13333.3967129465, -187500.02235174447, -24868.282660041175, -15973.49536102955, 26757.139176981353, -43330.376545235704, -187500.02235174447, -16737.54504174531, -36862.60871441469, -187500.02235174447, -1569.9641787963128, 0.15, 0.994, 0.166, 192.0, 2.0, 88.0, 15.5, 8.0, 2.5, 24.0, 0.0, 0.0, 0.0, 1.695336234158514E9, 0.0, 2023-09-21 17:43:54.158
50.0, 10276.527437749797, 14025.429073027262, -187500.02235174447, -54428.129426017935, -1043.1335619847252, -13311.402596402479, -187500.02235174447, -24840.454738194316, -15956.709200943615, 26760.603697371924, -43311.019934537406, -187500.02235174447, -16723.754015416387, -36852.662188132075, -187500.02235174447, -1563.4151176709079, 0.15, 0.994, 0.166, 192.0, 0.0, 0.0, 0.0, 0.0, 0.0, 0.0, 0.0, 0.0, 0.0, 1.695336234158518E9, 0.0, 2023-09-21 17:43:54.158
52.0, 10259.808332897226, 14012.912096132291, -187500.02235174447, -54439.797036623604, -1046.6874893531192, -13328.367570444057, -187500.02235174447, -24853.128177300478, -15952.797645663935, 26751.461833889705, -43304.29205945636, -187500.02235174447, -16718.434300236022, -36846.11312700667, -187500.02235174447, -1556.1731524673883, 0.15, 0.994, 0.166, 192.0, 0.0, 0.0, 0.0, 0.0, 0.0, 0.0, 0.0, 0.0, 0.0, 1.695336234158522E9, 0.0, 2023-09-21 17:43:54.158
54.0, 10240.496425687841, 13982.021985295056, -187500.02235174447, -54470.910664905394, -1078.6281321797528, -13355.569643446166, -187500.02235174447, -24873.24474731025, -15978.50215178754, 26744.62220008638, -43333.19286503707, -187500.02235174447, -16750.799626207307, -36876.60090644371, -187500.02235174447, -1567.8407630730585, 0.15, 0.994, 0.166, 192.0, 0.0, 0.0, 0.0, 0.0, 0.0, 0.0, 0.0, 0.0, 0.0, 1.695336234158526E9, 0.0, 2023-09-21 17:43:54.158
56.0, 10253.303975260733, 13996.774136635559, -187500.02235174447, -54447.46368497178, -1051.0907830108147, -13331.273297223246, -187500.02235174447, -24847.316723742097, -15988.381622836785, 26702.75738272159, -43337.84202788377, -187500.02235174447, -16753.97357391996, -36881.808862901795, -187500.02235174447, -1577.4743649332959, 0.15, 0.994, 0.166, 192.0, 0.0, 0.0, 0.0, 0.0, 0.0, 0.0, 0.0, 0.0, 0.0, 1.695336234158529E9, 0.0, 2023-09-21 17:43:54.158
58.0, 10266.200931811445, 14011.034549598045, -187500.02235174447, -54434.34321097651, -1043.2676724514572, -13311.380244658023, -187500.02235174447, -24830.128232255964, -15959.793741678446, 26741.00121748462, -43309.36590544771, -187500.02235174447, -16718.322541513746, -36857.02077830086, -187500.02235174447, -1541.6445185714388, 0.148, 0.992, 0.17200000000000001, 192.0, 2.0, 80.0, 15.5, 0.0, 2.5, 48.0, 0.0, 0.0, 0.0, 1.695336234158533E9, 0.0, 2023-09-21 17:43:54.158
60.0, 10249.101847303134, 13991.096793543911, -187500.02235174447, -54457.54432172112, -1049.526160898943, -13333.217898990859, -187500.02235174447, -24848.948401087335, -15962.520654501994, 26715.453173572205, -43312.45044618255, -187500.02235174447, -16723.865774138663, -36862.094624292215, -187500.02235174447, -1549.892312275447, 0.148, 0.992, 0.17200000000000001, 192.0, 0.0, 0.0, 0.0, 0.0, 0.0, 0.0, 0.0, 0.0, 0.0, 1.695336234218834E9, 0.0, 2023-09-21 17:43:54.218
62.0, 10261.171789309, 14003.81493613898, -187500.02235174447, -54454.146856563915, -1058.466858681066, -13322.422006418945, -187500.02235174447, -24833.078662524065, -15973.607119751827, 26708.56883627997, -43330.75652489144, -187500.02235174447, -16737.61209697868, -36881.13831056813, -187500.02235174447, -1558.2295129572765, 0.148, 0.992, 0.17200000000000001, 192.0, 0.0, 0.0, 0.0, 0.0, 0.0, 0.0, 0.0, 0.0, 0.0, 1.695336234218848E9, 0.0, 2023-09-21 17:43:54.218
64.0, 10236.093132030146, 13981.038508539023, -187500.02235174447, -54471.49181026123, -1054.5776551458425, -13339.431683949433, -187500.02235174447, -24845.617991163494, -15959.59257597835, 26696.968280907666, -43323.179283521094, -187500.02235174447, -16727.665570696066, -36870.476528462954, -187500.02235174447, -1555.3014344336314, 0.148, 0.992, 0.17200000000000001, 192.0, 0.0, 0.0, 0.0, 0.0, 0.0, 0.0, 0.0, 0.0, 0.0, 1.695336234218852E9, 0.0, 2023-09-21 17:43:54.218
66.0, 10243.245690255844, 13984.637139396327, -187500.02235174447, -54467.490848003734, -1065.9323413291386, -13325.417140175956, -187500.02235174447, -24830.977598545265, -15997.992872952567, 26689.212225581676, -43362.048967128874, -187500.02235174447, -16762.22136762397, -36901.210177089, -187500.02235174447, -1566.477306661285, 0.148, 0.992, 0.17200000000000001, 192.0, 0.0, 0.0, 0.0, 0.0, 0.0, 0.0, 0.0, 0.0, 0.0, 1.695336234218856E9, 0.0, 2023-09-21 17:43:54.218
68.0, 10254.2203967834, 14002.831459382947, -187500.02235174447, -54449.96708035077, -1059.5844459038312, -13308.385110901012, -187500.02235174447, -24821.47810715176, -15962.58770973536, 26694.911920417777, -43322.24051025397, -187500.02235174447, -16733.812300421276, -36867.03435981683, -187500.02235174447, -1537.151817935922, 0.154, 0.984, 0.17, 192.0, 2.0, 104.0, 15.0, 96.0, 2.5, 40.0, 0.0, 0.0, 0.0, 1.695336234218859E9, 0.0, 2023-09-21 17:43:54.218
70.0, 10278.494391261864, 14018.544735735028, -187500.02235174447, -54437.4501034558, -1056.4104981911778, -13292.493020593289, -187500.02235174447, -24812.336243669542, -15962.118323101799, 26725.86908648838, -43319.960632319526, -187500.02235174447, -16738.372056290158, -36871.12472905216, -187500.02235174447, -1521.2597276281988, 0.154, 0.984, 0.17, 192.0, 0.0, 0.0, 0.0, 0.0, 0.0, 0.0, 0.0, 0.0, 0.0, 1.695336234218862E9, 0.0, 2023-09-21 17:43:54.218
72.0, 10273.018213870313, 14027.954820150713, -187500.02235174447, -54431.348077219496, -1044.6758323521415, -13285.809849001153, -187500.02235174447, -24802.277958664654, -15931.854061109312, 26736.128537193363, -43284.42135863559, -187500.02235174447, -16704.151535529083, -36842.91682754956, -187500.02235174447, -1502.0819308855453, 0.154, 0.984, 0.17, 192.0, 0.0, 0.0, 0.0, 0.0, 0.0, 0.0, 0.0, 0.0, 0.0, 1.695336234218865E9, 0.0, 2023-09-21 17:43:54.218
74.0, 10251.113504304112, 13991.119145288367, -187500.02235174447, -54478.465554531285, -1056.4775534245437, -13331.452111178889, -187500.02235174447, -24847.741406886747, -15958.16206433321, 26735.52504009307, -43315.423228195104, -187500.02235174447, -16726.860907895676, -36871.035322074335, -187500.02235174447, -1515.4259223253634, 0.154, 0.984, 0.17, 192.0, 0.0, 0.0, 0.0, 0.0, 0.0, 0.0, 0.0, 0.0, 0.0, 1.695336234218869E9, 0.0, 2023-09-21 17:43:54.218
76.0, 10240.541129176752, 13989.845095854414, -187500.02235174447, -54473.19054283983, -1058.2880447254236, -13329.395750689, -187500.02235174447, -24846.757930130712, -15980.871436699801, 26690.553330248993, -43343.161743064134, -187500.02235174447, -16751.201957607504, -36889.989601372436, -187500.02235174447, -1556.2402077007541, 0.154, 0.984, 0.17, 192.0, 0.0, 0.0, 0.0, 0.0, 0.0, 0.0, 0.0, 0.0, 0.0, 1.695336234279159E9, 0.0, 2023-09-21 17:43:54.279
78.0, 10253.795713638749, 13992.594360422418, -187500.02235174447, -54468.63078697095, -1040.9430910281053, -13328.792253588708, -187500.02235174447, -24845.662694652405, -15975.954052919633, 26711.80983922599, -43336.29975751636, -187500.02235174447, -16736.807434178285, -36881.27242103487, -187500.02235174447, -1536.0789342020673, 0.146, 0.988, 0.168, 192.0, 2.0, 72.0, 15.0, 112.0, 2.5, 32.0, 0.0, 0.0, 0.0, 1.695336234279174E9, 0.0, 2023-09-21 17:43:54.279
80.0, 10266.469152744909, 14024.289134060042, -187500.02235174447, -54441.8533971135, -1025.8109600318624, -13295.376395628024, -187500.02235174447, -24813.0067960032, -15951.009506107512, 26728.66305454529, -43311.06463802631, -187500.02235174447, -16713.248695522394, -36855.72437712245, -187500.02235174447, -1519.2257188827657, 0.146, 0.988, 0.168, 192.0, 0.0, 0.0, 0.0, 0.0, 0.0, 0.0, 0.0, 0.0, 0.0, 1.695336234279178E9, 0.0, 2023-09-21 17:43:54.279
82.0, 10275.208684826934, 14021.517517747585, -187500.02235174447, -54452.13519956294, -1014.6350878042088, -13308.496869623288, -187500.02235174447, -24829.837659578046, -15940.213613535598, 26746.72326406518, -43303.33093444478, -187500.02235174447, -16703.45863145097, -36853.89153407711, -187500.02235174447, -1512.2296228682546, 0.146, 0.988, 0.168, 192.0, 0.0, 0.0, 0.0, 0.0, 0.0, 0.0, 0.0, 0.0, 0.0, 1.695336234279182E9, 0.0, 2023-09-21 17:43:54.279
84.0, 10260.41182999752, 14010.095776330922, -187500.02235174447, -54456.56084496508, -1039.0431927494042, -13310.374416157534, -187500.02235174447, -24828.67536886637, -15952.216500308097, 26735.05565345951, -43316.85373984024, -187500.02235174447, -16715.908553112575, -36861.51347893637, -187500.02235174447, -1520.4774165722629, 0.146, 0.988, 0.168, 192.0, 0.0, 0.0, 0.0, 0.0, 0.0, 0.0, 0.0, 0.0, 0.0, 1.695336234279185E9, 0.0, 2023-09-21 17:43:54.279
86.0, 10266.491504489364, 14006.810069895992, -187500.02235174447, -54466.70853694779, -1034.9304717696275, -13327.54055589921, -187500.02235174447, -24848.076683053576, -15956.619793965792, 26735.547391837525, -43325.88384460018, -187500.02235174447, -16724.916306128063, -36870.20830752949, -187500.02235174447, -1518.957497949302, 0.146, 0.988, 0.168, 192.0, 0.0, 0.0, 0.0, 0.0, 0.0, 0.0, 0.0, 0.0, 0.0, 1.695336234279188E9, 0.0, 2023-09-21 17:43:54.279
88.0, 10270.93950163597, 14019.259991557597, -187500.02235174447, -54451.621109440464, -1048.5873876318203, -13313.481308636823, -187500.02235174447, -24839.33715097155, -15947.142654316744, 26729.9594557237, -43318.44071369657, -187500.02235174447, -16718.50135546939, -36868.464871461976, -187500.02235174447, -1524.7465997632266, 0.148, 1.0, 0.164, 192.0, 2.0, 80.0, 15.5, 32.0, 2.5, 16.0, 0.0, 0.0, 0.0, 1.695336234279192E9, 0.0, 2023-09-21 17:43:54.279
90.0, 10287.613902999628, 14026.948991650224, -187500.02235174447, -54440.66875465736, -1023.6204890752423, -13302.551305598177, -187500.02235174447, -24825.546124642628, -15929.417720963684, 26752.713531579204, -43300.00052452094, -187500.02235174447, -16701.11169828316, -36851.879877076135, -187500.02235174447, -1511.0673321565787, 0.148, 1.0, 0.164, 192.0, 0.0, 0.0, 0.0, 0.0, 0.0, 0.0, 0.0, 0.0, 0.0, 1.695336234339455E9, 0.0, 2023-09-21 17:43:54.339
92.0, 10287.122164621613, 14031.508747519107, -187500.02235174447, -54439.662926156874, -1036.1151142257588, -13291.330729881613, -187500.02235174447, -24817.76771757218, -15927.450767451617, 26766.750427097137, -43294.07731224028, -187500.02235174447, -16696.127259269626, -36845.15200199509, -187500.02235174447, -1503.2889250861317, 0.148, 1.0, 0.164, 192.0, 0.0, 0.0, 0.0, 0.0, 0.0, 0.0, 0.0, 0.0, 0.0, 1.695336234339469E9, 0.0, 2023-09-21 17:43:54.339
94.0, 10297.359263582142, 14020.310523546998, -187500.02235174447, -54452.604586196496, -1016.9373174831054, -13304.048872476682, -187500.02235174447, -24823.847392064024, -15911.983360288545, 26758.837909559956, -43273.15607943012, -187500.02235174447, -16684.437296919503, -36836.658339102076, -187500.02235174447, -1494.7505587042044, 0.148, 1.0, 0.164, 192.0, 0.0, 0.0, 0.0, 0.0, 0.0, 0.0, 0.0, 0.0, 0.0, 1.695336234339472E9, 0.0, 2023-09-21 17:43:54.339
96.0, 10292.17365886851, 14021.517517747585, -187500.02235174447, -54480.2089905988, -1052.7448121005073, -13324.50071865329, -187500.02235174447, -24845.260363252208, -15913.190354489132, 26740.0624442175, -43281.56033534531, -187500.02235174447, -16696.93192207002, -36870.87885986315, -187500.02235174447, -1515.895308958925, 0.148, 1.0, 0.164, 192.0, 0.0, 0.0, 0.0, 0.0, 0.0, 0.0, 0.0, 0.0, 0.0, 1.695336234339476E9, 0.0, 2023-09-21 17:43:54.339
98.0, 10280.327234307199, 14016.197802567222, -187500.02235174447, -54461.545283978616, -1032.6058903462756, -13308.452166134379, -187500.02235174447, -24833.19042124634, -15946.650915938726, 26728.57364756747, -43273.49135559695, -187500.02235174447, -16714.388634489613, -36865.29092374932, -187500.02235174447, -1520.3880095944417, 0.154, 0.998, 0.166, 192.0, 2.0, 104.0, 15.5, 24.0, 2.5, 24.0, 0.0, 0.0, 0.0, 1.69533623433948E9, 0.0, 2023-09-21 17:43:54.339
100.0, 10276.84036217217, 14025.049093371523, -187500.02235174447, -54453.230435041245, -1039.8478555497952, -13293.25297990477, -187500.02235174447, -24815.778412315656, -15943.052285081421, 26739.57070583948, -43254.44766932102, -187500.02235174447, -16707.683111153023, -36854.58443815523, -187500.02235174447, -1496.1140151159782, 0.154, 0.998, 0.166, 192.0, 0.0, 0.0, 0.0, 0.0, 0.0, 0.0, 0.0, 0.0, 0.0, 1.695336234339485E9, 0.0, 2023-09-21 17:43:54.339
102.0, 10258.333117763177, 14007.301808274009, -187500.02235174447, -54458.55015022161, -1044.0052800184824, -13303.691244565398, -187500.02235174447, -24827.62483687697, -15953.803474164424, 26733.468679603182, -43254.09004140974, -187500.02235174447, -16714.16511704506, -36852.3492637097, -187500.02235174447, -1494.1247098594558, 0.154, 0.998, 0.166, 192.0, 0.0, 0.0, 0.0, 0.0, 0.0, 0.0, 0.0, 0.0, 0.0, 1.695336234339512E9, 0.0, 2023-09-21 17:43:54.339
104.0, 10271.095963847156, 14037.856642944413, -187500.02235174447, -54420.440425925306, -1036.5397973704098, -13260.038287644184, -187500.02235174447, -24784.84359798951, -15958.787913177957, 26762.816520073, -43250.536114041344, -187500.02235174447, -16711.281742010324, -36833.90907453407, -187500.02235174447, -1478.5008404851962, 0.154, 0.998, 0.166, 192.0, 0.0, 0.0, 0.0, 0.0, 0.0, 0.0, 0.0, 0.0, 0.0, 1.695336234339516E9, 0.0, 2023-09-21 17:43:54.339
106.0, 10261.641175942561, 14036.82846269947, -187500.02235174447, -54423.3461527045, -1042.3065474398788, -13271.370622083025, -187500.02235174447, -24809.430516890352, -15950.16013981821, 26782.8213313605, -43236.87919817915, -187500.02235174447, -16701.06699479425, -36809.165693422045, -187500.02235174447, -1474.9245613723472, 0.154, 0.998, 0.166, 192.0, 0.0, 0.0, 0.0, 0.0, 0.0, 0.0, 0.0, 0.0, 0.0, 1.695336234399671E9, 0.0, 2023-09-21 17:43:54.399
108.0, 10252.07462931569, 14033.63216324236, -187500.02235174447, -54436.86895809996, -1062.5125244274766, -13281.473610576822, -187500.02235174447, -24807.24004593373, -15982.59252102286, 26800.188636802275, -43258.40392808961, -187500.02235174447, -16728.291419540816, -36822.15205695058, -187500.02235174447, -1485.0499016106012, 0.154, 0.994, 0.168, 192.0, 2.0, 104.0, 15.5, 8.0, 2.5, 32.0, 0.0, 0.0, 0.0, 1.695336234399685E9, 0.0, 2023-09-21 17:43:54.399
110.0, 10250.375896737087, 14044.91979419229, -187500.02235174447, -54430.47635918574, -1047.9391870426164, -13273.762258739742, -187500.02235174447, -24797.919368495866, -15985.475896057595, 26796.947633856256, -43245.21639886098, -187500.02235174447, -16726.279762539838, -36806.52818757632, -187500.02235174447, -1473.5611049605734, 0.154, 0.994, 0.168, 192.0, 0.0, 0.0, 0.0, 0.0, 0.0, 0.0, 0.0, 0.0, 0.0, 1.695336234399689E9, 0.0, 2023-09-21 17:43:54.399
112.0, 10280.014309884824, 14080.190846942765, -187500.02235174447, -54415.478338656234, -1037.5903293598092, -13253.399819540957, -187500.02235174447, -24781.289670621118, -15999.892771231267, 26816.97479688821, -43243.13768662664, -187500.02235174447, -16737.388579534123, -36817.502894103876, -187500.02235174447, -1467.0343955796238, 0.154, 0.994, 0.168, 192.0, 0.0, 0.0, 0.0, 0.0, 0.0, 0.0, 0.0, 0.0, 0.0, 1.695336234399692E9, 0.0, 2023-09-21 17:43:54.399
114.0, 10275.923940649503, 14083.945940011257, -187500.02235174447, -54415.56774563405, -1019.6865820511082, -13254.71857246382, -187500.02235174447, -24785.581205556537, -15963.794703935946, 26847.462576325248, -43199.93176459453, -187500.02235174447, -16702.363395972658, -36779.594335507674, -187500.02235174447, -1445.9119970693587, 0.154, 0.994, 0.168, 192.0, 0.0, 0.0, 0.0, 0.0, 0.0, 0.0, 0.0, 0.0, 0.0, 1.695336234399696E9, 0.0, 2023-09-21 17:43:54.399
116.0, 10276.303920305243, 14081.21902718771, -187500.02235174447, -54426.6989143728, -1040.563111372365, -13261.334688822591, -187500.02235174447, -24795.81830451707, -15995.98121595159, 26863.466425355247, -43232.34179405472, -187500.02235174447, -16725.63156195063, -36798.72742876142, -187500.02235174447, -1448.5047994261743, 0.154, 0.994, 0.168, 192.0, 0.0, 0.0, 0.0, 0.0, 0.0, 0.0, 0.0, 0.0, 0.0, 1.695336234399699E9, 0.0, 2023-09-21 17:43:54.399
118.0, 10236.160187263511, 14040.695314490238, -187500.02235174447, -54455.66677518687, -1071.363815231778, -13286.838029246097, -187500.02235174447, -24817.857124550002, -16002.083242187888, 26822.428622535306, -43253.77711698737, -187500.02235174447, -16735.846309166707, -36817.52524584833, -187500.02235174447, -1465.0674420675568, 0.156, 0.98, 0.17200000000000001, 192.0, 2.0, 112.0, 15.0, 80.0, 2.5, 48.0, 0.0, 0.0, 0.0, 1.695336234399703E9, 0.0, 2023-09-21 17:43:54.399
120.0, 10271.833571414181, 14071.004279971634, -187500.02235174447, -54432.01862955316, -1065.8652860957725, -13264.352174324058, -187500.02235174447, -24806.971825000266, -16024.367931409828, 26809.64342470687, -43280.30863765581, -187500.02235174447, -16762.802512979808, -36840.32402519274, -187500.02235174447, -1475.639817194917, 0.156, 0.98, 0.17200000000000001, 192.0, 0.0, 0.0, 0.0, 0.0, 0.0, 0.0, 0.0, 0.0, 0.0, 1.695336234458517E9, 0.0, 2023-09-21 17:43:54.458
122.0, 10288.507972777841, 14088.93037902479, -187500.02235174447, -54424.03905678261, -1053.1694952451583, -13256.23849108678, -187500.02235174447, -24804.066098221076, -15966.409858037217, 26818.53941900008, -43226.26211956288, -187500.02235174447, -16718.300189769292, -36799.4873880729, -187500.02235174447, -1454.2715494956435, 0.156, 0.98, 0.17200000000000001, 192.0, 0.0, 0.0, 0.0, 0.0, 0.0, 0.0, 0.0, 0.0, 0.0, 1.695336234458531E9, 0.0, 2023-09-21 17:43:54.458
124.0, 10316.380598113608, 14109.069300779021, -187500.02235174447, -54420.239260225215, -1027.8673205217506, -13256.730229464798, -187500.02235174447, -24799.685156307838, -15962.63241322427, 26836.97960817571, -43221.34473578272, -187500.02235174447, -16720.602419448187, -36799.33092586171, -187500.02235174447, -1445.7778866026267, 0.156, 0.98, 0.17200000000000001, 192.0, 0.0, 0.0, 0.0, 0.0, 0.0, 0.0, 0.0, 0.0, 0.0, 1.695336234458535E9, 0.0, 2023-09-21 17:43:54.458
126.0, 10311.977304455913, 14113.718463625726, -187500.02235174447, -54414.494861900195, -1044.6758323521415, -13242.089836846571, -187500.02235174447, -24786.318813123562, -15953.892881142245, 26835.660855252845, -43207.50900596488, -187500.02235174447, -16716.422643235044, -36795.79935023777, -187500.02235174447, -1450.6282151494283, 0.156, 0.98, 0.17200000000000001, 192.0, 0.0, 0.0, 0.0, 0.0, 0.0, 0.0, 0.0, 0.0, 0.0, 1.695336234458538E9, 0.0, 2023-09-21 17:43:54.458
128.0, 10320.292153393288, 14111.84091709148, -187500.02235174447, -54413.801957822085, -1028.046134477393, -13235.697237932354, -187500.02235174447, -24775.679382762835, -15962.744171946548, 26853.49754732818, -43207.01726758686, -187500.02235174447, -16719.708349669978, -36793.43006532551, -187500.02235174447, -1428.924671283325, 0.148, 0.982, 0.17, 192.0, 2.0, 80.0, 15.0, 88.0, 2.5, 40.0, 0.0, 0.0, 0.0, 1.695336234458542E9, 0.0, 2023-09-21 17:43:54.458
130.0, 10293.403004813554, 14099.368643685419, -187500.02235174447, -54432.175091764344, -1049.235588221024, -13253.377467796501, -187500.02235174447, -24801.16037144189, -15975.194093608154, 26827.748337715668, -43219.31072703728, -187500.02235174447, -16729.297248041305, -36804.02479219733, -187500.02235174447, -1441.5087034116632, 0.148, 0.982, 0.17, 192.0, 0.0, 0.0, 0.0, 0.0, 0.0, 0.0, 0.0, 0.0, 0.0, 1.695336234458545E9, 0.0, 2023-09-21 17:43:54.458
132.0, 10323.33199063921, 14122.301533496564, -187500.02235174447, -54414.852489811485, -1019.7312855400188, -13237.820653655608, -187500.02235174447, -24786.09529567901, -15966.208692337119, 26829.35766331645, -43218.528415981345, -187500.02235174447, -16728.045550351806, -36808.3386788772, -187500.02235174447, -1435.5631393865515, 0.148, 0.982, 0.17, 192.0, 0.0, 0.0, 0.0, 0.0, 0.0, 0.0, 0.0, 0.0, 0.0, 1.695336234458548E9, 0.0, 2023-09-21 17:43:54.458
134.0, 10317.721702780927, 14121.630981162905, -187500.02235174447, -54414.20428922228, -1019.4630646065551, -13229.572859951599, -187500.02235174447, -24775.366458340464, -15955.211634065108, 26828.21772434923, -43200.758779139374, -187500.02235174447, -16708.35366348668, -36797.207510138454, -187500.02235174447, -1428.1423602273894, 0.148, 0.982, 0.17, 192.0, 0.0, 0.0, 0.0, 0.0, 0.0, 0.0, 0.0, 0.0, 0.0, 1.695336234458551E9, 0.0, 2023-09-21 17:43:54.458
136.0, 10325.99184822939, 14115.41719620433, -187500.02235174447, -54418.65228636889, -1007.8401574897955, -13237.843005400064, -187500.02235174447, -24780.842635732013, -15957.312698043908, 26827.256599337652, -43203.776264640845, -187500.02235174447, -16708.97951233143, -36806.77405676532, -187500.02235174447, -1422.5544241135626, 0.148, 0.982, 0.17, 192.0, 0.0, 0.0, 0.0, 0.0, 0.0, 0.0, 0.0, 0.0, 0.0, 1.695336234518796E9, 0.0, 2023-09-21 17:43:54.518
138.0, 10339.067618735746, 14141.613440705949, -187500.02235174447, -54387.27043715363, -1011.4164366026446, -13200.649702626431, -187500.02235174447, -24740.430681756818, -15933.977476832568, 26828.083613882496, -43182.98914229741, -187500.02235174447, -16697.73658487041, -36788.60208852316, -187500.02235174447, -1418.3075926670545, 0.15, 0.984, 0.182, 192.0, 2.0, 88.0, 15.0, 96.0, 2.5, 88.0, 0.0, 0.0, 0.0, 1.695336234518808E9, 0.0, 2023-09-21 17:43:54.518
140.0, 10326.528290096318, 14111.46093743574, -187500.02235174447, -54420.35101894749, -1014.0986459372814, -13240.5252147347, -187500.02235174447, -24783.927176466845, -15928.210726763098, 26843.685131512302, -43177.20004048348, -187500.02235174447, -16694.607340646668, -36788.825605967715, -187500.02235174447, -1413.904299009359, 0.15, 0.984, 0.182, 192.0, 0.0, 0.0, 0.0, 0.0, 0.0, 0.0, 0.0, 0.0, 0.0, 1.695336234518812E9, 0.0, 2023-09-21 17:43:54.518
142.0, 10315.039493446291, 14106.521201911117, -187500.02235174447, -54436.243109255214, -1050.1520097436917, -13247.789531682674, -187500.02235174447, -24795.32656613905, -15966.029878381478, 26815.387823031884, -43218.50606423689, -187500.02235174447, -16738.237945823425, -36828.3434901647, -187500.02235174447, -1453.0645552950568, 0.15, 0.984, 0.182, 192.0, 0.0, 0.0, 0.0, 0.0, 0.0, 0.0, 0.0, 0.0, 0.0, 1.695336234518815E9, 0.0, 2023-09-21 17:43:54.518
144.0, 10341.436903648008, 14131.89043186789, -187500.02235174447, -54417.221774723745, -1022.9722884860383, -13233.640877442465, -187500.02235174447, -24779.76975199816, -15946.62856419427, 26819.16526784483, -43205.54205245281, -187500.02235174447, -16723.686960183022, -36812.9878417239, -187500.02235174447, -1442.5592354010626, 0.15, 0.984, 0.182, 192.0, 0.0, 0.0, 0.0, 0.0, 0.0, 0.0, 0.0, 0.0, 0.0, 1.695336234518818E9, 0.0, 2023-09-21 17:43:54.518
146.0, 10351.271671208344, 14150.889414654901, -187500.02235174447, -54410.60565836498, -1031.10832346777, -13226.175394794393, -187500.02235174447, -24773.533615295128, -15932.904593098712, 26841.69582625578, -43197.94245933801, -187500.02235174447, -16713.516916455857, -36804.3377166197, -187500.02235174447, -1423.1802729583112, 0.15, 0.984, 0.182, 192.0, 0.0, 0.0, 0.0, 0.0, 0.0, 0.0, 0.0, 0.0, 0.0, 1.695336234518822E9, 0.0, 2023-09-21 17:43:54.518
148.0, 10354.356211943175, 14141.836958150501, -187500.02235174447, -54414.53956538911, -1019.4630646065551, -13237.217156555314, -187500.02235174447, -24781.848464232502, -15931.787005875947, 26844.735663501702, -43199.88706110562, -187500.02235174447, -16713.6957304115, -36796.514606060344, -187500.02235174447, -1420.6768775793169, 0.15, 0.99, 0.18, 192.0, 2.0, 88.0, 15.0, 120.0, 2.5, 80.0, 0.0, 0.0, 0.0, 1.695336234518825E9, 0.0, 2023-09-21 17:43:54.518
150.0, 10361.084087024223, 14152.677554211326, -187500.02235174447, -54402.603733849974, -1027.1520646991808, -13223.716702904308, -187500.02235174447, -24774.47238856225, -15926.847270351323, 26856.17975666282, -43199.26121226087, -187500.02235174447, -16709.78417513182, -36793.51947230333, -187500.02235174447, -1411.7808832861047, 0.15, 0.99, 0.18, 192.0, 0.0, 0.0, 0.0, 0.0, 0.0, 0.0, 0.0, 0.0, 0.0, 1.695336234579045E9, 0.0, 2023-09-21 17:43:54.579
152.0, 10340.632240847617, 14122.368588729929, -187500.02235174447, -54426.54245216161, -1036.3162799258566, -13247.90129040495, -187500.02235174447, -24802.00973773119, -15930.647066908727, 26835.8843726974, -43210.66060193308, -187500.02235174447, -16716.489698468413, -36799.442684583984, -187500.02235174447, -1418.866386278437, 0.15, 0.99, 0.18, 192.0, 0.0, 0.0, 0.0, 0.0, 0.0, 0.0, 0.0, 0.0, 0.0, 1.695336234579072E9, 0.0, 2023-09-21 17:43:54.579
154.0, 10334.530214611319, 14117.518260183127, -187500.02235174447, -54439.88644360143, -1057.9974720475045, -13252.23752882928, -187500.02235174447, -24800.53452259714, -15960.844273667846, 26833.224515107217, -43242.93652092654, -187500.02235174447, -16745.055227882294, -36833.57379836724, -187500.02235174447, -1433.1715027298335, 0.15, 0.99, 0.18, 192.0, 0.0, 0.0, 0.0, 0.0, 0.0, 0.0, 0.0, 0.0, 0.0, 1.695336234579076E9, 0.0, 2023-09-21 17:43:54.579
156.0, 10348.52240664034, 14132.56098420155, -187500.02235174447, -54424.1955189938, -1024.6039658312757, -13242.089836846571, -187500.02235174447, -24784.10599042249, -15925.595572661827, 26833.49273604068, -43210.16886355506, -187500.02235174447, -16712.30992225527, -36809.590376566695, -187500.02235174447, -1410.1492059408672, 0.15, 0.99, 0.18, 192.0, 0.0, 0.0, 0.0, 0.0, 0.0, 0.0, 0.0, 0.0, 0.0, 1.69533623457908E9, 0.0, 2023-09-21 17:43:54.579
158.0, 10373.779877874837, 14152.297574555585, -187500.02235174447, -54412.86318455496, -1022.0335152189155, -13226.868298872507, -187500.02235174447, -24769.823225715547, -15918.554773158405, 26855.26333514015, -43207.55370945379, -187500.02235174447, -16714.36628274516, -36822.21911218394, -187500.02235174447, -1404.449511104764, 0.146, 0.984, 0.178, 192.0, 2.0, 72.0, 15.0, 96.0, 2.5, 72.0, 0.0, 0.0, 0.0, 1.695336234579083E9, 0.0, 2023-09-21 17:43:54.579
160.0, 10377.154991287589, 14155.672687968337, -187500.02235174447, -54404.30246642858, -1004.3085818658569, -13220.609810425021, -187500.02235174447, -24763.69884773479, -15883.797810530403, 26861.722989287733, -43169.4886886464, -187500.02235174447, -16683.789096330296, -36789.07147515672, -187500.02235174447, -1386.8586882184372, 0.146, 0.984, 0.178, 192.0, 0.0, 0.0, 0.0, 0.0, 0.0, 0.0, 0.0, 0.0, 0.0, 1.695336234579087E9, 0.0, 2023-09-21 17:43:54.579
162.0, 10365.599139404196, 14145.860272152457, -187500.02235174447, -54428.53175741813, -1032.3600211572673, -13240.346400779057, -187500.02235174447, -24791.124438181454, -15901.567447372372, 26865.16515793385, -43187.83947084421, -187500.02235174447, -16701.15640177207, -36804.985917208905, -187500.02235174447, -1398.772168013116, 0.146, 0.984, 0.178, 192.0, 0.0, 0.0, 0.0, 0.0, 0.0, 0.0, 0.0, 0.0, 0.0, 1.69533623457909E9, 0.0, 2023-09-21 17:43:54.579
164.0, 10335.089008222702, 14122.346236985475, -187500.02235174447, -54444.46855121476, -1056.3434429578117, -13248.43773227188, -187500.02235174447, -24804.28961566563, -15939.520709457483, 26819.50054401166, -43227.58087248574, -187500.02235174447, -16739.064960368272, -36824.32017616274, -187500.02235174447, -1434.3561451859648, 0.146, 0.984, 0.178, 192.0, 0.0, 0.0, 0.0, 0.0, 0.0, 0.0, 0.0, 0.0, 0.0, 1.695336234579094E9, 0.0, 2023-09-21 17:43:54.579
166.0, 10345.370810672142, 14128.157690543854, -187500.02235174447, -54444.848530870506, -1059.7185563705632, -13242.179243824392, -187500.02235174447, -24797.829961518048, -15959.726686445081, 26830.184677861296, -43251.29607335282, -187500.02235174447, -16755.44878905401, -36823.62727208463, -187500.02235174447, -1427.605918360462, 0.146, 0.984, 0.178, 192.0, 0.0, 0.0, 0.0, 0.0, 0.0, 0.0, 0.0, 0.0, 0.0, 1.695336234639416E9, 0.0, 2023-09-21 17:43:54.639
168.0, 10356.054944521778, 14151.291746055096, -187500.02235174447, -54414.76308283366, -1039.0655444938595, -13215.468909200301, -187500.02235174447, -24769.800873971093, -15935.586802433349, 26819.58995098948, -43227.98320388594, -187500.02235174447, -16732.337085287225, -36801.74491426288, -187500.02235174447, -1415.4689211212303, 0.15, 0.99, 0.178, 192.0, 2.0, 88.0, 15.0, 120.0, 2.5, 72.0, 0.0, 0.0, 0.0, 1.695336234639428E9, 0.0, 2023-09-21 17:43:54.639
170.0, 10369.689508639516, 14160.791237448602, -187500.02235174447, -54418.22760322424, -1016.8255587608289, -13221.660342414421, -187500.02235174447, -24781.13320840993, -15912.430395177651, 26872.049495226085, -43207.620764687155, -187500.02235174447, -16710.119451298648, -36783.41648380953, -187500.02235174447, -1386.5234120516077, 0.15, 0.99, 0.178, 192.0, 0.0, 0.0, 0.0, 0.0, 0.0, 0.0, 0.0, 0.0, 0.0, 1.695336234639432E9, 0.0, 2023-09-21 17:43:54.639
172.0, 10357.306642211275, 14147.357839030963, -187500.02235174447, -54422.16151024837, -1030.1919019451025, -13222.75557789273, -187500.02235174447, -24783.390734599918, -15918.510069669495, 26844.556849546057, -43214.192177557015, -187500.02235174447, -16717.294361268803, -36795.19585313748, -187500.02235174447, -1405.8129675165378, 0.15, 0.99, 0.178, 192.0, 0.0, 0.0, 0.0, 0.0, 0.0, 0.0, 0.0, 0.0, 0.0, 1.695336234639436E9, 0.0, 2023-09-21 17:43:54.639
174.0, 10378.831372121736, 14158.243138580698, -187500.02235174447, -54414.24899271119, -1014.0986459372814, -13221.325066247591, -187500.02235174447, -24777.132246152432, -15910.597552132316, 26853.87752698392, -43209.94534611051, -187500.02235174447, -16713.986303089416, -36793.27360311432, -187500.02235174447, -1395.709979022739, 0.15, 0.99, 0.178, 192.0, 0.0, 0.0, 0.0, 0.0, 0.0, 0.0, 0.0, 0.0, 0.0, 1.69533623463944E9, 0.0, 2023-09-21 17:43:54.639
176.0, 10341.839235048205, 14124.916687597835, -187500.02235174447, -54448.96125185028, -1047.3803934312336, -13254.517406763722, -187500.02235174447, -24812.023319247168, -15918.420662691673, 26839.348893087972, -43214.90743337959, -187500.02235174447, -16718.233134535927, -36805.85763524266, -187500.02235174447, -1411.80323503056, 0.15, 0.99, 0.178, 192.0, 0.0, 0.0, 0.0, 0.0, 0.0, 0.0, 0.0, 0.0, 0.0, 1.695336234639443E9, 0.0, 2023-09-21 17:43:54.639
178.0, 10356.971366044447, 14137.433664492806, -187500.02235174447, -54444.53560644813, -1042.01597476196, -13244.481473503289, -187500.02235174447, -24804.535484854638, -15948.215538050597, 26826.96602665973, -43247.20570411751, -187500.02235174447, -16746.128111616148, -36839.38525192562, -187500.02235174447, -1436.3230986980318, 0.154, 0.996, 0.17200000000000001, 192.0, 2.0, 104.0, 15.5, 16.0, 2.5, 48.0, 0.0, 0.0, 0.0, 1.695336234639447E9, 0.0, 2023-09-21 17:43:54.639
180.0, 10368.10253478319, 14160.746533959691, -187500.02235174447, -54417.154719490376, -1028.6049280887758, -13210.842098098052, -187500.02235174447, -24764.19058611281, -15911.357511443795, 26839.32654134352, -43213.342811267714, -187500.02235174447, -16706.699634396988, -36801.32023111823, -187500.02235174447, -1409.5233570961186, 0.154, 0.996, 0.17200000000000001, 192.0, 0.0, 0.0, 0.0, 0.0, 0.0, 0.0, 0.0, 0.0, 0.0, 1.695336234698957E9, 0.0, 2023-09-21 17:43:54.698
182.0, 10367.521389427351, 14146.41906576384, -187500.02235174447, -54432.01862955316, -1015.5068058379658, -13234.780816409686, -187500.02235174447, -24789.470409091762, -15905.456650907596, 26846.993189691686, -43216.762628169374, -187500.02235174447, -16701.335215727715, -36800.359106106655, -187500.02235174447, -1396.51464182313, 0.154, 0.996, 0.17200000000000001, 192.0, 0.0, 0.0, 0.0, 0.0, 0.0, 0.0, 0.0, 0.0, 0.0, 1.695336234698974E9, 0.0, 2023-09-21 17:43:54.698
184.0, 10356.949014299991, 14138.84182439349, -187500.02235174447, -54427.48122542873, -1024.8721867647394, -13229.841080885064, -187500.02235174447, -24780.39560084291, -15905.166078229677, 26845.786195491102, -43216.87438689165, -187500.02235174447, -16701.670491894543, -36798.66037352805, -187500.02235174447, -1405.477691349708, 0.154, 0.996, 0.17200000000000001, 192.0, 0.0, 0.0, 0.0, 0.0, 0.0, 0.0, 0.0, 0.0, 0.0, 1.695336234698978E9, 0.0, 2023-09-21 17:43:54.698
186.0, 10351.562243886263, 14128.515318455138, -187500.02235174447, -54445.4520279708, -1031.9576897570719, -13244.90615664794, -187500.02235174447, -24799.90867375239, -15921.48285168205, 26832.10692788445, -43236.61097724569, -187500.02235174447, -16718.68016942503, -36812.9878417239, -187500.02235174447, -1410.193909429778, 0.154, 0.996, 0.17200000000000001, 192.0, 0.0, 0.0, 0.0, 0.0, 0.0, 0.0, 0.0, 0.0, 0.0, 1.695336234698982E9, 0.0, 2023-09-21 17:43:54.698
188.0, 10334.306697166765, 14120.245173006675, -187500.02235174447, -54455.5550164646, -1066.5581901738872, -13251.365810795523, -187500.02235174447, -24814.86199079299, -15932.994000076533, 26822.45097427976, -43250.334948341246, -187500.02235174447, -16740.517823757866, -36818.21814992645, -187500.02235174447, -1422.9567555137583, 0.148, 0.992, 0.166, 192.0, 2.0, 80.0, 15.5, 0.0, 2.5, 24.0, 0.0, 0.0, 0.0, 1.695336234698986E9, 0.0, 2023-09-21 17:43:54.698
190.0, 10347.561281628763, 14128.805891133057, -187500.02235174447, -54455.01857459767, -1057.5504371583984, -13255.277366075203, -187500.02235174447, -24816.873647793967, -15940.258317024509, 26812.9291311418, -43262.58370430276, -187500.02235174447, -16752.766579719377, -36831.98682451091, -187500.02235174447, -1432.2997846960766, 0.148, 0.992, 0.166, 192.0, 0.0, 0.0, 0.0, 0.0, 0.0, 0.0, 0.0, 0.0, 0.0, 1.69533623469899E9, 0.0, 2023-09-21 17:43:54.698
192.0, 10347.293060695298, 14136.316077270041, -187500.02235174447, -54450.1011908175, -1069.9780070755492, -13241.843967657564, -187500.02235174447, -24796.488856850727, -15932.34579948733, 26826.854267937455, -43258.33687285625, -187500.02235174447, -16749.5032250289, -36828.09762097569, -187500.02235174447, -1426.3318689265095, 0.148, 0.992, 0.166, 192.0, 0.0, 0.0, 0.0, 0.0, 0.0, 0.0, 0.0, 0.0, 0.0, 1.695336234698993E9, 0.0, 2023-09-21 17:43:54.698
194.0, 10365.95676731548, 14156.85733042447, -187500.02235174447, -54429.2470132407, -1036.6515560926862, -13223.269668015202, -187500.02235174447, -24779.255661875686, -15913.458575422595, 26855.196279906784, -43229.79369518682, -187500.02235174447, -16728.13495732963, -36800.38145785111, -187500.02235174447, -1407.0423134615796, 0.148, 0.992, 0.166, 192.0, 0.0, 0.0, 0.0, 0.0, 0.0, 0.0, 0.0, 0.0, 0.0, 1.695336234698996E9, 0.0, 2023-09-21 17:43:54.698
196.0, 10358.647746878594, 14144.586222718504, -187500.02235174447, -54434.857301098986, -1057.3269197138452, -13219.358112735525, -187500.02235174447, -24776.171121140855, -15926.959029073601, 26857.900840985876, -43239.96373891398, -187500.02235174447, -16739.869623168663, -36810.19387366699, -187500.02235174447, -1395.6876272782836, 0.148, 0.992, 0.166, 192.0, 0.0, 0.0, 0.0, 0.0, 0.0, 0.0, 0.0, 0.0, 0.0, 1.695336234759303E9, 0.0, 2023-09-21 17:43:54.759
198.0, 10365.889712082115, 14143.222766306732, -187500.02235174447, -54429.023495796144, -1032.2259106905356, -13213.099624288037, -187500.02235174447, -24767.722161736747, -15917.705406869103, 26838.387768076394, -43240.32136682527, -187500.02235174447, -16728.26906779636, -36801.275527629325, -187500.02235174447, -1384.0423684170687, 0.14400000000000002, 1.0, 0.168, 192.0, 2.0, 64.0, 15.5, 32.0, 2.5, 32.0, 0.0, 0.0, 0.0, 1.695336234759318E9, 0.0, 2023-09-21 17:43:54.759
200.0, 10358.401877689586, 14132.248059779175, -187500.02235174447, -54441.0487343131, -1050.5990446327978, -13218.642856912955, -187500.02235174447, -24778.003964186188, -15921.214630748587, 26859.420759608838, -43249.37382332967, -187500.02235174447, -16729.610172463676, -36803.19777765248, -187500.02235174447, -1383.3941678278647, 0.14400000000000002, 1.0, 0.168, 192.0, 0.0, 0.0, 0.0, 0.0, 0.0, 0.0, 0.0, 0.0, 0.0, 1.695336234759322E9, 0.0, 2023-09-21 17:43:54.759
202.0, 10341.414551903552, 14113.629056647904, -187500.02235174447, -54461.902911889905, -1051.3590039442784, -13241.039304857171, -187500.02235174447, -24797.494685351216, -15931.71995064258, 26819.478192267205, -43259.23094263446, -187500.02235174447, -16742.21655633647, -36817.61465282615, -187500.02235174447, -1412.1161594529342, 0.14400000000000002, 1.0, 0.168, 192.0, 0.0, 0.0, 0.0, 0.0, 0.0, 0.0, 0.0, 0.0, 0.0, 1.695336234759328E9, 0.0, 2023-09-21 17:43:54.759
204.0, 10346.354287428176, 14119.820489862024, -187500.02235174447, -54464.87569390246, -1064.7029953840965, -13236.345438521557, -187500.02235174447, -24800.1545429414, -15938.492529212539, 26826.653102237357, -43268.015178205394, -187500.02235174447, -16752.632469252643, -36833.30557743378, -187500.02235174447, -1421.1686159573337, 0.14400000000000002, 1.0, 0.168, 192.0, 0.0, 0.0, 0.0, 0.0, 0.0, 0.0, 0.0, 0.0, 0.0, 1.695336234759332E9, 0.0, 2023-09-21 17:43:54.759
206.0, 10346.063714750257, 14127.174213787821, -187500.02235174447, -54455.97969960925, -1048.2297597205354, -13231.405702996935, -187500.02235174447, -24798.209941173787, -15918.510069669495, 26812.83972416398, -43249.843209963234, -187500.02235174447, -16738.03678012333, -36818.6428330711, -187500.02235174447, -1414.127816453912, 0.14400000000000002, 1.0, 0.168, 192.0, 0.0, 0.0, 0.0, 0.0, 0.0, 0.0, 0.0, 0.0, 0.0, 1.695336234759335E9, 0.0, 2023-09-21 17:43:54.759
208.0, 10359.2959474678, 14131.018713834133, -187500.02235174447, -54462.88638864594, -1065.0606232953814, -13242.782740924686, -187500.02235174447, -24810.972787257768, -15922.91336332719, 26845.585029791004, -43252.52541929787, -187500.02235174447, -16740.69663771351, -36818.754591793375, -187500.02235174447, -1407.1540721838562, 0.14400000000000002, 0.994, 0.17200000000000001, 192.0, 2.0, 64.0, 15.5, 8.0, 2.5, 48.0, 0.0, 0.0, 0.0, 1.695336234759339E9, 0.0, 2023-09-21 17:43:54.759
210.0, 10354.557377643274, 14129.878774866913, -187500.02235174447, -54451.59875769601, -1061.9984343050044, -13229.23758378477, -187500.02235174447, -24798.746383040714, -15917.258371979997, 26823.389747546884, -43249.284416351846, -187500.02235174447, -16744.652896482097, -36819.60395808268, -187500.02235174447, -1419.0675519785348, 0.14400000000000002, 0.994, 0.17200000000000001, 192.0, 0.0, 0.0, 0.0, 0.0, 0.0, 0.0, 0.0, 0.0, 0.0, 1.695336234819562E9, 0.0, 2023-09-21 17:43:54.819
212.0, 10360.480589923929, 14132.695094668281, -187500.02235174447, -54449.54239720612, -1054.9576348015828, -13223.113205804017, -187500.02235174447, -24789.962147469778, -15914.91143881219, 26833.55979127405, -43246.02106166137, -187500.02235174447, -16739.132015601637, -36812.42904811252, -187500.02235174447, -1397.3640081124317, 0.14400000000000002, 0.994, 0.17200000000000001, 192.0, 0.0, 0.0, 0.0, 0.0, 0.0, 0.0, 0.0, 0.0, 0.0, 1.695336234819578E9, 0.0, 2023-09-21 17:43:54.819
214.0, 10341.392200159098, 14118.568792172528, -187500.02235174447, -54452.11284781848, -1052.9906812895158, -13226.4212639834, -187500.02235174447, -24792.599653315505, -15913.592685889327, 26802.960253114732, -43242.780058715354, -187500.02235174447, -16731.577125975746, -36809.724487033425, -187500.02235174447, -1405.3435808829763, 0.14400000000000002, 0.994, 0.17200000000000001, 192.0, 0.0, 0.0, 0.0, 0.0, 0.0, 0.0, 0.0, 0.0, 0.0, 1.695336234819582E9, 0.0, 2023-09-21 17:43:54.819
216.0, 10350.467008407952, 14123.799100375069, -187500.02235174447, -54458.259577543686, -1053.1694952451583, -13232.61269719752, -187500.02235174447, -24802.56853134257, -15924.76855811698, 26810.895122396367, -43257.17458214457, -187500.02235174447, -16744.630544737644, -36821.48150461692, -187500.02235174447, -1405.5894500719846, 0.14400000000000002, 0.994, 0.17200000000000001, 192.0, 0.0, 0.0, 0.0, 0.0, 0.0, 0.0, 0.0, 0.0, 0.0, 1.695336234819586E9, 0.0, 2023-09-21 17:43:54.819
218.0, 10343.247394948889, 14137.523071470629, -187500.02235174447, -54443.84270237001, -1040.116076483259, -13213.725473132787, -187500.02235174447, -24780.686173520826, -15920.38761620374, 26791.49380820916, -43251.452535564014, -187500.02235174447, -16738.729684201444, -36813.636042313105, -187500.02235174447, -1406.282354150099, 0.14400000000000002, 0.996, 0.164, 192.0, 2.0, 64.0, 15.5, 16.0, 2.5, 16.0, 0.0, 0.0, 0.0, 1.695336234819589E9, 0.0, 2023-09-21 17:43:54.819
220.0, 10355.630261377128, 14128.314152755042, -187500.02235174447, -54439.953498834795, -1015.9761924715273, -13212.496127187746, -187500.02235174447, -24772.37132458345, -15907.870639308769, 26818.874695166913, -43241.14838137011, -187500.02235174447, -16720.289495025812, -36796.156978149054, -187500.02235174447, -1377.806231714038, 0.14400000000000002, 0.996, 0.164, 192.0, 0.0, 0.0, 0.0, 0.0, 0.0, 0.0, 0.0, 0.0, 0.0, 1.695336234819592E9, 0.0, 2023-09-21 17:43:54.819
222.0, 10333.949069255481, 14118.859364850447, -187500.02235174447, -54456.650251942905, -1049.6155678767643, -13226.063636072116, -187500.02235174447, -24789.917443980867, -15922.443976693628, 26787.78341862958, -43255.69936701052, -187500.02235174447, -16738.148538845606, -36811.557330078766, -187500.02235174447, -1388.736234752683, 0.14400000000000002, 0.996, 0.164, 192.0, 0.0, 0.0, 0.0, 0.0, 0.0, 0.0, 0.0, 0.0, 0.0, 1.695336234819596E9, 0.0, 2023-09-21 17:43:54.819
224.0, 10346.533101383819, 14123.173251530321, -187500.02235174447, -54455.48796123123, -1047.0227655199487, -13224.946048849351, -187500.02235174447, -24787.27993813514, -15934.469215210584, 26791.40440123134, -43262.96368395849, -187500.02235174447, -16745.435207538034, -36821.615615083654, -187500.02235174447, -1397.6545807903506, 0.14400000000000002, 0.996, 0.164, 192.0, 0.0, 0.0, 0.0, 0.0, 0.0, 0.0, 0.0, 0.0, 0.0, 1.695336234819599E9, 0.0, 2023-09-21 17:43:54.819
226.0, 10348.947089784991, 14138.215975548743, -187500.02235174447, -54434.18674876532, -1038.6185096047532, -13196.13465024646, -187500.02235174447, -24762.26833608965, -15910.105813754299, 26796.59000594497, -43238.98026215795, -187500.02235174447, -16723.865774138663, -36799.71090551745, -187500.02235174447, -1398.995685457669, 0.14400000000000002, 0.996, 0.164, 192.0, 0.0, 0.0, 0.0, 0.0, 0.0, 0.0, 0.0, 0.0, 0.0, 1.695336234879852E9, 0.0, 2023-09-21 17:43:54.879
228.0, 10332.04917097678, 14105.202448988253, -187500.02235174447, -54474.86692367398, -1047.760373086974, -13238.982944367284, -187500.02235174447, -24798.43345861834, -15912.139822499732, 26812.325634041506, -43247.78684947334, -187500.02235174447, -16728.31377128527, -36815.178312680524, -187500.02235174447, -1390.2785051200992, 0.152, 0.99, 0.16, 192.0, 2.0, 96.0, 15.0, 120.0, 2.5, 0.0, 0.0, 0.0, 0.0, 1.695336234879868E9, 0.0, 2023-09-21 17:43:54.879
230.0, 10324.85190926217, 14112.22089674722, -187500.02235174447, -54473.92815040686, -1068.5251436859542, -13234.736112920775, -187500.02235174447, -24796.220635917263, -15925.14853777272, 26779.49092143666, -43269.199820661524, -187500.02235174447, -16749.480873284447, -36843.65443511659, -187500.02235174447, -1416.0053629881577, 0.152, 0.99, 0.16, 192.0, 0.0, 0.0, 0.0, 0.0, 0.0, 0.0, 0.0, 0.0, 0.0, 1.695336234879872E9, 0.0, 2023-09-21 17:43:54.879
232.0, 10356.1443514996, 14137.098388325978, -187500.02235174447, -54455.71147867578, -1046.888655053217, -13225.683656416377, -187500.02235174447, -24790.09625793651, -15909.547020142916, 26786.24114826216, -43254.1570966431, -187500.02235174447, -16734.348742288203, -36837.15007748009, -187500.02235174447, -1402.9072407373478, 0.152, 0.99, 0.16, 192.0, 0.0, 0.0, 0.0, 0.0, 0.0, 0.0, 0.0, 0.0, 0.0, 1.695336234879876E9, 0.0, 2023-09-21 17:43:54.879
234.0, 10370.695337140005, 14168.681403241326, -187500.02235174447, -54432.35390571999, -1045.8828265527281, -13201.029682282173, -187500.02235174447, -24767.409237314372, -15879.729793039536, 26808.347023528462, -43222.5517299833, -187500.02235174447, -16710.141803043105, -36803.75657126386, -187500.02235174447, -1387.5068888076412, 0.152, 0.99, 0.16, 192.0, 0.0, 0.0, 0.0, 0.0, 0.0, 0.0, 0.0, 0.0, 0.0, 1.695336234879879E9, 0.0, 2023-09-21 17:43:54.879
236.0, 10376.707956398483, 14168.033202652123, -187500.02235174447, -54439.70762964578, -1019.1948436730914, -13204.47185092829, -187500.02235174447, -24769.733818737725, -15870.47617083504, 26826.96602665973, -43216.94144212502, -187500.02235174447, -16704.151535529083, -36792.178367636014, -187500.02235174447, -1376.4204235578088, 0.152, 0.99, 0.16, 192.0, 0.0, 0.0, 0.0, 0.0, 0.0, 0.0, 0.0, 0.0, 0.0, 1.695336234879883E9, 0.0, 2023-09-21 17:43:54.879
238.0, 10350.399953174587, 14144.072132596033, -187500.02235174447, -54461.23235955624, -1050.3978789327, -13214.932467333374, -187500.02235174447, -24773.80183622859, -15888.603435588293, 26813.890256153376, -43239.58375925825, -187500.02235174447, -16719.44012873651, -36804.203606152965, -187500.02235174447, -1382.8130224720267, 0.15, 0.996, 0.16, 192.0, 2.0, 88.0, 15.5, 16.0, 2.5, 0.0, 0.0, 0.0, 0.0, 1.695336234879886E9, 0.0, 2023-09-21 17:43:54.879
240.0, 10339.581708858217, 14124.849632364469, -187500.02235174447, -54483.360586566996, -1060.143239515214, -13234.981982109784, -187500.02235174447, -24790.63269980344, -15915.425528934662, 26781.72609588219, -43265.66824503759, -187500.02235174447, -16742.149501103104, -36830.779830310326, -187500.02235174447, -1398.481595335197, 0.15, 0.996, 0.16, 192.0, 0.0, 0.0, 0.0, 0.0, 0.0, 0.0, 0.0, 0.0, 0.0, 1.695336234938729E9, 0.0, 2023-09-21 17:43:54.938
242.0, 10343.76148507136, 14139.400618004873, -187500.02235174447, -54465.07685960256, -1069.5756756753535, -13204.605961395022, -187500.02235174447, -24769.309135593074, -15922.443976693628, 26781.659040648825, -43271.36793987369, -187500.02235174447, -16749.413818051078, -36829.95281576548, -187500.02235174447, -1400.89558373637, 0.15, 0.996, 0.16, 192.0, 0.0, 0.0, 0.0, 0.0, 0.0, 0.0, 0.0, 0.0, 0.0, 1.695336234938761E9, 0.0, 2023-09-21 17:43:54.938
244.0, 10348.09772349569, 14142.507510484162, -187500.02235174447, -54455.37620250895, -1052.5659981448648, -13197.98984503625, -187500.02235174447, -24771.298440849598, -15911.402214932707, 26791.8737878649, -43259.208590890004, -187500.02235174447, -16735.55573648879, -36802.527225318816, -187500.02235174447, -1380.3319788374877, 0.15, 0.996, 0.16, 192.0, 0.0, 0.0, 0.0, 0.0, 0.0, 0.0, 0.0, 0.0, 0.0, 1.695336234938765E9, 0.0, 2023-09-21 17:43:54.938
246.0, 10358.468932922951, 14157.729048458224, -187500.02235174447, -54438.143007533916, -1054.9576348015828, -13180.242559938737, -187500.02235174447, -24751.092463861998, -15902.819145061869, 26821.176924845808, -43246.95983492849, -187500.02235174447, -16724.178698561038, -36785.02580941031, -187500.02235174447, -1362.9423216512587, 0.15, 0.996, 0.16, 192.0, 0.0, 0.0, 0.0, 0.0, 0.0, 0.0, 0.0, 0.0, 0.0, 1.695336234938768E9, 0.0, 2023-09-21 17:43:54.938
248.0, 10355.362040443664, 14142.596917461982, -187500.02235174447, -54449.050658828106, -1042.239492206513, -13193.22892346727, -187500.02235174447, -24760.547251766595, -15900.874543294258, 26818.181791088795, -43242.26596859288, -187500.02235174447, -16725.050416594793, -36789.00441992336, -187500.02235174447, -1358.0249378710912, 0.146, 1.0, 0.166, 192.0, 2.0, 72.0, 15.5, 32.0, 2.5, 24.0, 0.0, 0.0, 0.0, 1.695336234938772E9, 0.0, 2023-09-21 17:43:54.938
250.0, 10357.32899395573, 14147.80487392007, -187500.02235174447, -54445.94376634881, -1051.3590039442784, -13184.243522196237, -187500.02235174447, -24749.550193494582, -15902.215647961575, 26810.179866573795, -43248.39034657364, -187500.02235174447, -16736.06982661126, -36809.47861784442, -187500.02235174447, -1358.4719727601973, 0.146, 1.0, 0.166, 192.0, 0.0, 0.0, 0.0, 0.0, 0.0, 0.0, 0.0, 0.0, 0.0, 1.695336234938775E9, 0.0, 2023-09-21 17:43:54.938
252.0, 10343.13563622661, 14127.800062632568, -187500.02235174447, -54464.24984505771, -1047.8721318092505, -13205.90236257343, -187500.02235174447, -24770.180853626833, -15897.38767115923, 26801.082706580488, -43233.01234638839, -187500.02235174447, -16725.07276833925, -36801.52139681833, -187500.02235174447, -1357.5555512375297, 0.146, 1.0, 0.166, 192.0, 0.0, 0.0, 0.0, 0.0, 0.0, 0.0, 0.0, 0.0, 0.0, 1.695336234938778E9, 0.0, 2023-09-21 17:43:54.938
254.0, 10354.423267176542, 14137.478367981717, -187500.02235174447, -54454.03509784164, -1047.626262620242, -13194.257103712214, -187500.02235174447, -24758.915574421357, -15910.284627709942, 26798.15462805684, -43246.71396573949, -187500.02235174447, -16737.34387604521, -36827.78469655332, -187500.02235174447, -1380.1084613929345, 0.146, 1.0, 0.166, 192.0, 0.0, 0.0, 0.0, 0.0, 0.0, 0.0, 0.0, 0.0, 0.0, 1.695336234938782E9, 0.0, 2023-09-21 17:43:54.938
0.0, 10353.819770076248, 14137.120740070432, -187500.02235174447, -54445.899062859906, -1034.3493264137896, -13189.65264435442, -187500.02235174447, -24754.378170296928, -15882.300243651896, 26801.395631002863, -43224.69749745101, -187500.02235174447, -16712.846364122197, -36808.20456841047, -187500.02235174447, -1368.999644398647, 0.146, 1.0, 0.166, 192.0, 0.0, 0.0, 0.0, 0.0, 0.0, 0.0, 0.0, 0.0, 0.0, 1.69533623499912E9, 0.0, 2023-09-21 17:43:54.999
2.0, 10372.818752863259, 14157.99726939169, -187500.02235174447, -54437.40539996689, -1036.696259581597, -13180.46607738329, -187500.02235174447, -24748.410254527364, -15872.532531324929, 26827.41306154884, -43224.49633175091, -187500.02235174447, -16709.717119898454, -36799.91207121755, -187500.02235174447, -1356.5050192481303, 0.148, 0.996, 0.164, 192.0, 2.0, 80.0, 15.5, 16.0, 2.5, 16.0, 0.0, 0.0, 0.0, 1.695336234999135E9, 0.0, 2023-09-21 17:43:54.999
4.0, 10356.926662555536, 14141.23346105021, -187500.02235174447, -54458.01370835468, -1049.4814574100326, -13202.99663579424, -187500.02235174447, -24773.42185657285, -15872.733697025025, 26805.508351982637, -43230.84422717622, -187500.02235174447, -16717.62963743563, -36803.84597824168, -187500.02235174447, -1360.9083129058258, 0.148, 0.996, 0.164, 192.0, 0.0, 0.0, 0.0, 0.0, 0.0, 0.0, 0.0, 0.0, 0.0, 1.695336234999139E9, 0.0, 2023-09-21 17:43:54.999
6.0, 10371.142372029111, 14149.436551265306, -187500.02235174447, -54460.38299326694, -1051.5154661554654, -13205.410624195412, -187500.02235174447, -24772.594842028004, -15891.375051900752, 26815.0301951206, -43251.27372160837, -187500.02235174447, -16743.155329603593, -36825.92950176352, -187500.02235174447, -1378.3650253254207, 0.148, 0.996, 0.164, 192.0, 0.0, 0.0, 0.0, 0.0, 0.0, 0.0, 0.0, 0.0, 0.0, 1.695336234999143E9, 0.0, 2023-09-21 17:43:54.999
8.0, 10366.850837093692, 14149.615365220949, -187500.02235174447, -54450.503522217696, -1048.1403527427142, -13199.733281103765, -187500.02235174447, -24765.352876824487, -15870.18559815712, 26804.39076475987, -43217.16495956957, -187500.02235174447, -16722.569372960257, -36800.96260320695, -187500.02235174447, -1376.5321822800854, 0.148, 0.996, 0.164, 192.0, 0.0, 0.0, 0.0, 0.0, 0.0, 0.0, 0.0, 0.0, 0.0, 1.695336234999146E9, 0.0, 2023-09-21 17:43:54.999
10.0, 10368.080183038734, 14140.89818488338, -187500.02235174447, -54464.24984505771, -1061.30553022689, -13205.969417806795, -187500.02235174447, -24771.56666178306, -15897.521781625961, 26806.64829094986, -43240.74604996992, -187500.02235174447, -16748.720913972964, -36830.51160937687, -187500.02235174447, -1380.1308131373899, 0.148, 0.996, 0.164, 192.0, 0.0, 0.0, 0.0, 0.0, 0.0, 0.0, 0.0, 0.0, 0.0, 1.69533623499915E9, 0.0, 2023-09-21 17:43:54.999
12.0, 10355.071467765745, 14132.382170245906, -187500.02235174447, -54452.13519956294, -1068.3910332192222, -13196.84990606903, -187500.02235174447, -24763.117702378953, -15883.283720407931, 26797.528779212094, -43226.217416073974, -187500.02235174447, -16731.17479457555, -36813.23371091291, -187500.02235174447, -1368.351443809443, 0.146, 0.998, 0.166, 192.0, 2.0, 72.0, 15.5, 24.0, 2.5, 24.0, 0.0, 0.0, 0.0, 1.695336234999153E9, 0.0, 2023-09-21 17:43:54.999
14.0, 10362.939281814013, 14130.884603367402, -187500.02235174447, -54441.562824435576, -1055.047041779404, -13188.266836198192, -187500.02235174447, -24756.367475553452, -15893.520819368461, 26808.324671784005, -43240.6566429921, -187500.02235174447, -16733.63348646563, -36816.653527814575, -187500.02235174447, -1355.1415628363566, 0.146, 0.998, 0.166, 192.0, 0.0, 0.0, 0.0, 0.0, 0.0, 0.0, 0.0, 0.0, 0.0, 1.695336235059317E9, 0.0, 2023-09-21 17:43:55.059
16.0, 10347.114246739657, 14129.141167299887, -187500.02235174447, -54444.133275047934, -1058.9362453146275, -13184.399984407424, -187500.02235174447, -24752.7911964406, -15886.032984975933, 26804.25665429314, -43236.901549923605, -187500.02235174447, -16719.529535714333, -36809.23274865541, -187500.02235174447, -1352.4593535017198, 0.146, 0.998, 0.166, 192.0, 0.0, 0.0, 0.0, 0.0, 0.0, 0.0, 0.0, 0.0, 0.0, 1.695336235059333E9, 0.0, 2023-09-21 17:43:55.059
18.0, 10351.606947375172, 14125.743702142681, -187500.02235174447, -54454.973871108756, -1057.0810505248369, -13187.104545486516, -187500.02235174447, -24748.589068483005, -15896.538304869928, 26808.88346539539, -43248.63621576264, -187500.02235174447, -16722.36820726016, -36818.77694353783, -187500.02235174447, -1351.3641180234097, 0.146, 0.998, 0.166, 192.0, 0.0, 0.0, 0.0, 0.0, 0.0, 0.0, 0.0, 0.0, 0.0, 1.695336235059337E9, 0.0, 2023-09-21 17:43:55.059
20.0, 10332.071522721235, 14114.07609153701, -187500.02235174447, -54467.22262707027, -1068.726309386052, -13196.738147346754, -187500.02235174447, -24758.602649998982, -15883.574293085849, 26793.214892532218, -43239.47200053597, -187500.02235174447, -16711.68407341052, -36818.91105400456, -187500.02235174447, -1359.03076637158, 0.146, 0.998, 0.166, 192.0, 0.0, 0.0, 0.0, 0.0, 0.0, 0.0, 0.0, 0.0, 0.0, 1.695336235059341E9, 0.0, 2023-09-21 17:43:55.059
22.0, 10318.839290003692, 14091.41142265933, -187500.02235174447, -54500.97376119778, -1085.5348212164429, -13240.033476356683, -187500.02235174447, -24803.104973209498, -15906.48483115254, 26782.262537749117, -43263.58953280324, -187500.02235174447, -16736.78508243383, -36850.762289853374, -187500.02235174447, -1381.5613247825295, 0.146, 0.994, 0.168, 192.0, 2.0, 72.0, 15.5, 8.0, 2.5, 32.0, 0.0, 0.0, 0.0, 1.695336235059351E9, 0.0, 2023-09-21 17:43:55.059
24.0, 10316.961743469446, 14098.429870418297, -187500.02235174447, -54489.97670292577, -1105.3831702927555, -13224.767234893709, -187500.02235174447, -24788.486932335727, -15918.398310947217, 26756.803900814524, -43271.97143697398, -187500.02235174447, -16747.580975005745, -36856.23846724492, -187500.02235174447, -1400.9402872252808, 0.146, 0.994, 0.168, 192.0, 0.0, 0.0, 0.0, 0.0, 0.0, 0.0, 0.0, 0.0, 0.0, 1.695336235059354E9, 0.0, 2023-09-21 17:43:55.059
26.0, 10344.56614787175, 14120.759263129148, -187500.02235174447, -54459.64538569992, -1078.3152077573786, -13194.860600812508, -187500.02235174447, -24760.18962385531, -15895.353662413796, 26790.06329656402, -43256.79460248883, -187500.02235174447, -16727.12912882914, -36825.97420525244, -187500.02235174447, -1383.125946894401, 0.146, 0.994, 0.168, 192.0, 0.0, 0.0, 0.0, 0.0, 0.0, 0.0, 0.0, 0.0, 0.0, 1.695336235059358E9, 0.0, 2023-09-21 17:43:55.059
28.0, 10336.273650678831, 14126.011923076145, -187500.02235174447, -54448.335403005534, -1078.851649624306, -13177.627405837466, -187500.02235174447, -24749.617248727947, -15880.825028517847, 26808.25761655064, -43244.21057036049, -187500.02235174447, -16710.320616998746, -36794.055914170254, -187500.02235174447, -1362.8305629289823, 0.146, 0.994, 0.168, 192.0, 0.0, 0.0, 0.0, 0.0, 0.0, 0.0, 0.0, 0.0, 0.0, 1.695336235059361E9, 0.0, 2023-09-21 17:43:55.059
30.0, 10329.702237808971, 14109.583390901495, -187500.02235174447, -54466.75324043671, -1075.7000536561077, -13195.508801401711, -187500.02235174447, -24766.492815791706, -15898.974645015556, 26805.754221171646, -43261.46611707999, -187500.02235174447, -16722.92700087154, -36806.55053932077, -187500.02235174447, -1357.7790686820829, 0.146, 0.994, 0.168, 192.0, 0.0, 0.0, 0.0, 0.0, 0.0, 0.0, 0.0, 0.0, 0.0, 1.69533623511955E9, 0.0, 2023-09-21 17:43:55.119
32.0, 10363.43102019203, 14157.147903102388, -187500.02235174447, -54429.26936498516, -1061.0149575489709, -13146.580832789045, -187500.02235174447, -24721.074071058523, -15881.786153529425, 26799.65219493535, -43239.2037796025, -187500.02235174447, -16710.678244910032, -36798.4368560835, -187500.02235174447, -1356.616777970407, 0.148, 1.0, 0.166, 192.0, 2.0, 80.0, 15.5, 32.0, 2.5, 24.0, 0.0, 0.0, 0.0, 1.695336235119569E9, 0.0, 2023-09-21 17:43:55.119
34.0, 10353.260976464866, 14128.18004228831, -187500.02235174447, -54468.4072695264, -1058.042175536415, -13187.484525142256, -187500.02235174447, -24751.897126662392, -15859.546167796394, 26820.059337623043, -43208.045447831806, -187500.02235174447, -16694.719099368944, -36793.54182404779, -187500.02235174447, -1337.7966091390383, 0.148, 1.0, 0.166, 192.0, 0.0, 0.0, 0.0, 0.0, 0.0, 0.0, 0.0, 0.0, 0.0, 1.695336235119573E9, 0.0, 2023-09-21 17:43:55.119
36.0, 10362.156970758078, 14141.278164539119, -187500.02235174447, -54466.73088869225, -1073.1296030437475, -13179.974339005274, -187500.02235174447, -24743.358760280462, -15875.326499381841, 26800.54626471356, -43213.65573569009, -187500.02235174447, -16715.506221712378, -36824.49899011839, -187500.02235174447, -1361.2435890726554, 0.148, 1.0, 0.166, 192.0, 0.0, 0.0, 0.0, 0.0, 0.0, 0.0, 0.0, 0.0, 0.0, 1.695336235119576E9, 0.0, 2023-09-21 17:43:55.119
38.0, 10362.648709136094, 14128.22474577722, -187500.02235174447, -54476.0068626412, -1050.9566725440827, -13192.357205433513, -187500.02235174447, -24751.38303653992, -15865.13410391022, 26796.902930367345, -43191.192232512505, -187500.02235174447, -16707.5937041752, -36825.23659768541, -187500.02235174447, -1353.8898651468594, 0.148, 1.0, 0.166, 192.0, 0.0, 0.0, 0.0, 0.0, 0.0, 0.0, 0.0, 0.0, 0.0, 1.69533623511958E9, 0.0, 2023-09-21 17:43:55.119
40.0, 10372.751697629894, 14149.637716965404, -187500.02235174447, -54451.688164673826, -1049.1461812432028, -13161.221225407271, -187500.02235174447, -24721.163478036342, -15859.702630007581, 26801.529741469592, -43174.85310731568, -187500.02235174447, -16696.350776714182, -36816.31825164775, -187500.02235174447, -1347.3631557659098, 0.148, 1.0, 0.166, 192.0, 0.0, 0.0, 0.0, 0.0, 0.0, 0.0, 0.0, 0.0, 0.0, 1.695336235119584E9, 0.0, 2023-09-21 17:43:55.119
42.0, 10353.395086931598, 14117.138280527388, -187500.02235174447, -54475.02338588517, -1046.0616405083706, -13185.986958263751, -187500.02235174447, -24745.593934725995, -15866.229339388532, 26801.149761813853, -43177.84824107269, -187500.02235174447, -16693.53445691281, -36809.07628644422, -187500.02235174447, -1338.6683271727952, 0.146, 0.99, 0.168, 192.0, 2.0, 72.0, 15.0, 120.0, 2.5, 32.0, 0.0, 0.0, 0.0, 1.695336235119587E9, 0.0, 2023-09-21 17:43:55.119
44.0, 10332.250336676876, 14097.491097151173, -187500.02235174447, -54487.94269418034, -1061.4396406936219, -13189.250312954226, -187500.02235174447, -24753.685266218814, -15900.069880493866, 26788.565729685513, -43209.02892458784, -187500.02235174447, -16718.12137581365, -36841.30750194877, -187500.02235174447, -1347.7431354216499, 0.146, 0.99, 0.168, 192.0, 0.0, 0.0, 0.0, 0.0, 0.0, 0.0, 0.0, 0.0, 0.0, 1.695336235179875E9, 0.0, 2023-09-21 17:43:55.179
46.0, 10324.695447050983, 14095.635902361382, -187500.02235174447, -54492.0107116712, -1048.2521114649905, -13189.451478654324, -187500.02235174447, -24746.063321359554, -15893.632578090737, 26761.29660145004, -43198.97063958295, -187500.02235174447, -16704.598570418188, -36837.70887109147, -187500.02235174447, -1361.5341617505744, 0.146, 0.99, 0.168, 192.0, 0.0, 0.0, 0.0, 0.0, 0.0, 0.0, 0.0, 0.0, 0.0, 1.695336235179887E9, 0.0, 2023-09-21 17:43:55.179
48.0, 10334.2396419334, 14104.911876310334, -187500.02235174447, -54500.79494724214, -1061.238474993524, -13192.93835078935, -187500.02235174447, -24749.237269072208, -15908.563543386883, 26760.111958993908, -43211.666430433565, -187500.02235174447, -16723.575201460746, -36862.38519697013, -187500.02235174447, -1367.4350222867754, 0.146, 0.99, 0.168, 192.0, 0.0, 0.0, 0.0, 0.0, 0.0, 0.0, 0.0, 0.0, 0.0, 1.695336235179891E9, 0.0, 2023-09-21 17:43:55.179
50.0, 10345.99665951689, 14123.03914106359, -187500.02235174447, -54487.67447324687, -1047.7156695980632, -13187.730394331265, -187500.02235174447, -24749.639600472405, -15875.95234822659, 26782.888386593866, -43174.85310731568, -187500.02235174447, -16702.117526783648, -36828.611711098165, -187500.02235174447, -1354.5827692249738, 0.146, 0.99, 0.168, 192.0, 0.0, 0.0, 0.0, 0.0, 0.0, 0.0, 0.0, 0.0, 0.0, 1.695336235179894E9, 0.0, 2023-09-21 17:43:55.179
52.0, 10362.134619013623, 14138.104216826465, -187500.02235174447, -54481.72890922176, -1054.5329516569318, -13184.869371040986, -187500.02235174447, -24752.142995851398, -15890.61509258927, 26800.59096820247, -43191.08047379023, -187500.02235174447, -16723.150518316095, -36846.82838282924, -187500.02235174447, -1355.6556529588286, 0.15, 0.986, 0.17, 192.0, 2.0, 88.0, 15.0, 104.0, 2.5, 40.0, 0.0, 0.0, 0.0, 1.695336235179897E9, 0.0, 2023-09-21 17:43:55.179
54.0, 10369.689508639516, 14151.649373966382, -187500.02235174447, -54455.24209204222, -1030.4377711341108, -13165.445705109323, -187500.02235174447, -24731.04294908559, -15853.846472960291, 26797.9758141012, -43151.1826099375, -187500.02235174447, -16692.886256323607, -36809.322155633236, -187500.02235174447, -1340.0541353290243, 0.15, 0.986, 0.17, 192.0, 0.0, 0.0, 0.0, 0.0, 0.0, 0.0, 0.0, 0.0, 0.0, 1.695336235179901E9, 0.0, 2023-09-21 17:43:55.179
56.0, 10374.428078464041, 14141.635792450405, -187500.02235174447, -54467.759068937194, -1036.9197770261499, -13175.615748836488, -187500.02235174447, -24746.28683880411, -15861.222548630543, 26812.504447997148, -43161.44206064249, -187500.02235174447, -16700.910532583064, -36821.123876705635, -187500.02235174447, -1331.2698997580887, 0.15, 0.986, 0.17, 192.0, 0.0, 0.0, 0.0, 0.0, 0.0, 0.0, 0.0, 0.0, 0.0, 1.695336235179904E9, 0.0, 2023-09-21 17:43:55.179
58.0, 10349.304717696275, 14122.83797536349, -187500.02235174447, -54483.360586566996, -1063.1160215277698, -13188.5127053872, -187500.02235174447, -24761.150748866887, -15854.651135760681, 26800.322747269005, -43160.90561877556, -187500.02235174447, -16701.089346538705, -36815.312423147254, -187500.02235174447, -1348.1454668218455, 0.15, 0.986, 0.17, 192.0, 0.0, 0.0, 0.0, 0.0, 0.0, 0.0, 0.0, 0.0, 0.0, 1.695336235179907E9, 0.0, 2023-09-21 17:43:55.179
60.0, 10352.411610175564, 14121.586277673994, -187500.02235174447, -54501.040816431145, -1074.6942251556188, -13205.500031173235, -187500.02235174447, -24774.248871117696, -15879.662737806171, 26784.9223953393, -43192.33217147973, -187500.02235174447, -16725.63156195063, -36850.695234620005, -187500.02235174447, -1362.4952867621525, 0.15, 0.986, 0.17, 192.0, 0.0, 0.0, 0.0, 0.0, 0.0, 0.0, 0.0, 0.0, 0.0, 1.695336235239181E9, 0.0, 2023-09-21 17:43:55.239
62.0, 10344.09676123819, 14122.815623619035, -187500.02235174447, -54507.23224964527, -1083.9925508490267, -13213.457252199323, -187500.02235174447, -24784.642432289416, -15881.920263996157, 26767.15275849733, -43188.15239526658, -187500.02235174447, -16725.855079395187, -36859.03243530184, -187500.02235174447, -1368.865533931915, 0.146, 0.98, 0.168, 192.0, 2.0, 72.0, 15.0, 80.0, 2.5, 32.0, 0.0, 0.0, 0.0, 1.695336235239191E9, 0.0, 2023-09-21 17:43:55.239
64.0, 10369.130715028134, 14146.352010530474, -187500.02235174447, -54496.39165358444, -1063.6524633946972, -13203.51072591671, -187500.02235174447, -24774.494740306705, -15871.996089458, 26776.652249890834, -43178.36233119516, -187500.02235174447, -16719.88716362562, -36856.41728120056, -187500.02235174447, -1367.2785600755883, 0.146, 0.98, 0.168, 192.0, 0.0, 0.0, 0.0, 0.0, 0.0, 0.0, 0.0, 0.0, 0.0, 1.695336235239195E9, 0.0, 2023-09-21 17:43:55.239
66.0, 10369.041308050313, 14159.651298481382, -187500.02235174447, -54484.902856934415, -1063.49600118351, -13193.519496145189, -187500.02235174447, -24766.291650091607, -15860.574348041338, 26771.556052155025, -43167.767604323344, -187500.02235174447, -16709.78417513182, -36846.716624106964, -187500.02235174447, -1364.0599088740241, 0.146, 0.98, 0.168, 192.0, 0.0, 0.0, 0.0, 0.0, 0.0, 0.0, 0.0, 0.0, 0.0, 1.695336235239198E9, 0.0, 2023-09-21 17:43:55.239
68.0, 10377.266750009865, 14153.102237355977, -187500.02235174447, -54487.38390056895, -1053.6165301342644, -13199.196839236838, -187500.02235174447, -24772.23721411672, -15862.027211430934, 26796.679412922793, -43164.414842655046, -187500.02235174447, -16705.44793670749, -36839.56406588126, -187500.02235174447, -1350.5371034785633, 0.146, 0.98, 0.168, 192.0, 0.0, 0.0, 0.0, 0.0, 0.0, 0.0, 0.0, 0.0, 0.0, 1.695336235239202E9, 0.0, 2023-09-21 17:43:55.239
70.0, 10366.604967904685, 14151.157635588364, -187500.02235174447, -54474.39753704042, -1049.369698687756, -13181.673071583877, -187500.02235174447, -24750.71248420626, -15863.90475796518, 26787.850473862945, -43165.890057789096, -187500.02235174447, -16703.704500639975, -36828.745821564895, -187500.02235174447, -1353.062850602013, 0.146, 0.98, 0.168, 192.0, 0.0, 0.0, 0.0, 0.0, 0.0, 0.0, 0.0, 0.0, 0.0, 1.695336235239205E9, 0.0, 2023-09-21 17:43:55.239
72.0, 10343.023877504334, 14114.903106081856, -187500.02235174447, -54511.14380492495, -1059.0256522924487, -13214.373673721992, -187500.02235174447, -24785.782371256635, -15894.034909490932, 26775.82523534599, -43201.76460763987, -187500.02235174447, -16726.346817773203, -36851.92458056505, -187500.02235174447, -1350.4700482451974, 0.14400000000000002, 0.994, 0.17200000000000001, 192.0, 2.0, 64.0, 15.5, 8.0, 2.5, 48.0, 0.0, 0.0, 0.0, 1.695336235239209E9, 0.0, 2023-09-21 17:43:55.239
74.0, 10343.202691459977, 14133.924440613324, -187500.02235174447, -54491.1613453819, -1067.6534256521973, -13186.903379786418, -187500.02235174447, -24758.155615109878, -15898.594665359817, 26758.614392115403, -43209.83358738823, -187500.02235174447, -16732.135919587126, -36849.510592163875, -187500.02235174447, -1355.968577381203, 0.14400000000000002, 0.994, 0.17200000000000001, 192.0, 0.0, 0.0, 0.0, 0.0, 0.0, 0.0, 0.0, 0.0, 0.0, 1.695336235299011E9, 0.0, 2023-09-21 17:43:55.299
76.0, 10365.196808003999, 14153.392810033896, -187500.02235174447, -54477.86205743099, -1039.467875894055, -13177.090963970539, -187500.02235174447, -24745.929210892824, -15879.461572106073, 26789.884482608377, -43190.96871506795, -187500.02235174447, -16716.288532768314, -36826.82357154174, -187500.02235174447, -1335.3602689934098, 0.14400000000000002, 0.994, 0.17200000000000001, 192.0, 0.0, 0.0, 0.0, 0.0, 0.0, 0.0, 0.0, 0.0, 0.0, 1.695336235299026E9, 0.0, 2023-09-21 17:43:55.299
78.0, 10362.156970758078, 14157.840807180502, -187500.02235174447, -54473.03408062865, -1057.4163266916664, -13169.826647022564, -187500.02235174447, -24740.65419920137, -15873.627766803238, 26807.00591886114, -43182.944438808496, -187500.02235174447, -16716.757919401876, -36823.493161617895, -187500.02235174447, -1334.5332544485634, 0.14400000000000002, 0.994, 0.17200000000000001, 192.0, 0.0, 0.0, 0.0, 0.0, 0.0, 0.0, 0.0, 0.0, 0.0, 1.69533623529903E9, 0.0, 2023-09-21 17:43:55.299
80.0, 10362.76046785837, 14147.268432053143, -187500.02235174447, -54481.57244701057, -1052.4095359336777, -13182.813010551097, -187500.02235174447, -24749.684303961316, -15863.413019587162, 26810.135163084888, -43174.67429336003, -187500.02235174447, -16713.829840878232, -36820.02864122733, -187500.02235174447, -1331.225196269178, 0.14400000000000002, 0.994, 0.17200000000000001, 192.0, 0.0, 0.0, 0.0, 0.0, 0.0, 0.0, 0.0, 0.0, 0.0, 1.695336235299034E9, 0.0, 2023-09-21 17:43:55.299
82.0, 10354.311508454264, 14145.256775052165, -187500.02235174447, -54481.036005143644, -1081.6009141923087, -13167.680879554855, -187500.02235174447, -24740.765957923646, -15876.980528471535, 26801.194465302764, -43189.515851678356, -187500.02235174447, -16733.924059143552, -36838.42412691404, -187500.02235174447, -1340.5905771959517, 0.148, 0.988, 0.168, 192.0, 2.0, 80.0, 15.0, 112.0, 2.5, 32.0, 0.0, 0.0, 0.0, 1.695336235299038E9, 0.0, 2023-09-21 17:43:55.299
84.0, 10332.786778543805, 14116.311265982542, -187500.02235174447, -54504.751206010726, -1077.398786234711, -13187.819801309086, -187500.02235174447, -24759.295554077096, -15868.218644645054, 26782.8213313605, -43184.35259870918, -187500.02235174447, -16723.619904949654, -36832.36680416665, -187500.02235174447, -1337.6177951833959, 0.148, 0.988, 0.168, 192.0, 0.0, 0.0, 0.0, 0.0, 0.0, 0.0, 0.0, 0.0, 0.0, 1.695336235299041E9, 0.0, 2023-09-21 17:43:55.299
86.0, 10338.486473379908, 14124.961391086745, -187500.02235174447, -54498.40331058542, -1091.8603648972946, -13172.352394146013, -187500.02235174447, -24748.32084754954, -15894.012557746479, 26773.031267289076, -43211.62172694466, -187500.02235174447, -16741.434245280536, -36848.41535668557, -187500.02235174447, -1345.127981320379, 0.148, 0.988, 0.168, 192.0, 0.0, 0.0, 0.0, 0.0, 0.0, 0.0, 0.0, 0.0, 0.0, 1.695336235299045E9, 0.0, 2023-09-21 17:43:55.299
88.0, 10347.650688606584, 14130.974010345222, -187500.02235174447, -54499.02915943017, -1072.9731408325601, -13176.062783725594, -187500.02235174447, -24748.879641160926, -15879.059240705878, 26774.282964978574, -43202.92689835154, -187500.02235174447, -16729.878393397143, -36845.08494676172, -187500.02235174447, -1338.936548106259, 0.148, 0.988, 0.168, 192.0, 0.0, 0.0, 0.0, 0.0, 0.0, 0.0, 0.0, 0.0, 0.0, 1.695336235299048E9, 0.0, 2023-09-21 17:43:55.299
90.0, 10357.060773022267, 14147.782522175614, -187500.02235174447, -54488.09915639152, -1068.9051233416944, -13164.238710908738, -187500.02235174447, -24733.88162063141, -15864.217682387554, 26791.314994253516, -43193.94149708051, -187500.02235174447, -16714.634503678622, -36840.547542637294, -187500.02235174447, -1331.5381206915524, 0.148, 0.988, 0.168, 192.0, 0.0, 0.0, 0.0, 0.0, 0.0, 0.0, 0.0, 0.0, 0.0, 1.69533623535928E9, 0.0, 2023-09-21 17:43:55.359
92.0, 10348.030668262323, 14128.850594621968, -187500.02235174447, -54504.57239205509, -1060.7467366155072, -13180.756650061208, -187500.02235174447, -24750.80189118408, -15868.196292900599, 26781.569633671003, -43198.70241864949, -187500.02235174447, -16715.41681473456, -36848.41535668557, -187500.02235174447, -1334.3320887484658, 0.152, 0.99, 0.168, 192.0, 2.0, 96.0, 15.0, 120.0, 2.5, 32.0, 0.0, 0.0, 0.0, 1.695336235359292E9, 0.0, 2023-09-21 17:43:55.359
94.0, 10361.732287613428, 14145.23442330771, -187500.02235174447, -54494.29058960565, -1058.5562656588872, -13169.670184811377, -187500.02235174447, -24743.31405679155, -15870.744391768503, 26779.222700503196, -43203.776264640845, -187500.02235174447, -16721.2953235263, -36852.08104277623, -187500.02235174447, -1333.8850538593597, 0.152, 0.99, 0.168, 192.0, 0.0, 0.0, 0.0, 0.0, 0.0, 0.0, 0.0, 0.0, 0.0, 1.695336235359296E9, 0.0, 2023-09-21 17:43:55.359
96.0, 10342.755656570871, 14126.950696343267, -187500.02235174447, -54507.83574674556, -1056.7457743580073, -13189.473830398778, -187500.02235174447, -24762.313039578563, -15866.18463589962, 26771.73486611067, -43196.26607850386, -187500.02235174447, -16716.087367068216, -36846.58251364023, -187500.02235174447, -1336.3437457494433, 0.152, 0.99, 0.168, 192.0, 0.0, 0.0, 0.0, 0.0, 0.0, 0.0, 0.0, 0.0, 0.0, 1.6953362353593E9, 0.0, 2023-09-21 17:43:55.359
98.0, 10358.647746878594, 14144.452112251773, -187500.02235174447, -54498.246848374234, -1059.0927075258146, -13170.519551100679, -187500.02235174447, -24750.444263272795, -15880.735621540025, 26782.262537749117, -43209.76653215486, -187500.02235174447, -16729.654875952587, -36859.434766702034, -187500.02235174447, -1353.3981267688428, 0.152, 0.99, 0.168, 192.0, 0.0, 0.0, 0.0, 0.0, 0.0, 0.0, 0.0, 0.0, 0.0, 1.695336235359304E9, 0.0, 2023-09-21 17:43:55.359
100.0, 10336.988906501401, 14120.915725340335, -187500.02235174447, -54521.738531796764, -1066.6475971517084, -13201.007330537717, -187500.02235174447, -24778.540406053115, -15867.369278355753, 26795.762991400123, -43194.38853196961, -187500.02235174447, -16719.753053158885, -36845.464926417466, -187500.02235174447, -1341.8199231409935, 0.152, 0.99, 0.168, 192.0, 0.0, 0.0, 0.0, 0.0, 0.0, 0.0, 0.0, 0.0, 0.0, 1.695336235359307E9, 0.0, 2023-09-21 17:43:55.359
102.0, 10344.744961827393, 14124.626114919916, -187500.02235174447, -54522.02910447468, -1076.884696112239, -13195.844077568541, -187500.02235174447, -24777.33341185253, -15892.179714701142, 26775.467607434704, -43222.9540613835, -187500.02235174447, -16749.45852153999, -36873.94104885352, -187500.02235174447, -1360.6624437168175, 0.146, 0.996, 0.164, 192.0, 2.0, 72.0, 15.5, 16.0, 2.5, 16.0, 0.0, 0.0, 0.0, 1.695336235359311E9, 0.0, 2023-09-21 17:43:55.359
104.0, 10348.075371751234, 14133.812681891046, -187500.02235174447, -54508.796871757135, -1060.7467366155072, -13180.488429127745, -187500.02235174447, -24754.735798208214, -15869.582101056827, 26758.68144734877, -43204.469168718955, -187500.02235174447, -16728.13495732963, -36856.75255736739, -187500.02235174447, -1357.421440770798, 0.146, 0.996, 0.164, 192.0, 0.0, 0.0, 0.0, 0.0, 0.0, 0.0, 0.0, 0.0, 0.0, 1.695336235419566E9, 0.0, 2023-09-21 17:43:55.419
106.0, 10355.518502654852, 14138.908879626857, -187500.02235174447, -54515.92707823838, -1057.8410098363174, -13187.70804258681, -187500.02235174447, -24758.692056976804, -15866.13993241071, 26777.68043013578, -43207.30784026478, -187500.02235174447, -16721.74235841541, -36857.80308935679, -187500.02235174447, -1343.9433388642478, 0.146, 0.996, 0.164, 192.0, 0.0, 0.0, 0.0, 0.0, 0.0, 0.0, 0.0, 0.0, 0.0, 1.69533623541958E9, 0.0, 2023-09-21 17:43:55.419
108.0, 10344.454389149474, 14138.283030782108, -187500.02235174447, -54514.49656659324, -1052.2977772114011, -13188.490353642745, -187500.02235174447, -24757.015676142655, -15847.342115323796, 26768.560918398016, -43189.40409295608, -187500.02235174447, -16705.91732334105, -36844.92848455054, -187500.02235174447, -1354.225141313689, 0.146, 0.996, 0.164, 192.0, 0.0, 0.0, 0.0, 0.0, 0.0, 0.0, 0.0, 0.0, 0.0, 1.695336235419585E9, 0.0, 2023-09-21 17:43:55.419
110.0, 10342.018049003846, 14122.547402685572, -187500.02235174447, -54536.44597964835, -1063.6524633946972, -13208.182240507871, -187500.02235174447, -24779.0991996645, -15884.24484541951, 26767.35392419743, -43227.402058530104, -187500.02235174447, -16740.853099924698, -36881.47358673497, -187500.02235174447, -1367.6585397313286, 0.146, 0.996, 0.164, 192.0, 0.0, 0.0, 0.0, 0.0, 0.0, 0.0, 0.0, 0.0, 0.0, 1.695336235419588E9, 0.0, 2023-09-21 17:43:55.419
112.0, 10328.897575008581, 14117.741777627682, -187500.02235174447, -54525.53832835416, -1052.0072045334823, -13188.42329840938, -187500.02235174447, -24759.13909186591, -15873.605415058782, 26732.284037147052, -43217.27671829185, -187500.02235174447, -16726.100948584193, -36875.63978143213, -187500.02235174447, -1363.1434873513565, 0.148, 0.992, 0.162, 192.0, 2.0, 80.0, 15.5, 0.0, 2.5, 8.0, 0.0, 0.0, 0.0, 1.695336235419593E9, 0.0, 2023-09-21 17:43:55.419
114.0, 10333.345572155187, 14111.46093743574, -187500.02235174447, -54544.961994285826, -1062.266655238468, -13205.701196873331, -187500.02235174447, -24776.014658929667, -15870.543226068405, 26749.763101311102, -43220.87534914915, -187500.02235174447, -16724.961009616974, -36872.085854063735, -187500.02235174447, -1351.7217459346946, 0.148, 0.992, 0.162, 192.0, 0.0, 0.0, 0.0, 0.0, 0.0, 0.0, 0.0, 0.0, 0.0, 1.695336235419596E9, 0.0, 2023-09-21 17:43:55.419
116.0, 10324.494281350886, 14114.970161315223, -187500.02235174447, -54538.07765699359, -1083.88079212675, -13198.146307247438, -187500.02235174447, -24767.90097569239, -15888.804601288391, 26713.620330526872, -43236.901549923605, -187500.02235174447, -16744.56348950428, -36888.648496705115, -187500.02235174447, -1370.1395833658676, 0.148, 0.992, 0.162, 192.0, 0.0, 0.0, 0.0, 0.0, 0.0, 0.0, 0.0, 0.0, 0.0, 1.6953362354196E9, 0.0, 2023-09-21 17:43:55.419
118.0, 10339.291136180298, 14123.419120719329, -187500.02235174447, -54533.204976702335, -1072.9284373436496, -13200.85086832653, -187500.02235174447, -24773.533615295128, -15883.887217508223, 26720.594074796925, -43235.716907467475, -187500.02235174447, -16741.903631914098, -36885.720418181474, -187500.02235174447, -1351.2970627900438, 0.148, 0.992, 0.162, 192.0, 0.0, 0.0, 0.0, 0.0, 0.0, 0.0, 0.0, 0.0, 0.0, 1.695336235419603E9, 0.0, 2023-09-21 17:43:55.419
120.0, 10353.082162509223, 14146.620231463938, -187500.02235174447, -54507.969857212294, -1060.3220534708564, -13178.297958171124, -187500.02235174447, -24740.967123623745, -15858.339173595808, 26735.882668004357, -43208.31366876527, -187500.02235174447, -16720.177736303536, -36864.396853971106, -187500.02235174447, -1349.352461022432, 0.148, 0.992, 0.162, 192.0, 0.0, 0.0, 0.0, 0.0, 0.0, 0.0, 0.0, 0.0, 0.0, 1.695336235479875E9, 0.0, 2023-09-21 17:43:55.479
122.0, 10349.014145018356, 14128.9847050887, -187500.02235174447, -54534.30021218064, -1050.5766928883424, -13210.909153331419, -187500.02235174447, -24773.690077506315, -15851.365429325751, 26743.39285414134, -43205.96673559746, -187500.02235174447, -16716.78027114633, -36866.96730458347, -187500.02235174447, -1349.2407023001556, 0.15, 1.0, 0.166, 192.0, 2.0, 88.0, 15.5, 32.0, 2.5, 24.0, 0.0, 0.0, 0.0, 1.695336235479888E9, 0.0, 2023-09-21 17:43:55.479
124.0, 10346.019011261345, 14130.214051033743, -187500.02235174447, -54531.14861621244, -1067.6757773966524, -13200.783813093163, -187500.02235174447, -24764.77173146865, -15860.842568974802, 26724.57268530997, -43215.98031711344, -187500.02235174447, -16727.665570696066, -36882.14413906862, -187500.02235174447, -1363.8140396850158, 0.15, 1.0, 0.166, 192.0, 0.0, 0.0, 0.0, 0.0, 0.0, 0.0, 0.0, 0.0, 0.0, 1.695336235479891E9, 0.0, 2023-09-21 17:43:55.479
126.0, 10359.832389334726, 14134.393827246884, -187500.02235174447, -54521.246793418744, -1046.5757306308426, -13191.217266466292, -187500.02235174447, -24759.094388376998, -15852.840644459802, 26737.827269771966, -43200.22233727245, -187500.02235174447, -16718.099024069194, -36868.71074065098, -187500.02235174447, -1342.870455130393, 0.15, 1.0, 0.166, 192.0, 0.0, 0.0, 0.0, 0.0, 0.0, 0.0, 0.0, 0.0, 0.0, 1.695336235479895E9, 0.0, 2023-09-21 17:43:55.479
128.0, 10363.72159286995, 14147.044914608588, -187500.02235174447, -54507.902801978926, -1059.4503354370995, -13164.663394053388, -187500.02235174447, -24740.765957923646, -15853.444141560096, 26735.614447070893, -43192.77920636883, -187500.02235174447, -16716.22147753495, -36860.37353996915, -187500.02235174447, -1338.6683271727952, 0.15, 1.0, 0.166, 192.0, 0.0, 0.0, 0.0, 0.0, 0.0, 0.0, 0.0, 0.0, 0.0, 1.695336235479898E9, 0.0, 2023-09-21 17:43:55.479
130.0, 10369.823619106248, 14148.833054165014, -187500.02235174447, -54511.72495028078, -1046.1286957417365, -13167.345603388025, -187500.02235174447, -24747.560888238062, -15843.698780977582, 26748.265534432598, -43181.51392716336, -187500.02235174447, -16707.526648941835, -36848.50476366338, -187500.02235174447, -1335.2708620155886, 0.15, 1.0, 0.166, 192.0, 0.0, 0.0, 0.0, 0.0, 0.0, 0.0, 0.0, 0.0, 0.0, 1.695336235479902E9, 0.0, 2023-09-21 17:43:55.479
132.0, 10367.253168493888, 14154.577452490026, -187500.02235174447, -54518.58693582856, -1058.5339139144319, -13163.590510319533, -187500.02235174447, -24746.823280671037, -15842.760007710458, 26747.125595465375, -43181.31276146326, -187500.02235174447, -16706.006730318873, -36853.198629999, -187500.02235174447, -1338.0871818169574, 0.15, 0.992, 0.176, 192.0, 2.0, 88.0, 15.5, 0.0, 2.5, 64.0, 0.0, 0.0, 0.0, 1.695336235479905E9, 0.0, 2023-09-21 17:43:55.479
134.0, 10355.00441253238, 14134.46088248025, -187500.02235174447, -54544.0232210187, -1059.5173906704654, -13190.122030987983, -187500.02235174447, -24769.08561814852, -15854.04763866039, 26744.242220430642, -43196.19902327049, -187500.02235174447, -16719.01544559186, -36869.11307205118, -187500.02235174447, -1346.7596586656164, 0.15, 0.992, 0.176, 192.0, 0.0, 0.0, 0.0, 0.0, 0.0, 0.0, 0.0, 0.0, 0.0, 1.695336235539272E9, 0.0, 2023-09-21 17:43:55.539
136.0, 10347.561281628763, 14134.103254568965, -187500.02235174447, -54552.47218042281, -1080.952713603105, -13196.626388624478, -187500.02235174447, -24775.209996129277, -15869.649156290194, 26727.947798722722, -43218.84134040372, -187500.02235174447, -16739.623753979653, -36888.89436589413, -187500.02235174447, -1372.5535717670407, 0.15, 0.992, 0.176, 192.0, 0.0, 0.0, 0.0, 0.0, 0.0, 0.0, 0.0, 0.0, 0.0, 1.695336235539286E9, 0.0, 2023-09-21 17:43:55.539
138.0, 10360.726459112939, 14150.017696621144, -187500.02235174447, -54531.90857552393, -1057.6398441362196, -13187.03749025315, -187500.02235174447, -24761.843652945, -15853.08651364881, 26734.76508078159, -43199.21650877196, -187500.02235174447, -16721.094157826206, -36874.23162153144, -187500.02235174447, -1365.4457170302533, 0.15, 0.992, 0.176, 192.0, 0.0, 0.0, 0.0, 0.0, 0.0, 0.0, 0.0, 0.0, 0.0, 1.69533623553929E9, 0.0, 2023-09-21 17:43:55.539
140.0, 10373.221084263454, 14164.881606683924, -187500.02235174447, -54513.40133111493, -1052.4765911670436, -13161.534149829646, -187500.02235174447, -24729.925361862825, -15844.391685055696, 26762.68240960627, -43192.510985435365, -187500.02235174447, -16716.6461606796, -36867.9507813395, -187500.02235174447, -1345.485609231664, 0.15, 0.992, 0.176, 192.0, 0.0, 0.0, 0.0, 0.0, 0.0, 0.0, 0.0, 0.0, 0.0, 1.695336235539294E9, 0.0, 2023-09-21 17:43:55.539
142.0, 10375.702127897994, 14160.858292681969, -187500.02235174447, -54504.10300542152, -1024.8498350202842, -13149.106579912494, -187500.02235174447, -24720.76114663615, -15817.189612053588, 26764.224679973686, -43168.28169444582, -187500.02235174447, -16693.288587723804, -36834.51257163436, -187500.02235174447, -1317.970611807181, 0.154, 0.98, 0.17, 192.0, 2.0, 104.0, 15.0, 80.0, 2.5, 40.0, 0.0, 0.0, 0.0, 1.695336235539297E9, 0.0, 2023-09-21 17:43:55.539
144.0, 10371.76822087386, 14154.42099027884, -187500.02235174447, -54515.18947067136, -1053.437716178622, -13150.961774702284, -187500.02235174447, -24724.69505366028, -15842.871766432736, 26774.97586905669, -43199.17180528305, -187500.02235174447, -16716.35558800168, -36857.64662714561, -187500.02235174447, -1322.6868298872507, 0.154, 0.98, 0.17, 192.0, 0.0, 0.0, 0.0, 0.0, 0.0, 0.0, 0.0, 0.0, 0.0, 1.695336235539301E9, 0.0, 2023-09-21 17:43:55.539
146.0, 10347.516578139852, 14122.122719540921, -187500.02235174447, -54533.897880780445, -1066.2005622626023, -13169.245501666726, -187500.02235174447, -24743.336408536008, -15836.03213262941, 26743.839889030445, -43196.06491280376, -187500.02235174447, -16713.606323433676, -36848.951798552494, -187500.02235174447, -1324.5643764214965, 0.154, 0.98, 0.17, 192.0, 0.0, 0.0, 0.0, 0.0, 0.0, 0.0, 0.0, 0.0, 0.0, 1.695336235539304E9, 0.0, 2023-09-21 17:43:55.539
148.0, 10335.357229156165, 14106.387091444385, -187500.02235174447, -54553.09802926756, -1100.0634551123924, -13182.477734384267, -187500.02235174447, -24760.547251766595, -15879.506275594984, 26721.175220152763, -43241.55071277031, -187500.02235174447, -16755.180568120548, -36889.31904903878, -187500.02235174447, -1349.643033700351, 0.154, 0.98, 0.17, 192.0, 0.0, 0.0, 0.0, 0.0, 0.0, 0.0, 0.0, 0.0, 0.0, 1.695336235539308E9, 0.0, 2023-09-21 17:43:55.539
150.0, 10353.439790420509, 14137.590126703994, -187500.02235174447, -54513.51308983721, -1061.5737511603536, -13149.620670034967, -187500.02235174447, -24729.679492673815, -15859.769685240948, 26710.893417703322, -43220.69653519351, -187500.02235174447, -16736.94154464502, -36869.87303136266, -187500.02235174447, -1349.8218476559935, 0.154, 0.98, 0.17, 192.0, 0.0, 0.0, 0.0, 0.0, 0.0, 0.0, 0.0, 0.0, 0.0, 1.695336235598896E9, 0.0, 2023-09-21 17:43:55.598
152.0, 10371.410592962575, 14155.560929246061, -187500.02235174447, -54508.19337465685, -1042.5524166288874, -13145.865576966475, -187500.02235174447, -24727.71253916175, -15831.830004671814, 26759.91079329381, -43192.42157845755, -187500.02235174447, -16709.962989087464, -36846.47075491795, -187500.02235174447, -1319.1105507744016, 0.152, 0.986, 0.17200000000000001, 192.0, 2.0, 96.0, 15.0, 104.0, 2.5, 48.0, 0.0, 0.0, 0.0, 1.695336235598916E9, 0.0, 2023-09-21 17:43:55.598
154.0, 10356.725496855439, 14146.46376925275, -187500.02235174447, -54515.658857304916, -1046.5533788863872, -13152.325231114059, -187500.02235174447, -24734.418062498342, -15834.758083195458, 26739.548354095026, -43196.154319781584, -187500.02235174447, -16713.762785644863, -36851.36578695366, -187500.02235174447, -1324.2067485102116, 0.152, 0.986, 0.17200000000000001, 192.0, 0.0, 0.0, 0.0, 0.0, 0.0, 0.0, 0.0, 0.0, 0.0, 1.69533623559892E9, 0.0, 2023-09-21 17:43:55.598
156.0, 10367.990776060913, 14149.615365220949, -187500.02235174447, -54519.54806084014, -1040.6748700946416, -13149.97829794625, -187500.02235174447, -24731.691149674793, -15843.408208299663, 26747.14794720983, -43209.4983112214, -187500.02235174447, -16720.647122937098, -36861.736996380925, -187500.02235174447, -1326.3078124890105, 0.152, 0.986, 0.17200000000000001, 192.0, 0.0, 0.0, 0.0, 0.0, 0.0, 0.0, 0.0, 0.0, 0.0, 1.695336235598924E9, 0.0, 2023-09-21 17:43:55.598
158.0, 10357.23958697791, 14142.75337967317, -187500.02235174447, -54524.17487194239, -1042.887692795717, -13148.257213623192, -187500.02235174447, -24735.31213227655, -15831.315914549341, 26735.972074982175, -43199.03769481632, -187500.02235174447, -16707.92898034203, -36853.37744395464, -187500.02235174447, -1327.2018822672228, 0.152, 0.986, 0.17200000000000001, 192.0, 0.0, 0.0, 0.0, 0.0, 0.0, 0.0, 0.0, 0.0, 0.0, 1.695336235598927E9, 0.0, 2023-09-21 17:43:55.598
160.0, 10367.074354538245, 14143.334525029008, -187500.02235174447, -54535.75307557024, -1043.982928274027, -13157.488484083235, -187500.02235174447, -24742.285876546608, -15825.415054013141, 26732.23933365814, -43205.4973489639, -187500.02235174447, -16711.840535621708, -36867.5037464504, -187500.02235174447, -1327.2689375005887, 0.152, 0.986, 0.17200000000000001, 192.0, 0.0, 0.0, 0.0, 0.0, 0.0, 0.0, 0.0, 0.0, 0.0, 1.695336235598931E9, 0.0, 2023-09-21 17:43:55.598
162.0, 10342.62154610414, 14133.499757468673, -187500.02235174447, -54532.579127857585, -1062.8254488498508, -13157.466132338779, -187500.02235174447, -24743.582277725018, -15829.348961037274, 26713.7544409936, -43203.73156115193, -187500.02235174447, -16711.952294343984, -36866.94495283901, -187500.02235174447, -1338.2659957725998, 0.148, 0.992, 0.176, 192.0, 2.0, 80.0, 15.5, 0.0, 2.5, 64.0, 0.0, 0.0, 0.0, 1.695336235598934E9, 0.0, 2023-09-21 17:43:55.598
164.0, 10357.843084078204, 14149.615365220949, -187500.02235174447, -54528.26524117771, -1050.7108033550744, -13157.108504427493, -187500.02235174447, -24743.9399056363, -15856.551034039383, 26731.56878132448, -43210.79471239981, -187500.02235174447, -16722.435262493524, -36868.97896158445, -187500.02235174447, -1326.0172398110915, 0.148, 0.992, 0.176, 192.0, 0.0, 0.0, 0.0, 0.0, 0.0, 0.0, 0.0, 0.0, 0.0, 1.695336235659303E9, 0.0, 2023-09-21 17:43:55.659
166.0, 10357.127828255634, 14161.931176415823, -187500.02235174447, -54520.10685445152, -1053.951806301094, -13149.598318290511, -187500.02235174447, -24736.697940432783, -15838.334362308307, 26733.893362747833, -43195.372008725644, -187500.02235174447, -16705.671454152045, -36852.1480980096, -187500.02235174447, -1325.257280499611, 0.148, 0.992, 0.176, 192.0, 0.0, 0.0, 0.0, 0.0, 0.0, 0.0, 0.0, 0.0, 0.0, 1.695336235659316E9, 0.0, 2023-09-21 17:43:55.659
168.0, 10360.61470039066, 14148.542481487095, -187500.02235174447, -54536.82595930409, -1047.2015794755912, -13163.590510319533, -187500.02235174447, -24750.980705139722, -15848.794978713391, 26737.29082790504, -43212.31463102277, -187500.02235174447, -16718.657817680578, -36873.695179664515, -187500.02235174447, -1331.0240305690802, 0.148, 0.992, 0.176, 192.0, 0.0, 0.0, 0.0, 0.0, 0.0, 0.0, 0.0, 0.0, 0.0, 1.69533623565932E9, 0.0, 2023-09-21 17:43:55.659
170.0, 10359.988851545913, 14153.795141434091, -187500.02235174447, -54522.63260157497, -1044.1170387407587, -13143.272774609659, -187500.02235174447, -24734.216896798243, -15823.738673178992, 26723.723319020668, -43192.376874968635, -187500.02235174447, -16699.25650349337, -36857.46781318996, -187500.02235174447, -1326.0619433000022, 0.148, 0.992, 0.176, 192.0, 0.0, 0.0, 0.0, 0.0, 0.0, 0.0, 0.0, 0.0, 0.0, 1.695336235659324E9, 0.0, 2023-09-21 17:43:55.659
172.0, 10358.58069164523, 14141.099350583478, -187500.02235174447, -54543.062096007125, -1042.3288991843342, -13160.84124575153, -187500.02235174447, -24750.93600165081, -15840.27896407592, 26724.639740543338, -43211.822892644755, -187500.02235174447, -16714.008654833873, -36865.6038481717, -187500.02235174447, -1328.9229665902815, 0.148, 0.988, 0.17200000000000001, 192.0, 2.0, 80.0, 15.0, 112.0, 2.5, 48.0, 0.0, 0.0, 0.0, 1.695336235659327E9, 0.0, 2023-09-21 17:43:55.659
174.0, 10359.05007827879, 14152.968126889245, -187500.02235174447, -54527.058246977125, -1050.1296579992363, -13145.820873477564, -187500.02235174447, -24741.36945502394, -15837.0379611299, 26718.24714162912, -43209.63242168813, -187500.02235174447, -16711.393500732604, -36864.17333652655, -187500.02235174447, -1341.9763853521808, 0.148, 0.988, 0.17200000000000001, 192.0, 0.0, 0.0, 0.0, 0.0, 0.0, 0.0, 0.0, 0.0, 0.0, 1.695336235659331E9, 0.0, 2023-09-21 17:43:55.659
176.0, 10364.973290559446, 14148.788350676103, -187500.02235174447, -54528.533462111176, -1035.4222101476444, -13155.454475337801, -187500.02235174447, -24748.790234183103, -15828.56664998134, 26722.113993419887, -43204.49152046341, -187500.02235174447, -16705.425584963035, -36862.6981213925, -187500.02235174447, -1329.4370567127535, 0.148, 0.988, 0.17200000000000001, 192.0, 0.0, 0.0, 0.0, 0.0, 0.0, 0.0, 0.0, 0.0, 0.0, 1.695336235659335E9, 0.0, 2023-09-21 17:43:55.659
178.0, 10361.464066679962, 14155.60563273497, -187500.02235174447, -54519.704523051325, -1046.0839922528257, -13145.239728121725, -187500.02235174447, -24739.827184656526, -15817.167260309132, 26722.069289930976, -43190.9463633235, -187500.02235174447, -16694.96496855795, -36851.4998974204, -187500.02235174447, -1326.4195712112871, 0.148, 0.988, 0.17200000000000001, 192.0, 0.0, 0.0, 0.0, 0.0, 0.0, 0.0, 0.0, 0.0, 0.0, 1.695336235659339E9, 0.0, 2023-09-21 17:43:55.659
180.0, 10344.342630427198, 14126.883641109902, -187500.02235174447, -54558.79772410366, -1047.8497800647951, -13189.742051332243, -187500.02235174447, -24776.439342074318, -15829.75129243747, 26717.554237551005, -43204.8491483747, -187500.02235174447, -16706.610227419165, -36867.43669121703, -187500.02235174447, -1342.7363446636612, 0.148, 0.988, 0.17200000000000001, 192.0, 0.0, 0.0, 0.0, 0.0, 0.0, 0.0, 0.0, 0.0, 0.0, 1.695336235719472E9, 0.0, 2023-09-21 17:43:55.719
182.0, 10354.915005554558, 14152.297574555585, -187500.02235174447, -54541.385715172975, -1059.3832802037336, -13163.74697253072, -187500.02235174447, -24748.812585927557, -15851.119560136744, 26702.109182132386, -43226.46328526298, -187500.02235174447, -16723.97753286094, -36892.49299675143, -187500.02235174447, -1367.5244292645966, 0.15, 0.992, 0.176, 192.0, 2.0, 88.0, 15.5, 0.0, 2.5, 64.0, 0.0, 0.0, 0.0, 1.695336235719483E9, 0.0, 2023-09-21 17:43:55.719
184.0, 10358.871264323148, 14148.542481487095, -187500.02235174447, -54542.88328205148, -1037.366811915256, -13166.675051054366, -187500.02235174447, -24758.80381569908, -15825.616219713238, 26727.14313592233, -43198.47890120494, -187500.02235174447, -16696.797811603286, -36864.28509524883, -187500.02235174447, -1342.5128272191082, 0.15, 0.992, 0.176, 192.0, 0.0, 0.0, 0.0, 0.0, 0.0, 0.0, 0.0, 0.0, 0.0, 1.695336235719487E9, 0.0, 2023-09-21 17:43:55.719
186.0, 10356.323165455242, 14148.810702420558, -187500.02235174447, -54546.057229764134, -1056.9916435470157, -13163.74697253072, -187500.02235174447, -24756.546289509093, -15829.348961037274, 26734.139231936842, -43201.16111053957, -187500.02235174447, -16704.6432739071, -36867.123766794655, -187500.02235174447, -1344.7480016646389, 0.15, 0.992, 0.176, 192.0, 0.0, 0.0, 0.0, 0.0, 0.0, 0.0, 0.0, 0.0, 0.0, 1.695336235719491E9, 0.0, 2023-09-21 17:43:55.719
188.0, 10352.366906686653, 14142.261641295152, -187500.02235174447, -54555.53436941319, -1056.656367380186, -13171.99476623473, -187500.02235174447, -24767.029257658633, -15833.841661672792, 26718.895342218322, -43208.961869354476, -187500.02235174447, -16715.483869967924, -36875.43861573203, -187500.02235174447, -1358.382565782376, 0.15, 0.992, 0.176, 192.0, 0.0, 0.0, 0.0, 0.0, 0.0, 0.0, 0.0, 0.0, 0.0, 1.695336235719495E9, 0.0, 2023-09-21 17:43:55.719
190.0, 10346.533101383819, 14134.058551080056, -187500.02235174447, -54563.201017761356, -1077.3093792568898, -13179.124972715972, -187500.02235174447, -24771.611365271972, -15836.859147174258, 26713.821496226967, -43213.78984615682, -187500.02235174447, -16719.06014908077, -36878.947839611516, -187500.02235174447, -1361.4000512838427, 0.15, 0.992, 0.176, 192.0, 0.0, 0.0, 0.0, 0.0, 0.0, 0.0, 0.0, 0.0, 0.0, 1.695336235719499E9, 0.0, 2023-09-21 17:43:55.719
192.0, 10348.52240664034, 14134.729103413714, -187500.02235174447, -54554.79676184616, -1060.143239515214, -13174.98989999174, -187500.02235174447, -24760.211975599763, -15842.402379799174, 26690.933309904733, -43217.72375318095, -187500.02235174447, -16726.59268696221, -36881.89826987962, -187500.02235174447, -1377.001568913647, 0.152, 0.984, 0.17400000000000002, 192.0, 2.0, 96.0, 15.0, 96.0, 2.5, 56.0, 0.0, 0.0, 0.0, 1.695336235719503E9, 0.0, 2023-09-21 17:43:55.719
194.0, 10378.183171532533, 14170.044859653099, -187500.02235174447, -54518.676342806386, -1042.8429893068062, -13136.522547784156, -187500.02235174447, -24721.342291991987, -15818.17308880962, 26725.37734811036, -43194.79086336981, -187500.02235174447, -16705.53734368531, -36861.71464463647, -187500.02235174447, -1352.392298268354, 0.152, 0.984, 0.17400000000000002, 192.0, 0.0, 0.0, 0.0, 0.0, 0.0, 0.0, 0.0, 0.0, 0.0, 1.695336235779956E9, 0.0, 2023-09-21 17:43:55.779
196.0, 10352.09868575319, 14143.938022129301, -187500.02235174447, -54544.44790416335, -1050.6213963772532, -13161.489446340735, -187500.02235174447, -24746.532707993116, -15800.202286267555, 26726.070252188478, -43179.30110446228, -187500.02235174447, -16687.275968465325, -36839.45230715899, -187500.02235174447, -1342.9822138526695, 0.152, 0.984, 0.17400000000000002, 192.0, 0.0, 0.0, 0.0, 0.0, 0.0, 0.0, 0.0, 0.0, 0.0, 1.695336235779969E9, 0.0, 2023-09-21 17:43:55.779
198.0, 10351.450485163985, 14142.79808316208, -187500.02235174447, -54556.204921746845, -1076.1694402896692, -13164.261062653193, -187500.02235174447, -24758.356780809972, -15843.542318766395, 26718.62712128486, -43225.92684339605, -187500.02235174447, -16733.521727743355, -36879.551336711804, -187500.02235174447, -1362.3611762954208, 0.152, 0.984, 0.17400000000000002, 192.0, 0.0, 0.0, 0.0, 0.0, 0.0, 0.0, 0.0, 0.0, 0.0, 1.695336235779973E9, 0.0, 2023-09-21 17:43:55.779
200.0, 10356.85960732217, 14160.210092092764, -187500.02235174447, -54535.97659301479, -1050.1073062547812, -13139.78590247463, -187500.02235174447, -24745.28101030362, -15816.31789401983, 26715.363766594382, -43203.7986163853, -187500.02235174447, -16711.393500732604, -36851.76811835386, -187500.02235174447, -1352.0570221015241, 0.152, 0.984, 0.17400000000000002, 192.0, 0.0, 0.0, 0.0, 0.0, 0.0, 0.0, 0.0, 0.0, 0.0, 1.695336235779977E9, 0.0, 2023-09-21 17:43:55.779
202.0, 10367.856665594181, 14167.51911252965, -187500.02235174447, -54534.970764514306, -1049.9284922991387, -13137.64013500692, -187500.02235174447, -24742.95642888027, -15825.772681924425, 26744.77866229757, -43213.767494412365, -187500.02235174447, -16717.27200952435, -36852.39396719861, -187500.02235174447, -1334.7567718931166, 0.148, 0.99, 0.17200000000000001, 192.0, 2.0, 80.0, 15.0, 120.0, 2.5, 48.0, 0.0, 0.0, 0.0, 1.695336235779981E9, 0.0, 2023-09-21 17:43:55.779
204.0, 10362.224025991443, 14167.675574740837, -187500.02235174447, -54524.84542427605, -1039.1996549605913, -13127.313629068569, -187500.02235174447, -24734.0380828426, -15807.60071368226, 26739.99538898413, -43194.92497383654, -187500.02235174447, -16701.670491894543, -36832.76913556685, -187500.02235174447, -1327.7606758786055, 0.148, 0.99, 0.17200000000000001, 192.0, 0.0, 0.0, 0.0, 0.0, 0.0, 0.0, 0.0, 0.0, 0.0, 1.695336235779985E9, 0.0, 2023-09-21 17:43:55.779
206.0, 10363.185151003021, 14152.968126889245, -187500.02235174447, -54541.251604706245, -1040.9877945170158, -13140.009419919184, -187500.02235174447, -24733.836917142504, -15817.681350431605, 26748.645514088337, -43209.31949726576, -187500.02235174447, -16714.187468789514, -36853.690368377014, -187500.02235174447, -1322.5974229094295, 0.148, 0.99, 0.17200000000000001, 192.0, 0.0, 0.0, 0.0, 0.0, 0.0, 0.0, 0.0, 0.0, 0.0, 1.695336235779989E9, 0.0, 2023-09-21 17:43:55.779
208.0, 10359.117133512156, 14157.080847869021, -187500.02235174447, -54532.93675576887, -1041.3007189393902, -13130.88990818142, -187500.02235174447, -24727.287856017098, -15804.404414225151, 26714.201475882706, -43197.830700615734, -187500.02235174447, -16703.793907617797, -36845.53198165083, -187500.02235174447, -1332.2310247696669, 0.148, 0.99, 0.17200000000000001, 192.0, 0.0, 0.0, 0.0, 0.0, 0.0, 0.0, 0.0, 0.0, 0.0, 1.695336235779992E9, 0.0, 2023-09-21 17:43:55.779
210.0, 10351.115208997157, 14137.366609259441, -187500.02235174447, -54563.98332881729, -1057.30456796939, -13165.758629531698, -187500.02235174447, -24756.836862187014, -15820.788242910892, 26714.246179371617, -43214.23688104592, -187500.02235174447, -16719.484832225422, -36869.224830773455, -187500.02235174447, -1340.0094318401136, 0.148, 0.99, 0.17200000000000001, 192.0, 0.0, 0.0, 0.0, 0.0, 0.0, 0.0, 0.0, 0.0, 0.0, 1.695336235840181E9, 0.0, 2023-09-21 17:43:55.840
212.0, 10345.057886249768, 14142.775731417625, -187500.02235174447, -54553.545064156664, -1065.1053267842922, -13153.822797992563, -187500.02235174447, -24745.213955070252, -15824.27511504592, 26682.95373713419, -43215.533282224336, -187500.02235174447, -16726.726797428943, -36877.204403544, -187500.02235174447, -1368.709071720728, 0.15, 0.992, 0.17, 192.0, 2.0, 88.0, 15.5, 0.0, 2.5, 40.0, 0.0, 0.0, 0.0, 1.695336235840197E9, 0.0, 2023-09-21 17:43:55.840
214.0, 10354.311508454264, 14144.832091907514, -187500.02235174447, -54550.326412955095, -1048.3415184428118, -13148.592489790022, -187500.02235174447, -24746.510356248662, -15820.721187677525, 26709.462906058183, -43214.99684035741, -187500.02235174447, -16720.669474681556, -36869.11307205118, -187500.02235174447, -1350.8947313898482, 0.15, 0.992, 0.17, 192.0, 0.0, 0.0, 0.0, 0.0, 0.0, 0.0, 0.0, 0.0, 0.0, 1.695336235840202E9, 0.0, 2023-09-21 17:43:55.840
216.0, 10348.567110129252, 14152.409333277863, -187500.02235174447, -54541.78804657317, -1056.7681261024627, -13136.567251273067, -187500.02235174447, -24735.155670065364, -15812.182821295599, 26700.32104257596, -43209.140683310114, -187500.02235174447, -16711.751128643886, -36863.547487681804, -187500.02235174447, -1352.772277924094, 0.15, 0.992, 0.17, 192.0, 0.0, 0.0, 0.0, 0.0, 0.0, 0.0, 0.0, 0.0, 0.0, 1.695336235840206E9, 0.0, 2023-09-21 17:43:55.840
218.0, 10347.069543250745, 14140.719370927736, -187500.02235174447, -54560.965843315826, -1052.5659981448648, -13154.091018926028, -187500.02235174447, -24758.37913255443, -15813.0321875849, 26728.10426093391, -43212.47109323396, -187500.02235174447, -16712.600494933187, -36862.921638837055, -187500.02235174447, -1344.9715191091918, 0.15, 0.992, 0.17, 192.0, 0.0, 0.0, 0.0, 0.0, 0.0, 0.0, 0.0, 0.0, 0.0, 1.695336235840211E9, 0.0, 2023-09-21 17:43:55.840
220.0, 10346.801322317282, 14153.839844923003, -187500.02235174447, -54546.7277820978, -1060.8584953377838, -13140.434103063835, -187500.02235174447, -24742.50939399116, -15809.880591616702, 26716.347243350418, -43206.16790129756, -187500.02235174447, -16711.08057631023, -36855.61261840017, -187500.02235174447, -1348.1678185663009, 0.15, 0.992, 0.17, 192.0, 0.0, 0.0, 0.0, 0.0, 0.0, 0.0, 0.0, 0.0, 0.0, 1.695336235840215E9, 0.0, 2023-09-21 17:43:55.840
222.0, 10352.948052042491, 14150.397676276885, -187500.02235174447, -54550.92991005539, -1058.6456726367085, -13154.068667181573, -187500.02235174447, -24756.546289509093, -15824.342170279286, 26705.66310950078, -43222.64113696112, -187500.02235174447, -16723.485794482924, -36873.2034412865, -187500.02235174447, -1348.7266121776834, 0.15, 0.986, 0.17200000000000001, 192.0, 2.0, 88.0, 15.0, 104.0, 2.5, 48.0, 0.0, 0.0, 0.0, 1.69533623584022E9, 0.0, 2023-09-21 17:43:55.840
224.0, 10346.868377550647, 14153.728086200725, -187500.02235174447, -54542.59270937356, -1068.301626241401, -13145.686763010832, -187500.02235174447, -24746.8903359044, -15812.071062573323, 26718.135382906843, -43214.41569500157, -187500.02235174447, -16712.891067611108, -36859.568877168764, -187500.02235174447, -1346.5361412210634, 0.15, 0.986, 0.17200000000000001, 192.0, 0.0, 0.0, 0.0, 0.0, 0.0, 0.0, 0.0, 0.0, 0.0, 1.695336235899E9, 0.0, 2023-09-21 17:43:55.899
226.0, 10335.312525667254, 14132.404521990362, -187500.02235174447, -54564.251549750756, -1060.7690883599626, -13170.98893773424, -187500.02235174447, -24769.555004782083, -15815.580286452805, 26708.971167680167, -43222.32821253875, -187500.02235174447, -16716.73556765742, -36865.58149642724, -187500.02235174447, -1356.7955919260494, 0.15, 0.986, 0.17200000000000001, 192.0, 0.0, 0.0, 0.0, 0.0, 0.0, 0.0, 0.0, 0.0, 0.0, 1.695336235899012E9, 0.0, 2023-09-21 17:43:55.899
228.0, 10335.491339622897, 14148.94481288729, -187500.02235174447, -54549.007660032235, -1072.6825681546413, -13149.084228168038, -187500.02235174447, -24748.94669639429, -15830.17597558212, 26695.62717624035, -43240.29901508081, -187500.02235174447, -16731.21949806446, -36878.031418088845, -187500.02235174447, -1369.3125688210214, 0.15, 0.986, 0.17200000000000001, 192.0, 0.0, 0.0, 0.0, 0.0, 0.0, 0.0, 0.0, 0.0, 0.0, 1.695336235899016E9, 0.0, 2023-09-21 17:43:55.899
230.0, 10334.977249500424, 14142.79808316208, -187500.02235174447, -54560.407049704445, -1061.1937715046133, -13157.689649783331, -187500.02235174447, -24756.61334474246, -15815.08854807479, 26701.37157456536, -43227.670279463564, -187500.02235174447, -16715.573276945743, -36869.13542379563, -187500.02235174447, -1352.5934639684515, 0.15, 0.986, 0.17200000000000001, 192.0, 0.0, 0.0, 0.0, 0.0, 0.0, 0.0, 0.0, 0.0, 0.0, 1.69533623589902E9, 0.0, 2023-09-21 17:43:55.899
232.0, 10345.52727288333, 14159.271318825642, -187500.02235174447, -54541.0727907506, -1064.3006639839011, -13130.576983759045, -187500.02235174447, -24733.434585742307, -15811.646379428672, 26717.308368361995, -43225.45745676249, -187500.02235174447, -16711.68407341052, -36868.97896158445, -187500.02235174447, -1349.5983302114405, 0.152, 0.994, 0.166, 192.0, 2.0, 96.0, 15.5, 8.0, 2.5, 24.0, 0.0, 0.0, 0.0, 1.695336235899024E9, 0.0, 2023-09-21 17:43:55.899
234.0, 10331.557432598762, 14135.310248769552, -187500.02235174447, -54562.03872704968, -1048.050945764893, -13149.352449101503, -187500.02235174447, -24752.120644106944, -15808.293617760375, 26723.410394598293, -43221.92588113855, -187500.02235174447, -16708.577180931232, -36867.01200807238, -187500.02235174447, -1340.5905771959517, 0.152, 0.994, 0.166, 192.0, 0.0, 0.0, 0.0, 0.0, 0.0, 0.0, 0.0, 0.0, 0.0, 1.695336235899027E9, 0.0, 2023-09-21 17:43:55.899
236.0, 10340.945165269992, 14145.390885518897, -187500.02235174447, -54551.82397983361, -1046.9780620310382, -13134.019152405162, -187500.02235174447, -24734.775690409624, -15823.023417356422, 26704.254949600097, -43232.52060801037, -187500.02235174447, -16723.709311927476, -36878.791377400325, -187500.02235174447, -1350.5371034785633, 0.152, 0.994, 0.166, 192.0, 0.0, 0.0, 0.0, 0.0, 0.0, 0.0, 0.0, 0.0, 0.0, 1.69533623589903E9, 0.0, 2023-09-21 17:43:55.899
238.0, 10332.451502376975, 14129.878774866913, -187500.02235174447, -54561.301119482654, -1026.369753643245, -13155.007440448695, -187500.02235174447, -24754.46757727475, -15808.248914271464, 26707.786525224034, -43216.94144212502, -187500.02235174447, -16704.039776806807, -36866.0508830608, -187500.02235174447, -1335.807303882516, 0.152, 0.994, 0.166, 192.0, 0.0, 0.0, 0.0, 0.0, 0.0, 0.0, 0.0, 0.0, 0.0, 1.695336235899034E9, 0.0, 2023-09-21 17:43:55.899
240.0, 10343.157987971066, 14142.216937806243, -187500.02235174447, -54555.1767415019, -1038.5514543713873, -13142.021076920162, -187500.02235174447, -24743.023484113633, -15829.393664526186, 26705.08196414494, -43236.99095690143, -187500.02235174447, -16721.54119271531, -36893.38706652964, -187500.02235174447, -1351.5876354679629, 0.152, 0.994, 0.166, 192.0, 0.0, 0.0, 0.0, 0.0, 0.0, 0.0, 0.0, 0.0, 0.0, 1.695336235960297E9, 0.0, 2023-09-21 17:43:55.960
