%OpenBCI Raw EXG Data
%Number of channels = 16
%Sample Rate = 125 Hz
%Board = OpenBCI_GUI$BoardCytonSerialDaisy
Sample Index, EXG Channel 0, EXG Channel 1, EXG Channel 2, EXG Channel 3, EXG Channel 4, EXG Channel 5, EXG Channel 6, EXG Channel 7, EXG Channel 8, EXG Channel 9, EXG Channel 10, EXG Channel 11, EXG Channel 12, EXG Channel 13, EXG Channel 14, EXG Channel 15, Accel Channel 0, Accel Channel 1, Accel Channel 2, Other, Other, Other, Other, Other, Other, Other, Analog Channel 0, Analog Channel 1, Analog Channel 2, Timestamp, Other, Timestamp (Formatted)
0.0, 10062.062449701125, 15325.18301310337, -187500.02235174447, -53821.883061156645, -3380.0084447870786, -11054.52460700567, -187500.02235174447, -23727.002588153195, 0.0, 0.0, 0.0, 0.0, 0.0, 0.0, 0.0, 0.0, 0.069, 0.497, 0.082, 192.0, 2.0, 40.0, 15.5, 8.0, 2.5, 16.0, 0.0, 0.0, 0.0, 1.695336328615446E9, 0.0, 2023-09-21 17:45:28.615
254.0, 10063.112981690525, 15314.476527509276, -187500.02235174447, -53832.23191883945, -3346.257310659565, -11064.247615843728, -187500.02235174447, -23733.68575974533, -14431.76143548029, 21423.342397611428, -41331.951776975606, -187500.02235174447, -15731.470672067486, -37127.34277574334, -33025.10476411638, -2029.6054517752473, 0.069, 0.497, 0.082, 192.0, 0.0, 0.0, 0.0, 0.0, 0.0, 0.0, 0.0, 0.0, 0.0, 1.695336328615455E9, 0.0, 2023-09-21 17:45:28.615
0.0, 10042.482321558276, 15298.517381968188, -187500.02235174447, -53844.79359922333, -3364.876313790836, -11076.786944483156, -187500.02235174447, -23739.6536755149, -14449.374610111072, 21416.81568823048, -41348.380309150256, -187500.02235174447, -15741.64071579465, -37152.04145336646, -32996.85215912487, -2047.5986060617695, 0.069, 0.497, 0.082, 192.0, 0.0, 0.0, 0.0, 0.0, 0.0, 0.0, 0.0, 0.0, 0.0, 1.695336328615459E9, 0.0, 2023-09-21 17:45:28.615
2.0, 10056.541568820665, 15304.88762913795, -187500.02235174447, -53841.35143057721, -3359.422488143741, -11084.408889342414, -187500.02235174447, -23744.258134872693, -14444.166653652985, 21412.65826376179, -41343.75349804801, -187500.02235174447, -15735.49398606944, -37151.05797661042, -33022.176685592734, -2053.320652642328, 0.069, 0.497, 0.082, 192.0, 0.0, 0.0, 0.0, 0.0, 0.0, 0.0, 0.0, 0.0, 0.0, 1.695336328615463E9, 0.0, 2023-09-21 17:45:28.615
4.0, 10059.648461299952, 15319.349207800533, -187500.02235174447, -53833.37185780667, -3381.8859913213246, -11077.47984856127, -187500.02235174447, -23740.480690059747, -14436.544708793726, 21432.707778538203, -41336.08684969984, -187500.02235174447, -15733.214108134998, -37153.628427222786, -32988.51495844304, -2053.9241497426215, 0.069, 0.497, 0.082, 192.0, 0.0, 0.0, 0.0, 0.0, 0.0, 0.0, 0.0, 0.0, 0.0, 1.695336328615466E9, 0.0, 2023-09-21 17:45:28.615
6.0, 10062.978871223793, 15312.800146675128, -187500.02235174447, -53846.53703529084, -3379.2931889645088, -11097.8199360156, -187500.02235174447, -23760.5078530917, -14433.348409336617, 21438.407473374304, -41328.71077402959, -187500.02235174447, -15735.73985525845, -37153.896648156246, -33020.45560126968, -2058.1039259557638, 0.10250000000000001, 0.7495, 0.122, 192.0, 2.0, 32.0, 15.5, 40.0, 2.5, 8.0, 0.0, 0.0, 0.0, 1.69533632861547E9, 0.0, 2023-09-21 17:45:28.615
8.0, 10064.31997589111, 15312.822498419584, -187500.02235174447, -53848.95102369202, -3392.1007385374, -11090.95795046782, -187500.02235174447, -23752.394169854426, -14439.070455917175, 21429.891458736834, -41330.74478277502, -187500.02235174447, -15745.351105374231, -37164.245505839055, -32942.78328928749, -2061.300225412873, 0.10250000000000001, 0.7495, 0.122, 192.0, 0.0, 0.0, 0.0, 0.0, 0.0, 0.0, 0.0, 0.0, 0.0, 1.695336328615473E9, 0.0, 2023-09-21 17:45:28.615
10.0, 10084.034214500693, 15328.17814686038, -187500.02235174447, -53827.962735648485, -3368.43024115923, -11066.438086800348, -187500.02235174447, -23732.45641380029, -14436.879984960555, 21402.912903179276, -41319.09952391381, -187500.02235174447, -15742.154805917122, -37163.485546527576, -32959.837670306886, -2065.859981281755, 0.10250000000000001, 0.7495, 0.122, 192.0, 0.0, 0.0, 0.0, 0.0, 0.0, 0.0, 0.0, 0.0, 0.0, 1.695336328615477E9, 0.0, 2023-09-21 17:45:28.615
12.0, 10089.532743636697, 15336.314181842112, -187500.02235174447, -53826.71103795899, -3367.469116147651, -11058.525569263169, -187500.02235174447, -23726.153221863893, -14415.891696917022, 21445.9623630002, -41287.6953229541, -187500.02235174447, -15717.791404460837, -37131.589607189846, -32948.95237075715, -2041.317765869828, 0.10250000000000001, 0.7495, 0.122, 192.0, 0.0, 0.0, 0.0, 0.0, 0.0, 0.0, 0.0, 0.0, 0.0, 1.69533632861548E9, 0.0, 2023-09-21 17:45:28.615
0.0, 5067.967482562957, 7708.893145190853, -93750.01117587223, -26831.70459648426, -1706.019247295767, -5503.334761063428, -93750.01117587223, -11839.115540875859, -7213.131453172142, 10713.057006961943, -20650.396722602454, -93750.01117587223, -7869.088097702039, -18576.91479646144, -16479.963538642354, -1021.4747216075327, 0.11825000000000001, 0.87275, 0.14300000000000002, 192.0, 2.0, 24.0, 15.5, 16.0, 2.5, 16.0, 0.0, 0.0, 0.0, 1.695336328776061E9, 0.0, 2023-09-21 17:45:28.776
2.0, 10125.429645231921, 15413.941790335393, -187500.02235174447, -53668.4159837265, -3412.8655091363803, -11011.408091951382, -187500.02235174447, -23684.377811476927, -14312.134899155486, 21440.217964675187, -41203.742170779966, -187500.02235174447, -15693.383299515643, -37125.59933967583, -30900.906729806273, -2154.506999791503, 0.11825000000000001, 0.87275, 0.14300000000000002, 192.0, 0.0, 0.0, 0.0, 0.0, 0.0, 0.0, 0.0, 0.0, 0.0, 1.695336328776073E9, 0.0, 2023-09-21 17:45:28.776
4.0, 10133.185700557911, 15422.368397995044, -187500.02235174447, -53648.85820732811, -3399.409758974285, -10996.164202232863, -187500.02235174447, -23670.139750258895, -14321.142652170975, 21456.57944161647, -41204.54683358036, -187500.02235174447, -15694.858514649692, -37121.2631012515, -30882.01950574154, -2141.990022896531, 0.11825000000000001, 0.87275, 0.14300000000000002, 192.0, 0.0, 0.0, 0.0, 0.0, 0.0, 0.0, 0.0, 0.0, 0.0, 1.695336328776077E9, 0.0, 2023-09-21 17:45:28.776
6.0, 10123.373284742032, 15424.424758484933, -187500.02235174447, -53639.559881634705, -3397.7557298845927, -10984.876571282932, -187500.02235174447, -23658.427436164315, -14322.327294627106, 21454.6124881044, -41194.220327642004, -187500.02235174447, -15689.404689002597, -37099.62661261876, -30870.418950369236, -2132.0434966139196, 0.11825000000000001, 0.87275, 0.14300000000000002, 192.0, 0.0, 0.0, 0.0, 0.0, 0.0, 0.0, 0.0, 0.0, 0.0, 1.695336328776081E9, 0.0, 2023-09-21 17:45:28.776
8.0, 10131.397561001488, 15427.844575386594, -187500.02235174447, -53640.56571013519, -3383.6964826222043, -10986.41884165035, -187500.02235174447, -23658.896822797877, -14332.02795172071, 21468.649383622334, -41201.93167947909, -187500.02235174447, -15691.975139614957, -37102.934670798146, -30876.945659750185, -2134.837464670833, 0.134, 0.996, 0.17, 192.0, 2.0, 24.0, 15.5, 16.0, 2.5, 40.0, 0.0, 0.0, 0.0, 1.695336328776084E9, 0.0, 2023-09-21 17:45:28.776
10.0, 10114.253773004268, 15417.093386303592, -187500.02235174447, -53651.026326540275, -3403.0754450649556, -11001.774490091144, -187500.02235174447, -23671.570261904035, -14328.272858652219, 21464.53666264256, -41200.70233353404, -187500.02235174447, -15691.885732637136, -37104.43223767665, -30864.763959022042, -2139.8889589177325, 0.134, 0.996, 0.17, 192.0, 0.0, 0.0, 0.0, 0.0, 0.0, 0.0, 0.0, 0.0, 0.0, 1.695336328776088E9, 0.0, 2023-09-21 17:45:28.776
12.0, 10125.519052209742, 15423.441281728898, -187500.02235174447, -53638.643460112035, -3393.2406775046206, -10994.89015279891, -187500.02235174447, -23669.96093630325, -14324.294248139173, 21451.706761325215, -41197.9754207105, -187500.02235174447, -15690.030537847346, -37108.0085167895, -30867.20029916767, -2138.212578083584, 0.134, 0.996, 0.17, 192.0, 0.0, 0.0, 0.0, 0.0, 0.0, 0.0, 0.0, 0.0, 0.0, 1.695336328776092E9, 0.0, 2023-09-21 17:45:28.776
14.0, 10119.551136440175, 15426.034084085713, -187500.02235174447, -53633.92724203196, -3403.231907276143, -10987.670539339846, -187500.02235174447, -23665.200014734273, -14323.64604754997, 21466.883595810366, -41189.30294386184, -187500.02235174447, -15693.025671604357, -37097.50319689551, -30846.368473335326, -2129.383639023738, 0.134, 0.996, 0.17, 192.0, 0.0, 0.0, 0.0, 0.0, 0.0, 0.0, 0.0, 0.0, 0.0, 1.695336328776095E9, 0.0, 2023-09-21 17:45:28.776
16.0, 10125.29553476519, 15428.135148064513, -187500.02235174447, -53639.51517814579, -3392.6371804043274, -10994.711338843268, -187500.02235174447, -23671.480854926212, -14337.347666901072, 21476.897177326344, -41190.08525491777, -187500.02235174447, -15702.234590319944, -37105.97450804407, -30853.476328072113, -2128.2660518009725, 0.134, 0.996, 0.17, 192.0, 0.0, 0.0, 0.0, 0.0, 0.0, 0.0, 0.0, 0.0, 0.0, 1.695336328836459E9, 0.0, 2023-09-21 17:45:28.836
18.0, 10130.145863311991, 15438.640467958507, -187500.02235174447, -53635.9612507774, -3399.901497352302, -10978.662786324358, -187500.02235174447, -23655.856985551953, -14314.772405001213, 21474.95257555873, -41161.34091154825, -187500.02235174447, -15684.643767433618, -37092.652868348705, -30826.698938214653, -2128.4895692455257, 0.138, 0.986, 0.176, 192.0, 2.0, 40.0, 15.0, 104.0, 2.5, 64.0, 0.0, 0.0, 0.0, 1.695336328836467E9, 0.0, 2023-09-21 17:45:28.836
20.0, 10129.76588365625, 15430.862060888061, -187500.02235174447, -53650.467532928895, -3387.652741390794, -10996.052443510585, -187500.02235174447, -23668.10574151346, -14318.54984981416, 21474.840816836455, -41158.56929523579, -187500.02235174447, -15691.595159959217, -37105.12514175477, -30856.851441484865, -2133.4740082590592, 0.138, 0.986, 0.176, 192.0, 0.0, 0.0, 0.0, 0.0, 0.0, 0.0, 0.0, 0.0, 0.0, 1.695336328836471E9, 0.0, 2023-09-21 17:45:28.836
22.0, 10133.185700557911, 15442.954354638381, -187500.02235174447, -53638.95638453441, -3385.8646018343693, -10979.959187502765, -187500.02235174447, -23648.749130815166, -14312.40312008895, 21485.033212308077, -41145.1135450737, -187500.02235174447, -15688.667081435571, -37096.54207188393, -30822.63092072379, -2136.200921082607, 0.138, 0.986, 0.176, 192.0, 0.0, 0.0, 0.0, 0.0, 0.0, 0.0, 0.0, 0.0, 0.0, 1.695336328836475E9, 0.0, 2023-09-21 17:45:28.836
24.0, 10120.311095751655, 15423.754206151272, -187500.02235174447, -53654.11086727511, -3384.009407044579, -10997.326492944538, -187500.02235174447, -23662.763674588645, -14320.829727748602, 21461.38506667436, -41148.55571371981, -187500.02235174447, -15693.271540793365, -37108.34379295633, -30860.45007234217, -2137.7208397055674, 0.138, 0.986, 0.176, 192.0, 0.0, 0.0, 0.0, 0.0, 0.0, 0.0, 0.0, 0.0, 0.0, 1.695336328836478E9, 0.0, 2023-09-21 17:45:28.836
26.0, 10134.10212208058, 15449.72693320834, -187500.02235174447, -53628.74163731833, -3378.801450586492, -10966.838713507499, -187500.02235174447, -23635.11456669743, -14318.281628880695, 21472.315069713008, -41133.960024590495, -187500.02235174447, -15685.67194767856, -37096.005630017, -30821.37922303429, -2125.9191186331655, 0.138, 0.986, 0.176, 192.0, 0.0, 0.0, 0.0, 0.0, 0.0, 0.0, 0.0, 0.0, 0.0, 1.695336328836482E9, 0.0, 2023-09-21 17:45:28.836
28.0, 10119.998171329282, 15433.566621967153, -187500.02235174447, -53650.914567818, -3376.387462185319, -10984.7424608162, -187500.02235174447, -23657.153386730362, -14324.271896394719, 21460.62510736288, -41134.83174262426, -187500.02235174447, -15687.86241863518, -37098.41961841817, -30864.853365999865, -2119.548871463403, 0.138, 0.984, 0.17400000000000002, 192.0, 2.0, 40.0, 15.0, 96.0, 2.5, 56.0, 0.0, 0.0, 0.0, 1.695336328836486E9, 0.0, 2023-09-21 17:45:28.836
30.0, 10126.144901054491, 15440.205090070378, -187500.02235174447, -53648.96996605038, -3399.990904330123, -10972.963091488255, -187500.02235174447, -23651.96778201673, -14331.245640664774, 21469.00701153362, -41146.76757416339, -187500.02235174447, -15695.126735583155, -37111.3612784578, -30821.33451954538, -2134.3010228039057, 0.138, 0.984, 0.17400000000000002, 192.0, 0.0, 0.0, 0.0, 0.0, 0.0, 0.0, 0.0, 0.0, 0.0, 1.695336328896723E9, 0.0, 2023-09-21 17:45:28.896
32.0, 10128.447130733388, 15438.01461911376, -187500.02235174447, -53639.73869559034, -3377.5050494080842, -10969.36446063095, -187500.02235174447, -23646.066921480528, -14311.93373345539, 21442.497842609628, -41127.03098380935, -187500.02235174447, -15674.697241151005, -37092.786978815435, -30866.909726489754, -2116.061999328375, 0.138, 0.984, 0.17400000000000002, 192.0, 0.0, 0.0, 0.0, 0.0, 0.0, 0.0, 0.0, 0.0, 0.0, 1.695336328896735E9, 0.0, 2023-09-21 17:45:28.896
34.0, 10133.520976724742, 15442.552023238186, -187500.02235174447, -53639.962213034894, -3389.262066991576, -10970.50439959817, -187500.02235174447, -23647.653895336854, -14318.661608536437, 21462.68146785277, -41134.384707735146, -187500.02235174447, -15685.96252035648, -37106.980336544555, -30810.829199651387, -2109.535289947425, 0.138, 0.984, 0.17400000000000002, 192.0, 0.0, 0.0, 0.0, 0.0, 0.0, 0.0, 0.0, 0.0, 0.0, 1.695336328896739E9, 0.0, 2023-09-21 17:45:28.896
36.0, 10129.184738300411, 15433.00782835577, -187500.02235174447, -53638.24112871184, -3378.6673401197604, -10976.919350256843, -187500.02235174447, -23651.699561083267, -14319.130995169997, 21445.403569388818, -41135.09996355772, -187500.02235174447, -15686.610720945684, -37113.842322092336, -30847.26254311354, -2120.509996474981, 0.138, 0.984, 0.17400000000000002, 192.0, 0.0, 0.0, 0.0, 0.0, 0.0, 0.0, 0.0, 0.0, 0.0, 1.695336328896742E9, 0.0, 2023-09-21 17:45:28.896
38.0, 10135.778502914727, 15436.807624913172, -187500.02235174447, -53638.62110836758, -3381.6848256212265, -10985.16714396085, -187500.02235174447, -23650.805491305055, -14309.631503776493, 21472.784456346566, -41127.679184398556, -187500.02235174447, -15678.497037708406, -37109.75195285701, -30825.089612613872, -2109.870566114255, 0.14, 0.986, 0.17, 192.0, 2.0, 48.0, 15.0, 104.0, 2.5, 40.0, 0.0, 0.0, 0.0, 1.695336328896746E9, 0.0, 2023-09-21 17:45:28.896
40.0, 10132.001058101781, 15438.327543536132, -187500.02235174447, -53639.91750954599, -3382.3330262104305, -10987.804649806578, -187500.02235174447, -23648.05622673705, -14317.856945736045, 21450.38800840235, -41133.71415540149, -187500.02235174447, -15683.570883699762, -37115.47399943757, -30851.419967582224, -2122.834577898333, 0.14, 0.986, 0.17, 192.0, 0.0, 0.0, 0.0, 0.0, 0.0, 0.0, 0.0, 0.0, 0.0, 1.695336328896749E9, 0.0, 2023-09-21 17:45:28.896
42.0, 10145.546215241697, 15447.759979696273, -187500.02235174447, -53642.59971888062, -3376.543924396506, -10988.341091673505, -187500.02235174447, -23649.10675872645, -14320.852079493055, 21476.696011626245, -41135.368184491184, -187500.02235174447, -15684.219084288967, -37119.1620372727, -30815.545417731457, -2126.5002639890035, 0.14, 0.986, 0.17, 192.0, 0.0, 0.0, 0.0, 0.0, 0.0, 0.0, 0.0, 0.0, 0.0, 1.695336328896753E9, 0.0, 2023-09-21 17:45:28.896
44.0, 10125.094369065091, 15438.662819702962, -187500.02235174447, -53646.399515438025, -3371.224209216143, -10991.850315552989, -187500.02235174447, -23650.179642460305, -14309.251524120751, 21463.776703331077, -41122.918262829575, -187500.02235174447, -15673.646709161605, -37106.689763866634, -30855.353874606357, -2132.445828014115, 0.14, 0.986, 0.17, 192.0, 0.0, 0.0, 0.0, 0.0, 0.0, 0.0, 0.0, 0.0, 0.0, 1.695336328896756E9, 0.0, 2023-09-21 17:45:28.896
46.0, 10115.460767204853, 15423.977723595826, -187500.02235174447, -53662.693937145945, -3372.386499927819, -11007.474184927249, -187500.02235174447, -23665.49058741219, -14335.626582578014, 21476.226624992683, -41150.90264688762, -187500.02235174447, -15692.824505904258, -37130.44966822263, -30829.023519638005, -2137.162046094185, 0.14, 0.986, 0.17, 192.0, 0.0, 0.0, 0.0, 0.0, 0.0, 0.0, 0.0, 0.0, 0.0, 1.695336328956993E9, 0.0, 2023-09-21 17:45:28.956
48.0, 10095.411252428443, 15416.042854314192, -187500.02235174447, -53658.31299523271, -3378.0414912750116, -10999.718129601257, -187500.02235174447, -23663.38952343339, -14346.288364683196, 21444.82242403298, -41154.8142021673, -187500.02235174447, -15695.193790816522, -37125.95696758711, -30832.152763861748, -2149.0755258888635, 0.134, 0.99, 0.168, 192.0, 2.0, 24.0, 15.0, 120.0, 2.5, 32.0, 0.0, 0.0, 0.0, 1.695336328957003E9, 0.0, 2023-09-21 17:45:28.957
50.0, 10094.80775532815, 15410.656083900463, -187500.02235174447, -53660.63757665606, -3380.81310758747, -10995.001911521187, -187500.02235174447, -23662.651915866365, -14354.804379320667, 21454.545432871037, -41165.9677226505, -187500.02235174447, -15700.87113390817, -37124.749973386526, -30810.516275229013, -2145.8568746872993, 0.134, 0.99, 0.168, 192.0, 0.0, 0.0, 0.0, 0.0, 0.0, 0.0, 0.0, 0.0, 0.0, 1.695336328957007E9, 0.0, 2023-09-21 17:45:28.957
52.0, 10086.738775579784, 15409.00205481077, -187500.02235174447, -53660.14583827804, -3382.6012471438944, -10989.861010296467, -187500.02235174447, -23662.137825743896, -14348.769408317734, 21432.48426109365, -41159.95510339202, -187500.02235174447, -15694.232665804944, -37119.27379599497, -30815.43365900918, -2149.0978776333186, 0.134, 0.99, 0.168, 192.0, 0.0, 0.0, 0.0, 0.0, 0.0, 0.0, 0.0, 0.0, 0.0, 1.695336328957011E9, 0.0, 2023-09-21 17:45:28.957
54.0, 10095.455955917354, 15416.512240947754, -187500.02235174447, -53657.240111498846, -3378.868505819858, -10991.64914985289, -187500.02235174447, -23668.217500235736, -14349.775236818223, 21451.058560736008, -41161.07269061478, -187500.02235174447, -15691.997491359412, -37120.07845879537, -30811.365641518314, -2141.2077118405955, 0.134, 0.99, 0.168, 192.0, 0.0, 0.0, 0.0, 0.0, 0.0, 0.0, 0.0, 0.0, 0.0, 1.695336328957014E9, 0.0, 2023-09-21 17:45:28.957
56.0, 10083.85540054505, 15416.892220603493, -187500.02235174447, -53656.56955916519, -3383.9870553001233, -10990.397452163394, -187500.02235174447, -23664.238889722692, -14349.17173971793, 21449.09160722394, -41155.149478334126, -187500.02235174447, -15696.110212339188, -37110.73542961305, -30803.631937936778, -2145.275729331461, 0.134, 0.99, 0.168, 192.0, 0.0, 0.0, 0.0, 0.0, 0.0, 0.0, 0.0, 0.0, 0.0, 1.695336328957018E9, 0.0, 2023-09-21 17:45:28.957
58.0, 10091.075014004115, 15414.835860113606, -187500.02235174447, -53657.12835277657, -3373.90641855078, -10997.102975499985, -187500.02235174447, -23671.59261364849, -14361.398143934983, 21453.561956115005, -41164.42545228308, -187500.02235174447, -15706.68258746655, -37131.05316532292, -30801.039135579962, -2149.90254043371, 0.14, 0.992, 0.17, 192.0, 2.0, 48.0, 15.5, 0.0, 2.5, 40.0, 0.0, 0.0, 0.0, 1.695336328957021E9, 0.0, 2023-09-21 17:45:28.957
60.0, 10099.076938519114, 15438.998095869792, -187500.02235174447, -53636.74356183333, -3370.352491182386, -10983.580170104524, -187500.02235174447, -23653.800625062064, -14354.022068264732, 21466.615374876903, -41139.90558861561, -187500.02235174447, -15691.796325659316, -37099.38074342975, -30798.602795434334, -2141.610043240791, 0.14, 0.992, 0.17, 192.0, 0.0, 0.0, 0.0, 0.0, 0.0, 0.0, 0.0, 0.0, 0.0, 1.695336329017278E9, 0.0, 2023-09-21 17:45:29.017
62.0, 10106.117738022534, 15428.96216260936, -187500.02235174447, -53650.64634688453, -3367.37970916983, -11010.290504728617, -187500.02235174447, -23674.25247123867, -14342.868547781534, 21484.541473930058, -41139.05622232631, -187500.02235174447, -15689.225875046955, -37108.947290056625, -30828.10709811534, -2142.2135403410844, 0.14, 0.992, 0.17, 192.0, 0.0, 0.0, 0.0, 0.0, 0.0, 0.0, 0.0, 0.0, 0.0, 1.695336329017294E9, 0.0, 2023-09-21 17:45:29.017
64.0, 10112.577392170118, 15445.480101761832, -187500.02235174447, -53644.18669273695, -3373.034700517023, -10998.712301100768, -187500.02235174447, -23661.042590265584, -14328.116396441032, 21466.682430110268, -41128.84147511023, -187500.02235174447, -15683.213255788478, -37113.127066269764, -30800.18976929066, -2150.5283892784582, 0.14, 0.992, 0.17, 192.0, 0.0, 0.0, 0.0, 0.0, 0.0, 0.0, 0.0, 0.0, 0.0, 1.695336329017298E9, 0.0, 2023-09-21 17:45:29.017
66.0, 10121.540441696698, 15442.686133704918, -187500.02235174447, -53652.680355629964, -3368.43024115923, -11005.7978040931, -187500.02235174447, -23668.128093257917, -14328.965762730333, 21469.87872956738, -41130.249635010914, -187500.02235174447, -15688.421212246563, -37111.942423813634, -30830.56579000542, -2149.18728461114, 0.14, 0.992, 0.17, 192.0, 0.0, 0.0, 0.0, 0.0, 0.0, 0.0, 0.0, 0.0, 0.0, 1.695336329017302E9, 0.0, 2023-09-21 17:45:29.017
68.0, 10114.790214871195, 15436.874680146539, -187500.02235174447, -53661.73281213437, -3394.090043793922, -11013.062121041075, -187500.02235174447, -23678.432247451812, -14327.401140618462, 21465.229566720674, -41136.485771713946, -187500.02235174447, -15689.494095980419, -37115.58575815985, -30793.350135487337, -2152.7188602350784, 0.14200000000000002, 0.994, 0.166, 192.0, 2.0, 56.0, 15.5, 8.0, 2.5, 24.0, 0.0, 0.0, 0.0, 1.695336329017306E9, 0.0, 2023-09-21 17:45:29.017
70.0, 10107.592953156585, 15422.256639272768, -187500.02235174447, -53675.18856229646, -3396.682846150738, -11027.724865403756, -187500.02235174447, -23695.97836684923, -14343.427341392917, 21455.283040438062, -41158.72575744698, -187500.02235174447, -15703.86626766518, -37131.656662423215, -30813.19848456365, -2167.1357354087518, 0.14200000000000002, 0.994, 0.166, 192.0, 0.0, 0.0, 0.0, 0.0, 0.0, 0.0, 0.0, 0.0, 0.0, 1.69533632901731E9, 0.0, 2023-09-21 17:45:29.017
72.0, 10112.599743914574, 15438.081674347124, -187500.02235174447, -53666.3149197477, -3408.350456756408, -11016.794862365112, -187500.02235174447, -23688.624642923434, -14338.398198890472, 21466.30245045453, -41159.99980688093, -187500.02235174447, -15699.954712385503, -37130.762592645005, -30765.119882240284, -2168.186267398151, 0.14200000000000002, 0.994, 0.166, 192.0, 0.0, 0.0, 0.0, 0.0, 0.0, 0.0, 0.0, 0.0, 0.0, 1.695336329017314E9, 0.0, 2023-09-21 17:45:29.017
74.0, 10106.654179889463, 15428.33631376461, -187500.02235174447, -53674.518009962805, -3395.7887763725257, -11025.713208402778, -187500.02235174447, -23697.78885815011, -14335.067788966631, 21444.084816465955, -41162.59260923775, -187500.02235174447, -15699.597084474217, -37129.17561878868, -30801.95555710263, -2171.606084299813, 0.14200000000000002, 0.994, 0.166, 192.0, 0.0, 0.0, 0.0, 0.0, 0.0, 0.0, 0.0, 0.0, 0.0, 1.695336329017317E9, 0.0, 2023-09-21 17:45:29.017
76.0, 10114.253773004268, 15436.606459213075, -187500.02235174447, -53657.21775975439, -3392.212497259676, -10999.919295301353, -187500.02235174447, -23669.312735714047, -14346.9365652724, 21464.402552175827, -41170.19220235255, -187500.02235174447, -15709.230686334455, -37131.61195893431, -30739.974169728062, -2166.3534243528156, 0.14200000000000002, 0.994, 0.166, 192.0, 0.0, 0.0, 0.0, 0.0, 0.0, 0.0, 0.0, 0.0, 0.0, 1.695336329076578E9, 0.0, 2023-09-21 17:45:29.076
78.0, 10112.085653792103, 15429.833880643117, -187500.02235174447, -53656.971890565386, -3375.560447640473, -11004.456699425782, -187500.02235174447, -23673.604270649466, -14335.447768622373, 21454.25486019312, -41159.485716758456, -187500.02235174447, -15696.289026294831, -37120.34667972883, -30785.012934805505, -2154.5293515359585, 0.14400000000000002, 0.988, 0.17, 192.0, 2.0, 64.0, 15.0, 112.0, 2.5, 40.0, 0.0, 0.0, 0.0, 1.695336329076601E9, 0.0, 2023-09-21 17:45:29.076
80.0, 10104.374301955022, 15426.503470719275, -187500.02235174447, -53665.30909124722, -3386.5128024235732, -11011.832775096032, -187500.02235174447, -23681.7403056312, -14343.740265815291, 21474.259671480617, -41166.884144173164, -187500.02235174447, -15698.993587373923, -37124.0123658195, -30747.41730063168, -2157.2339126150505, 0.14400000000000002, 0.988, 0.17, 192.0, 0.0, 0.0, 0.0, 0.0, 0.0, 0.0, 0.0, 0.0, 0.0, 1.695336329076605E9, 0.0, 2023-09-21 17:45:29.076
82.0, 10104.016674043736, 15428.090444575602, -187500.02235174447, -53660.34700397814, -3379.2931889645088, -11009.93287681733, -187500.02235174447, -23675.660631139355, -14344.634335593502, 21444.19657518823, -41168.158193607116, -187500.02235174447, -15705.453241521507, -37129.0638600664, -30768.047960763928, -2168.342729609338, 0.14400000000000002, 0.988, 0.17, 192.0, 0.0, 0.0, 0.0, 0.0, 0.0, 0.0, 0.0, 0.0, 0.0, 1.695336329076609E9, 0.0, 2023-09-21 17:45:29.076
84.0, 10114.387883471, 15430.839709143605, -187500.02235174447, -53654.11086727511, -3386.445747190207, -11008.256495983183, -187500.02235174447, -23682.388506220403, -14334.866623266535, 21449.359828157405, -41161.7655946929, -187500.02235174447, -15696.601950717206, -37127.43218272116, -30726.920750966165, -2151.9365491791427, 0.14400000000000002, 0.988, 0.17, 192.0, 0.0, 0.0, 0.0, 0.0, 0.0, 0.0, 0.0, 0.0, 0.0, 1.695336329076612E9, 0.0, 2023-09-21 17:45:29.076
86.0, 10121.3392759966, 15440.24979355929, -187500.02235174447, -53641.21391072439, -3380.678997120738, -10994.912504543365, -187500.02235174447, -23669.715067114244, -14320.606210304048, 21436.418168117783, -41149.87446664268, -187500.02235174447, -15692.824505904258, -37113.88702558124, -30751.395911144726, -2152.115363134785, 0.14400000000000002, 0.988, 0.17, 192.0, 0.0, 0.0, 0.0, 0.0, 0.0, 0.0, 0.0, 0.0, 0.0, 1.695336329076616E9, 0.0, 2023-09-21 17:45:29.076
88.0, 10129.698828422885, 15447.625869229541, -187500.02235174447, -53641.459779913406, -3386.9821890571343, -10985.88239978342, -187500.02235174447, -23658.49449139768, -14323.668399294425, 21471.331592956973, -41151.10381258772, -187500.02235174447, -15694.500886738408, -37110.64602263523, -30722.428050330647, -2143.666403730679, 0.14, 0.986, 0.17400000000000002, 192.0, 2.0, 48.0, 15.0, 104.0, 2.5, 56.0, 0.0, 0.0, 0.0, 1.69533632907662E9, 0.0, 2023-09-21 17:45:29.076
90.0, 10131.375209257032, 15454.197282099401, -187500.02235174447, -53640.543358390736, -3381.126032009844, -10986.150620716884, -187500.02235174447, -23654.426473906813, -14316.806413746646, 21454.947764271234, -41138.09509731473, -187500.02235174447, -15687.124811068155, -37100.81125507489, -30761.52125138298, -2144.5157700199807, 0.14, 0.986, 0.17400000000000002, 192.0, 0.0, 0.0, 0.0, 0.0, 0.0, 0.0, 0.0, 0.0, 0.0, 1.695336329136432E9, 0.0, 2023-09-21 17:45:29.136
92.0, 10130.749360412283, 15443.803720927683, -187500.02235174447, -53658.38005046607, -3390.4020059587965, -11005.283713970628, -187500.02235174447, -23668.128093257917, -14317.745187013768, 21491.91754960031, -41139.90558861561, -187500.02235174447, -15685.67194767856, -37111.42833369116, -30742.23169591805, -2137.854950172299, 0.14, 0.986, 0.17400000000000002, 192.0, 0.0, 0.0, 0.0, 0.0, 0.0, 0.0, 0.0, 0.0, 0.0, 1.695336329136445E9, 0.0, 2023-09-21 17:45:29.136
94.0, 10118.210031772856, 15438.282840047223, -187500.02235174447, -53653.17209400798, -3383.2494477330983, -10999.628722623434, -187500.02235174447, -23662.20488097726, -14325.233021406297, 21463.575537630983, -41146.901684630124, -187500.02235174447, -15694.746755927416, -37120.8607698513, -30754.435748390646, -2157.703299248612, 0.14, 0.986, 0.17400000000000002, 192.0, 0.0, 0.0, 0.0, 0.0, 0.0, 0.0, 0.0, 0.0, 0.0, 1.695336329136448E9, 0.0, 2023-09-21 17:45:29.136
96.0, 10120.713427151852, 15431.219688799345, -187500.02235174447, -53661.151666778525, -3390.7372821256263, -11005.775452348644, -187500.02235174447, -23672.374924704425, -14322.148480671463, 21483.222721007198, -41146.275835785375, -187500.02235174447, -15686.72247966796, -37118.60324366132, -30743.952780241107, -2147.1979793546175, 0.14, 0.986, 0.17400000000000002, 192.0, 0.0, 0.0, 0.0, 0.0, 0.0, 0.0, 0.0, 0.0, 0.0, 1.695336329136452E9, 0.0, 2023-09-21 17:45:29.136
98.0, 10110.588086913596, 15428.135148064513, -187500.02235174447, -53658.089477788155, -3385.976360556646, -10998.89111505641, -187500.02235174447, -23654.62763960691, -14332.318524398628, 21453.7631218151, -41159.485716758456, -187500.02235174447, -15699.77589842986, -37124.50410419752, -30735.74969002601, -2164.0735464183745, 0.14200000000000002, 0.99, 0.17200000000000001, 192.0, 2.0, 56.0, 15.0, 120.0, 2.5, 48.0, 0.0, 0.0, 0.0, 1.695336329136456E9, 0.0, 2023-09-21 17:45:29.136
100.0, 10118.925287595426, 15429.208031798367, -187500.02235174447, -53660.68228014497, -3378.28736046402, -11000.969827290754, -187500.02235174447, -23657.600421619467, -14331.9832482318, 21480.384049461372, -41162.57025749329, -187500.02235174447, -15694.836162905236, -37117.66447039419, -30714.69434674911, -2144.001679897509, 0.14200000000000002, 0.99, 0.17200000000000001, 192.0, 0.0, 0.0, 0.0, 0.0, 0.0, 0.0, 0.0, 0.0, 0.0, 1.69533632913646E9, 0.0, 2023-09-21 17:45:29.136
102.0, 10093.064319260637, 15409.76201412225, -187500.02235174447, -53676.66377743051, -3403.1648520427766, -11020.684065900334, -187500.02235174447, -23679.50513118567, -14343.539100115193, 21457.451159650227, -41177.031836155875, -187500.02235174447, -15707.666064222583, -37131.54490370094, -30706.4465530451, -2163.313587106894, 0.14200000000000002, 0.99, 0.17200000000000001, 192.0, 0.0, 0.0, 0.0, 0.0, 0.0, 0.0, 0.0, 0.0, 0.0, 1.695336329136463E9, 0.0, 2023-09-21 17:45:29.136
104.0, 10100.440394930887, 15412.33246473461, -187500.02235174447, -53671.67933841698, -3395.811128116981, -11014.89496408641, -187500.02235174447, -23678.745171874187, -14347.160082716953, 21460.37923817387, -41183.80441472583, -187500.02235174447, -15707.286084566842, -37141.33496777236, -30695.270680817448, -2162.866552217788, 0.14200000000000002, 0.99, 0.17200000000000001, 192.0, 0.0, 0.0, 0.0, 0.0, 0.0, 0.0, 0.0, 0.0, 0.0, 1.695336329136467E9, 0.0, 2023-09-21 17:45:29.136
106.0, 10101.04389203118, 15425.430586985422, -187500.02235174447, -53650.311070717704, -3394.157099027288, -10988.586960862513, -187500.02235174447, -23653.44299715078, -14328.563431330138, 21448.465758379192, -41164.313693560805, -187500.02235174447, -15689.963482613979, -37111.62949939126, -30694.220148828048, -2152.09301139033, 0.14200000000000002, 0.99, 0.17200000000000001, 192.0, 0.0, 0.0, 0.0, 0.0, 0.0, 0.0, 0.0, 0.0, 0.0, 1.695336329196802E9, 0.0, 2023-09-21 17:45:29.196
108.0, 10096.350025695567, 15415.81933686964, -187500.02235174447, -53662.42571621248, -3404.1036253098996, -11004.300237214595, -187500.02235174447, -23671.480854926212, -14344.41081814895, 21468.045886522043, -41174.796661710345, -187500.02235174447, -15699.842953663225, -37123.565330930396, -30709.486390291026, -2145.678060731657, 0.14, 0.992, 0.178, 192.0, 2.0, 48.0, 15.5, 0.0, 2.5, 72.0, 0.0, 0.0, 0.0, 1.695336329196813E9, 0.0, 2023-09-21 17:45:29.196
110.0, 10090.896200048472, 15428.403368997977, -187500.02235174447, -53660.50346618932, -3407.478738722651, -10996.432423166327, -187500.02235174447, -23666.608174634956, -14341.236870436296, 21459.0157817621, -41168.918152918595, -187500.02235174447, -15694.769107671871, -37121.64308090724, -30696.388268040213, -2143.934624664143, 0.14, 0.992, 0.178, 192.0, 0.0, 0.0, 0.0, 0.0, 0.0, 0.0, 0.0, 0.0, 0.0, 1.695336329196817E9, 0.0, 2023-09-21 17:45:29.196
112.0, 10090.627979115008, 15411.259581000755, -187500.02235174447, -53673.51218146231, -3386.6916163792157, -11009.955228561786, -187500.02235174447, -23676.15236951737, -14346.400123405472, 21454.567784615494, -41180.67517050209, -187500.02235174447, -15703.843915920725, -37130.762592645005, -30709.88872169122, -2152.115363134785, 0.14, 0.992, 0.178, 192.0, 0.0, 0.0, 0.0, 0.0, 0.0, 0.0, 0.0, 0.0, 0.0, 1.695336329196821E9, 0.0, 2023-09-21 17:45:29.196
114.0, 10097.668778618428, 15432.24786904429, -187500.02235174447, -53651.5627684072, -3386.445747190207, -10982.619045092946, -187500.02235174447, -23652.839500050486, -14347.763579817247, 21450.499767124627, -41177.68003674508, -187500.02235174447, -15699.48532575194, -37126.426354220675, -30671.86840437274, -2161.57015103938, 0.14, 0.992, 0.178, 192.0, 0.0, 0.0, 0.0, 0.0, 0.0, 0.0, 0.0, 0.0, 0.0, 1.695336329196824E9, 0.0, 2023-09-21 17:45:29.196
116.0, 10097.802889085162, 15424.715331162852, -187500.02235174447, -53658.58121616617, -3376.0074825295787, -11000.254571468184, -187500.02235174447, -23667.904575813365, -14328.675190052414, 21469.521101656093, -41155.06007135631, -187500.02235174447, -15671.903273094093, -37103.18053998715, -30735.772041770466, -2141.9453194076204, 0.14, 0.992, 0.178, 192.0, 0.0, 0.0, 0.0, 0.0, 0.0, 0.0, 0.0, 0.0, 0.0, 1.695336329196832E9, 0.0, 2023-09-21 17:45:29.196
118.0, 10097.42290942942, 15430.862060888061, -187500.02235174447, -53657.41892545449, -3398.8733171073577, -11002.601504635992, -187500.02235174447, -23672.01729679314, -14342.55562335916, 21472.426828435284, -41168.515821518406, -187500.02235174447, -15695.327901283254, -37115.89868258222, -30693.236672072017, -2152.6518050017125, 0.134, 0.984, 0.17200000000000001, 192.0, 2.0, 24.0, 15.0, 96.0, 2.5, 48.0, 0.0, 0.0, 0.0, 1.695336329196835E9, 0.0, 2023-09-21 17:45:29.196
120.0, 10090.538572137186, 15411.863078101049, -187500.02235174447, -53666.538437192256, -3381.707177365682, -11020.237031011227, -187500.02235174447, -23690.636299924412, -14348.009449006255, 21458.54639512854, -41182.01627516941, -187500.02235174447, -15705.050910121312, -37134.54003745795, -30706.334794322825, -2162.955959195609, 0.134, 0.984, 0.17200000000000001, 192.0, 0.0, 0.0, 0.0, 0.0, 0.0, 0.0, 0.0, 0.0, 0.0, 1.695336329257029E9, 0.0, 2023-09-21 17:45:29.257
122.0, 10108.308208979155, 15438.14872958049, -187500.02235174447, -53643.49378865884, -3369.391366170808, -10992.543219631103, -187500.02235174447, -23658.092159997483, -14332.810262776646, 21469.074066766985, -41163.330216804774, -187500.02235174447, -15685.62724418965, -37120.905473340215, -30665.83343336981, -2154.350537580316, 0.134, 0.984, 0.17200000000000001, 192.0, 0.0, 0.0, 0.0, 0.0, 0.0, 0.0, 0.0, 0.0, 0.0, 1.695336329257054E9, 0.0, 2023-09-21 17:45:29.257
124.0, 10104.754281610762, 15429.856232387572, -187500.02235174447, -53647.67356487198, -3366.195066713699, -10996.36536793296, -187500.02235174447, -23663.233061222203, -14328.854004008057, 21459.8651480514, -41163.03964412685, -187500.02235174447, -15681.715688909972, -37119.47496169507, -30716.214265372073, -2143.37583105276, 0.134, 0.984, 0.17200000000000001, 192.0, 0.0, 0.0, 0.0, 0.0, 0.0, 0.0, 0.0, 0.0, 0.0, 1.695336329257065E9, 0.0, 2023-09-21 17:45:29.257
126.0, 10110.3869212135, 15443.066113360657, -187500.02235174447, -53641.012745024294, -3386.8257268459474, -10979.55685610257, -187500.02235174447, -23648.413854648337, -14325.478890595305, 21479.400572705337, -41158.90457140262, -187500.02235174447, -15678.362927241675, -37108.947290056625, -30683.22309055604, -2133.6975257036124, 0.134, 0.984, 0.17200000000000001, 192.0, 0.0, 0.0, 0.0, 0.0, 0.0, 0.0, 0.0, 0.0, 0.0, 1.695336329257068E9, 0.0, 2023-09-21 17:45:29.257
128.0, 10111.370397969533, 15438.327543536132, -187500.02235174447, -53649.19348349494, -3388.0774245354446, -10988.765774818155, -187500.02235174447, -23654.292363440083, -14318.706312025346, 21458.568746872992, -41159.6645307141, -187500.02235174447, -15679.860494120181, -37102.71115335359, -30740.152983683707, -2140.4924560180257, 0.14, 0.992, 0.168, 192.0, 2.0, 48.0, 15.5, 0.0, 2.5, 32.0, 0.0, 0.0, 0.0, 1.695336329257072E9, 0.0, 2023-09-21 17:45:29.257
130.0, 10114.85727010456, 15434.572450467642, -187500.02235174447, -53658.782381866265, -3420.420398762274, -10994.018434765154, -187500.02235174447, -23667.54694790208, -14332.229117420808, 21460.938031785256, -41179.17760362358, -187500.02235174447, -15699.887657152136, -37123.274758252475, -30683.178387067128, -2150.8189619563773, 0.14, 0.992, 0.168, 192.0, 0.0, 0.0, 0.0, 0.0, 0.0, 0.0, 0.0, 0.0, 0.0, 1.695336329257075E9, 0.0, 2023-09-21 17:45:29.257
132.0, 10106.944752567382, 15425.609400941063, -187500.02235174447, -53666.94076859245, -3411.189128302232, -11009.016455294664, -187500.02235174447, -23683.21552076525, -14336.386541889495, 21437.13342394035, -41175.556621021824, -187500.02235174447, -15698.278331551353, -37122.89477859673, -30704.5466547664, -2161.637206272746, 0.14, 0.992, 0.168, 192.0, 0.0, 0.0, 0.0, 0.0, 0.0, 0.0, 0.0, 0.0, 0.0, 1.695336329257079E9, 0.0, 2023-09-21 17:45:29.257
134.0, 10112.867964848037, 15430.146805065491, -187500.02235174447, -53670.42764072748, -3418.609907461394, -11006.825984338044, -187500.02235174447, -23682.34380273149, -14342.913251270444, 21453.20432820372, -41184.922001948595, -187500.02235174447, -15703.530991498352, -37130.1143920558, -30647.415595938637, -2166.6663487751903, 0.14, 0.992, 0.168, 192.0, 0.0, 0.0, 0.0, 0.0, 0.0, 0.0, 0.0, 0.0, 0.0, 1.695336329257082E9, 0.0, 2023-09-21 17:45:29.257
136.0, 10119.61819167354, 15440.428607514932, -187500.02235174447, -53653.105038774615, -3396.6157909173717, -10992.7443853312, -187500.02235174447, -23663.076599011016, -14326.954105729355, 21443.213098432196, -41175.57897276628, -187500.02235174447, -15691.14812507011, -37120.50314194002, -30677.03165734192, -2167.7168807645894, 0.14, 0.992, 0.168, 192.0, 0.0, 0.0, 0.0, 0.0, 0.0, 0.0, 0.0, 0.0, 0.0, 1.695336329317296E9, 0.0, 2023-09-21 17:45:29.317
138.0, 10119.305267251166, 15429.00686609827, -187500.02235174447, -53665.89023660305, -3401.4437677197184, -11009.239972739217, -187500.02235174447, -23678.02991605162, -14319.73449227029, 21471.085723767963, -41174.48373728797, -187500.02235174447, -15682.363889499175, -37120.63725240675, -30664.849956613776, -2151.534217778947, 0.146, 0.994, 0.166, 192.0, 2.0, 72.0, 15.5, 8.0, 2.5, 24.0, 0.0, 0.0, 0.0, 1.695336329317309E9, 0.0, 2023-09-21 17:45:29.317
140.0, 10104.776633355217, 15418.166270037445, -187500.02235174447, -53673.26631227331, -3386.4010437012967, -11017.174842020851, -187500.02235174447, -23680.779180619622, -14319.22040214782, 21438.318066396485, -41176.3165803333, -187500.02235174447, -15683.794401144314, -37126.47105770958, -30682.6419452002, -2171.337863366349, 0.146, 0.994, 0.166, 192.0, 0.0, 0.0, 0.0, 0.0, 0.0, 0.0, 0.0, 0.0, 0.0, 1.695336329317315E9, 0.0, 2023-09-21 17:45:29.317
142.0, 10122.300401008177, 15434.840671401105, -187500.02235174447, -53659.18471326646, -3373.615845872861, -10996.633588866423, -187500.02235174447, -23662.741322844187, -14332.854966265557, 21452.422017147783, -41190.97932469599, -187500.02235174447, -15701.072299608268, -37141.20085730563, -30638.430194667602, -2175.182363412662, 0.146, 0.994, 0.166, 192.0, 0.0, 0.0, 0.0, 0.0, 0.0, 0.0, 0.0, 0.0, 0.0, 1.695336329317319E9, 0.0, 2023-09-21 17:45:29.317
144.0, 10118.120624795036, 15440.450959259388, -187500.02235174447, -53648.008841038805, -3371.2465609605983, -10983.22254219324, -187500.02235174447, -23653.286534939594, -14315.64412303497, 21460.423941662782, -41162.704367960025, -187500.02235174447, -15679.301700508799, -37103.78403708745, -30661.318380989836, -2155.7810492254557, 0.146, 0.994, 0.166, 192.0, 0.0, 0.0, 0.0, 0.0, 0.0, 0.0, 0.0, 0.0, 0.0, 1.695336329317322E9, 0.0, 2023-09-21 17:45:29.317
146.0, 10112.018598558736, 15428.470424231342, -187500.02235174447, -53661.4645912009, -3377.214476730165, -10998.913466800865, -187500.02235174447, -23665.043552523086, -14325.478890595305, 21481.79220936206, -41175.8695454442, -187500.02235174447, -15683.81675288877, -37113.21647324759, -30652.377683207716, -2149.991947411531, 0.146, 0.994, 0.166, 192.0, 0.0, 0.0, 0.0, 0.0, 0.0, 0.0, 0.0, 0.0, 0.0, 1.695336329317326E9, 0.0, 2023-09-21 17:45:29.317
148.0, 10100.485098419798, 15422.435453228409, -187500.02235174447, -53661.97868132337, -3382.3330262104305, -10999.852240067989, -187500.02235174447, -23661.19905247677, -14331.245640664774, 21449.9633252577, -41182.128033891684, -187500.02235174447, -15691.43869774803, -37123.29710999693, -30643.191116236583, -2164.118249907285, 0.14400000000000002, 0.992, 0.168, 192.0, 2.0, 64.0, 15.5, 0.0, 2.5, 32.0, 0.0, 0.0, 0.0, 1.695336329317329E9, 0.0, 2023-09-21 17:45:29.317
150.0, 10114.678456148918, 15432.426682999932, -187500.02235174447, -53659.72115513339, -3380.522534909551, -10996.834754566522, -187500.02235174447, -23658.941526286784, -14318.728663769802, 21473.857340080423, -41181.01044666892, -187500.02235174447, -15684.77787790035, -37126.91809259869, -30639.01134002344, -2152.160066623696, 0.14400000000000002, 0.992, 0.168, 192.0, 0.0, 0.0, 0.0, 0.0, 0.0, 0.0, 0.0, 0.0, 0.0, 1.695336329376686E9, 0.0, 2023-09-21 17:45:29.376
152.0, 10104.888392077493, 15426.279953274723, -187500.02235174447, -53658.17888476597, -3395.0064653165896, -10992.69968184229, -187500.02235174447, -23652.571279117023, -14315.465309079327, 21464.469607409195, -41171.91328667561, -187500.02235174447, -15677.938244097024, -37119.8102378619, -30648.35436920576, -2151.198941612118, 0.14400000000000002, 0.992, 0.168, 192.0, 0.0, 0.0, 0.0, 0.0, 0.0, 0.0, 0.0, 0.0, 0.0, 1.695336329376701E9, 0.0, 2023-09-21 17:45:29.376
154.0, 10116.265430005245, 15426.123491063536, -187500.02235174447, -53654.42379169748, -3390.4690611921624, -10992.096184741997, -187500.02235174447, -23654.44882565127, -14322.50610858275, 21465.654249865325, -41179.64699025715, -187500.02235174447, -15687.638901190629, -37128.75093564403, -30642.431156925104, -2151.4671625455812, 0.14400000000000002, 0.992, 0.168, 192.0, 0.0, 0.0, 0.0, 0.0, 0.0, 0.0, 0.0, 0.0, 0.0, 1.695336329376705E9, 0.0, 2023-09-21 17:45:29.376
156.0, 10094.986569283792, 15408.555019921663, -187500.02235174447, -53665.0185185693, -3409.57980270145, -11001.618027879957, -187500.02235174447, -23665.848215323476, -14331.089178453587, 21456.378275916373, -41186.28545836037, -187500.02235174447, -15693.048023348812, -37126.22518852058, -30632.462278898038, -2152.115363134785, 0.14400000000000002, 0.992, 0.168, 192.0, 0.0, 0.0, 0.0, 0.0, 0.0, 0.0, 0.0, 0.0, 0.0, 1.695336329376708E9, 0.0, 2023-09-21 17:45:29.376
158.0, 10099.501621663765, 15407.705653632362, -187500.02235174447, -53664.54913193573, -3393.933581582735, -10997.929990044831, -187500.02235174447, -23663.68009611131, -14340.655725080458, 21465.609546376414, -41202.93750797958, -187500.02235174447, -15697.786593173338, -37134.9647206026, -30635.010377765942, -2158.5526655379135, 0.14400000000000002, 0.988, 0.166, 192.0, 2.0, 64.0, 15.0, 112.0, 2.5, 24.0, 0.0, 0.0, 0.0, 1.695336329376712E9, 0.0, 2023-09-21 17:45:29.376
160.0, 10079.697976076362, 15393.020557525226, -187500.02235174447, -53683.21283855592, -3412.440825991729, -11009.50819367268, -187500.02235174447, -23674.230119494216, -14344.813149549145, 21468.917604555798, -41211.140598194674, -187500.02235174447, -15700.513505996885, -37134.607092691316, -30611.026955965397, -2155.736345736545, 0.14400000000000002, 0.988, 0.166, 192.0, 0.0, 0.0, 0.0, 0.0, 0.0, 0.0, 0.0, 0.0, 0.0, 1.695336329376715E9, 0.0, 2023-09-21 17:45:29.376
162.0, 10102.317941465133, 15414.701749646872, -187500.02235174447, -53665.219684269396, -3385.1493460117995, -10989.749251574189, -187500.02235174447, -23655.789930318588, -14350.401085662972, 21442.877822265367, -41219.29898492086, -187500.02235174447, -15710.303570068309, -37144.665377696205, -30606.310737885327, -2164.565284796391, 0.14400000000000002, 0.988, 0.166, 192.0, 0.0, 0.0, 0.0, 0.0, 0.0, 0.0, 0.0, 0.0, 0.0, 1.695336329376718E9, 0.0, 2023-09-21 17:45:29.376
164.0, 10104.351950210566, 15427.19637479739, -187500.02235174447, -53658.648271399536, -3387.675093135249, -10976.271149667638, -187500.02235174447, -23643.742340057175, -14315.845288735067, 21477.143046515353, -41182.284496102875, -187500.02235174447, -15673.24437776141, -37109.640194134736, -30601.505112827435, -2144.9181014201763, 0.14400000000000002, 0.988, 0.166, 192.0, 0.0, 0.0, 0.0, 0.0, 0.0, 0.0, 0.0, 0.0, 0.0, 1.695336329376722E9, 0.0, 2023-09-21 17:45:29.376
166.0, 10096.931171051405, 15413.561810679652, -187500.02235174447, -53671.70169016143, -3386.7810233570367, -10999.047577267596, -187500.02235174447, -23660.126168742918, -14335.000733733266, 21456.892366038843, -41198.355400366236, -187500.02235174447, -15690.611683203184, -37127.07455480988, -30636.17266847762, -2154.1717236246736, 0.14400000000000002, 0.988, 0.166, 192.0, 0.0, 0.0, 0.0, 0.0, 0.0, 0.0, 0.0, 0.0, 0.0, 1.695336329436516E9, 0.0, 2023-09-21 17:45:29.436
168.0, 10090.13624073699, 15415.662874658452, -187500.02235174447, -53672.43929772846, -3403.8577561208913, -11000.411033679371, -187500.02235174447, -23667.077561268517, -14345.997792005277, 21468.02353477759, -41205.64206905867, -187500.02235174447, -15698.770069929371, -37133.0648223239, -30591.983269689474, -2165.9957964415307, 0.14, 0.986, 0.166, 192.0, 2.0, 48.0, 15.0, 104.0, 2.5, 24.0, 0.0, 0.0, 0.0, 1.695336329436532E9, 0.0, 2023-09-21 17:45:29.436
170.0, 10096.439432673387, 15410.030235055714, -187500.02235174447, -53669.37710873808, -3390.0667297919667, -11002.914429058364, -187500.02235174447, -23663.054247266562, -14335.157195944454, 21452.131444469866, -41198.86949048871, -187500.02235174447, -15693.562113471284, -37124.593511175335, -30630.048290496863, -2162.933607451154, 0.14, 0.986, 0.166, 192.0, 0.0, 0.0, 0.0, 0.0, 0.0, 0.0, 0.0, 0.0, 0.0, 1.695336329436536E9, 0.0, 2023-09-21 17:45:29.436
172.0, 10098.518144907732, 15414.120604291036, -187500.02235174447, -53667.74543139285, -3406.1376340553325, -10991.827963808533, -187500.02235174447, -23660.59555537648, -14342.376809403517, 21461.697991096735, -41205.03857195837, -187500.02235174447, -15700.513505996885, -37130.740240900544, -30579.153368372128, -2162.6206830287797, 0.14, 0.986, 0.166, 192.0, 0.0, 0.0, 0.0, 0.0, 0.0, 0.0, 0.0, 0.0, 0.0, 1.69533632943654E9, 0.0, 2023-09-21 17:45:29.436
174.0, 10095.098328006068, 15409.873772844527, -187500.02235174447, -53673.534533206766, -3399.409758974285, -10999.807536579077, -187500.02235174447, -23667.614003135444, -14333.570222088127, 21461.25095620763, -41197.46133058803, -187500.02235174447, -15697.048985606312, -37122.9618338301, -30630.048290496863, -2161.6595580172016, 0.14, 0.986, 0.166, 192.0, 0.0, 0.0, 0.0, 0.0, 0.0, 0.0, 0.0, 0.0, 0.0, 1.695336329436543E9, 0.0, 2023-09-21 17:45:29.436
176.0, 10113.00207531477, 15435.779444668227, -187500.02235174447, -53671.34406225015, -3414.7877591595366, -10997.907638300376, -187500.02235174447, -23668.441017680292, -14336.230079678307, 21491.64932866685, -41202.84810100176, -187500.02235174447, -15702.838087420236, -37123.74414488603, -30586.99883067594, -2163.514752806992, 0.14, 0.986, 0.166, 192.0, 0.0, 0.0, 0.0, 0.0, 0.0, 0.0, 0.0, 0.0, 0.0, 1.695336329436547E9, 0.0, 2023-09-21 17:45:29.436
178.0, 10107.391787456489, 15417.406310725966, -187500.02235174447, -53681.31294027722, -3402.7178171536707, -11009.75406286169, -187500.02235174447, -23680.466256197247, -14326.529422584705, 21470.035191778567, -41200.948202723055, -187500.02235174447, -15703.463936264985, -37127.029851320964, -30629.891828285676, -2180.5244303374807, 0.14, 0.99, 0.17, 192.0, 2.0, 48.0, 15.0, 120.0, 2.5, 40.0, 0.0, 0.0, 0.0, 1.69533632943655E9, 0.0, 2023-09-21 17:45:29.436
180.0, 10105.469537433331, 15415.90874384746, -187500.02235174447, -53667.9689488374, -3403.38836948733, -11001.707434857779, -187500.02235174447, -23663.523633900124, -14326.261201651241, 21463.10615099742, -41198.57891781079, -187500.02235174447, -15695.260846049887, -37128.303900754916, -30596.207749391528, -2173.215409900595, 0.14, 0.99, 0.17, 192.0, 0.0, 0.0, 0.0, 0.0, 0.0, 0.0, 0.0, 0.0, 0.0, 1.695336329496764E9, 0.0, 2023-09-21 17:45:29.496
182.0, 10089.756261081251, 15395.85922907105, -187500.02235174447, -53674.69682391844, -3405.891764866324, -11013.620914652458, -187500.02235174447, -23677.895805584885, -14328.36226563004, 21426.829269746457, -41203.09397019076, -187500.02235174447, -15697.496020495419, -37133.93654035766, -30628.48366838499, -2177.842221002844, 0.14, 0.99, 0.17, 192.0, 0.0, 0.0, 0.0, 0.0, 0.0, 0.0, 0.0, 0.0, 0.0, 1.695336329496783E9, 0.0, 2023-09-21 17:45:29.496
184.0, 10119.171156784434, 15423.865964873548, -187500.02235174447, -53657.62009115459, -3398.1357095403328, -10995.627760365935, -187500.02235174447, -23661.15434898786, -14323.958971972344, 21446.074121722475, -41203.317487635315, -187500.02235174447, -15701.184058330544, -37138.18337180417, -30569.363304300703, -2172.611912800302, 0.14, 0.99, 0.17, 192.0, 0.0, 0.0, 0.0, 0.0, 0.0, 0.0, 0.0, 0.0, 0.0, 1.695336329496787E9, 0.0, 2023-09-21 17:45:29.496
186.0, 10124.915555109448, 15435.287706290212, -187500.02235174447, -53651.07103002918, -3392.525421682051, -10989.950417274287, -187500.02235174447, -23658.852119308965, -14287.302111065641, 21456.087703238452, -41166.124184861685, -187500.02235174447, -15671.612700416174, -37104.23107197655, -30604.388487862172, -2157.2562643595056, 0.14, 0.99, 0.17, 192.0, 0.0, 0.0, 0.0, 0.0, 0.0, 0.0, 0.0, 0.0, 0.0, 1.695336329496791E9, 0.0, 2023-09-21 17:45:29.496
188.0, 10125.563755698653, 15429.610363198562, -187500.02235174447, -53659.117658033094, -3404.640067176827, -10991.336225430516, -187500.02235174447, -23666.004677534664, -14302.389538572972, 21479.713497127712, -41183.51384204791, -187500.02235174447, -15680.575749942751, -37119.854941350815, -30570.19031884555, -2158.373851582271, 0.138, 0.99, 0.166, 192.0, 2.0, 40.0, 15.0, 120.0, 2.5, 24.0, 0.0, 0.0, 0.0, 1.695336329496794E9, 0.0, 2023-09-21 17:45:29.496
190.0, 10103.949618810371, 15410.499621689276, -187500.02235174447, -53673.08749831766, -3412.5972882029164, -11006.289542471117, -187500.02235174447, -23678.432247451812, -14298.58974201557, 21456.24416544964, -41182.485661802966, -187500.02235174447, -15682.967386599468, -37119.18438901715, -30600.074601182296, -2165.3028923634165, 0.138, 0.99, 0.166, 192.0, 0.0, 0.0, 0.0, 0.0, 0.0, 0.0, 0.0, 0.0, 0.0, 1.695336329496798E9, 0.0, 2023-09-21 17:45:29.496
192.0, 10102.452051931865, 15398.027348283214, -187500.02235174447, -53673.35571925113, -3408.14929105631, -11005.395472692904, -187500.02235174447, -23669.78212234761, -14315.062977679132, 21452.511424125605, -41202.691638790566, -187500.02235174447, -15689.516447724875, -37135.992900847545, -30560.422606518583, -2164.632340029757, 0.138, 0.99, 0.166, 192.0, 0.0, 0.0, 0.0, 0.0, 0.0, 0.0, 0.0, 0.0, 0.0, 1.695336329496802E9, 0.0, 2023-09-21 17:45:29.496
194.0, 10088.929246536403, 15390.539513890686, -187500.02235174447, -53671.25465527233, -3409.780968401548, -11005.015493037165, -187500.02235174447, -23668.888052569397, -14316.962875957834, 21432.372502371374, -41202.66928704611, -187500.02235174447, -15692.466877992974, -37136.4622874811, -30565.317638554294, -2164.833505729855, 0.138, 0.99, 0.166, 192.0, 0.0, 0.0, 0.0, 0.0, 0.0, 0.0, 0.0, 0.0, 0.0, 1.695336329496806E9, 0.0, 2023-09-21 17:45:29.496
196.0, 10094.651293116964, 15390.248941212767, -187500.02235174447, -53682.49758273335, -3410.451520735207, -11010.581077406536, -187500.02235174447, -23675.92885207282, -14329.882184253, 21444.9118310108, -41211.65468831715, -187500.02235174447, -15692.623340204162, -37147.459345753115, -30543.345873754726, -2160.340805094338, 0.138, 0.99, 0.166, 192.0, 0.0, 0.0, 0.0, 0.0, 0.0, 0.0, 0.0, 0.0, 0.0, 1.695336329557074E9, 0.0, 2023-09-21 17:45:29.557
198.0, 10088.303397691656, 15396.37331919352, -187500.02235174447, -53680.55298096574, -3413.5360614700394, -11009.597600650502, -187500.02235174447, -23672.173759004327, -14315.264143379229, 21423.275342378063, -41201.641106801166, -187500.02235174447, -15694.590293716228, -37139.94915961613, -30545.603399944714, -2168.5885987983465, 0.14400000000000002, 0.996, 0.168, 192.0, 2.0, 64.0, 15.5, 16.0, 2.5, 32.0, 0.0, 0.0, 0.0, 1.695336329557086E9, 0.0, 2023-09-21 17:45:29.557
200.0, 10098.026406529714, 15391.724156346818, -187500.02235174447, -53687.90670489153, -3404.4612532211845, -11023.813310124078, -187500.02235174447, -23682.902596342876, -14316.73935851328, 21440.776758286567, -41206.71495279252, -187500.02235174447, -15694.858514649692, -37143.39132826225, -30543.94937085502, -2173.5283343229694, 0.14400000000000002, 0.996, 0.168, 192.0, 0.0, 0.0, 0.0, 0.0, 0.0, 0.0, 0.0, 0.0, 0.0, 1.69533632955709E9, 0.0, 2023-09-21 17:45:29.557
202.0, 10090.918551792927, 15390.51716214623, -187500.02235174447, -53686.16326882402, -3419.7051429397043, -11019.924106588855, -187500.02235174447, -23678.856930596463, -14318.751015514257, 21431.545487826526, -41211.96761273952, -187500.02235174447, -15694.366776271676, -37144.955950374126, -30528.973702069965, -2184.2571716615166, 0.14400000000000002, 0.996, 0.168, 192.0, 0.0, 0.0, 0.0, 0.0, 0.0, 0.0, 0.0, 0.0, 0.0, 1.695336329557094E9, 0.0, 2023-09-21 17:45:29.557
204.0, 10102.04972053167, 15390.986548779792, -187500.02235174447, -53685.09038509016, -3406.4058549887964, -11022.203984523296, -187500.02235174447, -23683.819017865542, -14313.431300333894, 21440.754406542113, -41209.598327827254, -187500.02235174447, -15679.972252842457, -37141.60318870583, -30528.772536369866, -2176.5011163355252, 0.14400000000000002, 0.996, 0.168, 192.0, 0.0, 0.0, 0.0, 0.0, 0.0, 0.0, 0.0, 0.0, 0.0, 1.695336329557098E9, 0.0, 2023-09-21 17:45:29.557
206.0, 10107.503546178765, 15409.091461788592, -187500.02235174447, -53664.169152279996, -3409.57980270145, -11006.17778374884, -187500.02235174447, -23669.7374188587, -14303.149497884453, 21435.38998787284, -41199.2271184, -187500.02235174447, -15682.565055199273, -37131.34373800084, -30510.220588471962, -2177.886924491754, 0.14400000000000002, 0.996, 0.168, 192.0, 0.0, 0.0, 0.0, 0.0, 0.0, 0.0, 0.0, 0.0, 0.0, 1.695336329557109E9, 0.0, 2023-09-21 17:45:29.557
208.0, 10113.940848581893, 15406.073976287125, -187500.02235174447, -53664.19150402445, -3394.8500031054027, -11011.8998303294, -187500.02235174447, -23672.39727644888, -14295.505201280737, 21454.63483984886, -41191.58282179628, -187500.02235174447, -15674.71959289546, -37127.052203065425, -30539.300208008317, -2157.2115608705953, 0.148, 0.99, 0.164, 192.0, 2.0, 80.0, 15.0, 120.0, 2.5, 16.0, 0.0, 0.0, 0.0, 1.695336329557112E9, 0.0, 2023-09-21 17:45:29.557
210.0, 10105.447185688876, 15409.851421100071, -187500.02235174447, -53668.19246628195, -3416.330029526953, -11007.943571560809, -187500.02235174447, -23671.81613109304, -14299.461460049328, 21465.073104509487, -41193.10274041924, -187500.02235174447, -15680.888674365126, -37127.85686586581, -30519.18363799854, -2155.6022352698133, 0.148, 0.99, 0.164, 192.0, 0.0, 0.0, 0.0, 0.0, 0.0, 0.0, 0.0, 0.0, 0.0, 1.695336329617428E9, 0.0, 2023-09-21 17:45:29.617
212.0, 10109.649313646474, 15407.616246654541, -187500.02235174447, -53672.37224249509, -3404.1706805432655, -11011.922182073855, -187500.02235174447, -23677.851102095974, -14306.59166653057, 21465.810712076513, -41206.312621392324, -187500.02235174447, -15690.701090181004, -37136.05995608091, -30535.723928895466, -2163.157124895707, 0.148, 0.99, 0.164, 192.0, 0.0, 0.0, 0.0, 0.0, 0.0, 0.0, 0.0, 0.0, 0.0, 1.695336329617445E9, 0.0, 2023-09-21 17:45:29.617
214.0, 10108.844650846082, 15415.506412447265, -187500.02235174447, -53666.78430638127, -3414.452482992707, -11000.880420312933, -187500.02235174447, -23660.997886776673, -14296.533381525682, 21469.45404642273, -41197.237813143474, -187500.02235174447, -15680.016956331368, -37124.14647628623, -30513.953329795997, -2160.027880671964, 0.148, 0.99, 0.164, 192.0, 0.0, 0.0, 0.0, 0.0, 0.0, 0.0, 0.0, 0.0, 0.0, 1.695336329617449E9, 0.0, 2023-09-21 17:45:29.617
216.0, 10103.368473454533, 15406.76688036524, -187500.02235174447, -53670.85232387213, -3406.808186388992, -11002.199173235795, -187500.02235174447, -23665.155311245362, -14294.991111158266, 21462.457950408218, -41196.477853831995, -187500.02235174447, -15682.430944732541, -37123.63238616376, -30550.789004658345, -2154.1717236246736, 0.148, 0.99, 0.164, 192.0, 0.0, 0.0, 0.0, 0.0, 0.0, 0.0, 0.0, 0.0, 0.0, 1.695336329617452E9, 0.0, 2023-09-21 17:45:29.617
218.0, 10099.412214685943, 15405.805755353662, -187500.02235174447, -53668.68420465997, -3422.119131340877, -10997.974693533743, -187500.02235174447, -23659.455616409257, -14310.100890410054, 21456.758255572113, -41210.313583649826, -187500.02235174447, -15691.52810472585, -37135.88114212527, -30497.61420459917, -2156.026918414464, 0.14400000000000002, 0.994, 0.16, 192.0, 2.0, 64.0, 15.5, 8.0, 2.5, 0.0, 0.0, 0.0, 0.0, 1.695336329617455E9, 0.0, 2023-09-21 17:45:29.617
220.0, 10102.362644954044, 15410.969008322838, -187500.02235174447, -53664.370317980094, -3411.5244044690617, -10994.93485628782, -187500.02235174447, -23657.756883830654, -14299.729680982791, 21438.18395592975, -41202.31165913483, -187500.02235174447, -15681.715688909972, -37125.934615842656, -30538.361434741193, -2147.6897177326346, 0.14400000000000002, 0.994, 0.16, 192.0, 0.0, 0.0, 0.0, 0.0, 0.0, 0.0, 0.0, 0.0, 0.0, 1.695336329617459E9, 0.0, 2023-09-21 17:45:29.617
222.0, 10092.751394838262, 15398.742604105784, -187500.02235174447, -53673.51218146231, -3421.6273929628605, -10999.56166739007, -187500.02235174447, -23654.359418673448, -14307.508088053239, 21459.57457537348, -41212.36994413972, -187500.02235174447, -15682.67681392155, -37134.83061013587, -30502.017498256864, -2147.37679331026, 0.14400000000000002, 0.994, 0.16, 192.0, 0.0, 0.0, 0.0, 0.0, 0.0, 0.0, 0.0, 0.0, 0.0, 1.695336329617462E9, 0.0, 2023-09-21 17:45:29.617
224.0, 10089.823316314616, 15399.502563417265, -187500.02235174447, -53673.467477973405, -3409.9150788682796, -11004.724920359246, -187500.02235174447, -23662.16017748835, -14310.190297387875, 21445.537679855548, -41213.44282787357, -187500.02235174447, -15681.648633676605, -37134.22711303557, -30527.274969491362, -2156.608063770302, 0.14400000000000002, 0.994, 0.16, 192.0, 0.0, 0.0, 0.0, 0.0, 0.0, 0.0, 0.0, 0.0, 0.0, 1.695336329617465E9, 0.0, 2023-09-21 17:45:29.617
226.0, 10103.077900776614, 15418.278028759722, -187500.02235174447, -53663.07391680169, -3418.386390016841, -10993.347882431493, -187500.02235174447, -23652.124244227918, -14314.325370112107, 21453.67371483728, -41216.28149941939, -187500.02235174447, -15682.743869154916, -37131.187275789656, -30473.273154887338, -2159.1338108937516, 0.14400000000000002, 0.994, 0.16, 192.0, 0.0, 0.0, 0.0, 0.0, 0.0, 0.0, 0.0, 0.0, 0.0, 1.695336329678484E9, 0.0, 2023-09-21 17:45:29.678
228.0, 10102.787328098695, 15414.277066502222, -187500.02235174447, -53658.983547566364, -3394.2912094940198, -10992.319702186549, -187500.02235174447, -23649.7326075712, -14298.075651893098, 21454.836005548957, -41196.14257766516, -187500.02235174447, -15666.740020124917, -37111.942423813634, -30527.61024565819, -2150.3272235783606, 0.138, 0.992, 0.162, 192.0, 2.0, 40.0, 15.5, 0.0, 2.5, 8.0, 0.0, 0.0, 0.0, 1.695336329678496E9, 0.0, 2023-09-21 17:45:29.678
230.0, 10106.47536593382, 15414.09825254658, -187500.02235174447, -53662.693937145945, -3407.7022561672043, -10996.99121677771, -187500.02235174447, -23661.042590265584, -14311.978436944299, 21476.83012209298, -41211.6770400616, -187500.02235174447, -15672.86439810567, -37130.51672345599, -30483.711419547966, -2150.4613340450924, 0.138, 0.992, 0.162, 192.0, 0.0, 0.0, 0.0, 0.0, 0.0, 0.0, 0.0, 0.0, 0.0, 1.6953363296785E9, 0.0, 2023-09-21 17:45:29.678
232.0, 10107.212973500846, 15421.474328216831, -187500.02235174447, -53644.790189837244, -3389.329122224942, -10979.31098691356, -187500.02235174447, -23648.324447670515, -14295.885180936479, 21457.987601517154, -41195.0249904424, -187500.02235174447, -15665.108342779678, -37110.24369123503, -30527.99022531393, -2144.8510461868104, 0.138, 0.992, 0.162, 192.0, 0.0, 0.0, 0.0, 0.0, 0.0, 0.0, 0.0, 0.0, 0.0, 1.695336329678503E9, 0.0, 2023-09-21 17:45:29.678
234.0, 10099.680435619406, 15409.605551911063, -187500.02235174447, -53666.20316102543, -3417.5370237275392, -11001.03688252412, -187500.02235174447, -23673.49251192719, -14305.988169430277, 21475.62312789239, -41203.65276380214, -187500.02235174447, -15673.289081250321, -37124.325290241875, -30496.250748187394, -2140.4924560180257, 0.138, 0.992, 0.162, 192.0, 0.0, 0.0, 0.0, 0.0, 0.0, 0.0, 0.0, 0.0, 0.0, 1.695336329678507E9, 0.0, 2023-09-21 17:45:29.678
236.0, 10091.745566337773, 15406.968046065336, -187500.02235174447, -53665.10792554712, -3419.325163283964, -10993.213771964762, -187500.02235174447, -23664.417703678337, -14312.492527066772, 21445.895307766834, -41202.93750797958, -187500.02235174447, -15687.281273279343, -37130.20379903362, -30508.253634959896, -2163.090069662341, 0.138, 0.992, 0.162, 192.0, 0.0, 0.0, 0.0, 0.0, 0.0, 0.0, 0.0, 0.0, 0.0, 1.69533632967851E9, 0.0, 2023-09-21 17:45:29.678
238.0, 10111.52686018072, 15421.563735194653, -187500.02235174447, -53649.975794550875, -3407.858718378391, -10969.11859144194, -187500.02235174447, -23638.176755687804, -14312.78309974469, 21484.96615707471, -41193.43801658607, -187500.02235174447, -15688.86824713567, -37120.95017682912, -30478.03407645632, -2148.0920491328297, 0.14, 0.996, 0.166, 192.0, 2.0, 48.0, 15.5, 16.0, 2.5, 24.0, 0.0, 0.0, 0.0, 1.695336329678514E9, 0.0, 2023-09-21 17:45:29.678
240.0, 10090.51622039273, 15403.19060125239, -187500.02235174447, -53656.681317887465, -3410.1385963128328, -10979.534504358115, -187500.02235174447, -23648.19033720378, -14309.698559009857, 21466.861244065913, -41175.53426927737, -187500.02235174447, -15682.34153775472, -37105.371010943774, -30508.365393682172, -2140.6265664847574, 0.14, 0.996, 0.166, 192.0, 0.0, 0.0, 0.0, 0.0, 0.0, 0.0, 0.0, 0.0, 0.0, 1.695336329737287E9, 0.0, 2023-09-21 17:45:29.737
242.0, 10097.266447218233, 15411.52780193422, -187500.02235174447, -53655.31786147569, -3403.1648520427766, -10975.332376400516, -187500.02235174447, -23640.63544757789, -14325.478890595305, 21479.15470351633, -41177.61298151171, -187500.02235174447, -15703.44158452053, -37114.736391870545, -30476.491806088903, -2142.99585139702, 0.14, 0.996, 0.166, 192.0, 0.0, 0.0, 0.0, 0.0, 0.0, 0.0, 0.0, 0.0, 0.0, 1.695336329737302E9, 0.0, 2023-09-21 17:45:29.737
244.0, 10087.766955824729, 15408.599723410574, -187500.02235174447, -53655.18375100896, -3407.3446282559194, -10969.431515864315, -187500.02235174447, -23632.275895151604, -14311.620809033015, 21457.89819453933, -41152.556675977314, -187500.02235174447, -15695.752584427904, -37104.454589421104, -30501.99514651241, -2136.5585489938917, 0.14, 0.996, 0.166, 192.0, 0.0, 0.0, 0.0, 0.0, 0.0, 0.0, 0.0, 0.0, 0.0, 1.695336329737306E9, 0.0, 2023-09-21 17:45:29.737
246.0, 10093.310188449645, 15403.704691374862, -187500.02235174447, -53665.2643877583, -3408.506918967595, -10983.177838704329, -187500.02235174447, -23644.189374946283, -14308.871544465012, 21478.327688971483, -41146.92403637458, -187500.02235174447, -15706.794346188826, -37110.824836590866, -30502.978623268442, -2138.0784676168523, 0.14, 0.996, 0.166, 192.0, 0.0, 0.0, 0.0, 0.0, 0.0, 0.0, 0.0, 0.0, 0.0, 1.695336329737309E9, 0.0, 2023-09-21 17:45:29.737
248.0, 10075.026461485204, 15396.842705827083, -187500.02235174447, -53669.824143627186, -3419.1687010727765, -10989.302216685082, -187500.02235174447, -23648.19033720378, -14324.473062094816, 21474.170264502798, -41149.561542220305, -187500.02235174447, -15722.261753351899, -37114.44581919263, -30499.782323811334, -2148.516732277481, 0.148, 0.986, 0.17400000000000002, 192.0, 2.0, 80.0, 15.0, 104.0, 2.5, 56.0, 0.0, 0.0, 0.0, 1.695336329737313E9, 0.0, 2023-09-21 17:45:29.737
250.0, 10087.923418035916, 15395.836877326594, -187500.02235174447, -53662.35866097912, -3408.7527881566034, -10981.657920081369, -187500.02235174447, -23642.960029001242, -14333.21259417684, 21488.7212501432, -41149.24861779793, -187500.02235174447, -15721.34533182923, -37113.37293545878, -30494.7978847978, -2146.214502598584, 0.148, 0.986, 0.17400000000000002, 192.0, 0.0, 0.0, 0.0, 0.0, 0.0, 0.0, 0.0, 0.0, 0.0, 1.695336329737316E9, 0.0, 2023-09-21 17:45:29.737
252.0, 10080.100307476558, 15401.134240762502, -187500.02235174447, -53658.40240221052, -3413.2007853032096, -10977.589902590502, -187500.02235174447, -23642.401235389858, -14327.624658063014, 21479.11000002742, -41140.9114171161, -187500.02235174447, -15714.259828836899, -37103.001726031514, -30506.51019889238, -2139.151351350707, 0.148, 0.986, 0.17400000000000002, 192.0, 0.0, 0.0, 0.0, 0.0, 0.0, 0.0, 0.0, 0.0, 0.0, 1.69533632973732E9, 0.0, 2023-09-21 17:45:29.737
254.0, 10084.771822067718, 15395.725118604318, -187500.02235174447, -53665.353794736126, -3396.3699217283634, -10991.64914985289, -187500.02235174447, -23656.527537885613, -14340.007524491255, 21477.81359884901, -41151.08146084326, -187500.02235174447, -15724.318113841788, -37118.60324366132, -30504.94557678051, -2138.99488913952, 0.148, 0.986, 0.17400000000000002, 192.0, 0.0, 0.0, 0.0, 0.0, 0.0, 0.0, 0.0, 0.0, 0.0, 1.695336329737323E9, 0.0, 2023-09-21 17:45:29.737
0.0, 10079.183885953891, 15405.895162331482, -187500.02235174447, -53658.849437099634, -3404.930639854746, -10982.50728637067, -187500.02235174447, -23651.006657005153, -14332.653800565458, 21464.022572520087, -41142.006652594406, -187500.02235174447, -15722.753491729914, -37114.602281403815, -30487.60062308319, -2140.9841943960423, 0.148, 0.986, 0.17400000000000002, 192.0, 0.0, 0.0, 0.0, 0.0, 0.0, 0.0, 0.0, 0.0, 0.0, 1.695336329797486E9, 0.0, 2023-09-21 17:45:29.797
2.0, 10093.265484960733, 15405.448127442376, -187500.02235174447, -53659.29647198874, -3384.2999797224975, -10983.31194917106, -187500.02235174447, -23647.00569474765, -14323.288419638684, 21467.8670725664, -41135.301129257816, -187500.02235174447, -15718.037273649845, -37110.757781357504, -30517.5519606533, -2136.826769927355, 0.14400000000000002, 0.994, 0.182, 192.0, 2.0, 64.0, 15.5, 8.0, 2.5, 88.0, 0.0, 0.0, 0.0, 1.695336329797499E9, 0.0, 2023-09-21 17:45:29.797
4.0, 10086.783479068694, 15403.19060125239, -187500.02235174447, -53666.42667846998, -3395.2299827611428, -10986.08356548352, -187500.02235174447, -23657.533366386102, -14327.535251085194, 21467.8670725664, -41137.51395195889, -187500.02235174447, -15723.91578244159, -37116.278662237964, -30493.32266966375, -2137.5867292388357, 0.14400000000000002, 0.994, 0.182, 192.0, 0.0, 0.0, 0.0, 0.0, 0.0, 0.0, 0.0, 0.0, 0.0, 1.695336329797503E9, 0.0, 2023-09-21 17:45:29.797
6.0, 10097.557019896152, 15407.303322232166, -187500.02235174447, -53666.538437192256, -3375.225171473643, -10989.771603318644, -187500.02235174447, -23659.321505942527, -14340.298097169174, 21458.434636406262, -41145.06884158478, -187500.02235174447, -15732.320038356787, -37123.99001407505, -30519.04952753181, -2143.644051986224, 0.14400000000000002, 0.994, 0.182, 192.0, 0.0, 0.0, 0.0, 0.0, 0.0, 0.0, 0.0, 0.0, 0.0, 1.695336329797507E9, 0.0, 2023-09-21 17:45:29.797
8.0, 10101.066243775636, 15414.902915346971, -187500.02235174447, -53665.0185185693, -3387.00454080159, -10988.877533540432, -187500.02235174447, -23660.930831543308, -14330.239812164285, 21468.336459199963, -41137.91628335909, -187500.02235174447, -15726.620343520683, -37119.54201692844, -30491.6462888296, -2144.4710665310704, 0.14400000000000002, 0.994, 0.182, 192.0, 0.0, 0.0, 0.0, 0.0, 0.0, 0.0, 0.0, 0.0, 0.0, 1.695336329797511E9, 0.0, 2023-09-21 17:45:29.797
10.0, 10102.42970018741, 15413.785328124206, -187500.02235174447, -53669.690033160456, -3371.8500580608916, -10992.945551031298, -187500.02235174447, -23662.316639699537, -14324.45071035036, 21456.981773016665, -41141.06787932729, -187500.02235174447, -15727.179137132067, -37118.84911285032, -30527.520838680368, -2149.7460782225226, 0.14400000000000002, 0.994, 0.182, 192.0, 0.0, 0.0, 0.0, 0.0, 0.0, 0.0, 0.0, 0.0, 0.0, 1.695336329797515E9, 0.0, 2023-09-21 17:45:29.797
12.0, 10087.722252335818, 15400.039005284192, -187500.02235174447, -53684.30807403423, -3407.836366633936, -11001.103937757485, -187500.02235174447, -23670.653840381365, -14325.613001062036, 21464.20138647573, -41146.47700148547, -187500.02235174447, -15733.281163368365, -37125.509932698005, -30502.486884890426, -2155.5798835253577, 0.132, 0.986, 0.182, 192.0, 2.0, 16.0, 15.0, 104.0, 2.5, 88.0, 0.0, 0.0, 0.0, 1.695336329797518E9, 0.0, 2023-09-21 17:45:29.797
14.0, 10086.939941279881, 15396.954464549359, -187500.02235174447, -53680.84355364365, -3392.234849004132, -10997.371196433449, -187500.02235174447, -23666.228194979216, -14326.998809218267, 21444.464796121694, -41148.26514104189, -187500.02235174447, -15733.102349412722, -37127.43218272116, -30543.792908643834, -2164.207656885106, 0.132, 0.986, 0.182, 192.0, 0.0, 0.0, 0.0, 0.0, 0.0, 0.0, 0.0, 0.0, 0.0, 1.695336329856926E9, 0.0, 2023-09-21 17:45:29.856
16.0, 10079.452106887355, 15393.668758114429, -187500.02235174447, -53685.49271649036, -3411.680866680249, -11008.681179127834, -187500.02235174447, -23676.621756150933, -14329.815129019635, 21462.212081219208, -41150.70148118752, -187500.02235174447, -15730.68836101155, -37127.476886210075, -30517.08257401974, -2159.7149562495897, 0.132, 0.986, 0.182, 192.0, 0.0, 0.0, 0.0, 0.0, 0.0, 0.0, 0.0, 0.0, 0.0, 1.69533632985694E9, 0.0, 2023-09-21 17:45:29.856
18.0, 10089.890371547983, 15404.084671030603, -187500.02235174447, -53673.311015762214, -3392.771290871059, -11004.79197559261, -187500.02235174447, -23666.630526379413, -14334.620754077525, 21444.867127521888, -41152.66843469959, -187500.02235174447, -15739.651410538127, -37128.661528666205, -30557.315714039294, -2166.2640173749946, 0.132, 0.986, 0.182, 192.0, 0.0, 0.0, 0.0, 0.0, 0.0, 0.0, 0.0, 0.0, 0.0, 1.695336329856945E9, 0.0, 2023-09-21 17:45:29.856
20.0, 10088.169287224924, 15388.57256037862, -187500.02235174447, -53685.51506823481, -3415.5030149821064, -11022.405150223392, -187500.02235174447, -23685.182474277317, -14328.36226563004, 21472.516235413103, -41149.628597453666, -187500.02235174447, -15740.21020414951, -37128.81799087739, -30516.836704830734, -2155.9151596921874, 0.132, 0.986, 0.182, 192.0, 0.0, 0.0, 0.0, 0.0, 0.0, 0.0, 0.0, 0.0, 0.0, 1.695336329856949E9, 0.0, 2023-09-21 17:45:29.856
22.0, 10089.28687444769, 15385.465667899332, -187500.02235174447, -53678.071937331195, -3412.5078812250954, -11016.660751898378, -187500.02235174447, -23681.561491675555, -14343.628507093013, 21433.400682616317, -41162.68201621557, -187500.02235174447, -15762.36078290472, -37146.98995911956, -30506.487847147924, -2169.929703465665, 0.14200000000000002, 0.992, 0.184, 192.0, 2.0, 56.0, 15.5, 0.0, 2.5, 96.0, 0.0, 0.0, 0.0, 1.695336329856952E9, 0.0, 2023-09-21 17:45:29.856
24.0, 10110.677493891419, 15415.439357213898, -187500.02235174447, -53652.99328005234, -3401.2426020196203, -10985.725937572233, -187500.02235174447, -23653.44299715078, -14322.371998116017, 21465.16251148731, -41139.88323687115, -187500.02235174447, -15739.584355304762, -37128.169790288186, -30475.865957244154, -2142.5711682523693, 0.14200000000000002, 0.992, 0.184, 192.0, 0.0, 0.0, 0.0, 0.0, 0.0, 0.0, 0.0, 0.0, 0.0, 1.695336329856956E9, 0.0, 2023-09-21 17:45:29.856
26.0, 10103.055549032159, 15408.577371666119, -187500.02235174447, -53659.117658033094, -3374.28639820652, -10990.8444870525, -187500.02235174447, -23654.180604717807, -14316.381730601996, 21447.035246734053, -41127.83564660975, -187500.02235174447, -15729.928401700068, -37118.245615750035, -30514.46741991847, -2125.2709180439615, 0.14200000000000002, 0.992, 0.184, 192.0, 0.0, 0.0, 0.0, 0.0, 0.0, 0.0, 0.0, 0.0, 0.0, 1.69533632985696E9, 0.0, 2023-09-21 17:45:29.856
28.0, 10118.791177128694, 15419.753243893772, -187500.02235174447, -53658.223588254885, -3372.8558865613804, -10982.8425625375, -187500.02235174447, -23645.888107524886, -14313.386596844985, 21452.556127614516, -41128.0591640543, -187500.02235174447, -15726.30741909831, -37118.73735412805, -30493.50148361939, -2117.0678278288638, 0.14200000000000002, 0.992, 0.184, 192.0, 0.0, 0.0, 0.0, 0.0, 0.0, 0.0, 0.0, 0.0, 0.0, 1.695336329856963E9, 0.0, 2023-09-21 17:45:29.856
30.0, 10104.553115910663, 15408.309150732655, -187500.02235174447, -53677.69195767546, -3388.032721046534, -10996.320664444049, -187500.02235174447, -23656.326372185515, -14309.11741365402, 21431.81370875999, -41130.13787628864, -187500.02235174447, -15730.01780867789, -37119.229092506066, -30535.880391106653, -2125.2038628105956, 0.14200000000000002, 0.992, 0.184, 192.0, 0.0, 0.0, 0.0, 0.0, 0.0, 0.0, 0.0, 0.0, 0.0, 1.69533632991671E9, 0.0, 2023-09-21 17:45:29.916
32.0, 10104.150784510468, 15399.256694228256, -187500.02235174447, -53691.79590842676, -3392.4360147042294, -11012.726844874245, -187500.02235174447, -23665.624697878924, -14318.013407947232, 21441.983752487155, -41150.52266723188, -187500.02235174447, -15746.692210041549, -37145.96177887461, -30500.363469167172, -2147.242682843528, 0.148, 0.984, 0.184, 192.0, 2.0, 80.0, 15.0, 96.0, 2.5, 96.0, 0.0, 0.0, 0.0, 1.695336329916744E9, 0.0, 2023-09-21 17:45:29.916
34.0, 10085.017691256726, 15386.292682444178, -187500.02235174447, -53699.261391074826, -3397.375750228852, -11023.27686825715, -187500.02235174447, -23679.01339280765, -14319.600381803559, 21408.053804403997, -41148.220437552984, -187500.02235174447, -15751.78840777736, -37141.69259568365, -30508.387745426626, -2165.2358371300506, 0.148, 0.984, 0.184, 192.0, 0.0, 0.0, 0.0, 0.0, 0.0, 0.0, 0.0, 0.0, 0.0, 1.695336329916748E9, 0.0, 2023-09-21 17:45:29.916
36.0, 10093.287836705189, 15395.14397324848, -187500.02235174447, -53697.719120707414, -3403.38836948733, -11028.864804370976, -187500.02235174447, -23685.07071555504, -14342.55562335916, 21435.322932639472, -41166.21359183951, -187500.02235174447, -15762.986631749467, -37147.392290519754, -30471.619125797646, -2167.739232509045, 0.148, 0.984, 0.184, 192.0, 0.0, 0.0, 0.0, 0.0, 0.0, 0.0, 0.0, 0.0, 0.0, 1.695336329916751E9, 0.0, 2023-09-21 17:45:29.916
38.0, 10102.340293209589, 15417.741586892795, -187500.02235174447, -53670.56175119421, -3403.0083898315897, -11008.569420405558, -187500.02235174447, -23668.508072913657, -14326.440015606882, 21447.974020001177, -41150.8132399098, -187500.02235174447, -15750.335544387764, -37120.92782508467, -30475.754198521878, -2160.7207847500786, 0.148, 0.984, 0.184, 192.0, 0.0, 0.0, 0.0, 0.0, 0.0, 0.0, 0.0, 0.0, 0.0, 1.695336329916755E9, 0.0, 2023-09-21 17:45:29.916
40.0, 10107.950581067871, 15413.494755446287, -187500.02235174447, -53676.395556497046, -3398.001599073601, -11015.587868164524, -187500.02235174447, -23675.235947994704, -14333.41375987694, 21478.417095949306, -41161.89970515963, -187500.02235174447, -15754.180044434077, -37131.25433102302, -30468.64634378509, -2149.209636355595, 0.148, 0.984, 0.184, 192.0, 0.0, 0.0, 0.0, 0.0, 0.0, 0.0, 0.0, 0.0, 0.0, 1.695336329916758E9, 0.0, 2023-09-21 17:45:29.916
42.0, 10094.673644861417, 15406.364548965044, -187500.02235174447, -53678.94365536495, -3401.0861398084335, -11013.643266396914, -187500.02235174447, -23680.667421897346, -14320.494451581772, 21452.287906681053, -41153.02606261087, -187500.02235174447, -15743.048875695335, -37118.69265063914, -30480.828044513233, -2144.024031641964, 0.14200000000000002, 0.99, 0.176, 192.0, 2.0, 56.0, 15.0, 120.0, 2.5, 64.0, 0.0, 0.0, 0.0, 1.695336329916764E9, 0.0, 2023-09-21 17:45:29.916
44.0, 10103.591990899085, 15399.100232017068, -187500.02235174447, -53690.70067294844, -3408.6186776898717, -11023.94742059081, -187500.02235174447, -23686.858855111463, -14341.50509136976, 21442.05080772052, -41180.2728391019, -187500.02235174447, -15770.653280097638, -37146.52057248599, -30458.02926516882, -2153.0317846574526, 0.14200000000000002, 0.99, 0.176, 192.0, 0.0, 0.0, 0.0, 0.0, 0.0, 0.0, 0.0, 0.0, 0.0, 1.695336329976906E9, 0.0, 2023-09-21 17:45:29.976
46.0, 10101.267409475733, 15406.073976287125, -187500.02235174447, -53679.90478037653, -3411.189128302232, -11008.278847727639, -187500.02235174447, -23669.11157001395, -14319.198050403364, 21440.10620595291, -41160.93858014805, -187500.02235174447, -15752.816588022304, -37134.674147924685, -30448.440366797495, -2150.5954445118246, 0.14200000000000002, 0.99, 0.176, 192.0, 0.0, 0.0, 0.0, 0.0, 0.0, 0.0, 0.0, 0.0, 0.0, 1.695336329976919E9, 0.0, 2023-09-21 17:45:29.976
48.0, 10111.348046225077, 15408.934999577405, -187500.02235174447, -53681.491754232855, -3393.419491460263, -11014.917315830866, -187500.02235174447, -23672.24081423769, -14317.700483524857, 21448.19753744573, -41158.6139987247, -187500.02235174447, -15743.45120709553, -37134.09300256884, -30468.780454251824, -2138.2796333169504, 0.14200000000000002, 0.99, 0.176, 192.0, 0.0, 0.0, 0.0, 0.0, 0.0, 0.0, 0.0, 0.0, 0.0, 1.695336329976924E9, 0.0, 2023-09-21 17:45:29.976
50.0, 10103.971970554825, 15402.85532508556, -187500.02235174447, -53693.00290262734, -3404.7965293880143, -11021.332266489539, -187500.02235174447, -23679.6392416524, -14309.899724709956, 21436.77579602907, -41160.64800747013, -187500.02235174447, -15741.774826261382, -37146.341758530354, -30456.08466340121, -2144.649880486713, 0.14200000000000002, 0.99, 0.176, 192.0, 0.0, 0.0, 0.0, 0.0, 0.0, 0.0, 0.0, 0.0, 0.0, 1.695336329976928E9, 0.0, 2023-09-21 17:45:29.976
52.0, 10106.967104311838, 15411.617208912041, -187500.02235174447, -53677.20021929744, -3373.928770295235, -11004.009664536676, -187500.02235174447, -23660.416741420835, -14331.893841253977, 21434.607676816904, -41167.82291744029, -187500.02235174447, -15748.301535642331, -37143.614845706805, -30466.83585248421, -2134.0998571038076, 0.14400000000000002, 0.992, 0.17200000000000001, 192.0, 2.0, 64.0, 15.5, 0.0, 2.5, 48.0, 0.0, 0.0, 0.0, 1.695336329976932E9, 0.0, 2023-09-21 17:45:29.976
54.0, 10120.311095751655, 15439.57924122563, -187500.02235174447, -53655.11669577559, -3382.9365233107237, -10979.802725291578, -187500.02235174447, -23640.568392344525, -14313.654817778448, 21451.662057836304, -41143.817143895285, -187500.02235174447, -15734.868137224692, -37114.19995000362, -30451.949590676977, -2115.682019672635, 0.14400000000000002, 0.992, 0.17200000000000001, 192.0, 0.0, 0.0, 0.0, 0.0, 0.0, 0.0, 0.0, 0.0, 0.0, 1.695336329976935E9, 0.0, 2023-09-21 17:45:29.976
56.0, 10119.417025973444, 15424.380054996021, -187500.02235174447, -53673.869809373595, -3373.6605493617717, -11006.200135493295, -187500.02235174447, -23670.87735782592, -14307.21751537532, 21467.62120337739, -41139.12327755967, -187500.02235174447, -15735.82926223627, -37116.03279304896, -30495.647251087103, -2119.995906352509, 0.14400000000000002, 0.992, 0.17200000000000001, 192.0, 0.0, 0.0, 0.0, 0.0, 0.0, 0.0, 0.0, 0.0, 0.0, 1.695336329976939E9, 0.0, 2023-09-21 17:45:29.976
58.0, 10120.109930051558, 15433.410159755966, -187500.02235174447, -53675.81441114121, -3398.158061284788, -11003.8979058144, -187500.02235174447, -23674.431285194314, -14315.130032912497, 21450.030380491065, -41146.87933288566, -187500.02235174447, -15743.987648962457, -37129.354432744316, -30454.87766920062, -2140.313642062383, 0.14400000000000002, 0.992, 0.17200000000000001, 192.0, 0.0, 0.0, 0.0, 0.0, 0.0, 0.0, 0.0, 0.0, 0.0, 1.695336329976942E9, 0.0, 2023-09-21 17:45:29.976
60.0, 10130.347029012088, 15442.239098815811, -187500.02235174447, -53668.371280237596, -3378.846154075403, -11003.026187780642, -187500.02235174447, -23668.753942102667, -14302.16602112842, 21455.68537183826, -41130.56255943329, -187500.02235174447, -15731.358913345208, -37112.14358951373, -30500.363469167172, -2135.9103484046877, 0.14400000000000002, 0.992, 0.17200000000000001, 192.0, 0.0, 0.0, 0.0, 0.0, 0.0, 0.0, 0.0, 0.0, 0.0, 1.695336330037262E9, 0.0, 2023-09-21 17:45:30.037
62.0, 10124.826148131628, 15441.255622059778, -187500.02235174447, -53670.807620383224, -3403.7236456541596, -11003.22735348074, -187500.02235174447, -23669.268032225136, -14317.320503869118, 21474.505540669626, -41142.364280505695, -187500.02235174447, -15748.25683215342, -37128.035679821456, -30445.7358057184, -2140.42540078466, 0.14, 0.992, 0.176, 192.0, 2.0, 48.0, 15.5, 0.0, 2.5, 64.0, 0.0, 0.0, 0.0, 1.695336330037276E9, 0.0, 2023-09-21 17:45:30.037
64.0, 10128.424778988932, 15439.221613314345, -187500.02235174447, -53662.626881912576, -3374.934598795724, -11005.283713970628, -187500.02235174447, -23666.29525021258, -14300.02025366071, 21456.087703238452, -41124.34877447472, -187500.02235174447, -15734.845785480236, -37114.26700523699, -30486.013649226865, -2133.876339659255, 0.14, 0.992, 0.176, 192.0, 0.0, 0.0, 0.0, 0.0, 0.0, 0.0, 0.0, 0.0, 0.0, 1.695336330037281E9, 0.0, 2023-09-21 17:45:30.037
66.0, 10129.251793533778, 15444.921308150448, -187500.02235174447, -53666.49373370335, -3386.8257268459474, -11009.46349018377, -187500.02235174447, -23668.35161070247, -14310.659684021437, 21466.838892321455, -41130.00376582191, -187500.02235174447, -15736.656276781116, -37119.89964483972, -30437.376253292117, -2136.8491216718103, 0.14, 0.992, 0.176, 192.0, 0.0, 0.0, 0.0, 0.0, 0.0, 0.0, 0.0, 0.0, 0.0, 1.695336330037286E9, 0.0, 2023-09-21 17:45:30.037
68.0, 10121.76395914125, 15431.420854499444, -187500.02235174447, -53674.45095472944, -3383.0482820330003, -11020.728769389245, -187500.02235174447, -23684.60132892148, -14312.425471833405, 21445.7611973001, -41128.88617859915, -187500.02235174447, -15738.645582037638, -37122.82772336337, -30470.635649041615, -2138.838426928333, 0.14, 0.992, 0.176, 192.0, 0.0, 0.0, 0.0, 0.0, 0.0, 0.0, 0.0, 0.0, 0.0, 1.695336330037292E9, 0.0, 2023-09-21 17:45:30.037
70.0, 10139.332430283122, 15453.862005932571, -187500.02235174447, -53647.584157894154, -3381.506011665584, -10981.009719492164, -187500.02235174447, -23645.95516275825, -14319.578030059103, 21464.804883576024, -41140.754954904914, -187500.02235174447, -15740.92545997208, -37126.58281643186, -30408.63190992259, -2133.608118725791, 0.14, 0.992, 0.176, 192.0, 0.0, 0.0, 0.0, 0.0, 0.0, 0.0, 0.0, 0.0, 0.0, 1.695336330037299E9, 0.0, 2023-09-21 17:45:30.037
72.0, 10123.462691719853, 15428.760996909261, -187500.02235174447, -53660.19054176695, -3375.8286685739363, -10991.31387368606, -187500.02235174447, -23657.890994297388, -14307.038701419677, 21458.47933989517, -41126.695707642524, -187500.02235174447, -15728.833166221759, -37106.24272897753, -30455.056483156262, -2108.0824265578303, 0.136, 0.992, 0.176, 192.0, 2.0, 32.0, 15.5, 0.0, 2.5, 64.0, 0.0, 0.0, 0.0, 1.695336330037305E9, 0.0, 2023-09-21 17:45:30.037
74.0, 10135.264412792256, 15436.025313857237, -187500.02235174447, -53647.85237882762, -3374.711081351171, -10967.866893752444, -187500.02235174447, -23642.20006968976, -14313.11837591152, 21462.39089517485, -41140.48673397145, -187500.02235174447, -15748.189776920055, -37113.93172907016, -30396.584319661182, -2107.1436532907073, 0.136, 0.992, 0.176, 192.0, 0.0, 0.0, 0.0, 0.0, 0.0, 0.0, 0.0, 0.0, 0.0, 1.695336330097482E9, 0.0, 2023-09-21 17:45:30.097
76.0, 10123.90972660896, 15431.309095777166, -187500.02235174447, -53649.685221872955, -3365.166886468755, -10966.391678618393, -187500.02235174447, -23644.591706346477, -14302.54600078416, 21439.0109704746, -41131.99307107843, -187500.02235174447, -15731.783596489859, -37098.39726667372, -30443.634741739603, -2095.0737112848415, 0.136, 0.992, 0.176, 192.0, 0.0, 0.0, 0.0, 0.0, 0.0, 0.0, 0.0, 0.0, 0.0, 1.695336330097501E9, 0.0, 2023-09-21 17:45:30.097
78.0, 10124.535575453709, 15432.270220788745, -187500.02235174447, -53660.43641095596, -3379.38259594233, -10974.706527555767, -187500.02235174447, -23653.44299715078, -14311.017311932721, 21452.712589825704, -41149.44978349803, -187500.02235174447, -15732.856480223714, -37107.20385398911, -30428.904942143556, -2098.448824697593, 0.136, 0.992, 0.176, 192.0, 0.0, 0.0, 0.0, 0.0, 0.0, 0.0, 0.0, 0.0, 0.0, 1.695336330097507E9, 0.0, 2023-09-21 17:45:30.097
80.0, 10121.249869018779, 15440.428607514932, -187500.02235174447, -53655.630785898065, -3372.2076859721765, -10966.637547807402, -187500.02235174447, -23644.837575535486, -14310.905553210445, 21444.174223443773, -41149.7627079204, -187500.02235174447, -15737.326829114776, -37098.86665330728, -30455.235297111907, -2112.6868859156234, 0.136, 0.992, 0.176, 192.0, 0.0, 0.0, 0.0, 0.0, 0.0, 0.0, 0.0, 0.0, 0.0, 1.695336330097513E9, 0.0, 2023-09-21 17:45:30.097
82.0, 10133.655087191473, 15443.826072672138, -187500.02235174447, -53657.68714638796, -3374.8228400734474, -10974.08067871102, -187500.02235174447, -23649.665552337832, -14308.73743399828, 21476.137218014865, -41149.360376520206, -187500.02235174447, -15732.990590690446, -37095.60329861681, -30452.441329054993, -2109.9376213476207, 0.14200000000000002, 0.994, 0.17, 192.0, 2.0, 56.0, 15.5, 8.0, 2.5, 40.0, 0.0, 0.0, 0.0, 1.695336330097519E9, 0.0, 2023-09-21 17:45:30.097
84.0, 10109.917534579938, 15421.362569494555, -187500.02235174447, -53681.782326910776, -3390.7596338700814, -11004.188478492319, -187500.02235174447, -23671.45850318176, -14320.405044603951, 21433.937124483244, -41163.08434761576, -187500.02235174447, -15741.819529750292, -37110.37780170176, -30473.004933953875, -2134.0998571038076, 0.14200000000000002, 0.994, 0.17, 192.0, 0.0, 0.0, 0.0, 0.0, 0.0, 0.0, 0.0, 0.0, 0.0, 1.695336330097525E9, 0.0, 2023-09-21 17:45:30.097
86.0, 10119.037046317702, 15425.631752685518, -187500.02235174447, -53679.72596642089, -3386.9151338237684, -11007.742405860712, -187500.02235174447, -23668.73159035821, -14331.402102875962, 21433.66890354978, -41179.73639723497, -187500.02235174447, -15747.429817608574, -37123.92295884168, -30446.138137118596, -2146.5944822543242, 0.14200000000000002, 0.994, 0.17, 192.0, 0.0, 0.0, 0.0, 0.0, 0.0, 0.0, 0.0, 0.0, 0.0, 1.695336330097531E9, 0.0, 2023-09-21 17:45:30.097
88.0, 10114.454938704364, 15430.325619021132, -187500.02235174447, -53664.25855925782, -3380.9472180542016, -10997.84058306701, -187500.02235174447, -23655.991096018686, -14321.746149271268, 21421.57660979946, -41170.63923724166, -187500.02235174447, -15731.627134278671, -37112.94825231413, -30468.713399018456, -2145.5886537538354, 0.14200000000000002, 0.994, 0.17, 192.0, 0.0, 0.0, 0.0, 0.0, 0.0, 0.0, 0.0, 0.0, 0.0, 1.695336330097537E9, 0.0, 2023-09-21 17:45:30.097
90.0, 10116.578354427618, 15428.649238186985, -187500.02235174447, -53670.181771538475, -3390.9831513146346, -11008.569420405558, -187500.02235174447, -23664.574165889524, -14321.433224848894, 21460.468645151694, -41169.342836063246, -187500.02235174447, -15721.479442295962, -37110.400153446215, -30478.92814623453, -2129.5848047238355, 0.14200000000000002, 0.994, 0.17, 192.0, 0.0, 0.0, 0.0, 0.0, 0.0, 0.0, 0.0, 0.0, 0.0, 1.695336330157779E9, 0.0, 2023-09-21 17:45:30.157
92.0, 10093.868982061027, 15418.05451131517, -187500.02235174447, -53671.61228318361, -3407.9704771006677, -11009.396434950404, -187500.02235174447, -23667.569299646533, -14332.02795172071, 21440.44148211974, -41175.19899311054, -187500.02235174447, -15747.16159667511, -37115.094019781835, -30474.927183977034, -2139.441924028626, 0.14400000000000002, 0.998, 0.166, 192.0, 2.0, 64.0, 15.5, 24.0, 2.5, 24.0, 0.0, 0.0, 0.0, 1.695336330157796E9, 0.0, 2023-09-21 17:45:30.157
94.0, 10094.830107072605, 15410.119642033535, -187500.02235174447, -53671.34406225015, -3405.645895677316, -11004.993141292709, -187500.02235174447, -23663.657744366854, -14356.704277599369, 21436.462871606695, -41195.62848754269, -187500.02235174447, -15763.456018383029, -37126.694575154135, -30465.092416416697, -2129.8083221683887, 0.14400000000000002, 0.998, 0.166, 192.0, 0.0, 0.0, 0.0, 0.0, 0.0, 0.0, 0.0, 0.0, 0.0, 1.695336330157803E9, 0.0, 2023-09-21 17:45:30.157
96.0, 10089.868019803527, 15414.947618835882, -187500.02235174447, -53661.62105341209, -3415.994753360123, -10980.383870647416, -187500.02235174447, -23646.44690113627, -14347.36124841705, 21430.517307581584, -41189.79468223985, -187500.02235174447, -15756.415218879607, -37114.84815059282, -30440.617256238136, -2116.710199917579, 0.14400000000000002, 0.998, 0.166, 192.0, 0.0, 0.0, 0.0, 0.0, 0.0, 0.0, 0.0, 0.0, 0.0, 1.695336330157808E9, 0.0, 2023-09-21 17:45:30.157
98.0, 10084.503601134253, 15400.977778551314, -187500.02235174447, -53679.86007688762, -3400.057959563489, -10995.359539432471, -187500.02235174447, -23657.44395940828, -14346.489530383293, 21442.564897842993, -41197.506034076934, -187500.02235174447, -15741.59601230574, -37116.770400615984, -30476.916489233554, -2106.6519149126907, 0.14400000000000002, 0.998, 0.166, 192.0, 0.0, 0.0, 0.0, 0.0, 0.0, 0.0, 0.0, 0.0, 0.0, 1.695336330157814E9, 0.0, 2023-09-21 17:45:30.157
100.0, 10073.730060306796, 15402.162421007446, -187500.02235174447, -53682.38582401107, -3426.745942443126, -10994.89015279891, -187500.02235174447, -23653.57710761751, -14358.917100300445, 21437.468700107183, -41213.934566251584, -187500.02235174447, -15784.533713404384, -37128.54976994393, -30449.781471464812, -2122.521653475959, 0.14400000000000002, 0.998, 0.166, 192.0, 0.0, 0.0, 0.0, 0.0, 0.0, 0.0, 0.0, 0.0, 0.0, 1.695336330157819E9, 0.0, 2023-09-21 17:45:30.157
102.0, 10059.737868277773, 15383.208141709345, -187500.02235174447, -53695.08161486169, -3421.4262272627625, -11012.70449312979, -187500.02235174447, -23667.278726968616, -14362.403972435472, 21438.966266985688, -41219.14252270967, -187500.02235174447, -15797.028338554901, -37132.03664207896, -30486.28187016033, -2121.1358453197295, 0.14, 1.0, 0.168, 192.0, 2.0, 48.0, 15.5, 32.0, 2.5, 32.0, 0.0, 0.0, 0.0, 1.695336330157825E9, 0.0, 2023-09-21 17:45:30.157
104.0, 10059.89433048896, 15401.71538611834, -187500.02235174447, -53681.11177457712, -3427.930584899257, -10998.55583888958, -187500.02235174447, -23658.11451174194, -14383.079336056631, 21428.77387151407, -41230.4301536596, -187500.02235174447, -15837.529699507917, -37132.19310429014, -30444.394701051082, -2129.1377698347296, 0.14, 1.0, 0.168, 192.0, 0.0, 0.0, 0.0, 0.0, 0.0, 0.0, 0.0, 0.0, 0.0, 1.695336330216767E9, 0.0, 2023-09-21 17:45:30.216
106.0, 10066.80101952565, 15402.073014029625, -187500.02235174447, -53695.03691137277, -3420.6215644623717, -11015.61021990898, -187500.02235174447, -23680.980346319717, -14358.470065411339, 21437.82632801847, -41221.221234944016, -187500.02235174447, -15879.975662228546, -37118.5585401724, -30493.52383536385, -2134.636298970735, 0.14, 1.0, 0.168, 192.0, 0.0, 0.0, 0.0, 0.0, 0.0, 0.0, 0.0, 0.0, 0.0, 1.695336330216781E9, 0.0, 2023-09-21 17:45:30.216
108.0, 10058.910853732927, 15409.627903655519, -187500.02235174447, -53692.44410901596, -3439.061753638, -11006.043673282109, -187500.02235174447, -23661.646087365876, -14368.55070216068, 21429.310313380996, -41235.191075228584, -187500.02235174447, -15954.652840453726, -37127.678051910174, -30464.8912507166, -2150.0813543893523, 0.14, 1.0, 0.168, 192.0, 0.0, 0.0, 0.0, 0.0, 0.0, 0.0, 0.0, 0.0, 0.0, 1.695336330216785E9, 0.0, 2023-09-21 17:45:30.216
110.0, 10066.912778247926, 15407.012749554247, -187500.02235174447, -53699.82018468621, -3441.7216112281817, -11017.711283887778, -187500.02235174447, -23669.983288047708, -14376.105591786576, 21421.017816188076, -41235.59340662878, -187500.02235174447, -16021.305742419452, -37124.325290241875, -30501.9504430235, -2142.392354296727, 0.14, 1.0, 0.168, 192.0, 0.0, 0.0, 0.0, 0.0, 0.0, 0.0, 0.0, 0.0, 0.0, 1.695336330216788E9, 0.0, 2023-09-21 17:45:30.216
112.0, 10074.199446940356, 15423.508336962264, -187500.02235174447, -53683.1234315781, -3448.4047828203184, -11000.053405768085, -187500.02235174447, -23658.87447105342, -14368.12601901603, 21436.82049951798, -41230.854836804254, -187500.02235174447, -16093.747746199102, -37123.99001407505, -30454.810613967256, -2142.794685696922, 0.136, 0.994, 0.166, 192.0, 2.0, 32.0, 15.5, 8.0, 2.5, 24.0, 0.0, 0.0, 0.0, 1.695336330216792E9, 0.0, 2023-09-21 17:45:30.216
114.0, 10081.150839465958, 15431.398502754988, -187500.02235174447, -53672.90868436202, -3428.8470064219246, -10993.303178942584, -187500.02235174447, -23655.991096018686, -14357.978327033321, 21436.440519862237, -41218.136694209184, -187500.02235174447, -16155.304450429017, -37110.15428425721, -30500.408172656083, -2128.288403545428, 0.136, 0.994, 0.166, 192.0, 0.0, 0.0, 0.0, 0.0, 0.0, 0.0, 0.0, 0.0, 0.0, 1.695336330216795E9, 0.0, 2023-09-21 17:45:30.216
116.0, 10076.009938241237, 15425.05060732968, -187500.02235174447, -53683.034024600274, -3445.9460909302347, -10993.571399876048, -187500.02235174447, -23661.377866432413, -14372.216388251352, 21456.95942127221, -41225.64688034617, -187500.02235174447, -16217.419948270315, -37120.34667972883, -30460.532660547815, -2125.159159321685, 0.136, 0.994, 0.166, 192.0, 0.0, 0.0, 0.0, 0.0, 0.0, 0.0, 0.0, 0.0, 0.0, 1.695336330216799E9, 0.0, 2023-09-21 17:45:30.216
118.0, 10080.524990621208, 15427.419892241944, -187500.02235174447, -53675.18856229646, -3433.6973349687264, -10988.944588773798, -187500.02235174447, -23653.59945936197, -14362.336917202107, 21431.411377359793, -41216.37090639721, -187500.02235174447, -16292.410050917872, -37114.82579884837, -30493.300317919293, -2127.37198202276, 0.136, 0.994, 0.166, 192.0, 0.0, 0.0, 0.0, 0.0, 0.0, 0.0, 0.0, 0.0, 0.0, 1.695336330216802E9, 0.0, 2023-09-21 17:45:30.216
120.0, 10091.410290170943, 15436.941735379904, -187500.02235174447, -53671.52287620579, -3440.2687478385865, -10979.690966569302, -187500.02235174447, -23645.999866247163, -14357.933623544412, 21453.33843867045, -41223.63522334519, -187500.02235174447, -16364.963813419798, -37118.98322331705, -30449.64736099808, -2118.8783191297434, 0.136, 0.994, 0.166, 192.0, 0.0, 0.0, 0.0, 0.0, 0.0, 0.0, 0.0, 0.0, 0.0, 1.695336330277002E9, 0.0, 2023-09-21 17:45:30.277
122.0, 10091.052662259659, 15438.372247025043, -187500.02235174447, -53665.62201566959, -3426.8800529098576, -10975.555893845069, -187500.02235174447, -23640.926020255807, -14341.572146603126, 21464.58136613147, -41204.859758002734, -187500.02235174447, -16410.11433721952, -37091.24470844802, -30495.490788875915, -2104.5284991894364, 0.138, 0.994, 0.17, 192.0, 2.0, 40.0, 15.5, 8.0, 2.5, 40.0, 0.0, 0.0, 0.0, 1.695336330277022E9, 0.0, 2023-09-21 17:45:30.277
124.0, 10096.081804762103, 15445.547156995197, -187500.02235174447, -53668.52774244878, -3443.5991577624272, -10975.466486867248, -187500.02235174447, -23642.468290623223, -14354.826731065123, 21475.10903776992, -41225.93745302409, -187500.02235174447, -16492.525219026236, -37112.61297614729, -30454.65415175607, -2105.4896242010145, 0.138, 0.994, 0.17, 192.0, 0.0, 0.0, 0.0, 0.0, 0.0, 0.0, 0.0, 0.0, 0.0, 1.695336330277026E9, 0.0, 2023-09-21 17:45:30.277
126.0, 10094.874810561516, 15446.217709328856, -187500.02235174447, -53657.82125685469, -3428.2658610660865, -10966.704603040767, -187500.02235174447, -23637.55090684306, -14337.101797712065, 21456.981773016665, -41201.641106801166, -187500.02235174447, -16525.31522814217, -37091.468225892575, -30511.829914072743, -2102.449786955093, 0.138, 0.994, 0.17, 192.0, 0.0, 0.0, 0.0, 0.0, 0.0, 0.0, 0.0, 0.0, 0.0, 1.695336330277029E9, 0.0, 2023-09-21 17:45:30.277
128.0, 10086.09057499058, 15425.207069540867, -187500.02235174447, -53681.983492610874, -3443.867378695891, -10996.834754566522, -187500.02235174447, -23661.891956554886, -14348.612946106548, 21481.076953539487, -41218.38256339819, -187500.02235174447, -16601.33351103467, -37109.75195285701, -30491.758047551877, -2101.734531132523, 0.138, 0.994, 0.17, 192.0, 0.0, 0.0, 0.0, 0.0, 0.0, 0.0, 0.0, 0.0, 0.0, 1.695336330277033E9, 0.0, 2023-09-21 17:45:30.277
130.0, 10078.133353964491, 15421.697845661385, -187500.02235174447, -53685.827992657185, -3442.638032750849, -11007.138908760418, -187500.02235174447, -23667.032857779606, -14358.157140988964, 21439.68152280826, -41230.05017400386, -187500.02235174447, -16655.804712272253, -37121.68778439615, -30500.631690100636, -2128.6013279678023, 0.138, 0.994, 0.17, 192.0, 0.0, 0.0, 0.0, 0.0, 0.0, 0.0, 0.0, 0.0, 0.0, 1.695336330277036E9, 0.0, 2023-09-21 17:45:30.277
132.0, 10089.80096457016, 15427.129319564025, -187500.02235174447, -53690.521858992804, -3435.9101576698017, -11015.140833275418, -187500.02235174447, -23672.754904360165, -14355.094951998586, 21458.94872652873, -41227.8820547917, -187500.02235174447, -16694.562637157756, -37130.740240900544, -30485.41015212657, -2133.1610838366846, 0.136, 0.996, 0.17200000000000001, 192.0, 2.0, 32.0, 15.5, 16.0, 2.5, 48.0, 0.0, 0.0, 0.0, 1.69533633027704E9, 0.0, 2023-09-21 17:45:30.277
134.0, 10088.146935480469, 15431.756130666272, -187500.02235174447, -53684.68805368997, -3438.9276431712683, -11003.36146394747, -187500.02235174447, -23658.06980825303, -14345.908385027455, 21440.48618560865, -41220.64008958818, -187500.02235174447, -16732.78412017633, -37125.42052572018, -30506.309033192283, -2139.2407583285285, 0.136, 0.996, 0.17200000000000001, 192.0, 0.0, 0.0, 0.0, 0.0, 0.0, 0.0, 0.0, 0.0, 0.0, 1.695336330337233E9, 0.0, 2023-09-21 17:45:30.337
136.0, 10093.131374494002, 15428.693941675896, -187500.02235174447, -53691.48298400438, -3438.6370704933493, -11004.166126747863, -187500.02235174447, -23655.38759891839, -14343.60615534856, 21458.72520908418, -41219.00841224294, -187500.02235174447, -16759.092123400227, -37121.799543118424, -30505.951405280997, -2125.3379732773274, 0.136, 0.996, 0.17200000000000001, 192.0, 0.0, 0.0, 0.0, 0.0, 0.0, 0.0, 0.0, 0.0, 0.0, 1.695336330337251E9, 0.0, 2023-09-21 17:45:30.337
138.0, 10085.151801723458, 15422.703674161874, -187500.02235174447, -53689.71719619241, -3449.902349698824, -10996.052443510585, -187500.02235174447, -23658.986229775695, -14354.245585709285, 21417.150964397308, -41231.078354248806, -187500.02235174447, -16795.167838951093, -37136.2164182921, -30496.250748187394, -2138.503150761503, 0.136, 0.996, 0.17200000000000001, 192.0, 0.0, 0.0, 0.0, 0.0, 0.0, 0.0, 0.0, 0.0, 0.0, 1.695336330337255E9, 0.0, 2023-09-21 17:45:30.337
140.0, 10102.3849966985, 15428.313962020155, -187500.02235174447, -53679.614207698614, -3422.8790906523577, -10987.961112017765, -187500.02235174447, -23656.72870358571, -14340.454559380361, 21440.03915071954, -41217.30967966434, -187500.02235174447, -16794.98902499545, -37121.173694273675, -30495.401381898093, -2115.8161301393666, 0.136, 0.996, 0.17200000000000001, 192.0, 0.0, 0.0, 0.0, 0.0, 0.0, 0.0, 0.0, 0.0, 0.0, 1.695336330337259E9, 0.0, 2023-09-21 17:45:30.337
142.0, 10093.287836705189, 15425.76586315225, -187500.02235174447, -53681.849382144144, -3435.2619570805978, -10989.7939550631, -187500.02235174447, -23662.92013679983, -14343.404989648461, 21427.566877313482, -41221.04242098837, -187500.02235174447, -16806.634283856667, -37124.54880768643, -30475.307163632773, -2117.4031039956935, 0.134, 1.002, 0.17, 192.0, 2.0, 24.0, 15.5, 40.0, 2.5, 40.0, 0.0, 0.0, 0.0, 1.695336330337263E9, 0.0, 2023-09-21 17:45:30.337
144.0, 10108.755243868261, 15434.415988256455, -187500.02235174447, -53678.563675709214, -3430.8139599339916, -10990.8444870525, -187500.02235174447, -23663.903613555864, -14340.096931469076, 21439.0109704746, -41215.275670918905, -187500.02235174447, -16802.32039717679, -37120.59254891784, -30477.855262500678, -2114.1621010496738, 0.134, 1.002, 0.17, 192.0, 0.0, 0.0, 0.0, 0.0, 0.0, 0.0, 0.0, 0.0, 0.0, 1.695336330337267E9, 0.0, 2023-09-21 17:45:30.337
146.0, 10114.790214871195, 15452.364439054065, -187500.02235174447, -53658.42475395498, -3425.829520920458, -10970.593806575991, -187500.02235174447, -23640.72485455571, -14322.349646371562, 21439.793281530536, -41197.70719977703, -187500.02235174447, -16791.122173204683, -37100.543034141425, -30471.440311842005, -2110.027028325442, 0.134, 1.002, 0.17, 192.0, 0.0, 0.0, 0.0, 0.0, 0.0, 0.0, 0.0, 0.0, 0.0, 1.695336330337272E9, 0.0, 2023-09-21 17:45:30.337
148.0, 10104.798985099673, 15440.205090070378, -187500.02235174447, -53679.21187629842, -3417.7828929165476, -10991.93972253081, -187500.02235174447, -23661.44492166578, -14328.69754179687, 21464.402552175827, -41208.03370571539, -187500.02235174447, -16793.26794067239, -37104.70045861012, -30494.17203595305, -2103.612077666769, 0.134, 1.002, 0.17, 192.0, 0.0, 0.0, 0.0, 0.0, 0.0, 0.0, 0.0, 0.0, 0.0, 1.695336330337275E9, 0.0, 2023-09-21 17:45:30.337
150.0, 10090.04683375917, 15431.979648110826, -187500.02235174447, -53687.54907698025, -3438.7264774711703, -10996.387719677416, -187500.02235174447, -23661.064942010038, -14346.802454805667, 21461.116845740897, -41223.791685556374, -187500.02235174447, -16798.498248874934, -37116.278662237964, -30465.69591351699, -2121.5605284643802, 0.134, 1.002, 0.17, 192.0, 0.0, 0.0, 0.0, 0.0, 0.0, 0.0, 0.0, 0.0, 0.0, 1.695336330397591E9, 0.0, 2023-09-21 17:45:30.397
152.0, 10104.039025788192, 15438.953392380881, -187500.02235174447, -53681.75997516632, -3408.708084667693, -10993.861972553967, -187500.02235174447, -23653.845328550975, -14333.436111621395, 21452.33261016996, -41216.28149941939, -187500.02235174447, -16774.73834451894, -37114.26700523699, -30505.437315158528, -2124.1086273322853, 0.138, 0.998, 0.168, 192.0, 2.0, 40.0, 15.5, 24.0, 2.5, 32.0, 0.0, 0.0, 0.0, 1.695336330397603E9, 0.0, 2023-09-21 17:45:30.397
154.0, 10093.064319260637, 15426.347008508088, -187500.02235174447, -53686.00680661283, -3420.6886196957375, -10994.443117909805, -187500.02235174447, -23655.20878496275, -14334.441940121884, 21451.215022947195, -41220.97536575501, -187500.02235174447, -16772.32435611777, -37119.72083088408, -30487.108884705176, -2120.7782174084446, 0.138, 0.998, 0.168, 192.0, 0.0, 0.0, 0.0, 0.0, 0.0, 0.0, 0.0, 0.0, 0.0, 1.695336330397607E9, 0.0, 2023-09-21 17:45:30.397
156.0, 10105.558944411152, 15438.43930225841, -187500.02235174447, -53677.311978019716, -3402.5613549424834, -10991.22446670824, -187500.02235174447, -23660.863776309943, -14333.07848371011, 21449.940973513243, -41217.242624430975, -187500.02235174447, -16755.918175687573, -37114.669336637184, -30513.126315251153, -2120.577051708347, 0.138, 0.998, 0.168, 192.0, 0.0, 0.0, 0.0, 0.0, 0.0, 0.0, 0.0, 0.0, 0.0, 1.69533633039761E9, 0.0, 2023-09-21 17:45:30.397
158.0, 10111.549211925176, 15450.375133797543, -187500.02235174447, -53672.30518726173, -3409.57980270145, -10983.758984060167, -187500.02235174447, -23656.25931695215, -14325.12126268402, 21474.14791275834, -41207.474912104, -187500.02235174447, -16744.965820904472, -37106.980336544555, -30471.50736707537, -2116.5090342174813, 0.138, 0.998, 0.168, 192.0, 0.0, 0.0, 0.0, 0.0, 0.0, 0.0, 0.0, 0.0, 0.0, 1.695336330397614E9, 0.0, 2023-09-21 17:45:30.397
160.0, 10113.158537525956, 15446.82120642915, -187500.02235174447, -53678.65308268704, -3406.7858346445364, -11000.858068568477, -187500.02235174447, -23669.78212234761, -14314.548887556659, 21466.280098710075, -41196.611964298725, -187500.02235174447, -16720.98239910393, -37103.426409176165, -30515.026213529854, -2121.1358453197295, 0.138, 0.998, 0.168, 192.0, 0.0, 0.0, 0.0, 0.0, 0.0, 0.0, 0.0, 0.0, 0.0, 1.695336330397617E9, 0.0, 2023-09-21 17:45:30.397
162.0, 10110.47632819132, 15443.490796505308, -187500.02235174447, -53683.950446122944, -3425.427189520263, -11005.350769203993, -187500.02235174447, -23667.189319990794, -14320.047416692665, 21470.504578412125, -41207.56431908182, -187500.02235174447, -16714.36628274516, -37121.0619355514, -30465.517099561348, -2131.70822044709, 0.14, 0.998, 0.168, 192.0, 2.0, 48.0, 15.5, 24.0, 2.5, 32.0, 0.0, 0.0, 0.0, 1.695336330397621E9, 0.0, 2023-09-21 17:45:30.397
164.0, 10106.631828145008, 15436.449997001888, -187500.02235174447, -53682.65404494453, -3391.3407792259195, -11009.41878669486, -187500.02235174447, -23670.117398514438, -14311.576105544103, 21444.9118310108, -41197.371923610204, -187500.02235174447, -16682.11271549615, -37120.10081053982, -30509.527684393848, -2129.5848047238355, 0.14, 0.998, 0.168, 192.0, 0.0, 0.0, 0.0, 0.0, 0.0, 0.0, 0.0, 0.0, 0.0, 1.695336330457991E9, 0.0, 2023-09-21 17:45:30.457
166.0, 10107.369435712033, 15435.175947567934, -187500.02235174447, -53685.24684730135, -3400.683808408238, -11001.528620902136, -187500.02235174447, -23661.288459454594, -14325.188317917386, 21455.90888928281, -41204.16685392462, -187500.02235174447, -16664.454837376456, -37126.82868562087, -30464.8912507166, -2123.281612787439, 0.14, 0.998, 0.168, 192.0, 0.0, 0.0, 0.0, 0.0, 0.0, 0.0, 0.0, 0.0, 0.0, 1.695336330458006E9, 0.0, 2023-09-21 17:45:30.458
168.0, 10110.588086913596, 15437.433473757921, -187500.02235174447, -53672.88633261756, -3390.580819914439, -11001.103937757485, -187500.02235174447, -23665.803511834565, -14311.039663677177, 21441.022627475577, -41179.557583279326, -187500.02235174447, -16608.508421004823, -37108.14262725623, -30499.827027300245, -2111.3681329927604, 0.14, 0.998, 0.168, 192.0, 0.0, 0.0, 0.0, 0.0, 0.0, 0.0, 0.0, 0.0, 0.0, 1.695336330458011E9, 0.0, 2023-09-21 17:45:30.458
170.0, 10115.773691627228, 15444.071941861146, -187500.02235174447, -53673.109850062116, -3393.799471116003, -10994.51017314317, -187500.02235174447, -23654.806453562553, -14332.296172654174, 21456.825310805478, -41198.60126955525, -187500.02235174447, -16581.28399625826, -37127.5662931879, -30419.964244361432, -2114.7208946610567, 0.14, 0.998, 0.168, 192.0, 0.0, 0.0, 0.0, 0.0, 0.0, 0.0, 0.0, 0.0, 0.0, 1.695336330458014E9, 0.0, 2023-09-21 17:45:30.458
172.0, 10122.702732408374, 15456.655973989486, -187500.02235174447, -53647.33828870515, -3360.0930404774003, -10969.40916411986, -187500.02235174447, -23631.113604439928, -14299.550867027148, 21449.382179901862, -41165.230115083476, -187500.02235174447, -16502.538800542214, -37092.56346137088, -30464.377160594126, -2098.448824697593, 0.14400000000000002, 0.996, 0.17200000000000001, 192.0, 2.0, 64.0, 15.5, 16.0, 2.5, 48.0, 0.0, 0.0, 0.0, 1.695336330458018E9, 0.0, 2023-09-21 17:45:30.458
174.0, 10120.601668429574, 15445.323639550645, -187500.02235174447, -53660.21289351141, -3359.355432910375, -10977.500495612681, -187500.02235174447, -23638.7802527881, -14303.238904862274, 21476.360735459417, -41167.06295812881, -187500.02235174447, -16453.25320401826, -37096.87734805076, -30450.295561587285, -2081.8191268228443, 0.14400000000000002, 0.996, 0.17200000000000001, 192.0, 0.0, 0.0, 0.0, 0.0, 0.0, 0.0, 0.0, 0.0, 0.0, 1.695336330458021E9, 0.0, 2023-09-21 17:45:30.458
176.0, 10093.913685549938, 15422.033121828214, -187500.02235174447, -53680.70944317692, -3380.5895901429167, -10997.773527833644, -187500.02235174447, -23659.92500304282, -14327.401140618462, 21437.82632801847, -41186.37486533819, -187500.02235174447, -16430.05209327365, -37114.311708725894, -30456.777567479323, -2103.0085805664758, 0.14400000000000002, 0.996, 0.17200000000000001, 192.0, 0.0, 0.0, 0.0, 0.0, 0.0, 0.0, 0.0, 0.0, 0.0, 1.695336330458025E9, 0.0, 2023-09-21 17:45:30.458
178.0, 10103.837860088093, 15429.744473665294, -187500.02235174447, -53674.786230896265, -3383.428261688741, -10989.257513196173, -187500.02235174447, -23657.846290808477, -14334.106663955054, 21452.064389236497, -41193.7732927529, -187500.02235174447, -16398.536133591668, -37119.47496169507, -30401.121723785607, -2106.316638745861, 0.14400000000000002, 0.996, 0.17200000000000001, 192.0, 0.0, 0.0, 0.0, 0.0, 0.0, 0.0, 0.0, 0.0, 0.0, 1.695336330458028E9, 0.0, 2023-09-21 17:45:30.458
180.0, 10099.792194341684, 15435.444168501399, -187500.02235174447, -53665.554960436224, -3367.871447547847, -10979.020414235642, -187500.02235174447, -23649.710255826743, -14326.149442928963, 21438.608639074402, -41184.98905718196, -187500.02235174447, -16358.750028461222, -37110.266042979485, -30404.720354642912, -2109.535289947425, 0.14400000000000002, 0.996, 0.17200000000000001, 192.0, 0.0, 0.0, 0.0, 0.0, 0.0, 0.0, 0.0, 0.0, 0.0, 1.69533633051707E9, 0.0, 2023-09-21 17:45:30.517
182.0, 10116.108967794058, 15450.15161635299, -187500.02235174447, -53665.487905202855, -3366.8879707918136, -10974.952396744777, -187500.02235174447, -23645.642238335877, -14315.577067801603, 21468.783494089068, -41182.23979261396, -187500.02235174447, -16319.142737286418, -37104.81221733239, -30391.890453325566, -2112.3069062598834, 0.14200000000000002, 0.992, 0.168, 192.0, 2.0, 56.0, 15.5, 0.0, 2.5, 32.0, 0.0, 0.0, 0.0, 1.695336330517081E9, 0.0, 2023-09-21 17:45:30.517
184.0, 10105.357778711055, 15435.511223734764, -187500.02235174447, -53671.29935876124, -3367.8267440589366, -10982.08260322602, -187500.02235174447, -23656.661648352343, -14292.443012290361, 21462.502653897125, -41170.52747851938, -187500.02235174447, -16276.763829799156, -37092.652868348705, -30432.570628234225, -2117.291345273417, 0.14200000000000002, 0.992, 0.168, 192.0, 0.0, 0.0, 0.0, 0.0, 0.0, 0.0, 0.0, 0.0, 0.0, 1.695336330517085E9, 0.0, 2023-09-21 17:45:30.517
186.0, 10100.95448505336, 15421.3402177501, -187500.02235174447, -53680.97766411039, -3369.2796074485314, -10985.88239978342, -187500.02235174447, -23656.751055330165, -14310.16794564342, 21449.583345601957, -41193.63918228617, -187500.02235174447, -16259.284765635106, -37120.279624495466, -30405.34620348766, -2118.297173773906, 0.14200000000000002, 0.992, 0.168, 192.0, 0.0, 0.0, 0.0, 0.0, 0.0, 0.0, 0.0, 0.0, 0.0, 1.695336330517089E9, 0.0, 2023-09-21 17:45:30.517
188.0, 10092.61728437153, 15420.535554949709, -187500.02235174447, -53676.44025998596, -3375.4933924071065, -10981.814382292556, -187500.02235174447, -23655.789930318588, -14301.741337983769, 21430.852583748412, -41183.469138559005, -187500.02235174447, -16217.241134314674, -37108.92493831217, -30414.800991392254, -2118.699505174101, 0.14200000000000002, 0.992, 0.168, 192.0, 0.0, 0.0, 0.0, 0.0, 0.0, 0.0, 0.0, 0.0, 0.0, 1.695336330517092E9, 0.0, 2023-09-21 17:45:30.517
190.0, 10104.70957812185, 15421.496679961287, -187500.02235174447, -53678.45191698694, -3381.5283634100397, -10985.435364894314, -187500.02235174447, -23664.4847589117, -14316.649951535459, 21446.968191500688, -41193.616830541716, -187500.02235174447, -16211.988474367676, -37118.87146459478, -30405.435610465483, -2118.6548016851907, 0.14200000000000002, 0.992, 0.168, 192.0, 0.0, 0.0, 0.0, 0.0, 0.0, 0.0, 0.0, 0.0, 0.0, 1.695336330517096E9, 0.0, 2023-09-21 17:45:30.517
192.0, 10106.073034533625, 15433.00782835577, -187500.02235174447, -53666.94076859245, -3378.3097122084755, -10970.906730998366, -187500.02235174447, -23649.039703493083, -14307.105756653042, 21453.785473559557, -41180.183432124075, -187500.02235174447, -16186.283968244074, -37102.509987653495, -30385.40844743353, -2108.0377230689196, 0.14, 0.99, 0.17200000000000001, 192.0, 2.0, 48.0, 15.0, 120.0, 2.5, 48.0, 0.0, 0.0, 0.0, 1.695336330517099E9, 0.0, 2023-09-21 17:45:30.517
194.0, 10122.389807986, 15441.367380782054, -187500.02235174447, -53656.01076555381, -3350.4147351282522, -10965.989347218198, -187500.02235174447, -23640.18841268878, -14294.96875941381, 21467.509444655116, -41172.494432031446, -187500.02235174447, -16160.937090031755, -37100.05129576341, -30395.77965686079, -2094.0231792954423, 0.14, 0.99, 0.17200000000000001, 192.0, 0.0, 0.0, 0.0, 0.0, 0.0, 0.0, 0.0, 0.0, 0.0, 1.695336330576913E9, 0.0, 2023-09-21 17:45:30.576
196.0, 10116.265430005245, 15437.969915624848, -187500.02235174447, -53653.41796319699, -3368.9443312817016, -10962.994213461187, -187500.02235174447, -23640.83661327799, -14285.11164010902, 21475.041982536553, -41159.03868186935, -187500.02235174447, -16138.272421154074, -37089.72478982506, -30376.378342673583, -2090.22338273804, 0.14, 0.99, 0.17200000000000001, 192.0, 0.0, 0.0, 0.0, 0.0, 0.0, 0.0, 0.0, 0.0, 0.0, 1.695336330576923E9, 0.0, 2023-09-21 17:45:30.576
198.0, 10128.111854566558, 15440.04862785919, -187500.02235174447, -53657.441277198945, -3357.6343485873163, -10977.858123523965, -187500.02235174447, -23648.927944770807, -14290.16313435592, 21478.148875015842, -41161.85500167072, -187500.02235174447, -16125.397816347817, -37099.67131610767, -30384.223804977395, -2099.70052238709, 0.14, 0.99, 0.17200000000000001, 192.0, 0.0, 0.0, 0.0, 0.0, 0.0, 0.0, 0.0, 0.0, 0.0, 1.695336330576927E9, 0.0, 2023-09-21 17:45:30.576
200.0, 10124.557927198164, 15447.715276207362, -187500.02235174447, -53652.99328005234, -3370.397194671297, -10970.929082742821, -187500.02235174447, -23641.931848756296, -14288.039718632666, 21463.28496495306, -41157.38465277966, -187500.02235174447, -16109.170449873263, -37099.67131610767, -30355.39005463005, -2105.0425893119086, 0.14, 0.99, 0.17200000000000001, 192.0, 0.0, 0.0, 0.0, 0.0, 0.0, 0.0, 0.0, 0.0, 0.0, 1.69533633057693E9, 0.0, 2023-09-21 17:45:30.576
202.0, 10119.819357373639, 15432.404331255477, -187500.02235174447, -53664.2138557689, -3364.831610301925, -10984.675405582835, -187500.02235174447, -23660.126168742918, -14288.30793956613, 21469.699915611734, -41157.67522545758, -187500.02235174447, -16092.719565954158, -37095.24567070552, -30375.819549062202, -2100.7510543764897, 0.14200000000000002, 0.996, 0.17200000000000001, 192.0, 2.0, 56.0, 15.5, 16.0, 2.5, 48.0, 0.0, 0.0, 0.0, 1.695336330576934E9, 0.0, 2023-09-21 17:45:30.576
204.0, 10114.410235215455, 15434.72891267883, -187500.02235174447, -53663.65506215752, -3383.316502966464, -10973.879513010921, -187500.02235174447, -23651.72191282772, -14299.372053071505, 21469.409342933817, -41172.33796982026, -187500.02235174447, -16096.161734600275, -37103.67227836517, -30325.036385659743, -2118.27482202945, 0.14200000000000002, 0.996, 0.17200000000000001, 192.0, 0.0, 0.0, 0.0, 0.0, 0.0, 0.0, 0.0, 0.0, 0.0, 1.695336330576937E9, 0.0, 2023-09-21 17:45:30.576
206.0, 10117.42772071692, 15438.774578425238, -187500.02235174447, -53666.00199532533, -3376.3427586964085, -10981.344995658994, -187500.02235174447, -23658.382732675404, -14290.006672144733, 21470.325764456484, -41162.212629582005, -187500.02235174447, -16078.682670436225, -37095.08920849433, -30362.922592511488, -2117.4701592290594, 0.14200000000000002, 0.996, 0.17200000000000001, 192.0, 0.0, 0.0, 0.0, 0.0, 0.0, 0.0, 0.0, 0.0, 0.0, 1.695336330576941E9, 0.0, 2023-09-21 17:45:30.576
208.0, 10120.981648085315, 15455.605442000086, -187500.02235174447, -53656.23428299836, -3385.7975466010034, -10968.090411196998, -187500.02235174447, -23646.692770325277, -14294.566428013615, 21490.241168766162, -41164.42545228308, -187500.02235174447, -16079.75555417008, -37096.87734805076, -30313.23466458734, -2122.208729053584, 0.14200000000000002, 0.996, 0.17200000000000001, 192.0, 0.0, 0.0, 0.0, 0.0, 0.0, 0.0, 0.0, 0.0, 0.0, 1.695336330576944E9, 0.0, 2023-09-21 17:45:30.576
210.0, 10118.008866072758, 15443.334334294123, -187500.02235174447, -53665.085573802666, -3375.6945581072046, -10987.55878061757, -187500.02235174447, -23661.57903213251, -14281.177733084885, 21488.96711933221, -41143.23599853945, -187500.02235174447, -16061.829455116924, -37085.9026415232, -30359.189851187453, -2114.340915005316, 0.14200000000000002, 0.996, 0.17200000000000001, 192.0, 0.0, 0.0, 0.0, 0.0, 0.0, 0.0, 0.0, 0.0, 0.0, 1.695336330637265E9, 0.0, 2023-09-21 17:45:30.637
212.0, 10127.843633633094, 15453.884357677027, -187500.02235174447, -53656.30133823173, -3374.28639820652, -10969.02918446412, -187500.02235174447, -23631.873563751407, -14291.906570423434, 21496.857285124934, -41147.90751313061, -187500.02235174447, -16072.491237222104, -37099.514853896486, -30297.409629512982, -2118.7889121519224, 0.14200000000000002, 0.996, 0.17200000000000001, 192.0, 2.0, 56.0, 15.5, 16.0, 2.5, 48.0, 0.0, 0.0, 0.0, 1.695336330637273E9, 0.0, 2023-09-21 17:45:30.637
214.0, 10115.684284649407, 15439.176909825435, -187500.02235174447, -53669.53357094927, -3352.80637178497, -10974.930045000321, -187500.02235174447, -23633.19231667427, -14281.535360996171, 21481.881616339877, -41128.66266115459, -187500.02235174447, -16051.927632323222, -37083.53335661094, -30336.81575498769, -2107.0765980573415, 0.14200000000000002, 0.996, 0.17200000000000001, 192.0, 0.0, 0.0, 0.0, 0.0, 0.0, 0.0, 0.0, 0.0, 0.0, 1.695336330637277E9, 0.0, 2023-09-21 17:45:30.637
216.0, 10095.47830766181, 15424.424758484933, -187500.02235174447, -53684.4198327565, -3368.6984620926933, -10980.65209158088, -187500.02235174447, -23635.695712053268, -14307.485736308783, 21483.893273340855, -41142.498390972425, -187500.02235174447, -16061.203606272175, -37103.24759522052, -30282.61277468357, -2114.027990582942, 0.14200000000000002, 0.996, 0.17200000000000001, 192.0, 0.0, 0.0, 0.0, 0.0, 0.0, 0.0, 0.0, 0.0, 0.0, 1.69533633063728E9, 0.0, 2023-09-21 17:45:30.637
218.0, 10081.28494993269, 15411.99718856778, -187500.02235174447, -53682.02819609978, -3350.23592117261, -10969.923254242332, -187500.02235174447, -23632.76763352962, -14310.391463087972, 21457.518214883592, -41133.60239667921, -187500.02235174447, -16051.704114878668, -37099.26898470747, -30315.447487288417, -2115.4585022280817, 0.14200000000000002, 0.996, 0.17200000000000001, 192.0, 0.0, 0.0, 0.0, 0.0, 0.0, 0.0, 0.0, 0.0, 0.0, 1.695336330637284E9, 0.0, 2023-09-21 17:45:30.637
220.0, 10077.909836519937, 15410.05258680017, -187500.02235174447, -53684.06220484522, -3358.0813834764226, -10966.481085596215, -187500.02235174447, -23631.024197462106, -14323.109605683043, 21473.9690988027, -41140.0620508268, -187500.02235174447, -16058.186120770708, -37103.851092320816, -30286.23375728533, -2109.4235312251485, 0.14200000000000002, 0.996, 0.17200000000000001, 192.0, 0.0, 0.0, 0.0, 0.0, 0.0, 0.0, 0.0, 0.0, 0.0, 1.695336330637288E9, 0.0, 2023-09-21 17:45:30.637
222.0, 10057.279176387688, 15392.19354298038, -187500.02235174447, -53697.517955007315, -3353.90160726328, -10983.736632315711, -187500.02235174447, -23645.441072635782, -14328.049341207665, 21453.450197392725, -41139.637367682146, -187500.02235174447, -16054.31926897994, -37106.220377233076, -30316.498019277817, -2109.825862625344, 0.146, 0.99, 0.176, 192.0, 2.0, 72.0, 15.0, 120.0, 2.5, 64.0, 0.0, 0.0, 0.0, 1.695336330637292E9, 0.0, 2023-09-21 17:45:30.637
224.0, 10063.18003692389, 15396.753298849262, -187500.02235174447, -53697.942638151966, -3356.3379474089083, -10974.415954877848, -187500.02235174447, -23641.507165611645, -14342.019181492233, 21463.6649446088, -41149.829763153764, -187500.02235174447, -16059.683687649214, -37116.39042096024, -30267.704161131882, -2109.825862625344, 0.146, 0.99, 0.176, 192.0, 0.0, 0.0, 0.0, 0.0, 0.0, 0.0, 0.0, 0.0, 0.0, 1.695336330697561E9, 0.0, 2023-09-21 17:45:30.697
226.0, 10055.155760664435, 15394.42871742591, -187500.02235174447, -53698.16615559652, -3348.894816505291, -10977.321681657038, -187500.02235174447, -23641.328351656004, -14345.081370482609, 21431.098452937422, -41154.43422251156, -187500.02235174447, -16056.979126570122, -37121.665432651695, -30273.470911201348, -2116.307868517383, 0.146, 0.99, 0.176, 192.0, 0.0, 0.0, 0.0, 0.0, 0.0, 0.0, 0.0, 0.0, 0.0, 1.695336330697576E9, 0.0, 2023-09-21 17:45:30.697
228.0, 10063.627071812996, 15402.743566363284, -187500.02235174447, -53692.51116424932, -3343.8209705139366, -10977.008757234664, -187500.02235174447, -23644.457595879747, -14325.858870251044, 21456.825310805478, -41140.73260316045, -187500.02235174447, -16033.576850125415, -37109.707249368104, -30267.592402409602, -2110.9658015925647, 0.146, 0.99, 0.176, 192.0, 0.0, 0.0, 0.0, 0.0, 0.0, 0.0, 0.0, 0.0, 0.0, 1.695336330697579E9, 0.0, 2023-09-21 17:45:30.697
230.0, 10055.781609509184, 15403.682339630406, -187500.02235174447, -53694.45576601694, -3363.8257818014363, -10984.98833000521, -187500.02235174447, -23652.05718899455, -14330.284515653197, 21436.731092540158, -41138.028042081365, -187500.02235174447, -16037.443701916183, -37104.16401674319, -30281.875167116545, -2115.0785225723416, 0.146, 0.99, 0.176, 192.0, 0.0, 0.0, 0.0, 0.0, 0.0, 0.0, 0.0, 0.0, 0.0, 1.695336330697583E9, 0.0, 2023-09-21 17:45:30.697
232.0, 10072.746583550761, 15418.14391829299, -187500.02235174447, -53687.638483958064, -3342.6586798022604, -10984.250722438184, -187500.02235174447, -23646.044569736074, -14333.83844302159, 21470.43752317876, -41146.11937357418, -187500.02235174447, -16045.26681247554, -37114.602281403815, -30264.03847504121, -2116.5537377063915, 0.14, 0.988, 0.17200000000000001, 192.0, 2.0, 48.0, 15.0, 112.0, 2.5, 48.0, 0.0, 0.0, 0.0, 1.695336330697587E9, 0.0, 2023-09-21 17:45:30.697
234.0, 10063.068278201614, 15407.14686002098, -187500.02235174447, -53689.471327003404, -3356.159133453266, -10987.60348410648, -187500.02235174447, -23650.000828504664, -14333.704332554858, 21453.494900881637, -41139.81618163779, -187500.02235174447, -16036.571983882426, -37109.43902843464, -30271.481605944828, -2113.960935349576, 0.14, 0.988, 0.17200000000000001, 192.0, 0.0, 0.0, 0.0, 0.0, 0.0, 0.0, 0.0, 0.0, 0.0, 1.695336330697591E9, 0.0, 2023-09-21 17:45:30.697
236.0, 10076.345214408066, 15414.589990924596, -187500.02235174447, -53691.25946655983, -3350.928825250724, -10984.898923027387, -187500.02235174447, -23647.072749981016, -14332.542041843182, 21461.67563935228, -41142.788963650346, -187500.02235174447, -16030.358198923852, -37109.19315924563, -30266.36305646456, -2104.4614439560705, 0.14, 0.988, 0.17200000000000001, 192.0, 0.0, 0.0, 0.0, 0.0, 0.0, 0.0, 0.0, 0.0, 0.0, 1.695336330697594E9, 0.0, 2023-09-21 17:45:30.697
