%OpenBCI Raw EXG Data
%Number of channels = 16
%Sample Rate = 125 Hz
%Board = OpenBCI_GUI$BoardCytonSerialDaisy
Sample Index, EXG Channel 0, EXG Channel 1, EXG Channel 2, EXG Channel 3, EXG Channel 4, EXG Channel 5, EXG Channel 6, EXG Channel 7, EXG Channel 8, EXG Channel 9, EXG Channel 10, EXG Channel 11, EXG Channel 12, EXG Channel 13, EXG Channel 14, EXG Channel 15, Accel Channel 0, Accel Channel 1, Accel Channel 2, Other, Other, Other, Other, Other, Other, Other, Analog Channel 0, Analog Channel 1, Analog Channel 2, Timestamp, Other, Timestamp (Formatted)
0.0, -103222.85928998701, 54724.267688306296, -6835.297564899632, 12386.934445730978, 69183.81234214453, 43375.258848101956, -187500.02235174447, 63990.22805574275, 0.0, 0.0, 0.0, 0.0, 0.0, 0.0, 0.0, 0.0, 0.0, 0.0, 0.0, 192.0, 0.0, 0.0, 0.0, 0.0, 0.0, 0.0, 0.0, 0.0, 0.0, 1.695422538181386E9, 0.0, 2023-09-22 17:42:18.181
224.0, -103205.89431594544, 54744.00427866034, -6859.124524488989, 12450.279289517319, 69305.89757035942, 43392.11206342126, -187500.02235174447, 64062.35713510003, 63810.87765823337, 69590.63644297558, 5117.856576187203, 11809.186555050203, 66695.7949633354, 41460.384900615805, 17455.773646327692, 28185.706220353393, 0.048, 0.489, 0.14, 192.0, 1.5, 0.0, 15.0, 72.0, 4.0, 96.0, 0.0, 0.0, 0.0, 1.695422538181396E9, 0.0, 2023-09-22 17:42:18.181
226.0, -103179.34044353252, 54758.51056081183, -6855.347079676042, 12396.188067935476, 69229.00756943316, 43366.63107474221, -187500.02235174447, 64013.58562869855, 63960.63434608393, 69582.54511148276, 5111.888660417636, 11793.249761253568, 66675.52193111443, 41451.46655457813, 17431.1643756824, 28162.125129953045, 0.048, 0.489, 0.14, 192.0, 0.0, 0.0, 0.0, 0.0, 0.0, 0.0, 0.0, 0.0, 0.0, 1.695422538181401E9, 0.0, 2023-09-22 17:42:18.181
228.0, -103167.40461199339, 54750.86626420811, -6871.507390917229, 12441.852681857668, 69325.76827118019, 43379.86330745975, -187500.02235174447, 64067.40862934693, 63815.52682108007, 69576.75600966884, 5102.567982979773, 11789.248798996068, 66673.15264620217, 41447.89027546529, 17435.813538529103, 28158.191222928912, 0.048, 0.489, 0.14, 192.0, 0.0, 0.0, 0.0, 0.0, 0.0, 0.0, 0.0, 0.0, 0.0, 1.695422538181405E9, 0.0, 2023-09-22 17:42:18.181
230.0, -103127.32793418503, 54775.34142438667, -6856.3752599209865, 12403.586495350182, 69235.75779625867, 43375.16944112414, -187500.02235174447, 64021.72166368028, 63960.36612515046, 69586.76959118481, 5105.205488825499, 11791.774546119517, 66667.52000659943, 41454.4840400796, 17430.672637304382, 28156.268972905753, 0.048, 0.489, 0.14, 192.0, 0.0, 0.0, 0.0, 0.0, 0.0, 0.0, 0.0, 0.0, 0.0, 1.695422538181408E9, 0.0, 2023-09-22 17:42:18.181
232.0, -103171.8973126289, 54740.67386873649, -6857.895178543947, 12436.421207955029, 69299.48261970075, 43385.183022640114, -187500.02235174447, 64041.34649531204, 63795.79023072604, 69584.08738185017, 5096.2424392989205, 11795.373176976822, 66670.64925082317, 41454.39463310178, 17437.132291451966, 28146.121280923046, 0.048, 0.489, 0.14, 192.0, 0.0, 0.0, 0.0, 0.0, 0.0, 0.0, 0.0, 0.0, 0.0, 1.695422538181412E9, 0.0, 2023-09-22 17:42:18.181
234.0, -103109.31242815405, 54783.70097681296, -6840.7066870578155, 12413.153041977053, 69240.094034683, 43374.565944023845, -187500.02235174447, 64023.66626544789, 63965.03763974162, 69589.11652435262, 5112.112177862189, 11797.29542699998, 66674.69491656958, 41456.62980754731, 17433.667771061395, 28149.138766424512, 0.07200000000000001, 0.7324999999999999, 0.20800000000000002, 192.0, 1.5, 0.0, 15.0, 64.0, 4.0, 80.0, 0.0, 0.0, 0.0, 1.695422538181415E9, 0.0, 2023-09-22 17:42:18.181
236.0, -103185.15189709091, 54730.23560407587, -6862.343175690553, 12437.807016111257, 69294.87816034295, 43384.981856940016, -187500.02235174447, 64047.24735584824, 63798.58419878295, 69596.29143432277, 5106.099558603712, 11804.135060803303, 66687.81539056485, 41471.87369726583, 17452.286774192664, 28150.18929841391, 0.07200000000000001, 0.7324999999999999, 0.20800000000000002, 192.0, 0.0, 0.0, 0.0, 0.0, 0.0, 0.0, 0.0, 0.0, 0.0, 1.695422538181418E9, 0.0, 2023-09-22 17:42:18.181
238.0, -103104.10447169596, 54783.410404135044, -6836.661021311405, 12413.778890821803, 69252.65571506688, 43386.792348240895, -187500.02235174447, 64036.876146420975, 63976.01234626918, 69585.09321035066, 5108.625305727161, 11787.751232117562, 66670.60454733427, 41450.99716794457, 17427.87866924747, 28158.504147351283, 0.07200000000000001, 0.7324999999999999, 0.20800000000000002, 192.0, 0.0, 0.0, 0.0, 0.0, 0.0, 0.0, 0.0, 0.0, 0.0, 1.695422538181422E9, 0.0, 2023-09-22 17:42:18.181
0.0, -52819.228508380475, 35671.93128728048, -2364.3228249934705, 6558.873541220849, 32189.931832543833, 22837.604324532072, -93750.01117587223, 30491.55688185178, 31889.50203532005, 34802.89546285814, 2557.330138365047, 5903.207469368872, 33347.193401717355, 20734.551040476686, 8726.523366752073, 14085.756431312137, 0.08600000000000001, 0.86025, 0.2, 192.0, 1.5, 16.0, 15.0, 112.0, 3.0, 0.0, 0.0, 0.0, 0.0, 1.695422538343196E9, 0.0, 2023-09-22 17:42:18.343
2.0, -105822.09894920576, 71195.22347393316, -4705.399835753422, 13063.208825970749, 64405.34465376671, 45681.17656483371, -187500.02235174447, 60901.06050980813, 85039.24578896115, 99533.97208857205, 33223.67766185733, 13007.15065087684, 64920.7758809061, 45012.121798053005, -42239.63376756117, -4603.1182531259365, 0.08600000000000001, 0.86025, 0.2, 192.0, 0.0, 0.0, 0.0, 0.0, 0.0, 0.0, 0.0, 0.0, 0.0, 1.695422538343207E9, 0.0, 2023-09-22 17:42:18.343
4.0, -105687.0497092068, 71297.10272516045, -4727.684524975362, 13144.569175788067, 64395.68870016202, 45690.47489052712, -187500.02235174447, 60991.94270276341, 85035.20012321474, 99467.72151800651, 33268.62701995695, 13005.541325276057, 64929.04602635456, 44991.96052455432, -42224.25576737592, -4616.171671887836, 0.08600000000000001, 0.86025, 0.2, 192.0, 0.0, 0.0, 0.0, 0.0, 0.0, 0.0, 0.0, 0.0, 0.0, 1.695422538343211E9, 0.0, 2023-09-22 17:42:18.343
6.0, -105841.05322850386, 71186.3051278955, -4695.140385048436, 13063.007660270652, 64412.81013641479, 45696.75573071906, -187500.02235174447, 60891.38220445898, 85063.05039680605, 99532.63098390472, 33243.503659189184, 13006.658912498822, 64933.270506056615, 45009.037257318174, -42196.60665948471, -4590.869497164428, 0.08600000000000001, 0.86025, 0.2, 192.0, 0.0, 0.0, 0.0, 0.0, 0.0, 0.0, 0.0, 0.0, 0.0, 1.695422538343214E9, 0.0, 2023-09-22 17:42:18.343
8.0, -105696.61625583367, 71293.9287774478, -4729.584423254064, 13158.606071306, 64398.01328158537, 45684.39521603528, -187500.02235174447, 60996.92714177694, 85004.8688059889, 99436.49613100245, 33266.68241818934, 13000.154554862327, 64930.0742065995, 45005.72919913879, -42218.08668590626, -4632.354334873478, 0.094, 0.99, 0.158, 192.0, 1.0, 120.0, 15.0, 120.0, 2.0, 120.0, 0.0, 0.0, 0.0, 1.695422538343218E9, 0.0, 2023-09-22 17:42:18.343
10.0, -105795.90270470413, 71226.65002663732, -4688.5242686896645, 13070.607253385455, 64410.329092780245, 45684.23875382409, -187500.02235174447, 60892.61155040402, 85115.21936836473, 99555.40741150468, 33279.13233985095, 12995.773612949088, 64925.93913387527, 45000.63300140298, -42113.14524568859, -4531.279746446579, 0.094, 0.99, 0.158, 192.0, 0.0, 0.0, 0.0, 0.0, 0.0, 0.0, 0.0, 0.0, 0.0, 1.695422538343221E9, 0.0, 2023-09-22 17:42:18.343
12.0, -105712.5977531192, 71278.39431505137, -4719.414379526899, 13159.433085850846, 64400.98606359793, 45686.33981780289, -187500.02235174447, 60977.25760665627, 84993.60352678341, 99428.60596520973, 33260.2004122973, 13008.24588635515, 64933.31520954552, 45001.5717746701, -42177.96530460898, -4609.2202793622355, 0.094, 0.99, 0.158, 192.0, 0.0, 0.0, 0.0, 0.0, 0.0, 0.0, 0.0, 0.0, 0.0, 1.695422538343225E9, 0.0, 2023-09-22 17:42:18.343
14.0, -105782.6704719866, 71231.88033483987, -4689.5748006790645, 13073.848256331476, 64401.83542988723, 45680.95304738916, -187500.02235174447, 60901.664006908424, 85132.31845287305, 99557.06144059438, 33288.676534733364, 12998.455822283724, 64930.051854855046, 45003.784597371174, -42074.27556208081, -4515.722932305686, 0.094, 0.99, 0.158, 192.0, 0.0, 0.0, 0.0, 0.0, 0.0, 0.0, 0.0, 0.0, 0.0, 1.695422538343228E9, 0.0, 2023-09-22 17:42:18.343
16.0, -105726.2099654925, 71260.15529157582, -4729.942051165349, 13148.368972345468, 64394.79463038381, 45672.817012407424, -187500.02235174447, 60978.03991771221, 84975.25274458561, 99414.92669760308, 33255.48419421723, 12997.785269950065, 64932.44349151177, 45000.81181535862, -42156.753499120896, -4610.851956707473, 0.094, 0.99, 0.158, 192.0, 0.0, 0.0, 0.0, 0.0, 0.0, 0.0, 0.0, 0.0, 0.0, 1.695422538403505E9, 0.0, 2023-09-22 17:42:18.403
18.0, -105750.4616082265, 71250.27582052659, -4701.577687451564, 13070.62960512991, 64388.960825080976, 45672.45938449614, -187500.02235174447, 60905.62026567701, 85159.85580204199, 99561.62119646325, 33307.273186120176, 12982.47432499818, 64921.71465417322, 44992.407559443425, -42013.568224140196, -4480.228362110658, 0.096, 1.0, 0.136, 192.0, 1.5, 0.0, 15.5, 32.0, 2.0, 32.0, 0.0, 0.0, 0.0, 1.695422538403516E9, 0.0, 2023-09-22 17:42:18.403
20.0, -105719.92912530055, 71259.50709098662, -4732.423094799888, 13143.049257165107, 64387.23974075792, 45677.82380316542, -187500.02235174447, 60971.982594964815, 84973.57636375146, 99418.83825288275, 33262.86026988748, 12988.576351234478, 64927.19083156477, 44988.94303905285, -42104.85274849567, -4582.666406949331, 0.096, 1.0, 0.136, 192.0, 0.0, 0.0, 0.0, 0.0, 0.0, 0.0, 0.0, 0.0, 0.0, 1.695422538403519E9, 0.0, 2023-09-22 17:42:18.403
22.0, -105698.06911922326, 71292.96765243621, -4704.014027597193, 13092.467259462746, 64380.154237765586, 45685.89278291378, -187500.02235174447, 60921.042969351176, 85175.21145048279, 99571.81359193487, 33334.22938993328, 12985.357700032915, 64917.46782272671, 44994.843899589054, -41941.23797908282, -4436.955384845184, 0.096, 1.0, 0.136, 192.0, 0.0, 0.0, 0.0, 0.0, 0.0, 0.0, 0.0, 0.0, 0.0, 1.695422538403523E9, 0.0, 2023-09-22 17:42:18.403
24.0, -105746.0583145688, 71241.98332333367, -4713.781739924162, 13140.478806552746, 64399.22027578596, 45699.34853307588, -187500.02235174447, 60951.01665866574, 84957.77368042155, 99428.36009602071, 33255.81947038406, 12994.499563515135, 64934.61161072393, 45009.61840267401, -42048.50400072384, -4546.56833965401, 0.096, 1.0, 0.136, 192.0, 0.0, 0.0, 0.0, 0.0, 0.0, 0.0, 0.0, 0.0, 0.0, 1.695422538403526E9, 0.0, 2023-09-22 17:42:18.403
26.0, -105687.47439235145, 71298.04149842757, -4700.705969417807, 13109.812213160065, 64380.93654882152, 45697.18041386371, -187500.02235174447, 60931.43653052289, 85166.91895328986, 99560.61536796278, 33338.85620103552, 12986.877618655875, 64928.26371529862, 45005.30451599414, -41907.97858333333, -4428.72994288563, 0.096, 1.0, 0.136, 192.0, 0.0, 0.0, 0.0, 0.0, 0.0, 0.0, 0.0, 0.0, 0.0, 1.695422538403529E9, 0.0, 2023-09-22 17:42:18.403
28.0, -105786.64908249964, 71207.42752640577, -4707.679713687863, 13136.164919872872, 64394.07937456124, 45700.22025110963, -187500.02235174447, 60933.11291135704, 84946.35193900489, 99417.02776158188, 33249.672740658854, 13006.18952586526, 64946.88271842989, 45021.353068513046, -42039.160971541525, -4560.493476449666, 0.092, 0.994, 0.122, 192.0, 1.0, 112.0, 15.5, 8.0, 1.5, 104.0, 0.0, 0.0, 0.0, 1.695422538403532E9, 0.0, 2023-09-22 17:42:18.403
30.0, -105655.62315650262, 71317.0851847035, -4707.076216587569, 13116.495384752201, 64363.16691197955, 45671.94529437367, -187500.02235174447, 60942.277126583715, 85182.72163661977, 99550.17710330214, 33361.96790480231, 12970.314976014493, 64927.101424586945, 44981.924591293886, -41865.19734444587, -4411.139119999304, 0.092, 0.994, 0.122, 192.0, 0.0, 0.0, 0.0, 0.0, 0.0, 0.0, 0.0, 0.0, 0.0, 1.69542253846292E9, 0.0, 2023-09-22 17:42:18.462
32.0, -105767.38187877917, 71216.14470674333, -4709.7137224332955, 13115.914239396363, 64385.876284346145, 45678.24848631007, -187500.02235174447, 60924.12751008601, 84979.92425917677, 99435.19972982405, 33266.41419725588, 12984.262464554604, 64945.40750329584, 44999.314248480114, -41966.227229383854, -4507.788063024052, 0.092, 0.994, 0.122, 192.0, 0.0, 0.0, 0.0, 0.0, 0.0, 0.0, 0.0, 0.0, 0.0, 1.695422538462932E9, 0.0, 2023-09-22 17:42:18.462
34.0, -105624.10719682065, 71335.88300179041, -4717.022742870181, 13116.115405096461, 64360.79762706729, 45659.38361398979, -187500.02235174447, 60939.840786438086, 85189.38245646744, 99538.71065839657, 33373.613163663525, 12964.727039900667, 64924.62038095241, 44968.982931254264, -41811.06141937512, -4375.398680615268, 0.092, 0.994, 0.122, 192.0, 0.0, 0.0, 0.0, 0.0, 0.0, 0.0, 0.0, 0.0, 0.0, 1.695422538462936E9, 0.0, 2023-09-22 17:42:18.462
36.0, -105781.70934697501, 71198.08449722345, -4712.775911423673, 13094.903599608375, 64385.74217387941, 45676.885029898294, -187500.02235174447, 60890.6222451475, 84991.2565936156, 99435.19972982405, 33264.76016816618, 12975.031194094563, 64944.62519223991, 44993.83807108856, -41923.96008061887, -4481.323597588968, 0.092, 0.994, 0.122, 192.0, 0.0, 0.0, 0.0, 0.0, 0.0, 0.0, 0.0, 0.0, 0.0, 1.695422538462939E9, 0.0, 2023-09-22 17:42:18.462
38.0, -105618.76512989582, 71329.71392032075, -4719.79435918264, 13118.998780131196, 64356.97547876543, 45662.46815472462, -187500.02235174447, 60940.176062604914, 85171.00932252519, 99509.25105920447, 33368.427558949894, 12950.243109493627, 64919.79240415006, 44969.29585567664, -41791.950677865825, -4372.604712558355, 0.08600000000000001, 1.0, 0.11800000000000001, 192.0, 1.0, 88.0, 15.5, 32.0, 1.5, 88.0, 0.0, 0.0, 0.0, 1.695422538462942E9, 0.0, 2023-09-22 17:42:18.462
40.0, -105787.94548367805, 71189.21085467469, -4707.076216587569, 13085.717032637243, 64377.762601108865, 45675.767442675526, -187500.02235174447, 60883.827314833085, 85010.59085256945, 99446.33089856278, 33271.97978162525, 12960.726077643167, 64938.65727647034, 44995.58150715608, -41879.055426008155, -4447.840684394919, 0.08600000000000001, 1.0, 0.11800000000000001, 192.0, 0.0, 0.0, 0.0, 0.0, 0.0, 0.0, 0.0, 0.0, 0.0, 1.695422538462945E9, 0.0, 2023-09-22 17:42:18.462
42.0, -105626.07415033272, 71315.833487014, -4721.26957431669, 13138.310687340581, 64354.22621419743, 45677.35441653185, -187500.02235174447, 60957.34220234659, 85139.76158377666, 99480.35025362376, 33356.93876229987, 12952.590042661435, 64933.94105839027, 44983.01982677219, -41789.089654575546, -4377.142116682782, 0.08600000000000001, 1.0, 0.11800000000000001, 192.0, 0.0, 0.0, 0.0, 0.0, 0.0, 0.0, 0.0, 0.0, 0.0, 1.695422538462949E9, 0.0, 2023-09-22 17:42:18.462
44.0, -105783.5198382759, 71190.551959342, -4712.2394695567455, 13095.127117052927, 64360.03766775581, 45674.87337289732, -187500.02235174447, 60892.00805330373, 85034.57427437, 99453.08112538829, 33283.155653852904, 12959.876711353865, 64942.52412826111, 45001.92940258139, -41849.37230937151, -4425.310125983969, 0.08600000000000001, 1.0, 0.11800000000000001, 192.0, 0.0, 0.0, 0.0, 0.0, 0.0, 0.0, 0.0, 0.0, 0.0, 1.695422538462952E9, 0.0, 2023-09-22 17:42:18.462
46.0, -105606.96340882343, 71329.333940665, -4723.616507484497, 13156.54971081611, 64338.15530993406, 45674.04635835247, -187500.02235174447, 60970.46267634186, 85128.093973171, 99464.3240528493, 33365.20890774833, 12947.85147283691, 64922.13933731787, 44980.874059304486, -41756.4561076708, -4351.683479748187, 0.08600000000000001, 1.0, 0.11800000000000001, 192.0, 0.0, 0.0, 0.0, 0.0, 0.0, 0.0, 0.0, 0.0, 0.0, 1.695422538522724E9, 0.0, 2023-09-22 17:42:18.522
48.0, -105790.0241959124, 71184.78520927254, -4687.6972541448185, 13082.900712835875, 64368.86660681565, 45680.304846799954, -187500.02235174447, 60879.33461419757, 85059.00473105964, 99468.16855289561, 33304.94860469682, 12963.452990466714, 64946.055703885046, 45002.91287933742, -41797.35980002401, -4380.1819539287035, 0.09, 1.004, 0.114, 192.0, 1.0, 104.0, 15.5, 48.0, 1.5, 72.0, 0.0, 0.0, 0.0, 1.695422538522735E9, 0.0, 2023-09-22 17:42:18.522
50.0, -105621.49204271937, 71312.59248406798, -4722.118940605991, 13161.17652191836, 64346.380751893616, 45682.271800312024, -187500.02235174447, 60972.56374032066, 85089.60426921897, 99427.64484019815, 33363.376064703, 12953.28294673955, 64940.668933471316, 44988.02661753019, -41768.01195955419, -4368.760212512042, 0.09, 1.004, 0.114, 192.0, 0.0, 0.0, 0.0, 0.0, 0.0, 0.0, 0.0, 0.0, 0.0, 1.695422538522738E9, 0.0, 2023-09-22 17:42:18.522
52.0, -105760.63165195366, 71207.02519500557, -4693.6875216588405, 13077.11161102195, 64363.52453989084, 45676.99678862057, -187500.02235174447, 60875.69127985136, 85105.56341476005, 99490.8779252622, 33319.94662522634, 12941.257708222594, 64929.85068915495, 44986.2161262293, -41741.99452900822, -4332.885662661274, 0.09, 1.004, 0.114, 192.0, 0.0, 0.0, 0.0, 0.0, 0.0, 0.0, 0.0, 0.0, 0.0, 1.695422538522742E9, 0.0, 2023-09-22 17:42:18.522
54.0, -105609.31034199124, 71313.71007129074, -4719.5708417380865, 13152.884024725441, 64351.43224614052, 45663.049300080456, -187500.02235174447, 60965.1876646504, 85075.92500161231, 99421.02872383938, 33346.299331939146, 12928.450158649703, 64940.1771950933, 44968.53589636516, -41736.27248242766, -4340.95464240964, 0.09, 1.004, 0.114, 192.0, 0.0, 0.0, 0.0, 0.0, 0.0, 0.0, 0.0, 0.0, 0.0, 1.695422538522745E9, 0.0, 2023-09-22 17:42:18.522
56.0, -105765.92901538957, 71200.38672690233, -4681.818745353073, 13065.198131227271, 64363.94922303549, 45660.16592504572, -187500.02235174447, 60860.58150059957, 85116.9404526878, 99495.14710845318, 33330.07196546459, 12938.821368076966, 64953.252965599655, 44988.5183559082, -41704.37654308994, -4307.069397815394, 0.09, 1.004, 0.114, 192.0, 0.0, 0.0, 0.0, 0.0, 0.0, 0.0, 0.0, 0.0, 0.0, 1.695422538522748E9, 0.0, 2023-09-22 17:42:18.522
58.0, -105644.42493253053, 71287.33501283349, -4721.761312694706, 13160.260100395692, 64342.13392044711, 45654.13095404279, -187500.02235174447, 60959.622080281035, 85032.54026562456, 99381.33202568674, 33355.68706461037, 12941.32476345596, 64947.77678820811, 44973.877963289975, -41758.02072978267, -4372.3141398804355, 0.088, 1.01, 0.112, 192.0, 1.0, 96.0, 15.5, 72.0, 1.5, 64.0, 0.0, 0.0, 0.0, 1.695422538522751E9, 0.0, 2023-09-22 17:42:18.522
60.0, -105708.5520873728, 71242.65387566733, -4701.957667107305, 13075.725802865722, 64338.55764133426, 45638.305918968435, -187500.02235174447, 60871.533855382666, 85165.08611024453, 99506.90412603666, 33380.0281143222, 12926.550260371001, 64926.073244342006, 44967.95475100932, -41655.13565005489, -4267.059775240395, 0.088, 1.01, 0.112, 192.0, 0.0, 0.0, 0.0, 0.0, 0.0, 0.0, 0.0, 0.0, 0.0, 1.695422538583026E9, 0.0, 2023-09-22 17:42:18.583
62.0, -105636.55711848225, 71291.04540241306, -4735.865263446005, 13154.627460792955, 64337.10477794466, 45643.75974461553, -187500.02235174447, 60946.0322196522, 85030.32744292349, 99381.22026696448, 33353.921276798406, 12937.100283753907, 64935.639790968875, 44976.3143034356, -41718.413438607866, -4330.449322515646, 0.088, 1.01, 0.112, 192.0, 0.0, 0.0, 0.0, 0.0, 0.0, 0.0, 0.0, 0.0, 0.0, 1.695422538583039E9, 0.0, 2023-09-22 17:42:18.583
64.0, -105687.47439235145, 71263.06101835502, -4710.563088722598, 13067.58976788399, 64335.473100599425, 45656.2767215105, -187500.02235174447, 60868.315204181104, 85181.02290404117, 99517.90118430868, 33387.98533534829, 12925.186803959228, 64922.161689062326, 44966.70305331982, -41608.509911121124, -4217.148329871694, 0.088, 1.01, 0.112, 192.0, 0.0, 0.0, 0.0, 0.0, 0.0, 0.0, 0.0, 0.0, 0.0, 1.695422538583043E9, 0.0, 2023-09-22 17:42:18.583
66.0, -105650.90693842256, 71274.03572488257, -4744.269519361201, 13135.06968439456, 64327.73939701789, 45662.80343089145, -187500.02235174447, 60936.59978349206, 84997.82800648546, 99367.94333075802, 33340.97961675878, 12929.880670294842, 64931.57177347801, 44978.482422647765, -41703.75069424519, -4315.5183572195, 0.088, 1.01, 0.112, 192.0, 0.0, 0.0, 0.0, 0.0, 0.0, 0.0, 0.0, 0.0, 0.0, 1.695422538583046E9, 0.0, 2023-09-22 17:42:18.583
68.0, -105648.18002559901, 71288.81022796754, -4725.762274952206, 13068.39443068438, 64310.930885187496, 45650.040584807466, -187500.02235174447, 60884.609625889025, 85191.10354079051, 99512.31324819486, 33398.80357966466, 12914.927353254243, 64916.1714215483, 44964.53493410766, -41574.08822465995, -4191.466175492546, 0.09, 1.01, 0.114, 192.0, 1.0, 104.0, 15.5, 72.0, 1.5, 72.0, 0.0, 0.0, 0.0, 1.695422538583049E9, 0.0, 2023-09-22 17:42:18.583
70.0, -105660.942871683, 71262.07754159899, -4738.949804180837, 13122.128024354939, 64322.68790277099, 45658.60130293385, -187500.02235174447, 60931.97297238982, 84986.45096855772, 99361.46132486599, 33328.90967475291, 12912.312199152972, 64930.58829672197, 44973.9673702678, -41682.09185386799, -4296.854650599319, 0.09, 1.01, 0.114, 192.0, 0.0, 0.0, 0.0, 0.0, 0.0, 0.0, 0.0, 0.0, 0.0, 1.695422538583052E9, 0.0, 2023-09-22 17:42:18.583
72.0, -105602.671873888, 71316.14641143638, -4716.687466703352, 13072.373041197425, 64309.23215260889, 45645.39142196076, -187500.02235174447, 60895.450221949846, 85215.55634922461, 99514.23549821801, 33413.958062405356, 12893.514382066058, 64921.021750095104, 44956.0636229591, -41521.51692170107, -4144.594567369767, 0.09, 1.01, 0.114, 192.0, 0.0, 0.0, 0.0, 0.0, 0.0, 0.0, 0.0, 0.0, 0.0, 1.695422538583055E9, 0.0, 2023-09-22 17:42:18.583
74.0, -105666.66491826356, 71248.24181178115, -4727.058676130614, 13112.606181216977, 64328.275838884816, 45657.08138431089, -187500.02235174447, 60907.34135000007, 84981.26536384408, 99359.67318530956, 33334.51996261119, 12912.625123575346, 64954.10233188896, 44981.11992849349, -41650.06180406354, -4265.495153128523, 0.09, 1.01, 0.114, 192.0, 0.0, 0.0, 0.0, 0.0, 0.0, 0.0, 0.0, 0.0, 0.0, 1.695422538583059E9, 0.0, 2023-09-22 17:42:18.583
76.0, -105577.23558869786, 71328.73044356471, -4718.319144048589, 13078.765640111642, 64305.544114773766, 45643.8715033378, -187500.02235174447, 60889.81758234711, 85207.62147994299, 99499.39393989969, 33434.07463241513, 12894.07317567744, 64934.321038046015, 44953.89550374693, -41490.26918295255, -4119.0241717128965, 0.09, 1.01, 0.114, 192.0, 0.0, 0.0, 0.0, 0.0, 0.0, 0.0, 0.0, 0.0, 0.0, 1.695422538643273E9, 0.0, 2023-09-22 17:42:18.643
78.0, -105665.05559266277, 71245.49254721314, -4728.444484286843, 13099.485707221713, 64321.43620508149, 45650.64408190776, -187500.02235174447, 60889.45995443582, 84986.98741042464, 99361.05899346579, 33335.302273667134, 12906.83602176142, 64948.73791321969, 44963.19382944034, -41613.24848094565, -4235.36500160277, 0.09, 1.01, 0.112, 192.0, 1.0, 104.0, 15.5, 72.0, 1.5, 64.0, 0.0, 0.0, 0.0, 1.695422538643283E9, 0.0, 2023-09-22 17:42:18.643
80.0, -105551.10639942961, 71341.69445534878, -4713.111187590503, 13090.187381528305, 64298.16803910352, 45650.44291620766, -187500.02235174447, 60892.56684691511, 85218.0150411147, 99487.65927406064, 33435.43808882691, 12897.425937345737, 64929.358950776936, 44947.726422277265, -41451.39949934477, -4090.346883576737, 0.09, 1.01, 0.112, 192.0, 0.0, 0.0, 0.0, 0.0, 0.0, 0.0, 0.0, 0.0, 0.0, 1.695422538643286E9, 0.0, 2023-09-22 17:42:18.643
82.0, -105700.84073553572, 71212.56842763048, -4713.133539334958, 13100.804460144576, 64316.98820793488, 45663.60809369184, -187500.02235174447, 60865.23066344627, 84990.96602093769, 99356.76745853036, 33328.26147416371, 12933.389894174326, 64963.95945119375, 44990.932344309374, -41604.95598375273, -4234.985021947029, 0.09, 1.01, 0.112, 192.0, 0.0, 0.0, 0.0, 0.0, 0.0, 0.0, 0.0, 0.0, 0.0, 1.69542253864329E9, 0.0, 2023-09-22 17:42:18.643
84.0, -105546.8595679831, 71338.76637682514, -4711.278344545168, 13115.69072195181, 64284.10879184113, 45652.67809065319, -187500.02235174447, 60899.11590804052, 85205.83334038655, 99463.72055574901, 33443.70823427537, 12897.001254201086, 64930.20831706624, 44947.68171878836, -41448.76199349904, -4100.7180930039995, 0.09, 1.01, 0.112, 192.0, 0.0, 0.0, 0.0, 0.0, 0.0, 0.0, 0.0, 0.0, 0.0, 1.695422538643293E9, 0.0, 2023-09-22 17:42:18.643
86.0, -105709.15558447309, 71204.58885485993, -4715.189899824846, 13097.384643242913, 64295.5752367467, 45660.83647737938, -187500.02235174447, 60853.071314462584, 85009.29445139105, 99372.19016220453, 33343.70652958233, 12914.592077087413, 64952.560061521544, 44988.65246637493, -41571.22720136967, -4209.906364668174, 0.09, 1.01, 0.112, 192.0, 0.0, 0.0, 0.0, 0.0, 0.0, 0.0, 0.0, 0.0, 0.0, 1.695422538643296E9, 0.0, 2023-09-22 17:42:18.643
88.0, -105527.30179158472, 71350.05400777508, -4725.2705365741895, 13132.141605870916, 64278.632614449576, 45651.26993075251, -187500.02235174447, 60921.13237632899, 85186.94611632182, 99438.59719498125, 33446.591609310104, 12884.283111606015, 64927.123776331406, 44957.67294855988, -41441.20710387315, -4100.092244159251, 0.08600000000000001, 1.012, 0.114, 192.0, 1.0, 88.0, 15.5, 80.0, 1.5, 72.0, 0.0, 0.0, 0.0, 1.695422538643299E9, 0.0, 2023-09-22 17:42:18.643
90.0, -105681.41706960405, 71219.25159922261, -4706.204498553812, 13087.706337893766, 64302.21370484993, 45667.07261408241, -187500.02235174447, 60862.97313725628, 85067.92307709731, 99401.89563058563, 33366.70647462684, 12894.810783244466, 64941.74181720518, 44975.219067957296, -41496.93000280023, -4139.498369633958, 0.08600000000000001, 1.012, 0.114, 192.0, 0.0, 0.0, 0.0, 0.0, 0.0, 0.0, 0.0, 0.0, 0.0, 1.695422538703664E9, 0.0, 2023-09-22 17:42:18.703
92.0, -105505.3523785296, 71354.3902461994, -4715.771045180684, 13149.46420782378, 64284.33230928568, 45665.910323370736, -187500.02235174447, 60931.39182703398, 85171.97044753676, 99417.54185170434, 33452.33600763512, 12896.576571056436, 64942.65823872784, 44977.52129763619, -41415.524949494, -4077.4052235371146, 0.08600000000000001, 1.012, 0.114, 192.0, 0.0, 0.0, 0.0, 0.0, 0.0, 0.0, 0.0, 0.0, 0.0, 1.695422538703676E9, 0.0, 2023-09-22 17:42:18.703
94.0, -105702.20419194749, 71197.52570361206, -4679.7176813742735, 13083.057175047063, 64316.40706257905, 45680.729529944605, -187500.02235174447, 60838.96736371129, 85079.54598421407, 99408.69056090005, 33386.487768469786, 12911.529888097035, 64960.22670986971, 44998.80015835764, -41463.26827565054, -4113.011552454419, 0.08600000000000001, 1.012, 0.114, 192.0, 0.0, 0.0, 0.0, 0.0, 0.0, 0.0, 0.0, 0.0, 0.0, 1.695422538703679E9, 0.0, 2023-09-22 17:42:18.703
96.0, -105527.88293694056, 71333.75958606716, -4715.569879480587, 13161.98118471875, 64283.90762614103, 45668.41371874973, -187500.02235174447, 60941.07013238313, 85134.8441999965, 99380.50501114191, 33454.59353382511, 12902.298617636994, 64958.12564589091, 44977.029559258175, -41431.19352235717, -4104.093206416751, 0.08600000000000001, 1.012, 0.114, 192.0, 0.0, 0.0, 0.0, 0.0, 0.0, 0.0, 0.0, 0.0, 0.0, 1.695422538703683E9, 0.0, 2023-09-22 17:42:18.703
98.0, -105683.2499126494, 71211.11556424088, -4692.212306524791, 13080.889055834898, 64293.027137878795, 45662.42345123571, -187500.02235174447, 60846.45519810382, 85116.42636256533, 99416.98305809297, 33404.726791945315, 12894.006120444075, 64958.10329414646, 44981.790480827156, -41427.796057199965, -4091.9115056886085, 0.08600000000000001, 1.004, 0.11, 192.0, 1.0, 88.0, 15.5, 48.0, 1.5, 56.0, 0.0, 0.0, 0.0, 1.695422538703686E9, 0.0, 2023-09-22 17:42:18.703
100.0, -105530.31927708618, 71326.71878656374, -4716.5757079810755, 13158.136684672438, 64271.54711145724, 45660.590608190374, -187500.02235174447, 60929.60368747755, 85127.13284815942, 99362.4000981331, 33452.0454349572, 12885.534809295514, 64945.60866899594, 44978.52712613668, -41401.8233301429, -4083.2390288399497, 0.08600000000000001, 1.004, 0.11, 192.0, 0.0, 0.0, 0.0, 0.0, 0.0, 0.0, 0.0, 0.0, 0.0, 1.695422538703689E9, 0.0, 2023-09-22 17:42:18.703
102.0, -105699.52198261286, 71200.58789260243, -4674.152097004902, 13071.903654563863, 64294.703518712944, 45672.347625773866, -187500.02235174447, 60824.95281993781, 85142.4437931113, 99421.1181308172, 33422.071745642636, 12884.707794750668, 64967.155750650854, 44990.66412337591, -41384.165452023204, -4056.171066304573, 0.08600000000000001, 1.004, 0.11, 192.0, 0.0, 0.0, 0.0, 0.0, 0.0, 0.0, 0.0, 0.0, 0.0, 1.695422538703692E9, 0.0, 2023-09-22 17:42:18.703
104.0, -105533.51557654329, 71319.94620799378, -4725.2705365741895, 13167.993803977228, 64259.18659677346, 45660.03181457899, -187500.02235174447, 60945.7863504632, 85085.91623138383, 99329.85595820617, 33459.399158882996, 12877.398774313782, 64958.773846480115, 44967.865344031496, -41401.510405720524, -4090.19042136555, 0.08600000000000001, 1.004, 0.11, 192.0, 0.0, 0.0, 0.0, 0.0, 0.0, 0.0, 0.0, 0.0, 0.0, 1.695422538703695E9, 0.0, 2023-09-22 17:42:18.703
106.0, -105649.8340546887, 71228.4158144493, -4686.087928544036, 13076.843390088487, 64275.548073714745, 45663.809259391935, -187500.02235174447, 60842.94597422433, 85172.48453765924, 99434.19390132355, 33452.78304252423, 12876.996442913585, 64952.67182024382, 44980.67289360439, -41316.88670121273, -4004.7620540573666, 0.08600000000000001, 1.004, 0.11, 192.0, 0.0, 0.0, 0.0, 0.0, 0.0, 0.0, 0.0, 0.0, 0.0, 1.69542253876287E9, 0.0, 2023-09-22 17:42:18.762
108.0, -105541.1151696581, 71296.2757106156, -4723.102417362024, 13158.851940495008, 64262.539358441754, 45652.43222146419, -187500.02235174447, 60931.995324134274, 85059.04943454855, 99322.09990288019, 33455.93463849242, 12876.191780113195, 64943.93228816179, 44970.92753302187, -41355.95755052061, -4057.0427843383295, 0.098, 1.002, 0.116, 192.0, 1.5, 8.0, 15.5, 40.0, 1.5, 80.0, 0.0, 0.0, 0.0, 1.695422538762885E9, 0.0, 2023-09-22 17:42:18.762
110.0, -105637.6300022161, 71225.82301209247, -4696.414434482388, 13068.707355106755, 64262.896986353044, 45658.1766197892, -187500.02235174447, 60834.63112528696, 85176.19492723882, 99436.33966879126, 33464.54006010772, 12874.02366090103, 64940.42306428231, 44968.37943415397, -41271.71382566856, -3973.447260075481, 0.098, 1.002, 0.116, 192.0, 0.0, 0.0, 0.0, 0.0, 0.0, 0.0, 0.0, 0.0, 0.0, 1.695422538762889E9, 0.0, 2023-09-22 17:42:18.762
112.0, -105584.61166436812, 71250.3652275044, -4735.239414601257, 13151.006478191195, 64257.6666781505, 45658.80246863395, -187500.02235174447, 60913.48807972528, 85014.23418691567, 99286.27005651833, 33424.865713699546, 12876.348242324382, 64951.3307155765, 44986.64080937395, -41371.42495768368, -4077.896961915131, 0.098, 1.002, 0.116, 192.0, 0.0, 0.0, 0.0, 0.0, 0.0, 0.0, 0.0, 0.0, 0.0, 1.695422538762892E9, 0.0, 2023-09-22 17:42:18.762
114.0, -105613.15484203755, 71230.29336098355, -4696.325027504567, 13072.261282475149, 64266.45091372143, 45660.21062853463, -187500.02235174447, 60843.0577329466, 85207.08503807605, 99431.60109896674, 33466.61877234206, 12845.949869865164, 64931.594125222466, 44972.64861734493, -41233.984081028, -3944.0100126278417, 0.098, 1.002, 0.116, 192.0, 0.0, 0.0, 0.0, 0.0, 0.0, 0.0, 0.0, 0.0, 0.0, 1.695422538762896E9, 0.0, 2023-09-22 17:42:18.762
116.0, -105587.96442603641, 71230.06984353898, -4735.686449490363, 13143.205719376294, 64260.25948050732, 45658.355433744844, -187500.02235174447, 60904.90500985444, 85014.97179448268, 99272.74725112287, 33403.385687277994, 12850.30846003395, 64951.06249464304, 44977.90127729193, -41342.591207336336, -4055.3664035041816, 0.098, 1.002, 0.116, 192.0, 0.0, 0.0, 0.0, 0.0, 0.0, 0.0, 0.0, 0.0, 0.0, 1.695422538762899E9, 0.0, 2023-09-22 17:42:18.762
118.0, -105580.70010908844, 71243.74911114563, -4703.2540682857125, 13071.367212696936, 64250.53647166926, 45650.398212718756, -187500.02235174447, 60844.57765156957, 85224.16177083991, 99420.08995057225, 33460.22617342784, 12822.748759120555, 64927.70492168724, 44957.60589332651, -41188.364170594716, -3910.5718029227023, 0.098, 0.998, 0.12, 192.0, 1.5, 8.0, 15.5, 24.0, 1.5, 96.0, 0.0, 0.0, 0.0, 1.695422538762903E9, 0.0, 2023-09-22 17:42:18.762
120.0, -105609.95854258044, 71198.84445653492, -4720.59902198303, 13133.370951815958, 64254.448026948936, 45678.069672354424, -187500.02235174447, 60881.90506480993, 85011.4178671143, 99264.81238184124, 33388.45472198185, 12845.547538464969, 64946.79331145207, 44982.63984711646, -41309.93530868713, -4033.1487695156065, 0.098, 0.998, 0.12, 192.0, 0.0, 0.0, 0.0, 0.0, 0.0, 0.0, 0.0, 0.0, 0.0, 1.695422538822715E9, 0.0, 2023-09-22 17:42:18.822
122.0, -105559.06362045571, 71242.72093090069, -4717.939164392849, 13080.039689545596, 64224.76491031229, 45646.754878372536, -187500.02235174447, 60835.815767743086, 85230.2637970762, 99403.8178806088, 33470.038589243726, 12818.501927674048, 64927.03436935358, 44959.08110846056, -41163.03964412685, -3898.4795091723813, 0.098, 0.998, 0.12, 192.0, 0.0, 0.0, 0.0, 0.0, 0.0, 0.0, 0.0, 0.0, 0.0, 1.695422538822745E9, 0.0, 2023-09-22 17:42:18.822
124.0, -105653.63385124611, 71146.67548497624, -4727.416304041899, 13111.578000972033, 64255.25268974933, 45673.3311025299, -187500.02235174447, 60843.52711958017, 84994.09526516144, 99244.51699787582, 33375.33424798659, 12827.934363834187, 64948.357933563944, 44982.52808839418, -41301.262831838474, -4031.137112514629, 0.098, 0.998, 0.12, 192.0, 0.0, 0.0, 0.0, 0.0, 0.0, 0.0, 0.0, 0.0, 0.0, 1.695422538822749E9, 0.0, 2023-09-22 17:42:18.822
126.0, -105569.03249848277, 71223.3643202024, -4727.997449397737, 13088.10866929396, 64225.10018647912, 45664.52451521451, -187500.02235174447, 60845.605831814515, 85200.7594943952, 99362.46715336647, 33461.65668507298, 12813.29397121596, 64926.94496237576, 44967.88769577595, -41170.14749886364, -3917.433788470482, 0.098, 0.998, 0.12, 192.0, 0.0, 0.0, 0.0, 0.0, 0.0, 0.0, 0.0, 0.0, 0.0, 1.695422538822753E9, 0.0, 2023-09-22 17:42:18.822
128.0, -105664.54150254029, 71130.20224931267, -4735.820559957095, 13097.004663587173, 64237.05836976271, 45662.3787477468, -187500.02235174447, 60839.77202651167, 84988.41792206978, 99238.03499198378, 33361.722035613304, 12814.322151460905, 64935.013942124126, 44965.205486441315, -41284.476671752534, -4026.13032175664, 0.1, 1.006, 0.12, 192.0, 1.5, 16.0, 15.5, 56.0, 1.5, 96.0, 0.0, 0.0, 0.0, 1.695422538822756E9, 0.0, 2023-09-22 17:42:18.822
130.0, -105539.19291963494, 71230.82980285047, -4720.129635349469, 13091.506134451169, 64220.89805852152, 45662.51285821353, -187500.02235174447, 60848.95859348281, 85204.5592909526, 99356.16396143008, 33465.92586826395, 12801.335787932372, 64919.54653496105, 44943.680756530855, -41123.38764946314, -3885.135517732563, 0.1, 1.006, 0.12, 192.0, 0.0, 0.0, 0.0, 0.0, 0.0, 0.0, 0.0, 0.0, 0.0, 1.69542253882276E9, 0.0, 2023-09-22 17:42:18.822
132.0, -105713.49182289743, 71082.83890281188, -4712.038303856648, 13089.11449779445, 64248.30129722373, 45678.31554154343, -187500.02235174447, 60815.02864539965, 84988.39557032533, 99239.33139316218, 33367.93582057188, 12832.024733069507, 64954.303497589055, 44982.88571630546, -41268.741043656, -4019.134225742129, 0.1, 1.006, 0.12, 192.0, 0.0, 0.0, 0.0, 0.0, 0.0, 0.0, 0.0, 0.0, 0.0, 1.695422538822764E9, 0.0, 2023-09-22 17:42:18.822
134.0, -105550.23468139586, 71214.49067765364, -4731.50667327722, 13116.830660919031, 64205.34124438063, 45658.1766197892, -187500.02235174447, 60864.58246285707, 85181.8052150971, 99327.95605992748, 33490.512787164786, 12809.315360702916, 64916.50669771513, 44948.151105421915, -41137.58100719226, -3905.810881353722, 0.1, 1.006, 0.12, 192.0, 0.0, 0.0, 0.0, 0.0, 0.0, 0.0, 0.0, 0.0, 0.0, 1.695422538822767E9, 0.0, 2023-09-22 17:42:18.822
136.0, -105699.61138959067, 71088.6280046258, -4719.995524882737, 13090.053271061573, 64227.84945104712, 45661.46232622413, -187500.02235174447, 60823.634067014944, 85021.9678904972, 99261.63843412859, 33396.07666684111, 12823.799291109955, 64939.28312531509, 44966.94892250883, -41232.7323833385, -3987.1488794265842, 0.1, 1.006, 0.12, 192.0, 0.0, 0.0, 0.0, 0.0, 0.0, 0.0, 0.0, 0.0, 0.0, 1.695422538882967E9, 0.0, 2023-09-22 17:42:18.882
138.0, -105515.67888446795, 71235.32250348598, -4724.22000458479, 13125.950172656796, 64212.784375284245, 45662.93754135818, -187500.02235174447, 60883.067355521605, 85184.55447966511, 99327.7995977163, 33497.03949654573, 12801.425194910193, 64921.33467451748, 44939.12100066197, -41100.00772476289, -3873.5796658491695, 0.10400000000000001, 1.01, 0.11800000000000001, 192.0, 1.5, 32.0, 15.5, 72.0, 1.5, 88.0, 0.0, 0.0, 0.0, 1.695422538882977E9, 0.0, 2023-09-22 17:42:18.882
140.0, -105692.77175578735, 71090.01381278202, -4721.984830139259, 13071.322509208025, 64229.838756303645, 45652.476924953095, -187500.02235174447, 60804.277456316646, 85047.60534138743, 99284.77248963983, 33405.71026870135, 12821.340599219871, 64943.59701199496, 44958.1646869379, -41187.313638605316, -3947.9215679075205, 0.10400000000000001, 1.01, 0.11800000000000001, 192.0, 0.0, 0.0, 0.0, 0.0, 0.0, 0.0, 0.0, 0.0, 0.0, 1.695422538882981E9, 0.0, 2023-09-22 17:42:18.882
142.0, -105517.7128932134, 71226.3594539594, -4736.513464035209, 13126.799538946098, 64208.582247326645, 45653.66156740923, -187500.02235174447, 60879.491076408754, 85149.350482148, 99303.41384451555, 33485.3048307067, 12799.502944887035, 64927.01201760913, 44952.39793686842, -41094.5986026047, -3875.233694938862, 0.10400000000000001, 1.01, 0.11800000000000001, 192.0, 0.0, 0.0, 0.0, 0.0, 0.0, 0.0, 0.0, 0.0, 0.0, 1.695422538882984E9, 0.0, 2023-09-22 17:42:18.882
144.0, -105706.54043037182, 71080.67078359971, -4707.076216587569, 13065.421648671825, 64238.779454085765, 45658.19897153365, -187500.02235174447, 60788.27360728665, 85070.09119630947, 99302.45271950397, 33412.86282692705, 12819.016017796519, 64947.84384344147, 44972.44745164483, -41145.24765554043, -3912.3375907346717, 0.10400000000000001, 1.01, 0.11800000000000001, 192.0, 0.0, 0.0, 0.0, 0.0, 0.0, 0.0, 0.0, 0.0, 0.0, 1.695422538882987E9, 0.0, 2023-09-22 17:42:18.882
146.0, -105538.23179462335, 71215.29534045403, -4739.0615629031145, 13151.632327035944, 64208.38108162655, 45661.81995413542, -187500.02235174447, 60885.86132357852, 85107.46331303875, 99273.14958252307, 33484.09783650611, 12812.332846204383, 64938.500814259154, 44962.85855327351, -41117.553844160306, -3902.8604510856217, 0.10400000000000001, 1.01, 0.11800000000000001, 192.0, 0.0, 0.0, 0.0, 0.0, 0.0, 0.0, 0.0, 0.0, 0.0, 1.69542253888299E9, 0.0, 2023-09-22 17:42:18.882
148.0, -105677.192589902, 71112.36555723734, -4716.083969603058, 13072.797724342076, 64215.779509041255, 45670.447727495164, -187500.02235174447, 60800.23179057024, 85114.01237416416, 99330.86178670666, 33448.625618055536, 12804.912067045221, 64934.94688689076, 44968.82646904307, -41095.582079360734, -3869.4669448693926, 0.106, 1.002, 0.122, 192.0, 1.5, 40.0, 15.5, 40.0, 1.5, 104.0, 0.0, 0.0, 0.0, 1.695422538882993E9, 0.0, 2023-09-22 17:42:18.882
150.0, -105532.46504455389, 71219.87744806736, -4739.150969880935, 13147.474902567257, 64200.535619322734, 45668.36901526082, -187500.02235174447, 60895.092594038564, 85094.67811521032, 99272.81430635623, 33486.668287118475, 12804.710901345123, 64930.051854855046, 44953.89550374693, -41084.56266934427, -3872.886761771055, 0.106, 1.002, 0.122, 192.0, 0.0, 0.0, 0.0, 0.0, 0.0, 0.0, 0.0, 0.0, 0.0, 1.695422538943251E9, 0.0, 2023-09-22 17:42:18.943
152.0, -105645.49781626438, 71137.24304881609, -4711.792434667639, 13060.079581747006, 64209.833945016144, 45655.74027964357, -187500.02235174447, 60807.51845926267, 85148.92579900335, 99357.5050660974, 33465.88116477503, 12804.554439133935, 64929.78363392159, 44966.50188761972, -41042.42963104601, -3821.8353774351335, 0.106, 1.002, 0.122, 192.0, 0.0, 0.0, 0.0, 0.0, 0.0, 0.0, 0.0, 0.0, 0.0, 1.695422538943267E9, 0.0, 2023-09-22 17:42:18.943
154.0, -105531.48156779786, 71214.69184335374, -4728.645649986941, 13142.17753913135, 64207.57641882616, 45672.77230891852, -187500.02235174447, 60892.924474826395, 85070.89585910986, 99262.934835307, 33475.91709803547, 12812.91399156022, 64942.702942216754, 44964.87021027449, -41068.55882031427, -3857.844037752633, 0.106, 1.002, 0.122, 192.0, 0.0, 0.0, 0.0, 0.0, 0.0, 0.0, 0.0, 0.0, 0.0, 1.695422538943271E9, 0.0, 2023-09-22 17:42:18.943
156.0, -105630.47744399041, 71143.23331633012, -4703.991675852737, 13055.899805533863, 64208.33637813764, 45657.79664013346, -187500.02235174447, 60796.879028901945, 85166.6507323564, 99369.39619414762, 33484.835444073135, 12813.24926772705, 64941.13832010488, 44961.27157941718, -41004.297555005265, -3789.492403208304, 0.106, 1.002, 0.122, 192.0, 0.0, 0.0, 0.0, 0.0, 0.0, 0.0, 0.0, 0.0, 0.0, 1.695422538943274E9, 0.0, 2023-09-22 17:42:18.943
158.0, -105528.62054450758, 71211.31672994098, -4733.160702366913, 13142.088132153527, 64207.66582580398, 45664.74803265906, -187500.02235174447, 60891.27044573671, 85049.59464664396, 99254.08354450269, 33479.51572889277, 12807.706035102134, 64938.14318634787, 44946.94411122133, -41051.750308483875, -3845.7293922578565, 0.10400000000000001, 1.01, 0.116, 192.0, 1.5, 32.0, 15.5, 72.0, 1.5, 80.0, 0.0, 0.0, 0.0, 1.695422538943278E9, 0.0, 2023-09-22 17:42:18.943
160.0, -105609.26563850233, 71160.15358688279, -4689.2842280011455, 13058.090276490484, 64223.22263994487, 45665.01625359253, -187500.02235174447, 60804.18804933883, 85195.104503048, 99388.37282519018, 33509.62352867407, 12806.20846822363, 64936.71267470273, 44963.77497479618, -40948.79817352274, -3741.1232282070196, 0.10400000000000001, 1.01, 0.116, 192.0, 0.0, 0.0, 0.0, 0.0, 0.0, 0.0, 0.0, 0.0, 0.0, 1.695422538943282E9, 0.0, 2023-09-22 17:42:18.943
162.0, -105564.22687342488, 71186.5509970845, -4726.186958096857, 13150.17946364635, 64216.070081719176, 45667.4302419937, -187500.02235174447, 60884.743736355755, 85013.69774504873, 99236.53742510527, 33478.420493414465, 12828.180233023195, 64953.07415164402, 44989.09950126404, -41070.52577382634, -3861.107392443108, 0.10400000000000001, 1.01, 0.116, 192.0, 0.0, 0.0, 0.0, 0.0, 0.0, 0.0, 0.0, 0.0, 0.0, 1.695422538943286E9, 0.0, 2023-09-22 17:42:18.943
164.0, -105567.87020777109, 71198.308014668, -4699.3201612615785, 13074.809381343053, 64205.005968213794, 45652.32046274191, -187500.02235174447, 60820.638933257935, 85229.615596487, 99402.34266547475, 33548.13558437057, 12805.560267634424, 64922.496965229155, 44969.42996614337, -40915.58348126215, -3702.9911521662657, 0.10400000000000001, 1.01, 0.116, 192.0, 0.0, 0.0, 0.0, 0.0, 0.0, 0.0, 0.0, 0.0, 0.0, 1.695422538943289E9, 0.0, 2023-09-22 17:42:18.943
166.0, -105585.75160333535, 71174.05637193398, -4714.6981614468295, 13142.490463553724, 64222.82030854468, 45676.21447756463, -187500.02235174447, 60875.378355428984, 85011.55197758102, 99246.1263234766, 33483.784912083735, 12840.272526773517, 64959.891433702884, 45001.30355373664, -41045.64828224758, -3829.457322294393, 0.10400000000000001, 1.01, 0.116, 192.0, 0.0, 0.0, 0.0, 0.0, 0.0, 0.0, 0.0, 0.0, 0.0, 1.695422539003639E9, 0.0, 2023-09-22 17:42:19.003
168.0, -105551.24050989635, 71216.41292767679, -4700.370693250978, 13086.186419270805, 64211.443270616925, 45655.74027964357, -187500.02235174447, 60829.40081708442, 85236.63404424596, 99400.95685731851, 33570.73319801488, 12821.653523642246, 64937.00324738065, 44987.020789029695, -40899.490225254325, -3690.20595433783, 0.106, 1.01, 0.114, 192.0, 1.5, 40.0, 15.5, 72.0, 1.5, 72.0, 0.0, 0.0, 0.0, 1.69542253900366E9, 0.0, 2023-09-22 17:42:19.003
170.0, -105612.9760280819, 71153.4927670351, -4708.752597421718, 13130.778149459142, 64249.53064316877, 45683.76936719053, -187500.02235174447, 60842.588346313045, 85017.40813462832, 99256.0281462703, 33492.189167998935, 12845.279317531506, 64960.67374475882, 45016.43568473288, -41026.35872678265, -3810.1007115960974, 0.106, 1.01, 0.114, 192.0, 0.0, 0.0, 0.0, 0.0, 0.0, 0.0, 0.0, 0.0, 0.0, 1.69542253900367E9, 0.0, 2023-09-22 17:42:19.003
172.0, -105547.4183615945, 71221.15149750131, -4707.903231132416, 13097.630512431922, 64239.762930841796, 45678.1814310767, -187500.02235174447, 60830.56310779609, 85237.43870704636, 99387.97049378998, 33580.769131275316, 12835.355142993349, 64947.597974252465, 45002.130568281485, -40895.42220776346, -3688.9989601372436, 0.106, 1.01, 0.114, 192.0, 0.0, 0.0, 0.0, 0.0, 0.0, 0.0, 0.0, 0.0, 0.0, 1.695422539003678E9, 0.0, 2023-09-22 17:42:19.003
174.0, -105600.57080990922, 71163.26047936207, -4736.60287101303, 13119.781091187131, 64258.27017525079, 45671.81118390694, -187500.02235174447, 60854.680640063365, 85032.1155824799, 99261.5266754063, 33493.53027266625, 12839.199643039661, 64954.169387122325, 45009.037257318174, -41010.645450430566, -3793.135737554519, 0.106, 1.01, 0.114, 192.0, 0.0, 0.0, 0.0, 0.0, 0.0, 0.0, 0.0, 0.0, 0.0, 1.695422539003685E9, 0.0, 2023-09-22 17:42:19.003
176.0, -105476.65273864899, 71264.69269570026, -4727.773931953184, 13080.419669201336, 64252.50342518133, 45651.716965641615, -187500.02235174447, 60845.89640449243, 85272.3297801411, 99403.72847363097, 33583.18311967649, 12819.284238729982, 64931.63882871137, 44984.67385586189, -40827.070573219135, -3624.0671424945767, 0.106, 1.01, 0.114, 192.0, 0.0, 0.0, 0.0, 0.0, 0.0, 0.0, 0.0, 0.0, 0.0, 1.695422539003694E9, 0.0, 2023-09-22 17:42:19.003
178.0, -105621.89437411957, 71139.32176105044, -4718.699123704329, 13072.261282475149, 64294.16707684602, 45672.70525368515, -187500.02235174447, 60814.335741321534, 85037.7705738271, 99270.35561446616, 33472.02789450024, 12856.298727547972, 64971.31317511955, 45006.77973112819, -40970.188792966466, -3759.3622516825503, 0.10200000000000001, 1.006, 0.11800000000000001, 192.0, 1.5, 24.0, 15.5, 56.0, 1.5, 88.0, 0.0, 0.0, 0.0, 1.695422539003702E9, 0.0, 2023-09-22 17:42:19.003
180.0, -105491.94133185642, 71251.28164902708, -4722.655382472919, 13071.16604699684, 64271.81533239071, 45659.74124190107, -187500.02235174447, 60833.04415143063, 85239.3162535806, 99368.32331041376, 33588.74870404586, 12839.82549188441, 64944.20050909526, 44970.8157742996, -40833.53022736672, -3639.4451426798278, 0.10200000000000001, 1.006, 0.11800000000000001, 192.0, 0.0, 0.0, 0.0, 0.0, 0.0, 0.0, 0.0, 0.0, 0.0, 1.695422539063823E9, 0.0, 2023-09-22 17:42:19.063
182.0, -105621.64850493056, 71144.46266227515, -4733.183054111369, 13068.506189406657, 64284.39936451905, 45667.81022164944, -187500.02235174447, 60803.852773171995, 85041.59272212896, 99273.75307962336, 33491.96565055438, 12865.731163708111, 64953.52118653312, 45011.60770793053, -40955.45899337042, -3749.818056800134, 0.10200000000000001, 1.006, 0.11800000000000001, 192.0, 0.0, 0.0, 0.0, 0.0, 0.0, 0.0, 0.0, 0.0, 0.0, 1.695422539063837E9, 0.0, 2023-09-22 17:42:19.063
184.0, -105480.2960729952, 71260.75878867612, -4717.916812648394, 13090.142678039394, 64269.64721317855, 45671.20768680664, -187500.02235174447, 60830.764273496185, 85215.75751492471, 99356.00749921889, 33591.85559652514, 12850.911957134243, 64940.110139859935, 44983.6680273614, -40809.70326777736, -3625.05061925061, 0.10200000000000001, 1.006, 0.11800000000000001, 192.0, 0.0, 0.0, 0.0, 0.0, 0.0, 0.0, 0.0, 0.0, 0.0, 1.695422539063841E9, 0.0, 2023-09-22 17:42:19.063
186.0, -105658.55123502627, 71119.65222592976, -4711.211289311801, 13066.271014961127, 64296.35754780264, 45678.94139038818, -187500.02235174447, 60770.50397044468, 85045.59368438646, 99281.24091401589, 33506.650746661515, 12886.004195929074, 64972.5872245535, 45022.29184178017, -40930.06741166919, -3733.724800792313, 0.10200000000000001, 1.006, 0.11800000000000001, 192.0, 0.0, 0.0, 0.0, 0.0, 0.0, 0.0, 0.0, 0.0, 0.0, 1.695422539063844E9, 0.0, 2023-09-22 17:42:19.063
188.0, -105464.00165128728, 71277.20967259523, -4737.720458235795, 13122.664466221866, 64262.36054448612, 45671.34179727337, -187500.02235174447, 60850.634974316956, 85186.09675003252, 99321.76462671335, 33598.94109951748, 12868.413373042747, 64942.03238988309, 44990.70882686482, -40827.85288427507, -3650.8668840964897, 0.106, 1.004, 0.124, 192.0, 1.5, 40.0, 15.5, 48.0, 1.5, 112.0, 0.0, 0.0, 0.0, 1.695422539063847E9, 0.0, 2023-09-22 17:42:19.063
190.0, -105624.9342113655, 71146.0943396204, -4721.1578155944135, 13060.370154424925, 64281.784210417776, 45677.37676827631, -187500.02235174447, 60769.58754892201, 85095.30396405506, 99311.63928647511, 33517.066659577686, 12871.967300411141, 64945.34044806248, 45001.48236769228, -40866.23082950483, -3673.7327186742687, 0.106, 1.004, 0.124, 192.0, 0.0, 0.0, 0.0, 0.0, 0.0, 0.0, 0.0, 0.0, 0.0, 1.69542253906385E9, 0.0, 2023-09-22 17:42:19.063
192.0, -105433.84914801708, 71295.76162049314, -4747.17524614039, 13129.191175602815, 64262.38289623057, 45679.32137004392, -187500.02235174447, 60860.201520943825, 85176.17257549436, 99314.61206848767, 33584.34541038817, 12864.770038696533, 64931.50471824464, 44990.64177163145, -40786.18923261038, -3618.568613358571, 0.106, 1.004, 0.124, 192.0, 0.0, 0.0, 0.0, 0.0, 0.0, 0.0, 0.0, 0.0, 0.0, 1.695422539063854E9, 0.0, 2023-09-22 17:42:19.063
194.0, -105592.09949876065, 71174.70457252319, -4718.453254515321, 13053.86579678843, 64280.510160983824, 45683.05411136796, -187500.02235174447, 60762.72556337423, 85137.01231920866, 99341.30005136729, 33521.38054625756, 12869.955643410165, 64937.69615145876, 45004.94688808285, -40788.91614543393, -3612.019552233166, 0.106, 1.004, 0.124, 192.0, 0.0, 0.0, 0.0, 0.0, 0.0, 0.0, 0.0, 0.0, 0.0, 1.695422539063857E9, 0.0, 2023-09-22 17:42:19.063
196.0, -105438.23008993031, 71289.36902157891, -4739.486246047765, 13129.168823858361, 64269.893082367555, 45682.070634611926, -187500.02235174447, 60850.12088419448, 85150.75864204868, 99297.80355665727, 33566.86634622412, 12864.814742185443, 64938.23259332569, 44989.09950126404, -40758.60717995252, -3597.0662351925657, 0.106, 1.004, 0.124, 192.0, 0.0, 0.0, 0.0, 0.0, 0.0, 0.0, 0.0, 0.0, 0.0, 1.695422539122758E9, 0.0, 2023-09-22 17:42:19.122
198.0, -105576.3638706641, 71185.81338951748, -4719.637896971452, 13051.25064268716, 64277.939710371465, 45677.66734095423, -187500.02235174447, 60765.631290153426, 85153.08322347203, 99344.40694384658, 33527.348462027134, 12868.771000954033, 64945.40750329584, 44996.14030076746, -40752.10282231603, -3586.963246698767, 0.10200000000000001, 1.004, 0.122, 192.0, 1.5, 24.0, 15.5, 48.0, 1.5, 104.0, 0.0, 0.0, 0.0, 1.695422539122771E9, 0.0, 2023-09-22 17:42:19.122
200.0, -105425.40018861297, 71295.87337921541, -4746.951728695837, 13126.285448823626, 64268.75314340033, 45669.48660248359, -187500.02235174447, 60850.634974316956, 85123.57892079103, 99278.40224247007, 33553.83527920667, 12853.437704257693, 64936.75737819164, 44971.53103012217, -40730.68985112785, -3584.9739414422443, 0.10200000000000001, 1.004, 0.122, 192.0, 0.0, 0.0, 0.0, 0.0, 0.0, 0.0, 0.0, 0.0, 0.0, 1.695422539122777E9, 0.0, 2023-09-22 17:42:19.122
202.0, -105553.65449829752, 71203.58302635944, -4709.98194336676, 13036.945526235764, 64282.34300402916, 45672.90641938525, -187500.02235174447, 60750.67797311282, 85178.92184006236, 99362.48950511092, 33531.79645917374, 12856.566948481435, 64944.26756432862, 44983.22099247229, -40675.97278070125, -3530.6815541603037, 0.10200000000000001, 1.004, 0.122, 192.0, 0.0, 0.0, 0.0, 0.0, 0.0, 0.0, 0.0, 0.0, 0.0, 1.695422539122781E9, 0.0, 2023-09-22 17:42:19.122
204.0, -105427.2330316583, 71292.61002452494, -4752.785533998673, 13120.87632666544, 64258.53839618426, 45663.76455590303, -187500.02235174447, 60842.47658759077, 85087.95024012927, 99254.86585555863, 33542.45824127892, 12855.53876823649, 64936.7797299361, 44965.697224819334, -40708.785141561646, -3577.9331419388227, 0.10200000000000001, 1.004, 0.122, 192.0, 0.0, 0.0, 0.0, 0.0, 0.0, 0.0, 0.0, 0.0, 0.0, 1.695422539122785E9, 0.0, 2023-09-22 17:42:19.122
206.0, -105519.43397753645, 71228.77344236057, -4708.88670788845, 13030.932906977285, 64274.788114403265, 45661.75289890205, -187500.02235174447, 60750.67797311282, 85213.20941605681, 99370.04439473682, 33552.31536058371, 12848.073285588418, 64928.21901180971, 44951.70503279031, -40611.4879979477, -3481.6865303142704, 0.10200000000000001, 1.004, 0.122, 192.0, 0.0, 0.0, 0.0, 0.0, 0.0, 0.0, 0.0, 0.0, 0.0, 1.695422539122789E9, 0.0, 2023-09-22 17:42:19.122
208.0, -105440.97935449831, 71276.60617549493, -4739.776818725684, 13115.534259740623, 64267.54614919975, 45666.20089604866, -187500.02235174447, 60833.24531713073, 85068.23600151969, 99238.81730303972, 33539.507811010815, 12852.6330414573, 64930.09655834396, 44965.47370737478, -40675.212821389774, -3559.0682696185436, 0.10400000000000001, 1.0, 0.12, 192.0, 1.5, 32.0, 15.5, 32.0, 1.5, 96.0, 0.0, 0.0, 0.0, 1.695422539122793E9, 0.0, 2023-09-22 17:42:19.122
210.0, -105506.58172447464, 71237.93765758726, -4710.339571278045, 13041.706447804743, 64270.42952423448, 45675.72273918662, -187500.02235174447, 60758.434028438816, 85218.17150332588, 99362.48950511092, 33562.373645588596, 12857.170445581729, 64942.05474162755, 44979.80117557063, -40577.80391905355, -3468.0743179409887, 0.10400000000000001, 1.0, 0.12, 192.0, 0.0, 0.0, 0.0, 0.0, 0.0, 0.0, 0.0, 0.0, 0.0, 1.695422539183034E9, 0.0, 2023-09-22 17:42:19.183
212.0, -105444.19800569989, 71274.54981500504, -4745.3200513506, 13121.546878999101, 64256.30322173873, 45663.31752101392, -187500.02235174447, 60830.69721826282, 85050.42166118881, 99229.0272389683, 33524.33097652566, 12857.170445581729, 64934.76807293512, 44977.118966236, -40662.6958444948, -3556.117839350443, 0.10400000000000001, 1.0, 0.12, 192.0, 0.0, 0.0, 0.0, 0.0, 0.0, 0.0, 0.0, 0.0, 0.0, 1.69542253918305E9, 0.0, 2023-09-22 17:42:19.183
214.0, -105443.4380463884, 71285.79274246606, -4711.233641056257, 13051.831788042999, 64249.552994913225, 45664.74803265906, -187500.02235174447, 60761.429162195825, 85257.17529740039, 99387.2552379674, 33578.22103240741, 12845.16755880923, 64918.31718901601, 44961.67391081738, -40498.58933670394, -3405.1094538103885, 0.10400000000000001, 1.0, 0.12, 192.0, 0.0, 0.0, 0.0, 0.0, 0.0, 0.0, 0.0, 0.0, 0.0, 1.695422539183053E9, 0.0, 2023-09-22 17:42:19.183
216.0, -105460.55948264117, 71257.98717236366, -4731.864301188505, 13121.099844109995, 64260.97473632989, 45679.50018399956, -187500.02235174447, 60810.93827616433, 85024.80656204303, 99228.26727965681, 33499.945223324925, 12868.480428276114, 64945.4298550403, 44986.19377448485, -40628.85530338947, -3535.733048407203, 0.10400000000000001, 1.0, 0.12, 192.0, 0.0, 0.0, 0.0, 0.0, 0.0, 0.0, 0.0, 0.0, 0.0, 1.695422539183057E9, 0.0, 2023-09-22 17:42:19.183
218.0, -105440.50996786475, 71285.9268529328, -4697.509669960698, 13065.600462627466, 64255.498558938336, 45669.978340861606, -187500.02235174447, 60759.77513310613, 85248.63693101847, 99375.87820003966, 33586.357067389145, 12847.983878610597, 64928.48723274317, 44972.67096908939, -40467.98979854462, -3387.0492442905006, 0.10200000000000001, 1.002, 0.12, 192.0, 1.5, 24.0, 15.5, 40.0, 1.5, 96.0, 0.0, 0.0, 0.0, 1.69542253918306E9, 0.0, 2023-09-22 17:42:19.183
220.0, -105503.60894246209, 71223.0066922911, -4716.665114958896, 13120.809271432076, 64259.20894851792, 45675.40981476424, -187500.02235174447, 60786.999557852694, 85015.88821600536, 99216.75613126233, 33512.2610345198, 12869.732125965611, 64951.174253365316, 44985.79144308465, -40615.46660846074, -3529.5192634486275, 0.10200000000000001, 1.002, 0.12, 192.0, 0.0, 0.0, 0.0, 0.0, 0.0, 0.0, 0.0, 0.0, 0.0, 1.695422539183063E9, 0.0, 2023-09-22 17:42:19.183
222.0, -105422.06977868913, 71299.22614088371, -4704.349303764022, 13077.625701144421, 64235.73961683984, 45672.817012407424, -187500.02235174447, 60762.01030755166, 85251.98969268677, 99356.87921725264, 33614.944948547476, 12850.241404800583, 64928.26371529862, 44958.18703868235, -40451.67302509225, -3379.7625755980703, 0.10200000000000001, 1.002, 0.12, 192.0, 0.0, 0.0, 0.0, 0.0, 0.0, 0.0, 0.0, 0.0, 0.0, 1.695422539183067E9, 0.0, 2023-09-22 17:42:19.183
224.0, -105524.93250667246, 71209.59564561793, -4720.040228371648, 13101.139736311405, 64255.990297316355, 45684.37286429082, -187500.02235174447, 60773.27558675714, 85013.85420725992, 99212.33048586018, 33512.529255453264, 12869.463905032148, 64955.644602256376, 44981.90223954943, -40601.58617515399, -3522.992554067678, 0.10200000000000001, 1.002, 0.12, 192.0, 0.0, 0.0, 0.0, 0.0, 0.0, 0.0, 0.0, 0.0, 0.0, 1.69542253918307E9, 0.0, 2023-09-22 17:42:19.183
226.0, -105397.10288013254, 71318.91802774883, -4713.3123532906, 13083.280692491615, 64229.50348013682, 45666.044433837465, -187500.02235174447, 60791.80518291059, 85253.33079735408, 99341.63532753412, 33617.56010264875, 12833.119968547819, 64919.68064542778, 44952.33088163506, -40427.51078933606, -3366.6644533472604, 0.10200000000000001, 1.002, 0.12, 192.0, 0.0, 0.0, 0.0, 0.0, 0.0, 0.0, 0.0, 0.0, 0.0, 1.69542253924326E9, 0.0, 2023-09-22 17:42:19.243
228.0, -105515.4106635345, 71213.68601485324, -4723.191824339846, 13085.180590770316, 64239.695875608435, 45672.16881181822, -187500.02235174447, 60778.57295019305, 85046.46540242022, 99230.14482619106, 33515.27852002127, 12850.107294333851, 64945.11693061792, 44982.10340524953, -40543.382232592376, -3473.7293092881814, 0.1, 1.006, 0.116, 192.0, 1.5, 16.0, 15.5, 56.0, 1.5, 80.0, 0.0, 0.0, 0.0, 1.695422539243276E9, 0.0, 2023-09-22 17:42:19.243
230.0, -105353.00288832223, 71344.42136817233, -4721.403684783421, 13096.73644265371, 64218.34995965361, 45665.10566057035, -187500.02235174447, 60807.40670054039, 85250.76034674172, 99332.09113265171, 33616.978957292915, 12823.374607965305, 64924.46391874122, 44959.43873637185, -40381.9802858806, -3332.7345052641044, 0.1, 1.006, 0.116, 192.0, 0.0, 0.0, 0.0, 0.0, 0.0, 0.0, 0.0, 0.0, 0.0, 1.69542253924328E9, 0.0, 2023-09-22 17:42:19.243
232.0, -105500.21147730488, 71220.30213121201, -4717.179205081368, 13069.959052796252, 64237.14777674053, 45674.98513161959, -187500.02235174447, 60754.65658362587, 85074.36037950045, 99256.36342243713, 33523.97334861438, 12844.20643379765, 64949.341410319976, 44992.22874548778, -40478.696284138714, -3417.4029132608075, 0.1, 1.006, 0.116, 192.0, 0.0, 0.0, 0.0, 0.0, 0.0, 0.0, 0.0, 0.0, 0.0, 1.695422539243283E9, 0.0, 2023-09-22 17:42:19.243
234.0, -105333.46746366829, 71352.6915136208, -4724.264708073701, 13101.11738456695, 64214.37134914057, 45665.08330882589, -187500.02235174447, 60807.4514040293, 85223.84884641753, 99320.57998425723, 33624.98088180791, 12830.303648746449, 64921.8264128955, 44969.541724865645, -40354.30882624493, -3316.261269600543, 0.1, 1.006, 0.116, 192.0, 0.0, 0.0, 0.0, 0.0, 0.0, 0.0, 0.0, 0.0, 0.0, 1.695422539243286E9, 0.0, 2023-09-22 17:42:19.243
236.0, -105515.47771876786, 71197.81627628997, -4708.55143172162, 13055.25160494466, 64236.52192789578, 45672.16881181822, -187500.02235174447, 60732.751874059664, 85078.20487954676, 99266.17583825301, 33548.09088088165, 12847.894471632777, 64945.02752364011, 44990.4182541869, -40438.95488249718, -3392.525421682051, 0.1, 1.006, 0.116, 192.0, 0.0, 0.0, 0.0, 0.0, 0.0, 0.0, 0.0, 0.0, 0.0, 1.695422539243289E9, 0.0, 2023-09-22 17:42:19.243
238.0, -105329.86883281099, 71342.47676640472, -4732.512501777709, 13114.103748095484, 64212.225581672865, 45663.809259391935, -187500.02235174447, 60813.21815409877, 85182.67693313086, 99287.32058850773, 33635.08387030171, 12829.700151646157, 64923.65925594083, 44967.015977742194, -40355.672282656706, -3326.2524993720654, 0.106, 1.002, 0.116, 192.0, 1.5, 40.0, 15.5, 40.0, 1.5, 80.0, 0.0, 0.0, 0.0, 1.695422539243292E9, 0.0, 2023-09-22 17:42:19.243
240.0, -105526.18420436195, 71188.0038604741, -4696.325027504567, 13045.997982740162, 64242.75806459881, 45685.73632070259, -187500.02235174447, 60725.86753676743, 85092.48764425369, 99280.32449249322, 33556.11515714111, 12846.35220126536, 64940.82539568251, 44996.386169956466, -40403.080332646416, -3357.5896450984055, 0.106, 1.002, 0.116, 192.0, 0.0, 0.0, 0.0, 0.0, 0.0, 0.0, 0.0, 0.0, 0.0, 1.695422539303524E9, 0.0, 2023-09-22 17:42:19.303
242.0, -105346.65499289692, 71327.88107727541, -4730.813769199106, 13128.922954669351, 64215.33247415215, 45684.574029990916, -187500.02235174447, 60825.93629669384, 85135.62651105244, 99257.3245474487, 33629.65239639907, 12840.049009328963, 64926.475575742195, 44983.42215817239, -40368.34572176287, -3338.7247727781264, 0.106, 1.002, 0.116, 192.0, 0.0, 0.0, 0.0, 0.0, 0.0, 0.0, 0.0, 0.0, 0.0, 1.695422539303537E9, 0.0, 2023-09-22 17:42:19.303
244.0, -105522.31735257118, 71190.99899423111, -4695.632123426452, 13049.574261853011, 64239.338247697146, 45690.76546320504, -187500.02235174447, 60724.16880418883, 85111.57603401852, 99291.61212344315, 33574.48829108337, 12845.301669275961, 64933.65048571235, 45004.835129360574, -40375.29711428846, -3333.673278531227, 0.106, 1.002, 0.116, 192.0, 0.0, 0.0, 0.0, 0.0, 0.0, 0.0, 0.0, 0.0, 0.0, 1.695422539303541E9, 0.0, 2023-09-22 17:42:19.303
246.0, -105340.82118759409, 71329.4904028762, -4737.496940791242, 13139.60708851899, 64211.26445666128, 45684.41756777973, -187500.02235174447, 60845.47172134778, 85111.55368227407, 99236.44801812746, 33621.96339630645, 12831.912974347231, 64923.01105535163, 44983.802137828134, -40361.975474593106, -3336.3107843769535, 0.106, 1.002, 0.116, 192.0, 0.0, 0.0, 0.0, 0.0, 0.0, 0.0, 0.0, 0.0, 0.0, 1.695422539303544E9, 0.0, 2023-09-22 17:42:19.303
248.0, -105499.22800054884, 71208.99214851763, -4691.206478024302, 13045.39448563987, 64236.90190755152, 45693.872355684325, -187500.02235174447, 60740.172653218826, 85146.69062455781, 99309.02413237383, 33588.63694532358, 12831.175366780206, 64930.543593233066, 44990.55236465363, -40320.35652641732, -3285.706434930138, 0.10200000000000001, 1.006, 0.122, 192.0, 1.5, 24.0, 15.5, 56.0, 1.5, 104.0, 0.0, 0.0, 0.0, 1.695422539303547E9, 0.0, 2023-09-22 17:42:19.303
250.0, -105351.39356272145, 71317.5769230815, -4731.640783743952, 13140.054123408096, 64215.913619507985, 45682.405910778754, -187500.02235174447, 60851.551395839626, 85078.33899001348, 99210.18471839247, 33613.17916073551, 12828.671971401212, 64933.8740031569, 44978.214201714305, -40358.265085013525, -3332.4662843306405, 0.10200000000000001, 1.006, 0.122, 192.0, 0.0, 0.0, 0.0, 0.0, 0.0, 0.0, 0.0, 0.0, 0.0, 1.695422539303551E9, 0.0, 2023-09-22 17:42:19.303
252.0, -105455.77620932773, 71238.98818957666, -4695.207440281802, 13036.051456457551, 64229.92816328147, 45675.4321665087, -187500.02235174447, 60745.760589332654, 85186.27556398817, 99318.16599585605, 33610.184026978495, 12814.366854949816, 64925.87207864191, 44958.790535782646, -40270.98152291555, -3238.7007163406274, 0.10200000000000001, 1.006, 0.122, 192.0, 0.0, 0.0, 0.0, 0.0, 0.0, 0.0, 0.0, 0.0, 0.0, 1.695422539303554E9, 0.0, 2023-09-22 17:42:19.303
254.0, -105375.33228103309, 71288.6761175008, -4722.498920261732, 13124.720826711755, 64225.793090557236, 45689.29024807099, -187500.02235174447, 60818.56022102359, 85053.39444320137, 99191.63277049456, 33598.382305906096, 12824.849823099354, 64939.841918926475, 44977.05191100263, -40346.08338428538, -3322.452702814663, 0.10200000000000001, 1.006, 0.122, 192.0, 0.0, 0.0, 0.0, 0.0, 0.0, 0.0, 0.0, 0.0, 0.0, 1.695422539303557E9, 0.0, 2023-09-22 17:42:19.303
0.0, -105430.11640669304, 71258.5236142306, -4702.538812463143, 13049.306040919548, 64218.148793953515, 45682.51766950103, -187500.02235174447, 60732.93068801531, 85196.1550350374, 99322.09990288019, 33630.47941094392, 12820.938267819676, 64934.075168857, 44977.32013193609, -40249.65795870518, -3220.0146579759908, 0.10200000000000001, 1.006, 0.122, 192.0, 0.0, 0.0, 0.0, 0.0, 0.0, 0.0, 0.0, 0.0, 0.0, 1.695422539363891E9, 0.0, 2023-09-22 17:42:19.363
2.0, -105378.05919385662, 71283.1775883648, -4729.897347676439, 13121.971562143752, 64221.94859051092, 45688.88791667079, -187500.02235174447, 60804.56802899457, 85030.3721464124, 99192.32567457267, 33595.83420703819, 12825.833299855389, 64935.639790968875, 44981.008169771216, -40323.77634331898, -3294.22244956761, 0.10400000000000001, 1.002, 0.126, 192.0, 1.5, 32.0, 15.5, 40.0, 1.5, 120.0, 0.0, 0.0, 0.0, 1.695422539363902E9, 0.0, 2023-09-22 17:42:19.363
4.0, -105408.14464189346, 71269.81124518052, -4703.611696196997, 13045.819168784521, 64211.152697939004, 45667.92198037171, -187500.02235174447, 60727.655676323855, 85198.50196820522, 99330.7500279844, 33641.722338404936, 12808.644808369258, 64925.00036060815, 44967.574771353575, -40207.79314134039, -3173.9253609091475, 0.10400000000000001, 1.002, 0.126, 192.0, 0.0, 0.0, 0.0, 0.0, 0.0, 0.0, 0.0, 0.0, 0.0, 1.695422539363905E9, 0.0, 2023-09-22 17:42:19.363
6.0, -105394.35361556454, 71267.08433235697, -4736.066429146103, 13118.21646907526, 64207.64347405952, 45672.57114321842, -187500.02235174447, 60794.08506084503, 84998.8114832415, 99175.87479065357, 33588.45813136794, 12822.547593420459, 64933.51637524562, 44977.118966236, -40328.17963697668, -3291.1155570883225, 0.10400000000000001, 1.002, 0.126, 192.0, 0.0, 0.0, 0.0, 0.0, 0.0, 0.0, 0.0, 0.0, 0.0, 1.695422539363908E9, 0.0, 2023-09-22 17:42:19.363
8.0, -105383.06598461462, 71285.99390816616, -4712.328876534567, 13051.027125242606, 64194.90297972, 45667.89962862726, -187500.02235174447, 60748.93453704531, 85220.65254696042, 99330.32534483974, 33654.70870193347, 12796.731328574579, 64923.122814073904, 44952.80026826862, -40174.64550431317, -3136.597947668785, 0.10400000000000001, 1.002, 0.126, 192.0, 0.0, 0.0, 0.0, 0.0, 0.0, 0.0, 0.0, 0.0, 0.0, 1.695422539363912E9, 0.0, 2023-09-22 17:42:19.363
10.0, -105425.40018861297, 71238.78702387656, -4733.585385511564, 13105.386567757914, 64202.54727632371, 45675.767442675526, -187500.02235174447, 60788.25125554219, 84989.69197150374, 99166.73292717135, 33571.44845383745, 12814.322151460905, 64940.467767771224, 44966.97127425329, -40317.20493044912, -3270.2166760226105, 0.10400000000000001, 1.002, 0.126, 192.0, 0.0, 0.0, 0.0, 0.0, 0.0, 0.0, 0.0, 0.0, 0.0, 1.695422539363915E9, 0.0, 2023-09-22 17:42:19.363
12.0, -105341.29057422765, 71315.38645212489, -4728.064504631103, 13062.582977126, 64178.6979649899, 45658.84717212286, -187500.02235174447, 60770.660432655866, 85222.26187256121, 99317.40603654458, 33659.11199559116, 12787.030671480976, 64910.44937496774, 44937.98106169475, -40152.96431219153, -3114.3132584468435, 0.1, 1.002, 0.13, 192.0, 1.5, 16.0, 15.5, 40.0, 2.0, 8.0, 0.0, 0.0, 0.0, 1.695422539363918E9, 0.0, 2023-09-22 17:42:19.363
14.0, -105408.36815933802, 71244.84434662394, -4733.563033767108, 13093.36132924096, 64203.217828657376, 45678.5837624769, -187500.02235174447, 60787.848924141996, 84998.0068204411, 99182.69207271244, 33564.63117177858, 12798.430061153182, 64929.51541298812, 44955.12484969197, -40264.41011004569, -3217.332448641354, 0.1, 1.002, 0.13, 192.0, 0.0, 0.0, 0.0, 0.0, 0.0, 0.0, 0.0, 0.0, 0.0, 1.695422539423509E9, 0.0, 2023-09-22 17:42:19.423
16.0, -105307.65119882241, 71331.591466855, -4712.194766067835, 13067.857988817454, 64195.66293903148, 45679.187259577186, -187500.02235174447, 60778.86352287097, 85219.49025624876, 99324.91622268155, 33670.48903351892, 12783.320281901393, 64909.644712167355, 44938.98689019524, -40092.07816029527, -3059.149153131146, 0.1, 1.002, 0.13, 192.0, 0.0, 0.0, 0.0, 0.0, 0.0, 0.0, 0.0, 0.0, 0.0, 1.695422539423521E9, 0.0, 2023-09-22 17:42:19.423
18.0, -105417.55472630916, 71233.44495695173, -4721.984830139259, 13090.567361184045, 64207.66582580398, 45688.37382654832, -187500.02235174447, 60767.017098309654, 84990.09430290393, 99195.74549147434, 33584.21129992143, 12812.377549693294, 64941.20537533824, 44976.02373075768, -40233.16237129717, -3187.2246488600554, 0.1, 1.002, 0.13, 192.0, 0.0, 0.0, 0.0, 0.0, 0.0, 0.0, 0.0, 0.0, 0.0, 1.695422539423525E9, 0.0, 2023-09-22 17:42:19.423
20.0, -105285.85824797848, 71345.56130713956, -4714.005257368714, 13087.572227427034, 64187.124572649554, 45678.31554154343, -187500.02235174447, 60787.46894448626, 85205.7662851532, 99310.23112657442, 33693.310164607785, 12793.982064006575, 64917.35606400443, 44954.38724212495, -40081.10345376771, -3045.067554124302, 0.1, 1.002, 0.13, 192.0, 0.0, 0.0, 0.0, 0.0, 0.0, 0.0, 0.0, 0.0, 0.0, 1.695422539423528E9, 0.0, 2023-09-22 17:42:19.423
22.0, -105440.8899475205, 71213.7530700866, -4710.048998600126, 13073.535331909101, 64204.13425018004, 45684.10464335736, -187500.02235174447, 60749.24746146768, 84997.559785552, 99200.14878513203, 33588.4804831124, 12813.450433427148, 64953.14120687738, 44974.19088771235, -40214.96805131055, -3161.944825881103, 0.098, 1.0, 0.122, 192.0, 1.5, 8.0, 15.5, 32.0, 1.5, 104.0, 0.0, 0.0, 0.0, 1.695422539423532E9, 0.0, 2023-09-22 17:42:19.423
24.0, -105261.33838431102, 71356.82658634504, -4715.212251569302, 13092.377852484924, 64165.42102878345, 45654.42152672071, -187500.02235174447, 60785.83726714102, 85191.12589253497, 99284.63837917309, 33695.92531870906, 12782.113287700808, 64919.7253489167, 44939.29981461762, -40075.85079382072, -3032.5729289737856, 0.098, 1.0, 0.122, 192.0, 0.0, 0.0, 0.0, 0.0, 0.0, 0.0, 0.0, 0.0, 0.0, 1.695422539423535E9, 0.0, 2023-09-22 17:42:19.423
26.0, -105427.4341973584, 71220.056262023, -4695.766233893184, 13069.06498301804, 64197.29461637672, 45669.71011992814, -187500.02235174447, 60723.72176929972, 85026.75116381064, 99217.0690556847, 33606.78656182129, 12810.00826478103, 64945.631020740395, 44972.559210367115, -40173.93024849061, -3108.56886012183, 0.098, 1.0, 0.122, 192.0, 0.0, 0.0, 0.0, 0.0, 0.0, 0.0, 0.0, 0.0, 0.0, 1.695422539423538E9, 0.0, 2023-09-22 17:42:19.423
28.0, -105277.20812287428, 71344.10844374997, -4699.275457772667, 13119.781091187131, 64181.49193304681, 45678.89668689927, -187500.02235174447, 60776.8965693589, 85162.71682533227, 99265.5276376638, 33703.726077523956, 12805.20263972314, 64937.00324738065, 44964.512582363204, -40073.660322864096, -3022.7158096689955, 0.098, 1.0, 0.122, 192.0, 0.0, 0.0, 0.0, 0.0, 0.0, 0.0, 0.0, 0.0, 0.0, 1.695422539423541E9, 0.0, 2023-09-22 17:42:19.423
30.0, -105432.91037474995, 71220.99503529014, -4703.209364796801, 13081.44784944628, 64181.0001946688, 45673.95695137465, -187500.02235174447, 60724.12410069992, 85049.23701873267, 99233.11760820361, 33635.2403325129, 12822.860517842832, 64940.31130556003, 44991.24526873175, -40157.14408840467, -3086.015949966425, 0.098, 1.0, 0.122, 192.0, 0.0, 0.0, 0.0, 0.0, 0.0, 0.0, 0.0, 0.0, 0.0, 1.695422539483757E9, 0.0, 2023-09-22 17:42:19.483
32.0, -105231.87878511893, 71373.92567085334, -4720.531966749664, 13144.189196132327, 64157.8437874131, 45670.51478272853, -187500.02235174447, 60812.61465699848, 85160.45929914228, 99258.39743118256, 33720.89221726563, 12800.24055245406, 64916.819622137504, 44960.7127858058, -40053.74491855442, -2994.619666888674, 0.096, 0.998, 0.124, 192.0, 1.5, 0.0, 15.5, 24.0, 1.5, 112.0, 0.0, 0.0, 0.0, 1.69542253948377E9, 0.0, 2023-09-22 17:42:19.483
34.0, -105403.16020287994, 71236.37303547538, -4691.742919891229, 13070.786067341098, 64182.296595847205, 45680.90834390025, -187500.02235174447, 60706.82385049151, 85088.03964710709, 99265.54998940826, 33643.64458842809, 12810.656465370235, 64940.870099171414, 44982.93041979437, -40088.99361956044, -3007.5836786727523, 0.096, 0.998, 0.124, 192.0, 0.0, 0.0, 0.0, 0.0, 0.0, 0.0, 0.0, 0.0, 0.0, 1.695422539483774E9, 0.0, 2023-09-22 17:42:19.483
36.0, -105271.32961408254, 71333.40195815587, -4705.936277620349, 13138.64596350741, 64177.51332253377, 45688.55264050396, -187500.02235174447, 60782.88683687292, 85105.29519382659, 99226.30032614474, 33690.22562387295, 12805.6720263567, 64939.819567182014, 44969.675835332375, -40068.74293908393, -2996.2289924894562, 0.096, 0.998, 0.124, 192.0, 0.0, 0.0, 0.0, 0.0, 0.0, 0.0, 0.0, 0.0, 0.0, 1.695422539483778E9, 0.0, 2023-09-22 17:42:19.483
38.0, -105423.16501416743, 71215.45180266522, -4692.078196058059, 13067.008622528152, 64182.14013363602, 45677.868506654326, -187500.02235174447, 60703.09110916747, 85091.81709192003, 99257.57041663771, 33646.03622508481, 12801.402843165737, 64944.46873002872, 44974.86144004601, -40094.98388707446, -3003.627419904163, 0.096, 0.998, 0.124, 192.0, 0.0, 0.0, 0.0, 0.0, 0.0, 0.0, 0.0, 0.0, 0.0, 1.695422539483782E9, 0.0, 2023-09-22 17:42:19.483
40.0, -105254.25288131868, 71340.50981289266, -4723.705914462318, 13148.570138045567, 64161.4424182704, 45673.75578567455, -187500.02235174447, 60807.429052284846, 85081.26706853713, 99201.914572944, 33684.302411592296, 12777.62058706529, 64932.13056708939, 44961.718614306286, -40073.2579914639, -2984.8072510727943, 0.096, 0.998, 0.124, 192.0, 0.0, 0.0, 0.0, 0.0, 0.0, 0.0, 0.0, 0.0, 0.0, 1.695422539483786E9, 0.0, 2023-09-22 17:42:19.483
42.0, -105382.19426658086, 71244.82199487949, -4687.764309378184, 13057.240910201182, 64174.6970027324, 45670.64889319526, -187500.02235174447, 60702.95699870074, 85134.68773778531, 99283.1855157835, 33664.27524856034, 12774.29017714145, 64940.400712537856, 44966.94892250883, -40029.11329616467, -2920.7695032083398, 0.094, 1.006, 0.12, 192.0, 1.0, 120.0, 15.5, 56.0, 1.5, 96.0, 0.0, 0.0, 0.0, 1.695422539483789E9, 0.0, 2023-09-22 17:42:19.483
44.0, -105289.18865790233, 71304.52350431962, -4710.6524957004185, 13142.69162925382, 64172.81945619816, 45679.56723923293, -187500.02235174447, 60786.84309564151, 85043.31380645202, 99175.27129355328, 33671.40545504158, 12780.258092911017, 64945.89924167386, 44974.503812134724, -40078.823575833274, -2970.6809485770405, 0.094, 1.006, 0.12, 192.0, 0.0, 0.0, 0.0, 0.0, 0.0, 0.0, 0.0, 0.0, 0.0, 1.695422539543149E9, 0.0, 2023-09-22 17:42:19.543
46.0, -105387.78220269468, 71237.04358780904, -4685.506783188198, 13062.784142826098, 64172.97591840934, 45663.47398322511, -187500.02235174447, 60702.08528066699, 85144.96954023476, 99274.11070753464, 33681.93312668004, 12776.078316697874, 64945.54161376257, 44973.453280145324, -40026.72165950795, -2903.5586599777535, 0.094, 1.006, 0.12, 192.0, 0.0, 0.0, 0.0, 0.0, 0.0, 0.0, 0.0, 0.0, 0.0, 1.695422539543163E9, 0.0, 2023-09-22 17:42:19.543
48.0, -105294.19544866032, 71301.21544614022, -4718.453254515321, 13151.74408575822, 64159.83309266962, 45665.66445418173, -187500.02235174447, 60791.916941632866, 85021.65496607483, 99156.2052555329, 33674.66880973206, 12774.692508541646, 64944.33461956199, 44974.503812134724, -40088.03249454886, -2961.337919394722, 0.094, 1.006, 0.12, 192.0, 0.0, 0.0, 0.0, 0.0, 0.0, 0.0, 0.0, 0.0, 0.0, 1.695422539543167E9, 0.0, 2023-09-22 17:42:19.543
50.0, -105357.89792035794, 71264.80445442253, -4685.9985215662155, 13070.20492198526, 64153.99928736679, 45661.7305471576, -187500.02235174447, 60703.895771967866, 85174.8538225715, 99288.14760305258, 33699.76981875537, 12770.043345694941, 64943.14997710586, 44970.65931208841, -39989.126025334124, -2853.1778279754913, 0.094, 1.006, 0.12, 192.0, 0.0, 0.0, 0.0, 0.0, 0.0, 0.0, 0.0, 0.0, 0.0, 1.69542253954317E9, 0.0, 2023-09-22 17:42:19.543
52.0, -105295.91653298338, 71299.7849344951, -4720.263745816201, 13155.02979219315, 64143.11398781705, 45665.93267511519, -187500.02235174447, 60779.4446682268, 85006.70164903422, 99150.1479327855, 33664.38700728262, 12778.604063821324, 64947.57562250801, 44980.7175970933, -40083.27157297988, -2941.7130877629625, 0.096, 1.006, 0.11800000000000001, 192.0, 1.5, 0.0, 15.5, 56.0, 1.5, 88.0, 0.0, 0.0, 0.0, 1.695422539543174E9, 0.0, 2023-09-22 17:42:19.543
54.0, -105324.10208274152, 71286.41859131081, -4694.827460626061, 13068.841465573487, 64134.59797317958, 45657.46136396663, -187500.02235174447, 60685.656748492336, 85201.51945370669, 99299.8375654027, 33710.96804272748, 12761.169703146184, 64919.3230175165, 44966.412480641906, -39941.04742301076, -2797.477280792866, 0.096, 1.006, 0.11800000000000001, 192.0, 0.0, 0.0, 0.0, 0.0, 0.0, 0.0, 0.0, 0.0, 0.0, 1.695422539543177E9, 0.0, 2023-09-22 17:42:19.543
56.0, -105335.1661962469, 71261.98813462116, -4728.2656703312, 13133.750931471699, 64137.95073484787, 45660.63531167928, -187500.02235174447, 60744.75476083217, 84968.03313112655, 99128.31027845267, 33643.46577447245, 12774.983081219565, 64948.71556147523, 44973.34152142305, -40097.2637650089, -2937.1756836385352, 0.096, 1.006, 0.11800000000000001, 192.0, 0.0, 0.0, 0.0, 0.0, 0.0, 0.0, 0.0, 0.0, 0.0, 1.695422539543181E9, 0.0, 2023-09-22 17:42:19.543
58.0, -105315.54136461513, 71290.86658845741, -4696.369730993478, 13066.226311472215, 64139.090673815095, 45658.422488978205, -187500.02235174447, 60696.78791723108, 85204.46988397479, 99283.45373671695, 33729.43058364756, 12753.100723397818, 64926.22970655319, 44950.118058933986, -39947.395318436065, -2781.4287282739556, 0.096, 1.006, 0.11800000000000001, 192.0, 0.0, 0.0, 0.0, 0.0, 0.0, 0.0, 0.0, 0.0, 0.0, 1.695422539543184E9, 0.0, 2023-09-22 17:42:19.543
60.0, -105358.47906571378, 71243.92792510128, -4720.308449305111, 13124.989047645218, 64151.71940943234, 45675.074538597415, -187500.02235174447, 60742.58664162, 84971.36354105039, 99122.02943826074, 33645.47743147343, 12774.424287608183, 64951.576584765506, 44973.05094874513, -40106.1150558132, -2923.6752299875297, 0.096, 1.006, 0.11800000000000001, 192.0, 0.0, 0.0, 0.0, 0.0, 0.0, 0.0, 0.0, 0.0, 0.0, 1.695422539602924E9, 0.0, 2023-09-22 17:42:19.602
62.0, -105295.53655332763, 71301.95305370726, -4693.061672814092, 13082.073698291028, 64148.21018555286, 45671.632369951294, -187500.02235174447, 60712.00945520514, 85221.68072720537, 99275.74238487988, 33741.612284375704, 12746.57401401687, 64921.46878498421, 44952.08501244605, -39936.46531539742, -2752.617329671065, 0.096, 1.008, 0.112, 192.0, 1.5, 0.0, 15.5, 64.0, 1.5, 64.0, 0.0, 0.0, 0.0, 1.695422539602947E9, 0.0, 2023-09-22 17:42:19.602
64.0, -105405.68595000339, 71203.18069495926, -4708.752597421718, 13116.316570796558, 64169.42199104095, 45681.08715785589, -187500.02235174447, 60721.374836131916, 84962.73576769064, 99118.07317949214, 33641.23060002692, 12776.413592864705, 64959.93613719179, 44991.53584140967, -40113.468779739, -2906.8443664126835, 0.096, 1.008, 0.112, 192.0, 0.0, 0.0, 0.0, 0.0, 0.0, 0.0, 0.0, 0.0, 0.0, 1.695422539602952E9, 0.0, 2023-09-22 17:42:19.602
66.0, -105280.04679442011, 71314.3806236244, -4708.573783466075, 13103.73253866822, 64174.65229924349, 45663.60809369184, -187500.02235174447, 60736.37285666142, 85188.86836634498, 99254.03884101378, 33741.92520879808, 12744.160025615696, 64921.96052336223, 44957.3600241375, -39962.14746977657, -2755.9477395949057, 0.096, 1.008, 0.112, 192.0, 0.0, 0.0, 0.0, 0.0, 0.0, 0.0, 0.0, 0.0, 0.0, 1.695422539602958E9, 0.0, 2023-09-22 17:42:19.602
68.0, -105398.55574352214, 71210.22149446268, -4710.406626511411, 13110.952152127285, 64207.79993627071, 45672.0794048404, -187500.02235174447, 60719.16201343084, 84981.04184639953, 99138.34621171311, 33641.54352444929, 12756.498188555026, 64946.838014940986, 44971.24045744425, -40091.273497494876, -2861.0009385348485, 0.096, 1.008, 0.112, 192.0, 0.0, 0.0, 0.0, 0.0, 0.0, 0.0, 0.0, 0.0, 0.0, 1.695422539602963E9, 0.0, 2023-09-22 17:42:19.602
70.0, -105260.98075639973, 71325.64590282989, -4706.807995654106, 13113.88023065093, 64181.96131968038, 45668.68193968319, -187500.02235174447, 60745.64883061038, 85183.39218895342, 99243.91350077552, 33742.26048496491, 12733.47589176606, 64923.59220070746, 44957.024747970674, -39947.79764983626, -2724.8341113131182, 0.096, 1.008, 0.112, 192.0, 0.0, 0.0, 0.0, 0.0, 0.0, 0.0, 0.0, 0.0, 0.0, 1.695422539602972E9, 0.0, 2023-09-22 17:42:19.602
72.0, -105391.35848180753, 71212.81429681949, -4712.395931767933, 13101.743233411698, 64194.523000064255, 45668.503125727555, -187500.02235174447, 60709.10372842595, 84995.4587215732, 99153.74656364281, 33650.260704786866, 12753.90538619821, 64938.05377937005, 44974.03442550116, -40062.23858144743, -2815.5821938016647, 0.094, 1.008, 0.116, 192.0, 1.0, 120.0, 15.5, 64.0, 1.5, 80.0, 0.0, 0.0, 0.0, 1.695422539602976E9, 0.0, 2023-09-22 17:42:19.602
74.0, -105242.22764280172, 71336.26298144615, -4715.927507391872, 13125.525489512145, 64167.72325846234, 45670.33596877289, -187500.02235174447, 60757.89758657189, 85156.97242700726, 99225.65212555554, 33746.19439198904, 12747.266918094983, 64929.31424728802, 44956.533009592655, -39946.970635291415, -2705.4327971259117, 0.094, 1.008, 0.116, 192.0, 0.0, 0.0, 0.0, 0.0, 0.0, 0.0, 0.0, 0.0, 0.0, 1.695422539663224E9, 0.0, 2023-09-22 17:42:19.663
76.0, -105394.375967309, 71210.7579363296, -4709.825481155573, 13088.801573372075, 64183.23536911433, 45672.70525368515, -187500.02235174447, 60709.9307429708, 85017.65400381733, 99175.87479065357, 33668.41032128457, 12749.926775685166, 64938.32200030351, 44967.865344031496, -40035.30472937879, -2766.8553908890954, 0.094, 1.008, 0.116, 192.0, 0.0, 0.0, 0.0, 0.0, 0.0, 0.0, 0.0, 0.0, 0.0, 1.695422539663237E9, 0.0, 2023-09-22 17:42:19.663
78.0, -105215.7855291111, 71351.52922290913, -4732.333687822066, 13134.130911127439, 64155.5415577342, 45667.519648971516, -187500.02235174447, 60781.210456038774, 85138.82281050955, 99211.83874748215, 33752.69874962554, 12735.040513877932, 64921.75935766213, 44947.301739132614, -39943.10378350065, -2680.8682299695292, 0.094, 1.008, 0.116, 192.0, 0.0, 0.0, 0.0, 0.0, 0.0, 0.0, 0.0, 0.0, 0.0, 1.695422539663241E9, 0.0, 2023-09-22 17:42:19.663
80.0, -105382.06015611412, 71210.64617760733, -4708.462024743799, 13073.624738886921, 64172.70769747588, 45672.59349496287, -187500.02235174447, 60704.588676045976, 85040.072803506, 99192.70565422841, 33664.83404217172, 12735.532252255947, 64931.594125222466, 44949.60396881151, -40001.575946995734, -2712.0936169735933, 0.094, 1.008, 0.116, 192.0, 0.0, 0.0, 0.0, 0.0, 0.0, 0.0, 0.0, 0.0, 0.0, 1.695422539663244E9, 0.0, 2023-09-22 17:42:19.663
82.0, -105226.64847691638, 71329.95978950975, -4714.496995746732, 13141.596393775511, 64160.10131360309, 45677.82380316542, -187500.02235174447, 60781.143400805406, 85102.45652228076, 99187.74356695934, 33739.01948201889, 12730.033723119943, 64928.84486065446, 44943.59134955303, -39949.54108590378, -2665.0208431507162, 0.098, 1.012, 0.112, 192.0, 1.5, 8.0, 15.5, 80.0, 1.5, 64.0, 0.0, 0.0, 0.0, 1.695422539663248E9, 0.0, 2023-09-22 17:42:19.663
84.0, -105396.40997605443, 71198.64329083482, -4697.576725194064, 13078.87739883392, 64170.36076430807, 45678.67316945472, -187500.02235174447, 60692.25051310665, 85049.61699838842, 99199.99232292085, 33686.202309871, 12744.383543060248, 64945.83218644049, 44969.36291091, -40001.665353973556, -2689.808927751652, 0.098, 1.012, 0.112, 192.0, 0.0, 0.0, 0.0, 0.0, 0.0, 0.0, 0.0, 0.0, 0.0, 1.695422539663251E9, 0.0, 2023-09-22 17:42:19.663
86.0, -105220.07706404652, 71331.77028081063, -4727.08102787507, 13154.962736959784, 64138.64363892599, 45671.162983317736, -187500.02235174447, 60783.60209269549, 85080.64121969238, 99168.02932834976, 33748.34015945675, 12726.680961451646, 64924.35216001894, 44942.42905884136, -39965.88021110061, -2656.6612907244316, 0.098, 1.012, 0.112, 192.0, 0.0, 0.0, 0.0, 0.0, 0.0, 0.0, 0.0, 0.0, 0.0, 1.695422539663255E9, 0.0, 2023-09-22 17:42:19.663
88.0, -105423.07560718962, 71178.9961074586, -4672.743937104218, 13071.389564441391, 64178.4967992898, 45701.226079610125, -187500.02235174447, 60667.395373272346, 85074.29332426707, 99209.80473873673, 33704.351926368705, 12751.558453030402, 64949.341410319976, 44976.09078599105, -39985.72856017692, -2653.0179563782167, 0.098, 1.012, 0.112, 192.0, 0.0, 0.0, 0.0, 0.0, 0.0, 0.0, 0.0, 0.0, 0.0, 1.695422539663258E9, 0.0, 2023-09-22 17:42:19.663
90.0, -105291.96027421478, 71278.39431505137, -4720.151987093925, 13165.155132431404, 64149.283069286714, 45695.28051558501, -187500.02235174447, 60775.73427864722, 85019.30803290702, 99116.95559226938, 33751.96114205851, 12747.669249495179, 64949.31905857552, 44964.17730619637, -40041.09383119272, -2702.2364976688027, 0.098, 1.012, 0.112, 192.0, 0.0, 0.0, 0.0, 0.0, 0.0, 0.0, 0.0, 0.0, 0.0, 1.695422539723541E9, 0.0, 2023-09-22 17:42:19.723
92.0, -105385.54702824916, 71213.88718055334, -4700.415396739888, 13082.408974457858, 64146.33263901862, 45680.0813293554, -187500.02235174447, 60696.899675953355, 85107.30685082756, 99218.54427081875, 33741.8134500758, 12732.313601054384, 64927.70492168724, 44958.142335193435, -39986.84614739969, -2625.2123862758144, 0.10200000000000001, 1.01, 0.106, 192.0, 1.5, 24.0, 15.5, 72.0, 1.5, 40.0, 0.0, 0.0, 0.0, 1.695422539723552E9, 0.0, 2023-09-22 17:42:19.723
94.0, -105292.02732944814, 71275.26507082762, -4710.74190267824, 13159.83541725104, 64155.27333680074, 45689.04437888198, -187500.02235174447, 60787.17837180834, 85017.94457649524, 99121.2471272048, 33744.428604177076, 12738.527386012958, 64935.639790968875, 44968.04415798714, -40022.05014491679, -2654.1131918565266, 0.10200000000000001, 1.01, 0.106, 192.0, 0.0, 0.0, 0.0, 0.0, 0.0, 0.0, 0.0, 0.0, 0.0, 1.695422539723555E9, 0.0, 2023-09-22 17:42:19.723
96.0, -105368.29148152965, 71226.53826791505, -4685.707948888296, 13084.442983203291, 64160.905976403476, 45679.92486714421, -187500.02235174447, 60705.415690590824, 85135.4924005857, 99232.35764889212, 33765.50629919843, 12743.914156426688, 64934.70101770175, 44975.75550982422, -39963.48857444389, -2577.424356630368, 0.10200000000000001, 1.01, 0.106, 192.0, 0.0, 0.0, 0.0, 0.0, 0.0, 0.0, 0.0, 0.0, 0.0, 1.695422539723566E9, 0.0, 2023-09-22 17:42:19.723
98.0, -105287.64638753491, 71276.96380340622, -4726.924565663882, 13165.60216732051, 64152.90405188848, 45675.74509093107, -187500.02235174447, 60788.56417996457, 84992.84356747194, 99108.66309507647, 33750.26240947991, 12757.81694147789, 64938.8807939149, 44984.18211748387, -40041.11618293717, -2648.9499388873505, 0.10200000000000001, 1.01, 0.106, 192.0, 0.0, 0.0, 0.0, 0.0, 0.0, 0.0, 0.0, 0.0, 0.0, 1.695422539723569E9, 0.0, 2023-09-22 17:42:19.723
100.0, -105345.29153648515, 71242.16213728931, -4691.45234721331, 13073.691794120288, 64161.50947350377, 45677.24265780958, -187500.02235174447, 60692.429327062295, 85165.3990346669, 99245.41106765403, 33782.29245928436, 12745.90346168321, 64923.36868326291, 44975.44258540185, -39932.442001395466, -2525.680068216332, 0.10200000000000001, 1.01, 0.106, 192.0, 0.0, 0.0, 0.0, 0.0, 0.0, 0.0, 0.0, 0.0, 0.0, 1.695422539723572E9, 0.0, 2023-09-22 17:42:19.723
102.0, -105311.85332678001, 71253.49447172815, -4723.303583062123, 13145.93263219984, 64173.646470743, 45685.71396895814, -187500.02235174447, 60767.66529889886, 84965.1050526029, 99092.41337685745, 33740.360586686205, 12762.220235135585, 64944.80400619555, 44982.88571630546, -40059.71283432398, -2636.656479436932, 0.1, 1.01, 0.108, 192.0, 1.5, 16.0, 15.5, 72.0, 1.5, 48.0, 0.0, 0.0, 0.0, 1.695422539723575E9, 0.0, 2023-09-22 17:42:19.723
104.0, -105316.99422800473, 71262.43516951027, -4700.683617673351, 13068.39443068438, 64179.45792430138, 45677.51087874304, -187500.02235174447, 60710.26601913763, 85171.2998952031, 99241.18658795198, 33802.297270571864, 12745.992868661031, 64928.777805421094, 44966.36777715299, -39924.46242862492, -2492.39832072238, 0.1, 1.01, 0.108, 192.0, 0.0, 0.0, 0.0, 0.0, 0.0, 0.0, 0.0, 0.0, 0.0, 1.695422539783753E9, 0.0, 2023-09-22 17:42:19.783
106.0, -105323.23036470776, 71244.53142220157, -4736.759333224218, 13136.433140806335, 64188.01864242776, 45682.85294566786, -187500.02235174447, 60767.710002387765, 84946.48604947163, 99085.8419639876, 33732.872752293675, 12772.90436898522, 64946.72625621871, 45000.63300140298, -40066.46306114949, -2617.1210547829933, 0.1, 1.01, 0.108, 192.0, 0.0, 0.0, 0.0, 0.0, 0.0, 0.0, 0.0, 0.0, 0.0, 1.695422539783766E9, 0.0, 2023-09-22 17:42:19.783
108.0, -105285.56767530057, 71285.7256872327, -4703.83521364155, 13070.62960512991, 64192.04195642972, 45689.893745171285, -187500.02235174447, 60718.80438551956, 85180.03942728513, 99245.9251577765, 33810.65682299815, 12764.76833400349, 64925.46974724171, 44975.37553016848, -39893.12528289858, -2438.016526462618, 0.1, 1.01, 0.108, 192.0, 0.0, 0.0, 0.0, 0.0, 0.0, 0.0, 0.0, 0.0, 0.0, 1.69542253978377E9, 0.0, 2023-09-22 17:42:19.783
110.0, -105349.82894060957, 71221.9561603017, -4731.573728510586, 13117.344751041503, 64211.08564270564, 45704.55648953396, -187500.02235174447, 60749.180406234314, 84921.7426683596, 99081.19280114089, 33720.98162424345, 12804.353273433839, 64960.316116847534, 45004.81277761612, -40070.03934026234, -2593.9869992717504, 0.1, 1.01, 0.108, 192.0, 0.0, 0.0, 0.0, 0.0, 0.0, 0.0, 0.0, 0.0, 0.0, 1.695422539783774E9, 0.0, 2023-09-22 17:42:19.783
112.0, -105243.7922649136, 71315.07352770252, -4723.638859228952, 13078.54212266709, 64193.74068900832, 45687.859736425846, -187500.02235174447, 60733.84710953798, 85162.06862474307, 99226.59089882266, 33814.85895095574, 12768.545778816437, 64925.76031991963, 44962.27740791767, -39903.65295453703, -2426.52772981259, 0.096, 1.01, 0.108, 192.0, 1.5, 0.0, 15.5, 72.0, 1.5, 48.0, 0.0, 0.0, 0.0, 1.695422539783777E9, 0.0, 2023-09-22 17:42:19.783
114.0, -105323.34212343003, 71238.92113434328, -4737.943975680349, 13092.154335040372, 64210.7056630499, 45694.11822487333, -187500.02235174447, 60726.09105421198, 84941.23338952463, 99101.21996417284, 33716.13129569665, 12791.277502927484, 64950.6825149873, 44993.301629221634, -40027.995708941904, -2528.854015928986, 0.096, 1.01, 0.108, 192.0, 0.0, 0.0, 0.0, 0.0, 0.0, 0.0, 0.0, 0.0, 0.0, 1.69542253978378E9, 0.0, 2023-09-22 17:42:19.783
116.0, -105178.36870889291, 71359.68760963531, -4729.562071509608, 13073.043593531083, 64189.27034011726, 45677.22030606512, -187500.02235174447, 60730.36023740295, 85167.58950562353, 99233.74345704836, 33819.35165159126, 12767.472895082581, 64919.144203560856, 44969.5640766101, -39853.428584745954, -2360.0759935469623, 0.096, 1.01, 0.108, 192.0, 0.0, 0.0, 0.0, 0.0, 0.0, 0.0, 0.0, 0.0, 0.0, 1.695422539783783E9, 0.0, 2023-09-22 17:42:19.783
118.0, -105337.82605383708, 71223.2078579912, -4706.7185886762845, 13063.6335091154, 64226.95538126891, 45704.60119302287, -187500.02235174447, 60688.38366131588, 84945.03318608203, 99124.5998888731, 33716.91360675259, 12799.659407098223, 64954.66112550034, 45006.77973112819, -39981.168804308036, -2468.72782334421, 0.096, 1.01, 0.108, 192.0, 0.0, 0.0, 0.0, 0.0, 0.0, 0.0, 0.0, 0.0, 0.0, 1.695422539783786E9, 0.0, 2023-09-22 17:42:19.783
120.0, -105207.35892145145, 71334.3854349119, -4719.928469649371, 13085.895846592886, 64200.334453622636, 45691.41366379424, -187500.02235174447, 60728.25917342415, 85107.19509210529, 99194.24792459582, 33822.8832272152, 12799.145316975751, 64944.871061428916, 44998.59899265754, -39889.77252123028, -2382.7406624246437, 0.096, 1.01, 0.108, 192.0, 0.0, 0.0, 0.0, 0.0, 0.0, 0.0, 0.0, 0.0, 0.0, 1.695422539843209E9, 0.0, 2023-09-22 17:42:19.843
122.0, -105326.13609148694, 71233.4673086962, -4735.865263446005, 13071.926006308318, 64207.7552327818, 45692.10656787235, -187500.02235174447, 60695.513867797126, 84953.9515321197, 99127.70678135238, 33739.9135517971, 12798.541819875458, 64939.59604973746, 45002.24232700376, -39982.01817059734, -2450.421744635313, 0.088, 1.008, 0.114, 192.0, 1.0, 96.0, 15.5, 64.0, 1.5, 72.0, 0.0, 0.0, 0.0, 1.69542253984322E9, 0.0, 2023-09-22 17:42:19.843
124.0, -105176.28999665857, 71352.33388570952, -4730.120865120991, 13093.182515285316, 64195.88645647603, 45695.213460351646, -187500.02235174447, 60725.62166757842, 85111.50897878516, 99194.24792459582, 33827.487686573, 12780.414555122205, 64919.837107638974, 44984.025655272686, -39854.79204115773, -2331.1528362217946, 0.088, 1.008, 0.114, 192.0, 0.0, 0.0, 0.0, 0.0, 0.0, 0.0, 0.0, 0.0, 0.0, 1.695422539843224E9, 0.0, 2023-09-22 17:42:19.843
126.0, -105351.72883888827, 71210.42266016277, -4723.929431906871, 13056.883282289897, 64213.477279362356, 45702.254259855064, -187500.02235174447, 60657.78412315657, 84966.73672994814, 99131.32776395415, 33735.97964477297, 12804.06270075592, 64948.76026496414, 45007.71850439531, -39968.54006869079, -2421.05155242104, 0.088, 1.008, 0.114, 192.0, 0.0, 0.0, 0.0, 0.0, 0.0, 0.0, 0.0, 0.0, 0.0, 1.695422539843227E9, 0.0, 2023-09-22 17:42:19.843
128.0, -105160.06263018402, 71357.31832472305, -4743.218987371801, 13102.50319272318, 64193.964206452874, 45687.74797770357, -187500.02235174447, 60735.23291769421, 85096.44390302229, 99163.67073818097, 33826.4371545836, 12771.764430018, 64917.75839540463, 44970.34638766604, -39867.26431456379, -2331.17518796625, 0.088, 1.008, 0.114, 192.0, 0.0, 0.0, 0.0, 0.0, 0.0, 0.0, 0.0, 0.0, 0.0, 1.69542253984323E9, 0.0, 2023-09-22 17:42:19.843
130.0, -105349.11368478701, 71206.84638104992, -4714.1170160909915, 13035.716180290721, 64222.7085498224, 45703.41655056674, -187500.02235174447, 60651.48093122017, 85006.88046298987, 99144.11296178258, 33745.34502569974, 12794.317340173406, 64948.55909926404, 44995.22387924479, -39934.744231074365, -2379.6337699453557, 0.088, 1.008, 0.114, 192.0, 0.0, 0.0, 0.0, 0.0, 0.0, 0.0, 0.0, 0.0, 0.0, 1.695422539843234E9, 0.0, 2023-09-22 17:42:19.843
132.0, -105186.10241247444, 71337.76054832466, -4738.346307080545, 13107.889963136908, 64207.33054963715, 45696.50986153005, -187500.02235174447, 60742.87721429792, 85060.30113223805, 99123.21408071686, 33823.129096404205, 12779.699299299635, 64932.80111942305, 44985.478518662276, -39894.15346314353, -2350.442391686725, 0.094, 1.006, 0.11800000000000001, 192.0, 1.0, 120.0, 15.5, 56.0, 1.5, 88.0, 0.0, 0.0, 0.0, 1.695422539843237E9, 0.0, 2023-09-22 17:42:19.843
134.0, -105359.86487387001, 71205.61703510488, -4714.318181791089, 13034.263316901126, 64221.90388702201, 45695.95106791867, -187500.02235174447, 60649.11164630791, 85026.8629225329, 99146.90692983949, 33771.764787645916, 12792.775069805988, 64948.492044030674, 45007.025600317196, -39928.32928041569, -2364.7475081381212, 0.094, 1.006, 0.11800000000000001, 192.0, 0.0, 0.0, 0.0, 0.0, 0.0, 0.0, 0.0, 0.0, 0.0, 1.695422539903097E9, 0.0, 2023-09-22 17:42:19.903
136.0, -105178.03343272608, 71341.24742045968, -4745.878844961982, 13121.88215516593, 64196.84758148761, 45697.023951652525, -187500.02235174447, 60755.125970259425, 85037.99409127166, 99106.91965900894, 33825.721898761025, 12775.877150997776, 64930.677703699796, 44979.24238195925, -39898.17677714548, -2341.6805078602442, 0.094, 1.006, 0.11800000000000001, 192.0, 0.0, 0.0, 0.0, 0.0, 0.0, 0.0, 0.0, 0.0, 0.0, 1.695422539903113E9, 0.0, 2023-09-22 17:42:19.903
138.0, -105322.33629492954, 71235.74718663063, -4708.484376488254, 13032.00579071114, 64218.41701488698, 45697.18041386371, -187500.02235174447, 60645.580070683965, 85072.14755679936, 99180.03221512225, 33788.21567156502, 12778.939339988154, 64935.7291979467, 44992.09463502105, -39867.33136979716, -2293.467795070147, 0.094, 1.006, 0.11800000000000001, 192.0, 0.0, 0.0, 0.0, 0.0, 0.0, 0.0, 0.0, 0.0, 0.0, 1.695422539903116E9, 0.0, 2023-09-22 17:42:19.903
140.0, -105198.61938936943, 71322.96369349524, -4736.066429146103, 13119.624628975944, 64204.13425018004, 45703.84123371139, -187500.02235174447, 60730.33788565849, 84995.77164599558, 99090.46877508984, 33806.298232829366, 12773.664328296702, 64936.623267724906, 44980.11409999301, -39899.18260564597, -2327.5095018755796, 0.094, 1.006, 0.11800000000000001, 192.0, 0.0, 0.0, 0.0, 0.0, 0.0, 0.0, 0.0, 0.0, 0.0, 1.69542253990312E9, 0.0, 2023-09-22 17:42:19.903
142.0, -105299.13518418494, 71252.2651257831, -4710.116053833492, 13034.799758768053, 64209.073985704665, 45697.292172585985, -187500.02235174447, 60644.41777997229, 85091.4818157532, 99186.00013089183, 33801.336145560286, 12768.702241027624, 64944.55813700654, 44980.82935581558, -39842.78915438523, -2258.219094064128, 0.094, 1.006, 0.12, 192.0, 1.0, 120.0, 15.5, 56.0, 1.5, 96.0, 0.0, 0.0, 0.0, 1.695422539903123E9, 0.0, 2023-09-22 17:42:19.903
144.0, -105189.20930495374, 71326.89760051937, -4737.206368113323, 13122.083320866028, 64208.157564181995, 45701.29313484349, -187500.02235174447, 60739.770321818636, 84982.22648885567, 99078.86821971754, 33802.40902929414, 12768.523427071981, 64941.47359627171, 44975.4649371463, -39883.82695720517, -2304.1072254308733, 0.094, 1.006, 0.12, 192.0, 0.0, 0.0, 0.0, 0.0, 0.0, 0.0, 0.0, 0.0, 0.0, 1.695422539903126E9, 0.0, 2023-09-22 17:42:19.903
146.0, -105266.38987855791, 71275.80151269454, -4717.26861205919, 13040.030066970596, 64208.582247326645, 45696.0851783854, -187500.02235174447, 60649.13399805236, 85110.12317062893, 99194.67260774047, 33820.7821632364, 12772.032650951463, 64944.20050909526, 44974.03442550116, -39801.25961318727, -2212.1745004861955, 0.094, 1.006, 0.12, 192.0, 0.0, 0.0, 0.0, 0.0, 0.0, 0.0, 0.0, 0.0, 0.0, 1.69542253990313E9, 0.0, 2023-09-22 17:42:19.903
148.0, -105212.87980233191, 71301.70718451825, -4741.766123982206, 13116.048349863095, 64202.99431121282, 45710.032666925516, -187500.02235174447, 60718.26794365263, 84946.17312504926, 99063.40081255446, 33791.188453577575, 12767.629357293768, 64936.93619214728, 44968.37943415397, -39882.28468683776, -2286.985789178108, 0.094, 1.006, 0.12, 192.0, 0.0, 0.0, 0.0, 0.0, 0.0, 0.0, 0.0, 0.0, 0.0, 1.695422539903133E9, 0.0, 2023-09-22 17:42:19.903
150.0, -105260.77959069963, 71277.45554178423, -4715.748693436229, 13042.265241416126, 64203.977787968855, 45707.66338201325, -187500.02235174447, 60649.13399805236, 85095.95216464427, 99189.37524430457, 33826.59361679478, 12767.361136360305, 64934.61161072393, 44988.38424544147, -39787.06625545815, -2187.5205263519915, 0.094, 1.006, 0.12, 192.0, 0.0, 0.0, 0.0, 0.0, 0.0, 0.0, 0.0, 0.0, 0.0, 1.695422539963161E9, 0.0, 2023-09-22 17:42:19.963
152.0, -105235.3433055095, 71285.2786523436, -4748.136371151969, 13109.722806182242, 64200.08858443363, 45712.98309719362, -187500.02235174447, 60724.34761814447, 84900.21793844915, 99049.63213797, 33775.96691560351, 12767.785819504956, 64937.49498575866, 44983.06453026111, -39894.198166632435, -2283.8118414654546, 0.088, 1.01, 0.11800000000000001, 192.0, 1.0, 96.0, 15.5, 72.0, 1.5, 88.0, 0.0, 0.0, 0.0, 1.695422539963174E9, 0.0, 2023-09-22 17:42:19.963
154.0, -105217.99835181217, 71315.38645212489, -4720.800187683129, 13043.561642594534, 64188.13040115004, 45703.103626144366, -187500.02235174447, 60670.07758260699, 85110.12317062893, 99202.56277353321, 33838.6859105451, 12745.367019816282, 64924.15099431885, 44964.55728585211, -39743.79327819267, -2131.641165213724, 0.088, 1.01, 0.11800000000000001, 192.0, 0.0, 0.0, 0.0, 0.0, 0.0, 0.0, 0.0, 0.0, 0.0, 1.695422539963178E9, 0.0, 2023-09-22 17:42:19.963
156.0, -105230.15770079585, 71292.99000418067, -4745.565920539609, 13104.179573557327, 64195.61823554257, 45706.99282967959, -187500.02235174447, 60708.2767138811, 84892.97597324563, 99055.82357118411, 33779.14086331616, 12762.66727002469, 64941.160671849335, 44981.23168721577, -39865.2079540739, -2240.337698499882, 0.088, 1.01, 0.11800000000000001, 192.0, 0.0, 0.0, 0.0, 0.0, 0.0, 0.0, 0.0, 0.0, 0.0, 1.695422539963181E9, 0.0, 2023-09-22 17:42:19.963
158.0, -105161.62725229589, 71357.05010378959, -4720.844891172039, 13051.96589850973, 64178.89913069, 45690.43018703821, -187500.02235174447, 60668.021222117095, 85128.9880429492, 99211.05643642622, 33863.36223642376, 12737.387447045738, 64913.73508140267, 44952.28617814615, -39684.3152861971, -2061.993129490987, 0.088, 1.01, 0.11800000000000001, 192.0, 0.0, 0.0, 0.0, 0.0, 0.0, 0.0, 0.0, 0.0, 0.0, 1.695422539963184E9, 0.0, 2023-09-22 17:42:19.963
160.0, -105258.32089880954, 71267.46431201271, -4727.662173230908, 13090.343843739493, 64196.26643613177, 45705.24939361208, -187500.02235174447, 60676.850161176946, 84882.02361846252, 99052.80608568265, 33770.11075855622, 12770.825656750878, 64954.90699468935, 44991.8711175765, -39847.81829688767, -2208.1064829953293, 0.088, 1.01, 0.11800000000000001, 192.0, 0.0, 0.0, 0.0, 0.0, 0.0, 0.0, 0.0, 0.0, 0.0, 1.695422539963188E9, 0.0, 2023-09-22 17:42:19.963
162.0, -105143.29882184253, 71365.40965621587, -4726.455179030321, 13074.384698198402, 64173.26649108726, 45690.85487018286, -187500.02235174447, 60683.332167068984, 85119.17562713333, 99184.50256401331, 33872.5935068838, 12740.002601147009, 64926.29676178656, 44966.99362599774, -39692.98776304576, -2058.4392021225935, 0.092, 1.012, 0.11, 192.0, 1.0, 112.0, 15.5, 80.0, 1.5, 56.0, 0.0, 0.0, 0.0, 1.695422539963191E9, 0.0, 2023-09-22 17:42:19.963
164.0, -105272.2013321163, 71251.8627943829, -4716.151024836424, 13081.894884335386, 64207.866991504074, 45718.03459144051, -187500.02235174447, 60676.71605071021, 84901.71550532765, 99057.634062485, 33773.1729475466, 12758.129865900262, 64947.19564285227, 44987.84780357454, -39822.11379076407, -2170.9131802216984, 0.092, 1.012, 0.11, 192.0, 0.0, 0.0, 0.0, 0.0, 0.0, 0.0, 0.0, 0.0, 0.0, 1.695422540023598E9, 0.0, 2023-09-22 17:42:20.023
166.0, -105193.32202593352, 71324.81888828504, -4698.671960672375, 13081.604311657467, 64195.70764252039, 45714.99475419459, -187500.02235174447, 60683.95801591373, 85088.46433025174, 99147.53277868424, 33873.889908062214, 12757.056982166408, 64940.80304393805, 44983.22099247229, -39714.08780981157, -2069.257446438962, 0.092, 1.012, 0.11, 192.0, 0.0, 0.0, 0.0, 0.0, 0.0, 0.0, 0.0, 0.0, 0.0, 1.695422540023617E9, 0.0, 2023-09-22 17:42:20.023
168.0, -105327.32073394308, 71215.78707883204, -4721.873071416983, 13091.126154795427, 64194.36653785307, 45717.006411195565, -187500.02235174447, 60666.79187617206, 84881.39776961778, 99034.96939360732, 33784.5723372188, 12774.178418419173, 64964.47354131622, 45019.319059767615, -39877.926096668976, -2204.373741671293, 0.092, 1.012, 0.11, 192.0, 0.0, 0.0, 0.0, 0.0, 0.0, 0.0, 0.0, 0.0, 0.0, 1.695422540023621E9, 0.0, 2023-09-22 17:42:20.023
170.0, -105161.76136276263, 71350.03165603062, -4723.3929900399435, 13101.899695622886, 64171.16542710846, 45701.695466243684, -187500.02235174447, 60702.19703938926, 85092.37588553142, 99137.60860414608, 33888.999687314, 12735.196976089119, 64919.09950007195, 44975.0179022572, -39719.8769116255, -2054.0806119538083, 0.092, 1.012, 0.11, 192.0, 0.0, 0.0, 0.0, 0.0, 0.0, 0.0, 0.0, 0.0, 0.0, 1.695422540023624E9, 0.0, 2023-09-22 17:42:20.023
172.0, -105313.39559714742, 71226.27004698159, -4724.063542373603, 13072.373041197425, 64182.0507266582, 45706.8363674684, -187500.02235174447, 60653.17966379877, 84920.80389509248, 99069.81576321313, 33792.61896522271, 12756.654650766213, 64943.105273616944, 44998.91191707992, -39828.14876176701, -2137.2738048164615, 0.094, 1.01, 0.11, 192.0, 1.0, 120.0, 15.5, 72.0, 1.5, 56.0, 0.0, 0.0, 0.0, 1.695422540023628E9, 0.0, 2023-09-22 17:42:20.023
174.0, -105124.4115977778, 71377.01021158817, -4738.502769291731, 13105.900657880386, 64154.64748795599, 45695.95106791867, -187500.02235174447, 60706.73444351369, 85073.17573704431, 99129.56197614217, 33884.797559356404, 12721.584763715837, 64914.405633736336, 44955.68364330335, -39699.290954982156, -2013.7580649564345, 0.094, 1.01, 0.11, 192.0, 0.0, 0.0, 0.0, 0.0, 0.0, 0.0, 0.0, 0.0, 0.0, 1.695422540023631E9, 0.0, 2023-09-22 17:42:20.023
176.0, -105301.68328305284, 71237.42356746478, -4718.3414957930445, 13060.303099191558, 64181.737802235824, 45707.39516107979, -187500.02235174447, 60629.017428042585, 84938.12649704535, 99091.11697567905, 33791.43432276658, 12754.933566443155, 64942.837052683484, 44999.38130371348, -39790.91075550446, -2076.588818620303, 0.094, 1.01, 0.11, 192.0, 0.0, 0.0, 0.0, 0.0, 0.0, 0.0, 0.0, 0.0, 0.0, 1.695422540023635E9, 0.0, 2023-09-22 17:42:20.023
178.0, -105115.51560348459, 71383.69338318032, -4732.154873866424, 13120.898678409896, 64160.32483104764, 45703.595364522385, -187500.02235174447, 60708.90256272585, 85042.9785302852, 99114.63101084603, 33881.936536066125, 12738.750903457512, 64925.44739549726, 44972.60391385602, -39704.05187655114, -2000.7046461945351, 0.094, 1.01, 0.11, 192.0, 0.0, 0.0, 0.0, 0.0, 0.0, 0.0, 0.0, 0.0, 0.0, 1.695422540023638E9, 0.0, 2023-09-22 17:42:20.023
180.0, -105268.96032917028, 71263.10572184392, -4711.233641056257, 13057.553834623557, 64175.05463064369, 45709.607983780865, -187500.02235174447, 60618.57916338196, 84989.1108261479, 99128.77966508623, 33818.41287832414, 12747.825711706366, 64936.86913691392, 44989.188908241864, -39733.51147574323, -2010.002971887943, 0.094, 1.01, 0.11, 192.0, 0.0, 0.0, 0.0, 0.0, 0.0, 0.0, 0.0, 0.0, 0.0, 1.695422540083688E9, 0.0, 2023-09-22 17:42:20.083
182.0, -105124.56805998899, 71368.02481031715, -4729.718533720796, 13127.179518601837, 64169.22082534085, 45714.25714662757, -187500.02235174447, 60695.692681752764, 85007.23809090116, 99095.18499316991, 33865.46330040256, 12747.512787283993, 64937.98672413668, 44983.802137828134, -39708.41046671992, -1989.8864018781665, 0.10200000000000001, 1.01, 0.112, 192.0, 1.5, 24.0, 15.5, 72.0, 1.5, 64.0, 0.0, 0.0, 0.0, 1.6954225400837E9, 0.0, 2023-09-22 17:42:20.083
184.0, -105263.66296573437, 71261.18347182077, -4707.098568332025, 13050.53538686459, 64180.977842924345, 45709.92090820324, -187500.02235174447, 60611.98539876764, 85009.13798917986, 99134.70287736689, 33832.62858779771, 12742.99773490402, 64937.07030261401, 44981.14228023795, -39717.06059182413, -1976.1847825270634, 0.10200000000000001, 1.01, 0.112, 192.0, 0.0, 0.0, 0.0, 0.0, 0.0, 0.0, 0.0, 0.0, 0.0, 1.695422540083703E9, 0.0, 2023-09-22 17:42:20.083
186.0, -105111.93932437173, 71369.07534230655, -4732.89248143345, 13132.231012848737, 64163.074095615644, 45711.26201287055, -187500.02235174447, 60703.13581265639, 84988.21675636969, 99069.10050739057, 33866.8938120477, 12734.928755155654, 64936.01977062462, 44975.30847493511, -39712.992574333264, -1974.2401807594515, 0.10200000000000001, 1.01, 0.112, 192.0, 0.0, 0.0, 0.0, 0.0, 0.0, 0.0, 0.0, 0.0, 0.0, 1.695422540083707E9, 0.0, 2023-09-22 17:42:20.083
188.0, -105238.96428811125, 71276.85204468394, -4708.953763121815, 13052.949375265764, 64162.6941159599, 45714.27949837202, -187500.02235174447, 60600.6530643288, 85040.29632095055, 99145.0517350497, 33845.45848911506, 12742.707162226101, 64938.366703792424, 44989.7700535977, -39688.27154496569, -1930.229595926952, 0.10200000000000001, 1.01, 0.112, 192.0, 0.0, 0.0, 0.0, 0.0, 0.0, 0.0, 0.0, 0.0, 0.0, 1.69542254008371E9, 0.0, 2023-09-22 17:42:20.083
190.0, -105108.6089144479, 71367.42131321685, -4738.79334196965, 13140.568213530567, 64149.79715940919, 45714.52536756103, -187500.02235174447, 60690.596484016954, 84963.74159619113, 99059.1316293635, 33863.16107072366, 12736.471025523071, 64926.02854085309, 44978.86240230351, -39713.50666445574, -1955.4423636725385, 0.10200000000000001, 1.01, 0.112, 192.0, 0.0, 0.0, 0.0, 0.0, 0.0, 0.0, 0.0, 0.0, 0.0, 1.695422540083713E9, 0.0, 2023-09-22 17:42:20.083
192.0, -105211.96338080925, 71295.91808270432, -4709.177280566369, 13051.518863620624, 64149.05955184216, 45711.083198914916, -187500.02235174447, 60588.71723278967, 85055.11552752442, 99158.37337474506, 33857.863707287754, 12739.130883113252, 64933.2258025677, 44986.30553320712, -39653.87221024898, -1881.0110546363658, 0.098, 1.014, 0.116, 192.0, 1.5, 8.0, 15.5, 88.0, 1.5, 80.0, 0.0, 0.0, 0.0, 1.695422540083716E9, 0.0, 2023-09-22 17:42:20.083
194.0, -105147.45624631122, 71333.5360686226, -4734.434751800865, 13130.442873292313, 64149.95362162038, 45723.39901010979, -187500.02235174447, 60665.24960580464, 84916.15473224578, 99038.18804480888, 33846.79959378238, 12743.020086648476, 64937.71850320322, 44990.90999256492, -39726.51537972872, -1951.3072909483067, 0.098, 1.014, 0.116, 192.0, 0.0, 0.0, 0.0, 0.0, 0.0, 0.0, 0.0, 0.0, 0.0, 1.695422540143303E9, 0.0, 2023-09-22 17:42:20.143
196.0, -105211.91867732033, 71295.29223385957, -4711.1218823339805, 13045.305078662048, 64148.388999508505, 45715.50884431706, -187500.02235174447, 60582.65991004228, 85061.19520201627, 99158.73100265635, 33866.491480647506, 12726.14451958472, 64922.765186162615, 44977.70011159183, -39640.014128686686, -1854.36777524564, 0.098, 1.014, 0.116, 192.0, 0.0, 0.0, 0.0, 0.0, 0.0, 0.0, 0.0, 0.0, 0.0, 1.695422540143317E9, 0.0, 2023-09-22 17:42:20.143
198.0, -105174.61361582442, 71310.96080672274, -4735.060600645614, 13125.5478412566, 64150.31124953166, 45723.98015546562, -187500.02235174447, 60654.47606497718, 84874.64754279227, 99009.0190182947, 33827.51003831745, 12738.28151682395, 64936.332695046985, 44984.360931439514, -39759.95358943386, -1966.3500149667282, 0.098, 1.014, 0.116, 192.0, 0.0, 0.0, 0.0, 0.0, 0.0, 0.0, 0.0, 0.0, 0.0, 1.695422540143321E9, 0.0, 2023-09-22 17:42:20.143
200.0, -105184.18016245129, 71313.26303640164, -4704.6622281863965, 13054.134017721894, 64148.74662741979, 45711.79845473748, -187500.02235174447, 60590.68418630173, 85084.46336799423, 99159.155685801, 33886.78686461292, 12720.958914871087, 64919.68064542778, 44969.13939346545, -39621.775105211156, -1822.9188707970227, 0.098, 1.014, 0.116, 192.0, 0.0, 0.0, 0.0, 0.0, 0.0, 0.0, 0.0, 0.0, 0.0, 1.695422540143324E9, 0.0, 2023-09-22 17:42:20.143
202.0, -105186.37063340792, 71299.829637984, -4735.015897156703, 13127.291277324115, 64147.51728147475, 45717.09581817339, -187500.02235174447, 60649.02223933009, 84867.42792933321, 99003.49813741424, 33823.21850338203, 12738.99677264652, 64940.82539568251, 44985.23264947327, -39757.941932432885, -1945.3170234342842, 0.094, 1.006, 0.12, 192.0, 1.0, 120.0, 15.5, 56.0, 1.5, 96.0, 0.0, 0.0, 0.0, 1.695422540143328E9, 0.0, 2023-09-22 17:42:20.143
204.0, -105146.45041781073, 71340.93449603731, -4708.327914277067, 13066.986270783696, 64132.49690920078, 45704.75765523406, -187500.02235174447, 60608.23030569915, 85099.2825745681, 99159.40155499, 33900.242614775016, 12706.743205397512, 64910.672892412294, 44956.533009592655, -39591.06380832956, -1774.7955649847468, 0.094, 1.006, 0.12, 192.0, 0.0, 0.0, 0.0, 0.0, 0.0, 0.0, 0.0, 0.0, 0.0, 1.695422540143332E9, 0.0, 2023-09-22 17:42:20.143
206.0, -105192.27149394412, 71290.73247799069, -4737.720458235795, 13118.462338264268, 64140.431778482416, 45716.67113502874, -187500.02235174447, 60643.076675304976, 84859.96244668514, 99003.72165485879, 33819.06107891334, 12728.491452752525, 64940.42306428231, 44990.507661164724, -39744.329720059606, -1910.1130259171757, 0.094, 1.006, 0.12, 192.0, 0.0, 0.0, 0.0, 0.0, 0.0, 0.0, 0.0, 0.0, 0.0, 1.695422540143335E9, 0.0, 2023-09-22 17:42:20.143
208.0, -105129.37368504688, 71351.21629848675, -4713.893498646438, 13073.758849353653, 64122.75154861827, 45709.02683842502, -187500.02235174447, 60607.962084765684, 85093.00173437617, 99147.1527990285, 33905.495274722016, 12699.724757638545, 64910.114098800914, 44959.483439860756, -39583.88889835941, -1752.0638408736995, 0.094, 1.006, 0.12, 192.0, 0.0, 0.0, 0.0, 0.0, 0.0, 0.0, 0.0, 0.0, 0.0, 1.695422540143338E9, 0.0, 2023-09-22 17:42:20.143
210.0, -105205.39196793939, 71277.20967259523, -4729.562071509608, 13111.332131783025, 64132.92159234543, 45710.658515770265, -187500.02235174447, 60628.458634431205, 84863.00228393105, 99005.91212581542, 33812.69083174358, 12721.718874182568, 64933.60578222344, 44992.98870479926, -39738.18299033439, -1888.4988890288937, 0.094, 1.006, 0.12, 192.0, 0.0, 0.0, 0.0, 0.0, 0.0, 0.0, 0.0, 0.0, 0.0, 1.695422540202957E9, 0.0, 2023-09-22 17:42:20.202
212.0, -105104.54089695704, 71363.57681317054, -4709.378446266466, 13088.868628605442, 64118.23649623829, 45713.96657394965, -187500.02235174447, 60620.12143374937, 85090.38658027489, 99134.83698783362, 33910.01032710199, 12696.506106436982, 64910.672892412294, 44958.58937008255, -39578.144500034396, -1733.757762164803, 0.098, 1.01, 0.116, 192.0, 1.5, 8.0, 15.5, 72.0, 1.5, 80.0, 0.0, 0.0, 0.0, 1.695422540202969E9, 0.0, 2023-09-22 17:42:20.202
214.0, -105231.29763976308, 71250.85696588243, -4710.048998600126, 13104.291332279603, 64140.72235116034, 45729.76925727955, -187500.02235174447, 60609.929038277754, 84854.68743499368, 99005.64390488194, 33813.94252943308, 12724.758711428489, 64943.61936373942, 44994.6203821445, -39738.25004556776, -1866.0577375957655, 0.098, 1.01, 0.116, 192.0, 0.0, 0.0, 0.0, 0.0, 0.0, 0.0, 0.0, 0.0, 0.0, 1.695422540202973E9, 0.0, 2023-09-22 17:42:20.202
216.0, -105084.75960311409, 71371.28816500762, -4707.299734032123, 13111.198021316293, 64110.72631010131, 45718.07929492943, -187500.02235174447, 60634.18068101176, 85070.76174864314, 99115.01099050177, 33924.74012669804, 12703.256333262485, 64915.05383432554, 44959.17051543838, -39588.60511643948, -1718.4691689573729, 0.098, 1.01, 0.116, 192.0, 0.0, 0.0, 0.0, 0.0, 0.0, 0.0, 0.0, 0.0, 0.0, 1.695422540202976E9, 0.0, 2023-09-22 17:42:20.202
218.0, -105232.97402059723, 71248.33121875898, -4707.210327054301, 13093.45073621878, 64131.42402546693, 45719.80037925248, -187500.02235174447, 60595.91449450428, 84884.79523477498, 99026.14045454747, 33828.26999762893, 12725.652781206702, 64939.39488403736, 44996.14030076746, -39714.95952784533, -1818.0014870168552, 0.098, 1.01, 0.116, 192.0, 0.0, 0.0, 0.0, 0.0, 0.0, 0.0, 0.0, 0.0, 0.0, 1.695422540202979E9, 0.0, 2023-09-22 17:42:20.202
220.0, -105089.22995200515, 71366.63900216091, -4711.747731178729, 13113.88023065093, 64114.749624103264, 45721.499111831086, -187500.02235174447, 60645.53536719506, 85048.25354197664, 99090.11114717856, 33921.074440607365, 12705.200935030096, 64928.84486065446, 44966.256018430715, -39602.463198001766, -1714.6023171666047, 0.098, 1.01, 0.116, 192.0, 0.0, 0.0, 0.0, 0.0, 0.0, 0.0, 0.0, 0.0, 0.0, 1.695422540202982E9, 0.0, 2023-09-22 17:42:20.202
222.0, -105241.91471837935, 71241.51393670011, -4717.760350437206, 13078.92210232283, 64129.45707195486, 45718.88395772981, -187500.02235174447, 60598.06026197199, 84905.58235711842, 99030.65550692743, 33834.64024479869, 12709.268952520963, 64941.94298290527, 44984.07035876159, -39705.97412657429, -1792.8557745046348, 0.10200000000000001, 1.0, 0.114, 192.0, 1.5, 24.0, 15.5, 32.0, 1.5, 72.0, 0.0, 0.0, 0.0, 1.695422540202986E9, 0.0, 2023-09-22 17:42:20.202
224.0, -105078.9034460668, 71371.3999237299, -4728.466836031298, 13108.06877709255, 64112.69326361338, 45712.37960009332, -187500.02235174447, 60645.60242242843, 85032.54026562456, 99070.84394345808, 33922.5049522525, 12682.402155685682, 64917.35606400443, 44951.10153569002, -39602.15027357939, -1695.3798169350407, 0.10200000000000001, 1.0, 0.114, 192.0, 0.0, 0.0, 0.0, 0.0, 0.0, 0.0, 0.0, 0.0, 0.0, 1.695422540263342E9, 0.0, 2023-09-22 17:42:20.263
226.0, -105232.0352473301, 71250.02995133758, -4732.199577355334, 13055.72099157822, 64110.81571707913, 45709.89855645878, -187500.02235174447, 60576.46847682816, 84920.66978462574, 99039.19387330937, 33845.34673039278, 12693.399213957693, 64939.551346248554, 44966.14425970844, -39687.198661231836, -1753.0696693741882, 0.10200000000000001, 1.0, 0.114, 192.0, 0.0, 0.0, 0.0, 0.0, 0.0, 0.0, 0.0, 0.0, 0.0, 1.695422540263355E9, 0.0, 2023-09-22 17:42:20.263
228.0, -105061.4020301583, 71377.56900519956, -4735.46293204581, 13110.572172471544, 64094.834219793585, 45707.506919802065, -187500.02235174447, 60648.28463176306, 85007.79688451253, 99051.10735310405, 33915.64296670473, 12670.46632414655, 64914.18211629178, 44946.63118679896, -39601.72559043474, -1670.4799736118287, 0.10200000000000001, 1.0, 0.114, 192.0, 0.0, 0.0, 0.0, 0.0, 0.0, 0.0, 0.0, 0.0, 0.0, 1.695422540263358E9, 0.0, 2023-09-22 17:42:20.263
230.0, -105237.19850029929, 71239.70344539922, -4701.64474268493, 13045.193319939772, 64116.9847985488, 45717.69931527368, -187500.02235174447, 60551.9933166496, 84953.52684897505, 99066.19478061137, 33860.545916622395, 12689.8452865893, 64930.09655834396, 44970.63696034395, -39649.938303224844, -1689.9036395434905, 0.10200000000000001, 1.0, 0.114, 192.0, 0.0, 0.0, 0.0, 0.0, 0.0, 0.0, 0.0, 0.0, 0.0, 1.695422540263362E9, 0.0, 2023-09-22 17:42:20.263
232.0, -105085.34074846993, 71361.02871430264, -4729.271498831689, 13135.762588472675, 64093.80603954865, 45719.68862053021, -187500.02235174447, 60647.882300362864, 84944.74261340412, 99019.41257946641, 33921.47677200756, 12696.774327370445, 64930.00715136614, 44970.92753302187, -39649.312454380095, -1688.8531075540911, 0.10200000000000001, 1.006, 0.114, 192.0, 1.5, 24.0, 15.5, 56.0, 1.5, 72.0, 0.0, 0.0, 0.0, 1.695422540263365E9, 0.0, 2023-09-22 17:42:20.263
234.0, -105209.32587496351, 71270.72766670318, -4704.818690397584, 13060.526616636113, 64097.225856450306, 45718.14635016279, -187500.02235174447, 60559.592909764404, 84983.27702084507, 99089.86527798955, 33895.3028792504, 12691.23109474553, 64918.98774134967, 44967.015977742194, -39624.32320407906, -1637.600557518072, 0.10200000000000001, 1.006, 0.114, 192.0, 0.0, 0.0, 0.0, 0.0, 0.0, 0.0, 0.0, 0.0, 0.0, 1.695422540263368E9, 0.0, 2023-09-22 17:42:20.263
236.0, -105065.80532381599, 71372.09282780801, -4724.97996389627, 13145.999687433206, 64091.79438254767, 45722.57199556494, -187500.02235174447, 60654.43136148827, 84941.00987208007, 99023.5700039351, 33915.53120798245, 12694.56150466937, 64920.35119776145, 44964.75845155221, -39628.36886982547, -1641.2885953531977, 0.10200000000000001, 1.006, 0.114, 192.0, 0.0, 0.0, 0.0, 0.0, 0.0, 0.0, 0.0, 0.0, 0.0, 1.695422540263372E9, 0.0, 2023-09-22 17:42:20.263
238.0, -105193.2773224446, 71279.60130925194, -4683.986864565238, 13065.980442283208, 64107.86528681103, 45728.07052470095, -187500.02235174447, 60552.686220727715, 84999.2138146417, 99106.0926444641, 33899.79557988591, 12698.540115182414, 64932.488195000675, 44981.075225004584, -39597.12113107695, -1587.5102981937289, 0.10200000000000001, 1.006, 0.114, 192.0, 0.0, 0.0, 0.0, 0.0, 0.0, 0.0, 0.0, 0.0, 0.0, 1.695422540263375E9, 0.0, 2023-09-22 17:42:20.263
240.0, -105073.11434425287, 71359.46409219076, -4716.7545219367175, 13163.970489975274, 64100.511562885236, 45740.02870798454, -187500.02235174447, 60657.44884698973, 84890.04789472198, 99000.27948621268, 33917.56521672788, 12698.808336115879, 64936.89148865837, 44993.458091432825, -39651.190000914336, -1637.3993918179742, 0.10200000000000001, 1.006, 0.114, 192.0, 0.0, 0.0, 0.0, 0.0, 0.0, 0.0, 0.0, 0.0, 0.0, 1.695422540324483E9, 0.0, 2023-09-22 17:42:20.324
242.0, -105171.35026113395, 71289.25726285664, -4674.643835382919, 13069.646128373877, 64111.79919383517, 45735.80422828248, -187500.02235174447, 60561.135180131816, 85020.33621315197, 99115.3462666686, 33920.180370829155, 12679.071745761841, 64937.182061336294, 44992.608725143524, -39563.88408707191, -1531.027439955168, 0.10200000000000001, 1.004, 0.114, 192.0, 1.5, 24.0, 15.5, 48.0, 1.5, 72.0, 0.0, 0.0, 0.0, 1.695422540324493E9, 0.0, 2023-09-22 17:42:20.324
244.0, -105071.66148086327, 71351.95390605378, -4735.887615190461, 13160.595376562522, 64083.83716152158, 45720.225062397134, -187500.02235174447, 60659.28169003507, 84857.9731414286, 98974.3067591556, 33899.21443453008, 12679.854056817778, 64949.967259164725, 44997.302591479136, -39665.361006899, -1623.7424759557816, 0.10200000000000001, 1.004, 0.114, 192.0, 0.0, 0.0, 0.0, 0.0, 0.0, 0.0, 0.0, 0.0, 0.0, 1.695422540324497E9, 0.0, 2023-09-22 17:42:20.324
246.0, -105103.7585859011, 71332.21731569975, -4695.11803330398, 13060.6830788473, 64081.266710909214, 45712.37960009332, -187500.02235174447, 60566.14197088981, 85051.09221352247, 99129.51727265326, 33930.2610075785, 12652.875501260221, 64922.40755825133, 44968.491192876245, -39516.833664993486, -1461.960549588269, 0.10200000000000001, 1.004, 0.114, 192.0, 0.0, 0.0, 0.0, 0.0, 0.0, 0.0, 0.0, 0.0, 0.0, 1.6954225403245E9, 0.0, 2023-09-22 17:42:20.324
248.0, -105106.01611209108, 71311.27373114512, -4714.273478302179, 13125.950172656796, 64093.13548721498, 45728.405800867775, -187500.02235174447, 60623.004808784106, 84833.6767952057, 98970.99870097623, 33876.30389646338, 12683.60914988627, 64950.95073592076, 44984.629152372974, -39655.861515505494, -1588.4490714608517, 0.10200000000000001, 1.004, 0.114, 192.0, 0.0, 0.0, 0.0, 0.0, 0.0, 0.0, 0.0, 0.0, 0.0, 1.695422540324503E9, 0.0, 2023-09-22 17:42:20.324
250.0, -105117.39315001883, 71313.24068465718, -4691.78762338014, 13057.039744501084, 64084.59712083306, 45715.17356815023, -187500.02235174447, 60573.83097098243, 85032.070878991, 99105.13151945252, 33942.263894350996, 12663.693745576591, 64931.83999441147, 44958.29879740463, -39542.67228158382, -1469.8730671254477, 0.10200000000000001, 1.004, 0.114, 192.0, 0.0, 0.0, 0.0, 0.0, 0.0, 0.0, 0.0, 0.0, 0.0, 1.695422540324506E9, 0.0, 2023-09-22 17:42:20.324
252.0, -105109.95001911522, 71303.04828918556, -4728.8468156870385, 13122.373893543947, 64073.2200829053, 45714.011277438556, -187500.02235174447, 60630.15736700981, 84828.75941142553, 98959.9569392153, 33878.919050564655, 12671.27098694694, 64935.75154969115, 44955.03544271415, -39673.564097114104, -1582.50350743574, 0.1, 1.002, 0.114, 192.0, 1.5, 16.0, 15.5, 40.0, 1.5, 72.0, 0.0, 0.0, 0.0, 1.69542254032451E9, 0.0, 2023-09-22 17:42:20.324
254.0, -105065.82767556045, 71350.50104266418, -4690.602980924008, 13075.211712743248, 64074.20355966134, 45719.42039959674, -187500.02235174447, 60593.85813401439, 85060.90462933834, 99116.73207482483, 33954.490298568046, 12654.574233838825, 64911.879886612885, 44946.385317609944, -39507.71415325572, -1413.0772844645126, 0.1, 1.002, 0.114, 192.0, 0.0, 0.0, 0.0, 0.0, 0.0, 0.0, 0.0, 0.0, 0.0, 1.695422540324513E9, 0.0, 2023-09-22 17:42:20.324
0.0, -105130.46892052519, 71287.3797163224, -4701.465928729288, 13129.727617469744, 64094.05190873765, 45745.9966237541, -187500.02235174447, 60635.030047301065, 84821.24922528854, 98965.56722707358, 33877.8461668308, 12689.88999007821, 64945.85453818495, 44979.73412033726, -39665.47276562128, -1549.8252570420811, 0.1, 1.002, 0.114, 192.0, 0.0, 0.0, 0.0, 0.0, 0.0, 0.0, 0.0, 0.0, 0.0, 1.695422540384697E9, 0.0, 2023-09-22 17:42:20.384
