%OpenBCI Raw EXG Data
%Number of channels = 16
%Sample Rate = 125 Hz
%Board = OpenBCI_GUI$BoardCytonSerialDaisy
Sample Index, EXG Channel 0, EXG Channel 1, EXG Channel 2, EXG Channel 3, EXG Channel 4, EXG Channel 5, EXG Channel 6, EXG Channel 7, EXG Channel 8, EXG Channel 9, EXG Channel 10, EXG Channel 11, EXG Channel 12, EXG Channel 13, EXG Channel 14, EXG Channel 15, Accel Channel 0, Accel Channel 1, Accel Channel 2, Other, Other, Other, Other, Other, Other, Other, Analog Channel 0, Analog Channel 1, Analog Channel 2, Timestamp, Other, Timestamp (Formatted)
178.0, 24824.450889164316, 37046.47416430404, 37330.49778109763, -2145.2980810759163, -3378.7343953531263, -9847.932737819283, 115878.57346279305, -11009.12821401694, 31480.219242598923, 52596.1133952276, -187500.02235174447, -165545.5801541305, 31435.873381599595, 11713.23051610357, -4334.204415584137, -11006.580115149036, 0.0, 0.0, 0.0, 192.0, 0.0, 0.0, 0.0, 0.0, 0.0, 0.0, 0.0, 0.0, 0.0, 1.695764857907052E9, 0.0, 2023-09-26 16:47:37.907
180.0, 24821.835735063047, 37028.413954784155, 37297.059571392485, -2156.988043426042, -3394.425319960752, -9908.10363389297, 115817.53084868561, -11058.302051818617, 31472.93257390649, 52601.25429645232, -187500.02235174447, -165509.0127002016, 31408.246625452834, 11719.824280717885, -4312.657333929221, -10976.941702001299, 0.0, 0.0, 0.0, 192.0, 0.0, 0.0, 0.0, 0.0, 0.0, 0.0, 0.0, 0.0, 0.0, 1.695764857907072E9, 0.0, 2023-09-26 16:47:37.907
182.0, 24813.073851236564, 37043.45667880258, 37325.71450778419, -2153.456467802104, -3376.968607541157, -9850.413781453823, 115882.08268667254, -11006.602466893492, 31468.484576759885, 52588.15617420151, -187500.02235174447, -165530.64918883433, 31425.725689616884, 11706.145013111236, -4327.677706203188, -10990.643321352401, 0.0, 0.0, 0.0, 192.0, 0.0, 0.0, 0.0, 0.0, 0.0, 0.0, 0.0, 0.0, 0.0, 1.695764857907083E9, 0.0, 2023-09-26 16:47:37.907
184.0, 24822.327473441062, 37045.177763125634, 37306.29084185253, -2149.209636355595, -3375.314578451464, -9918.810119487061, 115804.67859562382, -11072.629520014469, 31463.924820891003, 52589.20670619091, -187500.02235174447, -165510.30910138, 31417.343785446144, 11709.02838814597, -4321.441569500157, -10976.941702001299, 0.063, 0.502, 0.046, 192.0, 1.5, 120.0, 15.5, 48.0, 1.0, 112.0, 0.0, 0.0, 0.0, 1.69576485790711E9, 0.0, 2023-09-26 16:47:37.907
186.0, 24794.38779287193, 37023.25070181498, 37333.403507876814, -2148.583787510847, -3360.584778855417, -9846.971612807705, 115883.62495703995, -11002.46739416926, 31447.071605571702, 52573.76165077229, -187500.02235174447, -165543.99318027415, 31425.390413450055, 11688.665948947186, -4340.284090075981, -10999.740481345712, 0.063, 0.502, 0.046, 192.0, 0.0, 0.0, 0.0, 0.0, 0.0, 0.0, 0.0, 0.0, 0.0, 1.69576485790712E9, 0.0, 2023-09-26 16:47:37.907
188.0, 24805.988348244235, 37030.291501318396, 37309.91182445429, -2134.256319314995, -3367.2008952141878, -9908.640075759897, 115813.39577596138, -11062.034793142653, 31437.885038600572, 52590.23488643586, -187500.02235174447, -165495.13226689486, 31407.106686485615, 11712.247039347534, -4302.800214624431, -10951.460713322249, 0.063, 0.502, 0.046, 192.0, 0.0, 0.0, 0.0, 0.0, 0.0, 0.0, 0.0, 0.0, 0.0, 1.69576485790713E9, 0.0, 2023-09-26 16:47:37.907
190.0, 24782.161388654877, 37013.21476855454, 37336.15277244482, -2136.960880394087, -3363.7140230791597, -9821.200051450736, 115907.47426837377, -10973.208960677262, 31441.371910735597, 52560.68588026594, -187500.02235174447, -165534.7172063252, 31419.802477336227, 11684.97791111206, -4329.309383548425, -10979.109821213464, 0.063, 0.502, 0.046, 192.0, 0.0, 0.0, 0.0, 0.0, 0.0, 0.0, 0.0, 0.0, 0.0, 1.695764857907139E9, 0.0, 2023-09-26 16:47:37.907
192.0, 24808.894075023425, 37020.166161080146, 37306.849635463914, -2141.2971188184165, -3381.9306948102353, -9864.271863016113, 115855.95349740429, -11016.169013520363, 31433.07941354268, 52605.43407266546, -187500.02235174447, -165451.1887372957, 31406.994927763335, 11725.076940664881, -4256.286234412937, -10898.44237547426, 0.063, 0.502, 0.046, 192.0, 0.0, 0.0, 0.0, 0.0, 0.0, 0.0, 0.0, 0.0, 0.0, 1.695764857907149E9, 0.0, 2023-09-26 16:47:37.907
194.0, 24803.663766820882, 37040.61800725675, 37334.1634671883, -2142.2582438299946, -3366.9103225362687, -9828.978458521184, 115894.04086995612, -10978.79689679109, 31448.926800361492, 52556.12612439706, -187500.02235174447, -165521.28380790757, 31423.84814308264, 11665.755410880496, -4317.351200264836, -10964.178855917318, 0.0955, 0.753, 0.068, 192.0, 2.0, 0.0, 15.5, 48.0, 1.0, 104.0, 0.0, 0.0, 0.0, 1.695764857907158E9, 0.0, 2023-09-26 16:47:37.907
0.0, 12444.311373747752, 18676.111838354092, 18664.488931237334, -1118.2801268434675, -1644.4178395769407, -4966.8705423916035, 57610.816670753564, -5605.795157646556, 15720.719482984483, 26310.77484020887, -93750.01117587223, -82720.52052265652, 15717.411424805097, 5862.884922371498, -2123.505130231992, -5442.403905678261, 0.12, 1.004, 0.096, 192.0, 1.5, 96.0, 15.5, 48.0, 1.5, 0.0, 0.0, 0.0, 0.0, 1.695764858056902E9, 0.0, 2023-09-26 16:47:38.056
2.0, 24900.312709845628, 37352.24602845264, 37303.206301117694, -2249.926596871209, -3313.1096736323448, -9964.854713064995, 115181.35549799867, -11242.279260430249, 31629.059508926814, 52642.49326497236, -187500.02235174447, -164597.73207875874, 31579.706857169494, 11726.574507543386, -4125.528529349391, -11550.934499613584, 0.12, 1.004, 0.096, 192.0, 0.0, 0.0, 0.0, 0.0, 0.0, 0.0, 0.0, 0.0, 0.0, 1.695764858056975E9, 0.0, 2023-09-26 16:47:38.056
4.0, 24871.188386820366, 37356.15758373232, 37326.54152232904, -2258.1743905752173, -3304.906583417247, -9925.627401545931, 115227.37773983214, -11198.626303509034, 31628.97010194899, 52592.671226581486, -187500.02235174447, -164643.6202101255, 31569.2015372755, 11676.148972052213, -4168.019195558929, -11598.72252925903, 0.12, 1.004, 0.096, 192.0, 0.0, 0.0, 0.0, 0.0, 0.0, 0.0, 0.0, 0.0, 0.0, 1.695764858056986E9, 0.0, 2023-09-26 16:47:38.056
6.0, 24878.855035168534, 37346.144002216344, 37310.4035628323, -2271.764251204044, -3315.769531222526, -9922.833433489017, 115230.26111486688, -11200.54855353219, 31597.275328311367, 52650.45048599845, -187500.02235174447, -164535.03543556161, 31569.022723319857, 11737.571565815399, -4072.443136268036, -11496.306836164813, 0.12, 1.004, 0.096, 192.0, 0.0, 0.0, 0.0, 0.0, 0.0, 0.0, 0.0, 0.0, 0.0, 1.695764858056999E9, 0.0, 2023-09-26 16:47:38.056
8.0, 24874.652907210937, 37334.051708466024, 37329.715470041694, -2257.5932452193792, -3283.9629988626243, -9947.3980006454, 115208.26699832286, -11219.592239808111, 31616.40842156511, 52561.624653533065, -187500.02235174447, -164613.62416906646, 31571.05673206529, 11655.563015408876, -4149.623709872211, -11582.986901162494, 0.122, 1.002, 0.1, 192.0, 1.5, 104.0, 15.5, 40.0, 1.5, 16.0, 0.0, 0.0, 0.0, 1.695764858057008E9, 0.0, 2023-09-26 16:47:38.057
10.0, 24877.670392712404, 37330.67659505327, 37319.54542631453, -2257.1238585858177, -3286.93578087518, -9958.462114150776, 115187.32341376823, -11238.278298172749, 31598.862302167694, 52608.876241311584, -187500.02235174447, -164559.51059574017, 31579.930374614047, 11698.254847318512, -4106.9989331959405, -11535.735313383975, 0.122, 1.002, 0.1, 192.0, 0.0, 0.0, 0.0, 0.0, 0.0, 0.0, 0.0, 0.0, 0.0, 1.695764858057054E9, 0.0, 2023-09-26 16:47:38.057
12.0, 24860.10192157053, 37345.13817371585, 37319.81364724799, -2252.050012594463, -3281.1243273168, -9977.774021360163, 115168.8832245926, -11246.727257576855, 31608.182979605554, 52545.68785973643, -187500.02235174447, -164642.03323626917, 31569.67092390906, 11632.138387219715, -4184.783003900409, -11615.665151556153, 0.122, 1.002, 0.1, 192.0, 0.0, 0.0, 0.0, 0.0, 0.0, 0.0, 0.0, 0.0, 0.0, 1.695764858057065E9, 0.0, 2023-09-26 16:47:38.057
14.0, 24869.802578664134, 37340.623121335884, 37311.744667499624, -2254.3298905289043, -3303.252554327554, -9942.905300009883, 115201.96380638645, -11219.681646785933, 31588.02170610687, 52616.34172395965, -187500.02235174447, -164566.7972644326, 31565.938182585025, 11692.868076904784, -4116.587831567268, -11543.804293132342, 0.122, 1.002, 0.1, 192.0, 0.0, 0.0, 0.0, 0.0, 0.0, 0.0, 0.0, 0.0, 0.0, 1.695764858057074E9, 0.0, 2023-09-26 16:47:38.057
16.0, 24885.985241649778, 37355.26351395411, 37309.62125177637, -2234.0121548190305, -3286.2205250526104, -9995.744823902229, 115144.05043650276, -11265.301557219214, 31608.250034838922, 52564.128048912055, -187500.02235174447, -164620.93318950335, 31555.030531290835, 11636.832253555329, -4175.30586425136, -11602.879953727717, 0.122, 1.002, 0.1, 192.0, 0.0, 0.0, 0.0, 0.0, 0.0, 0.0, 0.0, 0.0, 0.0, 1.695764858116544E9, 0.0, 2023-09-26 16:47:38.116
18.0, 24869.15437807493, 37349.00502550662, 37309.3530308429, -2255.335719029393, -3314.584888766395, -9922.408750344366, 115214.88311468162, -11203.722501244843, 31594.235491065443, 52624.477758941386, -187500.02235174447, -164572.20638659078, 31584.244261293923, 11688.576541969365, -4128.657773573133, -11551.04625833586, 0.12, 1.006, 0.09, 192.0, 1.5, 96.0, 15.5, 56.0, 1.0, 104.0, 0.0, 0.0, 0.0, 1.695764858116567E9, 0.0, 2023-09-26 16:47:38.116
20.0, 24872.8200641656, 37343.43944113725, 37300.61349876088, -2253.5922829618794, -3316.842414956381, -9955.668146093863, 115178.24860551937, -11228.085902701128, 31592.313241042288, 52598.192107461946, -187500.02235174447, -164570.6864679678, 31554.53879291282, 11657.105285776292, -4132.7034393195445, -11556.500083982955, 0.12, 1.006, 0.09, 192.0, 0.0, 0.0, 0.0, 0.0, 0.0, 0.0, 0.0, 0.0, 0.0, 1.695764858116578E9, 0.0, 2023-09-26 16:47:38.116
22.0, 24872.21656706531, 37341.316025413995, 37314.67274602327, -2254.39694576227, -3315.32249633342, -9904.01326465765, 115228.85295496619, -11186.936341158907, 31600.53868300184, 52624.50011068584, -187500.02235174447, -164534.61075241695, 31573.046037321812, 11687.056623346403, -4099.689912759056, -11525.006476045428, 0.12, 1.006, 0.09, 192.0, 0.0, 0.0, 0.0, 0.0, 0.0, 0.0, 0.0, 0.0, 0.0, 1.695764858116587E9, 0.0, 2023-09-26 16:47:38.116
24.0, 24893.987166164778, 37354.324740686985, 37307.38607733084, -2235.465018208625, -3299.296295558965, -9993.487297712243, 115133.6792270755, -11267.246158986827, 31612.586273263252, 52578.969607230385, -187500.02235174447, -164565.098531854, 31564.842947106714, 11641.235547213024, -4140.459494645535, -11564.971395131517, 0.12, 1.006, 0.09, 192.0, 0.0, 0.0, 0.0, 0.0, 0.0, 0.0, 0.0, 0.0, 0.0, 1.695764858116596E9, 0.0, 2023-09-26 16:47:38.116
26.0, 24872.082456598575, 37340.77958354707, 37334.49874335513, -2253.63698645079, -3304.236031083588, -9917.848994475484, 115213.47495478093, -11197.888695942009, 31604.740810959436, 52603.6682848535, -187500.02235174447, -164567.11018885497, 31585.898290383615, 11657.619375898765, -4138.157264966639, -11566.223092821014, 0.12, 1.006, 0.09, 192.0, 0.0, 0.0, 0.0, 0.0, 0.0, 0.0, 0.0, 0.0, 0.0, 1.695764858116612E9, 0.0, 2023-09-26 16:47:38.116
28.0, 24875.055238611134, 37335.504571855614, 37313.353993100405, -2265.5504662454687, -3302.626705482806, -9977.371689959966, 115149.39250342757, -11248.023658755263, 31590.86037765269, 52596.20280220542, -187500.02235174447, -164542.05388332056, 31561.378426716143, 11648.455160672089, -4123.427465370592, -11551.113313569227, 0.124, 1.0, 0.088, 192.0, 1.5, 112.0, 15.5, 32.0, 1.0, 96.0, 0.0, 0.0, 0.0, 1.695764858116621E9, 0.0, 2023-09-26 16:47:38.116
30.0, 24857.330305258074, 37314.3598216009, 37331.257740409106, -2278.9838646631083, -3287.338112275376, -9905.510831536154, 115224.20379211949, -11183.941207401896, 31587.39585726212, 52599.734377829365, -187500.02235174447, -164540.2880955086, 31573.895403611114, 11652.25495722949, -4117.504253089935, -11550.62157519121, 0.124, 1.0, 0.088, 192.0, 0.0, 0.0, 0.0, 0.0, 0.0, 0.0, 0.0, 0.0, 0.0, 1.695764858176818E9, 0.0, 2023-09-26 16:47:38.176
32.0, 24855.34100000155, 37304.92738544076, 37303.005135417596, -2283.431861809714, -3296.144699590767, -9953.120047225959, 115165.4857594354, -11226.051893955695, 31577.449330979507, 52586.0104067338, -187500.02235174447, -164520.70796736574, 31555.991656302413, 11645.392971681711, -4109.502328574936, -11537.434045962578, 0.124, 1.0, 0.088, 192.0, 0.0, 0.0, 0.0, 0.0, 0.0, 0.0, 0.0, 0.0, 0.0, 1.695764858176873E9, 0.0, 2023-09-26 16:47:38.176
34.0, 24847.78611037566, 37317.64552803583, 37318.85252223641, -2277.9780361626194, -3292.3449030333645, -9885.058985359548, 115241.07935918325, -11162.863512380543, 31564.351208728698, 52582.74705204333, -187500.02235174447, -164521.2891127216, 31560.193784260013, 11643.090742002814, -4095.3313225902707, -11533.321324982802, 0.124, 1.0, 0.088, 192.0, 0.0, 0.0, 0.0, 0.0, 0.0, 0.0, 0.0, 0.0, 0.0, 1.695764858176883E9, 0.0, 2023-09-26 16:47:38.176
36.0, 24854.513985456706, 37319.791295503535, 37289.70584746669, -2277.218076851139, -3308.9522491636576, -9939.35137264149, 115178.31566075273, -11213.579620549634, 31573.694237911015, 52582.16590668749, -187500.02235174447, -164497.66331883232, 31556.77396735835, 11643.001335024994, -4088.737557975955, -11521.94428705505, 0.124, 1.0, 0.088, 192.0, 0.0, 0.0, 0.0, 0.0, 0.0, 0.0, 0.0, 0.0, 0.0, 1.695764858176892E9, 0.0, 2023-09-26 16:47:38.176
38.0, 24849.551898187627, 37328.55317933002, 37308.16838838677, -2279.5203065300357, -3304.638362483783, -9876.945302122273, 115249.23774590943, -11153.58753843159, 31566.765197129873, 52573.560485072194, -187500.02235174447, -164515.70117660775, 31560.551412171295, 11626.192823194602, -4099.6005057812345, -11539.4233512191, 0.12, 1.0, 0.092, 192.0, 1.5, 96.0, 15.5, 32.0, 1.0, 112.0, 0.0, 0.0, 0.0, 1.695764858176901E9, 0.0, 2023-09-26 16:47:38.176
40.0, 24873.870596155, 37326.228597906666, 37278.5970304724, -2276.189896606195, -3319.0775894019116, -9939.77605578614, 115181.55666369876, -11211.612667037567, 31564.082987795235, 52602.50599414182, -187500.02235174447, -164460.42531256977, 31555.321103968756, 11646.510558904476, -4065.0894123422404, -11495.010434986405, 0.12, 1.0, 0.092, 192.0, 0.0, 0.0, 0.0, 0.0, 0.0, 0.0, 0.0, 0.0, 0.0, 1.69576485817691E9, 0.0, 2023-09-26 16:47:38.176
42.0, 24872.35067753204, 37346.00989174961, 37308.950699442714, -2261.862428410343, -3299.5645164924285, -9906.360197825456, 115221.32041708475, -11179.850838166576, 31583.3054880268, 52561.11056341059, -187500.02235174447, -164526.9888075577, 31572.53194719934, 11600.130689159714, -4125.349715393748, -11563.496179997466, 0.12, 1.0, 0.092, 192.0, 0.0, 0.0, 0.0, 0.0, 0.0, 0.0, 0.0, 0.0, 0.0, 1.69576485817692E9, 0.0, 2023-09-26 16:47:38.176
44.0, 24888.287471328673, 37358.63862736686, 37288.23063233264, -2258.375556275315, -3311.2544788425544, -9963.088925253025, 115149.81718657223, -11238.568870850668, 31587.664078195583, 52596.582781861165, -187500.02235174447, -164485.48161810418, 31575.34826700071, 11629.59028835181, -4102.774453493887, -11533.209566260526, 0.12, 1.0, 0.092, 192.0, 0.0, 0.0, 0.0, 0.0, 0.0, 0.0, 0.0, 0.0, 0.0, 1.695764858176929E9, 0.0, 2023-09-26 16:47:38.176
46.0, 24868.372067018994, 37363.73482510267, 37315.38800184584, -2257.30267254146, -3304.3477898058645, -9914.63034327392, 115201.44971626399, -11191.78666970571, 31585.58536596124, 52566.54203731323, -187500.02235174447, -164546.52423221164, 31578.075179824256, 11591.413508822145, -4154.96577679703, -11589.848886710273, 0.12, 1.0, 0.092, 192.0, 0.0, 0.0, 0.0, 0.0, 0.0, 0.0, 0.0, 0.0, 0.0, 1.695764858237216E9, 0.0, 2023-09-26 16:47:38.237
48.0, 24866.62863095148, 37335.48222011116, 37285.01198113108, -2277.732166973611, -3332.7568570085596, -9918.363084597955, 115190.51971322534, -11195.698224985388, 31561.400778460596, 52642.33680276118, -187500.02235174447, -164442.14158560534, 31569.53681344233, 11665.666003902676, -4064.5082669864023, -11493.043481474338, 0.124, 1.002, 0.092, 192.0, 1.5, 112.0, 15.5, 40.0, 1.0, 112.0, 0.0, 0.0, 0.0, 1.695764858237256E9, 0.0, 2023-09-26 16:47:38.237
50.0, 24859.319610514594, 37350.39083366285, 37313.01871693358, -2271.339568059393, -3294.6918362011716, -9909.623552515932, 115202.9472831425, -11182.913027156954, 31583.551357215805, 52566.2067611464, -187500.02235174447, -164515.8799905634, 31569.08977855322, 11603.885782228206, -4131.541148607868, -11569.464095767033, 0.124, 1.002, 0.092, 192.0, 0.0, 0.0, 0.0, 0.0, 0.0, 0.0, 0.0, 0.0, 0.0, 1.695764858237266E9, 0.0, 2023-09-26 16:47:38.237
52.0, 24855.7656831462, 37317.86904548038, 37295.182024858244, -2294.540678804002, -3311.2544788425544, -9919.547727054087, 115187.90455912407, -11192.948960417385, 31567.23458376343, 52617.43695943797, -187500.02235174447, -164439.571134993, 31572.57665068825, 11658.915777077173, -4072.510191501402, -11503.772318812886, 0.124, 1.002, 0.092, 192.0, 0.0, 0.0, 0.0, 0.0, 0.0, 0.0, 0.0, 0.0, 0.0, 1.695764858237275E9, 0.0, 2023-09-26 16:47:38.237
54.0, 24843.092244040043, 37327.279129896066, 37314.136304156345, -2290.1597368907615, -3292.4119582667304, -9909.95882868276, 115202.16497208655, -11176.185152075906, 31564.977057573447, 52559.83651397664, -187500.02235174447, -164483.6264233144, 31555.678731880038, 11601.58355254931, -4115.157319922128, -11553.504950225944, 0.124, 1.002, 0.092, 192.0, 0.0, 0.0, 0.0, 0.0, 0.0, 0.0, 0.0, 0.0, 0.0, 1.695764858237336E9, 0.0, 2023-09-26 16:47:38.237
56.0, 24849.373084231986, 37326.11683918439, 37301.61932726137, -2288.729225245622, -3294.870650156814, -9922.587564300009, 115180.14850379807, -11196.368777319049, 31568.598040175206, 52593.60999984861, -187500.02235174447, -164432.57503897848, 31571.05673206529, 11639.134483234226, -4076.5335055033574, -11511.863650305708, 0.124, 1.002, 0.092, 192.0, 0.0, 0.0, 0.0, 0.0, 0.0, 0.0, 0.0, 0.0, 0.0, 1.695764858237346E9, 0.0, 2023-09-26 16:47:38.237
58.0, 24849.48484295426, 37337.56093234551, 37296.053742892, -2280.1908588636948, -3289.4391762541745, -9946.615689589464, 115160.8813000776, -11207.812870480166, 31562.67482789455, 52538.95998465538, -187500.02235174447, -164494.55642635305, 31556.036359791324, 11587.680767498108, -4133.284584675382, -11574.314424313836, 0.126, 1.01, 0.088, 192.0, 1.5, 120.0, 15.5, 72.0, 1.0, 96.0, 0.0, 0.0, 0.0, 1.695764858237354E9, 0.0, 2023-09-26 16:47:38.237
60.0, 24852.47997671127, 37326.76503977359, 37281.547460740505, -2291.433786324714, -3312.9532114211574, -9911.165822883348, 115195.6382627056, -11176.900407898476, 31556.95278131399, 52599.62261910708, -187500.02235174447, -164430.8092511665, 31563.546545928308, 11651.897329318206, -4078.612217737701, -11512.355388683724, 0.126, 1.01, 0.088, 192.0, 0.0, 0.0, 0.0, 0.0, 0.0, 0.0, 0.0, 0.0, 0.0, 1.69576485829673E9, 0.0, 2023-09-26 16:47:38.296
62.0, 24855.028075579175, 37346.72514757218, 37279.4016932728, -2284.5941525213902, -3302.738464205082, -9932.981125471726, 115178.96386134195, -11187.182210347917, 31570.58734543173, 52556.55080754171, -187500.02235174447, -164467.86844347342, 31547.207420731476, 11609.429014853122, -4120.030000213385, -11552.722639170008, 0.126, 1.01, 0.088, 192.0, 0.0, 0.0, 0.0, 0.0, 0.0, 0.0, 0.0, 0.0, 0.0, 1.695764858296756E9, 0.0, 2023-09-26 16:47:38.296
64.0, 24851.138872043954, 37343.19357194824, 37275.959524626676, -2294.0712921704403, -3329.2029296401656, -9878.398165511868, 115235.58083004724, -11140.020029547219, 31561.378426716143, 52619.918003072504, -187500.02235174447, -164390.73257335814, 31560.841984849216, 11668.437620215132, -4053.913540114587, -11484.169838925582, 0.126, 1.01, 0.088, 192.0, 0.0, 0.0, 0.0, 0.0, 0.0, 0.0, 0.0, 0.0, 0.0, 1.695764858296767E9, 0.0, 2023-09-26 16:47:38.296
66.0, 24858.20202329183, 37344.35586265992, 37269.61162920137, -2284.1694693767395, -3316.1271591338113, -9926.275602135134, 115186.87637887913, -11178.487381754801, 31567.636915163628, 52571.88410423805, -187500.02235174447, -164420.03571033906, 31539.808993316772, 11623.644724326698, -4093.4090725671144, -11523.039522533361, 0.126, 1.01, 0.088, 192.0, 0.0, 0.0, 0.0, 0.0, 0.0, 0.0, 0.0, 0.0, 0.0, 1.695764858296777E9, 0.0, 2023-09-26 16:47:38.296
68.0, 24859.990162848255, 37353.87770579788, 37280.16165258428, -2289.533888046013, -3323.749103993071, -9886.981235382706, 115225.67900725354, -11148.044305806674, 31567.43574946353, 52601.50016564133, -187500.02235174447, -164389.81615183546, 31569.693275653517, 11657.194692754114, -4069.537409488846, -11495.278655919868, 0.122, 1.004, 0.09, 192.0, 1.5, 104.0, 15.5, 48.0, 1.0, 104.0, 0.0, 0.0, 0.0, 1.695764858296786E9, 0.0, 2023-09-26 16:47:38.296
70.0, 24869.78022691968, 37365.1206332589, 37272.740873425115, -2281.151983875273, -3311.2321270980988, -9955.06464899357, 115151.02418077282, -11207.008207679773, 31575.169453045066, 52562.16109539999, -187500.02235174447, -164418.1581638048, 31557.131595269635, 11619.733169047018, -4106.350732606737, -11531.354371470736, 0.122, 1.004, 0.09, 192.0, 0.0, 0.0, 0.0, 0.0, 0.0, 0.0, 0.0, 0.0, 0.0, 1.695764858296795E9, 0.0, 2023-09-26 16:47:38.296
72.0, 24860.68306692637, 37356.47050815469, 37301.57462377246, -2282.8507164538764, -3302.8055194384483, -9913.088072906503, 115191.99492835939, -11173.88292239701, 31580.86914788117, 52581.74122354284, -187500.02235174447, -164419.0969370719, 31587.21704330648, 11638.799207067395, -4107.200098896039, -11533.075455793794, 0.122, 1.004, 0.09, 192.0, 0.0, 0.0, 0.0, 0.0, 0.0, 0.0, 0.0, 0.0, 0.0, 1.695764858296804E9, 0.0, 2023-09-26 16:47:38.296
74.0, 24870.62959320898, 37355.03999650956, 37290.13053061134, -2270.758422703555, -3282.6218941953057, -10002.137422816448, 115095.32363359019, -11256.56202513719, 31581.718514170472, 52552.952176684405, -187500.02235174447, -164441.29221931603, 31567.23458376343, 11610.68071254262, -4138.269023688916, -11567.497142254966, 0.122, 1.004, 0.09, 192.0, 0.0, 0.0, 0.0, 0.0, 0.0, 0.0, 0.0, 0.0, 0.0, 1.695764858296813E9, 0.0, 2023-09-26 16:47:38.296
76.0, 24839.873592838478, 37329.17902817477, 37305.19560637422, -2297.8040334944767, -3287.5616297199285, -9916.843165974995, 115183.32245151073, -11181.303701556171, 31564.217098261965, 52582.92586599897, -187500.02235174447, -164440.08522511544, 31587.172339817567, 11629.59028835181, -4129.1271602066945, -11566.513665498933, 0.122, 1.004, 0.09, 192.0, 0.0, 0.0, 0.0, 0.0, 0.0, 0.0, 0.0, 0.0, 0.0, 1.695764858357097E9, 0.0, 2023-09-26 16:47:38.357
78.0, 24839.71713062729, 37329.53665608605, 37281.14512934031, -2299.9050974732754, -3287.718091931116, -9983.898399340917, 115107.88531397407, -11242.212205196884, 31556.595153402708, 52565.11152566809, -187500.02235174447, -164435.30195180202, 31553.130633012133, 11610.948933476084, -4132.904605019642, -11568.43591552209, 0.122, 1.006, 0.09, 192.0, 1.5, 104.0, 15.5, 56.0, 1.0, 104.0, 0.0, 0.0, 0.0, 1.695764858357131E9, 0.0, 2023-09-26 16:47:38.357
80.0, 24833.99508404673, 37323.6581472943, 37301.64167900583, -2294.3842165928145, -3288.3439407758647, -9914.20566012927, 115182.54014045479, -11178.6885474549, 31552.19185974501, 52572.28643563824, -187500.02235174447, -164434.6537512128, 31564.731188384438, 11614.994599222493, -4125.9532124940415, -11566.714831199031, 0.122, 1.006, 0.09, 192.0, 0.0, 0.0, 0.0, 0.0, 0.0, 0.0, 0.0, 0.0, 0.0, 1.695764858357142E9, 0.0, 2023-09-26 16:47:38.357
82.0, 24845.93091558587, 37340.31019691351, 37272.606762958385, -2286.382292077815, -3302.8278711829034, -9955.3999251604, 115131.4217008855, -11214.630152539034, 31545.73220559743, 52582.36707238759, -187500.02235174447, -164400.76850661857, 31554.829365590736, 11625.142291205204, -4104.026151183385, -11536.987011073472, 0.122, 1.006, 0.09, 192.0, 0.0, 0.0, 0.0, 0.0, 0.0, 0.0, 0.0, 0.0, 0.0, 1.695764858357153E9, 0.0, 2023-09-26 16:47:38.357
84.0, 24844.321589985084, 37340.64547308034, 37288.47650152165, -2287.701045000678, -3304.7277694616046, -9878.219351556225, 115214.25726583687, -11137.58368940159, 31542.62531311814, 52585.13868870005, -187500.02235174447, -164408.79278287804, 31557.37746445864, 11621.476605114533, -4101.522755804391, -11538.797502374353, 0.122, 1.006, 0.09, 192.0, 0.0, 0.0, 0.0, 0.0, 0.0, 0.0, 0.0, 0.0, 0.0, 1.695764858357163E9, 0.0, 2023-09-26 16:47:38.357
86.0, 24872.797712421147, 37358.86214481141, 37267.08588207792, -2275.340530316893, -3311.433292798197, -9969.794448589617, 115108.26529362981, -11227.907088745485, 31563.77006337286, 52587.95500850141, -187500.02235174447, -164387.8044948345, 31553.085929523222, 11624.449387127088, -4097.879421458176, -11530.3708947147, 0.122, 1.006, 0.09, 192.0, 0.0, 0.0, 0.0, 0.0, 0.0, 0.0, 0.0, 0.0, 0.0, 1.695764858357173E9, 0.0, 2023-09-26 16:47:38.357
88.0, 24860.437197737363, 37359.8679733119, 37296.165501614276, -2281.822536208932, -3305.1077491173446, -9909.668256004841, 115171.47602694941, -11172.050079351673, 31570.877918109647, 52569.78304025925, -187500.02235174447, -164440.68872221574, 31569.96149658698, 11600.085985670805, -4141.53237837939, -11576.840171437285, 0.13, 1.004, 0.08600000000000001, 192.0, 2.0, 8.0, 15.5, 48.0, 1.0, 88.0, 0.0, 0.0, 0.0, 1.695764858357187E9, 0.0, 2023-09-26 16:47:38.357
90.0, 24870.719000186804, 37349.16148771781, 37272.91968738076, -2290.115033401851, -3317.200042867666, -9957.54569262811, 115112.33331112067, -11220.531013075235, 31565.66996165156, 52610.79849133474, -187500.02235174447, -164379.2437767081, 31564.373560473152, 11635.044113998903, -4101.969790693497, -11526.459339435023, 0.13, 1.004, 0.08600000000000001, 192.0, 0.0, 0.0, 0.0, 0.0, 0.0, 0.0, 0.0, 0.0, 0.0, 1.695764858417347E9, 0.0, 2023-09-26 16:47:38.417
92.0, 24863.991125105757, 37353.60948486441, 37302.938080184234, -2287.566934533946, -3295.0271123680013, -9920.620610787942, 115155.67334361952, -11184.16472484645, 31581.115017070177, 52561.51289481079, -187500.02235174447, -164448.1095013749, 31574.118921055666, 11587.658415753653, -4159.547884410368, -11593.045186167383, 0.13, 1.004, 0.08600000000000001, 192.0, 0.0, 0.0, 0.0, 0.0, 0.0, 0.0, 0.0, 0.0, 0.0, 1.695764858417373E9, 0.0, 2023-09-26 16:47:38.417
94.0, 24865.846319895547, 37342.925351014776, 37277.39003627182, -2306.923545232242, -3319.546976035473, -9939.217262174758, 115130.9746659964, -11199.050986653685, 31552.72830161194, 52626.73528513137, -187500.02235174447, -164352.10875893937, 31564.753540128895, 11648.298698460902, -4080.1544881051173, -11504.80049905783, 0.13, 1.004, 0.08600000000000001, 192.0, 0.0, 0.0, 0.0, 0.0, 0.0, 0.0, 0.0, 0.0, 0.0, 1.695764858417383E9, 0.0, 2023-09-26 16:47:38.417
96.0, 24851.652962166427, 37344.35586265992, 37304.65916450729, -2298.2287166391275, -3292.300199544454, -9918.720712509241, 115159.56254715474, -11174.397012519481, 31565.133519784635, 52559.07655466516, -187500.02235174447, -164429.28933254353, 31564.932354084536, 11580.349395316767, -4151.970643040018, -11583.366880818234, 0.13, 1.004, 0.08600000000000001, 192.0, 0.0, 0.0, 0.0, 0.0, 0.0, 0.0, 0.0, 0.0, 0.0, 1.695764858417392E9, 0.0, 2023-09-26 16:47:38.417
98.0, 24864.05818033912, 37345.384042904865, 37289.52703351105, -2307.4152836102585, -3301.039731626479, -9937.496177851699, 115129.7229683069, -11197.396957563991, 31555.0975865242, 52615.0676745257, -187500.02235174447, -164344.26329663556, 31567.972191330457, 11641.123788490748, -4083.350787562226, -11507.616818859198, 0.13, 1.004, 0.08600000000000001, 192.0, 2.0, 8.0, 15.5, 48.0, 1.0, 88.0, 0.0, 0.0, 0.0, 1.695764858417432E9, 0.0, 2023-09-26 16:47:38.417
100.0, 24858.649058180938, 37342.12068821439, 37309.71065875419, -2295.5241555600355, -3278.4644697266185, -9937.987916229715, 115131.91343926352, -11190.087937127106, 31565.66996165156, 52551.74518248382, -187500.02235174447, -164417.62172193787, 31558.29388598131, 11577.264854581936, -4150.473076161513, -11579.120049371726, 0.13, 1.004, 0.08600000000000001, 192.0, 0.0, 0.0, 0.0, 0.0, 0.0, 0.0, 0.0, 0.0, 0.0, 1.695764858417441E9, 0.0, 2023-09-26 16:47:38.417
102.0, 24858.336133758563, 37345.24993243813, 37292.61157424588, -2292.081986913918, -3304.616010739328, -9936.333887140023, 115130.9746659964, -11189.551495260179, 31559.277362737343, 52607.22221222189, -187500.02235174447, -164351.70642753917, 31568.53098494184, 11631.423131397145, -4092.2467818554383, -11513.94236254005, 0.13, 1.004, 0.08600000000000001, 192.0, 0.0, 0.0, 0.0, 0.0, 0.0, 0.0, 0.0, 0.0, 0.0, 1.69576485841745E9, 0.0, 2023-09-26 16:47:38.417
104.0, 24868.036790852166, 37375.91652583081, 37314.67274602327, -2257.325024285916, -3275.1787632916885, -9956.74102982772, 115114.56848556621, -11204.460108811869, 31571.1014355542, 52538.15532185499, -187500.02235174447, -164427.8588208984, 31561.445481949508, 11569.039412622382, -4162.408907700647, -11587.636064009199, 0.13, 1.004, 0.08600000000000001, 192.0, 0.0, 0.0, 0.0, 0.0, 0.0, 0.0, 0.0, 0.0, 0.0, 1.695764858417459E9, 0.0, 2023-09-26 16:47:38.417
106.0, 24871.121331586997, 37357.92337154429, 37306.58141453045, -2272.4795070266136, -3300.100958359356, -9925.58269805702, 115140.69767483446, -11184.231780079816, 31560.014970304368, 52618.956878060926, -187500.02235174447, -164352.779311273, 31574.588307689228, 11643.627183869743, -4092.5597062778124, -11511.886002050162, 0.13, 1.004, 0.08600000000000001, 192.0, 0.0, 0.0, 0.0, 0.0, 0.0, 0.0, 0.0, 0.0, 0.0, 1.695764858476863E9, 0.0, 2023-09-26 16:47:38.476
108.0, 24878.676221212892, 37370.954438561734, 37311.72231575517, -2257.3920795192817, -3284.007702351535, -9968.140419499925, 115100.55394179272, -11219.860460741576, 31591.933261386548, 52552.393383073024, -187500.02235174447, -164435.4584140132, 31565.468795951463, 11578.069517382326, -4173.249503761471, -11596.889686213695, 0.128, 1.006, 0.08600000000000001, 192.0, 2.0, 0.0, 15.5, 56.0, 1.0, 88.0, 0.0, 0.0, 0.0, 1.695764858476893E9, 0.0, 2023-09-26 16:47:38.476
110.0, 24878.899738657445, 37365.45590942573, 37298.400676059806, -2286.382292077815, -3321.4468743141742, -9917.089035164003, 115147.38084642659, -11182.533047501212, 31570.52029019836, 52633.50786370133, -187500.02235174447, -164355.8415002634, 31582.165549059577, 11652.344364207313, -4096.426558068581, -11517.429234675079, 0.128, 1.006, 0.08600000000000001, 192.0, 0.0, 0.0, 0.0, 0.0, 0.0, 0.0, 0.0, 0.0, 0.0, 1.695764858476904E9, 0.0, 2023-09-26 16:47:38.476
112.0, 24871.747180431747, 37368.29458097155, 37300.14411212732, -2272.9712454046307, -3301.911449660236, -9960.071439751559, 115101.96210169341, -11221.73800727582, 31581.562051959285, 52571.057089693204, -187500.02235174447, -164405.1047450429, 31556.86337433617, 11593.469869312034, -4150.361317439237, -11570.358165545245, 0.128, 1.006, 0.08600000000000001, 192.0, 0.0, 0.0, 0.0, 0.0, 0.0, 0.0, 0.0, 0.0, 0.0, 1.695764858476913E9, 0.0, 2023-09-26 16:47:38.476
114.0, 24882.274852070197, 37361.92433380179, 37303.67568775126, -2289.578591534924, -3302.9172781607244, -9921.045293932593, 115135.55677360974, -11193.753623217777, 31577.62814493515, 52613.011314035815, -187500.02235174447, -164358.52370959806, 31579.483339724942, 11640.699105346097, -4108.116520418706, -11527.487519679968, 0.128, 1.006, 0.08600000000000001, 192.0, 0.0, 0.0, 0.0, 0.0, 0.0, 0.0, 0.0, 0.0, 0.0, 1.695764858476923E9, 0.0, 2023-09-26 16:47:38.476
116.0, 24886.097000372054, 37392.16624404982, 37294.51147252458, -2291.4114345802586, -3290.266190799021, -9993.666111667886, 115057.52683371626, -11258.618385627078, 31600.426924279564, 52554.561502285185, -187500.02235174447, -164416.8617626264, 31568.799205875304, 11583.702156985064, -4167.482753692002, -11585.602055263766, 0.128, 1.006, 0.08600000000000001, 192.0, 0.0, 0.0, 0.0, 0.0, 0.0, 0.0, 0.0, 0.0, 0.0, 1.695764858476932E9, 0.0, 2023-09-26 16:47:38.476
118.0, 24871.903642642934, 37354.615313364906, 37302.66985925077, -2305.0012952090856, -3302.1349671047888, -9937.406770873878, 115116.0213489558, -11208.528126302735, 31587.06058109529, 52600.89666854104, -187500.02235174447, -164389.5032274131, 31585.63006945015, 11618.190898679602, -4136.905567277142, -11555.38249676019, 0.126, 1.004, 0.082, 192.0, 1.5, 120.0, 15.5, 48.0, 1.0, 72.0, 0.0, 0.0, 0.0, 1.695764858476941E9, 0.0, 2023-09-26 16:47:38.476
120.0, 24877.491578756762, 37363.35484544693, 37289.795254444514, -2293.378388092326, -3293.6860077006827, -9999.4105099929, 115048.31791500068, -11263.871045574075, 31589.183996818545, 52561.3564325996, -187500.02235174447, -164411.94437884624, 31569.08977855322, 11581.891665684185, -4164.06293679034, -11580.95289241706, 0.126, 1.004, 0.082, 192.0, 0.0, 0.0, 0.0, 0.0, 0.0, 0.0, 0.0, 0.0, 0.0, 1.695764858536455E9, 0.0, 2023-09-26 16:47:38.536
122.0, 24869.132026330477, 37369.9709618057, 37310.51532155458, -2287.1422513892953, -3288.969789620613, -9928.734294025218, 115117.58597106767, -11207.544649546702, 31584.087799082736, 52596.20280220542, -187500.02235174447, -164394.39825944882, 31586.904118884104, 11610.658360798165, -4138.9842795114855, -11561.261005551936, 0.126, 1.004, 0.082, 192.0, 0.0, 0.0, 0.0, 0.0, 0.0, 0.0, 0.0, 0.0, 0.0, 1.69576485853648E9, 0.0, 2023-09-26 16:47:38.536
124.0, 24883.191273592864, 37381.035075311076, 37298.22186210416, -2274.334701816404, -3289.4168245097194, -9983.272550496167, 115055.09049357063, -11257.299632704215, 31584.311316527288, 52583.48465961035, -187500.02235174447, -164390.86668382486, 31570.09560705371, 11601.181221149114, -4148.394363927169, -11568.950005644561, 0.126, 1.004, 0.082, 192.0, 0.0, 0.0, 0.0, 0.0, 0.0, 0.0, 0.0, 0.0, 0.0, 1.695764858536491E9, 0.0, 2023-09-26 16:47:38.536
126.0, 24879.03384912418, 37392.9262033613, 37315.61151929039, -2276.2569518395608, -3299.5421647479734, -9909.824718216028, 115134.03685498677, -11193.418347050947, 31590.10041834121, 52610.08323551217, -187500.02235174447, -164382.3059656985, 31583.618412449174, 11623.197689437591, -4136.793808554865, -11558.735258428485, 0.126, 1.004, 0.082, 192.0, 0.0, 0.0, 0.0, 0.0, 0.0, 0.0, 0.0, 0.0, 0.0, 1.6957648585365E9, 0.0, 2023-09-26 16:47:38.536
128.0, 24910.30393961715, 37396.03309584059, 37298.31126908198, -2257.1462103302733, -3304.1466241057665, -9991.207419777802, 115040.74067363032, -11272.878798589563, 31606.238377837944, 52601.187241218955, -187500.02235174447, -164380.07079125295, 31569.67092390906, 11615.955724234072, -4145.890968548175, -11563.943214886573, 0.126, 1.002, 0.088, 192.0, 1.5, 120.0, 15.5, 40.0, 1.0, 96.0, 0.0, 0.0, 0.0, 1.69576485853651E9, 0.0, 2023-09-26 16:47:38.536
130.0, 24905.766535492723, 37403.45387499975, 37332.33062414296, -2260.186047576195, -3299.31864730342, -9902.381587312411, 115135.86969803211, -11191.563152261157, 31610.574616262275, 52626.422360708995, -187500.02235174447, -164384.11645699936, 31603.533816758852, 11634.507672131977, -4138.2243202000045, -11559.4281625066, 0.126, 1.002, 0.088, 192.0, 0.0, 0.0, 0.0, 0.0, 0.0, 0.0, 0.0, 0.0, 0.0, 1.69576485853652E9, 0.0, 2023-09-26 16:47:38.536
132.0, 24910.326291361605, 37415.143837349875, 37303.005135417596, -2274.915847172242, -3308.4158072967302, -9979.293939983123, 115049.21198477889, -11267.357917709103, 31618.82240996628, 52638.60406143714, -187500.02235174447, -164351.3935031168, 31592.089723597735, 11641.481416402034, -4125.752046793944, -11539.177482030093, 0.126, 1.002, 0.088, 192.0, 0.0, 0.0, 0.0, 0.0, 0.0, 0.0, 0.0, 0.0, 0.0, 1.695764858536529E9, 0.0, 2023-09-26 16:47:38.536
134.0, 24878.16213109042, 37399.698781931256, 37311.8564262219, -2299.6815800287222, -3305.6888944731827, -9904.415596057845, 115128.58302933969, -11198.246323853295, 31605.768991204382, 52614.50888091432, -187500.02235174447, -164383.557663388, 31589.67573519656, 11617.877974257228, -4149.087268005284, -11569.397040533668, 0.126, 1.002, 0.088, 192.0, 0.0, 0.0, 0.0, 0.0, 0.0, 0.0, 0.0, 0.0, 0.0, 1.695764858536539E9, 0.0, 2023-09-26 16:47:38.536
136.0, 24878.25153806824, 37383.82904336799, 37276.27244904905, -2308.823443510943, -3312.997914910068, -9958.797390317606, 115063.9641361194, -11251.957565779396, 31595.26367131039, 52630.0209915663, -187500.02235174447, -164335.3896540868, 31569.29094425332, 11635.424093654645, -4113.279773387882, -11527.643981891153, 0.126, 1.002, 0.088, 192.0, 0.0, 0.0, 0.0, 0.0, 0.0, 0.0, 0.0, 0.0, 0.0, 1.695764858596697E9, 0.0, 2023-09-26 16:47:38.596
138.0, 24871.81423566511, 37389.349924248454, 37302.871024950866, -2306.185937665217, -3292.0766820999006, -9908.327151337524, 115118.72591003489, -11203.566039033656, 31591.68739219754, 52606.708122099415, -187500.02235174447, -164373.02999174953, 31572.844871621714, 11602.768195005441, -4143.812256313831, -11562.892682897173, 0.132, 1.002, 0.08600000000000001, 192.0, 2.0, 16.0, 15.5, 40.0, 1.0, 88.0, 0.0, 0.0, 0.0, 1.695764858596729E9, 0.0, 2023-09-26 16:47:38.596
140.0, 24880.93374740288, 37414.89796816087, 37277.16651882727, -2312.243260412605, -3306.6276677403057, -9958.886797295429, 115060.49961572881, -11252.069324501674, 31587.485264239942, 52636.570052691706, -187500.02235174447, -164315.16132535474, 31566.541679685317, 11638.218061711557, -4105.121386661695, -11514.456452662524, 0.132, 1.002, 0.08600000000000001, 192.0, 0.0, 0.0, 0.0, 0.0, 0.0, 0.0, 0.0, 0.0, 0.0, 1.69576485859674E9, 0.0, 2023-09-26 16:47:38.596
142.0, 24859.05138958113, 37440.64717777338, 37303.72039124017, -2316.26657441456, -3300.905621159747, -9913.602163028976, 115116.71425303392, -11201.844954710597, 31588.602851462707, 52629.149273532545, -187500.02235174447, -164378.4614656522, 31571.235546020933, 11588.23956110949, -4158.430297187602, -11568.592377733277, 0.132, 1.002, 0.08600000000000001, 192.0, 0.0, 0.0, 0.0, 0.0, 0.0, 0.0, 0.0, 0.0, 0.0, 1.695764858596785E9, 0.0, 2023-09-26 16:47:38.596
144.0, 24873.200043821344, 37392.81444463902, 37275.266620548566, -2313.9419929912083, -3319.32345859092, -9942.435913376321, 115083.09722937313, -11230.768112035765, 31580.422112992062, 52676.691433988984, -187500.02235174447, -164299.5821594694, 31559.25501099289, 11636.720494833053, -4098.259401113916, -11496.440946631545, 0.132, 1.002, 0.08600000000000001, 192.0, 0.0, 0.0, 0.0, 0.0, 0.0, 0.0, 0.0, 0.0, 0.0, 1.695764858596795E9, 0.0, 2023-09-26 16:47:38.596
146.0, 24864.751084417236, 37393.328534761495, 37291.49398702312, -2303.794301008499, -3298.5810397363953, -9917.826642731028, 115116.91541873402, -11202.850783211086, 31590.54745323032, 52615.738226859365, -187500.02235174447, -164355.4838723521, 31561.91486858307, 11583.411584307145, -4151.210683728538, -11551.560348458332, 0.132, 1.002, 0.08600000000000001, 192.0, 0.0, 0.0, 0.0, 0.0, 0.0, 0.0, 0.0, 0.0, 0.0, 1.695764858596804E9, 0.0, 2023-09-26 16:47:38.596
148.0, 24883.10186661504, 37373.36842696291, 37269.79044315701, -2297.401702094281, -3310.9415544201797, -9939.217262174758, 115091.23326435486, -11226.945963733908, 31584.40072350511, 52660.44171576998, -187500.02235174447, -164278.88444410378, 31565.87112735166, 11638.463930900567, -4089.2963515873375, -11483.298120891825, 0.128, 1.0, 0.084, 192.0, 2.0, 0.0, 15.5, 32.0, 1.0, 80.0, 0.0, 0.0, 0.0, 1.695764858596813E9, 0.0, 2023-09-26 16:47:38.596
150.0, 24879.793808435657, 37393.14972080585, 37293.215071346174, -2268.8808761693094, -3273.8600103688254, -9943.329983154534, 115091.88146494408, -11221.73800727582, 31601.522159757875, 52564.150400656516, -187500.02235174447, -164367.50911086908, 31563.63595290613, 11570.425220778612, -4166.119297280228, -11572.392174290679, 0.128, 1.0, 0.084, 192.0, 0.0, 0.0, 0.0, 0.0, 0.0, 0.0, 0.0, 0.0, 0.0, 1.69576485865694E9, 0.0, 2023-09-26 16:47:38.656
152.0, 24888.846264940057, 37381.54916543355, 37283.514414252575, -2267.539771501991, -3288.6345134537833, -9946.056895978081, 115084.55009276273, -11228.041199212217, 31584.624240949663, 52638.0229160813, -187500.02235174447, -164292.29549077697, 31573.716589655472, 11632.227794197535, -4095.510136545913, -11498.027920487872, 0.128, 1.0, 0.084, 192.0, 0.0, 0.0, 0.0, 0.0, 0.0, 0.0, 0.0, 0.0, 0.0, 1.695764858656968E9, 0.0, 2023-09-26 16:47:38.656
154.0, 24891.416715552416, 37397.55301446355, 37307.76605698658, -2257.3920795192817, -3268.3391294883645, -9966.709907854785, 115069.23914781085, -11239.306478417693, 31606.417191793586, 52581.94238924294, -187500.02235174447, -164367.0397242355, 31571.034380320834, 11569.799371933863, -4162.721832123021, -11574.180313847102, 0.128, 1.0, 0.084, 192.0, 0.0, 0.0, 0.0, 0.0, 0.0, 0.0, 0.0, 0.0, 0.0, 1.695764858656981E9, 0.0, 2023-09-26 16:47:38.656
156.0, 24893.607186509038, 37387.53943294757, 37299.13828362683, -2272.0995273708736, -3288.098071586856, -9944.179349443835, 115089.08749688715, -11227.661219556478, 31598.459970767497, 52651.00927960984, -187500.02235174447, -164301.035022859, 31588.133464829145, 11625.052884227382, -4098.281752858371, -11510.589600871755, 0.128, 1.0, 0.084, 192.0, 0.0, 0.0, 0.0, 0.0, 0.0, 0.0, 0.0, 0.0, 0.0, 1.695764858656995E9, 0.0, 2023-09-26 16:47:38.656
158.0, 24891.59552950806, 37408.23714831319, 37294.93615566923, -2262.6223877218235, -3277.302179014943, -9974.331852714045, 115059.73965641734, -11256.293804203726, 31607.3112615718, 52592.939447514946, -187500.02235174447, -164357.02614271952, 31569.380351231142, 11565.61959572072, -4148.863750560731, -11569.486447511488, 0.126, 1.002, 0.08, 192.0, 1.5, 120.0, 15.5, 40.0, 1.0, 64.0, 0.0, 0.0, 0.0, 1.695764858657004E9, 0.0, 2023-09-26 16:47:38.657
160.0, 24890.701459729848, 37401.48692148768, 37286.75541719859, -2271.026643637019, -3298.804557180948, -9933.361105127467, 115102.05150867124, -11233.18210043694, 31585.563014216783, 52658.78768668028, -187500.02235174447, -164283.8688831173, 31576.041171078825, 11628.584459851321, -4079.8415636827426, -11496.08331872026, 0.126, 1.002, 0.08, 192.0, 0.0, 0.0, 0.0, 0.0, 0.0, 0.0, 0.0, 0.0, 0.0, 1.695764858657014E9, 0.0, 2023-09-26 16:47:38.657
162.0, 24885.82877943859, 37414.33917454948, 37287.02363813206, -2263.82938192241, -3284.6111994518283, -9966.128762498947, 115070.78141817826, -11268.989595054341, 31598.01293587839, 52615.55941290372, -187500.02235174447, -164329.06411040595, 31560.05967379328, 11582.182238362104, -4126.869634016709, -11540.563290186321, 0.126, 1.002, 0.08, 192.0, 0.0, 0.0, 0.0, 0.0, 0.0, 0.0, 0.0, 0.0, 0.0, 1.695764858657023E9, 0.0, 2023-09-26 16:47:38.657
164.0, 24889.561520762625, 37391.54039520507, 37295.83022544745, -2270.825477936921, -3288.36629252032, -9923.883965478417, 115114.59083731066, -11252.51635939078, 31599.264633567887, 52662.363965793134, -187500.02235174447, -164280.65023191576, 31575.594136189717, 11627.846852284296, -4083.7307672179663, -11490.540086095345, 0.126, 1.002, 0.08, 192.0, 0.0, 0.0, 0.0, 0.0, 0.0, 0.0, 0.0, 0.0, 0.0, 1.695764858657063E9, 0.0, 2023-09-26 16:47:38.657
166.0, 24899.843323212066, 37403.56563372203, 37290.17523410025, -2258.643777208779, -3275.5140394585183, -9992.570876189575, 115044.67458065446, -11323.326685825192, 31613.525046530372, 52620.18622400597, -187500.02235174447, -164318.64819748976, 31560.417301704565, 11585.870276197229, -4127.607241583734, -11527.80044410234, 0.126, 1.002, 0.08, 192.0, 0.0, 0.0, 0.0, 0.0, 0.0, 0.0, 0.0, 0.0, 0.0, 1.695764858717405E9, 0.0, 2023-09-26 16:47:38.717
168.0, 24888.376878306495, 37408.12538959091, 37311.38703958834, -2267.048033123974, -3281.3254930168982, -9933.2940498941, 115108.73468026337, -11279.629025415066, 31613.793267463836, 52650.94222437647, -187500.02235174447, -164305.2818543055, 31588.044057851323, 11622.504785359477, -4110.821081497798, -11507.773281070386, 0.122, 1.004, 0.084, 192.0, 1.5, 104.0, 15.5, 48.0, 1.0, 80.0, 0.0, 0.0, 0.0, 1.695764858717429E9, 0.0, 2023-09-26 16:47:38.717
170.0, 24892.042564397165, 37412.774552437615, 37296.791350459025, -2264.142306344784, -3277.83862088187, -10003.4114722504, 115038.79607186271, -11349.187654159983, 31621.97400593448, 52614.30771521422, -187500.02235174447, -164328.70648249466, 31566.742845385415, 11598.767232747941, -4142.068820246318, -11536.227051761993, 0.122, 1.004, 0.084, 192.0, 0.0, 0.0, 0.0, 0.0, 0.0, 0.0, 0.0, 0.0, 0.0, 1.695764858717445E9, 0.0, 2023-09-26 16:47:38.717
172.0, 24879.614994480016, 37390.78043589359, 37306.40260057481, -2280.079100141418, -3284.1194610738116, -9921.179404399325, 115128.11364270613, -11285.32872025117, 31615.000261664423, 52647.611814452626, -187500.02235174447, -164306.4888485061, 31584.78070316085, 11633.993582009505, -4115.9172792336085, -11513.003589272928, 0.122, 1.004, 0.084, 192.0, 0.0, 0.0, 0.0, 0.0, 0.0, 0.0, 0.0, 0.0, 0.0, 1.695764858717454E9, 0.0, 2023-09-26 16:47:38.717
174.0, 24890.9249771744, 37401.68808718778, 37275.78071067104, -2273.7088529716557, -3287.8298506533924, -9997.55531520311, 115050.01664757928, -11360.654099065554, 31626.913741459102, 52629.79747412175, -187500.02235174447, -164296.3858600123, 31559.411473204076, 11627.466872628554, -4120.208814169027, -11511.66248460561, 0.122, 1.004, 0.084, 192.0, 0.0, 0.0, 0.0, 0.0, 0.0, 0.0, 0.0, 0.0, 0.0, 1.695764858717463E9, 0.0, 2023-09-26 16:47:38.717
176.0, 24882.29720381465, 37401.73279067669, 37298.37832431535, -2273.083004126907, -3277.972731348602, -9934.992782472704, 115127.10781420564, -11306.272304805792, 31633.194581651045, 52635.18424453548, -187500.02235174447, -164306.46649676163, 31573.180147788546, 11644.767122836964, -4124.76857003791, -11517.250420719436, 0.122, 1.004, 0.084, 192.0, 0.0, 0.0, 0.0, 0.0, 0.0, 0.0, 0.0, 0.0, 0.0, 1.695764858717472E9, 0.0, 2023-09-26 16:47:38.717
178.0, 24914.12608791901, 37412.19340708177, 37280.27341130655, -2261.281283054505, -3270.6413591672613, -10033.116940631502, 115020.46764140936, -11404.821146109241, 31646.627980068683, 52630.78095087779, -187500.02235174447, -164294.44125824468, 31560.260839493378, 11659.11694277727, -4126.489654360968, -11509.382606671168, 0.122, 1.006, 0.084, 192.0, 1.5, 104.0, 15.5, 56.0, 1.0, 80.0, 0.0, 0.0, 0.0, 1.695764858717487E9, 0.0, 2023-09-26 16:47:38.717
180.0, 24895.283567343184, 37419.27891007411, 37313.46575182268, -2262.2871115549938, -3265.8580858538257, -9972.029623035149, 115088.95338642043, -11357.34604088617, 31656.730968562482, 52619.89565132805, -187500.02235174447, -164353.15929092877, 31582.67963918205, 11649.751561850497, -4175.7305473960105, -11560.52339798491, 0.122, 1.006, 0.084, 192.0, 0.0, 0.0, 0.0, 0.0, 0.0, 0.0, 0.0, 0.0, 0.0, 1.695764858776791E9, 0.0, 2023-09-26 16:47:38.776
182.0, 24910.348643106063, 37410.517026247624, 37278.41821651676, -2264.432879022703, -3277.592751692862, -10041.007106424226, 115009.20236220388, -11433.699599945498, 31640.436546854562, 52648.26001504184, -187500.02235174447, -164312.50146776455, 31564.664133151073, 11679.367623253778, -4145.443933659069, -11523.486557422466, 0.122, 1.006, 0.084, 192.0, 0.0, 0.0, 0.0, 0.0, 0.0, 0.0, 0.0, 0.0, 0.0, 1.695764858776815E9, 0.0, 2023-09-26 16:47:38.776
184.0, 24896.64702375496, 37405.26436630063, 37298.892414437825, -2268.2326755801055, -3268.3167777439094, -9989.799259877118, 115066.17695882046, -11393.175887248026, 31637.17319216409, 52624.209538007926, -187500.02235174447, -164365.6986195682, 31577.91871761307, 11653.886634574728, -4187.77813765742, -11568.748839944463, 0.122, 1.006, 0.084, 192.0, 0.0, 0.0, 0.0, 0.0, 0.0, 0.0, 0.0, 0.0, 0.0, 1.695764858776825E9, 0.0, 2023-09-26 16:47:38.776
186.0, 24906.101811659555, 37420.955290908256, 37276.38420777133, -2268.702062213667, -3280.74434766106, -10038.056676156126, 115009.76115581527, -11448.78702745283, 31633.88748572916, 52645.309584773735, -187500.02235174447, -164332.61803777434, 31574.38714198913, 11684.55322796741, -4169.248541503971, -11542.418484976111, 0.122, 1.006, 0.084, 192.0, 0.0, 0.0, 0.0, 0.0, 0.0, 0.0, 0.0, 0.0, 0.0, 1.695764858776872E9, 0.0, 2023-09-26 16:47:38.776
188.0, 24891.953157419346, 37412.282814059596, 37299.04887664901, -2270.378443047815, -3277.190420292666, -9974.510666669687, 115081.80082819473, -11392.661797125555, 31627.941921704045, 52630.758599133325, -187500.02235174447, -164360.1330351988, 31570.497938453907, 11665.755410880496, -4185.431204489613, -11562.088020096782, 0.124, 1.01, 0.082, 192.0, 1.5, 112.0, 15.5, 72.0, 1.0, 72.0, 0.0, 0.0, 0.0, 1.695764858776882E9, 0.0, 2023-09-26 16:47:38.776
190.0, 24903.08432615809, 37405.66669770083, 37273.34437052541, -2276.59222800639, -3295.3623885348306, -9999.70108267082, 115047.04386556672, -11426.88231788663, 31617.481305298963, 52669.24830308537, -187500.02235174447, -164287.04283082997, 31560.774929615847, 11705.228591588568, -4130.110636962729, -11493.26699891889, 0.124, 1.01, 0.082, 192.0, 0.0, 0.0, 0.0, 0.0, 0.0, 0.0, 0.0, 0.0, 0.0, 1.695764858776891E9, 0.0, 2023-09-26 16:47:38.776
192.0, 24897.831666211092, 37429.895988690376, 37299.80883596049, -2264.142306344784, -3275.26817026951, -9972.700175368807, 115076.63757522556, -11407.5927624217, 31632.613436295207, 52607.40102617753, -187500.02235174447, -164359.41777937626, 31565.267630251365, 11646.912890304673, -4193.142556326694, -11557.550615972355, 0.124, 1.01, 0.082, 192.0, 0.0, 0.0, 0.0, 0.0, 0.0, 0.0, 0.0, 0.0, 0.0, 1.6957648587769E9, 0.0, 2023-09-26 16:47:38.776
194.0, 24903.620768025015, 37408.281851802094, 37273.88081239234, -2276.1675448617393, -3298.513984503029, -9987.094698798026, 115050.50838595729, -11431.620887711155, 31610.731078473462, 52673.71865197643, -187500.02235174447, -164272.6259556563, 31565.602906418197, 11708.335484067857, -4120.521738591402, -11476.056155688306, 0.124, 1.01, 0.082, 192.0, 0.0, 0.0, 0.0, 0.0, 0.0, 0.0, 0.0, 0.0, 0.0, 1.695764858776909E9, 0.0, 2023-09-26 16:47:38.776
196.0, 24890.477942285295, 37405.75610467864, 37287.89535616581, -2270.7137192146447, -3278.9562081046356, -9971.11320151248, 115068.14391233253, -11420.892050372608, 31619.40355532212, 52607.93746804446, -187500.02235174447, -164348.6889420377, 31561.467833693965, 11643.53777689192, -4190.370940014236, -11550.398057746657, 0.124, 1.01, 0.082, 192.0, 0.0, 0.0, 0.0, 0.0, 0.0, 0.0, 0.0, 0.0, 0.0, 1.695764858837505E9, 0.0, 2023-09-26 16:47:38.837
198.0, 24906.280625615196, 37407.92422389081, 37271.37741701334, -2273.1053558713625, -3289.7744524210043, -9999.678730926364, 115029.4977461693, -11463.874454960163, 31614.15089537512, 52658.20654132444, -187500.02235174447, -164287.8251418859, 31566.653438407593, 11691.12464083727, -4142.895834791164, -11496.440946631545, 0.128, 1.006, 0.078, 192.0, 2.0, 0.0, 15.5, 56.0, 1.0, 56.0, 0.0, 0.0, 0.0, 1.695764858837527E9, 0.0, 2023-09-26 16:47:38.837
200.0, 24900.513875545726, 37416.9319769063, 37292.43276029024, -2269.8867046697983, -3273.5023824575405, -9989.978073832759, 115043.86991785407, -11452.676230988054, 31629.014805437902, 52599.242639451346, -187500.02235174447, -164371.1524452153, 31562.38425521663, 11629.791454051907, -4215.159024615172, -11573.15213360216, 0.128, 1.006, 0.078, 192.0, 0.0, 0.0, 0.0, 0.0, 0.0, 0.0, 0.0, 0.0, 0.0, 1.695764858837537E9, 0.0, 2023-09-26 16:47:38.837
202.0, 24893.093096386565, 37409.17592158031, 37280.60868747338, -2287.1646031337505, -3301.352656048853, -9970.643814878918, 115060.27609828426, -11442.752056449897, 31615.91668318709, 52667.97425365142, -187500.02235174447, -164293.59189195538, 31576.845833879215, 11696.287893806446, -4144.393401669669, -11494.541048352845, 0.128, 1.006, 0.078, 192.0, 0.0, 0.0, 0.0, 0.0, 0.0, 0.0, 0.0, 0.0, 0.0, 1.695764858837546E9, 0.0, 2023-09-26 16:47:38.837
204.0, 24886.342869561064, 37426.20795085525, 37286.017809631565, -2281.5766670199237, -3280.74434766106, -9992.034434322648, 115039.01958930727, -11461.706335747998, 31621.817543723293, 52596.873354539086, -187500.02235174447, -164366.01154399058, 31560.52906042684, 11625.477567372032, -4214.466120537058, -11562.199778819058, 0.128, 1.006, 0.078, 192.0, 0.0, 0.0, 0.0, 0.0, 0.0, 0.0, 0.0, 0.0, 0.0, 1.695764858837555E9, 0.0, 2023-09-26 16:47:38.837
206.0, 24891.081439385587, 37398.648249941856, 37274.976047870645, -2295.9488387046863, -3304.1466241057665, -9946.928614011838, 115079.81152293821, -11430.637410955122, 31595.710706199494, 52665.649672228064, -187500.02235174447, -164281.70076390516, 31566.698141896504, 11688.621245458275, -4136.1679597101165, -11473.798629498318, 0.128, 1.006, 0.078, 192.0, 0.0, 0.0, 0.0, 0.0, 0.0, 0.0, 0.0, 0.0, 0.0, 1.695764858837564E9, 0.0, 2023-09-26 16:47:38.837
208.0, 24899.463343556326, 37415.702630961256, 37284.073207863956, -2273.1053558713625, -3278.0844900708785, -10004.663169939897, 115017.31604544117, -11490.98712098445, 31626.01967168089, 52585.943351500435, -187500.02235174447, -164359.46248286517, 31562.29484823881, 11611.910058487661, -4214.488472281512, -11554.801351404352, 0.124, 1.004, 0.08, 192.0, 1.5, 112.0, 15.5, 48.0, 1.0, 64.0, 0.0, 0.0, 0.0, 1.695764858837603E9, 0.0, 2023-09-26 16:47:38.837
210.0, 24890.008555651733, 37417.40136353986, 37293.1033126239, -2284.2588763545605, -3285.1923448076664, -9948.314422168067, 115067.38395302105, -11453.07856238825, 31617.68247099906, 52636.7265149029, -187500.02235174447, -164315.96598815513, 31582.34436301522, 11667.901178348206, -4170.835515360298, -11509.986103771462, 0.124, 1.004, 0.08, 192.0, 0.0, 0.0, 0.0, 0.0, 0.0, 0.0, 0.0, 0.0, 0.0, 1.695764858837612E9, 0.0, 2023-09-26 16:47:38.837
212.0, 24882.274852070197, 37412.95336639325, 37271.51152748007, -2290.8079374799654, -3288.2098303091325, -9976.142344014925, 115036.69500788391, -11475.944396966028, 31604.651403981617, 52603.82474706468, -187500.02235174447, -164325.73370048212, 31553.376502201143, 11637.659268100175, -4186.548791712379, -11522.324266710792, 0.124, 1.004, 0.08, 192.0, 0.0, 0.0, 0.0, 0.0, 0.0, 0.0, 0.0, 0.0, 0.0, 1.695764858897892E9, 0.0, 2023-09-26 16:47:38.897
214.0, 24878.49740725725, 37418.295433318075, 37275.8477659044, -2295.5241555600355, -3296.815251924426, -9926.29795387959, 115085.9135491745, -11438.728742447942, 31601.030421379855, 52637.821750381205, -187500.02235174447, -164285.41115348472, 31566.87695585215, 11677.087745319337, -4148.2602534604375, -11481.487629590945, 0.124, 1.004, 0.08, 192.0, 0.0, 0.0, 0.0, 0.0, 0.0, 0.0, 0.0, 0.0, 0.0, 1.695764858897914E9, 0.0, 2023-09-26 16:47:38.897
216.0, 24895.708250487834, 37416.50729376165, 37259.396881985296, -2285.7117397441557, -3290.132080332289, -10012.307466543612, 114997.8476760206, -11519.664409120609, 31610.127581373166, 52592.090081225644, -187500.02235174447, -164321.53157252452, 31549.487298665917, 11633.3453814203, -4195.891820894697, -11524.067702778304, 0.124, 1.004, 0.08, 192.0, 0.0, 0.0, 0.0, 0.0, 0.0, 0.0, 0.0, 0.0, 0.0, 1.695764858897924E9, 0.0, 2023-09-26 16:47:38.897
218.0, 24872.149511831944, 37391.11571206042, 37276.85359440489, -2301.1120916738623, -3299.5421647479734, -9927.01320970216, 115085.9135491745, -11444.339030306224, 31605.67958422656, 52612.60898263562, -187500.02235174447, -164328.25944760555, 31579.326877513755, 11649.840968828317, -4200.11630059675, -11526.861670835218, 0.124, 1.0, 0.084, 192.0, 1.5, 112.0, 15.5, 32.0, 1.0, 80.0, 0.0, 0.0, 0.0, 1.695764858897934E9, 0.0, 2023-09-26 16:47:38.897
220.0, 24867.857976896525, 37390.13223530439, 37248.57863766893, -2307.571745821446, -3313.713170732638, -9964.854713064995, 115043.62404866506, -11475.005623698906, 31582.165549059577, 52617.03462803777, -187500.02235174447, -164285.38880174028, 31548.1461939986, 11650.690335117619, -4169.092079292784, -11488.707243050008, 0.124, 1.0, 0.084, 192.0, 0.0, 0.0, 0.0, 0.0, 0.0, 0.0, 0.0, 0.0, 0.0, 1.695764858897943E9, 0.0, 2023-09-26 16:47:38.897
222.0, 24871.546014731648, 37389.126406803894, 37264.60483844338, -2316.7806645370324, -3311.5003480315627, -9898.939418666294, 115115.08257568868, -11419.573297449744, 31570.67675240955, 52629.03751481027, -187500.02235174447, -164257.4714729156, 31555.745787113407, 11664.034326557437, -4141.6888405905775, -11455.35844032269, 0.124, 1.0, 0.084, 192.0, 0.0, 0.0, 0.0, 0.0, 0.0, 0.0, 0.0, 0.0, 0.0, 1.695764858897953E9, 0.0, 2023-09-26 16:47:38.897
224.0, 24888.35452656204, 37409.332383791494, 37252.28902724851, -2302.1626236632615, -3294.93770539018, -9989.575742432564, 115018.61244661958, -11505.493403135944, 31603.287947569843, 52593.40883414851, -187500.02235174447, -164280.3149557489, 31556.706912124984, 11633.859471542773, -4176.378747985214, -11482.649920302621, 0.124, 1.0, 0.084, 192.0, 0.0, 0.0, 0.0, 0.0, 0.0, 0.0, 0.0, 0.0, 0.0, 1.695764858897962E9, 0.0, 2023-09-26 16:47:38.897
226.0, 24869.087322841566, 37400.950479620755, 37278.66408570577, -2300.732112018122, -3286.779318663993, -9935.193948172802, 115075.05060136922, -11463.583882282244, 31599.510502756897, 52590.4137003915, -187500.02235174447, -164317.46355503364, 31576.28704026783, 11627.042189483904, -4203.580820987323, -11511.03663576086, 0.124, 1.0, 0.084, 192.0, 0.0, 0.0, 0.0, 0.0, 0.0, 0.0, 0.0, 0.0, 0.0, 1.695764858958089E9, 0.0, 2023-09-26 16:47:38.958
228.0, 24879.88321541348, 37386.824177125, 37251.841992359405, -2298.4969375725914, -3299.1174816033226, -10000.796318149129, 114998.98761498781, -11529.789749358863, 31599.242281823434, 52600.762558074304, -187500.02235174447, -164295.536493723, 31557.556278414286, 11634.35120992079, -4199.781024429921, -11495.4127663866, 0.124, 1.002, 0.084, 192.0, 1.5, 112.0, 15.5, 40.0, 1.0, 80.0, 0.0, 0.0, 0.0, 1.695764858958116E9, 0.0, 2023-09-26 16:47:38.958
230.0, 24869.333192030575, 37394.22260453971, 37283.0003241301, -2298.07225442794, -3293.1272140893, -9928.264907391656, 115078.51512175979, -11463.002736926406, 31589.742790429926, 52595.28638068276, -187500.02235174447, -164317.35179631136, 31563.680656395038, 11628.91973601815, -4212.677980980633, -11510.813118316308, 0.124, 1.002, 0.084, 192.0, 0.0, 0.0, 0.0, 0.0, 0.0, 0.0, 0.0, 0.0, 0.0, 1.69576485895816E9, 0.0, 2023-09-26 16:47:38.958
232.0, 24888.533340517683, 37415.4791135167, 37260.626227930334, -2289.466832812647, -3295.787071679482, -9993.666111667886, 115003.72618481233, -11527.442816191056, 31595.86716841068, 52617.772235604796, -187500.02235174447, -164277.520987692, 31561.33372322723, 11651.249128729001, -4190.370940014236, -11479.230103400958, 0.124, 1.002, 0.084, 192.0, 0.0, 0.0, 0.0, 0.0, 0.0, 0.0, 0.0, 0.0, 0.0, 1.69576485895817E9, 0.0, 2023-09-26 16:47:38.958
234.0, 24876.910433400924, 37410.22645356971, 37289.97406840015, -2294.0712921704403, -3288.008664609035, -9931.34944812649, 115070.42379026697, -11471.027013185862, 31600.58338649075, 52584.60224683312, -187500.02235174447, -164324.90668593725, 31569.894441353616, 11629.858509285274, -4221.261050851471, -11518.5691736423, 0.124, 1.002, 0.084, 192.0, 0.0, 0.0, 0.0, 0.0, 0.0, 0.0, 0.0, 0.0, 0.0, 1.695764858958179E9, 0.0, 2023-09-26 16:47:38.958
236.0, 24886.342869561064, 37407.18661632379, 37262.05673957548, -2303.1684521637503, -3299.005722881046, -9975.583550403542, 115013.56095237267, -11519.418539931601, 31598.147046345122, 52622.06377054021, -187500.02235174447, -164267.03801954247, 31563.479490694943, 11669.108172548793, -4174.300035750871, -11467.741306750931, 0.124, 1.002, 0.084, 192.0, 0.0, 0.0, 0.0, 0.0, 0.0, 0.0, 0.0, 0.0, 0.0, 1.695764858958188E9, 0.0, 2023-09-26 16:47:38.958
238.0, 24852.77054938919, 37393.01561033912, 37279.96048688418, -2321.9662692506636, -3298.9610193921353, -9899.609970999953, 115101.8726947156, -11436.873547658151, 31589.07223809627, 52581.65181656502, -187500.02235174447, -164316.70359572215, 31565.647609907104, 11630.73022731903, -4209.325219312336, -11509.114385737705, 0.128, 1.006, 0.084, 192.0, 2.0, 0.0, 15.5, 56.0, 1.0, 80.0, 0.0, 0.0, 0.0, 1.695764858958197E9, 0.0, 2023-09-26 16:47:38.958
240.0, 24875.032886866677, 37393.28383127259, 37250.90321909228, -2317.562975592968, -3320.642211513783, -9941.20656743128, 115055.13519705954, -11475.251492887914, 31571.123787298657, 52629.26103225482, -187500.02235174447, -164216.79129800695, 31545.218115474956, 11685.313187278889, -4125.126197949195, -11410.900820601086, 0.128, 1.006, 0.084, 192.0, 0.0, 0.0, 0.0, 0.0, 0.0, 0.0, 0.0, 0.0, 0.0, 1.695764858958206E9, 0.0, 2023-09-26 16:47:38.958
242.0, 24870.33902053106, 37406.85134015696, 37272.98674261412, -2305.1354056758173, -3295.3623885348306, -9931.43885510431, 115069.30620304421, -11462.89097820413, 31597.945880645024, 52553.510970295785, -187500.02235174447, -164308.1428775958, 31553.421205690054, 11620.671942314142, -4209.302867567882, -11495.278655919868, 0.128, 1.006, 0.084, 192.0, 0.0, 0.0, 0.0, 0.0, 0.0, 0.0, 0.0, 0.0, 0.0, 1.695764859017466E9, 0.0, 2023-09-26 16:47:39.017
244.0, 24890.857921941035, 37403.27506104411, 37258.681626162725, -2307.3258766324375, -3304.4371967836855, -9978.958663816293, 115014.99146401782, -11516.758682341419, 31601.432752780052, 52592.04537773674, -187500.02235174447, -164258.61141188283, 31566.832252363238, 11663.699050390607, -4173.405965972658, -11446.238928584926, 0.128, 1.006, 0.084, 192.0, 0.0, 0.0, 0.0, 0.0, 0.0, 0.0, 0.0, 0.0, 0.0, 1.695764859017504E9, 0.0, 2023-09-26 16:47:39.017
246.0, 24869.668468197404, 37401.844549398964, 37275.71365543767, -2312.109149945873, -3288.1204233313115, -9971.426125934855, 115030.01183629179, -11505.694568836043, 31607.1100958717, 52535.56251949818, -187500.02235174447, -164340.4411483337, 31566.92165934106, 11603.461099083555, -4245.691507541122, -11519.105615509226, 0.128, 1.006, 0.084, 192.0, 0.0, 0.0, 0.0, 0.0, 0.0, 0.0, 0.0, 0.0, 0.0, 1.695764859017514E9, 0.0, 2023-09-26 16:47:39.017
248.0, 24873.73648568827, 37394.40141849535, 37264.8954111213, -2314.7466557915996, -3301.039731626479, -9987.988768576237, 115004.57555110163, -11529.65563889213, 31594.59311897673, 52595.666360338495, -187500.02235174447, -164283.4218482282, 31573.02368557736, 11654.132503763736, -4198.574030229334, -11463.807399726797, 0.124, 1.01, 0.08, 192.0, 1.5, 112.0, 15.5, 72.0, 1.0, 64.0, 0.0, 0.0, 0.0, 1.695764859017523E9, 0.0, 2023-09-26 16:47:39.017
250.0, 24871.188386820366, 37411.92518614831, 37281.27923980704, -2302.989638208108, -3275.2458185250543, -10009.424091508878, 114982.40262060198, -11544.474845466, 31602.885616169646, 52531.96388864087, -187500.02235174447, -164369.2972504255, 31567.458101207987, 11586.920808186629, -4274.972292777574, -11542.865519865218, 0.124, 1.01, 0.08, 192.0, 0.0, 0.0, 0.0, 0.0, 0.0, 0.0, 0.0, 0.0, 0.0, 1.695764859017532E9, 0.0, 2023-09-26 16:47:39.017
252.0, 24857.82204363609, 37398.60354645295, 37270.505698979585, -2317.942955248708, -3294.6918362011716, -9963.290090953124, 115024.11097575558, -11505.403996158124, 31592.73792418694, 52592.537116114756, -187500.02235174447, -164308.25463631804, 31578.96924960247, 11650.153893250692, -4219.383504317225, -11479.364213867691, 0.124, 1.01, 0.08, 192.0, 0.0, 0.0, 0.0, 0.0, 0.0, 0.0, 0.0, 0.0, 0.0, 1.695764859017571E9, 0.0, 2023-09-26 16:47:39.017
254.0, 24871.747180431747, 37400.056409842546, 37261.0956145639, -2312.824405768443, -3290.4450047546634, -9996.683597169353, 114991.52213233974, -11530.549708670344, 31585.607717705694, 52556.28258660824, -187500.02235174447, -164325.84545920437, 31541.61948461765, 11613.564087577353, -4240.4164958496685, -11497.044443731838, 0.124, 1.01, 0.08, 192.0, 0.0, 0.0, 0.0, 0.0, 0.0, 0.0, 0.0, 0.0, 0.0, 1.69576485901758E9, 0.0, 2023-09-26 16:47:39.017
0.0, 24880.93374740288, 37413.333346048996, 37270.304533279486, -2305.3142196314598, -3293.0601588559343, -9987.005291820204, 114997.0430132202, -11534.304801738836, 31589.87690089666, 52591.08425272516, -187500.02235174447, -164299.15747632473, 31568.508633197383, 11648.54456764991, -4221.976306674041, -11471.116420163682, 0.124, 1.01, 0.08, 192.0, 0.0, 0.0, 0.0, 0.0, 0.0, 0.0, 0.0, 0.0, 0.0, 1.695764859077195E9, 0.0, 2023-09-26 16:47:39.077
2.0, 24864.549918717137, 37413.333346048996, 37269.522222223546, -2304.800129508988, -3281.0125685945236, -10018.431844524366, 114963.11306513705, -11557.707078183543, 31607.40066854962, 52546.380763814544, -187500.02235174447, -164363.17287244473, 31562.116034283168, 11595.414471079644, -4285.522316160478, -11535.064761050317, 0.124, 1.004, 0.08, 192.0, 1.5, 112.0, 15.5, 48.0, 1.0, 64.0, 0.0, 0.0, 0.0, 1.695764859077218E9, 0.0, 2023-09-26 16:47:39.077
4.0, 24857.553822702626, 37400.36933426492, 37267.30939952248, -2318.859376771376, -3304.638362483783, -9954.550558871098, 115028.69308336891, -11502.408862401113, 31582.523176970863, 52605.5681831322, -187500.02235174447, -164301.21383681463, 31567.3016389968, 11652.679640374141, -4220.076408395339, -11469.596501540722, 0.124, 1.004, 0.08, 192.0, 0.0, 0.0, 0.0, 0.0, 0.0, 0.0, 0.0, 0.0, 0.0, 1.695764859077229E9, 0.0, 2023-09-26 16:47:39.077
6.0, 24851.474148210782, 37387.0253428251, 37245.471745189636, -2327.978888509141, -3309.6004497528616, -9973.191913746825, 115006.90013252498, -11509.583772371267, 31577.71755191297, 52567.21258964689, -187500.02235174447, -164314.0884416209, 31542.602961373683, 11621.409549881168, -4238.0695626818615, -11484.974501725972, 0.124, 1.004, 0.08, 192.0, 0.0, 0.0, 0.0, 0.0, 0.0, 0.0, 0.0, 0.0, 0.0, 1.695764859077238E9, 0.0, 2023-09-26 16:47:39.077
8.0, 24858.20202329183, 37381.7726828781, 37250.590294669906, -2338.059525258485, -3315.456606800152, -9899.72172972223, 115081.84553168363, -11444.853120428697, 31559.880859837638, 52612.27370646879, -187500.02235174447, -164246.38500766575, 31547.58740038722, 11662.134428278736, -4175.149402040172, -11414.87943111413, 0.124, 1.004, 0.08, 192.0, 0.0, 0.0, 0.0, 0.0, 0.0, 0.0, 0.0, 0.0, 0.0, 1.695764859077246E9, 0.0, 2023-09-26 16:47:39.077
10.0, 24876.418695022905, 37408.281851802094, 37250.791460370005, -2315.730132547633, -3294.3789117787974, -9980.143306272425, 114996.17129518645, -11518.882098064674, 31591.642688708627, 52565.51385706829, -187500.02235174447, -164280.38201098228, 31545.48633640842, 11613.049997454882, -4216.924812427141, -11453.525597277356, 0.124, 1.004, 0.08, 192.0, 0.0, 0.0, 0.0, 0.0, 0.0, 0.0, 0.0, 0.0, 0.0, 1.695764859077255E9, 0.0, 2023-09-26 16:47:39.077
12.0, 24860.236032037265, 37400.99518310966, 37276.27244904905, -2319.664039571767, -3303.8336996833923, -9909.355331582467, 115073.75420019082, -11454.84435020022, 31581.159720559088, 52596.04633999424, -187500.02235174447, -164264.73578986357, 31568.44157796402, 11633.613602353764, -4196.428262761625, -11435.331277290736, 0.124, 1.004, 0.08, 192.0, 1.5, 112.0, 15.5, 48.0, 1.0, 64.0, 0.0, 0.0, 0.0, 1.695764859077264E9, 0.0, 2023-09-26 16:47:39.077
14.0, 24867.768569918702, 37412.9310146488, 37255.75354763908, -2312.0644464569627, -3302.2020223381546, -9984.948931330317, 114994.6960800524, -11518.904449809128, 31577.53873795733, 52572.822877505176, -187500.02235174447, -164265.85337708634, 31549.86727832166, 11617.25212541248, -4207.626486733733, -11441.254489571393, 0.124, 1.004, 0.08, 192.0, 0.0, 0.0, 0.0, 0.0, 0.0, 0.0, 0.0, 0.0, 0.0, 1.695764859077274E9, 0.0, 2023-09-26 16:47:39.077
16.0, 24850.58007843257, 37408.080686101996, 37273.41142575877, -2319.9769639941414, -3303.230202583099, -9912.462224061755, 115074.00006937982, -11449.390524553124, 31573.06838906627, 52583.39525263253, -187500.02235174447, -164270.41313295523, 31564.977057573447, 11631.467834886054, -4202.127957597728, -11439.443998270512, 0.124, 1.004, 0.08, 192.0, 0.0, 0.0, 0.0, 0.0, 0.0, 0.0, 0.0, 0.0, 0.0, 1.695764859137585E9, 0.0, 2023-09-26 16:47:39.137
18.0, 24857.419712235896, 37408.55007273556, 37250.65734990327, -2317.8088447819764, -3314.4060748107527, -9974.108335269491, 115001.49101036681, -11504.71109208001, 31578.231642035444, 52581.40594737601, -187500.02235174447, -164248.8213478114, 31548.637932376616, 11630.417302896656, -4193.991922615996, -11427.374056264647, 0.124, 1.004, 0.08, 192.0, 0.0, 0.0, 0.0, 0.0, 0.0, 0.0, 0.0, 0.0, 0.0, 1.695764859137651E9, 0.0, 2023-09-26 16:47:39.137
20.0, 24841.169994016887, 37407.030154112595, 37279.871079906356, -2319.798150038499, -3308.840490441381, -9898.850011688473, 115084.77361020728, -11429.653934199088, 31581.383238003644, 52573.04639494973, -187500.02235174447, -164270.14491202176, 31558.38329295913, 11621.811881281363, -4204.631352976722, -11442.260318071882, 0.124, 1.004, 0.08, 192.0, 0.0, 0.0, 0.0, 0.0, 0.0, 0.0, 0.0, 0.0, 0.0, 1.695764859137661E9, 0.0, 2023-09-26 16:47:39.137
22.0, 24870.182558319877, 37424.06218338754, 37256.13352729482, -2306.0741789429403, -3309.108711374845, -9967.581625888542, 115006.63191159152, -11492.104708207216, 31581.539700214827, 52586.47979336736, -187500.02235174447, -164226.62606556728, 31547.028606775835, 11635.82642505484, -4173.674186906122, -11402.20599200797, 0.122, 0.998, 0.084, 192.0, 1.5, 104.0, 15.5, 24.0, 1.0, 80.0, 0.0, 0.0, 0.0, 1.695764859137672E9, 0.0, 2023-09-26 16:47:39.137
24.0, 24875.524625244692, 37422.38580255339, 37283.76028344158, -2296.3288183604263, -3291.9872751220796, -9930.276564392634, 115050.01664757928, -11456.69954499001, 31587.082932839745, 52562.943406455925, -187500.02235174447, -164276.8727871028, 31563.881822095136, 11608.40083460818, -4211.895669924697, -11445.858948929186, 0.122, 0.998, 0.084, 192.0, 0.0, 0.0, 0.0, 0.0, 0.0, 0.0, 0.0, 0.0, 0.0, 1.695764859137682E9, 0.0, 2023-09-26 16:47:39.137
26.0, 24885.78407594968, 37424.95625316576, 37258.16753604025, -2301.5591265629682, -3303.3419613053757, -9989.463983710288, 114980.14509441199, -11514.970542784995, 31593.140255587132, 52590.45840388041, -187500.02235174447, -164247.94962977763, 31562.54071742782, 11632.741884320008, -4198.484623251513, -11426.189413808515, 0.122, 0.998, 0.084, 192.0, 0.0, 0.0, 0.0, 0.0, 0.0, 0.0, 0.0, 0.0, 0.0, 1.695764859137691E9, 0.0, 2023-09-26 16:47:39.137
28.0, 24863.00764834972, 37420.15062810786, 37277.88177464983, -2313.5843650799234, -3296.524679246507, -9933.517567338655, 115046.93210684444, -11455.64901300061, 31587.19469156202, 52564.44097333443, -187500.02235174447, -164289.18859829768, 31570.475586709454, 11604.19870665058, -4228.480664310535, -11457.705373490498, 0.122, 0.998, 0.084, 192.0, 0.0, 0.0, 0.0, 0.0, 0.0, 0.0, 0.0, 0.0, 0.0, 1.695764859137701E9, 0.0, 2023-09-26 16:47:39.137
30.0, 24863.700552427836, 37407.72305819071, 37246.164649267754, -2333.566824622968, -3314.651943999761, -9963.290090953124, 115009.35882441507, -11480.995891212928, 31586.926470628558, 52597.834479550664, -187500.02235174447, -164223.765042277, 31563.211269761476, 11640.185015223626, -4181.810221887854, -11405.02231180934, 0.122, 0.998, 0.084, 192.0, 0.0, 0.0, 0.0, 0.0, 0.0, 0.0, 0.0, 0.0, 0.0, 1.695764859197831E9, 0.0, 2023-09-26 16:47:39.197
32.0, 24854.40222673443, 37421.04469788608, 37265.07422507694, -2335.757295579588, -3303.4090165387415, -9926.230898646225, 115054.24112728133, -11436.381809280136, 31587.99935436241, 52557.06489766418, -187500.02235174447, -164267.64151664276, 31556.125766769146, 11595.459174568556, -4217.707123483076, -11446.171873351559, 0.124, 1.004, 0.088, 192.0, 1.5, 112.0, 15.5, 48.0, 1.0, 96.0, 0.0, 0.0, 0.0, 1.695764859197858E9, 0.0, 2023-09-26 16:47:39.197
34.0, 24867.433293751874, 37411.05346811455, 37254.144222038296, -2332.0245542555517, -3309.4439875416742, -9950.035506491125, 115025.67559786745, -11456.721896734465, 31587.284098539843, 52596.73924407235, -187500.02235174447, -164198.70873674258, 31566.765197129873, 11644.409494925678, -4164.845247846276, -11382.961140031952, 0.124, 1.004, 0.088, 192.0, 0.0, 0.0, 0.0, 0.0, 0.0, 0.0, 0.0, 0.0, 0.0, 1.695764859197868E9, 0.0, 2023-09-26 16:47:39.197
36.0, 24851.094168555042, 37396.97186910771, 37276.294800793505, -2325.073161729951, -3300.5032897595515, -9913.512756051154, 115073.08364785716, -11406.050492054283, 31584.803054905304, 52551.67812725045, -187500.02235174447, -164245.20036520963, 31562.250144749898, 11600.778889748919, -4203.558469242867, -11425.943544619508, 0.124, 1.004, 0.088, 192.0, 0.0, 0.0, 0.0, 0.0, 0.0, 0.0, 0.0, 0.0, 0.0, 1.695764859197877E9, 0.0, 2023-09-26 16:47:39.197
38.0, 24866.82979665158, 37402.3809912659, 37261.00620758608, -2332.851568800398, -3315.993048667079, -9928.264907391656, 115054.26347902579, -11420.35560850568, 31576.06352282328, 52608.40685467802, -187500.02235174447, -164160.7554746575, 31563.52419418385, 11656.367678209268, -4132.815198041821, -11343.644421535066, 0.124, 1.004, 0.088, 192.0, 0.0, 0.0, 0.0, 0.0, 0.0, 0.0, 0.0, 0.0, 0.0, 1.695764859197886E9, 0.0, 2023-09-26 16:47:39.197
40.0, 24877.06689561211, 37423.63750024289, 37278.77584442805, -2317.5182721040574, -3287.1816500641885, -9951.600128602997, 115033.76692936027, -11438.147597092104, 31606.77481970487, 52534.579042742145, -187500.02235174447, -164245.11095823182, 31555.857545835683, 11584.752688974464, -4210.800434446387, -11426.703503930987, 0.124, 1.004, 0.088, 192.0, 0.0, 0.0, 0.0, 0.0, 0.0, 0.0, 0.0, 0.0, 0.0, 1.695764859197928E9, 0.0, 2023-09-26 16:47:39.197
42.0, 24880.620822980505, 37419.2342065852, 37268.65050418979, -2326.391914652814, -3308.125234618811, -9943.173520943346, 115039.24310675182, -11433.36432377867, 31594.503711998907, 52593.94527601544, -187500.02235174447, -164189.29865232692, 31573.046037321812, 11636.854605299784, -4166.186352513594, -11375.607416106155, 0.126, 1.004, 0.09, 192.0, 1.5, 120.0, 15.5, 48.0, 1.0, 104.0, 0.0, 0.0, 0.0, 1.695764859197937E9, 0.0, 2023-09-26 16:47:39.197
44.0, 24869.243785052753, 37417.44606702877, 37271.131547824334, -2318.3899901378145, -3295.585905979384, -9958.30565193959, 115028.73778685782, -11437.588803480721, 31593.83315966525, 52547.31953708167, -187500.02235174447, -164244.55216462043, 31555.52226966885, 11587.591360520288, -4217.416550805157, -11428.134015576126, 0.126, 1.004, 0.09, 192.0, 0.0, 0.0, 0.0, 0.0, 0.0, 0.0, 0.0, 0.0, 0.0, 1.695764859197947E9, 0.0, 2023-09-26 16:47:39.197
46.0, 24888.980375406787, 37422.43050604231, 37273.433777503225, -2320.0440192275073, -3297.8881356582806, -9960.429067662844, 115024.35684494459, -11443.176739594548, 31604.472590025973, 52586.14451720053, -187500.02235174447, -164202.73205074455, 31574.87888036715, 11632.87599478674, -4182.748995154977, -11385.86686681114, 0.126, 1.004, 0.09, 192.0, 0.0, 0.0, 0.0, 0.0, 0.0, 0.0, 0.0, 0.0, 0.0, 1.695764859258212E9, 0.0, 2023-09-26 16:47:39.258
48.0, 24889.24859634025, 37427.81727645604, 37278.194699072206, -2309.538699333513, -3290.6014669658502, -9991.587399433542, 114990.31513813915, -11461.393411325624, 31620.185866378055, 52531.80742642968, -187500.02235174447, -164272.13421727828, 31575.236508278434, 11579.81295344984, -4245.691507541122, -11452.855044943697, 0.126, 1.004, 0.09, 192.0, 0.0, 0.0, 0.0, 0.0, 0.0, 0.0, 0.0, 0.0, 0.0, 1.695764859258235E9, 0.0, 2023-09-26 16:47:39.258
50.0, 24910.88508497299, 37437.31676784954, 37284.542594497514, -2298.0946061723957, -3289.617990209817, -9965.614672376476, 115012.68923433892, -11444.78606519533, 31623.963311191, 52587.910305012505, -187500.02235174447, -164228.34714989032, 31592.804979420303, 11631.423131397145, -4199.73632094101, -11407.950390332984, 0.126, 1.004, 0.09, 192.0, 0.0, 0.0, 0.0, 0.0, 0.0, 0.0, 0.0, 0.0, 0.0, 1.695764859258245E9, 0.0, 2023-09-26 16:47:39.258
52.0, 24911.801506495656, 37449.16319241085, 37285.07903636444, -2290.852640968876, -3288.7686239205154, -9995.834230880051, 114983.67667003593, -11461.572225281267, 31635.519163074398, 52563.59160704513, -187500.02235174447, -164271.4189614557, 31582.903156626602, 11600.510668815456, -4241.668193539166, -11450.977498409451, 0.126, 1.006, 0.08600000000000001, 192.0, 1.5, 120.0, 15.5, 56.0, 1.0, 88.0, 0.0, 0.0, 0.0, 1.695764859258254E9, 0.0, 2023-09-26 16:47:39.258
54.0, 24886.700497472346, 37434.723965492725, 37280.58633572893, -2324.536719863024, -3313.6237637548165, -9934.165767927858, 115047.91558360048, -11402.138936774605, 31619.49296229994, 52621.952011817935, -187500.02235174447, -164221.28399864247, 31587.909947384593, 11651.003259539993, -4191.868506892742, -11401.557791418767, 0.126, 1.006, 0.08600000000000001, 192.0, 0.0, 0.0, 0.0, 0.0, 0.0, 0.0, 0.0, 0.0, 0.0, 1.695764859258264E9, 0.0, 2023-09-26 16:47:39.258
56.0, 24881.626651480994, 37421.02234614162, 37258.63692267382, -2330.9069670327863, -3317.311801589942, -9991.654454666908, 114987.83409450461, -11445.098989617705, 31611.87101744068, 52587.73149105686, -187500.02235174447, -164228.8165365239, 31554.29292372381, 11614.905192244672, -4204.519594254446, -11415.348817747692, 0.126, 1.006, 0.08600000000000001, 192.0, 0.0, 0.0, 0.0, 0.0, 0.0, 0.0, 0.0, 0.0, 0.0, 1.695764859258273E9, 0.0, 2023-09-26 16:47:39.258
58.0, 24864.482863483772, 37403.56563372203, 37268.91872512326, -2339.2665194590713, -3319.904603946758, -9924.621573045442, 115059.5608424617, -11382.245884209382, 31596.045982366322, 52601.92484878598, -187500.02235174447, -164202.93321644465, 31569.425054720054, 11639.939146034616, -4176.78107938541, -11388.4373174235, 0.126, 1.006, 0.08600000000000001, 192.0, 0.0, 0.0, 0.0, 0.0, 0.0, 0.0, 0.0, 0.0, 0.0, 1.695764859258286E9, 0.0, 2023-09-26 16:47:39.258
60.0, 24874.429389766385, 37405.130255833894, 37261.073262819446, -2310.633934811823, -3296.74819669106, -10009.044111853136, 114968.81275997315, -11456.40897231209, 31607.937110416548, 52552.59454877312, -187500.02235174447, -164231.09641445833, 31561.71370288297, 11603.05876768336, -4214.801396703887, -11422.814300395763, 0.126, 1.006, 0.08600000000000001, 192.0, 0.0, 0.0, 0.0, 0.0, 0.0, 0.0, 0.0, 0.0, 0.0, 1.69576485931755E9, 0.0, 2023-09-26 16:47:39.317
62.0, 24846.9143923419, 37396.14485456287, 37284.74376019761, -2322.6368215843227, -3308.169938107722, -9913.378645584422, 115072.68131645696, -11364.744468300876, 31591.06154335279, 52586.34568290063, -187500.02235174447, -164219.249989897, 31582.456121737498, 11630.864337785762, -4197.478794751024, -11407.928038588529, 0.124, 1.006, 0.09, 192.0, 1.5, 112.0, 15.5, 56.0, 1.0, 104.0, 0.0, 0.0, 0.0, 1.695764859317612E9, 0.0, 2023-09-26 16:47:39.317
64.0, 24872.238918809762, 37396.86011038543, 37254.94888483869, -2322.7485803065993, -3312.6402869987833, -9984.770117374674, 114994.65137656349, -11429.184547565526, 31590.390991019132, 52587.73149105686, -187500.02235174447, -164179.41918127766, 31558.159775514578, 11633.233622698024, -4174.232980517505, -11376.948520773474, 0.124, 1.006, 0.09, 192.0, 0.0, 0.0, 0.0, 0.0, 0.0, 0.0, 0.0, 0.0, 0.0, 1.695764859317622E9, 0.0, 2023-09-26 16:47:39.317
66.0, 24875.30110780014, 37430.27596834612, 37285.70488520919, -2316.7806645370324, -3293.6413042117724, -9944.984012244227, 115043.51228994278, -11392.550038403278, 31614.9108546866, 52565.08917392364, -187500.02235174447, -164230.8728970138, 31590.614508463685, 11606.210363651559, -4218.332972327826, -11424.177756807538, 0.124, 1.006, 0.09, 192.0, 0.0, 0.0, 0.0, 0.0, 0.0, 0.0, 0.0, 0.0, 0.0, 1.695764859317631E9, 0.0, 2023-09-26 16:47:39.317
68.0, 24868.52852923018, 37414.1827123383, 37253.13839353781, -2333.835045556432, -3306.4265020402077, -9992.436765722843, 114993.75730678526, -11428.603402209688, 31607.49007552744, 52579.93073224196, -187500.02235174447, -164206.28597811295, 31572.934278599536, 11616.20159342308, -4204.698408210088, -11405.514050187356, 0.124, 1.006, 0.09, 192.0, 0.0, 0.0, 0.0, 0.0, 0.0, 0.0, 0.0, 0.0, 0.0, 1.69576485931764E9, 0.0, 2023-09-26 16:47:39.317
70.0, 24866.49452048475, 37419.6812414743, 37280.18400432873, -2327.353039664393, -3300.03390312599, -9939.820759275051, 115057.07979882715, -11379.317805685736, 31593.900214898615, 52578.0084822188, -187500.02235174447, -164217.12657417377, 31569.045075064314, 11608.602000308276, -4207.984114645018, -11411.370207234646, 0.124, 1.006, 0.09, 192.0, 0.0, 0.0, 0.0, 0.0, 0.0, 0.0, 0.0, 0.0, 0.0, 1.695764859317649E9, 0.0, 2023-09-26 16:47:39.317
72.0, 24871.478959498283, 37406.29254654557, 37260.17919304123, -2329.409400154281, -3312.1485486207666, -9978.64573939392, 115009.71645232636, -11416.041721825806, 31597.029459122357, 52604.67411335398, -187500.02235174447, -164173.13834108572, 31566.67579015205, 11636.116997732759, -4178.703329408566, -11372.768744560331, 0.126, 1.004, 0.092, 192.0, 1.5, 120.0, 15.5, 48.0, 1.0, 112.0, 0.0, 0.0, 0.0, 1.695764859317658E9, 0.0, 2023-09-26 16:47:39.317
74.0, 24851.25063076623, 37411.65696521485, 37289.63879223332, -2331.0857809884287, -3301.397359537764, -9898.67119773283, 115097.5141045468, -11331.686238251477, 31598.035287622846, 52576.443860106934, -187500.02235174447, -164204.54254204544, 31568.508633197383, 11613.20645966607, -4199.333989540814, -11397.266256483348, 0.126, 1.004, 0.092, 192.0, 0.0, 0.0, 0.0, 0.0, 0.0, 0.0, 0.0, 0.0, 0.0, 1.695764859317668E9, 0.0, 2023-09-26 16:47:39.317
76.0, 24882.185445092375, 37408.77359018011, 37265.02952158803, -2327.375391408848, -3315.255441100054, -9957.277471694646, 115030.14594675851, -11384.793983077287, 31592.804979420303, 52612.98896229136, -187500.02235174447, -164119.67296834863, 31556.617505147162, 11649.63980312822, -4137.620823099712, -11323.5725550142, 0.126, 1.004, 0.092, 192.0, 0.0, 0.0, 0.0, 0.0, 0.0, 0.0, 0.0, 0.0, 0.0, 1.695764859377239E9, 0.0, 2023-09-26 16:47:39.377
78.0, 24870.361372275518, 37418.54130250708, 37299.786484216034, -2311.438597612214, -3291.249667555054, -9939.329020897034, 115054.64345868153, -11367.761953802343, 31617.2130843655, 52541.418676545465, -187500.02235174447, -164214.44436483915, 31575.77295014536, 11585.065613396837, -4224.658516008677, -11413.605381680178, 0.126, 1.004, 0.092, 192.0, 0.0, 0.0, 0.0, 0.0, 0.0, 0.0, 0.0, 0.0, 0.0, 1.695764859377261E9, 0.0, 2023-09-26 16:47:39.377
80.0, 24879.793808435657, 37405.26436630063, 37271.556230968985, -2323.4191326402583, -3304.03486538349, -9981.171486517369, 115004.73201331282, -11411.236096767914, 31600.762200446392, 52598.326217928676, -187500.02235174447, -164143.96931457156, 31573.82834837775, 11637.614564611265, -4171.0366810603955, -11350.193482660472, 0.126, 1.004, 0.092, 192.0, 0.0, 0.0, 0.0, 0.0, 0.0, 0.0, 0.0, 0.0, 0.0, 1.695764859377272E9, 0.0, 2023-09-26 16:47:39.377
82.0, 24862.739427416258, 37412.95336639325, 37292.36570505687, -2325.1849204522277, -3287.7627954200266, -9949.655526835386, 115044.02638006526, -11376.34502367318, 31613.390936063643, 52540.34579281161, -187500.02235174447, -164218.87001024128, 31581.606755448196, 11585.043261652383, -4240.103571427295, -11423.97659110744, 0.128, 1.0, 0.09, 192.0, 2.0, 0.0, 15.5, 32.0, 1.0, 104.0, 0.0, 0.0, 0.0, 1.695764859377281E9, 0.0, 2023-09-26 16:47:39.377
84.0, 24880.039677624667, 37406.09138084548, 37264.67189367675, -2328.1800542092387, -3305.197156095166, -9969.839152078528, 115019.1935919754, -11401.758957118864, 31598.92935740106, 52603.33300868667, -187500.02235174447, -164140.12481452525, 31574.85652862269, 11639.961497779072, -4175.0823468068065, -11351.668697794521, 0.128, 1.0, 0.09, 192.0, 0.0, 0.0, 0.0, 0.0, 0.0, 0.0, 0.0, 0.0, 0.0, 1.695764859377321E9, 0.0, 2023-09-26 16:47:39.377
86.0, 24873.892947899458, 37422.85518918696, 37289.5493852555, -2321.3180686614596, -3290.4003012657527, -9947.86738727896, 115048.6531911675, -11374.042793994284, 31610.708726729004, 52554.67326100746, -187500.02235174447, -164203.02262342247, 31570.00620007589, 11592.352282089269, -4229.866472466764, -11409.559715933767, 0.128, 1.0, 0.09, 192.0, 0.0, 0.0, 0.0, 0.0, 0.0, 0.0, 0.0, 0.0, 0.0, 1.69576485937733E9, 0.0, 2023-09-26 16:47:39.377
88.0, 24885.60526199404, 37412.97571813771, 37283.26854506356, -2324.693182074211, -3305.8230049399144, -9949.476712879743, 115041.43357770843, -11379.027233007817, 31613.368584319185, 52619.0686367832, -187500.02235174447, -164118.66713984814, 31577.426979235053, 11657.105285776292, -4159.927864066108, -11332.490901051868, 0.128, 1.0, 0.09, 192.0, 0.0, 0.0, 0.0, 0.0, 0.0, 0.0, 0.0, 0.0, 0.0, 1.695764859377339E9, 0.0, 2023-09-26 16:47:39.377
90.0, 24880.73258170278, 37405.73375293419, 37293.25977483509, -2320.26753667206, -3283.2477430400545, -9959.847922307006, 115036.33737997263, -11377.39555566258, 31629.037157182356, 52556.05906916369, -187500.02235174447, -164183.39779179072, 31564.306505239787, 11602.745843260986, -4220.344629328803, -11396.573352405234, 0.128, 1.0, 0.09, 192.0, 0.0, 0.0, 0.0, 0.0, 0.0, 0.0, 0.0, 0.0, 0.0, 1.695764859437566E9, 0.0, 2023-09-26 16:47:39.437
92.0, 24870.093151342055, 37391.92037486081, 37277.25592580508, -2348.7213073636663, -3322.22918537011, -9907.835412959506, 115085.80179045223, -11330.725113239898, 31614.888502942147, 52627.830520609685, -187500.02235174447, -164100.20459892805, 31572.308429754787, 11675.053736573904, -4147.477942404502, -11314.967133398906, 0.126, 1.0, 0.084, 192.0, 1.5, 120.0, 15.5, 32.0, 1.0, 80.0, 0.0, 0.0, 0.0, 1.695764859437591E9, 0.0, 2023-09-26 16:47:39.437
94.0, 24877.893910156956, 37416.887273417386, 37273.25496354759, -2335.4220194127583, -3309.198118352666, -9933.741084783207, 115062.7571419188, -11347.064238436727, 31623.940959446547, 52578.03083396326, -187500.02235174447, -164126.55730564086, 31546.33570269772, 11633.770064564951, -4177.071652063329, -11344.069104679716, 0.126, 1.0, 0.084, 192.0, 0.0, 0.0, 0.0, 0.0, 0.0, 0.0, 0.0, 0.0, 0.0, 1.695764859437601E9, 0.0, 2023-09-26 16:47:39.437
96.0, 24873.06593335461, 37419.21185484074, 37279.08876885042, -2338.953595036697, -3316.03775215599, -9890.401052284367, 115110.07578493068, -11305.579400727678, 31635.027424696378, 52619.31450597221, -187500.02235174447, -164078.5234068064, 31568.978019830945, 11689.98470187005, -4135.944442265563, -11298.359787268613, 0.126, 1.0, 0.084, 192.0, 0.0, 0.0, 0.0, 0.0, 0.0, 0.0, 0.0, 0.0, 0.0, 1.69576485943761E9, 0.0, 2023-09-26 16:47:39.437
98.0, 24883.951232904343, 37431.013575913144, 37289.37057129986, -2313.5396615910126, -3285.907600630236, -9947.196834945302, 115056.07397032667, -11344.627898291099, 31653.489965616463, 52562.76459250029, -187500.02235174447, -164120.7905555714, 31562.987752316923, 11652.053791529393, -4176.8481346187755, -11340.76104650033, 0.126, 1.0, 0.084, 192.0, 0.0, 0.0, 0.0, 0.0, 0.0, 0.0, 0.0, 0.0, 0.0, 1.695764859437619E9, 0.0, 2023-09-26 16:47:39.437
100.0, 24870.83075890908, 37416.90962516185, 37297.059571392485, -2327.330687919937, -3298.1116531028338, -9881.058023102049, 115126.54902059425, -11279.383156226058, 31639.676587543083, 52626.19884326444, -187500.02235174447, -164066.475816545, 31584.95951711649, 11710.525955024475, -4124.656811315634, -11286.80393538522, 0.126, 1.0, 0.084, 192.0, 0.0, 0.0, 0.0, 0.0, 0.0, 0.0, 0.0, 0.0, 0.0, 1.695764859437628E9, 0.0, 2023-09-26 16:47:39.437
102.0, 24877.73744794577, 37404.70557268924, 37288.36474279937, -2318.881728515831, -3288.7015686871496, -9930.768302770652, 115077.24107232584, -11316.397645044046, 31637.508468330918, 52585.33985440015, -187500.02235174447, -164077.6740405171, 31559.38912145962, 11675.724288907562, -4145.510988892435, -11304.931200138475, 0.116, 1.006, 0.084, 192.0, 1.5, 80.0, 15.5, 56.0, 1.0, 80.0, 0.0, 0.0, 0.0, 1.695764859437637E9, 0.0, 2023-09-26 16:47:39.437
104.0, 24873.44591301035, 37403.945613377764, 37302.28987959503, -2314.5901935804122, -3284.9241238742025, -9872.005566597649, 115139.60243935615, -11264.18396999645, 31641.129450932676, 52611.02200877929, -187500.02235174447, -164049.6226012257, 31575.840005378726, 11708.648408490231, -4119.314744390815, -11279.13728703705, 0.116, 1.006, 0.084, 192.0, 0.0, 0.0, 0.0, 0.0, 0.0, 0.0, 0.0, 0.0, 0.0, 1.695764859437646E9, 0.0, 2023-09-26 16:47:39.437
106.0, 24884.867654427013, 37419.16715135183, 37286.39778928731, -2302.922582974742, -3281.9513418616466, -9936.803273773585, 115073.30716530171, -11313.983656642873, 31639.274256142886, 52581.69652005393, -187500.02235174447, -164052.12599660468, 31556.282228980333, 11690.051757103414, -4132.502273619446, -11290.849601131631, 0.116, 1.006, 0.084, 192.0, 0.0, 0.0, 0.0, 0.0, 0.0, 0.0, 0.0, 0.0, 0.0, 1.69576485949782E9, 0.0, 2023-09-26 16:47:39.497
108.0, 24877.223357823295, 37417.3343083065, 37303.228652862155, -2314.9701732361523, -3291.7637576775264, -9865.14358104987, 115151.27004996182, -11249.163597722483, 31641.73294803297, 52605.18820347646, -187500.02235174447, -164050.0249326259, 31583.73017117145, 11709.251905590523, -4124.030962470885, -11285.820458629187, 0.116, 1.006, 0.084, 192.0, 0.0, 0.0, 0.0, 0.0, 0.0, 0.0, 0.0, 0.0, 0.0, 1.695764859497842E9, 0.0, 2023-09-26 16:47:39.497
110.0, 24895.663546998927, 37415.59087223898, 37280.58633572893, -2304.308391130971, -3288.7686239205154, -9957.143361227914, 115052.54239470273, -11330.859223706631, 31645.15276493463, 52583.2611421658, -187500.02235174447, -164052.79654893835, 31562.54071742782, 11687.034271601948, -4138.336078922282, -11297.37631051258, 0.116, 1.006, 0.084, 192.0, 0.0, 0.0, 0.0, 0.0, 0.0, 0.0, 0.0, 0.0, 0.0, 1.695764859497852E9, 0.0, 2023-09-26 16:47:39.497
112.0, 24879.346773546553, 37410.00293612515, 37300.72525748316, -2314.79135928051, -3282.3536732618422, -9884.611950470442, 115129.0747677177, -11264.005156040806, 31641.50943058842, 52591.2630666808, -187500.02235174447, -164075.34945909376, 31592.849682909215, 11687.727175680064, -4152.797657584865, -11317.135252611071, 0.116, 1.004, 0.09, 192.0, 1.5, 80.0, 15.5, 48.0, 1.0, 104.0, 0.0, 0.0, 0.0, 1.695764859497861E9, 0.0, 2023-09-26 16:47:39.497
114.0, 24891.908453930435, 37417.46841877323, 37271.824451902445, -2319.1052459603843, -3288.8133274094257, -9937.764398785162, 115069.52972048876, -11312.28492406427, 31632.054642683823, 52605.814052321206, -187500.02235174447, -164040.21251681002, 31567.145176785612, 11692.823373415873, -4129.171863695606, -11291.609560443112, 0.116, 1.004, 0.09, 192.0, 0.0, 0.0, 0.0, 0.0, 0.0, 0.0, 0.0, 0.0, 0.0, 1.695764859497871E9, 0.0, 2023-09-26 16:47:39.497
116.0, 24879.056200868632, 37425.626805499414, 37301.46286505018, -2315.640725569812, -3277.7268621595936, -9869.85979912994, 115141.6811515905, -11248.26952794427, 31634.44627934054, 52600.18141271847, -187500.02235174447, -164059.14444436366, 31580.735037414437, 11682.139239566237, -4140.347735923259, -11303.925371637986, 0.116, 1.004, 0.09, 192.0, 0.0, 0.0, 0.0, 0.0, 0.0, 0.0, 0.0, 0.0, 0.0, 1.69576485949788E9, 0.0, 2023-09-26 16:47:39.497
118.0, 24889.11448587352, 37429.49365729018, 37271.623286202346, -2311.0362662120183, -3291.1379088327776, -9930.254212648179, 115076.77168569228, -11300.259685547315, 31631.65231128363, 52616.05115128174, -187500.02235174447, -164018.8218973663, 31566.944011085514, 11691.795193170929, -4115.179671666583, -11269.436629943446, 0.116, 1.004, 0.09, 192.0, 0.0, 0.0, 0.0, 0.0, 0.0, 0.0, 0.0, 0.0, 0.0, 1.695764859497889E9, 0.0, 2023-09-26 16:47:39.497
120.0, 24883.25832882623, 37418.40719204035, 37301.77578947256, -2308.6222778108454, -3280.140850560767, -9880.968616124228, 115135.04268348726, -11252.136379735039, 31642.805831766826, 52586.70331081192, -187500.02235174447, -164062.94424092106, 31579.05865658029, 11660.078067788849, -4150.495427905968, -11307.166374584005, 0.116, 1.004, 0.09, 192.0, 0.0, 0.0, 0.0, 0.0, 0.0, 0.0, 0.0, 0.0, 0.0, 1.695764859558141E9, 0.0, 2023-09-26 16:47:39.558
122.0, 24885.761724205226, 37405.66669770083, 37276.160690326775, -2316.60185058139, -3288.589809964873, -9939.194910430302, 115071.40726702301, -11306.629932717078, 31634.69214852955, 52611.670209368494, -187500.02235174447, -164018.57602817728, 31579.39393274712, 11681.580445954854, -4121.48286360298, -11270.911845077497, 0.11800000000000001, 1.002, 0.084, 192.0, 1.5, 88.0, 15.5, 40.0, 1.0, 80.0, 0.0, 0.0, 0.0, 1.695764859558167E9, 0.0, 2023-09-26 16:47:39.558
124.0, 24881.31372705862, 37414.13800884938, 37303.09454239542, -2310.5892313229124, -3269.3449579888534, -9903.253305346168, 115120.93873273597, -11266.620310142078, 31640.88358174367, 52572.107621682604, -187500.02235174447, -164073.38250558169, 31587.172339817567, 11641.280250701935, -4166.25340774696, -11324.131348625582, 0.11800000000000001, 1.002, 0.084, 192.0, 0.0, 0.0, 0.0, 0.0, 0.0, 0.0, 0.0, 0.0, 0.0, 1.695764859558178E9, 0.0, 2023-09-26 16:47:39.558
126.0, 24902.570236035615, 37422.02817464211, 37284.65435321979, -2307.7058562881775, -3271.5801324343843, -9960.227901962746, 115058.7114761724, -11321.359732313125, 31637.77668926438, 52607.132805244066, -187500.02235174447, -164025.79564163633, 31587.842892151224, 11671.253940016502, -4132.949308508552, -11286.312197007204, 0.11800000000000001, 1.002, 0.084, 192.0, 0.0, 0.0, 0.0, 0.0, 0.0, 0.0, 0.0, 0.0, 0.0, 1.695764859558187E9, 0.0, 2023-09-26 16:47:39.558
128.0, 24886.856959683533, 37440.33425335101, 37320.03716469254, -2294.563030548457, -3250.3459752018425, -9941.139512197913, 115085.53356951877, -11301.489031492358, 31646.69503530205, 52560.1047349101, -187500.02235174447, -164104.71965130803, 31590.86037765269, 11617.877974257228, -4198.864602907253, -11360.38587813209, 0.11800000000000001, 1.002, 0.084, 192.0, 0.0, 0.0, 0.0, 0.0, 0.0, 0.0, 0.0, 0.0, 0.0, 1.695764859558248E9, 0.0, 2023-09-26 16:47:39.558
130.0, 24890.030907396187, 37408.88534890239, 37297.59601325941, -2301.0003329515857, -3264.852257353337, -9961.524303141154, 115058.1079790721, -11326.880613193585, 31633.44045084005, 52625.01420080831, -187500.02235174447, -164032.9258481176, 31591.1062468417, 11675.523123207466, -4139.6771835896, -11290.782545898264, 0.11800000000000001, 1.002, 0.084, 192.0, 0.0, 0.0, 0.0, 0.0, 0.0, 0.0, 0.0, 0.0, 0.0, 1.695764859558259E9, 0.0, 2023-09-26 16:47:39.558
132.0, 24874.563500233115, 37407.96892737972, 37307.967222686675, -2297.8934404722977, -3257.9902718055573, -9944.134645954926, 115078.22454908188, -11305.042958860751, 31637.620227053194, 52572.88993273854, -187500.02235174447, -164098.01412797143, 31588.334630529243, 11626.572802850344, -4198.775195929432, -11355.110866440638, 0.124, 1.002, 0.088, 192.0, 1.5, 112.0, 15.5, 40.0, 1.0, 96.0, 0.0, 0.0, 0.0, 1.695764859558268E9, 0.0, 2023-09-26 16:47:39.558
134.0, 24895.30591908764, 37413.91449140483, 37286.84482417641, -2309.7175132891552, -3277.1233650593003, -9975.002405047704, 115039.33251372965, -11342.258613378837, 31629.26067462691, 52622.711971129414, -187500.02235174447, -164034.55752546282, 31588.49109274043, 11674.78551564044, -4150.674241861611, -11298.829173902175, 0.124, 1.002, 0.088, 192.0, 0.0, 0.0, 0.0, 0.0, 0.0, 0.0, 0.0, 0.0, 0.0, 1.695764859558277E9, 0.0, 2023-09-26 16:47:39.558
136.0, 24894.143628375965, 37425.40328805486, 37294.44441729122, -2313.0926267019067, -3273.010644079524, -9966.799314832606, 115051.93889760243, -11327.439406804968, 31634.803907251826, 52570.74416527083, -187500.02235174447, -164097.41063087113, 31569.313295997777, 11624.20351793808, -4205.346608799292, -11357.368392630624, 0.124, 1.002, 0.088, 192.0, 0.0, 0.0, 0.0, 0.0, 0.0, 0.0, 0.0, 0.0, 0.0, 1.695764859617584E9, 0.0, 2023-09-26 16:47:39.617
138.0, 24909.70044251686, 37443.48584931921, 37292.54451901252, -2313.0702749574516, -3278.240952282066, -9968.788620089128, 115040.65126665251, -11337.430636576491, 31648.773747536394, 52618.28632572727, -187500.02235174447, -164048.81793842532, 31585.138331072132, 11673.489114462032, -4163.034756545396, -11309.133328096072, 0.124, 1.002, 0.088, 192.0, 0.0, 0.0, 0.0, 0.0, 0.0, 0.0, 0.0, 0.0, 0.0, 1.695764859617608E9, 0.0, 2023-09-26 16:47:39.617
140.0, 24884.8229509381, 37430.56654102404, 37300.74760922761, -2319.6193360828565, -3267.9591498326245, -9954.081172237537, 115062.26540354079, -11312.91077290902, 31646.180945179578, 52586.77036604528, -187500.02235174447, -164093.7896482694, 31571.302601254298, 11625.008180738472, -4203.826690176331, -11352.473360594913, 0.124, 1.002, 0.088, 192.0, 0.0, 0.0, 0.0, 0.0, 0.0, 0.0, 0.0, 0.0, 0.0, 1.695764859617618E9, 0.0, 2023-09-26 16:47:39.617
142.0, 24882.855997426035, 37413.042773371075, 37298.534786526536, -2325.341382663415, -3290.1097285878336, -9916.977276441727, 115100.48688655936, -11280.254874259816, 31624.87973271367, 52647.053020841246, -187500.02235174447, -163998.4594581675, 31584.020743849367, 11688.26361754699, -4118.174805423594, -11262.529940906757, 0.12, 1.006, 0.088, 192.0, 1.5, 96.0, 15.5, 56.0, 1.0, 96.0, 0.0, 0.0, 0.0, 1.695764859617628E9, 0.0, 2023-09-26 16:47:39.617
144.0, 24899.284529600685, 37441.51889580714, 37306.76022848609, -2300.732112018122, -3263.4664491971075, -9981.171486517369, 115040.49480444132, -11331.283906851282, 31639.006035209422, 52576.935598484946, -187500.02235174447, -164054.83055768377, 31571.704932654495, 11620.046093469393, -4177.116355552239, -11325.606563759633, 0.12, 1.006, 0.088, 192.0, 0.0, 0.0, 0.0, 0.0, 0.0, 0.0, 0.0, 0.0, 0.0, 1.695764859617638E9, 0.0, 2023-09-26 16:47:39.617
146.0, 24884.062991626623, 37434.723965492725, 37309.28597560954, -2312.444426112703, -3273.2118097796215, -9936.311535395567, 115085.98060440787, -11296.504592478823, 31635.049776440836, 52616.05115128174, -187500.02235174447, -164033.1717173066, 31598.97406088997, 11649.729210106041, -4157.670337876122, -11303.724205937888, 0.12, 1.006, 0.088, 192.0, 0.0, 0.0, 0.0, 0.0, 0.0, 0.0, 0.0, 0.0, 0.0, 1.695764859617647E9, 0.0, 2023-09-26 16:47:39.617
148.0, 24893.920110931413, 37424.9339014213, 37292.946850412714, -2309.851623755887, -3270.3060830004315, -9980.389175461432, 115042.23824050883, -11329.853395206143, 31632.747546761937, 52584.26697066629, -187500.02235174447, -164053.17652859408, 31568.329819241742, 11611.82065150984, -4179.083309064306, -11328.020552160806, 0.12, 1.006, 0.088, 192.0, 0.0, 0.0, 0.0, 0.0, 0.0, 0.0, 0.0, 0.0, 0.0, 1.695764859617657E9, 0.0, 2023-09-26 16:47:39.617
150.0, 24882.990107892765, 37415.72498270571, 37300.769960972066, -2321.2286616836386, -3292.74723443356, -9902.649808245875, 115120.64816005804, -11260.138304250038, 31618.330671588265, 52638.805227137236, -187500.02235174447, -164000.29230121284, 31582.947860115513, 11656.702954376096, -4129.4177328846135, -11277.28209224726, 0.12, 1.006, 0.088, 192.0, 0.0, 0.0, 0.0, 0.0, 0.0, 0.0, 0.0, 0.0, 0.0, 1.695764859678052E9, 0.0, 2023-09-26 16:47:39.678
152.0, 24893.16015161993, 37430.74535497968, 37293.12566436835, -2302.0285131965297, -3281.7054726726383, -9972.856637579995, 115045.05456031021, -11321.695008479956, 31627.159610648112, 52593.297075426235, -187500.02235174447, -164022.33112124578, 31569.223889019955, 11618.816747524352, -4161.783058855898, -11309.71447345191, 0.116, 1.002, 0.08600000000000001, 192.0, 1.5, 80.0, 15.5, 40.0, 1.0, 88.0, 0.0, 0.0, 0.0, 1.695764859678084E9, 0.0, 2023-09-26 16:47:39.678
154.0, 24874.87642465549, 37435.349814337475, 37311.02941167705, -2314.5231383470464, -3281.236086039077, -9895.519601764632, 115125.05145371574, -11250.549405878712, 31619.180037877566, 52626.19884326444, -187500.02235174447, -163999.01825177888, 31593.16260733159, 11653.707820619085, -4139.1630934671275, -11289.508496464312, 0.116, 1.002, 0.08600000000000001, 192.0, 0.0, 0.0, 0.0, 0.0, 0.0, 0.0, 0.0, 0.0, 0.0, 1.695764859678095E9, 0.0, 2023-09-26 16:47:39.678
156.0, 24882.855997426035, 37435.2380556152, 37286.24132707612, -2317.898251759798, -3274.307045257932, -9970.375593945455, 115044.74163588783, -11318.521060767302, 31621.862247212204, 52600.3155231852, -187500.02235174447, -164002.5498274028, 31569.313295997777, 11634.239451198513, -4151.456552917547, -11299.05269134673, 0.116, 1.002, 0.08600000000000001, 192.0, 0.0, 0.0, 0.0, 0.0, 0.0, 0.0, 0.0, 0.0, 0.0, 1.695764859678104E9, 0.0, 2023-09-26 16:47:39.678
158.0, 24864.05818033912, 37414.49563676067, 37302.513397039584, -2338.8641880588757, -3277.525696459496, -9889.328168550512, 115132.38282589709, -11241.876929030053, 31610.64167149564, 52617.548718160244, -187500.02235174447, -163999.26412096788, 31586.926470628558, 11646.644669371208, -4142.493503390969, -11292.95066511043, 0.116, 1.002, 0.08600000000000001, 192.0, 0.0, 0.0, 0.0, 0.0, 0.0, 0.0, 0.0, 0.0, 0.0, 1.695764859678116E9, 0.0, 2023-09-26 16:47:39.678
160.0, 24884.040639882165, 37407.34307853497, 37274.3949025148, -2337.0313450135404, -3280.789051149971, -9957.366878672467, 115056.6551156825, -11298.04686284624, 31613.10036338572, 52613.32423845819, -187500.02235174447, -163973.3584491442, 31562.317199983267, 11642.73311409153, -4129.842416029264, -11277.237388758349, 0.116, 1.002, 0.08600000000000001, 192.0, 0.0, 0.0, 0.0, 0.0, 0.0, 0.0, 0.0, 0.0, 0.0, 1.695764859678127E9, 0.0, 2023-09-26 16:47:39.678
162.0, 24876.195177578353, 37409.28768030259, 37306.87198720837, -2328.8729582873534, -3274.195286535655, -9882.689700447287, 115137.2778579328, -11223.548498576702, 31613.30152908582, 52608.876241311584, -187500.02235174447, -163986.90360628412, 31583.216081048977, 11640.185015223626, -4133.552805608846, -11289.396737742036, 0.11800000000000001, 1.01, 0.088, 192.0, 1.5, 88.0, 15.5, 72.0, 1.0, 96.0, 0.0, 0.0, 0.0, 1.695764859678136E9, 0.0, 2023-09-26 16:47:39.678
164.0, 24891.953157419346, 37427.05731714455, 37279.28993455052, -2322.79328379551, -3287.583981464384, -9943.955831999283, 115067.5627669767, -11278.109106792106, 31607.15479936061, 52621.102645528634, -187500.02235174447, -163936.2322016039, 31566.85460410769, 11651.852625829295, -4099.086415658762, -11250.907033789998, 0.11800000000000001, 1.01, 0.088, 192.0, 0.0, 0.0, 0.0, 0.0, 0.0, 0.0, 0.0, 0.0, 0.0, 1.695764859678146E9, 0.0, 2023-09-26 16:47:39.678
166.0, 24880.8219886806, 37427.50435203366, 37312.459923322196, -2307.370580121348, -3267.4003562212415, -9894.826697686518, 115119.30705539073, -11236.043123727219, 31629.528895560372, 52587.284456167756, -187500.02235174447, -163993.6091296207, 31584.981868860945, 11622.415378381656, -4151.747125595466, -11303.701854193432, 0.11800000000000001, 1.01, 0.088, 192.0, 0.0, 0.0, 0.0, 0.0, 0.0, 0.0, 0.0, 0.0, 0.0, 1.695764859737507E9, 0.0, 2023-09-26 16:47:39.737
168.0, 24887.996898650756, 37422.56461650904, 37286.95658289869, -2306.543565576502, -3273.1447545462556, -9956.02577400515, 115049.41315047898, -11291.654263932021, 31620.588197778252, 52617.39225594905, -187500.02235174447, -163949.53148955482, 31575.236508278434, 11652.992564796516, -4123.29335490386, -11270.643624144033, 0.11800000000000001, 1.01, 0.088, 192.0, 0.0, 0.0, 0.0, 0.0, 0.0, 0.0, 0.0, 0.0, 0.0, 1.695764859737529E9, 0.0, 2023-09-26 16:47:39.737
170.0, 24862.15828206042, 37421.290567075084, 37311.6552605218, -2315.081931958429, -3274.1729347911996, -9871.044441586071, 115140.29534343426, -11206.829393724132, 31617.481305298963, 52600.293171440746, -187500.02235174447, -163988.08824874024, 31580.511519969885, 11634.753541320986, -4149.86957906122, -11301.28786579226, 0.11800000000000001, 1.01, 0.088, 192.0, 0.0, 0.0, 0.0, 0.0, 0.0, 0.0, 0.0, 0.0, 0.0, 1.695764859737538E9, 0.0, 2023-09-26 16:47:39.737
172.0, 24898.50221854475, 37421.04469788608, 37287.51537651007, -2303.7719492640435, -3284.164164562722, -9941.20656743128, 115060.99135410684, -11273.906978834508, 31600.136351601646, 52634.84896836865, -187500.02235174447, -163902.36930875413, 31562.67482789455, 11678.02651858646, -4081.4061857946144, -11223.88377474353, 0.11800000000000001, 1.006, 0.08600000000000001, 192.0, 1.5, 88.0, 15.5, 56.0, 1.0, 88.0, 0.0, 0.0, 0.0, 1.69576485973758E9, 0.0, 2023-09-26 16:47:39.737
174.0, 24876.97748863429, 37428.55488402306, 37319.32190886998, -2300.8662224848536, -3265.7910306204594, -9901.822793701029, 115108.48881107436, -11228.84586201261, 31634.35687236272, 52570.02890944826, -187500.02235174447, -163999.97937679046, 31581.763217659383, 11613.161756177158, -4171.193143271583, -11320.420959046001, 0.11800000000000001, 1.006, 0.08600000000000001, 192.0, 0.0, 0.0, 0.0, 0.0, 0.0, 0.0, 0.0, 0.0, 0.0, 1.69576485973759E9, 0.0, 2023-09-26 16:47:39.737
176.0, 24880.330250302584, 37421.73760196419, 37287.89535616581, -2322.6368215843227, -3295.4070920237414, -9913.557459540065, 115089.37806956508, -11238.658277828488, 31607.378316805163, 52641.84506438316, -187500.02235174447, -163903.35278551016, 31569.380351231142, 11675.321957507367, -4085.898886430131, -11229.002324223797, 0.11800000000000001, 1.006, 0.08600000000000001, 192.0, 0.0, 0.0, 0.0, 0.0, 0.0, 0.0, 0.0, 0.0, 0.0, 1.695764859737599E9, 0.0, 2023-09-26 16:47:39.737
178.0, 24869.0202676082, 37422.67637523131, 37304.03331566254, -2319.082894215929, -3273.1224028018005, -9887.629435971909, 115121.96691298092, -11207.187021635416, 31615.82727620927, 52582.63529332105, -187500.02235174447, -163959.88034723763, 31569.08977855322, 11618.570878335344, -4135.296241676359, -11286.42395572948, 0.11800000000000001, 1.006, 0.08600000000000001, 192.0, 0.0, 0.0, 0.0, 0.0, 0.0, 0.0, 0.0, 0.0, 0.0, 1.695764859737608E9, 0.0, 2023-09-26 16:47:39.737
180.0, 24866.74038967376, 37418.04956412906, 37276.36185602687, -2331.1975397107053, -3298.5810397363953, -9899.207639599757, 115104.59960753914, -11219.011094452275, 31603.310299314297, 52635.519520702306, -187500.02235174447, -163878.25177648687, 31567.01106631888, 11674.092611562326, -4068.7550984329105, -11212.104405415585, 0.11800000000000001, 1.006, 0.08600000000000001, 192.0, 0.0, 0.0, 0.0, 0.0, 0.0, 0.0, 0.0, 0.0, 0.0, 1.695764859797104E9, 0.0, 2023-09-26 16:47:39.797
182.0, 24879.45853226883, 37441.585951040506, 37288.58826024392, -2320.7145715611664, -3275.290522013965, -9929.024866703137, 115080.83970318314, -11242.927461019453, 31614.55322677532, 52561.24467387732, -187500.02235174447, -163955.72292276894, 31562.38425521663, 11606.076253184827, -4142.426448157603, -11288.726185408377, 0.122, 1.006, 0.082, 192.0, 1.5, 104.0, 15.5, 56.0, 1.0, 72.0, 0.0, 0.0, 0.0, 1.695764859797131E9, 0.0, 2023-09-26 16:47:39.797
184.0, 24883.392439292962, 37423.99512815418, 37277.85942290538, -2328.7388478206217, -3288.969789620613, -9945.498102366699, 115059.13615931704, -11265.837999086143, 31616.721345987484, 52604.74116858735, -187500.02235174447, -163925.97275089895, 31582.63493569314, 11641.481416402034, -4124.0756659597955, -11267.402621198014, 0.122, 1.006, 0.082, 192.0, 0.0, 0.0, 0.0, 0.0, 0.0, 0.0, 0.0, 0.0, 0.0, 1.695764859797142E9, 0.0, 2023-09-26 16:47:39.797
186.0, 24874.563500233115, 37429.29249159009, 37292.07513237895, -2329.208234454183, -3274.709376658127, -9934.63515456142, 115072.32368854567, -11248.403638411002, 31609.76995346188, 52571.68293853795, -187500.02235174447, -163978.2534811799, 31563.881822095136, 11593.648683267676, -4167.482753692002, -11318.789281700765, 0.122, 1.006, 0.082, 192.0, 0.0, 0.0, 0.0, 0.0, 0.0, 0.0, 0.0, 0.0, 0.0, 1.695764859797151E9, 0.0, 2023-09-26 16:47:39.797
188.0, 24886.521683516705, 37426.20795085525, 37292.879795179346, -2332.471589144658, -3281.2807895279875, -9923.079302678027, 115076.92814790347, -11245.632022098545, 31603.466761525484, 52634.89367185756, -187500.02235174447, -163900.82703838672, 31574.990639089425, 11657.977003810049, -4096.203040624027, -11241.18402495194, 0.122, 1.006, 0.082, 192.0, 0.0, 0.0, 0.0, 0.0, 0.0, 0.0, 0.0, 0.0, 0.0, 1.695764859797164E9, 0.0, 2023-09-26 16:47:39.797
190.0, 24886.49933177225, 37412.95336639325, 37298.37832431535, -2325.2072721966833, -3261.8571235963254, -9962.887759552928, 115037.47731893985, -11276.768002124787, 31625.751450747426, 52567.011423946795, -187500.02235174447, -163977.24765267942, 31572.37548498815, 11590.072404154827, -4170.544942682379, -11319.079854378684, 0.122, 1.006, 0.082, 192.0, 0.0, 0.0, 0.0, 0.0, 0.0, 0.0, 0.0, 0.0, 0.0, 1.695764859797173E9, 0.0, 2023-09-26 16:47:39.797
192.0, 24891.819046952613, 37413.62391872692, 37297.59601325941, -2328.694144331711, -3273.7929551354596, -9939.172558685847, 115058.46560698339, -11261.568815895178, 31610.39580230663, 52618.532194916275, -187500.02235174447, -163930.8454311902, 31587.328802028755, 11640.497939645998, -4128.546014850857, -11279.226694014871, 0.12, 1.002, 0.09, 192.0, 1.5, 96.0, 15.5, 40.0, 1.0, 104.0, 0.0, 0.0, 0.0, 1.695764859797182E9, 0.0, 2023-09-26 16:47:39.797
194.0, 24885.337041060575, 37446.525686565124, 37297.1042748814, -2317.540623848513, -3271.5130772010184, -9969.25800672269, 115028.78249034674, -11275.940987579941, 31612.094534885233, 52580.86950550908, -187500.02235174447, -163971.72677179895, 31568.374522730654, 11598.29784611438, -4170.343776982281, -11327.484110293879, 0.12, 1.002, 0.09, 192.0, 0.0, 0.0, 0.0, 0.0, 0.0, 0.0, 0.0, 0.0, 0.0, 1.695764859797226E9, 0.0, 2023-09-26 16:47:39.797
196.0, 24879.324421802095, 37427.83962820049, 37302.580452272945, -2325.766065808066, -3289.327417531898, -9905.689645491797, 115089.93686317645, -11219.569888063657, 31609.54643601733, 52631.78677937827, -187500.02235174447, -163919.55780024026, 31586.14415957262, 11648.432808927633, -4121.438160114069, -11276.94681608043, 0.12, 1.002, 0.09, 192.0, 0.0, 0.0, 0.0, 0.0, 0.0, 0.0, 0.0, 0.0, 0.0, 1.695764859857414E9, 0.0, 2023-09-26 16:47:39.857
198.0, 24891.506122530238, 37436.0874219045, 37297.484254537136, -2305.4483300981915, -3275.0446528249568, -9963.893588053417, 115027.88842056852, -11266.79912409772, 31610.284043584354, 52592.96179925941, -187500.02235174447, -163942.15541388458, 31562.51836568336, 11611.4406718541, -4147.947329038064, -11299.343264024648, 0.12, 1.002, 0.09, 192.0, 0.0, 0.0, 0.0, 0.0, 0.0, 0.0, 0.0, 0.0, 0.0, 1.695764859857437E9, 0.0, 2023-09-26 16:47:39.857
200.0, 24893.40602080894, 37429.49365729018, 37312.54933030002, -2302.989638208108, -3274.1282313022894, -9913.110424650959, 115078.89510141553, -11222.766187520765, 31611.155761618113, 52626.66822989801, -187500.02235174447, -163925.41395728756, 31588.02170610687, 11636.787550066418, -4131.071761974306, -11282.668862660988, 0.12, 1.002, 0.09, 192.0, 0.0, 0.0, 0.0, 0.0, 0.0, 0.0, 0.0, 0.0, 0.0, 1.695764859857447E9, 0.0, 2023-09-26 16:47:39.857
202.0, 24901.340890090574, 37442.79294524109, 37301.61932726137, -2295.3229898599375, -3267.6462254102503, -9971.359070701488, 115014.65618785098, -11269.23546424335, 31619.962348933503, 52602.64010460855, -187500.02235174447, -163941.3954545731, 31572.86722336617, 11611.284209642912, -4154.831666330298, -11304.327703038181, 0.116, 1.004, 0.096, 192.0, 1.5, 80.0, 15.5, 48.0, 1.5, 0.0, 0.0, 0.0, 0.0, 1.695764859857456E9, 0.0, 2023-09-26 16:47:39.857
204.0, 24875.412866522416, 37444.49167781969, 37310.51532155458, -2320.200481438694, -3277.5703999484062, -9884.455488259255, 115106.79007849576, -11185.550533002679, 31607.892406927636, 52637.821750381205, -187500.02235174447, -163912.69581469247, 31586.367677017177, 11645.772951337452, -4124.254479915438, -11269.637795643544, 0.116, 1.004, 0.096, 192.0, 0.0, 0.0, 0.0, 0.0, 0.0, 0.0, 0.0, 0.0, 0.0, 1.695764859857466E9, 0.0, 2023-09-26 16:47:39.857
206.0, 24895.44002955437, 37452.98534071271, 37283.715579952666, -2307.6835045437224, -3274.776431891493, -9982.534942929142, 115000.66399582196, -11272.23059800036, 31611.3122238293, 52620.342686217155, -187500.02235174447, -163909.56657046874, 31559.143252270613, 11625.745788305496, -4133.776323053399, -11269.74955436582, 0.116, 1.004, 0.096, 192.0, 0.0, 0.0, 0.0, 0.0, 0.0, 0.0, 0.0, 0.0, 0.0, 1.695764859857475E9, 0.0, 2023-09-26 16:47:39.857
208.0, 24882.386610792473, 37449.811393000055, 37306.782580230545, -2310.8351005119207, -3267.847391110348, -9924.286296878612, 115061.88542388505, -11220.642771797511, 31623.315110601798, 52617.07933152668, -187500.02235174447, -163951.0514081778, 31582.456121737498, 11616.603924823276, -4168.801506614865, -11307.412243773013, 0.116, 1.004, 0.096, 192.0, 0.0, 0.0, 0.0, 0.0, 0.0, 0.0, 0.0, 0.0, 0.0, 1.695764859857484E9, 0.0, 2023-09-26 16:47:39.857
210.0, 24884.264157326717, 37440.60247428447, 37274.66312344827, -2322.7485803065993, -3279.3138360159205, -9993.3084837566, 114987.74468752679, -11278.332624236658, 31615.514351786896, 52622.376694962586, -187500.02235174447, -163929.81725094526, 31564.284153495333, 11620.716645803053, -4158.095021020773, -11292.57068545469, 0.116, 1.004, 0.096, 192.0, 0.0, 0.0, 0.0, 0.0, 0.0, 0.0, 0.0, 0.0, 0.0, 1.695764859917682E9, 0.0, 2023-09-26 16:47:39.917
212.0, 24859.833700637068, 37429.27013984563, 37296.38901905883, -2338.014821769574, -3266.774507376493, -9924.95684921227, 115064.2100053084, -11209.958637947875, 31612.809790707804, 52611.64785762404, -187500.02235174447, -163956.63934429162, 31582.97021185997, 11611.083043942815, -4175.596436929278, -11316.218831088405, 0.11800000000000001, 0.998, 0.096, 192.0, 1.5, 88.0, 15.5, 24.0, 1.5, 0.0, 0.0, 0.0, 0.0, 1.695764859917707E9, 0.0, 2023-09-26 16:47:39.917
214.0, 24866.963907118312, 37418.96598565173, 37270.55040246849, -2344.7203451061664, -3278.196248793155, -9984.725413885762, 114994.7407835413, -11265.23450198585, 31599.957537646, 52627.830520609685, -187500.02235174447, -163908.56074196825, 31560.68552263803, 11627.131596461726, -4141.085343490284, -11275.203380012916, 0.11800000000000001, 0.998, 0.096, 192.0, 0.0, 0.0, 0.0, 0.0, 0.0, 0.0, 0.0, 0.0, 0.0, 1.695764859917717E9, 0.0, 2023-09-26 16:47:39.917
216.0, 24862.717075671804, 37442.45766907426, 37301.01583016108, -2334.147969978806, -3265.4110509647194, -9930.500081837188, 115051.33540050214, -11213.132585660529, 31616.34136633174, 52595.12991847157, -187500.02235174447, -163961.5567280718, 31580.48916822543, 11594.788622234897, -4185.028873089418, -11325.42774980399, 0.11800000000000001, 0.998, 0.096, 192.0, 0.0, 0.0, 0.0, 0.0, 0.0, 0.0, 0.0, 0.0, 0.0, 1.695764859917759E9, 0.0, 2023-09-26 16:47:39.917
218.0, 24883.459494526327, 37434.52279979263, 37278.08294034993, -2324.536719863024, -3283.4712604846077, -9993.979036090259, 114976.34529785458, -11270.442458443935, 31611.558093018306, 52627.495244442856, -187500.02235174447, -163906.57143671173, 31566.87695585215, 11629.97026800755, -4146.047430759362, -11276.499781191324, 0.11800000000000001, 0.998, 0.096, 192.0, 0.0, 0.0, 0.0, 0.0, 0.0, 0.0, 0.0, 0.0, 0.0, 1.695764859917768E9, 0.0, 2023-09-26 16:47:39.917
220.0, 24883.146570103952, 37450.01255870015, 37314.00219368961, -2301.31325737396, -3268.6073504218284, -9963.692422353319, 115007.146001714, -11238.881795273042, 31635.094479929747, 52579.28253165276, -187500.02235174447, -163986.72479232846, 31575.191804789523, 11585.132668630204, -4216.008390904473, -11351.15460767205, 0.11800000000000001, 0.998, 0.096, 192.0, 0.0, 0.0, 0.0, 0.0, 0.0, 0.0, 0.0, 0.0, 0.0, 1.695764859917777E9, 0.0, 2023-09-26 16:47:39.917
222.0, 24887.102828872543, 37452.493602334696, 37291.2034143452, -2303.369617863848, -3282.0854523283783, -10000.55044896012, 114958.59801275707, -11274.599882912622, 31629.707709516017, 52624.99184906386, -187500.02235174447, -163937.12627138215, 31577.96342110198, 11632.741884320008, -4181.452593976569, -11309.490956007357, 0.114, 1.004, 0.09, 192.0, 1.5, 72.0, 15.5, 48.0, 1.0, 104.0, 0.0, 0.0, 0.0, 1.695764859917786E9, 0.0, 2023-09-26 16:47:39.917
224.0, 24866.427465251385, 37448.26912263264, 37312.795199489025, -2308.0634841994624, -3261.4324404516747, -9952.628308847941, 115010.20819070438, -11222.766187520765, 31621.25875011191, 52595.2640289383, -187500.02235174447, -163984.40021090512, 31576.53290945684, 11601.427090338122, -4217.863585694264, -11353.255671650848, 0.114, 1.004, 0.09, 192.0, 0.0, 0.0, 0.0, 0.0, 0.0, 0.0, 0.0, 0.0, 0.0, 1.695764859917796E9, 0.0, 2023-09-26 16:47:39.917
226.0, 24880.35260204704, 37436.42269807133, 37295.0032109026, -2312.734998790622, -3275.625798180795, -9968.565102644576, 114984.68249853642, -11243.821530797664, 31613.390936063643, 52647.65651794154, -187500.02235174447, -163906.14675356707, 31571.21319427648, 11657.194692754114, -4153.15528549615, -11280.23252251536, 0.114, 1.004, 0.09, 192.0, 0.0, 0.0, 0.0, 0.0, 0.0, 0.0, 0.0, 0.0, 0.0, 1.695764859978008E9, 0.0, 2023-09-26 16:47:39.978
228.0, 24885.269985827206, 37457.61215181496, 37319.18779840324, -2296.1276526603287, -3256.448001438141, -9933.897546994394, 115023.88745831103, -11205.242419867805, 31625.68439551406, 52598.63914235105, -187500.02235174447, -163968.5975275752, 31572.107264054688, 11606.97032296304, -4205.346608799292, -11339.978735444396, 0.114, 1.004, 0.09, 192.0, 0.0, 0.0, 0.0, 0.0, 0.0, 0.0, 0.0, 0.0, 0.0, 1.695764859978029E9, 0.0, 2023-09-26 16:47:39.978
230.0, 24906.101811659555, 37465.211744929766, 37305.9555656857, -2292.0372834250074, -3272.8541818683366, -9933.361105127467, 115013.62800760604, -11211.567963548656, 31621.996357678934, 52666.18611409499, -187500.02235174447, -163879.16819800952, 31581.696162426015, 11678.339443008834, -4125.416770627114, -11254.505664647302, 0.114, 1.004, 0.09, 192.0, 0.0, 0.0, 0.0, 0.0, 0.0, 0.0, 0.0, 0.0, 0.0, 1.695764859978039E9, 0.0, 2023-09-26 16:47:39.978
232.0, 24901.0279656682, 37480.5450416261, 37315.18683614574, -2290.606771779868, -3253.810495592415, -9953.857654792984, 114995.56779808615, -11228.532937590235, 31630.15474440512, 52603.95885753141, -187500.02235174447, -163949.93382095502, 31570.989676831923, 11622.25891617047, -4189.186297558105, -11327.305296338236, 0.122, 1.004, 0.088, 192.0, 1.5, 104.0, 15.5, 48.0, 1.0, 96.0, 0.0, 0.0, 0.0, 1.695764859978048E9, 0.0, 2023-09-26 16:47:39.978
234.0, 24887.281642828184, 37449.967855211245, 37296.791350459025, -2319.4181703827585, -3282.264266284021, -9939.641945319408, 114999.23348417682, -11224.487271843824, 31612.45216279652, 52655.56903547872, -187500.02235174447, -163889.15942778104, 31585.853586894704, 11666.78359112544, -4140.213625456528, -11275.561007924201, 0.122, 1.004, 0.088, 192.0, 0.0, 0.0, 0.0, 0.0, 0.0, 0.0, 0.0, 0.0, 0.0, 1.695764859978057E9, 0.0, 2023-09-26 16:47:39.978
236.0, 24882.431314281384, 37444.69284351979, 37308.391905831326, -2310.9468592341973, -3252.8940740697476, -9986.31238774209, 114951.5348615092, -11263.535769407246, 31627.628997281674, 52584.132860199556, -187500.02235174447, -163963.43427460603, 31568.039246563825, 11593.20164837857, -4209.682847223621, -11354.641479807076, 0.122, 1.004, 0.088, 192.0, 0.0, 0.0, 0.0, 0.0, 0.0, 0.0, 0.0, 0.0, 0.0, 1.695764859978066E9, 0.0, 2023-09-26 16:47:39.978
238.0, 24833.838621835544, 37406.38195352339, 37295.15967311378, -2337.143103735817, -3277.2127720371213, -9953.991765259716, 114978.62517578903, -11237.652449328, 31588.468740995973, 52624.053075796735, -187500.02235174447, -163923.4917072644, 31576.756426901393, 11637.771026822451, -4171.059032804851, -11312.799014186743, 0.122, 1.004, 0.088, 192.0, 0.0, 0.0, 0.0, 0.0, 0.0, 0.0, 0.0, 0.0, 0.0, 1.695764859978108E9, 0.0, 2023-09-26 16:47:39.978
240.0, 24808.04470873412, 37381.48211020018, 37290.488158522625, -2330.9963740106077, -3271.043690567457, -9984.010158063193, 114951.84778593158, -11255.980879781351, 31571.123787298657, 52570.87827573756, -187500.02235174447, -163968.64223106412, 31545.48633640842, 11587.569008775832, -4211.850966435786, -11355.647308307565, 0.122, 1.004, 0.088, 192.0, 0.0, 0.0, 0.0, 0.0, 0.0, 0.0, 0.0, 0.0, 0.0, 1.695764860037382E9, 0.0, 2023-09-26 16:47:40.037
242.0, 24768.683286748324, 37346.94866501673, 37282.82151017446, -2346.597891640412, -3296.0552926129453, -9926.20854690177, 115010.14113547101, -11204.750681489788, 31539.808993316772, 52620.3203344727, -187500.02235174447, -163898.681270919, 31559.903211582092, 11649.081009516836, -4145.756858081443, -11284.099374306128, 0.126, 1.006, 0.08600000000000001, 192.0, 1.5, 120.0, 15.5, 56.0, 1.0, 88.0, 0.0, 0.0, 0.0, 1.695764860037411E9, 0.0, 2023-09-26 16:47:40.037
244.0, 24752.120644106944, 37340.08667946896, 37277.45709150518, -2321.5862895949235, -3270.8872283562696, -10009.714664186797, 114924.89158211846, -11281.551275438223, 31532.81289730226, 52541.3516213121, -187500.02235174447, -163957.444007092, 31540.09956599469, 11585.467944797034, -4212.365056558258, -11345.656078536043, 0.126, 1.006, 0.08600000000000001, 192.0, 0.0, 0.0, 0.0, 0.0, 0.0, 0.0, 0.0, 0.0, 0.0, 1.695764860037421E9, 0.0, 2023-09-26 16:47:40.037
246.0, 24713.94386457728, 37302.89337669532, 37284.16261484178, -2334.527949634546, -3278.4421179821634, -9977.081117282047, 114953.61357374354, -11267.983766553853, 31512.62927205912, 52557.24371161982, -187500.02235174447, -163961.37791411614, 31560.28319123783, 11610.34543637579, -4221.1045886402835, -11347.824197748208, 0.126, 1.006, 0.08600000000000001, 192.0, 0.0, 0.0, 0.0, 0.0, 0.0, 0.0, 0.0, 0.0, 0.0, 1.69576486003743E9, 0.0, 2023-09-26 16:47:40.037
248.0, 24687.077067742, 37264.783652399026, 37267.51056522257, -2344.0944962614176, -3282.3089697729315, -10012.039245610147, 114912.35225347904, -11305.042958860751, 31495.463132317444, 52519.42456000144, -187500.02235174447, -163980.3098416698, 31538.601999116185, 11584.283302340902, -4246.272652896959, -11364.096267711671, 0.126, 1.006, 0.08600000000000001, 192.0, 0.0, 0.0, 0.0, 0.0, 0.0, 0.0, 0.0, 0.0, 0.0, 1.69576486003744E9, 0.0, 2023-09-26 16:47:40.037
250.0, 24667.36282913242, 37231.03251827151, 37269.14224256781, -2353.3257667214593, -3283.873591884803, -9956.562215872076, 114969.55036754017, -11269.190760754438, 31477.13470186409, 52532.9473653969, -187500.02235174447, -163954.71709426848, 31551.118976011156, 11616.514517845455, -4218.332972327826, -11327.305296338236, 0.126, 1.006, 0.08600000000000001, 192.0, 0.0, 0.0, 0.0, 0.0, 0.0, 0.0, 0.0, 0.0, 0.0, 1.695764860037449E9, 0.0, 2023-09-26 16:47:40.037
